Data from 0018_chest_Reflection__0__81.txt Node

Date: Mon Oct 17 15:05:52 CDT 2022
User: ToomeyLab
Spectrometer: FLMS14357
Trigger mode: 0
Integration Time (sec): 1.000000E-2
Scans to average: 100
Electric dark correction enabled: true
Nonlinearity correction enabled: false
Boxcar width: 0
XAxis mode: Wavelengths
Number of Pixels in Spectrum: 2048
>>>>>Begin Spectral Data<<<<<
189.047	-258.78
189.435	-258.78
189.823	-258.78
190.211	-186.68
190.599	285.41
190.987	110.78
191.375	36.47
191.763	-17.52
192.151	211.66
192.538	-104.42
192.926	74.16
193.314	702.76
193.702	-15.31
194.089	111.57
194.477	215.93
194.864	-1227.23
195.252	117.68
195.639	581.39
196.027	123.89
196.414	66.73
196.801	14.49
197.189	45.66
197.576	112.22
197.963	-275.61
198.351	-699.64
198.738	-8.4
199.125	-33.2
199.512	-82.92
199.899	-32.54
200.286	-15.85
200.673	-37.94
201.06	-48.71
201.447	-16.92
201.833	27.38
202.22	17.21
202.607	-6.33
202.994	9.96
203.38	30.25
203.767	26.79
204.154	21.82
204.54	-64.48
204.927	-2.92
205.313	8.31
205.699	-0.42
206.086	-28.04
206.472	9.05
206.858	2.74
207.245	15.25
207.631	21.61
208.017	14.8
208.403	18.12
208.789	24.58
209.175	14.9
209.561	-123.66
209.947	-71.9
210.333	29.79
210.719	-4.65
211.105	-24.48
211.491	-4.08
211.876	-46.65
212.262	13.51
212.648	-14.1
213.034	-47.18
213.419	9.94
213.805	-31.8
214.19	11.41
214.576	2.72
214.961	-32.39
215.346	-58.48
215.732	-11.38
216.117	-28.41
216.502	16.43
216.888	27.26
217.273	-7.64
217.658	35.52
218.043	14.41
218.428	-22.47
218.813	8.97
219.198	2.87
219.583	-1.06
219.968	-11.71
220.353	-13.22
220.738	-22.42
221.122	-12.29
221.507	-2.36
221.892	10.18
222.276	-2.39
222.661	-12.25
223.046	12.93
223.43	8.99
223.815	-13.53
224.199	-2.41
224.583	-13.24
224.968	-11.58
225.352	-22.03
225.736	9.66
226.121	-4.65
226.505	-7.95
226.889	1.24
227.273	4.95
227.657	5.43
228.041	4.79
228.425	3.11
228.809	1.26
229.193	-0.44
229.577	2.6
229.961	3.51
230.344	1.16
230.728	2.45
231.112	2.61
231.495	2.75
231.879	2.21
232.263	2.99
232.646	2.89
233.03	2.3
233.413	-0.76
233.797	2.27
234.18	3.58
234.563	2.52
234.946	4.36
235.33	2.58
235.713	0.13
236.096	3.22
236.479	2.82
236.862	3.83
237.245	2.92
237.628	1.53
238.011	1.95
238.394	3.13
238.777	2.7
239.16	2.18
239.543	3.88
239.925	2.23
240.308	2.02
240.691	0.81
241.073	2.6
241.456	1.73
241.838	2.16
242.221	1.68
242.603	3.15
242.986	1.87
243.368	2.58
243.75	2.59
244.133	2.71
244.515	2.92
244.897	3.18
245.279	2.82
245.661	3
246.043	3.01
246.425	1.9
246.807	2.16
247.189	3.01
247.571	2.77
247.953	2.84
248.335	2.68
248.717	3.05
249.098	2.96
249.48	2.76
249.862	2.67
250.243	2.56
250.625	3.08
251.006	2.56
251.388	2.58
251.769	2.76
252.151	2.98
252.532	2.4
252.913	3.4
253.295	2.06
253.676	3.03
254.057	3.39
254.438	3.02
254.819	4.19
255.2	2.9
255.581	3.34
255.962	2.23
256.343	2.26
256.724	3.53
257.105	2.54
257.486	0.96
257.867	2.54
258.247	2.39
258.628	3.67
259.009	2.84
259.389	2.25
259.77	2.91
260.15	2.59
260.531	2.84
260.911	3.07
261.292	3.09
261.672	2.8
262.052	3.03
262.432	2.75
262.813	2.8
263.193	2.7
263.573	3.53
263.953	2.23
264.333	2.63
264.713	2.01
265.093	3.02
265.473	2.75
265.853	2.8
266.233	3.85
266.612	2.81
266.992	3.67
267.372	2.34
267.752	3.16
268.131	3.37
268.511	2.64
268.89	3.16
269.27	2.45
269.649	3.14
270.029	2.9
270.408	2.98
270.787	2.6
271.167	2.4
271.546	2.65
271.925	2.46
272.304	2.77
272.683	2.96
273.062	2.64
273.441	2.82
273.82	2.55
274.199	3.2
274.578	2.99
274.957	2.73
275.336	3
275.715	2.59
276.093	2.54
276.472	2.28
276.851	3.45
277.229	2.17
277.608	2.28
277.986	2.3
278.365	2.63
278.743	2.54
279.122	2.53
279.5	2.46
279.878	3.12
280.257	3.13
280.635	2.64
281.013	2.39
281.391	2.58
281.769	2.49
282.147	3.4
282.525	2.5
282.903	2.04
283.281	2.81
283.659	2.55
284.037	2.65
284.415	2.95
284.792	2.75
285.17	2.39
285.548	2.11
285.925	2.65
286.303	2.53
286.68	2.72
287.058	3.25
287.435	2.58
287.813	2.84
288.19	2.85
288.567	2.66
288.945	2.79
289.322	3.59
289.699	3.12
290.076	2.82
290.453	2.46
290.83	2.6
291.207	2.89
291.584	2.59
291.961	2.81
292.338	3.21
292.715	3.07
293.092	2.91
293.469	3.11
293.845	2.67
294.222	3.41
294.599	3.21
294.975	2.72
295.352	2.53
295.728	3.29
296.105	3.06
296.481	2.78
296.858	3.35
297.234	2.97
297.61	3.01
297.986	3.1
298.363	3.15
298.739	3.4
299.115	3.02
299.491	3.3
299.867	3.33
300.243	3.4
300.619	2.92
300.995	3
301.371	3.22
301.746	3.19
302.122	3.23
302.498	3.17
302.874	3.48
303.249	3.56
303.625	3.52
304	3.43
304.376	3.21
304.751	3.52
305.127	3.96
305.502	3.51
305.878	3.97
306.253	3.3
306.628	3.56
307.003	3.42
307.378	3.53
307.754	3.36
308.129	3.03
308.504	3.06
308.879	3.61
309.254	4.12
309.629	3.7
310.003	3.44
310.378	3.52
310.753	3.23
311.128	3.9
311.502	3.5
311.877	3.66
312.252	3.42
312.626	3.27
313.001	3.47
313.375	3.14
313.75	3.67
314.124	3.8
314.498	3.7
314.873	3.26
315.247	3.64
315.621	4.2
315.995	3.21
316.369	3.65
316.743	3.67
317.117	4.07
317.491	3.5
317.865	4.09
318.239	3.86
318.613	3.6
318.987	3.63
319.361	3.78
319.734	4.29
320.108	3.46
320.482	3.58
320.855	3.31
321.229	3.49
321.602	3.38
321.976	3.32
322.349	3.69
322.723	4.03
323.096	3.73
323.469	3.78
323.843	3.4
324.216	4.26
324.589	3.6
324.962	3.42
325.335	3.38
325.708	3.93
326.081	3.81
326.454	3.7
326.827	3.53
327.2	3.63
327.573	3.66
327.945	3.87
328.318	4.04
328.691	3.78
329.063	3.53
329.436	3.76
329.809	3.39
330.181	4.29
330.553	3.52
330.926	4.08
331.298	4.01
331.671	3.82
332.043	3.95
332.415	4.68
332.787	3.93
333.159	4.26
333.532	3.3
333.904	3.45
334.276	3.73
334.648	3.79
335.02	3.68
335.391	3.82
335.763	3.99
336.135	3.39
336.507	4.27
336.879	3.95
337.25	4.45
337.622	3.98
337.993	3.59
338.365	3.55
338.736	3.72
339.108	3.62
339.479	3.73
339.851	4.07
340.222	4.16
340.593	4.06
340.964	3.82
341.336	3.81
341.707	4.02
342.078	4.33
342.449	4.13
342.82	4.28
343.191	3.92
343.562	3.86
343.933	4.24
344.303	3.55
344.674	4.62
345.045	4.12
345.416	4.21
345.786	3.95
346.157	3.73
346.527	3.64
346.898	4.41
347.268	3.76
347.639	3.94
348.009	3.78
348.38	4.28
348.75	3.72
349.12	3.87
349.49	3.96
349.861	3.82
350.231	3.98
350.601	4.22
350.971	4.09
351.341	3.72
351.711	3.86
352.081	4.3
352.45	4.42
352.82	4.02
353.19	3.7
353.56	3.82
353.929	3.67
354.299	3.8
354.669	4.24
355.038	4.61
355.408	4.46
355.777	3.8
356.147	4.46
356.516	4.24
356.885	4.06
357.254	4.21
357.624	4.33
357.993	3.92
358.362	4.05
358.731	3.77
359.1	3.91
359.469	4.23
359.838	4.33
360.207	4.33
360.576	4.05
360.945	4.22
361.314	4.17
361.682	4.24
362.051	4
362.42	4.06
362.788	4.14
363.157	4.21
363.525	4.11
363.894	4.2
364.262	4.27
364.631	4.39
364.999	4.28
365.367	3.81
365.735	4.23
366.104	3.97
366.472	4
366.84	4.16
367.208	4.5
367.576	4.06
367.944	4.05
368.312	4.39
368.68	4.49
369.048	4.2
369.416	4.24
369.783	4.28
370.151	4.22
370.519	4.33
370.886	4.22
371.254	4.14
371.621	3.98
371.989	4.38
372.356	4.28
372.724	4.41
373.091	4.3
373.458	4
373.826	4.38
374.193	4.26
374.56	4.19
374.927	4.34
375.294	4.38
375.661	4.25
376.028	4.4
376.395	4.29
376.762	4.66
377.129	4.21
377.496	4.03
377.863	3.81
378.229	4.24
378.596	4.21
378.963	4.16
379.329	4.32
379.696	4.19
380.062	4.67
380.429	4.27
380.795	4.69
381.161	4.33
381.528	4.2
381.894	4.12
382.26	4.37
382.626	4.59
382.993	4.55
383.359	4.42
383.725	4.04
384.091	4.27
384.457	4.44
384.823	4.1
385.188	4.01
385.554	4.44
385.92	4.51
386.286	4.46
386.651	4.37
387.017	4.19
387.383	4.42
387.748	4.46
388.114	4.33
388.479	4.53
388.845	4.66
389.21	4.23
389.575	4.29
389.94	4.42
390.306	4.6
390.671	4.55
391.036	4.47
391.401	4.26
391.766	4.6
392.131	4.68
392.496	4.67
392.861	4.25
393.226	4.44
393.591	4.41
393.956	4.33
394.32	4.51
394.685	4.56
395.05	4.48
395.414	4.75
395.779	4.54
396.143	4.43
396.508	4.58
396.872	4.44
397.236	4.54
397.601	4.64
397.965	4.31
398.329	4.66
398.694	4.65
399.058	4.27
399.422	4.48
399.786	4.59
400.15	4.52
400.514	4.39
400.878	4.54
401.242	4.42
401.605	4.77
401.969	4.58
402.333	4.52
402.697	4.62
403.06	4.33
403.424	4.69
403.787	4.41
404.151	4.64
404.514	4.62
404.878	4.89
405.241	4.54
405.604	4.79
405.968	4.65
406.331	4.65
406.694	4.5
407.057	4.61
407.42	4.64
407.783	4.68
408.146	4.73
408.509	4.73
408.872	4.33
409.235	4.58
409.598	4.72
409.961	4.27
410.323	4.68
410.686	4.72
411.049	4.42
411.411	4.62
411.774	4.58
412.136	4.65
412.499	4.8
412.861	4.57
413.223	4.77
413.586	4.72
413.948	4.8
414.31	4.61
414.672	4.58
415.035	4.8
415.397	4.84
415.759	4.81
416.121	4.55
416.483	4.75
416.845	4.93
417.206	4.5
417.568	4.94
417.93	4.79
418.292	4.8
418.653	4.54
419.015	4.59
419.377	4.75
419.738	4.56
420.1	4.9
420.461	4.6
420.822	4.74
421.184	4.64
421.545	4.65
421.906	4.62
422.267	4.67
422.629	4.56
422.99	4.62
423.351	4.69
423.712	4.75
424.073	4.74
424.434	4.72
424.795	4.73
425.155	4.81
425.516	4.57
425.877	4.62
426.238	4.59
426.598	4.72
426.959	4.73
427.32	4.76
427.68	4.75
428.041	4.73
428.401	4.88
428.761	4.81
429.122	4.83
429.482	4.83
429.842	4.92
430.202	4.93
430.563	4.96
430.923	4.88
431.283	5.06
431.643	4.85
432.003	4.6
432.363	5.01
432.722	4.91
433.082	4.77
433.442	4.99
433.802	4.85
434.161	4.83
434.521	4.79
434.881	4.93
435.24	4.83
435.6	5.06
435.959	4.91
436.319	4.99
436.678	4.9
437.037	4.82
437.396	4.92
437.756	5
438.115	4.74
438.474	4.91
438.833	4.93
439.192	4.8
439.551	4.79
439.91	4.92
440.269	4.91
440.628	4.79
440.987	5
441.345	4.94
441.704	4.96
442.063	4.86
442.421	5
442.78	4.96
443.138	4.87
443.497	4.93
443.855	5.1
444.214	5.02
444.572	5.09
444.93	5.16
445.288	4.85
445.647	4.84
446.005	5.01
446.363	5.17
446.721	4.96
447.079	5
447.437	4.86
447.795	4.98
448.153	5.02
448.51	4.9
448.868	4.96
449.226	4.91
449.584	5.07
449.941	5.02
450.299	5.13
450.656	4.95
451.014	5.01
451.371	5.22
451.729	5.12
452.086	5.09
452.443	5.25
452.801	5.2
453.158	5.1
453.515	5.01
453.872	5.03
454.229	5.22
454.586	5.02
454.943	5.07
455.3	5.3
455.657	5.22
456.014	5.07
456.371	4.98
456.727	5.14
457.084	5.1
457.441	5.23
457.797	5.17
458.154	5.25
458.51	5.18
458.867	5.18
459.223	5.16
459.58	5.21
459.936	5.16
460.292	5.31
460.648	5.19
461.005	5.18
461.361	5.09
461.717	5.12
462.073	5.05
462.429	5.15
462.785	5.24
463.141	5.44
463.496	5.2
463.852	5.29
464.208	5.43
464.564	5.27
464.919	5.33
465.275	5.25
465.631	5.55
465.986	5.32
466.342	5.34
466.697	5.22
467.052	5.41
467.408	5.2
467.763	5.09
468.118	5.37
468.473	5.38
468.829	5.49
469.184	5.39
469.539	5.35
469.894	5.32
470.249	5.45
470.603	5.39
470.958	5.39
471.313	5.33
471.668	5.39
472.023	5.2
472.377	5.54
472.732	5.41
473.086	5.5
473.441	5.44
473.795	5.45
474.15	5.44
474.504	5.55
474.859	5.56
475.213	5.61
475.567	5.6
475.921	5.39
476.275	5.41
476.63	5.44
476.984	5.45
477.338	5.44
477.692	5.47
478.045	5.66
478.399	5.53
478.753	5.47
479.107	5.54
479.461	5.48
479.814	5.47
480.168	5.44
480.521	5.43
480.875	5.42
481.228	5.5
481.582	5.6
481.935	5.55
482.289	5.51
482.642	5.58
482.995	5.6
483.348	5.59
483.701	5.57
484.055	5.46
484.408	5.43
484.761	5.37
485.114	5.24
485.466	5.19
485.819	5.17
486.172	5.23
486.525	5.35
486.878	5.42
487.23	5.41
487.583	5.54
487.936	5.53
488.288	5.45
488.641	5.39
488.993	5.32
489.345	5.31
489.698	5.37
490.05	5.38
490.402	5.44
490.754	5.49
491.107	5.5
491.459	5.64
491.811	5.71
492.163	5.65
492.515	5.58
492.866	5.51
493.218	5.45
493.57	5.47
493.922	5.58
494.274	5.6
494.625	5.66
494.977	5.74
495.328	5.79
495.68	5.78
496.031	5.85
496.383	5.85
496.734	5.93
497.086	5.68
497.437	5.79
497.788	5.82
498.139	5.73
498.49	5.87
498.842	5.76
499.193	5.68
499.544	5.8
499.894	5.9
500.245	5.87
500.596	5.89
500.947	5.94
501.298	5.99
501.648	5.97
501.999	5.93
502.35	5.97
502.7	6.09
503.051	6.14
503.401	6.13
503.752	6.14
504.102	6.02
504.452	6.02
504.803	6.13
505.153	6.03
505.503	6.24
505.853	5.99
506.203	6
506.553	6.07
506.903	6.03
507.253	6.06
507.603	6.07
507.953	6.27
508.303	6.14
508.652	6.08
509.002	6.2
509.352	5.97
509.701	6.16
510.051	6.17
510.4	5.99
510.75	6.19
511.099	6.16
511.449	6.11
511.798	6.09
512.147	6.14
512.496	6.11
512.846	6.06
513.195	6.22
513.544	6.18
513.893	6.16
514.242	6.23
514.591	6.16
514.939	6.22
515.288	6.16
515.637	6.33
515.986	6.37
516.334	6.41
516.683	6.39
517.032	6.32
517.38	6.28
517.729	6.44
518.077	6.34
518.426	6.31
518.774	6.38
519.122	6.37
519.47	6.34
519.819	6.33
520.167	6.19
520.515	6.27
520.863	6.34
521.211	6.42
521.559	6.47
521.907	6.5
522.255	6.48
522.602	6.55
522.95	6.6
523.298	6.46
523.645	6.57
523.993	6.57
524.341	6.64
524.688	6.63
525.036	6.72
525.383	6.64
525.73	6.64
526.078	6.62
526.425	6.65
526.772	6.54
527.119	6.5
527.466	6.43
527.814	6.44
528.161	6.54
528.508	6.59
528.854	6.58
529.201	6.58
529.548	6.47
529.895	6.45
530.242	6.35
530.588	6.39
530.935	6.44
531.282	6.53
531.628	6.64
531.975	6.7
532.321	6.68
532.667	6.75
533.014	6.83
533.36	6.86
533.706	6.78
534.052	6.85
534.399	6.82
534.745	6.57
535.091	6.67
535.437	6.77
535.783	6.82
536.129	6.85
536.474	6.96
536.82	7.04
537.166	7.11
537.512	7.04
537.857	7.1
538.203	6.91
538.549	6.84
538.894	6.98
539.239	7.14
539.585	7.11
539.93	7.2
540.276	7.18
540.621	7.24
540.966	7.32
541.311	7.14
541.656	7.28
542.001	7.23
542.346	7.23
542.691	7.15
543.036	6.99
543.381	6.98
543.726	7.09
544.071	7.13
544.415	7.26
544.76	7.31
545.105	7.26
545.449	7.38
545.794	7.37
546.138	7.44
546.483	7.52
546.827	7.55
547.171	7.51
547.516	7.6
547.86	7.52
548.204	7.57
548.548	7.5
548.892	7.51
549.236	7.63
549.58	7.68
549.924	7.7
550.268	7.79
550.612	7.69
550.956	8.02
551.3	7.72
551.643	7.97
551.987	7.99
552.33	7.86
552.674	8.17
553.017	8.02
553.361	8
553.704	7.98
554.048	7.88
554.391	7.92
554.734	7.81
555.077	7.9
555.42	8.07
555.764	8.09
556.107	8.08
556.45	8.06
556.793	8.13
557.135	8.32
557.478	8.1
557.821	8.36
558.164	8.16
558.507	8.21
558.849	8.37
559.192	8.05
559.534	8.42
559.877	8.22
560.219	8.17
560.562	8.25
560.904	8.31
561.246	8.29
561.589	8.54
561.931	8.38
562.273	8.57
562.615	8.47
562.957	8.69
563.299	8.46
563.641	8.62
563.983	8.67
564.325	8.8
564.667	8.75
565.008	8.74
565.35	8.64
565.692	8.82
566.033	8.71
566.375	8.66
566.716	8.81
567.058	8.71
567.399	8.72
567.741	8.76
568.082	8.68
568.423	8.74
568.764	8.83
569.105	8.94
569.447	8.71
569.788	9.08
570.129	8.99
570.47	9.07
570.811	9.06
571.151	9.07
571.492	9.27
571.833	9.09
572.174	9.16
572.514	9.19
572.855	9.13
573.195	9.26
573.536	9.15
573.876	9.1
574.217	9.27
574.557	9.15
574.898	9.35
575.238	9.4
575.578	9.39
575.918	9.34
576.258	9.35
576.598	9.22
576.938	9.45
577.278	9.65
577.618	9.54
577.958	9.51
578.298	9.63
578.638	9.66
578.977	9.81
579.317	9.72
579.657	9.8
579.996	9.66
580.336	9.94
580.675	9.96
581.014	9.6
581.354	9.82
581.693	10.02
582.032	9.88
582.372	10.13
582.711	10.06
583.05	10.09
583.389	9.85
583.728	10.01
584.067	10.14
584.406	10.06
584.745	10.35
585.083	10.29
585.422	10.33
585.761	10.2
586.1	10.3
586.438	10.54
586.777	10.48
587.115	10.37
587.454	10.52
587.792	10.52
588.13	10.66
588.469	10.58
588.807	10.52
589.145	10.54
589.483	10.5
589.821	10.6
590.159	10.8
590.497	10.72
590.835	10.71
591.173	10.6
591.511	10.73
591.849	10.69
592.187	10.9
592.524	10.89
592.862	10.78
593.2	10.84
593.537	10.85
593.875	10.86
594.212	11.06
594.55	10.82
594.887	10.89
595.224	11.24
595.561	11.03
595.899	11.28
596.236	11.32
596.573	11.18
596.91	11.24
597.247	11.45
597.584	11.07
597.921	11.27
598.258	11.18
598.594	11.16
598.931	11.08
599.268	11.3
599.604	11.33
599.941	11.41
600.277	11.48
600.614	11.48
600.95	11.63
601.287	11.45
601.623	11.43
601.959	11.63
602.296	11.77
602.632	11.43
602.968	11.81
603.304	11.73
603.64	11.65
603.976	11.73
604.312	11.84
604.648	11.78
604.984	11.89
605.319	11.81
605.655	11.96
605.991	11.99
606.326	11.82
606.662	11.9
606.998	11.9
607.333	12
607.668	12.08
608.004	12.25
608.339	12.27
608.674	12.3
609.01	12.3
609.345	12.59
609.68	12.53
610.015	12.62
610.35	12.08
610.685	12.23
611.02	12.42
611.355	12.36
611.689	12.44
612.024	12.48
612.359	12.4
612.694	12.64
613.028	12.8
613.363	12.93
613.697	12.58
614.032	13.04
614.366	12.94
614.7	12.8
615.035	12.73
615.369	13.16
615.703	12.95
616.037	13.07
616.371	13.35
616.705	13.08
617.039	13.47
617.373	13.13
617.707	13.22
618.041	13.16
618.375	13.05
618.709	13.62
619.042	13.54
619.376	13.48
619.71	13.18
620.043	13.49
620.377	13.66
620.71	13.45
621.043	13.63
621.377	13.62
621.71	13.61
622.043	13.54
622.376	13.61
622.709	13.68
623.043	13.45
623.376	13.38
623.709	13.81
624.041	13.86
624.374	13.77
624.707	13.81
625.04	13.61
625.373	14.17
625.705	13.81
626.038	13.76
626.37	14.07
626.703	14.2
627.035	14.22
627.368	14.02
627.7	14.18
628.032	13.96
628.365	13.85
628.697	14.27
629.029	14.34
629.361	14.35
629.693	14.11
630.025	14.39
630.357	14.26
630.689	13.98
631.021	14.27
631.353	14.39
631.684	14.52
632.016	14.36
632.348	14.95
632.679	14.47
633.011	14.26
633.342	14.58
633.674	14.91
634.005	14.51
634.336	14.57
634.668	14.92
634.999	15.11
635.33	14.64
635.661	15
635.992	14.84
636.323	15.07
636.654	14.83
636.985	14.85
637.316	15.08
637.647	14.75
637.977	14.8
638.308	15.18
638.639	15.06
638.969	14.99
639.3	14.82
639.63	15.6
639.961	15.48
640.291	15.16
640.622	15.43
640.952	15.41
641.282	15.36
641.612	15.54
641.943	15.46
642.273	15.43
642.603	15.39
642.933	15.63
643.263	15.83
643.592	15.38
643.922	15.56
644.252	15.87
644.582	16.23
644.911	16.45
645.241	15.44
645.571	15.74
645.9	15.78
646.23	15.52
646.559	15.91
646.888	16.1
647.218	16.1
647.547	15.77
647.876	15.93
648.205	15.78
648.534	16.4
648.863	15.89
649.192	16.25
649.521	16.19
649.85	15.83
650.179	16.5
650.508	15.89
650.837	16.73
651.165	16.39
651.494	16.02
651.822	16.19
652.151	16.6
652.479	16.39
652.808	16.19
653.136	16.8
653.465	16.52
653.793	16.74
654.121	16.29
654.449	16.89
654.777	16.69
655.105	16.29
655.433	16.65
655.761	16.74
656.089	16.85
656.417	16.89
656.745	16.86
657.073	16.81
657.4	16.56
657.728	16.91
658.056	16.85
658.383	17.49
658.711	16.55
659.038	16.87
659.365	17.25
659.693	16.78
660.02	16.94
660.347	17.41
660.674	16.98
661.001	16.98
661.329	17.21
661.656	17.28
661.982	17.04
662.309	17.59
662.636	17.51
662.963	17.59
663.29	17.42
663.616	17.35
663.943	17.27
664.27	17.38
664.596	17.23
664.923	17.11
665.249	17.92
665.576	17.27
665.902	17.21
666.228	17.8
666.554	17.22
666.881	17.66
667.207	18.12
667.533	18.28
667.859	17.76
668.185	17.75
668.511	17.98
668.837	18.59
669.162	18.1
669.488	17.82
669.814	18.38
670.139	18
670.465	18.64
670.791	18.07
671.116	18.43
671.442	18.12
671.767	17.96
672.092	18.01
672.418	18.53
672.743	18.25
673.068	18.3
673.393	17.74
673.718	17.99
674.043	18.5
674.368	17.98
674.693	19.21
675.018	18.33
675.343	18.97
675.667	18.16
675.992	18.98
676.317	18.84
676.641	18.31
676.966	19.06
677.29	18.94
677.615	18.48
677.939	18.98
678.264	18.45
678.588	18.62
678.912	18.74
679.236	19.25
679.56	18.28
679.885	19.54
680.209	18.95
680.532	19.18
680.856	18.75
681.18	19.04
681.504	19.21
681.828	19.1
682.152	19.17
682.475	19.53
682.799	19.49
683.122	19.22
683.446	19.31
683.769	19.69
684.093	18.91
684.416	19.67
684.739	19.07
685.062	19.66
