Data from 0018_chest_Reflection__1__82.txt Node

Date: Mon Oct 17 15:06:07 CDT 2022
User: ToomeyLab
Spectrometer: FLMS14357
Trigger mode: 0
Integration Time (sec): 1.000000E-2
Scans to average: 100
Electric dark correction enabled: true
Nonlinearity correction enabled: false
Boxcar width: 0
XAxis mode: Wavelengths
Number of Pixels in Spectrum: 2048
>>>>>Begin Spectral Data<<<<<
189.047	192.59
189.435	192.59
189.823	192.59
190.211	197.37
190.599	-144.75
190.987	-110.53
191.375	102.33
191.763	-269.49
192.151	-385.43
192.538	-255.73
192.926	31.97
193.314	298.57
193.702	-36.94
194.089	90.09
194.477	102.4
194.864	1252.58
195.252	303.73
195.639	187.54
196.027	113.06
196.414	111.71
196.801	25.44
197.189	-2.93
197.576	94.1
197.963	-1069.47
198.351	-1259.01
198.738	13.97
199.125	-55.24
199.512	-100.59
199.899	-21.26
200.286	-18.08
200.673	17.94
201.06	-63.92
201.447	19.66
201.833	22.26
202.22	16.34
202.607	-24.36
202.994	2.33
203.38	-31.66
203.767	-4.01
204.154	-8.52
204.54	-33.38
204.927	16.05
205.313	-35.96
205.699	-15.11
206.086	-63.58
206.472	-5.66
206.858	9.71
207.245	5.37
207.631	-17.32
208.017	16.05
208.403	7.26
208.789	19.76
209.175	-18.35
209.561	-64.72
209.947	-84.75
210.333	29.54
210.719	9.19
211.105	-12.23
211.491	-29.94
211.876	-48.19
212.262	11.63
212.648	-34.98
213.034	-67.11
213.419	18.31
213.805	-23.41
214.19	19.45
214.576	21.92
214.961	-13.27
215.346	-32.45
215.732	-1.71
216.117	3.82
216.502	-18.18
216.888	-9.21
217.273	11.43
217.658	5.39
218.043	-40.62
218.428	-11.23
218.813	-9.1
219.198	11.36
219.583	-34.36
219.968	6.14
220.353	-38.3
220.738	-14.78
221.122	-1.38
221.507	-12.82
221.892	-0.22
222.276	-10.59
222.661	-7.78
223.046	0.44
223.43	12.03
223.815	-4.04
224.199	2.67
224.583	-13.57
224.968	-16.46
225.352	-8.78
225.736	-0.09
226.121	-7.82
226.505	-10.69
226.889	-7.58
227.273	4.51
227.657	4.04
228.041	0.23
228.425	0
228.809	-2.96
229.193	-0.43
229.577	1.81
229.961	2.89
230.344	0.19
230.728	0.63
231.112	1.36
231.495	0.8
231.879	1.21
232.263	2.68
232.646	1.61
233.03	0.32
233.413	-2.43
233.797	2.13
234.18	1.46
234.563	-2.35
234.946	-0.56
235.33	-0.01
235.713	-0.04
236.096	2.64
236.479	1.35
236.862	0.96
237.245	0.55
237.628	0.24
238.011	0.05
238.394	1.64
238.777	2.02
239.16	1.25
239.543	-0.73
239.925	1.2
240.308	0.94
240.691	-1.09
241.073	1.78
241.456	-0.44
241.838	0.21
242.221	0.5
242.603	1.31
242.986	-0.01
243.368	1.29
243.75	0.71
244.133	1.37
244.515	1.27
244.897	1.36
245.279	1.46
245.661	1.3
246.043	1.11
246.425	0.38
246.807	0.54
247.189	1.33
247.571	1.39
247.953	1.06
248.335	1.63
248.717	1.65
249.098	1.57
249.48	1.45
249.862	1.37
250.243	1.01
250.625	1.78
251.006	0.52
251.388	1.58
251.769	1.57
252.151	1.56
252.532	1.2
252.913	1.44
253.295	0.19
253.676	1.38
254.057	1.99
254.438	1.26
254.819	1.92
255.2	1.58
255.581	1.67
255.962	0.14
256.343	0.07
256.724	1.45
257.105	1.76
257.486	0.79
257.867	0.14
258.247	0.91
258.628	1.17
259.009	1.4
259.389	0.49
259.77	0.84
260.15	1.47
260.531	1
260.911	1.29
261.292	1.47
261.672	1.41
262.052	1.49
262.432	1.37
262.813	1.14
263.193	1.35
263.573	1.56
263.953	1.57
264.333	1.34
264.713	0.51
265.093	0.96
265.473	1.35
265.853	0.55
266.233	2.49
266.612	0.53
266.992	1.7
267.372	1.47
267.752	1.59
268.131	1.65
268.511	1.19
268.89	1.25
269.27	1
269.649	1.32
270.029	1.36
270.408	1.92
270.787	1.04
271.167	0.82
271.546	0.9
271.925	1.27
272.304	0.97
272.683	1.29
273.062	1.18
273.441	1.32
273.82	1.52
274.199	1.34
274.578	1.18
274.957	0.91
275.336	1.1
275.715	0.69
276.093	0.93
276.472	1.22
276.851	1.55
277.229	0.94
277.608	0.59
277.986	0.97
278.365	1.02
278.743	1.66
279.122	1.58
279.5	1.2
279.878	1.58
280.257	1.09
280.635	1.45
281.013	1.45
281.391	0.35
281.769	1
282.147	1.29
282.525	0.67
282.903	0.71
283.281	1.46
283.659	1.16
284.037	0.98
284.415	1.63
284.792	1.52
285.17	0.56
285.548	0.98
285.925	1.21
286.303	1.25
286.68	1.28
287.058	1.65
287.435	1.07
287.813	1.3
288.19	1.47
288.567	1.14
288.945	1.37
289.322	1.65
289.699	1.19
290.076	1.8
290.453	0.97
290.83	0.99
291.207	1.14
291.584	1.26
291.961	1.15
292.338	1.37
292.715	1.21
293.092	1.28
293.469	0.92
293.845	1.08
294.222	1.47
294.599	2.04
294.975	1.35
295.352	0.98
295.728	0.85
296.105	0.99
296.481	1.12
296.858	1.7
297.234	0.87
297.61	1.1
297.986	1.2
298.363	1.14
298.739	1.76
299.115	1.32
299.491	1.63
299.867	1.37
300.243	1.5
300.619	1.04
300.995	0.75
301.371	1.07
301.746	1.3
302.122	1.43
302.498	1.78
302.874	2.01
303.249	1.65
303.625	1.45
304	1.64
304.376	1.75
304.751	2.05
305.127	1.17
305.502	0.92
305.878	1.34
306.253	1.57
306.628	1.16
307.003	1.32
307.378	1.45
307.754	1.15
308.129	1.65
308.504	1.84
308.879	1.47
309.254	1.4
309.629	0.91
310.003	2.06
310.378	1.49
310.753	1.26
311.128	1.54
311.502	1.39
311.877	1.6
312.252	1.51
312.626	1.57
313.001	0.9
313.375	1.28
313.75	1.57
314.124	1.59
314.498	1.55
314.873	1.5
315.247	1.02
315.621	2.51
315.995	1.3
316.369	1.14
316.743	1.39
317.117	1.68
317.491	1.31
317.865	2.26
318.239	2.05
318.613	1.37
318.987	1.06
319.361	1.23
319.734	1.35
320.108	1.95
320.482	1.45
320.855	1.12
321.229	1.02
321.602	1.49
321.976	1.22
322.349	1.39
322.723	1.28
323.096	1.82
323.469	1.15
323.843	1.07
324.216	1.37
324.589	1.09
324.962	1.12
325.335	1.05
325.708	1.68
326.081	1.19
326.454	1.62
326.827	1.37
327.2	0.9
327.573	1.57
327.945	1.03
328.318	1.18
328.691	1.21
329.063	1.49
329.436	1.11
329.809	1.49
330.181	1.75
330.553	1.22
330.926	1.65
331.298	1.48
331.671	2.18
332.043	1.55
332.415	1.27
332.787	1.12
333.159	1.79
333.532	1.18
333.904	1.33
334.276	1.9
334.648	1.61
335.02	1.84
335.391	1.51
335.763	1.61
336.135	1.17
336.507	1.54
336.879	1.93
337.25	1.65
337.622	1.27
337.993	1.81
338.365	1.67
338.736	1.32
339.108	2.29
339.479	1.47
339.851	1.68
340.222	1.29
340.593	1.92
340.964	1.39
341.336	1.58
341.707	2.06
342.078	1.72
342.449	1.53
342.82	1.01
343.191	1.61
343.562	1.37
343.933	1.35
344.303	1.35
344.674	1.74
345.045	2.03
345.416	1.53
345.786	1.76
346.157	1.5
346.527	1.5
346.898	1.68
347.268	1.58
347.639	1.37
348.009	1.81
348.38	1.45
348.75	1.66
349.12	2
349.49	1.8
349.861	1.58
350.231	1.52
350.601	1.58
350.971	1.55
351.341	1.32
351.711	1.25
352.081	1.96
352.45	1.71
352.82	1.82
353.19	1.57
353.56	1.33
353.929	1.55
354.299	1.47
354.669	1.34
355.038	2.12
355.408	1.63
355.777	1.72
356.147	1.55
356.516	1.87
356.885	1.74
357.254	1.8
357.624	1.98
357.993	1.72
358.362	1.75
358.731	1.4
359.1	1.62
359.469	1.66
359.838	1.86
360.207	1.97
360.576	1.48
360.945	1.88
361.314	1.75
361.682	1.8
362.051	1.56
362.42	1.51
362.788	1.58
363.157	1.9
363.525	1.56
363.894	1.89
364.262	2.02
364.631	2.06
364.999	1.91
365.367	1.22
365.735	1.7
366.104	1.49
366.472	1.29
366.84	1.64
367.208	1.76
367.576	1.87
367.944	1.53
368.312	1.64
368.68	1.98
369.048	1.67
369.416	1.68
369.783	1.84
370.151	1.86
370.519	1.96
370.886	1.54
371.254	1.64
371.621	1.47
371.989	1.89
372.356	1.78
372.724	1.9
373.091	1.73
373.458	1.84
373.826	1.63
374.193	2.02
374.56	1.79
374.927	1.97
375.294	1.74
375.661	1.51
376.028	1.55
376.395	1.66
376.762	1.89
377.129	1.86
377.496	1.62
377.863	1.48
378.229	1.73
378.596	1.52
378.963	1.52
379.329	1.72
379.696	1.65
380.062	1.95
380.429	1.55
380.795	1.79
381.161	2.19
381.528	1.51
381.894	1.87
382.26	1.75
382.626	1.96
382.993	1.91
383.359	1.58
383.725	1.76
384.091	1.86
384.457	1.72
384.823	1.51
385.188	1.89
385.554	1.9
385.92	1.87
386.286	1.87
386.651	1.83
387.017	1.42
387.383	1.86
387.748	1.65
388.114	1.69
388.479	1.97
388.845	1.64
389.21	1.54
389.575	1.79
389.94	1.98
390.306	1.77
390.671	2.09
391.036	1.63
391.401	1.77
391.766	1.81
392.131	1.7
392.496	2.09
392.861	1.52
393.226	1.71
393.591	1.73
393.956	1.7
394.32	1.79
394.685	1.76
395.05	1.67
395.414	1.9
395.779	1.97
396.143	1.94
396.508	1.78
396.872	1.75
397.236	1.64
397.601	1.92
397.965	1.67
398.329	2.02
398.694	1.97
399.058	1.94
399.422	1.92
399.786	1.67
400.15	1.87
400.514	1.61
400.878	2.02
401.242	2.19
401.605	1.98
401.969	1.9
402.333	1.87
402.697	1.76
403.06	1.53
403.424	1.79
403.787	1.73
404.151	1.71
404.514	1.71
404.878	1.84
405.241	1.78
405.604	1.99
405.968	1.85
406.331	1.62
406.694	1.94
407.057	1.64
407.42	1.68
407.783	1.95
408.146	2.2
408.509	2.14
408.872	1.68
409.235	1.89
409.598	1.85
409.961	1.49
410.323	1.89
410.686	1.88
411.049	1.62
411.411	1.91
411.774	1.93
412.136	1.97
412.499	1.88
412.861	1.8
413.223	1.61
413.586	1.79
413.948	1.97
414.31	1.67
414.672	1.98
415.035	2.2
415.397	2.16
415.759	1.83
416.121	1.75
416.483	2.06
416.845	1.99
417.206	1.82
417.568	2.27
417.93	1.95
418.292	2.04
418.653	1.92
419.015	1.87
419.377	1.95
419.738	1.79
420.1	1.99
420.461	1.87
420.822	2
421.184	1.78
421.545	1.9
421.906	1.88
422.267	1.94
422.629	1.82
422.99	1.88
423.351	1.91
423.712	1.93
424.073	1.91
424.434	1.9
424.795	1.86
425.155	1.97
425.516	1.82
425.877	1.84
426.238	1.91
426.598	1.88
426.959	1.89
427.32	1.98
427.68	1.9
428.041	1.91
428.401	1.94
428.761	1.99
429.122	1.93
429.482	1.88
429.842	1.97
430.202	2.15
430.563	1.96
430.923	1.98
431.283	2.04
431.643	1.98
432.003	2.02
432.363	2.17
432.722	1.8
433.082	1.96
433.442	1.95
433.802	1.84
434.161	1.93
434.521	2.12
434.881	2.03
435.24	1.76
435.6	2.01
435.959	1.94
436.319	2.1
436.678	1.84
437.037	1.95
437.396	1.93
437.756	2.01
438.115	1.92
438.474	1.99
438.833	1.95
439.192	1.93
439.551	1.87
439.91	2.02
440.269	1.9
440.628	1.88
440.987	1.9
441.345	1.96
441.704	1.95
442.063	1.83
442.421	1.99
442.78	1.98
443.138	1.94
443.497	1.98
443.855	2.1
444.214	2.06
444.572	1.78
444.93	2
445.288	1.91
445.647	1.99
446.005	2.13
446.363	2.08
446.721	2.01
447.079	1.94
447.437	1.93
447.795	2.06
448.153	2.06
448.51	1.98
448.868	2.14
449.226	2
449.584	2.06
449.941	2.03
450.299	2.06
450.656	1.9
451.014	2
451.371	2.06
451.729	1.97
452.086	1.96
452.443	2.09
452.801	2.05
453.158	2.22
453.515	1.91
453.872	2.05
454.229	2.02
454.586	2.03
454.943	2.07
455.3	2.1
455.657	1.99
456.014	2.12
456.371	2.05
456.727	2.05
457.084	1.9
457.441	2.14
457.797	2.09
458.154	2.07
458.51	2.16
458.867	1.98
459.223	2.12
459.58	2
459.936	1.95
460.292	2.09
460.648	2.06
461.005	2.07
461.361	2.08
461.717	1.96
462.073	1.98
462.429	2.01
462.785	2.08
463.141	2.2
463.496	2.07
463.852	2.17
464.208	2.23
464.564	2.04
464.919	2.06
465.275	1.9
465.631	2.01
465.986	2.14
466.342	2.07
466.697	2.27
467.052	2.09
467.408	2.14
467.763	1.89
468.118	2.07
468.473	2.26
468.829	2.18
469.184	2.15
469.539	2.02
469.894	2.16
470.249	2.16
470.603	2.04
470.958	2.08
471.313	2.06
471.668	2.12
472.023	2.07
472.377	2.2
472.732	1.94
473.086	2.21
473.441	2.2
473.795	1.98
474.15	2.09
474.504	2.23
474.859	2.24
475.213	2.18
475.567	2.37
475.921	2.15
476.275	2.03
476.63	2.11
476.984	2.15
477.338	2.06
477.692	2.11
478.045	2.42
478.399	2.17
478.753	2.19
479.107	2.18
479.461	2.21
479.814	2.15
480.168	2.08
480.521	2.18
480.875	2.15
481.228	2.18
481.582	2.23
481.935	2.19
482.289	2.05
482.642	2.07
482.995	2.19
483.348	2.23
483.701	2.21
484.055	2.11
484.408	2.24
484.761	2.13
485.114	2.03
485.466	2.04
485.819	2.01
486.172	2.04
486.525	2.08
486.878	2.14
487.23	2.1
487.583	2.22
487.936	2.17
488.288	2.15
488.641	2.11
488.993	2.07
489.345	2.08
489.698	2.08
490.05	2.08
490.402	2.14
490.754	2.2
491.107	2.19
491.459	2.23
491.811	2.25
492.163	2.18
492.515	2.17
492.866	2.13
493.218	2.17
493.57	2.16
493.922	2.2
494.274	2.21
494.625	2.27
494.977	2.3
495.328	2.24
495.68	2.35
496.031	2.34
496.383	2.34
496.734	2.21
497.086	2.14
497.437	2.21
497.788	2.28
498.139	2.18
498.49	2.28
498.842	2.3
499.193	2.22
499.544	2.13
499.894	2.29
500.245	2.21
500.596	2.25
500.947	2.38
501.298	2.43
501.648	2.31
501.999	2.24
502.35	2.38
502.7	2.44
503.051	2.41
503.401	2.38
503.752	2.4
504.102	2.25
504.452	2.28
504.803	2.41
505.153	2.34
505.503	2.43
505.853	2.28
506.203	2.39
506.553	2.35
506.903	2.38
507.253	2.37
507.603	2.38
507.953	2.44
508.303	2.44
508.652	2.39
509.002	2.54
509.352	2.3
509.701	2.44
510.051	2.45
510.4	2.35
510.75	2.42
511.099	2.33
511.449	2.46
511.798	2.39
512.147	2.41
512.496	2.45
512.846	2.25
513.195	2.41
513.544	2.47
513.893	2.44
514.242	2.61
514.591	2.46
514.939	2.39
515.288	2.37
515.637	2.52
515.986	2.52
516.334	2.48
516.683	2.5
517.032	2.46
517.38	2.36
517.729	2.52
518.077	2.54
518.426	2.4
518.774	2.45
519.122	2.44
519.47	2.48
519.819	2.52
520.167	2.49
520.515	2.44
520.863	2.46
521.211	2.6
521.559	2.42
521.907	2.63
522.255	2.51
522.602	2.59
522.95	2.6
523.298	2.54
523.645	2.6
523.993	2.6
524.341	2.59
524.688	2.52
525.036	2.69
525.383	2.69
525.73	2.62
526.078	2.54
526.425	2.62
526.772	2.55
527.119	2.49
527.466	2.43
527.814	2.52
528.161	2.57
528.508	2.58
528.854	2.59
529.201	2.58
529.548	2.56
529.895	2.53
530.242	2.49
530.588	2.5
530.935	2.5
531.282	2.59
531.628	2.63
531.975	2.62
532.321	2.6
532.667	2.72
533.014	2.76
533.36	2.66
533.706	2.74
534.052	2.7
534.399	2.67
534.745	2.63
535.091	2.67
535.437	2.71
535.783	2.72
536.129	2.71
536.474	2.81
536.82	2.84
537.166	2.85
537.512	2.96
537.857	2.86
538.203	2.8
538.549	2.76
538.894	2.8
539.239	2.85
539.585	2.83
539.93	2.94
540.276	2.87
540.621	2.96
540.966	2.83
541.311	2.81
541.656	2.89
542.001	2.92
542.346	2.84
542.691	2.92
543.036	2.82
543.381	2.79
543.726	2.85
544.071	2.83
544.415	2.91
544.76	2.94
545.105	2.85
545.449	2.94
545.794	2.91
546.138	2.94
546.483	2.97
546.827	3.02
547.171	2.97
547.516	3.02
547.86	3.1
548.204	2.97
548.548	3.02
548.892	2.97
549.236	3.13
549.58	3.13
549.924	3.01
550.268	3.24
550.612	3.01
550.956	3.26
551.3	3.05
551.643	3.28
551.987	3.23
552.33	3.15
552.674	3.31
553.017	3.34
553.361	3.3
553.704	3.09
554.048	3.19
554.391	3.28
554.734	3.12
555.077	3.23
555.42	3.36
555.764	3.29
556.107	3.29
556.45	3.34
556.793	3.31
557.135	3.45
557.478	3.33
557.821	3.47
558.164	3.41
558.507	3.3
558.849	3.19
559.192	3.24
559.534	3.39
559.877	3.4
560.219	3.34
560.562	3.26
560.904	3.34
561.246	3.62
561.589	3.58
561.931	3.44
562.273	3.57
562.615	3.45
562.957	3.51
563.299	3.51
563.641	3.59
563.983	3.49
564.325	3.81
564.667	3.64
565.008	3.73
565.35	3.66
565.692	3.78
566.033	3.58
566.375	3.65
566.716	3.73
567.058	3.58
567.399	3.7
567.741	3.64
568.082	3.69
568.423	3.66
568.764	3.71
569.105	3.71
569.447	3.61
569.788	3.84
570.129	3.97
570.47	3.93
570.811	3.8
571.151	3.89
571.492	4.06
571.833	3.94
572.174	4.02
572.514	3.88
572.855	3.88
573.195	3.93
573.536	3.87
573.876	3.86
574.217	3.92
574.557	4
574.898	3.93
575.238	3.99
575.578	4.01
575.918	4.26
576.258	3.97
576.598	3.91
576.938	4.09
577.278	4.05
577.618	4.21
577.958	4.06
578.298	4.18
578.638	4.29
578.977	4.2
579.317	4.07
579.657	4.16
579.996	4.23
580.336	4.42
580.675	4.19
581.014	4.21
581.354	4.24
581.693	4.4
582.032	4.28
582.372	4.35
582.711	4.3
583.05	4.29
583.389	4.29
583.728	4.54
584.067	4.55
584.406	4.35
584.745	4.58
585.083	4.68
585.422	4.61
585.761	4.74
586.1	4.49
586.438	4.68
586.777	4.53
587.115	4.66
587.454	4.76
587.792	4.77
588.13	4.61
588.469	4.86
588.807	4.78
589.145	4.73
589.483	4.81
589.821	4.45
590.159	4.74
590.497	5
590.835	4.86
591.173	4.62
591.511	4.99
591.849	4.73
592.187	5.05
592.524	4.9
592.862	5.06
593.2	5.03
593.537	5.02
593.875	4.85
594.212	5.23
594.55	5.11
594.887	4.99
595.224	5.22
595.561	5.07
595.899	5.2
596.236	5.37
596.573	5.37
596.91	5.4
597.247	5.36
597.584	5.17
597.921	5.32
598.258	5.28
598.594	5.15
598.931	5.06
599.268	5.21
599.604	5.37
599.941	5.29
600.277	5.35
600.614	5.31
600.95	5.4
601.287	5.38
601.623	5.45
601.959	5.43
602.296	5.59
602.632	5.41
602.968	5.5
603.304	5.5
603.64	5.46
603.976	5.42
604.312	5.83
604.648	5.71
604.984	5.59
605.319	5.52
605.655	5.69
605.991	5.8
606.326	5.76
606.662	5.72
606.998	5.6
607.333	5.87
607.668	5.66
608.004	5.81
608.339	5.72
608.674	5.95
609.01	6.1
609.345	6.16
609.68	5.98
610.015	6.25
610.35	5.94
610.685	5.73
611.02	6.04
611.355	5.92
611.689	6.02
612.024	6.14
612.359	6.08
612.694	6.24
613.028	6.03
613.363	6.33
613.697	6.18
614.032	6.6
614.366	6.25
614.7	6.47
615.035	6.31
615.369	6.36
615.703	6.3
616.037	6.74
616.371	6.39
616.705	6.4
617.039	6.76
617.373	6.65
617.707	6.46
618.041	6.82
618.375	6.46
618.709	6.78
619.042	6.57
619.376	6.55
619.71	6.7
620.043	6.77
620.377	6.89
620.71	6.84
621.043	7.16
621.377	6.87
621.71	6.89
622.043	6.88
622.376	6.66
622.709	7.1
623.043	6.65
623.376	6.5
623.709	6.82
624.041	6.86
624.374	7.07
624.707	6.75
625.04	7.24
625.373	6.86
625.705	7.1
626.038	6.92
626.37	7.19
626.703	7.53
627.035	7.09
627.368	7.56
627.7	7.45
628.032	7.1
628.365	7.06
628.697	7.4
629.029	7.39
629.361	7.51
629.693	7.23
630.025	7.43
630.357	7.34
630.689	7.2
631.021	7.24
631.353	7.3
631.684	7.54
632.016	7.51
632.348	7.8
632.679	7.8
633.011	7.44
633.342	7.9
633.674	7.66
634.005	7.55
634.336	7.58
634.668	7.87
634.999	7.82
635.33	7.85
635.661	7.88
635.992	7.99
636.323	8.04
636.654	8.02
636.985	7.49
637.316	8.08
637.647	8.24
637.977	7.93
638.308	8.12
638.639	7.92
638.969	8.14
639.3	8.1
639.63	8.32
639.961	8.18
640.291	8.17
640.622	8.41
640.952	8.41
641.282	8.13
641.612	8.04
641.943	8.24
642.273	8.28
642.603	8.31
642.933	8.5
643.263	8.64
643.592	8.47
643.922	8.46
644.252	8.64
644.582	8.65
644.911	9.35
645.241	8.6
645.571	8.42
645.9	8.78
646.23	8.45
646.559	8.74
646.888	8.88
647.218	8.03
647.547	8.57
647.876	9.19
648.205	8.54
648.534	9.07
648.863	8.89
649.192	9.08
649.521	8.74
649.85	8.73
650.179	9.39
650.508	8.38
650.837	8.54
651.165	9
651.494	9.13
651.822	8.61
652.151	8.83
652.479	8.98
652.808	8.71
653.136	9.15
653.465	9.01
653.793	9.15
654.121	9.34
654.449	9.58
654.777	9.03
655.105	8.74
655.433	9.12
655.761	9.79
656.089	9.5
656.417	9.07
656.745	9.12
657.073	9.6
657.4	9.33
657.728	9.54
658.056	9.47
658.383	9.56
658.711	9.49
659.038	9.51
659.365	9.57
659.693	9.56
660.02	9.23
660.347	9.76
660.674	9.99
661.001	9.77
661.329	9.89
661.656	10.13
661.982	9.93
662.309	10.05
662.636	9.82
662.963	9.86
663.29	9.79
663.616	10.35
663.943	9.7
664.27	10.98
664.596	9.57
664.923	9.54
665.249	9.87
665.576	9.93
665.902	10.56
666.228	10.4
666.554	10.25
666.881	10.25
667.207	10.62
667.533	11.23
667.859	10.02
668.185	10.71
668.511	10.18
668.837	10.62
669.162	10.85
669.488	9.89
669.814	10.64
670.139	10.4
670.465	10.6
670.791	10.77
671.116	10.79
671.442	11.06
671.767	10.43
672.092	10.5
672.418	10.66
672.743	10.65
673.068	11.11
673.393	10.32
673.718	10.61
674.043	11
674.368	10.67
674.693	11.53
675.018	11.4
675.343	11.89
675.667	10.65
675.992	11.1
676.317	11.31
676.641	11.17
676.966	11.63
677.29	11.02
677.615	10.98
677.939	11.38
678.264	11.43
678.588	10.51
678.912	10.95
679.236	11.66
679.56	11.43
679.885	11.3
680.209	12.01
680.532	11.1
680.856	11.65
681.18	11.76
681.504	11.58
681.828	11.62
682.152	11.71
682.475	11.77
682.799	11.67
683.122	11.34
683.446	11.99
683.769	11.89
684.093	11.72
684.416	12.06
684.739	11.69
685.062	12.22
685.386	12.4
685.709	12.31
686.032	12.83
686.355	11.6
686.678	11.45
687.001	11.44
687.324	11.34
687.646	11.2
687.969	12.24
688.292	12.49
688.614	12.13
688.937	13.75
689.26	12.29
689.582	12.02
689.904	12.51
