Data from 0018_forehead_Reflection__1__93.txt Node

Date: Mon Oct 17 15:11:06 CDT 2022
User: ToomeyLab
Spectrometer: FLMS14357
Trigger mode: 0
Integration Time (sec): 1.000000E-2
Scans to average: 100
Electric dark correction enabled: true
Nonlinearity correction enabled: false
Boxcar width: 0
XAxis mode: Wavelengths
Number of Pixels in Spectrum: 2048
>>>>>Begin Spectral Data<<<<<
189.047	127.36
189.435	127.36
189.823	127.36
190.211	37.65
190.599	286.41
190.987	-166.79
191.375	63.05
191.763	-123.87
192.151	471.04
192.538	-17.85
192.926	121.93
193.314	-61.08
193.702	51.44
194.089	76.11
194.477	110.95
194.864	545.54
195.252	132.28
195.639	204.58
196.027	99.43
196.414	55.32
196.801	58.03
197.189	25.57
197.576	105.85
197.963	-428.11
198.351	-301.09
198.738	30.94
199.125	-17.45
199.512	-105.1
199.899	27.01
200.286	18.65
200.673	-36.67
201.06	-57.64
201.447	22.7
201.833	23.52
202.22	23.09
202.607	1.8
202.994	0.89
203.38	46.17
203.767	30.44
204.154	36.16
204.54	-41.42
204.927	8.27
205.313	30.79
205.699	28.76
206.086	-75.21
206.472	35.53
206.858	39.06
207.245	66.66
207.631	48.28
208.017	21.1
208.403	29.16
208.789	24.68
209.175	27.33
209.561	16.01
209.947	-52.48
210.333	21.59
210.719	8
211.105	34.63
211.491	17.98
211.876	-17.52
212.262	28.07
212.648	12.79
213.034	16.72
213.419	4.79
213.805	27.87
214.19	44.87
214.576	10.02
214.961	27.76
215.346	-5.24
215.732	-6.39
216.117	24.1
216.502	16.92
216.888	19.45
217.273	53.32
217.658	0.57
218.043	-26.73
218.428	20.85
218.813	21.85
219.198	16.19
219.583	-12.95
219.968	5.35
220.353	35.15
220.738	3.48
221.122	11.21
221.507	-9.12
221.892	17.02
222.276	3.17
222.661	13.62
223.046	17.91
223.43	16.4
223.815	4.02
224.199	2.01
224.583	-2.65
224.968	-5.26
225.352	-7.29
225.736	11.16
226.121	-1.63
226.505	-1.24
226.889	7.87
227.273	6.4
227.657	6.05
228.041	5.94
228.425	4.36
228.809	6.01
229.193	4.68
229.577	2.73
229.961	6.34
230.344	2.49
230.728	3.36
231.112	3.58
231.495	2.69
231.879	4.21
232.263	4.22
232.646	3.92
233.03	3.97
233.413	1.24
233.797	4.47
234.18	2.71
234.563	-0.22
234.946	4.8
235.33	5.15
235.713	1.82
236.096	4.73
236.479	2.73
236.862	3.89
237.245	3.43
237.628	3.68
238.011	2.14
238.394	5.82
238.777	4
239.16	5.19
239.543	3.36
239.925	5.76
240.308	5.71
240.691	3.7
241.073	5.28
241.456	3.03
241.838	4.11
242.221	2.42
242.603	3.84
242.986	3.14
243.368	4.37
243.75	3.67
244.133	3.67
244.515	3.67
244.897	4.18
245.279	4.18
245.661	4.48
246.043	3.51
246.425	2.69
246.807	3.49
247.189	4.16
247.571	4.01
247.953	3.67
248.335	3.91
248.717	3.88
249.098	4.14
249.48	3.94
249.862	3.69
250.243	3.57
250.625	4.33
251.006	3.96
251.388	4.58
251.769	4.23
252.151	4.25
252.532	4.69
252.913	3.58
253.295	3.46
253.676	4.45
254.057	4.49
254.438	4.67
254.819	5
255.2	4.97
255.581	3.66
255.962	3.4
256.343	3.79
256.724	4.37
257.105	4.32
257.486	3.3
257.867	3.95
258.247	3.63
258.628	4.6
259.009	4.67
259.389	4.17
259.77	4.99
260.15	4.61
260.531	3.79
260.911	3.93
261.292	4.03
261.672	3.88
262.052	4.01
262.432	3.85
262.813	4.34
263.193	4.09
263.573	4.21
263.953	4.2
264.333	3.93
264.713	3.4
265.093	3.94
265.473	4.31
265.853	4.51
266.233	5.23
266.612	4.98
266.992	4.75
267.372	4.82
267.752	4.17
268.131	4.57
268.511	4.13
268.89	4.74
269.27	4.29
269.649	4.32
270.029	4.41
270.408	4.04
270.787	3.93
271.167	4.08
271.546	4.62
271.925	4.29
272.304	3.68
272.683	4.63
273.062	4.05
273.441	4.01
273.82	4.01
274.199	4.36
274.578	4.29
274.957	4.03
275.336	4.4
275.715	4.16
276.093	3.5
276.472	3.9
276.851	4.63
277.229	3.52
277.608	3.97
277.986	4.08
278.365	3.88
278.743	4.38
279.122	3.75
279.5	4.63
279.878	4.82
280.257	4.08
280.635	4.3
281.013	4.58
281.391	3.6
281.769	4.33
282.147	4.81
282.525	4.03
282.903	3.65
283.281	4.05
283.659	4.08
284.037	3.95
284.415	4.3
284.792	4.21
285.17	3.56
285.548	3.82
285.925	4.35
286.303	4.15
286.68	4.73
287.058	4.41
287.435	4.39
287.813	4.28
288.19	4.21
288.567	3.87
288.945	4.44
289.322	5.02
289.699	4.39
290.076	4.67
290.453	4.05
290.83	4.82
291.207	4.54
291.584	4.46
291.961	4.42
292.338	4.84
292.715	4.75
293.092	4.61
293.469	4.56
293.845	4.98
294.222	5.47
294.599	5.4
294.975	4.38
295.352	4.5
295.728	4.77
296.105	4.77
296.481	5.65
296.858	5.55
297.234	4.81
297.61	5.23
297.986	5.11
298.363	5.34
298.739	5.71
299.115	5.12
299.491	5.3
299.867	5.38
300.243	5.43
300.619	5.24
300.995	5.93
301.371	5.58
301.746	5.7
302.122	5.83
302.498	6.15
302.874	6.06
303.249	5.8
303.625	6.11
304	6.29
304.376	6.54
304.751	6.29
305.127	6.46
305.502	6.03
305.878	6.57
306.253	6.41
306.628	6.62
307.003	6.42
307.378	6.62
307.754	5.91
308.129	6.45
308.504	7.07
308.879	7.34
309.254	6.84
309.629	6.64
310.003	7.25
310.378	6.77
310.753	7.13
311.128	7.42
311.502	7.27
311.877	7.5
312.252	7.12
312.626	7.27
313.001	7.43
313.375	7.47
313.75	7.41
314.124	7.85
314.498	7.42
314.873	8.05
315.247	7.72
315.621	8.58
315.995	7.91
316.369	7.9
316.743	8
317.117	8.43
317.491	8.11
317.865	8.72
318.239	8.53
318.613	8.69
318.987	8.36
319.361	7.82
319.734	8.82
320.108	8.36
320.482	8.79
320.855	8.74
321.229	8.46
321.602	8.8
321.976	8.5
322.349	8.43
322.723	8.29
323.096	9.09
323.469	9.31
323.843	8.87
324.216	9.16
324.589	9.25
324.962	9.26
325.335	8.91
325.708	9.56
326.081	9.04
326.454	9.75
326.827	9.36
327.2	9.27
327.573	9.31
327.945	9.55
328.318	9.91
328.691	9.39
329.063	10
329.436	10.2
329.809	9.74
330.181	10.06
330.553	9.69
330.926	10.01
331.298	10.59
331.671	10.4
332.043	10.53
332.415	10.41
332.787	10.36
333.159	10.36
333.532	10.12
333.904	10.37
334.276	10.48
334.648	10.4
335.02	10.62
335.391	10.89
335.763	10.54
336.135	10.68
336.507	11.01
336.879	11.31
337.25	11.1
337.622	10.89
337.993	10.65
338.365	10.92
338.736	11.16
339.108	11.36
339.479	10.84
339.851	10.92
340.222	11.27
340.593	11.27
340.964	11.33
341.336	11.29
341.707	11.8
342.078	11.73
342.449	11.54
342.82	11.32
343.191	11.42
343.562	11.63
343.933	11.46
344.303	11.55
344.674	12.48
345.045	12.22
345.416	11.92
345.786	12.1
346.157	11.7
346.527	11.87
346.898	12.22
347.268	12.56
347.639	12.06
348.009	12
348.38	12.26
348.75	12.31
349.12	12.3
349.49	12.39
349.861	12.44
350.231	12.79
350.601	12.79
350.971	12.46
351.341	12.46
351.711	12.49
352.081	12.6
352.45	12.74
352.82	12.63
353.19	12.63
353.56	12.81
353.929	13
354.299	12.9
354.669	13.32
355.038	13.29
355.408	13.64
355.777	13.05
356.147	13.39
356.516	13.37
356.885	13.4
357.254	13.59
357.624	13.46
357.993	13.76
358.362	13.24
358.731	13.48
359.1	13.57
359.469	13.58
359.838	13.73
360.207	13.81
360.576	13.79
360.945	13.78
361.314	13.98
361.682	14.14
362.051	13.85
362.42	13.9
362.788	14.14
363.157	14.22
363.525	14.01
363.894	14.25
364.262	14.27
364.631	14.6
364.999	14.07
365.367	14.49
365.735	14.48
366.104	14.53
366.472	14.12
366.84	14.62
367.208	14.49
367.576	14.84
367.944	14.51
368.312	14.99
368.68	14.9
369.048	14.68
369.416	14.76
369.783	14.84
370.151	15.08
370.519	14.84
370.886	15.31
371.254	15.27
371.621	15.18
371.989	15.65
372.356	15.32
372.724	15.67
373.091	15.33
373.458	15.66
373.826	15.27
374.193	15.77
374.56	15.78
374.927	15.52
375.294	15.56
375.661	15.58
376.028	15.75
376.395	15.79
376.762	15.88
377.129	15.99
377.496	15.85
377.863	15.71
378.229	15.94
378.596	16.1
378.963	15.98
379.329	15.91
379.696	15.85
380.062	16.31
380.429	15.9
380.795	16.26
381.161	16.39
381.528	16.41
381.894	16.17
382.26	16.72
382.626	16.51
382.993	17.09
383.359	16.7
383.725	16.63
384.091	16.66
384.457	16.77
384.823	16.48
385.188	16.65
385.554	17.1
385.92	17.04
386.286	17.05
386.651	16.98
387.017	17.15
387.383	17.51
387.748	17
388.114	16.86
388.479	17.44
388.845	17.8
389.21	17.33
389.575	17.58
389.94	17.67
390.306	17.77
390.671	17.85
391.036	17.81
391.401	17.49
391.766	17.86
392.131	17.71
392.496	17.71
392.861	17.87
393.226	17.86
393.591	17.71
393.956	17.79
394.32	18.24
394.685	17.83
395.05	18.12
395.414	18.2
395.779	18.05
396.143	18.26
396.508	18.09
396.872	17.93
397.236	18.2
397.601	18.53
397.965	18.39
398.329	18.65
398.694	18.74
399.058	18.54
399.422	18.59
399.786	18.55
400.15	18.98
400.514	18.63
400.878	18.66
401.242	18.76
401.605	19.25
401.969	18.68
402.333	18.74
402.697	18.92
403.06	18.87
403.424	18.85
403.787	19.09
404.151	19.43
404.514	19.09
404.878	19.2
405.241	19.36
405.604	19.29
405.968	19.37
406.331	19.14
406.694	19.22
407.057	19.18
407.42	19.24
407.783	19.42
408.146	19.61
408.509	19.79
408.872	19.49
409.235	19.65
409.598	19.85
409.961	19.75
410.323	19.64
410.686	19.93
411.049	19.82
411.411	20.12
411.774	20.03
412.136	20.15
412.499	19.89
412.861	20.13
413.223	20.08
413.586	19.96
413.948	20.36
414.31	20.18
414.672	20.02
415.035	20.25
415.397	20.48
415.759	20.42
416.121	20.49
416.483	20.8
416.845	20.39
417.206	20.38
417.568	20.78
417.93	20.67
418.292	20.63
418.653	20.69
419.015	20.61
419.377	20.77
419.738	20.58
420.1	20.82
420.461	20.68
420.822	20.69
421.184	20.75
421.545	20.83
421.906	20.53
422.267	20.68
422.629	20.66
422.99	20.6
423.351	20.76
423.712	20.9
424.073	20.73
424.434	20.97
424.795	21.06
425.155	20.95
425.516	21.01
425.877	20.97
426.238	21.04
426.598	21.14
426.959	21.14
427.32	21.32
427.68	21.21
428.041	21.29
428.401	21.43
428.761	21.53
429.122	21.54
429.482	21.68
429.842	21.88
430.202	22.1
430.563	21.9
430.923	21.87
431.283	22.2
431.643	21.97
432.003	22.11
432.363	22.14
432.722	22.09
433.082	21.93
433.442	22.46
433.802	22.28
434.161	22.25
434.521	22.53
434.881	22.2
435.24	22.25
435.6	22.47
435.959	22.15
436.319	22.57
436.678	22.34
437.037	22.61
437.396	22.62
437.756	22.9
438.115	22.67
438.474	22.55
438.833	22.76
439.192	22.87
439.551	22.69
439.91	22.96
440.269	23.03
440.628	22.82
440.987	22.78
441.345	22.75
441.704	22.84
442.063	22.8
442.421	22.91
442.78	22.76
443.138	22.96
443.497	23.11
443.855	23.19
444.214	23.09
444.572	23.22
444.93	23.31
445.288	23.39
445.647	23.24
446.005	23.32
446.363	23.44
446.721	23.38
447.079	23.4
447.437	23.29
447.795	23.33
448.153	23.46
448.51	23.29
448.868	23.47
449.226	23.44
449.584	23.52
449.941	23.41
450.299	23.66
450.656	23.73
451.014	23.64
451.371	23.94
451.729	23.99
452.086	23.96
452.443	24.01
452.801	24.07
453.158	24.3
453.515	24.28
453.872	24.34
454.229	24.25
454.586	24.18
454.943	24.25
455.3	24.44
455.657	24.39
456.014	24.7
456.371	24.67
456.727	24.69
457.084	24.38
457.441	24.68
457.797	24.62
458.154	24.88
458.51	24.87
458.867	24.88
459.223	24.72
459.58	24.7
459.936	24.61
460.292	24.94
460.648	24.79
461.005	24.69
461.361	24.78
461.717	24.64
462.073	24.53
462.429	24.72
462.785	24.93
463.141	25.03
463.496	24.85
463.852	25.26
464.208	25.18
464.564	25.3
464.919	25.24
465.275	25.49
465.631	25.38
465.986	25.59
466.342	25.55
466.697	25.66
467.052	25.57
467.408	25.69
467.763	25.75
468.118	25.88
468.473	25.65
468.829	25.62
469.184	25.79
469.539	25.87
469.894	25.88
470.249	25.86
470.603	25.92
470.958	26.02
471.313	25.97
471.668	26.12
472.023	26.06
472.377	26.19
472.732	26.25
473.086	26.32
473.441	26.22
473.795	26.51
474.15	26.27
474.504	26.47
474.859	26.29
475.213	26.39
475.567	26.46
475.921	26.22
476.275	26.55
476.63	26.46
476.984	26.6
477.338	26.7
477.692	26.84
478.045	26.76
478.399	26.86
478.753	26.74
479.107	26.61
479.461	26.61
479.814	26.86
480.168	26.72
480.521	26.93
480.875	26.87
481.228	27.02
481.582	26.95
481.935	27.03
482.289	27.08
482.642	27.05
482.995	26.98
483.348	26.82
483.701	26.84
484.055	26.78
484.408	26.73
484.761	26.65
485.114	26.31
485.466	26.38
485.819	26.39
486.172	26.36
486.525	26.25
486.878	26.25
487.23	26.4
487.583	26.68
487.936	26.8
488.288	26.87
488.641	26.79
488.993	26.76
489.345	26.71
489.698	26.75
490.05	26.75
490.402	26.83
490.754	26.93
491.107	27.05
491.459	27.23
491.811	27.33
492.163	27.53
492.515	27.35
492.866	27.44
493.218	27.34
493.57	27.37
493.922	27.26
494.274	27.34
494.625	27.46
494.977	27.51
495.328	27.8
495.68	28
496.031	28.27
496.383	28.37
496.734	28.32
497.086	28.13
497.437	28.45
497.788	28.55
498.139	28.4
498.49	28.39
498.842	28.44
499.193	28.29
499.544	28.36
499.894	28.51
500.245	28.53
500.596	28.66
500.947	28.74
501.298	28.78
501.648	28.67
501.999	28.71
502.35	28.89
502.7	28.94
503.051	29.06
503.401	29.11
503.752	29.09
504.102	29.07
504.452	28.99
504.803	29.3
505.153	29.31
505.503	29.26
505.853	29.31
506.203	29.19
506.553	29.29
506.903	29.26
507.253	29.16
507.603	29.48
507.953	29.55
508.303	29.34
508.652	29.58
509.002	29.65
509.352	29.6
509.701	29.67
510.051	29.62
510.4	29.47
510.75	29.53
511.099	29.64
511.449	29.68
511.798	29.69
512.147	29.73
512.496	29.56
512.846	29.69
513.195	29.7
513.544	29.81
513.893	29.82
514.242	29.98
514.591	29.97
514.939	29.86
515.288	29.94
515.637	30.07
515.986	30.06
516.334	30.21
516.683	30.25
517.032	30.15
517.38	30.22
517.729	30.37
518.077	30.44
518.426	30.38
518.774	30.27
519.122	30.38
519.47	30.36
519.819	30.48
520.167	30.24
520.515	30.18
520.863	30.26
521.211	30.36
521.559	30.31
521.907	30.34
522.255	30.53
522.602	30.59
522.95	30.76
523.298	30.7
523.645	30.94
523.993	30.88
524.341	30.87
524.688	30.99
525.036	31.19
525.383	30.89
525.73	31
526.078	31.05
526.425	31.14
526.772	31.04
527.119	30.82
527.466	30.75
527.814	30.86
528.161	30.8
528.508	30.89
528.854	30.84
529.201	30.78
529.548	30.79
529.895	30.7
530.242	30.71
530.588	30.75
530.935	30.62
531.282	30.44
531.628	30.49
531.975	30.77
532.321	30.82
532.667	31.14
533.014	31.17
533.36	31.37
533.706	31.49
534.052	31.46
534.399	31.38
534.745	31.28
535.091	31.29
535.437	31.27
535.783	31.31
536.129	31.32
536.474	31.32
536.82	31.56
537.166	31.61
537.512	31.81
537.857	32.11
538.203	31.93
538.549	31.93
538.894	31.91
539.239	31.94
539.585	31.92
539.93	32.09
540.276	32.17
540.621	32.33
540.966	32.5
541.311	32.51
541.656	32.47
542.001	32.57
542.346	32.41
542.691	32.25
543.036	32.15
543.381	32.03
543.726	31.99
544.071	31.92
544.415	31.99
544.76	32
545.105	32.2
545.449	32.42
545.794	32.57
546.138	32.64
546.483	32.74
546.827	32.73
547.171	32.93
547.516	33.12
547.86	33.2
548.204	33
548.548	33.04
548.892	33.16
549.236	33.13
549.58	33.08
549.924	33.23
550.268	33.32
550.612	33.39
550.956	33.55
551.3	33.41
551.643	33.68
551.987	33.8
552.33	33.68
552.674	33.84
553.017	33.85
553.361	33.79
553.704	33.94
554.048	33.82
554.391	34.17
554.734	33.83
555.077	33.99
555.42	33.96
555.764	33.99
556.107	33.85
556.45	34.35
556.793	34.17
557.135	34.06
557.478	34.27
557.821	34.27
558.164	34.38
558.507	34.43
558.849	34.58
559.192	34.27
559.534	34.66
559.877	34.51
560.219	34.63
560.562	34.46
560.904	34.79
561.246	34.78
561.589	34.95
561.931	35
562.273	34.9
562.615	34.84
562.957	34.78
563.299	34.98
563.641	34.98
563.983	35.15
564.325	35.13
564.667	35.25
565.008	35.03
565.35	35.03
565.692	35.32
566.033	35.29
566.375	35.03
566.716	35.22
567.058	34.97
567.399	35.1
567.741	35.23
568.082	35.35
568.423	35.25
568.764	35.17
569.105	35.28
569.447	35.12
569.788	35.33
570.129	35.53
570.47	35.57
570.811	35.58
571.151	35.69
571.492	35.65
571.833	35.42
572.174	35.6
572.514	35.88
572.855	35.64
573.195	35.77
573.536	35.74
573.876	35.7
574.217	35.77
574.557	35.57
574.898	35.69
575.238	36
575.578	35.87
575.918	35.92
576.258	35.96
576.598	35.91
576.938	36.17
577.278	36.09
577.618	36.11
577.958	36.17
578.298	36.13
578.638	36.31
578.977	36.28
579.317	36.42
579.657	36.36
579.996	36.33
580.336	36.65
580.675	36.77
581.014	36.48
581.354	36.37
581.693	36.89
582.032	36.88
582.372	36.88
582.711	36.76
583.05	36.83
583.389	36.89
583.728	37.14
584.067	36.99
584.406	37.01
584.745	37.22
585.083	37.19
585.422	36.86
585.761	36.82
586.1	37.37
586.438	37.45
586.777	37.25
587.115	37.22
587.454	37.36
587.792	37.32
588.13	37.49
588.469	37.33
588.807	37.27
589.145	37.3
589.483	37.45
589.821	37.39
590.159	37.48
590.497	37.58
590.835	37.78
591.173	37.67
591.511	37.62
591.849	37.66
592.187	37.97
592.524	37.67
592.862	37.62
593.2	37.69
593.537	37.7
593.875	37.6
594.212	37.92
594.55	37.77
594.887	37.82
595.224	38.01
595.561	38.11
595.899	38.24
596.236	37.88
596.573	38.17
596.91	38.18
597.247	38.23
597.584	37.95
597.921	38.07
598.258	38.1
598.594	38.24
598.931	38.04
599.268	38.06
599.604	38.02
599.941	37.97
600.277	38.06
600.614	38.45
600.95	38.03
601.287	38.2
601.623	38.31
601.959	38.47
602.296	38.62
602.632	38.65
602.968	38.5
603.304	39.07
603.64	39.01
603.976	38.8
604.312	38.95
604.648	38.97
604.984	38.85
605.319	38.59
605.655	38.93
605.991	38.87
606.326	38.88
606.662	38.59
606.998	38.79
607.333	38.49
607.668	38.5
608.004	38.67
608.339	38.7
608.674	38.74
609.01	38.89
609.345	39.3
609.68	38.76
610.015	38.74
610.35	39.2
610.685	39.21
611.02	39.25
611.355	39.19
611.689	39.31
612.024	39.48
612.359	38.93
612.694	39.22
613.028	38.97
613.363	39.13
613.697	39.73
614.032	39.68
614.366	39.59
614.7	39.72
615.035	39.4
615.369	40.34
615.703	39.37
616.037	39.94
616.371	40.05
616.705	39.9
617.039	40.25
617.373	40.05
617.707	39.71
618.041	39.66
618.375	39.68
618.709	40.06
619.042	40.22
619.376	40.05
619.71	40.24
620.043	39.95
620.377	40.25
620.71	39.97
621.043	40.06
621.377	40.34
621.71	40.53
622.043	40.51
622.376	40.53
622.709	40.71
623.043	40.2
623.376	39.96
623.709	39.98
624.041	40.28
624.374	40.4
624.707	40.49
625.04	40.38
625.373	40.42
625.705	40.62
626.038	40.47
626.37	40.69
626.703	40.92
627.035	41.02
627.368	40.51
627.7	40.52
628.032	41.07
628.365	40.69
628.697	40.98
629.029	40.86
629.361	40.74
629.693	40.74
630.025	40.48
630.357	40.76
630.689	40.76
631.021	40.8
631.353	40.9
631.684	41.25
632.016	41.02
632.348	41.02
632.679	40.95
633.011	41.38
633.342	41.18
633.674	41.5
634.005	40.94
634.336	41.41
634.668	41.64
634.999	41.45
635.33	41.37
635.661	41.85
635.992	41.48
636.323	41.78
636.654	41.59
636.985	41.7
637.316	41.51
637.647	41.42
637.977	41.57
638.308	41.38
638.639	41.25
638.969	41.89
639.3	41.54
639.63	41.74
639.961	41.95
640.291	41.59
640.622	42.16
640.952	41.87
641.282	41.82
641.612	42.12
641.943	41.76
642.273	41.93
642.603	42.34
642.933	41.92
643.263	42.06
643.592	42.09
643.922	42.31
644.252	41.92
644.582	42.33
644.911	42.15
645.241	42.33
645.571	42.18
645.9	42.39
646.23	41.98
646.559	42.29
646.888	42.02
647.218	41.95
647.547	42.63
647.876	42.5
648.205	42.43
648.534	42.78
648.863	42.62
649.192	42.38
649.521	42.61
649.85	42.4
650.179	43.04
650.508	42.36
650.837	42.49
651.165	42.54
651.494	42.34
651.822	42.78
652.151	42.8
652.479	42.96
652.808	42.47
653.136	42.55
653.465	42.74
653.793	42.69
654.121	42.73
654.449	43.09
654.777	42.82
655.105	42.25
655.433	43.06
655.761	42.94
656.089	42.53
656.417	42.9
656.745	42.76
657.073	42.99
657.4	42.88
657.728	42.96
658.056	42.88
658.383	42.93
658.711	42.94
659.038	43.12
659.365	43.22
659.693	43.24
660.02	42.77
660.347	43.74
660.674	43.68
661.001	43.83
661.329	43.34
661.656	43.4
661.982	42.88
662.309	43.35
662.636	43.69
662.963	43.46
663.29	43.06
663.616	43.37
663.943	43.44
664.27	43.61
664.596	43.65
664.923	43.33
665.249	43.91
665.576	44.1
665.902	44.15
666.228	44.34
666.554	43.43
666.881	43.83
667.207	44.34
667.533	44
667.859	43.38
668.185	43.23
668.511	44.07
668.837	43.65
669.162	43.9
669.488	43.64
669.814	44.58
