Data from 0018_crown_Reflection__3__89.txt Node

Date: Mon Oct 17 15:09:52 CDT 2022
User: ToomeyLab
Spectrometer: FLMS14357
Trigger mode: 0
Integration Time (sec): 1.000000E-2
Scans to average: 100
Electric dark correction enabled: true
Nonlinearity correction enabled: false
Boxcar width: 0
XAxis mode: Wavelengths
Number of Pixels in Spectrum: 2048
>>>>>Begin Spectral Data<<<<<
189.047	-295.7
189.435	-295.7
189.823	-295.7
190.211	-147.87
190.599	146.68
190.987	-26.23
191.375	113.29
191.763	283.69
192.151	-707.29
192.538	-123.62
192.926	1.89
193.314	429.88
193.702	113.02
194.089	14.29
194.477	357.76
194.864	2083.1
195.252	408.05
195.639	111.45
196.027	193.44
196.414	210.47
196.801	21.44
197.189	52.79
197.576	59.48
197.963	-326.49
198.351	-828.66
198.738	-7.73
199.125	-42.92
199.512	-83.69
199.899	-40.23
200.286	-55.04
200.673	-37.1
201.06	-19.71
201.447	25.64
201.833	30.02
202.22	18.84
202.607	-22.84
202.994	10.61
203.38	-29.94
203.767	2.05
204.154	39.96
204.54	-62.79
204.927	20.36
205.313	-47.55
205.699	5.14
206.086	-22.44
206.472	-12.79
206.858	20.8
207.245	8.4
207.631	-19.69
208.017	1.59
208.403	35.66
208.789	-8.49
209.175	-57.37
209.561	-54.51
209.947	-61.09
210.333	29.74
210.719	-2.65
211.105	20.95
211.491	-16.6
211.876	-39.59
212.262	0.66
212.648	7.96
213.034	-38.9
213.419	7.04
213.805	-27.62
214.19	5.95
214.576	19.82
214.961	-3.64
215.346	-23.95
215.732	-27.26
216.117	-5.52
216.502	-20.03
216.888	-39.34
217.273	9.63
217.658	4.35
218.043	16.03
218.428	-22.2
218.813	-7.04
219.198	-6.92
219.583	-4.24
219.968	-0.82
220.353	-9.36
220.738	-49.04
221.122	-9.21
221.507	0.61
221.892	12.56
222.276	1.73
222.661	0.87
223.046	1.43
223.43	5.68
223.815	-11.24
224.199	4.64
224.583	-3.85
224.968	-6.9
225.352	-19.48
225.736	12.16
226.121	4.96
226.505	5.08
226.889	4.23
227.273	5.69
227.657	8.98
228.041	11.1
228.425	7.66
228.809	8.29
229.193	8.51
229.577	8.75
229.961	9.76
230.344	8.88
230.728	8.53
231.112	8.25
231.495	8.26
231.879	8.85
232.263	7.99
232.646	8.19
233.03	8.81
233.413	5.49
233.797	8.65
234.18	9.56
234.563	4.54
234.946	7.4
235.33	8.19
235.713	7.23
236.096	8.66
236.479	6.45
236.862	8.19
237.245	6.92
237.628	8.23
238.011	7.62
238.394	8.94
238.777	8.64
239.16	9.96
239.543	7.28
239.925	7.02
240.308	8.29
240.691	6.96
241.073	7.68
241.456	6.74
241.838	6.98
242.221	6.71
242.603	7.66
242.986	6.95
243.368	8.21
243.75	7.85
244.133	8.12
244.515	7.81
244.897	8.83
245.279	8.5
245.661	8.26
246.043	8.61
246.425	6.09
246.807	6.86
247.189	7.71
247.571	7.27
247.953	7.42
248.335	7.79
248.717	7.83
249.098	7.73
249.48	7.69
249.862	7.39
250.243	7.57
250.625	7.47
251.006	6.95
251.388	6.76
251.769	7.81
252.151	6.93
252.532	7.13
252.913	6.67
253.295	6.41
253.676	6.96
254.057	7.5
254.438	7.16
254.819	7.67
255.2	7.89
255.581	7.26
255.962	5.68
256.343	6.22
256.724	6.46
257.105	5.53
257.486	6
257.867	5.72
258.247	6.25
258.628	6.91
259.009	7.08
259.389	6.53
259.77	7.01
260.15	6.82
260.531	6.37
260.911	6.75
261.292	7.01
261.672	6.63
262.052	6.67
262.432	6.6
262.813	6.75
263.193	6.65
263.573	6.97
263.953	6
264.333	6.56
264.713	6.43
265.093	6.22
265.473	6.37
265.853	6.85
266.233	7.42
266.612	6.1
266.992	6.63
267.372	6.6
267.752	6.6
268.131	6.78
268.511	6.55
268.89	6.73
269.27	5.93
269.649	6.53
270.029	6.69
270.408	7.07
270.787	5.93
271.167	6.22
271.546	6.65
271.925	6
272.304	5.98
272.683	6.33
273.062	6.26
273.441	5.75
273.82	6.18
274.199	6.76
274.578	6.55
274.957	5.95
275.336	6.36
275.715	6.06
276.093	5.93
276.472	5.74
276.851	6.25
277.229	6.09
277.608	5.52
277.986	5.83
278.365	6.48
278.743	6.09
279.122	5.26
279.5	6.21
279.878	6.1
280.257	5.9
280.635	5.51
281.013	6.35
281.391	6.05
281.769	5.96
282.147	6.22
282.525	5.68
282.903	5.12
283.281	5.7
283.659	5.32
284.037	5.58
284.415	5.71
284.792	5.6
285.17	4.97
285.548	5.2
285.925	5.8
286.303	5.91
286.68	5.99
287.058	5.86
287.435	5.72
287.813	5.78
288.19	5.67
288.567	5.63
288.945	5.44
289.322	6.28
289.699	5.52
290.076	5.4
290.453	5.57
290.83	5.13
291.207	5.69
291.584	5.3
291.961	5.57
292.338	5.54
292.715	4.92
293.092	5.57
293.469	5.45
293.845	5.31
294.222	5.53
294.599	6.02
294.975	4.8
295.352	5.32
295.728	5.16
296.105	4.94
296.481	5
296.858	5.73
297.234	5.48
297.61	5.34
297.986	5.34
298.363	5.41
298.739	5.52
299.115	5.65
299.491	5.33
299.867	5.37
300.243	5.15
300.619	4.87
300.995	5.58
301.371	5.22
301.746	5.33
302.122	5.44
302.498	5
302.874	5.85
303.249	5.77
303.625	5.32
304	5.48
304.376	5.46
304.751	5.71
305.127	5.04
305.502	5.41
305.878	5.15
306.253	5.23
306.628	5.47
307.003	5.29
307.378	5.27
307.754	5.04
308.129	5
308.504	5.25
308.879	5.26
309.254	4.9
309.629	4.56
310.003	5.58
310.378	5.45
310.753	4.83
311.128	5.36
311.502	5.28
311.877	5.57
312.252	4.96
312.626	5.11
313.001	4.99
313.375	5.25
313.75	5.33
314.124	5.19
314.498	5.49
314.873	4.9
315.247	4.88
315.621	5.44
315.995	4.9
316.369	4.68
316.743	5.18
317.117	5.21
317.491	5.37
317.865	5.63
318.239	5.42
318.613	5.32
318.987	5
319.361	4.85
319.734	5.76
320.108	4.96
320.482	4.88
320.855	4.88
321.229	5.3
321.602	5.44
321.976	4.87
322.349	4.45
322.723	4.28
323.096	5.15
323.469	5.17
323.843	5.22
324.216	5.06
324.589	4.84
324.962	5.2
325.335	5.15
325.708	5.41
326.081	5.17
326.454	5.43
326.827	5
327.2	4.99
327.573	4.74
327.945	4.97
328.318	5.08
328.691	4.99
329.063	5.41
329.436	4.78
329.809	5.04
330.181	5.68
330.553	5.04
330.926	5.28
331.298	5.6
331.671	5.28
332.043	5.51
332.415	5.46
332.787	4.95
333.159	5.42
333.532	5.19
333.904	5
334.276	5.64
334.648	4.9
335.02	5.17
335.391	5.24
335.763	5.63
336.135	5.04
336.507	5.71
336.879	5.5
337.25	5.6
337.622	5.24
337.993	5.43
338.365	5.68
338.736	5.11
339.108	5.78
339.479	5.49
339.851	5.51
340.222	5.15
340.593	5.41
340.964	5.66
341.336	5.2
341.707	5.34
342.078	6.15
342.449	5.35
342.82	5.25
343.191	5.39
343.562	5.91
343.933	5.13
344.303	5.33
344.674	5.95
345.045	5.91
345.416	5.39
345.786	5.66
346.157	5.55
346.527	5.75
346.898	5.5
347.268	5.66
347.639	5.37
348.009	5.39
348.38	5.73
348.75	5.69
349.12	5.73
349.49	5.82
349.861	5.6
350.231	5.44
350.601	5.99
350.971	5.54
351.341	5.28
351.711	5.49
352.081	5.38
352.45	5.65
352.82	5.98
353.19	5.65
353.56	5.76
353.929	5.78
354.299	5.65
354.669	5.72
355.038	6.07
355.408	6
355.777	5.72
356.147	5.92
356.516	5.61
356.885	5.8
357.254	6.25
357.624	6.21
357.993	5.65
358.362	5.72
358.731	5.77
359.1	5.76
359.469	5.82
359.838	5.99
360.207	6.02
360.576	5.65
360.945	6.12
361.314	5.98
361.682	5.99
362.051	5.92
362.42	5.92
362.788	6.15
363.157	6.17
363.525	5.92
363.894	6.13
364.262	6.2
364.631	6.17
364.999	5.8
365.367	5.63
365.735	6.06
366.104	5.93
366.472	5.51
366.84	6.05
367.208	6.11
367.576	6
367.944	5.82
368.312	6.12
368.68	6.25
369.048	6.01
369.416	6.14
369.783	6.07
370.151	5.89
370.519	6.64
370.886	6.29
371.254	5.82
371.621	5.94
371.989	6.12
372.356	6.15
372.724	6.33
373.091	6.35
373.458	6.19
373.826	6.44
374.193	6.34
374.56	6.3
374.927	6.01
375.294	6.05
375.661	6.21
376.028	6.23
376.395	5.89
376.762	6.28
377.129	6.34
377.496	6.01
377.863	6.23
378.229	6.29
378.596	5.9
378.963	6.15
379.329	6.4
379.696	6.21
380.062	6.69
380.429	6.13
380.795	6.66
381.161	6.23
381.528	6.2
381.894	6.16
382.26	6.48
382.626	6.44
382.993	6.41
383.359	6.37
383.725	6.09
384.091	6.3
384.457	6.38
384.823	6.02
385.188	6.22
385.554	6.34
385.92	6.41
386.286	6.51
386.651	6.63
387.017	6.53
387.383	6.37
387.748	6.35
388.114	6.25
388.479	6.73
388.845	6.52
389.21	6.1
389.575	6.39
389.94	6.53
390.306	6.49
390.671	6.88
391.036	6.66
391.401	6.33
391.766	6.62
392.131	6.32
392.496	6.75
392.861	6.33
393.226	6.33
393.591	6.5
393.956	6.61
394.32	6.71
394.685	6.5
395.05	6.62
395.414	6.66
395.779	6.6
396.143	6.56
396.508	6.44
396.872	6.58
397.236	6.56
397.601	6.42
397.965	6.46
398.329	6.74
398.694	6.67
399.058	6.79
399.422	6.84
399.786	6.75
400.15	6.7
400.514	6.52
400.878	6.83
401.242	6.46
401.605	6.75
401.969	6.69
402.333	6.43
402.697	6.36
403.06	6.28
403.424	6.53
403.787	6.8
404.151	6.52
404.514	6.76
404.878	6.89
405.241	6.46
405.604	6.68
405.968	6.75
406.331	6.58
406.694	6.62
407.057	6.69
407.42	6.69
407.783	6.68
408.146	6.93
408.509	7.11
408.872	6.67
409.235	6.71
409.598	6.67
409.961	6.64
410.323	6.71
410.686	6.81
411.049	6.44
411.411	6.79
411.774	6.59
412.136	6.76
412.499	6.87
412.861	6.9
413.223	6.65
413.586	6.45
413.948	6.83
414.31	6.61
414.672	6.61
415.035	6.78
415.397	7.01
415.759	6.88
416.121	6.72
416.483	7.11
416.845	7.02
417.206	6.85
417.568	6.96
417.93	6.7
418.292	6.88
418.653	6.6
419.015	6.9
419.377	6.86
419.738	6.71
420.1	6.87
420.461	6.69
420.822	6.85
421.184	6.66
421.545	6.58
421.906	6.77
422.267	6.67
422.629	6.62
422.99	6.68
423.351	6.66
423.712	6.78
424.073	6.71
424.434	6.75
424.795	6.77
425.155	6.86
425.516	6.61
425.877	6.66
426.238	6.71
426.598	6.7
426.959	6.68
427.32	6.73
427.68	6.74
428.041	6.8
428.401	6.91
428.761	6.8
429.122	6.87
429.482	6.8
429.842	6.8
430.202	6.9
430.563	6.77
430.923	6.72
431.283	6.7
431.643	6.76
432.003	6.82
432.363	6.87
432.722	6.88
433.082	6.8
433.442	6.99
433.802	6.81
434.161	6.66
434.521	7.05
434.881	6.93
435.24	6.81
435.6	7
435.959	6.79
436.319	7
436.678	6.71
437.037	6.96
437.396	6.98
437.756	7.2
438.115	6.79
438.474	6.77
438.833	6.93
439.192	6.82
439.551	6.78
439.91	6.85
440.269	6.8
440.628	6.73
440.987	6.83
441.345	6.78
441.704	6.79
442.063	6.64
442.421	6.85
442.78	6.71
443.138	6.81
443.497	6.84
443.855	6.94
444.214	6.86
444.572	6.66
444.93	6.91
445.288	6.88
445.647	6.82
446.005	6.98
446.363	6.94
446.721	6.8
447.079	6.85
447.437	6.85
447.795	6.83
448.153	6.82
448.51	6.7
448.868	6.9
449.226	6.84
449.584	6.88
449.941	6.86
450.299	6.83
450.656	6.75
451.014	6.83
451.371	6.96
451.729	6.83
452.086	6.88
452.443	6.97
452.801	6.81
453.158	7
453.515	6.83
453.872	6.79
454.229	6.77
454.586	6.71
454.943	6.81
455.3	6.91
455.657	6.84
456.014	6.95
456.371	6.84
456.727	7
457.084	6.98
457.441	6.8
457.797	7.02
458.154	6.99
458.51	6.89
458.867	7.08
459.223	7.12
459.58	6.92
459.936	6.84
460.292	6.89
460.648	6.86
461.005	6.74
461.361	6.78
461.717	6.81
462.073	6.78
462.429	6.8
462.785	6.81
463.141	6.96
463.496	6.71
463.852	6.96
464.208	6.94
464.564	6.92
464.919	6.88
465.275	6.68
465.631	7.04
465.986	6.89
466.342	7.01
466.697	6.92
467.052	6.88
467.408	6.92
467.763	6.84
468.118	7.11
468.473	7.11
468.829	6.85
469.184	6.91
469.539	6.82
469.894	6.76
470.249	7.01
470.603	6.93
470.958	6.91
471.313	6.93
471.668	6.85
472.023	7.08
472.377	6.94
472.732	6.77
473.086	7.02
473.441	7.07
473.795	6.95
474.15	7.03
474.504	6.93
474.859	6.94
475.213	6.85
475.567	7.09
475.921	6.87
476.275	6.71
476.63	6.79
476.984	6.94
477.338	6.91
477.692	6.91
478.045	7.13
478.399	6.9
478.753	6.86
479.107	6.88
479.461	6.84
479.814	6.8
480.168	6.87
480.521	6.84
480.875	6.82
481.228	6.79
481.582	6.98
481.935	6.94
482.289	6.75
482.642	6.72
482.995	6.86
483.348	6.88
483.701	6.79
484.055	6.72
484.408	6.82
484.761	6.67
485.114	6.55
485.466	6.51
485.819	6.48
486.172	6.48
486.525	6.58
486.878	6.6
487.23	6.62
487.583	6.69
487.936	6.6
488.288	6.74
488.641	6.53
488.993	6.5
489.345	6.56
489.698	6.59
490.05	6.57
490.402	6.62
490.754	6.61
491.107	6.62
491.459	6.65
491.811	6.76
492.163	6.67
492.515	6.7
492.866	6.6
493.218	6.62
493.57	6.58
493.922	6.64
494.274	6.7
494.625	6.8
494.977	6.74
495.328	6.88
495.68	6.89
496.031	6.86
496.383	6.75
496.734	6.88
497.086	6.83
497.437	6.83
497.788	6.84
498.139	6.67
498.49	6.75
498.842	6.81
499.193	6.59
499.544	6.76
499.894	6.75
500.245	6.66
500.596	6.8
500.947	6.9
501.298	6.8
501.648	6.72
501.999	6.79
502.35	6.83
502.7	6.86
503.051	6.75
503.401	6.9
503.752	6.87
504.102	6.77
504.452	6.73
504.803	6.89
505.153	6.85
505.503	6.89
505.853	6.68
506.203	6.78
506.553	6.88
506.903	6.71
507.253	6.72
507.603	6.66
507.953	6.83
508.303	6.75
508.652	6.77
509.002	6.8
509.352	6.69
509.701	6.69
510.051	6.82
510.4	6.71
510.75	6.78
511.099	6.78
511.449	6.71
511.798	6.77
512.147	6.74
512.496	6.7
512.846	6.68
513.195	6.71
513.544	6.76
513.893	6.78
514.242	6.77
514.591	6.73
514.939	6.68
515.288	6.61
515.637	6.65
515.986	6.81
516.334	6.79
516.683	6.83
517.032	6.72
517.38	6.66
517.729	6.71
518.077	6.76
518.426	6.68
518.774	6.7
519.122	6.69
519.47	6.69
519.819	6.72
520.167	6.63
520.515	6.61
520.863	6.65
521.211	6.67
521.559	6.58
521.907	6.62
522.255	6.71
522.602	6.61
522.95	6.78
523.298	6.66
523.645	6.72
523.993	6.77
524.341	6.76
524.688	6.63
525.036	6.76
525.383	6.68
525.73	6.79
526.078	6.77
526.425	6.61
526.772	6.65
527.119	6.59
527.466	6.53
527.814	6.55
528.161	6.58
528.508	6.57
528.854	6.48
529.201	6.48
529.548	6.48
529.895	6.41
530.242	6.38
530.588	6.37
530.935	6.41
531.282	6.35
531.628	6.42
531.975	6.44
532.321	6.43
532.667	6.58
533.014	6.56
533.36	6.59
533.706	6.56
534.052	6.56
534.399	6.55
534.745	6.35
535.091	6.42
535.437	6.53
535.783	6.48
536.129	6.53
536.474	6.52
536.82	6.55
537.166	6.46
537.512	6.48
537.857	6.56
538.203	6.5
538.549	6.37
538.894	6.51
539.239	6.61
539.585	6.54
539.93	6.58
540.276	6.46
540.621	6.48
540.966	6.54
541.311	6.44
541.656	6.5
542.001	6.54
542.346	6.46
542.691	6.45
543.036	6.35
543.381	6.33
543.726	6.35
544.071	6.38
544.415	6.43
544.76	6.44
545.105	6.36
545.449	6.44
545.794	6.43
546.138	6.56
546.483	6.42
546.827	6.49
547.171	6.44
547.516	6.47
547.86	6.54
548.204	6.34
548.548	6.44
548.892	6.47
549.236	6.54
549.58	6.49
549.924	6.58
550.268	6.45
550.612	6.57
550.956	6.64
551.3	6.44
551.643	6.57
551.987	6.49
552.33	6.44
552.674	6.32
553.017	6.55
553.361	6.48
553.704	6.38
554.048	6.37
554.391	6.45
554.734	6.41
555.077	6.35
555.42	6.55
555.764	6.34
556.107	6.38
556.45	6.47
556.793	6.5
557.135	6.45
557.478	6.49
557.821	6.67
558.164	6.4
558.507	6.47
558.849	6.47
559.192	6.41
559.534	6.48
559.877	6.3
560.219	6.06
560.562	6.22
560.904	6.27
561.246	6.41
561.589	6.31
561.931	6.28
562.273	6.55
562.615	6.36
562.957	6.43
563.299	6.41
563.641	6.44
563.983	6.32
564.325	6.55
564.667	6.7
565.008	6.52
565.35	6.36
565.692	6.65
566.033	6.42
566.375	6.23
566.716	6.58
567.058	6.36
567.399	6.2
567.741	6.26
568.082	6.43
568.423	6.29
568.764	6.42
569.105	6.36
569.447	6.21
569.788	6.27
570.129	6.2
570.47	6.27
570.811	6.42
571.151	6.22
571.492	6.5
571.833	6.38
572.174	6.51
572.514	6.39
572.855	6.17
573.195	6.08
573.536	6.26
573.876	6.22
574.217	6.17
574.557	6.13
574.898	6.14
575.238	6.27
575.578	6.15
575.918	6.28
576.258	6.12
576.598	6.12
576.938	6.17
577.278	6.27
577.618	6.17
577.958	6.14
578.298	6.26
578.638	6.27
578.977	6.36
579.317	6.05
579.657	6.03
579.996	6.09
580.336	6.36
580.675	5.99
581.014	6.07
581.354	5.95
581.693	5.9
582.032	6.31
582.372	6.26
582.711	6.15
583.05	5.96
583.389	6.11
583.728	6.42
584.067	6.04
584.406	6.05
584.745	6.14
585.083	6.11
585.422	6.19
585.761	5.87
586.1	6.46
586.438	6.2
586.777	6.19
587.115	6.23
587.454	6.1
587.792	6.18
588.13	6.15
588.469	5.96
588.807	5.93
589.145	6.06
589.483	6.05
589.821	6.01
590.159	6.27
590.497	6.36
590.835	6.16
591.173	6.23
591.511	5.99
591.849	5.89
592.187	6.13
592.524	6.16
592.862	6
593.2	5.86
593.537	6.2
593.875	5.88
594.212	6.36
594.55	6.18
594.887	6.14
595.224	6.15
595.561	6.01
595.899	6.25
596.236	6.29
596.573	6.01
596.91	6.19
597.247	6.21
597.584	5.69
597.921	6.11
598.258	6.07
598.594	5.94
598.931	6.02
599.268	5.89
599.604	5.82
599.941	5.78
600.277	5.92
600.614	5.85
600.95	5.81
601.287	5.61
601.623	5.89
601.959	5.93
602.296	6.06
602.632	5.67
602.968	5.78
603.304	6.12
603.64	6.11
603.976	5.77
604.312	5.83
604.648	5.8
604.984	5.97
605.319	5.69
605.655	6.14
605.991	6.06
606.326	5.8
606.662	5.87
606.998	5.87
607.333	6
607.668	5.82
608.004	5.87
608.339	5.93
608.674	5.89
609.01	5.9
609.345	6.03
609.68	6
610.015	5.81
610.35	5.77
610.685	5.42
611.02	5.83
611.355	5.83
611.689	5.97
612.024	5.83
612.359	5.89
612.694	5.69
613.028	5.69
613.363	5.93
613.697	5.75
614.032	5.93
614.366	5.95
614.7	5.59
615.035	5.9
615.369	6.08
615.703	5.53
616.037	6.17
616.371	5.8
616.705	5.87
617.039	6.08
617.373	6.04
617.707	5.97
618.041	5.73
618.375	5.54
618.709	5.76
619.042	5.82
619.376	5.79
619.71	5.97
620.043	5.93
620.377	6
620.71	5.93
621.043	6.09
621.377	6.07
621.71	6.05
622.043	6.08
622.376	5.64
622.709	5.73
623.043	5.72
623.376	5.41
623.709	5.9
624.041	5.44
624.374	6.26
624.707	5.91
625.04	5.75
625.373	5.97
625.705	5.71
626.038	5.17
626.37	5.65
626.703	6.02
627.035	5.88
627.368	5.52
627.7	5.76
628.032	5.6
628.365	5.41
628.697	5.89
629.029	5.92
629.361	5.71
629.693	5.92
630.025	5.67
630.357	5.65
630.689	5.49
631.021	5.37
631.353	5.63
631.684	5.44
632.016	5.66
632.348	5.99
632.679	6.06
633.011	5.4
633.342	5.69
633.674	5.77
634.005	5.52
634.336	5.7
634.668	5.55
634.999	5.75
635.33	5.51
635.661	5.82
635.992	5.82
636.323	5.8
636.654	5.55
636.985	5.53
637.316	5.81
637.647	5.52
637.977	5.33
638.308	5.51
638.639	5.26
638.969	5.5
639.3	5.46
639.63	5.78
639.961	5.84
640.291	5.27
640.622	5.72
640.952	5.61
641.282	5.86
641.612	5.85
641.943	5.45
642.273	5.55
642.603	5.52
642.933	5.63
643.263	5.73
643.592	5.48
643.922	5.74
644.252	5.72
644.582	5.51
644.911	5.87
645.241	5.95
645.571	4.7
645.9	5.95
646.23	5.44
646.559	5.72
646.888	5.76
647.218	5.38
647.547	5.65
647.876	5.8
648.205	5.46
648.534	5.76
648.863	5.21
649.192	5.51
649.521	5.74
649.85	5.29
650.179	6.11
650.508	5.42
650.837	5.37
651.165	5.61
651.494	5.59
651.822	5.36
652.151	5.43
652.479	5.63
652.808	5.36
653.136	5.67
653.465	5.11
653.793	5.55
654.121	5.51
654.449	5.81
654.777	5.5
655.105	5.8
655.433	5.25
655.761	5.53
656.089	5.32
656.417	5.47
656.745	5.14
657.073	5.57
657.4	5.39
657.728	6.18
658.056	5.06
658.383	5.2
658.711	5.64
659.038	5.43
659.365	5.24
659.693	4.95
660.02	5.13
660.347	5.66
660.674	5.36
661.001	5.69
661.329	5.52
661.656	5.47
661.982	5.55
662.309	5.92
662.636	5.68
662.963	5.27
663.29	5.63
663.616	5.46
663.943	5.02
664.27	5.71
664.596	4.92
664.923	5.39
665.249	5.17
665.576	5.79
665.902	5.3
666.228	5.26
666.554	5.75
666.881	5.96
667.207	5.78
667.533	5.22
667.859	5.72
668.185	5.91
668.511	5.58
668.837	5.56
669.162	5.29
669.488	5.6
669.814	5.72
670.139	5.42
670.465	5.59
670.791	6.12
671.116	5.86
671.442	5.8
671.767	5.55
672.092	4.88
672.418	5.53
672.743	5.53
673.068	5.55
673.393	5.17
673.718	4.9
674.043	5.37
674.368	5.14
674.693	5.49
675.018	5.58
675.343	5.84
675.667	5.81
675.992	5.08
676.317	5.61
676.641	5.2
676.966	5.5
677.29	5.26
677.615	4.77
677.939	5.51
678.264	5.44
678.588	5.13
678.912	5.16
679.236	6.04
679.56	5.23
679.885	5.65
680.209	5.59
680.532	5.55
680.856	5.83
681.18	5.81
681.504	5.88
681.828	5.57
682.152	5.59
682.475	5.72
682.799	5.92
683.122	5.19
683.446	6.02
683.769	5.18
684.093	4.75
684.416	5.59
684.739	5.38
685.062	5.87
685.386	5.85
685.709	4.86
686.032	5.99
686.355	5.73
686.678	4.82
687.001	5.12
687.324	5.8
687.646	4.77
687.969	5.1
688.292	6.04
688.614	5.49
688.937	5.74
689.26	5.41
689.582	5.21
689.904	6.06
690.227	5.89
690.549	6.45
690.871	5.69
691.194	5.55
691.516	5.93
691.838	6.02
692.16	5.61
692.482	5.67
692.804	5.38
