Data from 0018_forehead_Reflection__2__94.txt Node

Date: Mon Oct 17 15:11:24 CDT 2022
User: ToomeyLab
Spectrometer: FLMS14357
Trigger mode: 0
Integration Time (sec): 1.000000E-2
Scans to average: 100
Electric dark correction enabled: true
Nonlinearity correction enabled: false
Boxcar width: 0
XAxis mode: Wavelengths
Number of Pixels in Spectrum: 2048
>>>>>Begin Spectral Data<<<<<
189.047	508.6
189.435	508.6
189.823	508.6
190.211	198.22
190.599	100.25
190.987	-108.34
191.375	-9.74
191.763	246.22
192.151	638.43
192.538	134.27
192.926	160.74
193.314	567.92
193.702	-24.45
194.089	81.4
194.477	70.24
194.864	195.77
195.252	371.87
195.639	206.23
196.027	156.66
196.414	-101.87
196.801	-29.31
197.189	126.87
197.576	111.33
197.963	260.9
198.351	-1019.71
198.738	50.02
199.125	18.22
199.512	-54.9
199.899	29.84
200.286	13.23
200.673	0.75
201.06	-17.16
201.447	11.84
201.833	67.93
202.22	18.99
202.607	12.77
202.994	17.77
203.38	18.62
203.767	25.69
204.154	52.81
204.54	-9.47
204.927	28.19
205.313	-12.58
205.699	11.05
206.086	-15.92
206.472	25.19
206.858	-9.24
207.245	17.78
207.631	46.44
208.017	47.53
208.403	10.18
208.789	38.52
209.175	6.38
209.561	4.94
209.947	-18.39
210.333	51.08
210.719	27.37
211.105	14.95
211.491	-2.96
211.876	9.63
212.262	29.99
212.648	-7.89
213.034	-3.65
213.419	9.69
213.805	3.66
214.19	38.71
214.576	-2.26
214.961	4.59
215.346	28.62
215.732	-2.15
216.117	25.45
216.502	28.36
216.888	45.68
217.273	27.69
217.658	47.55
218.043	5.35
218.428	-15.81
218.813	24.79
219.198	19.64
219.583	1.34
219.968	11.51
220.353	5.1
220.738	-12.33
221.122	-2.93
221.507	0.12
221.892	30.48
222.276	-5.35
222.661	17.36
223.046	6.48
223.43	7.72
223.815	-7.82
224.199	11.83
224.583	1.91
224.968	-1.75
225.352	-7.15
225.736	10.05
226.121	4.57
226.505	-0.21
226.889	-0.89
227.273	7.41
227.657	8.19
228.041	7.11
228.425	3.87
228.809	2.51
229.193	2.9
229.577	2.9
229.961	4.11
230.344	1.92
230.728	2.28
231.112	2.18
231.495	1.64
231.879	2.6
232.263	2.59
232.646	4.73
233.03	1.57
233.413	-0.5
233.797	2.69
234.18	3.05
234.563	-1.94
234.946	3.31
235.33	2.25
235.713	0.99
236.096	4.01
236.479	0.87
236.862	2.37
237.245	0.42
237.628	0.89
238.011	2.07
238.394	3.3
238.777	1.48
239.16	2.77
239.543	1.73
239.925	3.71
240.308	3.68
240.691	2.67
241.073	2.5
241.456	1.5
241.838	1.41
242.221	1.26
242.603	2.55
242.986	1.37
243.368	2.26
243.75	1.76
244.133	2.13
244.515	2.3
244.897	2.56
245.279	2.69
245.661	2.98
246.043	3.27
246.425	0.69
246.807	1.28
247.189	2.7
247.571	2.3
247.953	2.06
248.335	2.16
248.717	2.25
249.098	2.47
249.48	2.33
249.862	2.14
250.243	1.72
250.625	2.92
251.006	2.18
251.388	2.07
251.769	3.02
252.151	2.66
252.532	2.77
252.913	1.79
253.295	1.92
253.676	2.85
254.057	3.29
254.438	2.8
254.819	3.34
255.2	3.64
255.581	3.54
255.962	2.19
256.343	1.56
256.724	2.94
257.105	1.9
257.486	0.67
257.867	2.33
258.247	1.96
258.628	2.48
259.009	2.73
259.389	2.5
259.77	2.84
260.15	2.84
260.531	1.57
260.911	2.37
261.292	2.43
261.672	2.12
262.052	2.46
262.432	2.26
262.813	2.48
263.193	2.33
263.573	2.78
263.953	2.53
264.333	2.46
264.713	1.82
265.093	2.34
265.473	1.85
265.853	1.88
266.233	3.16
266.612	2.22
266.992	2.65
267.372	2.32
267.752	2.73
268.131	2.8
268.511	2.94
268.89	2.6
269.27	2.3
269.649	2.83
270.029	2.86
270.408	3.25
270.787	2.55
271.167	2.48
271.546	2.37
271.925	2.5
272.304	2.52
272.683	2.96
273.062	2.58
273.441	2.25
273.82	2.7
274.199	2.77
274.578	2.72
274.957	2.36
275.336	2.53
275.715	2.03
276.093	2.06
276.472	1.99
276.851	2.85
277.229	2.73
277.608	2.33
277.986	2.06
278.365	2.23
278.743	2.84
279.122	2.17
279.5	2.04
279.878	2.8
280.257	2.36
280.635	2.12
281.013	2.27
281.391	2.26
281.769	2.5
282.147	3.08
282.525	2.18
282.903	2.04
283.281	2.15
283.659	2.7
284.037	2.19
284.415	2.7
284.792	2.76
285.17	2.19
285.548	2.15
285.925	2.46
286.303	2.08
286.68	2.53
287.058	2.6
287.435	2.38
287.813	2.46
288.19	2.63
288.567	2.5
288.945	2.51
289.322	3.17
289.699	3.2
290.076	3.3
290.453	2.42
290.83	2.72
291.207	2.62
291.584	2.87
291.961	2.74
292.338	2.72
292.715	2.77
293.092	3.17
293.469	2.6
293.845	3.02
294.222	3.12
294.599	3.27
294.975	2.51
295.352	2.78
295.728	3.08
296.105	2.98
296.481	3.26
296.858	3.75
297.234	3.18
297.61	2.93
297.986	3
298.363	3.11
298.739	3.52
299.115	3.36
299.491	3.42
299.867	3.14
300.243	3.58
300.619	3.54
300.995	3.91
301.371	3.37
301.746	3.36
302.122	3.29
302.498	3.43
302.874	4.08
303.249	4.27
303.625	4.32
304	3.76
304.376	3.85
304.751	4.61
305.127	4.01
305.502	4.1
305.878	4.23
306.253	3.8
306.628	4.33
307.003	4.05
307.378	4.19
307.754	4.12
308.129	4.24
308.504	4.37
308.879	4.16
309.254	4.07
309.629	4.18
310.003	4.41
310.378	4.51
310.753	4.54
311.128	4.64
311.502	4.66
311.877	4.49
312.252	4.64
312.626	4.76
313.001	4.66
313.375	4.66
313.75	4.97
314.124	5.05
314.498	4.62
314.873	5.05
315.247	5.13
315.621	5.73
315.995	5.17
316.369	4.61
316.743	5.29
317.117	5.63
317.491	5.29
317.865	5.36
318.239	6.13
318.613	5.16
318.987	5.19
319.361	5.66
319.734	5.86
320.108	5.81
320.482	5.67
320.855	5.52
321.229	5.8
321.602	5.96
321.976	5.18
322.349	6.23
322.723	5.84
323.096	6.1
323.469	6.01
323.843	5.92
324.216	6.35
324.589	6.05
324.962	6.39
325.335	6.22
325.708	6.32
326.081	6.25
326.454	6.62
326.827	5.99
327.2	6.24
327.573	6.41
327.945	6.76
328.318	6.43
328.691	6.59
329.063	6.97
329.436	7.01
329.809	7.06
330.181	7.25
330.553	6.62
330.926	7.43
331.298	7.31
331.671	7.64
332.043	7.1
332.415	7.14
332.787	7.01
333.159	7.62
333.532	6.82
333.904	7.36
334.276	7.01
334.648	7.21
335.02	7.45
335.391	7.29
335.763	7.57
336.135	7.48
336.507	7.69
336.879	7.31
337.25	7.79
337.622	7.8
337.993	7.66
338.365	7.91
338.736	7.29
339.108	8.24
339.479	7.74
339.851	7.98
340.222	7.91
340.593	8.78
340.964	8.03
341.336	7.85
341.707	8.07
342.078	8.32
342.449	7.83
342.82	8.33
343.191	7.8
343.562	8.19
343.933	8.02
344.303	7.94
344.674	8.74
345.045	8.7
345.416	8.46
345.786	8.73
346.157	8.54
346.527	8.32
346.898	8.77
347.268	8.9
347.639	8.48
348.009	8.47
348.38	8.9
348.75	8.34
349.12	8.8
349.49	9.08
349.861	8.87
350.231	8.5
350.601	9.01
350.971	8.64
351.341	8.6
351.711	8.81
352.081	9.22
352.45	9.4
352.82	9.08
353.19	8.75
353.56	9.08
353.929	9.3
354.299	9.23
354.669	9.16
355.038	9.42
355.408	9.45
355.777	9.02
356.147	9.51
356.516	9.38
356.885	9.56
357.254	9.76
357.624	9.64
357.993	9.41
358.362	9.76
358.731	9.31
359.1	9.88
359.469	9.67
359.838	9.94
360.207	10.05
360.576	9.7
360.945	10
361.314	9.89
361.682	10.06
362.051	9.91
362.42	9.89
362.788	10.13
363.157	10
363.525	9.8
363.894	9.94
364.262	10.22
364.631	10.28
364.999	10.23
365.367	9.78
365.735	10.16
366.104	10.22
366.472	10.39
366.84	10.61
367.208	10.49
367.576	10.77
367.944	10.57
368.312	10.58
368.68	10.68
369.048	10.55
369.416	11.01
369.783	10.97
370.151	10.78
370.519	10.81
370.886	10.77
371.254	10.83
371.621	10.8
371.989	11.2
372.356	11.07
372.724	11.32
373.091	10.94
373.458	11.12
373.826	11.24
374.193	11.51
374.56	11.15
374.927	11.33
375.294	11.37
375.661	11.37
376.028	11.4
376.395	11.57
376.762	11.45
377.129	11.41
377.496	11.08
377.863	11.29
378.229	11.54
378.596	11.92
378.963	11.84
379.329	11.47
379.696	11.61
380.062	12.13
380.429	11.49
380.795	12.17
381.161	12.11
381.528	11.55
381.894	11.5
382.26	12.2
382.626	11.99
382.993	12.08
383.359	12.05
383.725	12.24
384.091	12.24
384.457	12.26
384.823	11.98
385.188	12.05
385.554	12.31
385.92	12.24
386.286	12.53
386.651	12.15
387.017	12.14
387.383	12.26
387.748	12.5
388.114	12.49
388.479	12.7
388.845	12.71
389.21	12.64
389.575	12.73
389.94	12.94
390.306	12.9
390.671	13.08
391.036	13.26
391.401	12.77
391.766	12.93
392.131	13.01
392.496	13.08
392.861	13.06
393.226	12.88
393.591	12.87
393.956	13.24
394.32	13.21
394.685	13.17
395.05	13.21
395.414	13.4
395.779	13.24
396.143	13.41
396.508	13.24
396.872	13.13
397.236	13.48
397.601	13.49
397.965	13.55
398.329	13.56
398.694	13.89
399.058	13.76
399.422	13.83
399.786	13.91
400.15	13.94
400.514	13.68
400.878	13.85
401.242	14.06
401.605	14.03
401.969	13.73
402.333	13.84
402.697	13.73
403.06	14.01
403.424	14.17
403.787	14.2
404.151	14.14
404.514	14.43
404.878	14.27
405.241	14.21
405.604	14.35
405.968	14.29
406.331	14
406.694	14.49
407.057	14.43
407.42	14.39
407.783	14.45
408.146	14.74
408.509	14.69
408.872	14.45
409.235	14.53
409.598	14.57
409.961	14.46
410.323	14.93
410.686	14.88
411.049	14.65
411.411	14.69
411.774	14.66
412.136	14.86
412.499	14.78
412.861	14.85
413.223	14.87
413.586	15.03
413.948	15.09
414.31	15.12
414.672	15.13
415.035	14.91
415.397	15.21
415.759	15.45
416.121	15.02
416.483	15.26
416.845	15.07
417.206	15.22
417.568	15.53
417.93	15.2
418.292	15.32
418.653	15.11
419.015	15.39
419.377	15.34
419.738	15.37
420.1	15.37
420.461	15.21
420.822	15.32
421.184	15.36
421.545	15.32
421.906	15.39
422.267	15.49
422.629	15.22
422.99	15.3
423.351	15.46
423.712	15.58
424.073	15.52
424.434	15.72
424.795	15.9
425.155	15.65
425.516	15.59
425.877	15.57
426.238	15.65
426.598	15.73
426.959	15.81
427.32	15.92
427.68	16.01
428.041	15.93
428.401	16.17
428.761	16.23
429.122	16.42
429.482	16.39
429.842	16.37
430.202	16.55
430.563	16.54
430.923	16.45
431.283	16.69
431.643	16.45
432.003	16.51
432.363	16.78
432.722	16.65
433.082	16.57
433.442	16.58
433.802	16.45
434.161	16.77
434.521	16.84
434.881	16.92
435.24	16.6
435.6	16.84
435.959	16.65
436.319	16.99
436.678	16.76
437.037	16.9
437.396	17.13
437.756	17.32
438.115	17.02
438.474	17.16
438.833	17.05
439.192	17.09
439.551	17.07
439.91	17.06
440.269	17.25
440.628	17.09
440.987	17.24
441.345	17.17
441.704	17.29
442.063	17.02
442.421	17.29
442.78	17.19
443.138	17.37
443.497	17.45
443.855	17.64
444.214	17.64
444.572	17.65
444.93	17.66
445.288	17.65
445.647	17.79
446.005	17.78
446.363	17.7
446.721	17.64
447.079	17.45
447.437	17.62
447.795	17.65
448.153	17.58
448.51	17.54
448.868	17.77
449.226	17.76
449.584	17.85
449.941	17.92
450.299	18.2
450.656	18.13
451.014	18.13
451.371	18.24
451.729	18.39
452.086	18.35
452.443	18.55
452.801	18.3
453.158	18.57
453.515	18.37
453.872	18.38
454.229	18.41
454.586	18.53
454.943	18.45
455.3	18.72
455.657	18.66
456.014	18.63
456.371	18.81
456.727	18.74
457.084	18.84
457.441	18.89
457.797	18.83
458.154	19
458.51	19.11
458.867	18.99
459.223	18.94
459.58	18.88
459.936	18.83
460.292	18.93
460.648	18.84
461.005	18.74
461.361	18.76
461.717	18.69
462.073	18.62
462.429	18.94
462.785	19.2
463.141	19.2
463.496	19.28
463.852	19.58
464.208	19.55
464.564	19.49
464.919	19.64
465.275	19.28
465.631	19.66
465.986	19.52
466.342	19.53
466.697	19.75
467.052	19.68
467.408	19.76
467.763	19.51
468.118	19.75
468.473	19.75
468.829	19.66
469.184	19.77
469.539	19.7
469.894	19.86
470.249	19.94
470.603	20
470.958	20.23
471.313	19.99
471.668	20.29
472.023	20.19
472.377	20.17
472.732	20.11
473.086	20.24
473.441	20.13
473.795	20.43
474.15	20.32
474.504	20.31
474.859	20.27
475.213	20.42
475.567	20.78
475.921	20.39
476.275	20.62
476.63	20.64
476.984	20.55
477.338	20.65
477.692	20.64
478.045	20.73
478.399	20.72
478.753	20.66
479.107	20.76
479.461	20.63
479.814	20.66
480.168	20.79
480.521	20.74
480.875	20.86
481.228	20.94
481.582	20.98
481.935	20.94
482.289	20.96
482.642	20.81
482.995	20.9
483.348	20.81
483.701	20.64
484.055	20.6
484.408	20.57
484.761	20.29
485.114	19.96
485.466	19.85
485.819	19.89
486.172	20.16
486.525	20.45
486.878	20.75
487.23	20.9
487.583	21.14
487.936	21.01
488.288	20.86
488.641	20.63
488.993	20.48
489.345	20.44
489.698	20.55
490.05	20.7
490.402	20.92
490.754	21.11
491.107	21.32
491.459	21.42
491.811	21.45
492.163	21.54
492.515	21.25
492.866	20.96
493.218	20.82
493.57	20.93
493.922	21.03
494.274	21.49
494.625	21.8
494.977	21.88
495.328	22.12
495.68	22.16
496.031	21.99
496.383	22.37
496.734	22.15
497.086	22.24
497.437	22.18
497.788	22.25
498.139	22.1
498.49	21.94
498.842	22.1
499.193	22.08
499.544	22.34
499.894	22.23
500.245	22.42
500.596	22.52
500.947	22.59
501.298	22.63
501.648	22.74
501.999	22.67
502.35	22.68
502.7	22.8
503.051	22.9
503.401	22.84
503.752	23.13
504.102	22.9
504.452	23.04
504.803	22.99
505.153	22.97
505.503	22.98
505.853	22.94
506.203	23.01
506.553	23.05
506.903	23.18
507.253	23.16
507.603	23.19
507.953	23.23
508.303	23.18
508.652	23.28
509.002	23.47
509.352	23.36
509.701	23.4
510.051	23.29
510.4	23.18
510.75	23.19
511.099	23.36
511.449	23.39
511.798	23.41
512.147	23.49
512.496	23.56
512.846	23.58
513.195	23.56
513.544	23.62
513.893	23.63
514.242	23.83
514.591	23.67
514.939	23.66
515.288	23.85
515.637	23.76
515.986	23.82
516.334	23.81
516.683	24.15
517.032	24.13
517.38	24.12
517.729	24.08
518.077	24.07
518.426	24.03
518.774	23.97
519.122	24.02
519.47	23.83
519.819	23.86
520.167	23.72
520.515	23.79
520.863	23.96
521.211	24.01
521.559	24.14
521.907	24.17
522.255	24.36
522.602	24.43
522.95	24.51
523.298	24.6
523.645	24.66
523.993	24.74
524.341	24.62
524.688	24.87
525.036	24.73
525.383	24.79
525.73	24.73
526.078	24.66
526.425	24.76
526.772	24.57
527.119	24.36
527.466	24.31
527.814	24.41
528.161	24.47
528.508	24.69
528.854	24.66
529.201	24.45
529.548	24.31
529.895	24.04
530.242	23.82
530.588	23.99
530.935	24.2
531.282	24.37
531.628	24.71
531.975	24.83
532.321	24.92
532.667	25.06
533.014	25.16
533.36	25.19
533.706	25.11
534.052	25.06
534.399	24.83
534.745	24.55
535.091	24.54
535.437	24.67
535.783	24.95
536.129	25.25
536.474	25.4
536.82	25.62
537.166	25.64
537.512	25.62
537.857	25.55
538.203	25.42
538.549	25.28
538.894	25.43
539.239	25.65
539.585	25.91
539.93	26.24
540.276	26.05
540.621	26.04
540.966	26.2
541.311	26.12
541.656	26
542.001	25.99
542.346	25.6
542.691	25.54
543.036	25.13
543.381	25.33
543.726	25.56
544.071	25.66
544.415	25.94
544.76	26.01
545.105	26.03
545.449	26.19
545.794	26.3
546.138	26.41
546.483	26.49
546.827	26.49
547.171	26.52
547.516	26.56
547.86	26.48
548.204	26.3
548.548	26.32
548.892	26.68
549.236	26.69
549.58	26.63
549.924	27.01
550.268	27.15
550.612	27.17
550.956	27.38
551.3	27.09
551.643	27.45
551.987	27.38
552.33	27.33
552.674	27.41
553.017	27.57
553.361	27.46
553.704	27.22
554.048	27.32
554.391	27.39
554.734	27.32
555.077	27.28
555.42	27.54
555.764	27.57
556.107	27.62
556.45	27.78
556.793	27.81
557.135	27.98
557.478	27.94
557.821	27.91
558.164	27.97
558.507	27.96
558.849	28.02
559.192	28.03
559.534	28.06
559.877	28.04
560.219	27.95
560.562	27.98
560.904	28.08
561.246	28.3
561.589	28.21
561.931	28.29
562.273	28.27
562.615	28.28
562.957	28.44
563.299	28.49
563.641	28.35
563.983	28.24
564.325	28.68
564.667	28.52
565.008	28.53
565.35	28.7
565.692	28.67
566.033	28.52
566.375	28.74
566.716	28.56
567.058	28.46
567.399	28.6
567.741	28.54
568.082	28.44
568.423	28.47
568.764	28.47
569.105	28.73
569.447	28.76
569.788	29.12
570.129	28.93
570.47	29.08
570.811	28.84
571.151	29.04
571.492	29.01
571.833	28.79
572.174	29.17
572.514	29.21
572.855	28.99
573.195	29.1
573.536	29.1
573.876	29.06
574.217	29.06
574.557	28.95
574.898	29.23
575.238	29.39
575.578	29.36
575.918	29.35
576.258	29.35
576.598	29.48
576.938	29.47
577.278	29.39
577.618	29.48
577.958	29.47
578.298	29.82
578.638	29.76
578.977	29.96
579.317	29.82
579.657	30.04
579.996	29.71
580.336	30.15
580.675	30.13
581.014	29.94
581.354	30.09
581.693	29.98
582.032	30.09
582.372	29.97
582.711	30.18
583.05	30.34
583.389	30.14
583.728	30.44
584.067	30.47
584.406	30.53
584.745	30.7
585.083	30.65
585.422	30.56
585.761	30.56
586.1	30.62
586.438	30.66
586.777	30.75
587.115	30.95
587.454	30.75
587.792	30.73
588.13	30.58
588.469	30.67
588.807	30.63
589.145	30.67
589.483	30.95
589.821	30.84
590.159	30.77
590.497	31.03
590.835	31.2
591.173	30.99
591.511	30.92
591.849	30.96
592.187	30.8
592.524	30.98
592.862	30.83
593.2	30.96
593.537	31.35
593.875	31.26
594.212	31.29
594.55	31.47
594.887	30.9
595.224	31.45
595.561	31.06
595.899	31.43
596.236	31.13
596.573	31.17
596.91	31.52
597.247	31.55
597.584	31.36
597.921	31.42
598.258	31.1
598.594	31.08
598.931	31.11
599.268	31.2
599.604	31.33
599.941	31.59
600.277	31.63
600.614	31.96
600.95	32.03
601.287	31.79
601.623	31.94
601.959	31.88
602.296	31.77
602.632	31.9
602.968	32.04
603.304	31.8
603.64	32.23
603.976	31.8
604.312	32.1
604.648	32.09
604.984	31.75
605.319	31.66
605.655	31.76
605.991	32.18
606.326	31.83
606.662	31.72
606.998	31.79
607.333	31.96
607.668	32.1
608.004	32
608.339	32.27
608.674	32.36
609.01	32.28
609.345	32.56
609.68	32.46
610.015	32.58
610.35	32.36
610.685	32.16
611.02	32.21
611.355	32.09
611.689	32.32
612.024	32.64
612.359	32.63
612.694	32.75
613.028	32.61
613.363	32.8
613.697	32.7
614.032	32.85
614.366	32.88
614.7	32.95
615.035	32.88
615.369	33.18
615.703	32.79
616.037	33.19
616.371	33.16
616.705	33.12
617.039	32.85
617.373	33.31
617.707	33.21
618.041	33.27
618.375	32.91
618.709	33.05
619.042	33.35
619.376	33.09
619.71	33.21
620.043	33.18
620.377	33.54
620.71	33.45
621.043	33.59
621.377	33.56
621.71	33.6
622.043	33.67
622.376	33.74
622.709	33.63
623.043	33.72
623.376	33.29
623.709	33.22
624.041	33.59
624.374	33.81
624.707	33.45
625.04	33.48
625.373	33.92
625.705	33.68
626.038	33.53
626.37	33.73
626.703	33.84
627.035	33.95
627.368	33.44
627.7	33.68
628.032	33.82
628.365	33.78
628.697	33.95
629.029	33.81
629.361	33.85
629.693	33.83
630.025	33.98
630.357	33.96
630.689	33.8
631.021	33.93
631.353	33.73
631.684	34.34
632.016	34.25
632.348	34.46
632.679	34.37
633.011	34.25
633.342	34.7
633.674	34.29
634.005	34.34
634.336	34.25
634.668	34.78
634.999	34.46
635.33	34.37
635.661	34.12
635.992	34.34
636.323	34.31
636.654	34.39
636.985	34.46
637.316	34.18
637.647	34.52
637.977	34.58
638.308	34.6
638.639	34.39
638.969	34.7
639.3	34.85
639.63	35.12
639.961	34.87
640.291	34.81
640.622	34.72
640.952	35.07
641.282	35.01
641.612	35.51
641.943	35.36
642.273	34.93
642.603	35.66
642.933	35.42
643.263	35.31
643.592	35.19
643.922	35.05
644.252	35.4
644.582	35.66
644.911	35.53
645.241	35.42
645.571	34.89
645.9	35.42
646.23	35.26
646.559	35.29
646.888	34.93
647.218	35.71
647.547	35.76
647.876	35.7
648.205	35.88
648.534	35.71
648.863	35.91
649.192	35.41
649.521	36.02
649.85	35.76
650.179	35.73
650.508	35.44
650.837	35.62
651.165	35.53
651.494	35.29
651.822	35.98
652.151	36.2
652.479	35.88
652.808	35.95
653.136	36.47
653.465	35.72
653.793	35.75
654.121	35.82
654.449	35.83
654.777	35.61
655.105	35.73
655.433	35.85
655.761	35.88
656.089	35.93
656.417	35.95
656.745	35.99
657.073	36.25
657.4	36.08
657.728	36.43
658.056	35.46
658.383	36.26
658.711	35.84
659.038	35.65
659.365	36.36
659.693	35.79
660.02	35.68
660.347	36
660.674	36.2
661.001	35.69
661.329	35.92
661.656	36.12
661.982	35.95
662.309	36.67
662.636	36.68
662.963	36.87
663.29	36.51
663.616	36.63
663.943	36.45
664.27	36.78
664.596	36.46
664.923	36.35
665.249	36.95
665.576	36.95
665.902	36.2
666.228	36.53
666.554	36.76
666.881	37.07
667.207	37.23
667.533	37.31
667.859	36.54
668.185	36.43
668.511	36.68
668.837	36.83
669.162	37.13
669.488	36.96
669.814	37.38
670.139	36.64
670.465	37.19
670.791	36.71
671.116	37.82
671.442	37.24
