Data from 0244_chest_Reflection__2__110.txt Node

Date: Fri Oct 20 21:30:09 CDT 2023
User: ToomeyLab
Spectrometer: FLMS14357
Trigger mode: 0
Integration Time (sec): 1.000000E-2
Scans to average: 100
Electric dark correction enabled: true
Nonlinearity correction enabled: false
Boxcar width: 0
XAxis mode: Wavelengths
Number of Pixels in Spectrum: 2048
>>>>>Begin Spectral Data<<<<<
189.047	51.33
189.435	51.33
189.823	51.33
190.211	-49.6
190.599	70.79
190.987	192.32
191.375	99.46
191.763	97.45
192.151	50.32
192.538	36536.84
192.926	82.69
193.314	-155.18
193.702	251.66
194.089	206.8
194.477	178.29
194.864	-101.09
195.252	124.36
195.639	-88.61
196.027	82.29
196.414	-47.8
196.801	-25.95
197.189	44.23
197.576	-99.43
197.963	-108.86
198.351	66.09
198.738	35.59
199.125	48.94
199.512	22.14
199.899	37.01
200.286	-25.85
200.673	24.27
201.06	1.39
201.447	2.16
201.833	29.26
202.22	19.13
202.607	33.63
202.994	24.93
203.38	4.04
203.767	37.96
204.154	30.41
204.54	43.17
204.927	17.68
205.313	34.23
205.699	57.45
206.086	21.25
206.472	28.49
206.858	38.74
207.245	8.53
207.631	9.28
208.017	45.53
208.403	4.62
208.789	44.3
209.175	11.31
209.561	10.72
209.947	3.39
210.333	9.6
210.719	30.86
211.105	18.64
211.491	28.76
211.876	-3.55
212.262	35
212.648	24.81
213.034	7.01
213.419	21.43
213.805	0.28
214.19	-7.92
214.576	-19.44
214.961	3.75
215.346	18.27
215.732	25.37
216.117	-14.43
216.502	5.6
216.888	3.65
217.273	9.38
217.658	15.54
218.043	12.11
218.428	17.09
218.813	2.02
219.198	2.89
219.583	-25.34
219.968	12.81
220.353	26.4
220.738	16.63
221.122	7.25
221.507	18.91
221.892	8.82
222.276	7.69
222.661	18.16
223.046	10.9
223.43	-4.68
223.815	17.45
224.199	21.9
224.583	0.9
224.968	2.62
225.352	3.95
225.736	-1.51
226.121	10.17
226.505	6.75
226.889	6.57
227.273	6.98
227.657	8.6
228.041	8.6
228.425	3.49
228.809	7.05
229.193	6.05
229.577	6.7
229.961	2.09
230.344	3.26
230.728	2.4
231.112	4.5
231.495	2.28
231.879	3.4
232.263	4.2
232.646	1.9
233.03	1.86
233.413	2.35
233.797	2.08
234.18	3.95
234.563	5.73
234.946	7.15
235.33	4.83
235.713	3.48
236.096	4.54
236.479	2.66
236.862	3.52
237.245	2.68
237.628	3.61
238.011	3.67
238.394	3.01
238.777	5.58
239.16	1.95
239.543	3.93
239.925	4.13
240.308	4.44
240.691	2.38
241.073	5.23
241.456	2.28
241.838	3.42
242.221	3.67
242.603	3.28
242.986	4
243.368	2.6
243.75	2.9
244.133	2.76
244.515	2.81
244.897	2.99
245.279	3.27
245.661	2.98
246.043	2.46
246.425	2.52
246.807	2.67
247.189	3.16
247.571	2.97
247.953	3.02
248.335	3.12
248.717	2.88
249.098	2.52
249.48	2.84
249.862	3
250.243	2.89
250.625	2.7
251.006	3.22
251.388	2.99
251.769	3.33
252.151	2.64
252.532	3.12
252.913	2.6
253.295	2.06
253.676	3.1
254.057	2.87
254.438	2.93
254.819	3.23
255.2	2.94
255.581	3.39
255.962	3.57
256.343	3.79
256.724	1.96
257.105	3.46
257.486	3.54
257.867	3.61
258.247	3.31
258.628	3.77
259.009	2.23
259.389	2.9
259.77	1.97
260.15	3.71
260.531	2.99
260.911	3.18
261.292	2.69
261.672	2.82
262.052	2.95
262.432	2.93
262.813	2.79
263.193	2.99
263.573	3.01
263.953	2.79
264.333	3.34
264.713	3.44
265.093	3.16
265.473	3.44
265.853	2.86
266.233	3.45
266.612	3.31
266.992	3.07
267.372	2.63
267.752	2.58
268.131	3.42
268.511	2.96
268.89	2.75
269.27	2.43
269.649	2.54
270.029	2.92
270.408	2.73
270.787	2.96
271.167	3.3
271.546	2.99
271.925	3.1
272.304	3.43
272.683	3.26
273.062	2.89
273.441	3.05
273.82	2.44
274.199	3.37
274.578	2.82
274.957	2.82
275.336	3.05
275.715	3.15
276.093	2.38
276.472	3
276.851	3.3
277.229	3.02
277.608	2
277.986	2.53
278.365	3.17
278.743	2.51
279.122	2.84
279.5	2.43
279.878	2.31
280.257	2.82
280.635	3.34
281.013	3.41
281.391	2.6
281.769	2.66
282.147	2.77
282.525	2.79
282.903	3.01
283.281	2.88
283.659	2.62
284.037	2.84
284.415	1.94
284.792	2.86
285.17	2.84
285.548	2.83
285.925	2.76
286.303	2.65
286.68	2.64
287.058	3.07
287.435	2.7
287.813	2.36
288.19	2.64
288.567	2.66
288.945	2.79
289.322	2.98
289.699	2.36
290.076	2.93
290.453	3.09
290.83	2.72
291.207	3.17
291.584	2.54
291.961	2.77
292.338	2.62
292.715	2.63
293.092	2.63
293.469	2.65
293.845	2.59
294.222	3.05
294.599	3.01
294.975	3.81
295.352	2.84
295.728	2.69
296.105	2.55
296.481	3.51
296.858	3.18
297.234	3.05
297.61	2.64
297.986	2.7
298.363	3
298.739	2.9
299.115	2.76
299.491	2.97
299.867	2.87
300.243	3.09
300.619	2.53
300.995	2.75
301.371	3.02
301.746	2.91
302.122	3.01
302.498	2.67
302.874	2.94
303.249	2.92
303.625	3.21
304	3.23
304.376	3.08
304.751	2.74
305.127	2.51
305.502	3.68
305.878	3.12
306.253	3.48
306.628	3.37
307.003	3.05
307.378	3.07
307.754	3.06
308.129	3.3
308.504	3.28
308.879	3.09
309.254	3.5
309.629	2.9
310.003	2.66
310.378	3.01
310.753	2.78
311.128	3.37
311.502	2.97
311.877	3.38
312.252	3.13
312.626	2.96
313.001	3.06
313.375	2.67
313.75	3.27
314.124	2.67
314.498	3.18
314.873	2.9
315.247	3.01
315.621	3.25
315.995	3.34
316.369	3.07
316.743	3.43
317.117	3.07
317.491	2.71
317.865	3.25
318.239	3.82
318.613	3.49
318.987	3.1
319.361	2.8
319.734	2.92
320.108	2.77
320.482	3.51
320.855	3.31
321.229	4
321.602	3.74
321.976	3.14
322.349	3.95
322.723	3.11
323.096	3.45
323.469	3
323.843	3.3
324.216	2.98
324.589	3.2
324.962	3.79
325.335	3.06
325.708	2.96
326.081	3
326.454	3.3
326.827	3.34
327.2	3.17
327.573	3.45
327.945	3.17
328.318	2.83
328.691	3.28
329.063	3.51
329.436	2.96
329.809	3.4
330.181	3.78
330.553	3.03
330.926	2.96
331.298	2.8
331.671	3.01
332.043	2.8
332.415	3.02
332.787	3.29
333.159	3.39
333.532	3.03
333.904	3.73
334.276	2.58
334.648	3.42
335.02	3.55
335.391	3.03
335.763	3.68
336.135	3.32
336.507	3.62
336.879	3.1
337.25	3.02
337.622	3.84
337.993	3.71
338.365	3.41
338.736	3.39
339.108	3.05
339.479	2.67
339.851	3.37
340.222	2.86
340.593	2.96
340.964	3.52
341.336	3.71
341.707	3.16
342.078	3.7
342.449	2.99
342.82	2.94
343.191	3.2
343.562	3.32
343.933	3.28
344.303	3.71
344.674	3.38
345.045	3.5
345.416	3.47
345.786	2.97
346.157	3.37
346.527	3.15
346.898	3.62
347.268	3.12
347.639	3.74
348.009	3.2
348.38	3.56
348.75	3.44
349.12	3.29
349.49	3.21
349.861	3.78
350.231	3.15
350.601	3.11
350.971	3.67
351.341	3.37
351.711	3.82
352.081	3.41
352.45	3.3
352.82	3.35
353.19	3.55
353.56	3.26
353.929	3.32
354.299	3.08
354.669	3.26
355.038	3.47
355.408	3.25
355.777	3.25
356.147	2.78
356.516	3.14
356.885	3.44
357.254	3.45
357.624	3.68
357.993	3.12
358.362	3.52
358.731	3.04
359.1	2.9
359.469	3.11
359.838	3.23
360.207	3.53
360.576	3.48
360.945	3.1
361.314	3.36
361.682	3.22
362.051	3.21
362.42	3.24
362.788	3.41
363.157	3.31
363.525	3.17
363.894	3.26
364.262	3.16
364.631	3.41
364.999	3.29
365.367	3.51
365.735	3.16
366.104	3.26
366.472	3.37
366.84	3.64
367.208	3.33
367.576	3.48
367.944	3.41
368.312	3.2
368.68	3.37
369.048	3.41
369.416	3.37
369.783	3.5
370.151	3.42
370.519	3.49
370.886	3.71
371.254	3.72
371.621	3.3
371.989	3
372.356	3.36
372.724	3.4
373.091	3.26
373.458	3.2
373.826	3.44
374.193	3.23
374.56	3.46
374.927	3.13
375.294	3.66
375.661	3.57
376.028	3.47
376.395	3.45
376.762	3.3
377.129	3.5
377.496	3.34
377.863	3.76
378.229	3.58
378.596	3.44
378.963	3.4
379.329	3.55
379.696	3.22
380.062	3.61
380.429	3.27
380.795	3.03
381.161	3.3
381.528	3.52
381.894	3.21
382.26	3.17
382.626	3.47
382.993	3.32
383.359	3.3
383.725	3.65
384.091	3.39
384.457	3.31
384.823	3.39
385.188	3.65
385.554	3.36
385.92	3.59
386.286	3.56
386.651	3.39
387.017	3.57
387.383	3.35
387.748	3.23
388.114	3.06
388.479	3.23
388.845	3.66
389.21	3.34
389.575	3.07
389.94	3.47
390.306	3.46
390.671	3.73
391.036	3.4
391.401	3.75
391.766	3.51
392.131	3.4
392.496	3.58
392.861	3.52
393.226	3.65
393.591	3.46
393.956	3.38
394.32	3.44
394.685	3.2
395.05	3.77
395.414	3.69
395.779	3.28
396.143	3.43
396.508	3.54
396.872	3.43
397.236	3.36
397.601	3.36
397.965	3.37
398.329	3.52
398.694	3.47
399.058	3.27
399.422	3.44
399.786	3.52
400.15	3.4
400.514	3.48
400.878	3.4
401.242	3.56
401.605	3.71
401.969	3.49
402.333	3.54
402.697	3.34
403.06	3.57
403.424	3.31
403.787	3.49
404.151	3.34
404.514	3.7
404.878	3.63
405.241	3.3
405.604	3.5
405.968	3.66
406.331	3.43
406.694	3.45
407.057	3.5
407.42	3.75
407.783	3.65
408.146	3.45
408.509	3.46
408.872	3.84
409.235	3.36
409.598	3.86
409.961	3.72
410.323	3.42
410.686	3.32
411.049	3.59
411.411	3.49
411.774	3.59
412.136	3.56
412.499	3.49
412.861	3.67
413.223	3.67
413.586	3.6
413.948	3.54
414.31	3.76
414.672	3.36
415.035	3.72
415.397	3.68
415.759	3.62
416.121	3.6
416.483	3.76
416.845	3.58
417.206	3.76
417.568	3.69
417.93	3.58
418.292	3.49
418.653	3.75
419.015	3.54
419.377	3.52
419.738	3.52
420.1	3.49
420.461	3.45
420.822	3.47
421.184	3.48
421.545	3.52
421.906	3.51
422.267	3.42
422.629	3.58
422.99	3.42
423.351	3.53
423.712	3.41
424.073	3.46
424.434	3.48
424.795	3.45
425.155	3.52
425.516	3.55
425.877	3.52
426.238	3.37
426.598	3.5
426.959	3.42
427.32	3.45
427.68	3.58
428.041	3.46
428.401	3.59
428.761	3.62
429.122	3.57
429.482	3.53
429.842	3.64
430.202	3.72
430.563	3.68
430.923	3.62
431.283	3.46
431.643	3.73
432.003	3.86
432.363	3.55
432.722	3.75
433.082	3.6
433.442	3.58
433.802	3.7
434.161	3.57
434.521	3.57
434.881	3.6
435.24	3.54
435.6	3.54
435.959	3.6
436.319	3.57
436.678	3.6
437.037	3.71
437.396	3.74
437.756	3.66
438.115	3.53
438.474	3.66
438.833	3.78
439.192	3.56
439.551	3.41
439.91	3.6
440.269	3.75
440.628	3.69
440.987	3.59
441.345	3.58
441.704	3.69
442.063	3.61
442.421	3.55
442.78	3.57
443.138	3.66
443.497	3.68
443.855	3.7
444.214	3.71
444.572	3.59
444.93	3.85
445.288	3.72
445.647	3.9
446.005	3.57
446.363	3.74
446.721	3.66
447.079	3.89
447.437	3.63
447.795	3.55
448.153	3.59
448.51	3.67
448.868	3.67
449.226	3.54
449.584	3.64
449.941	3.59
450.299	3.63
450.656	3.53
451.014	3.73
451.371	3.81
451.729	3.51
452.086	3.72
452.443	3.78
452.801	3.66
453.158	3.91
453.515	3.54
453.872	3.65
454.229	3.84
454.586	3.74
454.943	3.76
455.3	3.6
455.657	3.75
456.014	3.71
456.371	3.76
456.727	3.79
457.084	3.82
457.441	3.77
457.797	3.72
458.154	3.66
458.51	3.79
458.867	3.75
459.223	3.79
459.58	3.79
459.936	3.79
460.292	3.78
460.648	3.53
461.005	3.61
461.361	3.61
461.717	3.59
462.073	3.67
462.429	3.74
462.785	3.74
463.141	3.78
463.496	3.78
463.852	3.81
464.208	3.9
464.564	3.93
464.919	3.82
465.275	3.92
465.631	3.93
465.986	4.02
466.342	3.92
466.697	3.72
467.052	3.76
467.408	3.78
467.763	3.91
468.118	4.06
468.473	3.96
468.829	3.76
469.184	3.88
469.539	3.79
469.894	3.88
470.249	3.87
470.603	3.92
470.958	3.96
471.313	3.93
471.668	4.01
472.023	3.84
472.377	3.92
472.732	3.8
473.086	4.04
473.441	3.98
473.795	4.14
474.15	3.91
474.504	3.73
474.859	3.92
475.213	3.92
475.567	3.91
475.921	4
476.275	3.99
476.63	4.03
476.984	3.9
477.338	4.01
477.692	3.86
478.045	3.99
478.399	3.77
478.753	3.96
479.107	3.97
479.461	4.05
479.814	4.03
480.168	3.96
480.521	4.03
480.875	3.82
481.228	4.09
481.582	4.07
481.935	4.03
482.289	3.98
482.642	3.89
482.995	4.01
483.348	4.02
483.701	4.02
484.055	3.99
484.408	3.87
484.761	3.83
485.114	3.75
485.466	3.76
485.819	3.7
486.172	3.65
486.525	3.68
486.878	3.75
487.23	3.8
487.583	3.77
487.936	3.81
488.288	3.82
488.641	3.9
488.993	3.81
489.345	3.76
489.698	3.76
490.05	3.78
490.402	3.78
490.754	3.84
491.107	3.81
491.459	3.95
491.811	4.03
492.163	3.95
492.515	4
492.866	4
493.218	3.91
493.57	3.89
493.922	3.82
494.274	3.89
494.625	3.95
494.977	3.91
495.328	4.05
495.68	4.06
496.031	3.96
496.383	4.1
496.734	4.23
497.086	4.1
497.437	4.2
497.788	3.97
498.139	4.19
498.49	4.1
498.842	4.01
499.193	4.23
499.544	4.13
499.894	4.12
500.245	4.19
500.596	4.2
500.947	4.12
501.298	4.21
501.648	4.12
501.999	4.2
502.35	4.25
502.7	4.38
503.051	4.2
503.401	4.24
503.752	4.23
504.102	4.21
504.452	4.16
504.803	4.24
505.153	4.36
505.503	4.25
505.853	4.27
506.203	4.18
506.553	4.24
506.903	4.3
507.253	4.31
507.603	4.34
507.953	4.35
508.303	4.27
508.652	4.29
509.002	4.29
509.352	4.41
509.701	4.33
510.051	4.18
510.4	4.27
510.75	4.31
511.099	4.32
511.449	4.34
511.798	4.4
512.147	4.35
512.496	4.44
512.846	4.24
513.195	4.45
513.544	4.32
513.893	4.26
514.242	4.38
514.591	4.44
514.939	4.32
515.288	4.28
515.637	4.42
515.986	4.49
516.334	4.47
516.683	4.44
517.032	4.39
517.38	4.37
517.729	4.5
518.077	4.39
518.426	4.32
518.774	4.41
519.122	4.49
519.47	4.49
519.819	4.3
520.167	4.38
520.515	4.38
520.863	4.45
521.211	4.37
521.559	4.42
521.907	4.46
522.255	4.49
522.602	4.7
522.95	4.44
523.298	4.6
523.645	4.62
523.993	4.54
524.341	4.72
524.688	4.59
525.036	4.66
525.383	4.47
525.73	4.67
526.078	4.57
526.425	4.69
526.772	4.61
527.119	4.57
527.466	4.6
527.814	4.52
528.161	4.53
528.508	4.63
528.854	4.49
529.201	4.57
529.548	4.65
529.895	4.61
530.242	4.51
530.588	4.44
530.935	4.42
531.282	4.51
531.628	4.54
531.975	4.58
532.321	4.61
532.667	4.62
533.014	4.67
533.36	4.75
533.706	4.68
534.052	4.77
534.399	4.64
534.745	4.67
535.091	4.68
535.437	4.69
535.783	4.7
536.129	4.82
536.474	4.81
536.82	4.86
537.166	4.85
537.512	4.89
537.857	5
538.203	4.95
538.549	4.92
538.894	4.79
539.239	4.95
539.585	4.92
539.93	4.96
540.276	5.01
540.621	4.96
540.966	5.09
541.311	5.04
541.656	5
542.001	5.06
542.346	5.12
542.691	4.93
543.036	4.94
543.381	4.89
543.726	4.86
544.071	4.97
544.415	4.93
544.76	5.01
545.105	5.07
545.449	5.05
545.794	5.05
546.138	5.08
546.483	5.16
546.827	5.18
547.171	5.26
547.516	5.18
547.86	5.32
548.204	5.21
548.548	5.23
548.892	5.16
549.236	5.31
549.58	5.36
549.924	5.26
550.268	5.35
550.612	5.47
550.956	5.5
551.3	5.44
551.643	5.46
551.987	5.76
552.33	5.56
552.674	5.56
553.017	5.58
553.361	5.61
553.704	5.7
554.048	5.61
554.391	5.51
554.734	5.65
555.077	5.66
555.42	5.43
555.764	5.56
556.107	5.85
556.45	5.59
556.793	5.6
557.135	5.64
557.478	5.88
557.821	5.91
558.164	6.01
558.507	5.96
558.849	5.96
559.192	5.92
559.534	5.96
559.877	5.75
560.219	6.08
560.562	5.91
560.904	6
561.246	6
561.589	6.17
561.931	6.13
562.273	6.26
562.615	6.21
562.957	6.2
563.299	6.12
563.641	6.14
563.983	6
564.325	5.98
564.667	6.08
565.008	6.07
565.35	6.3
565.692	6.16
566.033	6.3
566.375	6.31
566.716	6.26
567.058	6.3
567.399	6.4
567.741	6.21
568.082	6.42
568.423	6.3
568.764	6.29
569.105	6.39
569.447	6.48
569.788	6.3
570.129	6.35
570.47	6.53
570.811	6.65
571.151	6.33
571.492	6.61
571.833	6.8
572.174	6.68
572.514	6.61
572.855	6.57
573.195	6.59
573.536	6.59
573.876	6.79
574.217	6.56
574.557	6.61
574.898	6.57
575.238	6.64
575.578	6.69
575.918	6.74
576.258	6.82
576.598	6.8
576.938	6.72
577.278	6.9
577.618	6.85
577.958	6.84
578.298	6.92
578.638	6.95
578.977	7.02
579.317	7.03
579.657	7.02
579.996	7.09
580.336	7.19
580.675	7.25
581.014	7.08
581.354	7.14
581.693	7.34
582.032	7.5
582.372	7.19
582.711	7.44
583.05	7.68
583.389	7.29
583.728	7.41
584.067	7.43
584.406	7.39
584.745	7.6
585.083	7.19
585.422	7.39
585.761	7.61
586.1	7.62
586.438	7.4
586.777	7.6
587.115	7.84
587.454	7.78
587.792	7.65
588.13	8.02
588.469	7.76
588.807	7.56
589.145	7.86
589.483	7.69
589.821	7.95
590.159	7.79
590.497	8.01
590.835	8.11
591.173	7.99
591.511	8.01
591.849	7.95
592.187	7.97
592.524	8.02
592.862	8.03
593.2	8.13
593.537	8
593.875	8.09
594.212	8.3
594.55	8.38
594.887	8.21
595.224	8.23
595.561	7.96
595.899	8.08
596.236	8.46
596.573	8.3
596.91	8.37
597.247	8.31
597.584	8.28
597.921	8.38
598.258	8.35
598.594	8.7
598.931	8.46
599.268	8.42
599.604	8.49
599.941	8.59
600.277	8.48
600.614	8.45
600.95	8.61
601.287	8.69
601.623	8.89
601.959	8.58
602.296	8.72
602.632	8.98
602.968	8.79
603.304	9.01
603.64	8.83
603.976	8.82
604.312	9.37
604.648	8.94
604.984	9.15
605.319	9.15
605.655	8.99
605.991	9.19
606.326	8.94
606.662	9.02
606.998	8.98
607.333	9.02
607.668	9.05
608.004	9.26
608.339	9.12
608.674	9.22
609.01	9.41
609.345	9.54
609.68	9.73
610.015	9.25
610.35	9.5
610.685	9.64
611.02	9.48
611.355	9.5
611.689	9.62
612.024	9.62
612.359	9.49
612.694	9.7
613.028	9.73
613.363	9.79
613.697	9.51
614.032	9.73
614.366	9.82
614.7	10
615.035	10.09
615.369	9.95
615.703	9.43
616.037	10.22
616.371	10.15
616.705	9.82
617.039	10.21
617.373	10.08
617.707	10.4
618.041	10.53
618.375	10.44
618.709	10.24
619.042	10.43
619.376	10.56
619.71	10.72
620.043	10.3
620.377	10.47
620.71	10.5
621.043	10.36
621.377	10.31
621.71	10.19
622.043	10.94
622.376	10.74
622.709	10.76
623.043	10.98
623.376	10.48
623.709	10.32
624.041	10.92
624.374	11.1
624.707	10.54
625.04	10.97
625.373	10.77
625.705	10.88
626.038	11.17
626.37	10.69
626.703	10.95
627.035	11.33
627.368	11.07
627.7	11.4
628.032	11.47
628.365	11.44
628.697	11.53
629.029	11.29
629.361	11.27
629.693	11.26
630.025	11.32
630.357	11.36
630.689	11.31
631.021	11.86
631.353	11.61
631.684	11.18
632.016	11.55
632.348	11.57
632.679	11.72
633.011	11.84
633.342	11.54
633.674	11.87
634.005	12.17
634.336	12.01
634.668	11.66
634.999	11.37
635.33	11.75
635.661	12.31
635.992	12.17
636.323	12.13
636.654	11.95
636.985	12.32
637.316	11.8
637.647	11.79
637.977	12.05
638.308	12.23
638.639	12.05
638.969	12.14
639.3	11.72
639.63	12.38
639.961	12.14
640.291	12.17
640.622	12.32
640.952	12.6
641.282	12.8
641.612	12.44
641.943	12.81
642.273	12.93
642.603	13.15
642.933	12.48
643.263	13.18
643.592	13.04
643.922	13.41
644.252	12.86
644.582	12.78
644.911	12.87
645.241	13.52
645.571	13.24
645.9	13.06
646.23	13.28
646.559	12.71
646.888	13.02
647.218	13.03
647.547	13.2
647.876	13.01
648.205	12.98
648.534	13.18
648.863	13.37
649.192	13.39
649.521	13.67
649.85	13.26
650.179	13.46
650.508	13.36
650.837	13.69
651.165	13.7
651.494	13.08
651.822	13.48
652.151	13.94
652.479	13.7
652.808	13.85
653.136	13.32
653.465	14.05
653.793	13.78
654.121	13.78
654.449	14.15
654.777	13.87
655.105	14.05
655.433	14.45
655.761	14.11
656.089	14.08
656.417	14.46
656.745	14.24
657.073	14.5
657.4	15.12
657.728	14.53
658.056	13.99
658.383	14.27
658.711	14.57
659.038	14.57
659.365	14.7
659.693	14.77
660.02	14.51
660.347	14.17
660.674	14.47
661.001	14.38
661.329	14.52
661.656	14.54
661.982	14.82
662.309	14.49
662.636	14.8
662.963	15.14
663.29	15.13
663.616	15.02
663.943	14.64
664.27	15.38
664.596	15.14
664.923	15.05
665.249	15.48
665.576	14.95
665.902	15.41
666.228	14.83
666.554	15.23
666.881	15.42
667.207	15.6
667.533	15.41
667.859	14.86
668.185	15.8
668.511	15.73
668.837	15.62
669.162	15.88
669.488	15.96
669.814	15.65
670.139	15.53
670.465	15.54
670.791	15.91
671.116	15.5
671.442	15.77
671.767	15.64
672.092	16.22
672.418	16.06
672.743	16.07
673.068	17
673.393	15.89
673.718	16.28
674.043	15.68
674.368	16.2
674.693	16.27
675.018	16.48
675.343	16.27
675.667	16.25
675.992	16.51
676.317	16.56
676.641	16.18
676.966	16.75
677.29	16.61
677.615	16.71
677.939	16.24
678.264	16.93
678.588	16.06
678.912	17.2
679.236	16.64
679.56	16.98
679.885	16.8
680.209	16.69
680.532	16.17
680.856	16.49
681.18	17.16
681.504	16.78
681.828	17.28
682.152	17.35
682.475	16.87
682.799	16.98
683.122	17.16
683.446	17.05
683.769	17.38
684.093	17.94
684.416	17.56
684.739	17.03
685.062	16.76
685.386	17
685.709	17.1
686.032	17.63
686.355	17.5
686.678	17.34
687.001	17.98
687.324	17.73
687.646	17.75
687.969	18.23
688.292	17.72
688.614	17.74
688.937	17.53
689.26	17.3
