Data from 0244_forehead_Reflection__1__119.txt Node

Date: Fri Oct 20 21:32:53 CDT 2023
User: ToomeyLab
Spectrometer: FLMS14357
Trigger mode: 0
Integration Time (sec): 1.000000E-2
Scans to average: 100
Electric dark correction enabled: true
Nonlinearity correction enabled: false
Boxcar width: 0
XAxis mode: Wavelengths
Number of Pixels in Spectrum: 2048
>>>>>Begin Spectral Data<<<<<
189.047	344.86
189.435	344.86
189.823	344.86
190.211	1620.8
190.599	242.37
190.987	147.86
191.375	-317.29
191.763	30.69
192.151	-106.73
192.538	1800
192.926	-66.41
193.314	-209.93
193.702	58.16
194.089	73.51
194.477	-105.53
194.864	5.29
195.252	178.39
195.639	-90.51
196.027	630.92
196.414	26.25
196.801	24.08
197.189	3.35
197.576	-54.23
197.963	-16.32
198.351	80.87
198.738	21.81
199.125	74.86
199.512	42.89
199.899	-3.16
200.286	-18.09
200.673	39.78
201.06	8.9
201.447	25.73
201.833	14.8
202.22	47.97
202.607	45.09
202.994	21.35
203.38	32.06
203.767	36.26
204.154	50.42
204.54	34.02
204.927	39.2
205.313	23.64
205.699	45.98
206.086	46.21
206.472	50.01
206.858	52
207.245	16.86
207.631	50.65
208.017	34.08
208.403	29.49
208.789	37.65
209.175	5.66
209.561	16.44
209.947	17.01
210.333	29.03
210.719	28.62
211.105	5.47
211.491	52.53
211.876	10.96
212.262	34.47
212.648	21.2
213.034	32.44
213.419	26.97
213.805	14.04
214.19	23.35
214.576	20.79
214.961	29.81
215.346	35.05
215.732	7
216.117	-25.78
216.502	2.73
216.888	14.45
217.273	12.35
217.658	-6.64
218.043	25.14
218.428	8.07
218.813	24.16
219.198	16.86
219.583	12.17
219.968	4.78
220.353	27.81
220.738	21.96
221.122	-5.86
221.507	16.87
221.892	19.72
222.276	11.82
222.661	16.35
223.046	14.54
223.43	17.65
223.815	7.37
224.199	16.41
224.583	0.71
224.968	2.15
225.352	1.56
225.736	0.32
226.121	3.94
226.505	-0.81
226.889	9.53
227.273	7.04
227.657	11.3
228.041	6.27
228.425	7.13
228.809	4.04
229.193	5.04
229.577	6.53
229.961	0.92
230.344	2.66
230.728	2.08
231.112	3.41
231.495	2.13
231.879	2.16
232.263	2.68
232.646	1.01
233.03	1.93
233.413	1.58
233.797	2.89
234.18	3.1
234.563	3.74
234.946	3.95
235.33	4.17
235.713	2.05
236.096	4.21
236.479	2.55
236.862	2.14
237.245	1.72
237.628	2.64
238.011	2.33
238.394	2.77
238.777	4.07
239.16	2.55
239.543	2.92
239.925	3.47
240.308	3.19
240.691	2.76
241.073	3.52
241.456	3.57
241.838	3.42
242.221	3.34
242.603	2.84
242.986	2.61
243.368	2.7
243.75	2.04
244.133	2.03
244.515	1.75
244.897	2.05
245.279	2.46
245.661	2.03
246.043	2.6
246.425	2.26
246.807	2.67
247.189	2.45
247.571	2.75
247.953	2.49
248.335	2.3
248.717	1.98
249.098	1.8
249.48	1.96
249.862	2.18
250.243	2.45
250.625	2.29
251.006	2.23
251.388	2.43
251.769	2.89
252.151	0.98
252.532	3.51
252.913	3.11
253.295	1.39
253.676	2.25
254.057	2.18
254.438	1.79
254.819	2.6
255.2	2.62
255.581	2.97
255.962	3.3
256.343	3.24
256.724	1
257.105	3.2
257.486	2.8
257.867	2.13
258.247	2.9
258.628	2.16
259.009	2.19
259.389	2.36
259.77	1.9
260.15	2.5
260.531	2.48
260.911	2.42
261.292	2.03
261.672	2.02
262.052	2.18
262.432	2
262.813	1.99
263.193	2.12
263.573	2.38
263.953	2.74
264.333	2.7
264.713	2.38
265.093	2.29
265.473	2.32
265.853	2.11
266.233	2.62
266.612	1.91
266.992	2.16
267.372	1.81
267.752	2.86
268.131	2.89
268.511	2.88
268.89	2.43
269.27	2.17
269.649	1.64
270.029	1.87
270.408	2.5
270.787	2.29
271.167	2
271.546	2.47
271.925	2.65
272.304	2.51
272.683	2.81
273.062	2.35
273.441	2.36
273.82	2.13
274.199	1.9
274.578	1.93
274.957	2.27
275.336	2.34
275.715	1.96
276.093	1.75
276.472	2.25
276.851	2
277.229	2.86
277.608	1.53
277.986	2.18
278.365	2.6
278.743	1.85
279.122	2.32
279.5	1.77
279.878	1.44
280.257	2.5
280.635	2.13
281.013	2.52
281.391	2.57
281.769	2.04
282.147	1.65
282.525	2.15
282.903	1.89
283.281	2.11
283.659	2.02
284.037	1.86
284.415	2
284.792	2.26
285.17	2.06
285.548	2.38
285.925	1.9
286.303	2.07
286.68	1.64
287.058	2.23
287.435	2.64
287.813	1.9
288.19	2.09
288.567	1.97
288.945	2.4
289.322	2.47
289.699	1.58
290.076	2.34
290.453	1.98
290.83	2.46
291.207	2.38
291.584	2.16
291.961	2.42
292.338	2.25
292.715	2.11
293.092	2.01
293.469	2.63
293.845	2.1
294.222	1.97
294.599	2.39
294.975	2.57
295.352	2.83
295.728	2.65
296.105	2.19
296.481	2.37
296.858	2.59
297.234	2.88
297.61	2.33
297.986	2.47
298.363	2.72
298.739	2.72
299.115	2.45
299.491	2.39
299.867	2.71
300.243	2.87
300.619	3.1
300.995	2.51
301.371	3.12
301.746	2.66
302.122	3.51
302.498	2.94
302.874	2.57
303.249	3.27
303.625	3.28
304	3.22
304.376	2.71
304.751	2.67
305.127	2.9
305.502	3.44
305.878	3.21
306.253	3.17
306.628	3.39
307.003	3.09
307.378	2.77
307.754	3.66
308.129	3.38
308.504	3.73
308.879	3.69
309.254	4.28
309.629	3.46
310.003	3.69
310.378	3.71
310.753	3.65
311.128	3.56
311.502	3.71
311.877	3.44
312.252	3.47
312.626	3.74
313.001	3.79
313.375	3.77
313.75	3.84
314.124	3.64
314.498	3.94
314.873	3.45
315.247	3.9
315.621	4.27
315.995	4.34
316.369	3.98
316.743	4.29
317.117	4.47
317.491	4.39
317.865	4.28
318.239	4.74
318.613	4.52
318.987	4.14
319.361	4.06
319.734	4.2
320.108	3.93
320.482	5.25
320.855	4.76
321.229	5.5
321.602	4.69
321.976	4.4
322.349	4.62
322.723	4.46
323.096	4.72
323.469	4.31
323.843	5.77
324.216	4.81
324.589	5.03
324.962	5.26
325.335	5.37
325.708	4.69
326.081	5.17
326.454	5.1
326.827	5.56
327.2	5.26
327.573	5.23
327.945	5.05
328.318	4.92
328.691	5.42
329.063	5.71
329.436	5.02
329.809	5.34
330.181	5.33
330.553	5.23
330.926	5.5
331.298	4.96
331.671	5.28
332.043	4.95
332.415	5.85
332.787	5.76
333.159	5.37
333.532	5.77
333.904	5.69
334.276	5.8
334.648	5.68
335.02	6.46
335.391	5.88
335.763	6.5
336.135	5.86
336.507	5.54
336.879	5.91
337.25	5.94
337.622	5.89
337.993	6.18
338.365	5.69
338.736	6.15
339.108	6.36
339.479	5.77
339.851	6.07
340.222	6.19
340.593	5.37
340.964	6.01
341.336	6.33
341.707	6.26
342.078	6.57
342.449	6.34
342.82	6.01
343.191	6.29
343.562	6.44
343.933	6.24
344.303	6.5
344.674	6.89
345.045	6.2
345.416	6.67
345.786	6.37
346.157	6.9
346.527	6.38
346.898	6.4
347.268	6.56
347.639	6.8
348.009	7.02
348.38	6.91
348.75	6.51
349.12	6.77
349.49	6.44
349.861	6.74
350.231	6.45
350.601	6.84
350.971	7.1
351.341	6.96
351.711	7.27
352.081	6.91
352.45	6.69
352.82	6.99
353.19	7.15
353.56	7.18
353.929	6.94
354.299	6.75
354.669	6.79
355.038	7.19
355.408	7.41
355.777	6.89
356.147	6.6
356.516	6.55
356.885	7.08
357.254	7.32
357.624	7.28
357.993	7.1
358.362	7.29
358.731	6.91
359.1	7.04
359.469	7.17
359.838	7.29
360.207	7.18
360.576	7.64
360.945	7.36
361.314	7.11
361.682	7.51
362.051	7.13
362.42	7.28
362.788	7.53
363.157	7.45
363.525	7.48
363.894	7.39
364.262	7.55
364.631	7.75
364.999	7.62
365.367	7.88
365.735	7.72
366.104	7.64
366.472	7.56
366.84	7.86
367.208	7.88
367.576	7.85
367.944	7.81
368.312	7.99
368.68	7.83
369.048	7.82
369.416	8.22
369.783	8.13
370.151	8.35
370.519	8.37
370.886	8.2
371.254	8.11
371.621	8.6
371.989	8.12
372.356	8.34
372.724	8.47
373.091	8.2
373.458	8.49
373.826	8.32
374.193	8.31
374.56	8.44
374.927	8.64
375.294	8.75
375.661	8.36
376.028	8.77
376.395	8.74
376.762	8.5
377.129	8.6
377.496	8.81
377.863	9.02
378.229	8.69
378.596	8.8
378.963	8.82
379.329	8.89
379.696	8.6
380.062	8.66
380.429	8.72
380.795	8.6
381.161	8.86
381.528	8.85
381.894	8.78
382.26	9.12
382.626	9.37
382.993	9.03
383.359	8.97
383.725	9.37
384.091	9.17
384.457	9.41
384.823	9.12
385.188	9.49
385.554	9.23
385.92	9.39
386.286	9.3
386.651	9.22
387.017	9.58
387.383	9.44
387.748	9.23
388.114	9.2
388.479	9.48
388.845	9.93
389.21	9.48
389.575	9.04
389.94	9.44
390.306	9.56
390.671	9.43
391.036	9.48
391.401	10.11
391.766	9.91
392.131	9.65
392.496	9.85
392.861	9.86
393.226	9.8
393.591	9.77
393.956	9.96
394.32	9.97
394.685	9.74
395.05	10.28
395.414	10.09
395.779	9.82
396.143	9.82
396.508	10.19
396.872	10.06
397.236	10.08
397.601	10
397.965	10.16
398.329	10.02
398.694	10.46
399.058	10.21
399.422	10.39
399.786	10.15
400.15	10.41
400.514	10.33
400.878	10.65
401.242	10.45
401.605	10.59
401.969	10.45
402.333	10.58
402.697	10.56
403.06	10.64
403.424	10.72
403.787	10.5
404.151	10.79
404.514	10.84
404.878	10.92
405.241	10.97
405.604	10.62
405.968	10.91
406.331	10.68
406.694	10.76
407.057	10.66
407.42	11.23
407.783	10.94
408.146	10.9
408.509	10.86
408.872	11.09
409.235	11.12
409.598	11.02
409.961	11.18
410.323	11.1
410.686	10.89
411.049	11.18
411.411	11.25
411.774	11.36
412.136	11.14
412.499	11.3
412.861	11.2
413.223	11.36
413.586	11.26
413.948	11.6
414.31	11.79
414.672	11.42
415.035	11.37
415.397	11.68
415.759	11.56
416.121	11.6
416.483	11.8
416.845	11.61
417.206	11.4
417.568	11.68
417.93	11.82
418.292	11.66
418.653	11.82
419.015	11.69
419.377	11.76
419.738	11.71
420.1	11.73
420.461	11.62
420.822	11.8
421.184	11.84
421.545	11.84
421.906	11.7
422.267	11.7
422.629	11.73
422.99	11.74
423.351	11.78
423.712	11.9
424.073	11.87
424.434	11.99
424.795	11.92
425.155	11.96
425.516	12.02
425.877	12.07
426.238	11.97
426.598	12.09
426.959	11.93
427.32	12.15
427.68	12.26
428.041	12.29
428.401	12.26
428.761	12.3
429.122	12.31
429.482	12.41
429.842	12.78
430.202	12.79
430.563	12.46
430.923	12.66
431.283	12.79
431.643	12.77
432.003	12.87
432.363	12.77
432.722	12.77
433.082	12.93
433.442	12.93
433.802	12.99
434.161	12.92
434.521	12.94
434.881	13.04
435.24	12.98
435.6	12.93
435.959	12.9
436.319	12.97
436.678	13.06
437.037	13.07
437.396	13.23
437.756	13.32
438.115	13.14
438.474	13.34
438.833	13.31
439.192	13.19
439.551	13.16
439.91	13.41
440.269	13.36
440.628	13.36
440.987	13.46
441.345	13.45
441.704	13.48
442.063	13.45
442.421	13.36
442.78	13.36
443.138	13.53
443.497	13.53
443.855	13.53
444.214	13.65
444.572	13.77
444.93	13.88
445.288	13.82
445.647	13.95
446.005	13.66
446.363	13.86
446.721	13.97
447.079	14.04
447.437	13.87
447.795	13.66
448.153	13.78
448.51	13.74
448.868	13.85
449.226	13.82
449.584	13.92
449.941	13.88
450.299	14.01
450.656	13.96
451.014	14.11
451.371	14.26
451.729	14.2
452.086	14.35
452.443	14.55
452.801	14.57
453.158	14.52
453.515	14.36
453.872	14.57
454.229	14.68
454.586	14.53
454.943	14.62
455.3	14.36
455.657	14.61
456.014	14.64
456.371	14.58
456.727	14.84
457.084	14.65
457.441	14.7
457.797	14.86
458.154	15.06
458.51	14.91
458.867	15.02
459.223	15.05
459.58	14.95
459.936	14.99
460.292	15.04
460.648	14.95
461.005	14.91
461.361	14.9
461.717	14.76
462.073	14.89
462.429	14.9
462.785	14.84
463.141	15.15
463.496	15.11
463.852	15.33
464.208	15.45
464.564	15.48
464.919	15.31
465.275	15.64
465.631	15.58
465.986	15.58
466.342	15.63
466.697	15.61
467.052	15.55
467.408	15.7
467.763	15.58
468.118	15.74
468.473	15.64
468.829	15.84
469.184	15.77
469.539	15.74
469.894	15.86
470.249	15.84
470.603	15.81
470.958	15.91
471.313	16.08
471.668	16.02
472.023	16.05
472.377	15.88
472.732	15.88
473.086	16.08
473.441	16.24
473.795	16.45
474.15	16.12
474.504	16.2
474.859	16.26
475.213	16.4
475.567	16.37
475.921	16.5
476.275	16.31
476.63	16.64
476.984	16.47
477.338	16.67
477.692	16.6
478.045	16.55
478.399	16.69
478.753	16.6
479.107	16.56
479.461	16.66
479.814	16.75
480.168	16.77
480.521	16.85
480.875	16.68
481.228	16.84
481.582	16.99
481.935	16.85
482.289	16.9
482.642	16.83
482.995	16.81
483.348	16.87
483.701	16.77
484.055	16.79
484.408	16.73
484.761	16.64
485.114	16.52
485.466	16.29
485.819	16.25
486.172	16.19
486.525	16.23
486.878	16.12
487.23	16.21
487.583	16.43
487.936	16.56
488.288	16.73
488.641	16.78
488.993	16.67
489.345	16.72
489.698	16.6
490.05	16.58
490.402	16.56
490.754	16.6
491.107	16.67
491.459	16.93
491.811	17.02
492.163	17.17
492.515	17.18
492.866	17.24
493.218	17.12
493.57	17.11
493.922	17.04
494.274	17.01
494.625	17.09
494.977	17.16
495.328	17.39
495.68	17.54
496.031	17.67
496.383	17.84
496.734	17.91
497.086	17.95
497.437	18.23
497.788	18.11
498.139	18.06
498.49	18.01
498.842	18.05
499.193	18.05
499.544	18.06
499.894	18.01
500.245	18.09
500.596	18.22
500.947	18.32
501.298	18.23
501.648	18.23
501.999	18.34
502.35	18.57
502.7	18.53
503.051	18.68
503.401	18.63
503.752	18.59
504.102	18.66
504.452	18.65
504.803	18.8
505.153	18.86
505.503	18.93
505.853	18.86
506.203	18.78
506.553	18.71
506.903	18.88
507.253	18.98
507.603	18.94
507.953	19
508.303	19.03
508.652	19.02
509.002	18.96
509.352	19.12
509.701	19.09
510.051	18.92
510.4	19.11
510.75	19.06
511.099	19.1
511.449	19.11
511.798	19.12
512.147	19.17
512.496	19.26
512.846	19.09
513.195	19.4
513.544	19.32
513.893	19.29
514.242	19.28
514.591	19.34
514.939	19.34
515.288	19.26
515.637	19.42
515.986	19.54
516.334	19.57
516.683	19.51
517.032	19.47
517.38	19.55
517.729	19.73
518.077	19.79
518.426	19.73
518.774	19.7
519.122	19.82
519.47	19.75
519.819	19.82
520.167	19.66
520.515	19.62
520.863	19.56
521.211	19.61
521.559	19.6
521.907	19.59
522.255	19.77
522.602	19.88
522.95	20.05
523.298	20.02
523.645	20.13
523.993	20.27
524.341	20.22
524.688	20.33
525.036	20.34
525.383	20.32
525.73	20.43
526.078	20.59
526.425	20.47
526.772	20.41
527.119	20.2
527.466	20.11
527.814	20.17
528.161	20.22
528.508	20.18
528.854	20.05
529.201	20.17
529.548	20.15
529.895	20.22
530.242	20.09
530.588	19.88
530.935	19.96
531.282	19.96
531.628	19.81
531.975	19.84
532.321	20.01
532.667	20.15
533.014	20.47
533.36	20.54
533.706	20.56
534.052	20.68
534.399	20.55
534.745	20.57
535.091	20.61
535.437	20.46
535.783	20.51
536.129	20.42
536.474	20.52
536.82	20.48
537.166	20.75
537.512	20.91
537.857	21.08
538.203	21.02
538.549	21.11
538.894	20.97
539.239	21.05
539.585	20.98
539.93	21.13
540.276	21.2
540.621	21.42
540.966	21.58
541.311	21.46
541.656	21.55
542.001	21.57
542.346	21.57
542.691	21.46
543.036	21.29
543.381	21.1
543.726	21.02
544.071	20.98
544.415	21.01
544.76	21.09
545.105	21.44
545.449	21.52
545.794	21.47
546.138	21.48
546.483	21.6
546.827	21.73
547.171	22
547.516	21.89
547.86	22.09
548.204	21.86
548.548	21.91
548.892	21.95
549.236	22.07
549.58	22.07
549.924	22.07
550.268	22.16
550.612	22.4
550.956	22.62
551.3	22.59
551.643	22.79
551.987	22.86
552.33	22.76
552.674	22.74
553.017	22.86
553.361	22.81
553.704	23.21
554.048	22.95
554.391	22.79
554.734	22.94
555.077	22.89
555.42	23.01
555.764	22.77
556.107	23.24
556.45	22.77
556.793	22.93
557.135	23
557.478	23.13
557.821	23.16
558.164	23.37
558.507	23.25
558.849	23.57
559.192	23.38
559.534	23.64
559.877	23.37
560.219	23.7
560.562	23.75
560.904	23.48
561.246	23.55
561.589	23.49
561.931	23.93
562.273	23.71
562.615	23.7
562.957	23.74
563.299	23.9
563.641	23.92
563.983	23.72
564.325	23.61
564.667	23.85
565.008	23.87
565.35	24.06
565.692	23.96
566.033	23.87
566.375	24.03
566.716	24.06
567.058	23.93
567.399	24.11
567.741	23.94
568.082	24.11
568.423	24.18
568.764	23.86
569.105	24.12
569.447	24.19
569.788	23.86
570.129	23.87
570.47	24.26
570.811	24.37
571.151	24.24
571.492	24.49
571.833	24.53
572.174	24.73
572.514	24.4
572.855	24.35
573.195	24.38
573.536	24.37
573.876	24.53
574.217	24.23
574.557	24.47
574.898	24.45
575.238	24.4
575.578	24.52
575.918	24.37
576.258	24.58
576.598	24.74
576.938	24.73
577.278	24.65
577.618	24.75
577.958	24.62
578.298	24.76
578.638	24.98
578.977	25.04
579.317	24.93
579.657	24.9
579.996	25.29
580.336	25.23
580.675	25.11
581.014	25.3
581.354	25.33
581.693	25.37
582.032	25.56
582.372	25.64
582.711	25.51
583.05	25.88
583.389	25.58
583.728	25.4
584.067	25.84
584.406	25.6
584.745	25.81
585.083	25.76
585.422	25.58
585.761	25.89
586.1	26.07
586.438	25.87
586.777	25.93
587.115	26.24
587.454	26.14
587.792	26.01
588.13	25.87
588.469	25.98
588.807	25.77
589.145	26.06
589.483	26.2
589.821	26.06
590.159	26.1
590.497	26.11
590.835	25.9
591.173	25.93
591.511	26.26
591.849	25.87
592.187	26.35
592.524	26.05
592.862	26.29
593.2	26.26
593.537	26.05
593.875	26.29
594.212	26.63
594.55	26.44
594.887	26.52
595.224	26.3
595.561	26.47
595.899	26.4
596.236	26.58
596.573	26.53
596.91	26.71
597.247	26.52
597.584	26.39
597.921	26.74
598.258	26.71
598.594	26.71
598.931	26.54
599.268	26.54
599.604	26.63
599.941	26.57
600.277	26.43
600.614	26.8
600.95	26.79
601.287	26.84
601.623	26.9
601.959	26.91
602.296	27.27
602.632	27.22
602.968	26.8
603.304	27.12
603.64	27.03
603.976	27.1
604.312	27.49
604.648	27.38
604.984	27.27
605.319	27.31
605.655	27.33
605.991	27.19
606.326	27.16
606.662	26.96
606.998	27.05
607.333	27.08
607.668	26.95
608.004	26.84
608.339	27.22
608.674	27.44
609.01	27.26
609.345	27.57
609.68	27.77
610.015	27.64
610.35	27.58
610.685	27.53
611.02	27.76
611.355	27.52
611.689	27.66
612.024	27.73
612.359	27.56
612.694	27.63
613.028	27.7
613.363	27.97
613.697	27.88
614.032	27.83
614.366	27.84
614.7	28.22
615.035	28.35
615.369	27.68
615.703	27.61
616.037	28.26
616.371	28.29
616.705	28.33
617.039	28.56
617.373	28.19
617.707	28.43
618.041	28.22
618.375	28.11
618.709	28.22
619.042	28.38
619.376	28.7
619.71	28.4
620.043	28.65
620.377	28.34
620.71	28.33
621.043	28.12
621.377	28.44
621.71	28.84
622.043	28.43
622.376	29.12
622.709	29.09
623.043	28.45
623.376	28.68
623.709	28.54
624.041	28.91
624.374	28.69
624.707	28.48
625.04	28.82
625.373	28.71
625.705	28.66
626.038	29
626.37	28.53
626.703	28.72
627.035	28.91
627.368	29.13
627.7	29.41
628.032	29.2
628.365	29.32
628.697	29.11
629.029	29.03
629.361	29.39
629.693	29.19
630.025	29.08
630.357	29.51
630.689	29.28
631.021	29.47
631.353	29.07
631.684	29.39
632.016	29.37
632.348	29.64
632.679	29.14
633.011	29.43
633.342	29.2
633.674	29.13
634.005	29.48
634.336	29.9
634.668	29.68
634.999	29.39
635.33	29.63
635.661	29.92
635.992	29.4
636.323	29.59
636.654	29.75
636.985	29.68
637.316	29.9
637.647	29.95
637.977	29.8
638.308	29.43
638.639	29.86
638.969	29.66
639.3	29.68
639.63	30.04
639.961	29.77
640.291	29.67
640.622	30
640.952	30.39
641.282	29.98
641.612	30.05
641.943	30.56
642.273	29.94
642.603	30.07
642.933	30.51
643.263	30.69
643.592	30.04
643.922	30.85
644.252	29.8
644.582	30.56
644.911	30.24
645.241	30.17
645.571	30.9
645.9	30.44
646.23	30.68
646.559	30.43
646.888	30.14
647.218	30.68
647.547	30.32
647.876	30.48
648.205	30.64
648.534	30.35
648.863	30.76
649.192	30.6
649.521	30.2
649.85	30.89
650.179	30.91
650.508	30.5
650.837	30.94
651.165	31.08
651.494	30.39
651.822	30.53
652.151	30.78
652.479	30.84
652.808	31.08
653.136	30.64
653.465	31.16
653.793	31.15
654.121	31.04
654.449	31.13
654.777	31.07
655.105	31
655.433	30.76
655.761	31.36
656.089	30.86
656.417	31.11
656.745	31.07
657.073	31.42
657.4	32.16
657.728	31.44
658.056	31.09
658.383	31.16
658.711	31.3
659.038	31.45
659.365	31.36
659.693	31.42
660.02	31.1
660.347	31.43
660.674	31.21
661.001	31.11
661.329	31.62
661.656	31.63
661.982	31.47
662.309	31.38
662.636	31.4
662.963	31.33
663.29	31.51
663.616	31.83
663.943	31.4
664.27	31.57
664.596	31.31
664.923	31.37
665.249	31.95
665.576	31.72
665.902	31.76
666.228	31.65
666.554	31.76
666.881	31.29
667.207	32.35
667.533	31.52
667.859	32.3
668.185	32.04
668.511	32.04
668.837	32.19
669.162	32.35
669.488	31.7
669.814	31.85
670.139	32.3
670.465	31.58
670.791	32.65
671.116	31.67
671.442	32.22
671.767	32.03
672.092	32.64
672.418	31.76
672.743	31.42
673.068	31.62
673.393	32.27
673.718	32.06
674.043	32.65
674.368	32.26
