Data from 0244_crown_Reflection__0__113.txt Node

Date: Fri Oct 20 21:31:35 CDT 2023
User: ToomeyLab
Spectrometer: FLMS14357
Trigger mode: 0
Integration Time (sec): 1.000000E-2
Scans to average: 100
Electric dark correction enabled: true
Nonlinearity correction enabled: false
Boxcar width: 0
XAxis mode: Wavelengths
Number of Pixels in Spectrum: 2048
>>>>>Begin Spectral Data<<<<<
189.047	59.09
189.435	59.09
189.823	59.09
190.211	4291.2
190.599	114.74
190.987	25.25
191.375	-409.45
191.763	119.36
192.151	155.21
192.538	-1621.05
192.926	-81.36
193.314	-280.31
193.702	145.85
194.089	221.5
194.477	284.22
194.864	-54.89
195.252	130.23
195.639	-124.45
196.027	255.03
196.414	80.8
196.801	-79.32
197.189	61
197.576	-32.61
197.963	-61.49
198.351	46.8
198.738	35.14
199.125	100.64
199.512	24.26
199.899	29.05
200.286	-14.69
200.673	27.88
201.06	27.56
201.447	-16.59
201.833	27.53
202.22	21.89
202.607	33.88
202.994	41.95
203.38	29.34
203.767	30.13
204.154	33.73
204.54	33.99
204.927	8.28
205.313	15.07
205.699	35.8
206.086	6.92
206.472	23.88
206.858	54.38
207.245	31.42
207.631	34.75
208.017	14.66
208.403	2.66
208.789	15.03
209.175	-2.64
209.561	10.8
209.947	17.33
210.333	9.68
210.719	27
211.105	4
211.491	31.2
211.876	-3.74
212.262	42.66
212.648	31.63
213.034	2.18
213.419	22.02
213.805	9.7
214.19	-1.5
214.576	33.88
214.961	9.29
215.346	28.61
215.732	34.01
216.117	9.58
216.502	32.49
216.888	10.71
217.273	5.44
217.658	11.41
218.043	-0.11
218.428	25.2
218.813	19.39
219.198	7.47
219.583	1.69
219.968	-21.78
220.353	24.97
220.738	17.96
221.122	0.62
221.507	8.97
221.892	7.36
222.276	-0.7
222.661	24.74
223.046	16.11
223.43	3.11
223.815	17.1
224.199	25.84
224.583	3.47
224.968	9.23
225.352	3.93
225.736	5.59
226.121	10.01
226.505	0.29
226.889	3.53
227.273	12.4
227.657	12.03
228.041	7.97
228.425	5.98
228.809	10.15
229.193	3.36
229.577	7.77
229.961	4.17
230.344	5.62
230.728	5.57
231.112	5.96
231.495	5.08
231.879	6.08
232.263	6.29
232.646	4.59
233.03	3.45
233.413	4.98
233.797	5.73
234.18	5.7
234.563	8
234.946	7.7
235.33	7.07
235.713	5.82
236.096	6.6
236.479	5.55
236.862	4.65
237.245	4.02
237.628	5.17
238.011	5.38
238.394	4.67
238.777	6.06
239.16	5.88
239.543	7.17
239.925	8.26
240.308	5.66
240.691	5.34
241.073	7
241.456	6.37
241.838	6.33
242.221	4.5
242.603	6.72
242.986	5.4
243.368	5.86
243.75	5.17
244.133	4.82
244.515	5.11
244.897	5.2
245.279	4.86
245.661	4.97
246.043	5.12
246.425	4.97
246.807	5.05
247.189	5.13
247.571	4.82
247.953	5.08
248.335	5
248.717	4.76
249.098	4.47
249.48	4.59
249.862	4.87
250.243	4.83
250.625	4.92
251.006	5.13
251.388	4.61
251.769	5.31
252.151	4.57
252.532	5.33
252.913	4.85
253.295	4.32
253.676	4.93
254.057	4.81
254.438	4.78
254.819	5.2
255.2	4.75
255.581	5.19
255.962	4.35
256.343	4.29
256.724	3.7
257.105	4.22
257.486	5.8
257.867	4.93
258.247	4.78
258.628	5.26
259.009	4.54
259.389	3.96
259.77	4.71
260.15	4.43
260.531	4.92
260.911	4.55
261.292	4.29
261.672	4.51
262.052	4.66
262.432	4.41
262.813	4.7
263.193	4.76
263.573	4.08
263.953	4.73
264.333	4.9
264.713	4.81
265.093	5.01
265.473	4.54
265.853	3.56
266.233	4.52
266.612	4.56
266.992	3.84
267.372	4.51
267.752	4.41
268.131	4.81
268.511	4.99
268.89	4.43
269.27	4.38
269.649	3.53
270.029	4.6
270.408	4.36
270.787	4.78
271.167	4.4
271.546	4.5
271.925	4.35
272.304	4.5
272.683	4.85
273.062	4.58
273.441	4.5
273.82	4.57
274.199	4.76
274.578	4.05
274.957	4.57
275.336	4.56
275.715	4.4
276.093	4.17
276.472	4.3
276.851	4.54
277.229	4.56
277.608	3.66
277.986	3.77
278.365	4.78
278.743	4.06
279.122	4.57
279.5	4.16
279.878	3.43
280.257	4.33
280.635	4.93
281.013	4.1
281.391	4.67
281.769	4.11
282.147	3.79
282.525	4.25
282.903	4.26
283.281	4.12
283.659	4.47
284.037	4.18
284.415	3.66
284.792	3.63
285.17	4.25
285.548	3.89
285.925	3.84
286.303	3.75
286.68	3.81
287.058	4.4
287.435	4.22
287.813	3.42
288.19	3.97
288.567	3.76
288.945	4.39
289.322	4.33
289.699	3.65
290.076	4.42
290.453	3.91
290.83	3.72
291.207	4.08
291.584	3.81
291.961	3.91
292.338	3.91
292.715	3.94
293.092	4.2
293.469	4.25
293.845	3.95
294.222	4.02
294.599	3.75
294.975	4.49
295.352	3.99
295.728	4.42
296.105	3.93
296.481	4.19
296.858	3.86
297.234	3.59
297.61	3.6
297.986	3.6
298.363	3.9
298.739	3.86
299.115	4.02
299.491	3.54
299.867	3.97
300.243	3.74
300.619	3.68
300.995	3.66
301.371	3.83
301.746	3.98
302.122	3.83
302.498	3.76
302.874	3.88
303.249	3.92
303.625	3.7
304	4.15
304.376	3.71
304.751	3.24
305.127	3.8
305.502	4.43
305.878	3.77
306.253	3.59
306.628	3.82
307.003	3.56
307.378	3.5
307.754	3.71
308.129	4.06
308.504	4.48
308.879	4.31
309.254	3.85
309.629	3.48
310.003	3.15
310.378	4.11
310.753	3.79
311.128	3.87
311.502	3.8
311.877	3.82
312.252	3.52
312.626	3.81
313.001	3.6
313.375	3.48
313.75	3.47
314.124	3.45
314.498	3.92
314.873	3.41
315.247	4.01
315.621	3.82
315.995	3.75
316.369	3.3
316.743	3.65
317.117	3.65
317.491	3.1
317.865	3.87
318.239	4.14
318.613	3.39
318.987	3.17
319.361	3.13
319.734	3.73
320.108	3.67
320.482	3.99
320.855	3.72
321.229	3.78
321.602	3.6
321.976	3.45
322.349	4.13
322.723	3.71
323.096	3.59
323.469	3.6
323.843	3.74
324.216	3.92
324.589	3.54
324.962	4.25
325.335	3.59
325.708	3.74
326.081	3.83
326.454	3.74
326.827	3.79
327.2	4.33
327.573	3.88
327.945	3.73
328.318	3.47
328.691	3.54
329.063	4.27
329.436	3.54
329.809	3.67
330.181	3.37
330.553	3.84
330.926	3.27
331.298	3.86
331.671	3.51
332.043	3.06
332.415	3.38
332.787	3.49
333.159	3.43
333.532	3.61
333.904	3.4
334.276	3.01
334.648	3.58
335.02	4.05
335.391	3.71
335.763	3.54
336.135	4.31
336.507	3.71
336.879	3.6
337.25	3.67
337.622	4.03
337.993	4.4
338.365	3.81
338.736	3.73
339.108	3.94
339.479	3.72
339.851	4.16
340.222	3.34
340.593	3.05
340.964	3.68
341.336	3.85
341.707	3.37
342.078	3.68
342.449	3.32
342.82	3.33
343.191	3.74
343.562	3.81
343.933	3.45
344.303	3.3
344.674	4
345.045	3.6
345.416	4.23
345.786	3.54
346.157	3.75
346.527	3.31
346.898	3.48
347.268	3.66
347.639	3.85
348.009	3.28
348.38	3.77
348.75	3.84
349.12	3.63
349.49	3.55
349.861	4.02
350.231	3.26
350.601	3.63
350.971	3.66
351.341	3.98
351.711	4.3
352.081	3.89
352.45	3.36
352.82	3.69
353.19	3.92
353.56	3.81
353.929	3.81
354.299	3.51
354.669	3.86
355.038	4.07
355.408	4
355.777	3.64
356.147	3.67
356.516	3.4
356.885	3.79
357.254	3.82
357.624	4.09
357.993	3.62
358.362	3.52
358.731	3.46
359.1	3.28
359.469	3.57
359.838	3.72
360.207	3.7
360.576	3.92
360.945	3.77
361.314	3.66
361.682	3.8
362.051	3.68
362.42	3.72
362.788	3.87
363.157	3.86
363.525	3.54
363.894	3.53
364.262	3.8
364.631	3.8
364.999	3.75
365.367	3.86
365.735	3.91
366.104	3.6
366.472	4
366.84	3.82
367.208	3.84
367.576	3.73
367.944	3.84
368.312	3.68
368.68	3.99
369.048	3.83
369.416	4.03
369.783	3.8
370.151	3.57
370.519	3.82
370.886	3.85
371.254	3.77
371.621	4.09
371.989	3.77
372.356	3.91
372.724	4
373.091	3.79
373.458	3.79
373.826	3.8
374.193	3.68
374.56	3.75
374.927	4.23
375.294	4.09
375.661	3.6
376.028	3.9
376.395	4.08
376.762	3.73
377.129	4.03
377.496	3.94
377.863	4.23
378.229	4.09
378.596	4.16
378.963	3.92
379.329	4.1
379.696	4.09
380.062	3.89
380.429	3.81
380.795	3.93
381.161	3.89
381.528	4.12
381.894	4.03
382.26	3.8
382.626	4.39
382.993	3.82
383.359	4.04
383.725	4.21
384.091	3.98
384.457	3.99
384.823	3.93
385.188	4.26
385.554	3.82
385.92	4.07
386.286	4.25
386.651	3.86
387.017	4.29
387.383	4.18
387.748	3.93
388.114	3.55
388.479	3.93
388.845	4.16
389.21	3.83
389.575	3.76
389.94	4.28
390.306	4.03
390.671	3.95
391.036	4.04
391.401	4.23
391.766	4.07
392.131	4
392.496	4.23
392.861	4.11
393.226	4.09
393.591	4.13
393.956	4.09
394.32	4.18
394.685	3.89
395.05	4.15
395.414	4.17
395.779	4
396.143	3.9
396.508	4.13
396.872	4.27
397.236	4.19
397.601	4.15
397.965	4.03
398.329	4.06
398.694	4.09
399.058	3.94
399.422	4.25
399.786	4.12
400.15	4.11
400.514	4.16
400.878	4.22
401.242	4.34
401.605	4.11
401.969	4.02
402.333	4.13
402.697	4.45
403.06	4.1
403.424	4.09
403.787	4.15
404.151	4.32
404.514	4.43
404.878	4.49
405.241	4.16
405.604	4.16
405.968	4.26
406.331	3.99
406.694	4.04
407.057	4.28
407.42	4.73
407.783	4.28
408.146	4.06
408.509	4.17
408.872	4.21
409.235	4.14
409.598	4.52
409.961	4.42
410.323	4.29
410.686	3.96
411.049	4.3
411.411	4.35
411.774	4.21
412.136	4.33
412.499	4.23
412.861	4.33
413.223	4.29
413.586	4.57
413.948	4.42
414.31	4.6
414.672	4.25
415.035	4.23
415.397	4.41
415.759	4.48
416.121	4.32
416.483	4.4
416.845	4.24
417.206	4.44
417.568	4.41
417.93	4.41
418.292	4.02
418.653	4.47
419.015	4.36
419.377	4.38
419.738	4.3
420.1	4.21
420.461	4.3
420.822	4.19
421.184	4.24
421.545	4.32
421.906	4.29
422.267	4.26
422.629	4.27
422.99	4.11
423.351	4.22
423.712	4.14
424.073	4.22
424.434	4.21
424.795	4.07
425.155	4.35
425.516	4.27
425.877	4.25
426.238	4.1
426.598	4.3
426.959	4.22
427.32	4.23
427.68	4.3
428.041	4.35
428.401	4.3
428.761	4.29
429.122	4.39
429.482	4.37
429.842	4.33
430.202	4.43
430.563	4.29
430.923	4.52
431.283	4.4
431.643	4.39
432.003	4.56
432.363	4.4
432.722	4.41
433.082	4.38
433.442	4.42
433.802	4.69
434.161	4.13
434.521	4.6
434.881	4.49
435.24	4.4
435.6	4.33
435.959	4.44
436.319	4.38
436.678	4.41
437.037	4.46
437.396	4.61
437.756	4.5
438.115	4.23
438.474	4.48
438.833	4.48
439.192	4.16
439.551	4.38
439.91	4.38
440.269	4.6
440.628	4.48
440.987	4.41
441.345	4.38
441.704	4.47
442.063	4.3
442.421	4.39
442.78	4.37
443.138	4.43
443.497	4.51
443.855	4.42
444.214	4.44
444.572	4.32
444.93	4.47
445.288	4.53
445.647	4.69
446.005	4.28
446.363	4.37
446.721	4.4
447.079	4.57
447.437	4.41
447.795	4.3
448.153	4.29
448.51	4.35
448.868	4.31
449.226	4.38
449.584	4.39
449.941	4.33
450.299	4.4
450.656	4.33
451.014	4.42
451.371	4.54
451.729	4.51
452.086	4.44
452.443	4.6
452.801	4.43
453.158	4.48
453.515	4.52
453.872	4.6
454.229	4.6
454.586	4.57
454.943	4.43
455.3	4.41
455.657	4.58
456.014	4.42
456.371	4.53
456.727	4.57
457.084	4.54
457.441	4.63
457.797	4.6
458.154	4.44
458.51	4.56
458.867	4.55
459.223	4.51
459.58	4.56
459.936	4.53
460.292	4.64
460.648	4.34
461.005	4.44
461.361	4.5
461.717	4.37
462.073	4.4
462.429	4.46
462.785	4.52
463.141	4.53
463.496	4.58
463.852	4.62
464.208	4.69
464.564	4.69
464.919	4.53
465.275	4.63
465.631	4.67
465.986	4.73
466.342	4.64
466.697	4.61
467.052	4.51
467.408	4.7
467.763	4.82
468.118	4.77
468.473	4.72
468.829	4.57
469.184	4.57
469.539	4.65
469.894	4.78
470.249	4.6
470.603	4.68
470.958	4.63
471.313	4.93
471.668	4.73
472.023	4.61
472.377	4.63
472.732	4.57
473.086	4.71
473.441	4.63
473.795	4.95
474.15	4.49
474.504	4.49
474.859	4.66
475.213	4.78
475.567	4.61
475.921	4.69
476.275	4.53
476.63	4.86
476.984	4.65
477.338	4.52
477.692	4.68
478.045	4.7
478.399	4.65
478.753	4.58
479.107	4.61
479.461	4.62
479.814	4.7
480.168	4.72
480.521	4.71
480.875	4.66
481.228	4.71
481.582	4.6
481.935	4.64
482.289	4.77
482.642	4.62
482.995	4.62
483.348	4.64
483.701	4.56
484.055	4.54
484.408	4.51
484.761	4.46
485.114	4.47
485.466	4.42
485.819	4.29
486.172	4.21
486.525	4.26
486.878	4.32
487.23	4.36
487.583	4.41
487.936	4.45
488.288	4.48
488.641	4.46
488.993	4.35
489.345	4.41
489.698	4.35
490.05	4.29
490.402	4.33
490.754	4.39
491.107	4.37
491.459	4.46
491.811	4.42
492.163	4.5
492.515	4.5
492.866	4.53
493.218	4.42
493.57	4.34
493.922	4.37
494.274	4.39
494.625	4.4
494.977	4.37
495.328	4.53
495.68	4.62
496.031	4.52
496.383	4.67
496.734	4.67
497.086	4.64
497.437	4.64
497.788	4.67
498.139	4.76
498.49	4.69
498.842	4.57
499.193	4.62
499.544	4.57
499.894	4.67
500.245	4.64
500.596	4.64
500.947	4.65
501.298	4.56
501.648	4.62
501.999	4.58
502.35	4.61
502.7	4.82
503.051	4.69
503.401	4.61
503.752	4.75
504.102	4.72
504.452	4.68
504.803	4.7
505.153	4.73
505.503	4.73
505.853	4.71
506.203	4.62
506.553	4.59
506.903	4.69
507.253	4.59
507.603	4.61
507.953	4.8
508.303	4.59
508.652	4.78
509.002	4.69
509.352	4.65
509.701	4.73
510.051	4.62
510.4	4.61
510.75	4.67
511.099	4.68
511.449	4.64
511.798	4.68
512.147	4.59
512.496	4.72
512.846	4.66
513.195	4.7
513.544	4.68
513.893	4.59
514.242	4.72
514.591	4.64
514.939	4.59
515.288	4.58
515.637	4.55
515.986	4.67
516.334	4.74
516.683	4.73
517.032	4.52
517.38	4.57
517.729	4.74
518.077	4.58
518.426	4.56
518.774	4.71
519.122	4.68
519.47	4.56
519.819	4.64
520.167	4.58
520.515	4.56
520.863	4.64
521.211	4.57
521.559	4.57
521.907	4.6
522.255	4.57
522.602	4.63
522.95	4.59
523.298	4.67
523.645	4.71
523.993	4.61
524.341	4.63
524.688	4.73
525.036	4.64
525.383	4.6
525.73	4.81
526.078	4.76
526.425	4.73
526.772	4.64
527.119	4.69
527.466	4.57
527.814	4.6
528.161	4.58
528.508	4.5
528.854	4.5
529.201	4.5
529.548	4.58
529.895	4.54
530.242	4.44
530.588	4.36
530.935	4.29
531.282	4.38
531.628	4.45
531.975	4.41
532.321	4.43
532.667	4.52
533.014	4.65
533.36	4.61
533.706	4.61
534.052	4.57
534.399	4.46
534.745	4.36
535.091	4.53
535.437	4.49
535.783	4.5
536.129	4.54
536.474	4.56
536.82	4.52
537.166	4.54
537.512	4.64
537.857	4.64
538.203	4.64
538.549	4.63
538.894	4.53
539.239	4.49
539.585	4.57
539.93	4.58
540.276	4.76
540.621	4.56
540.966	4.67
541.311	4.68
541.656	4.71
542.001	4.7
542.346	4.68
542.691	4.5
543.036	4.53
543.381	4.44
543.726	4.38
544.071	4.47
544.415	4.51
544.76	4.46
545.105	4.56
545.449	4.52
545.794	4.59
546.138	4.63
546.483	4.55
546.827	4.55
547.171	4.8
547.516	4.64
547.86	4.67
548.204	4.48
548.548	4.53
548.892	4.64
549.236	4.65
549.58	4.51
549.924	4.58
550.268	4.67
550.612	4.75
550.956	4.81
551.3	4.59
551.643	4.75
551.987	4.82
552.33	4.79
552.674	4.78
553.017	4.71
553.361	4.79
553.704	4.8
554.048	4.79
554.391	4.8
554.734	4.79
555.077	4.66
555.42	4.61
555.764	4.62
556.107	4.75
556.45	4.83
556.793	4.69
557.135	4.71
557.478	4.65
557.821	4.77
558.164	4.84
558.507	4.8
558.849	4.82
559.192	4.77
559.534	4.83
559.877	4.79
560.219	4.77
560.562	4.8
560.904	4.61
561.246	4.96
561.589	4.6
561.931	4.75
562.273	4.83
562.615	4.89
562.957	4.82
563.299	4.9
563.641	4.62
563.983	4.74
564.325	4.66
564.667	4.69
565.008	4.47
565.35	4.88
565.692	4.7
566.033	4.92
566.375	4.73
566.716	4.8
567.058	4.82
567.399	4.71
567.741	4.6
568.082	4.7
568.423	4.82
568.764	4.72
569.105	4.88
569.447	4.63
569.788	4.68
570.129	4.84
570.47	4.73
570.811	4.75
571.151	4.62
571.492	4.78
571.833	4.79
572.174	4.89
572.514	4.68
572.855	4.65
573.195	4.81
573.536	4.65
573.876	4.73
574.217	4.54
574.557	4.55
574.898	4.64
575.238	4.53
575.578	4.67
575.918	4.63
576.258	4.9
576.598	4.77
576.938	4.76
577.278	4.87
577.618	4.68
577.958	4.46
578.298	4.66
578.638	4.84
578.977	4.62
579.317	4.8
579.657	4.81
579.996	4.68
580.336	4.98
580.675	4.72
581.014	4.75
581.354	4.75
581.693	4.83
582.032	4.89
582.372	4.91
582.711	4.94
583.05	4.93
583.389	4.7
583.728	4.81
584.067	5
584.406	4.88
584.745	4.8
585.083	4.66
585.422	4.71
585.761	4.85
586.1	4.95
586.438	4.51
586.777	4.75
587.115	4.92
587.454	4.78
587.792	4.51
588.13	4.97
588.469	4.96
588.807	4.47
589.145	4.58
589.483	4.51
589.821	4.71
590.159	5.04
590.497	4.72
590.835	4.79
591.173	4.77
591.511	4.83
591.849	4.55
592.187	4.72
592.524	4.5
592.862	4.76
593.2	4.97
593.537	4.44
593.875	4.71
594.212	4.83
594.55	4.88
594.887	4.94
595.224	4.63
595.561	4.7
595.899	4.76
596.236	4.74
596.573	4.92
596.91	4.95
597.247	4.82
597.584	4.46
597.921	4.77
598.258	4.67
598.594	4.82
598.931	4.57
599.268	4.56
599.604	4.65
599.941	4.71
600.277	4.53
600.614	4.74
600.95	4.88
601.287	4.59
601.623	4.58
601.959	4.63
602.296	4.87
602.632	4.63
602.968	4.58
603.304	4.8
603.64	4.93
603.976	4.5
604.312	5.11
604.648	4.9
604.984	4.86
605.319	4.61
605.655	4.65
605.991	4.8
606.326	4.64
606.662	4.47
606.998	4.49
607.333	4.61
607.668	4.59
608.004	4.75
608.339	4.67
608.674	4.66
609.01	4.59
609.345	4.9
609.68	4.98
610.015	4.57
610.35	4.99
610.685	4.77
611.02	4.48
611.355	4.46
611.689	4.5
612.024	4.7
612.359	4.59
612.694	4.61
613.028	4.77
613.363	4.74
613.697	4.63
614.032	4.72
614.366	5.05
614.7	4.82
615.035	4.82
615.369	4.64
615.703	4.55
616.037	4.64
616.371	4.63
616.705	4.51
617.039	4.85
617.373	4.68
617.707	4.82
618.041	4.69
618.375	4.49
618.709	4.82
619.042	4.86
619.376	5.02
619.71	4.6
620.043	4.87
620.377	4.42
620.71	4.8
621.043	4.9
621.377	4.77
621.71	4.74
622.043	4.67
622.376	5.04
622.709	4.89
623.043	4.77
623.376	4.75
623.709	4.59
624.041	4.73
624.374	4.74
624.707	4.45
625.04	5.03
625.373	5.17
625.705	4.44
626.038	5.05
626.37	4.49
626.703	5.02
627.035	4.69
627.368	4.9
627.7	4.79
628.032	4.72
628.365	4.72
628.697	4.56
629.029	4.56
629.361	4.65
629.693	4.65
630.025	4.85
630.357	4.5
630.689	4.85
631.021	5.05
631.353	4.75
631.684	4.7
632.016	4.94
632.348	4.76
632.679	4.51
633.011	4.8
633.342	4.54
633.674	4.92
634.005	4.61
634.336	5.27
634.668	4.64
634.999	4.81
635.33	4.65
635.661	4.91
635.992	4.52
636.323	5.13
636.654	4.65
636.985	4.7
637.316	4.53
637.647	4.74
637.977	4.71
638.308	5
638.639	4.77
638.969	4.84
639.3	4.36
639.63	4.76
639.961	4.6
640.291	4.58
640.622	4.7
640.952	4.51
641.282	4.64
641.612	4.79
641.943	5.45
642.273	4.6
642.603	5.02
642.933	4.9
643.263	4.86
643.592	4.62
643.922	5.07
644.252	4.57
644.582	4.76
644.911	4.89
645.241	4.65
645.571	4.83
645.9	4.52
646.23	4.69
646.559	4.42
646.888	4.67
647.218	4.86
647.547	4.63
647.876	5.2
648.205	5.02
648.534	4.48
648.863	4.74
649.192	4.51
649.521	4.43
649.85	4.62
650.179	4.57
650.508	4.71
650.837	4.66
651.165	4.97
651.494	4.21
651.822	4.85
652.151	4.86
652.479	4.68
652.808	5.05
653.136	4.65
653.465	4.94
653.793	4.88
654.121	4.69
654.449	5.02
654.777	4.84
655.105	4.76
655.433	5.4
655.761	4.88
656.089	5.36
656.417	4.59
656.745	4.83
657.073	4.67
657.4	5.51
657.728	5.22
658.056	5.28
658.383	4.89
658.711	4.28
659.038	4.74
659.365	4.64
659.693	5.08
660.02	4.2
660.347	4.47
660.674	4.36
661.001	4.41
661.329	4.8
661.656	4.83
661.982	4.69
662.309	4.63
662.636	4.82
662.963	4.85
663.29	4.65
663.616	5.04
663.943	4.44
664.27	4.58
664.596	4.69
664.923	4.6
665.249	4.67
665.576	4.6
665.902	4.67
666.228	5.09
666.554	5.03
666.881	5.21
667.207	5.02
667.533	4.83
667.859	4.98
668.185	5.41
668.511	4.94
668.837	4.98
669.162	4.97
669.488	4.76
669.814	4.09
670.139	4.77
670.465	5.02
670.791	4.66
671.116	4.69
671.442	4.64
671.767	4.87
672.092	5.33
672.418	5.05
672.743	4.83
673.068	4.93
673.393	4.58
673.718	4.92
674.043	4.91
674.368	4.86
674.693	5.42
675.018	5.72
675.343	4.99
675.667	4.77
675.992	4.89
676.317	4.89
676.641	5.5
676.966	4.98
677.29	4.89
677.615	5
677.939	4.59
678.264	5.11
678.588	4.29
678.912	5.75
679.236	4.74
679.56	4.66
679.885	5.61
680.209	4.43
680.532	4.32
680.856	4.53
681.18	5.23
681.504	5.3
681.828	5.18
682.152	5.17
682.475	4.54
682.799	4.92
683.122	4.84
683.446	5.06
683.769	4.8
684.093	5.01
684.416	4.75
684.739	4.66
685.062	4.67
685.386	5.6
685.709	5.44
686.032	4.72
686.355	5.23
686.678	5.24
687.001	5.35
687.324	3.99
687.646	5.22
687.969	5.14
688.292	4.79
688.614	5.03
688.937	4.95
689.26	4.09
689.582	4.64
689.904	4.35
690.227	5.11
690.549	4.63
690.871	5.69
691.194	5.15
691.516	4.91
691.838	5.56
692.16	4.53
692.482	5.04
692.804	4.9
693.126	4.22
693.448	5.95
693.769	4.53
