Data from 0244_chest_Reflection__1__109.txt Node

Date: Fri Oct 20 21:29:47 CDT 2023
User: ToomeyLab
Spectrometer: FLMS14357
Trigger mode: 0
Integration Time (sec): 1.000000E-2
Scans to average: 100
Electric dark correction enabled: true
Nonlinearity correction enabled: false
Boxcar width: 0
XAxis mode: Wavelengths
Number of Pixels in Spectrum: 2048
>>>>>Begin Spectral Data<<<<<
189.047	9.53
189.435	9.53
189.823	9.53
190.211	-1449.6
190.599	-52.6
190.987	249.87
191.375	-271.11
191.763	59.89
192.151	-351.34
192.538	5410.53
192.926	-15.01
193.314	-269.17
193.702	178.9
194.089	176.87
194.477	301.11
194.864	-161.83
195.252	237.17
195.639	-23.53
196.027	280.96
196.414	51.4
196.801	-96.24
197.189	100.61
197.576	-29.28
197.963	-138.81
198.351	39.78
198.738	0.71
199.125	43.37
199.512	36.37
199.899	29.74
200.286	3.68
200.673	40.85
201.06	-4.26
201.447	15.23
201.833	57.65
202.22	35.46
202.607	34.69
202.994	39.63
203.38	21.44
203.767	43.18
204.154	45.92
204.54	42.87
204.927	-0.02
205.313	31.43
205.699	26.9
206.086	17.08
206.472	28.13
206.858	47.76
207.245	0.73
207.631	20.72
208.017	37.42
208.403	11.72
208.789	18.92
209.175	17.26
209.561	28.27
209.947	5.6
210.333	23.59
210.719	10.82
211.105	16.06
211.491	19.98
211.876	13.48
212.262	27.65
212.648	30.54
213.034	-7.1
213.419	34.9
213.805	18.89
214.19	34.25
214.576	19.06
214.961	21.45
215.346	36.95
215.732	18.31
216.117	0.08
216.502	16.98
216.888	15.83
217.273	2.98
217.658	2.77
218.043	12.72
218.428	23.4
218.813	7.64
219.198	-6.95
219.583	5.86
219.968	-12.43
220.353	16.37
220.738	17.74
221.122	-1.72
221.507	11.06
221.892	10.81
222.276	6.7
222.661	17.88
223.046	17.69
223.43	5.27
223.815	12.69
224.199	11.38
224.583	-10.09
224.968	10.47
225.352	-3.37
225.736	0.54
226.121	2.38
226.505	-5.67
226.889	5.92
227.273	5.62
227.657	9.17
228.041	11.41
228.425	3.68
228.809	2.26
229.193	6.25
229.577	4.33
229.961	1.99
230.344	2.22
230.728	1.82
231.112	2.9
231.495	2.54
231.879	3.05
232.263	4.2
232.646	2.25
233.03	1.8
233.413	1.57
233.797	2.4
234.18	3.59
234.563	5.47
234.946	2.37
235.33	3.14
235.713	3.92
236.096	2.4
236.479	3.1
236.862	3.35
237.245	0.78
237.628	3.72
238.011	2.2
238.394	2.38
238.777	5.86
239.16	2.33
239.543	5.42
239.925	3.35
240.308	4.35
240.691	2.79
241.073	3.76
241.456	3.83
241.838	4.14
242.221	3.71
242.603	3.65
242.986	3.28
243.368	3.26
243.75	3.22
244.133	2.66
244.515	2.71
244.897	2.94
245.279	3.23
245.661	3.19
246.043	3.28
246.425	3.44
246.807	3.18
247.189	2.79
247.571	3.42
247.953	3.23
248.335	3.47
248.717	2.86
249.098	2.69
249.48	2.78
249.862	3.37
250.243	3.38
250.625	3.33
251.006	3.44
251.388	3.39
251.769	3.81
252.151	1.97
252.532	3.32
252.913	3.5
253.295	2.63
253.676	3.33
254.057	2.96
254.438	3.15
254.819	3.69
255.2	3.4
255.581	2.89
255.962	2.39
256.343	3.74
256.724	2.54
257.105	3.94
257.486	4.09
257.867	4.45
258.247	2.96
258.628	2.56
259.009	3.05
259.389	3.39
259.77	2.25
260.15	3.54
260.531	3.44
260.911	3.43
261.292	2.69
261.672	2.94
262.052	3.2
262.432	3.16
262.813	2.96
263.193	2.83
263.573	2.8
263.953	3.41
264.333	3.38
264.713	3.9
265.093	3.63
265.473	2.86
265.853	2.78
266.233	3.29
266.612	3.45
266.992	2.57
267.372	2.86
267.752	2.86
268.131	2.8
268.511	3.04
268.89	3.19
269.27	2.33
269.649	2.55
270.029	2.78
270.408	3.46
270.787	3.15
271.167	3.11
271.546	3.19
271.925	3.38
272.304	3.35
272.683	2.78
273.062	3.03
273.441	3.12
273.82	3.2
274.199	3
274.578	2.72
274.957	2.91
275.336	3.16
275.715	3.09
276.093	3.29
276.472	2.91
276.851	3.33
277.229	2.86
277.608	2.35
277.986	2.88
278.365	3.21
278.743	2.09
279.122	2.97
279.5	3.03
279.878	2.7
280.257	3.01
280.635	3.34
281.013	3.28
281.391	3.16
281.769	2.92
282.147	2.46
282.525	3.41
282.903	3.1
283.281	2.78
283.659	3.08
284.037	3.52
284.415	2.13
284.792	2.68
285.17	2.71
285.548	3.02
285.925	3.1
286.303	2.65
286.68	2.81
287.058	3.22
287.435	3.29
287.813	2.71
288.19	3.18
288.567	3.13
288.945	2.9
289.322	3.18
289.699	2.84
290.076	3.6
290.453	3.31
290.83	3.32
291.207	3.58
291.584	3.1
291.961	3.11
292.338	3.15
292.715	3.13
293.092	3.06
293.469	3.66
293.845	3.22
294.222	3.14
294.599	3.85
294.975	4.08
295.352	3.68
295.728	3.61
296.105	3.58
296.481	3.56
296.858	3.54
297.234	4.14
297.61	3.43
297.986	3.57
298.363	3.99
298.739	3.82
299.115	3.45
299.491	3.61
299.867	3.98
300.243	3.86
300.619	3.77
300.995	3.88
301.371	3.73
301.746	3.91
302.122	4.38
302.498	4.24
302.874	3.89
303.249	3.73
303.625	3.99
304	4.25
304.376	3.8
304.751	3.51
305.127	3.79
305.502	4.61
305.878	4.17
306.253	4.19
306.628	4.31
307.003	4.48
307.378	4.59
307.754	4.18
308.129	4.64
308.504	4.91
308.879	4.54
309.254	4.57
309.629	4.11
310.003	4.15
310.378	4.74
310.753	4.57
311.128	4.79
311.502	4.63
311.877	4.69
312.252	4.16
312.626	4.69
313.001	4.36
313.375	4.41
313.75	4.29
314.124	4.29
314.498	4.79
314.873	4.34
315.247	4.69
315.621	4.61
315.995	4.37
316.369	4.26
316.743	5.16
317.117	4.83
317.491	4.48
317.865	5.19
318.239	4.92
318.613	4.86
318.987	4.93
319.361	4.34
319.734	4.27
320.108	4.36
320.482	5.78
320.855	5.01
321.229	5.61
321.602	5.1
321.976	4.92
322.349	5.52
322.723	5.13
323.096	5.43
323.469	4.75
323.843	5.15
324.216	5.22
324.589	5.35
324.962	5.67
325.335	5.47
325.708	4.94
326.081	5.41
326.454	4.98
326.827	5.29
327.2	5.23
327.573	5.36
327.945	5.2
328.318	5.41
328.691	5.43
329.063	5.95
329.436	4.59
329.809	5.56
330.181	5.27
330.553	5.18
330.926	4.97
331.298	5.01
331.671	5.22
332.043	5.49
332.415	5.18
332.787	5.19
333.159	4.83
333.532	5.68
333.904	5.39
334.276	4.76
334.648	5.41
335.02	5.59
335.391	5.05
335.763	5.61
336.135	5.42
336.507	5.3
336.879	5.04
337.25	5.39
337.622	5.42
337.993	5.94
338.365	4.71
338.736	5.82
339.108	5.61
339.479	5.44
339.851	5.48
340.222	5.17
340.593	5.04
340.964	5.33
341.336	6.08
341.707	5.23
342.078	5.64
342.449	5.22
342.82	5.3
343.191	5.37
343.562	5.44
343.933	5.57
344.303	5.29
344.674	5.71
345.045	5.8
345.416	5.74
345.786	5.38
346.157	5.75
346.527	5.7
346.898	5.64
347.268	5.61
347.639	5.69
348.009	5
348.38	5.69
348.75	5.42
349.12	5.5
349.49	5.37
349.861	5.7
350.231	5.2
350.601	5.13
350.971	5.62
351.341	5.49
351.711	6.23
352.081	6.06
352.45	5.85
352.82	5.58
353.19	5.38
353.56	5.63
353.929	5.78
354.299	5.3
354.669	5.37
355.038	5.69
355.408	5.75
355.777	5.42
356.147	5.59
356.516	5.62
356.885	5.51
357.254	5.59
357.624	5.74
357.993	5.29
358.362	5.6
358.731	5.16
359.1	5.27
359.469	5.51
359.838	5.5
360.207	5.5
360.576	5.83
360.945	5.22
361.314	5.57
361.682	5.23
362.051	5.47
362.42	5.35
362.788	5.83
363.157	5.57
363.525	5.39
363.894	5.6
364.262	5.48
364.631	5.79
364.999	5.7
365.367	5.57
365.735	5.72
366.104	5.48
366.472	5.84
366.84	5.68
367.208	5.59
367.576	5.82
367.944	5.56
368.312	5.56
368.68	5.8
369.048	5.82
369.416	5.88
369.783	5.98
370.151	5.99
370.519	5.66
370.886	5.54
371.254	6.1
371.621	6.16
371.989	5.59
372.356	5.8
372.724	6.05
373.091	5.84
373.458	5.64
373.826	5.97
374.193	5.49
374.56	5.84
374.927	5.68
375.294	5.93
375.661	5.36
376.028	5.62
376.395	5.75
376.762	5.5
377.129	5.84
377.496	5.84
377.863	6.08
378.229	5.96
378.596	5.78
378.963	5.89
379.329	5.97
379.696	5.81
380.062	5.76
380.429	5.53
380.795	5.63
381.161	5.69
381.528	6.05
381.894	5.71
382.26	5.73
382.626	6.15
382.993	5.72
383.359	5.96
383.725	6.04
384.091	5.96
384.457	6.01
384.823	5.67
385.188	6.06
385.554	5.77
385.92	5.9
386.286	6.32
386.651	5.79
387.017	6.01
387.383	6.07
387.748	5.87
388.114	5.73
388.479	5.66
388.845	6.1
389.21	6.14
389.575	5.83
389.94	5.91
390.306	5.79
390.671	6.02
391.036	5.95
391.401	6.05
391.766	6.09
392.131	5.99
392.496	6.16
392.861	5.91
393.226	5.88
393.591	6.08
393.956	6.27
394.32	6.09
394.685	6.1
395.05	6.3
395.414	6.24
395.779	5.97
396.143	5.8
396.508	5.98
396.872	6.17
397.236	6.13
397.601	5.88
397.965	5.9
398.329	5.93
398.694	6.1
399.058	5.66
399.422	5.97
399.786	6.05
400.15	6.01
400.514	5.99
400.878	6.3
401.242	6.16
401.605	6.1
401.969	5.87
402.333	5.89
402.697	6.1
403.06	5.99
403.424	6.42
403.787	6.17
404.151	6.06
404.514	6.21
404.878	6.36
405.241	6.21
405.604	6.14
405.968	6.28
406.331	5.99
406.694	6.15
407.057	5.93
407.42	6.31
407.783	6.31
408.146	6.21
408.509	6.09
408.872	6.28
409.235	6.18
409.598	6.28
409.961	5.93
410.323	6.26
410.686	6.13
411.049	6.17
411.411	6.16
411.774	6.23
412.136	6.04
412.499	6.22
412.861	6.26
413.223	6.38
413.586	6.2
413.948	6.29
414.31	6.37
414.672	6.27
415.035	6.21
415.397	6.31
415.759	6.46
416.121	6.44
416.483	6.37
416.845	6.24
417.206	6.52
417.568	6.46
417.93	6.29
418.292	6.03
418.653	6.43
419.015	6.14
419.377	6.19
419.738	6.18
420.1	6.1
420.461	6.18
420.822	6.09
421.184	6.21
421.545	6.25
421.906	6.06
422.267	6.12
422.629	6.16
422.99	6.06
423.351	6.19
423.712	6.16
424.073	6.09
424.434	6.13
424.795	6.09
425.155	6.17
425.516	6.13
425.877	6.18
426.238	5.97
426.598	6.14
426.959	6.11
427.32	6.16
427.68	6.32
428.041	6.22
428.401	6.22
428.761	6.19
429.122	6.24
429.482	6.14
429.842	6.33
430.202	6.41
430.563	6.23
430.923	6.66
431.283	6.3
431.643	6.58
432.003	6.55
432.363	6.4
432.722	6.58
433.082	6.42
433.442	6.42
433.802	6.46
434.161	6.2
434.521	6.55
434.881	6.53
435.24	6.41
435.6	6.3
435.959	6.45
436.319	6.37
436.678	6.37
437.037	6.48
437.396	6.46
437.756	6.53
438.115	6.57
438.474	6.55
438.833	6.67
439.192	6.46
439.551	6.31
439.91	6.37
440.269	6.5
440.628	6.54
440.987	6.48
441.345	6.37
441.704	6.46
442.063	6.51
442.421	6.36
442.78	6.4
443.138	6.58
443.497	6.52
443.855	6.49
444.214	6.42
444.572	6.42
444.93	6.62
445.288	6.52
445.647	6.72
446.005	6.38
446.363	6.46
446.721	6.54
447.079	6.61
447.437	6.43
447.795	6.43
448.153	6.42
448.51	6.45
448.868	6.35
449.226	6.5
449.584	6.53
449.941	6.38
450.299	6.51
450.656	6.39
451.014	6.58
451.371	6.6
451.729	6.49
452.086	6.44
452.443	6.68
452.801	6.56
453.158	6.64
453.515	6.69
453.872	6.67
454.229	6.76
454.586	6.6
454.943	6.6
455.3	6.61
455.657	6.72
456.014	6.59
456.371	6.55
456.727	6.68
457.084	6.72
457.441	6.7
457.797	6.57
458.154	6.73
458.51	6.84
458.867	6.73
459.223	6.71
459.58	6.62
459.936	6.7
460.292	6.61
460.648	6.8
461.005	6.52
461.361	6.69
461.717	6.53
462.073	6.65
462.429	6.53
462.785	6.63
463.141	6.78
463.496	6.77
463.852	6.78
464.208	6.81
464.564	6.77
464.919	6.67
465.275	6.75
465.631	6.93
465.986	6.91
466.342	6.92
466.697	6.72
467.052	6.86
467.408	6.88
467.763	6.89
468.118	7.05
468.473	6.9
468.829	6.84
469.184	6.96
469.539	7
469.894	6.68
470.249	6.77
470.603	6.73
470.958	7.02
471.313	7.05
471.668	6.9
472.023	6.96
472.377	6.94
472.732	6.9
473.086	6.97
473.441	7.03
473.795	7.15
474.15	6.89
474.504	6.88
474.859	7.03
475.213	7.07
475.567	7.17
475.921	7.09
476.275	6.97
476.63	6.96
476.984	7.07
477.338	7.01
477.692	7.03
478.045	7.06
478.399	6.98
478.753	7.07
479.107	7.08
479.461	7.08
479.814	7.25
480.168	7.26
480.521	7.03
480.875	7.08
481.228	7.17
481.582	7.11
481.935	6.89
482.289	7.12
482.642	7.08
482.995	6.9
483.348	7.13
483.701	7.06
484.055	7.01
484.408	6.91
484.761	6.89
485.114	6.77
485.466	6.75
485.819	6.66
486.172	6.59
486.525	6.6
486.878	6.66
487.23	6.74
487.583	6.72
487.936	6.76
488.288	6.86
488.641	6.88
488.993	6.84
489.345	6.86
489.698	6.74
490.05	6.74
490.402	6.71
490.754	6.78
491.107	6.8
491.459	6.91
491.811	6.94
492.163	7.03
492.515	7.11
492.866	7.08
493.218	6.94
493.57	6.87
493.922	6.84
494.274	6.84
494.625	6.84
494.977	6.95
495.328	7.08
495.68	7.2
496.031	7.13
496.383	7.27
496.734	7.27
497.086	7.19
497.437	7.26
497.788	7.12
498.139	7.39
498.49	7.15
498.842	7.15
499.193	7.2
499.544	7.28
499.894	7.25
500.245	7.22
500.596	7.32
500.947	7.36
501.298	7.22
501.648	7.35
501.999	7.32
502.35	7.29
502.7	7.51
503.051	7.45
503.401	7.41
503.752	7.42
504.102	7.42
504.452	7.31
504.803	7.54
505.153	7.51
505.503	7.41
505.853	7.64
506.203	7.32
506.553	7.35
506.903	7.44
507.253	7.47
507.603	7.51
507.953	7.46
508.303	7.49
508.652	7.58
509.002	7.44
509.352	7.47
509.701	7.49
510.051	7.36
510.4	7.53
510.75	7.56
511.099	7.48
511.449	7.45
511.798	7.59
512.147	7.49
512.496	7.51
512.846	7.46
513.195	7.64
513.544	7.55
513.893	7.53
514.242	7.66
514.591	7.64
514.939	7.52
515.288	7.45
515.637	7.69
515.986	7.7
516.334	7.65
516.683	7.64
517.032	7.56
517.38	7.57
517.729	7.67
518.077	7.63
518.426	7.52
518.774	7.61
519.122	7.64
519.47	7.69
519.819	7.59
520.167	7.68
520.515	7.63
520.863	7.69
521.211	7.56
521.559	7.71
521.907	7.65
522.255	7.67
522.602	7.77
522.95	7.7
523.298	7.76
523.645	7.8
523.993	7.78
524.341	7.79
524.688	7.72
525.036	7.89
525.383	7.9
525.73	7.91
526.078	7.9
526.425	7.87
526.772	7.88
527.119	7.89
527.466	7.71
527.814	7.86
528.161	7.79
528.508	7.8
528.854	7.79
529.201	7.64
529.548	7.79
529.895	7.76
530.242	7.68
530.588	7.54
530.935	7.49
531.282	7.55
531.628	7.6
531.975	7.59
532.321	7.69
532.667	7.79
533.014	7.88
533.36	7.84
533.706	7.96
534.052	7.97
534.399	7.79
534.745	7.81
535.091	7.86
535.437	7.81
535.783	7.82
536.129	7.91
536.474	7.82
536.82	8.02
537.166	7.94
537.512	8.05
537.857	8.16
538.203	8.02
538.549	8.2
538.894	8.04
539.239	8.02
539.585	8.02
539.93	8.05
540.276	8.19
540.621	8.17
540.966	8.35
541.311	8.37
541.656	8.32
542.001	8.35
542.346	8.28
542.691	8.26
543.036	8.13
543.381	8.07
543.726	8.01
544.071	8.04
544.415	8.06
544.76	8.11
545.105	8.24
545.449	8.19
545.794	8.22
546.138	8.27
546.483	8.32
546.827	8.43
547.171	8.44
547.516	8.47
547.86	8.46
548.204	8.35
548.548	8.41
548.892	8.45
549.236	8.46
549.58	8.39
549.924	8.38
550.268	8.68
550.612	8.6
550.956	8.63
551.3	8.8
551.643	8.63
551.987	8.78
552.33	8.75
552.674	8.74
553.017	8.62
553.361	8.93
553.704	9.06
554.048	8.82
554.391	8.95
554.734	8.82
555.077	8.78
555.42	8.72
555.764	8.78
556.107	8.89
556.45	8.99
556.793	8.88
557.135	8.82
557.478	8.76
557.821	9.11
558.164	9.01
558.507	9.25
558.849	9.04
559.192	9.09
559.534	9.16
559.877	9.11
560.219	9.12
560.562	9.11
560.904	9.09
561.246	9.06
561.589	9.08
561.931	9.19
562.273	9.29
562.615	9.37
562.957	9.32
563.299	9.12
563.641	9.36
563.983	9.14
564.325	9.25
564.667	9.45
565.008	9.29
565.35	9.38
565.692	9.39
566.033	9.4
566.375	9.48
566.716	9.54
567.058	9.27
567.399	9.32
567.741	9.4
568.082	9.45
568.423	9.48
568.764	9.28
569.105	9.45
569.447	9.33
569.788	9.5
570.129	9.48
570.47	9.54
570.811	9.62
571.151	9.51
571.492	9.64
571.833	9.73
572.174	9.74
572.514	9.47
572.855	9.66
573.195	9.62
573.536	9.52
573.876	9.79
574.217	9.54
574.557	9.6
574.898	9.47
575.238	9.56
575.578	9.63
575.918	9.62
576.258	9.55
576.598	9.8
576.938	9.8
577.278	9.78
577.618	9.64
577.958	9.75
578.298	9.63
578.638	9.97
578.977	9.86
579.317	10.02
579.657	9.97
579.996	10.02
580.336	10.03
580.675	9.94
581.014	9.88
581.354	9.83
581.693	10.1
582.032	10.12
582.372	10.24
582.711	10.11
583.05	10.4
583.389	10.22
583.728	10.27
584.067	10.36
584.406	10.28
584.745	10.31
585.083	10.36
585.422	10.32
585.761	10.23
586.1	10.45
586.438	10.15
586.777	10.34
587.115	10.43
587.454	10.43
587.792	10.61
588.13	10.62
588.469	10.56
588.807	10.24
589.145	10.68
589.483	10.52
589.821	10.58
590.159	10.64
590.497	10.48
590.835	10.58
591.173	10.72
591.511	10.54
591.849	10.33
592.187	10.61
592.524	10.46
592.862	10.55
593.2	10.86
593.537	10.64
593.875	10.55
594.212	10.71
594.55	10.56
594.887	10.78
595.224	10.37
595.561	10.41
595.899	11.03
596.236	10.9
596.573	10.61
596.91	10.77
597.247	10.7
597.584	10.77
597.921	10.76
598.258	10.95
598.594	10.87
598.931	10.73
599.268	10.64
599.604	10.77
599.941	10.79
600.277	10.78
600.614	10.93
600.95	11.07
601.287	10.96
601.623	11.21
601.959	11.11
602.296	11.36
602.632	11.09
602.968	10.95
603.304	11.43
603.64	11.01
603.976	11.28
604.312	11.46
604.648	11.25
604.984	11.08
605.319	11.18
605.655	11.14
605.991	11.28
606.326	11.14
606.662	11.07
606.998	11.18
607.333	11.06
607.668	10.91
608.004	11.15
608.339	11.33
608.674	11.44
609.01	11.48
609.345	11.63
609.68	11.49
610.015	11.54
610.35	11.5
610.685	11.55
611.02	11.5
611.355	11.24
611.689	11.32
612.024	11.73
612.359	11.48
612.694	11.58
613.028	11.87
613.363	11.72
613.697	11.71
614.032	11.82
614.366	11.7
614.7	11.62
615.035	11.69
615.369	11.78
615.703	11.53
616.037	11.94
616.371	12.07
616.705	12.05
617.039	12.17
617.373	11.96
617.707	12.47
618.041	12.13
618.375	12.02
618.709	12.03
619.042	12.19
619.376	12.12
619.71	12.16
620.043	12.31
620.377	12.06
620.71	12.13
621.043	12.31
621.377	12.38
621.71	12.41
622.043	12.12
622.376	12.28
622.709	12.18
623.043	12.28
623.376	11.98
623.709	11.94
624.041	12.56
624.374	12.45
624.707	12.3
625.04	12.1
625.373	12.55
625.705	12.29
626.038	12.55
626.37	12.14
626.703	12.54
627.035	12.33
627.368	12.55
627.7	12.4
628.032	12.35
628.365	12.55
628.697	12.25
629.029	12.25
629.361	12.53
629.693	12.36
630.025	12.37
630.357	12.29
630.689	12.39
631.021	12.91
631.353	12.55
631.684	12.58
632.016	12.79
632.348	12.78
632.679	12.6
633.011	12.61
633.342	12.54
633.674	12.91
634.005	13.38
634.336	13.12
634.668	12.6
634.999	12.7
635.33	12.62
635.661	12.98
635.992	12.85
636.323	13.08
636.654	12.86
636.985	12.91
637.316	13.25
637.647	13.12
637.977	12.86
638.308	13.03
638.639	12.98
638.969	13.19
639.3	12.97
639.63	13.15
639.961	13.38
640.291	13.28
640.622	13.12
640.952	13.23
641.282	13.37
641.612	13.44
641.943	13.33
642.273	12.8
642.603	13.64
642.933	13.49
643.263	13.55
643.592	13.13
643.922	13.77
644.252	12.93
644.582	13.45
644.911	13.69
645.241	13.62
645.571	13.72
645.9	13.15
646.23	13.77
646.559	13.56
646.888	13.73
647.218	13.57
647.547	13.49
647.876	13.71
648.205	13.48
648.534	13.78
648.863	13.95
649.192	13.54
649.521	13.55
649.85	13.8
650.179	13.35
650.508	13.9
650.837	13.92
651.165	13.87
651.494	13.28
651.822	13.37
652.151	14
652.479	13.64
652.808	13.78
653.136	13.51
653.465	13.87
653.793	14.23
654.121	14.04
654.449	14
654.777	13.57
655.105	13.75
655.433	14.3
655.761	14.16
656.089	14.21
656.417	14.05
656.745	14.26
657.073	14.28
657.4	14.91
657.728	14.39
658.056	14.01
658.383	14.22
658.711	14.12
659.038	14.15
659.365	14.68
659.693	14.57
660.02	14.02
660.347	13.96
660.674	13.89
661.001	13.7
661.329	14.18
661.656	14.52
661.982	14.12
662.309	14.11
662.636	14.29
662.963	14.35
663.29	14.42
663.616	14.3
663.943	14.19
664.27	14.63
664.596	14.44
664.923	13.81
665.249	14.32
665.576	14.58
665.902	14.04
666.228	14.96
666.554	14.52
666.881	14.1
667.207	14.65
667.533	14.37
667.859	14.42
668.185	14.57
668.511	14.84
668.837	14.39
669.162	15.2
669.488	14.46
669.814	14.38
670.139	14.98
670.465	14.77
670.791	15.3
671.116	14.82
671.442	15.15
671.767	14.3
672.092	14.97
672.418	14.36
672.743	15.03
673.068	15.39
673.393	15.03
673.718	14.85
674.043	14.94
674.368	14.73
674.693	14.84
675.018	15.2
675.343	15.09
675.667	14.7
675.992	14.95
676.317	15
676.641	15
676.966	15.51
677.29	15.35
677.615	15.85
677.939	14.88
678.264	15.42
678.588	15.01
678.912	15.8
679.236	15.3
679.56	15.35
679.885	15.16
680.209	15.3
680.532	14.42
680.856	15.35
681.18	15.68
681.504	15.64
681.828	15.65
682.152	15.39
682.475	15.03
682.799	15.45
683.122	15.01
683.446	15.13
683.769	15.63
684.093	15.59
684.416	15.79
684.739	15.32
685.062	14.78
