Data from 0244_crown_Reflection__3__116.txt Node

Date: Fri Oct 20 21:32:02 CDT 2023
User: ToomeyLab
Spectrometer: FLMS14357
Trigger mode: 0
Integration Time (sec): 1.000000E-2
Scans to average: 100
Electric dark correction enabled: true
Nonlinearity correction enabled: false
Boxcar width: 0
XAxis mode: Wavelengths
Number of Pixels in Spectrum: 2048
>>>>>Begin Spectral Data<<<<<
189.047	-306.13
189.435	-306.13
189.823	-306.13
190.211	844
190.599	-90.47
190.987	72.59
191.375	-1012.14
191.763	18.2
192.151	-91.52
192.538	-26015.79
192.926	149.39
193.314	109.57
193.702	143.08
194.089	93.42
194.477	172.16
194.864	-79.54
195.252	213.93
195.639	-113.19
196.027	-159.52
196.414	117.19
196.801	-34.21
197.189	114.24
197.576	-37.05
197.963	-148.27
198.351	39.11
198.738	31.43
199.125	38.03
199.512	36.51
199.899	18.05
200.286	-12.08
200.673	40.07
201.06	26.89
201.447	22.26
201.833	37.92
202.22	32.89
202.607	33.7
202.994	26.09
203.38	10.15
203.767	14.12
204.154	46.24
204.54	38.05
204.927	39.47
205.313	34.84
205.699	28.62
206.086	9.37
206.472	37.51
206.858	26.66
207.245	0.25
207.631	37.94
208.017	37.07
208.403	22.83
208.789	13.01
209.175	19.94
209.561	26.96
209.947	3.8
210.333	3.55
210.719	28.29
211.105	20.46
211.491	7.01
211.876	14.24
212.262	1.54
212.648	23.58
213.034	12.35
213.419	0.08
213.805	11.2
214.19	8.01
214.576	6.05
214.961	14.06
215.346	19.61
215.732	22.42
216.117	-8.91
216.502	35.07
216.888	26.23
217.273	-4.98
217.658	28.1
218.043	6.43
218.428	20.29
218.813	35.9
219.198	0.81
219.583	-18.38
219.968	-8.54
220.353	14.88
220.738	6.55
221.122	-0.49
221.507	12.83
221.892	10.87
222.276	7.86
222.661	28.09
223.046	10.69
223.43	6.43
223.815	29.48
224.199	16.45
224.583	1.14
224.968	4.61
225.352	3.15
225.736	9.59
226.121	15.87
226.505	9.49
226.889	15.01
227.273	7.61
227.657	12.94
228.041	15.34
228.425	12.08
228.809	13.5
229.193	10.78
229.577	13
229.961	11.77
230.344	11.63
230.728	11.36
231.112	12.7
231.495	11.68
231.879	12.14
232.263	11.53
232.646	11.99
233.03	10.57
233.413	11.43
233.797	12.28
234.18	11.96
234.563	12.97
234.946	12.62
235.33	11.83
235.713	11.81
236.096	12.2
236.479	12.41
236.862	11.42
237.245	10.68
237.628	11.36
238.011	11.76
238.394	12.09
238.777	13.07
239.16	12
239.543	13.18
239.925	15.15
240.308	10.77
240.691	11.01
241.073	12.38
241.456	12.1
241.838	11.25
242.221	12.4
242.603	12.49
242.986	11.14
243.368	12.37
243.75	10.79
244.133	11.22
244.515	11.32
244.897	11.15
245.279	11.71
245.661	11.04
246.043	11.17
246.425	10.71
246.807	11.03
247.189	11.18
247.571	10.23
247.953	11.26
248.335	11.25
248.717	11.08
249.098	10.71
249.48	10.94
249.862	10.85
250.243	11.37
250.625	11.1
251.006	11
251.388	10.59
251.769	11.15
252.151	10.68
252.532	10.7
252.913	10.71
253.295	10.16
253.676	9.96
254.057	11.2
254.438	10.53
254.819	10.92
255.2	10.68
255.581	10.57
255.962	11.06
256.343	11.14
256.724	9.55
257.105	11.88
257.486	10.83
257.867	10.37
258.247	10.53
258.628	9.94
259.009	9.21
259.389	10.26
259.77	9.69
260.15	10.82
260.531	10.79
260.911	10.84
261.292	10.17
261.672	10.11
262.052	10.23
262.432	10.18
262.813	10.11
263.193	10.37
263.573	10.4
263.953	10.19
264.333	10.44
264.713	10.65
265.093	10.1
265.473	10.5
265.853	9.36
266.233	10.24
266.612	10.07
266.992	9.6
267.372	10.04
267.752	9.4
268.131	9.89
268.511	10.22
268.89	9.88
269.27	10.07
269.649	9.47
270.029	9.39
270.408	10.23
270.787	9.85
271.167	9.67
271.546	10.5
271.925	10.31
272.304	9.84
272.683	9.5
273.062	9.58
273.441	9.7
273.82	10.05
274.199	9.93
274.578	9.69
274.957	10.05
275.336	9.94
275.715	9.41
276.093	9.78
276.472	9.4
276.851	9.54
277.229	9.94
277.608	8.94
277.986	9.2
278.365	9.57
278.743	9.27
279.122	9.57
279.5	9.14
279.878	8.92
280.257	9.47
280.635	9.54
281.013	9.83
281.391	9.04
281.769	8.83
282.147	9.19
282.525	9.24
282.903	9.01
283.281	9.38
283.659	9.07
284.037	9.1
284.415	8.6
284.792	8.8
285.17	9.26
285.548	8.97
285.925	9.11
286.303	8.23
286.68	8.62
287.058	9.28
287.435	8.71
287.813	8.35
288.19	8.63
288.567	8.68
288.945	9.06
289.322	9.01
289.699	8.29
290.076	9.04
290.453	8.64
290.83	8.3
291.207	9.31
291.584	8.45
291.961	8.51
292.338	8.38
292.715	8.68
293.092	8.39
293.469	8.71
293.845	8.49
294.222	8.47
294.599	8.34
294.975	9.37
295.352	8.76
295.728	8.61
296.105	8.59
296.481	8.52
296.858	8.21
297.234	8.45
297.61	7.5
297.986	8.15
298.363	8.31
298.739	8.24
299.115	8.19
299.491	8.05
299.867	8.57
300.243	7.95
300.619	7.99
300.995	8.07
301.371	8.23
301.746	7.86
302.122	7.97
302.498	7.82
302.874	8.26
303.249	8.28
303.625	8.14
304	8.4
304.376	7.94
304.751	8.01
305.127	8.37
305.502	7.87
305.878	8.15
306.253	7.93
306.628	7.88
307.003	7.72
307.378	7.47
307.754	7.53
308.129	7.97
308.504	8.49
308.879	7.79
309.254	8.07
309.629	7.4
310.003	7.53
310.378	7.74
310.753	7.89
311.128	7.98
311.502	8.1
311.877	7.48
312.252	7.68
312.626	7.77
313.001	7.95
313.375	7.58
313.75	7.29
314.124	7.07
314.498	7.48
314.873	6.8
315.247	7.44
315.621	7.54
315.995	7.76
316.369	7.03
316.743	7.92
317.117	7.46
317.491	6.95
317.865	7.82
318.239	8.07
318.613	7.6
318.987	7.01
319.361	6.7
319.734	7.23
320.108	6.7
320.482	7.16
320.855	7.3
321.229	7.59
321.602	7.49
321.976	7.57
322.349	7.52
322.723	6.85
323.096	7.53
323.469	6.73
323.843	7.61
324.216	7.54
324.589	7.17
324.962	7.14
325.335	7.86
325.708	7.43
326.081	7.08
326.454	7.07
326.827	7.79
327.2	7.16
327.573	7.82
327.945	6.64
328.318	7.22
328.691	6.98
329.063	7.67
329.436	7.28
329.809	7.04
330.181	7.3
330.553	7.52
330.926	6.99
331.298	6.91
331.671	6.7
332.043	7.01
332.415	7.2
332.787	7.1
333.159	6.47
333.532	7.59
333.904	6.76
334.276	6.93
334.648	7.41
335.02	7.04
335.391	7.04
335.763	7.19
336.135	6.98
336.507	7.4
336.879	6.83
337.25	7.12
337.622	7.73
337.993	7.53
338.365	7.33
338.736	6.96
339.108	6.98
339.479	7.23
339.851	7.12
340.222	7.11
340.593	6.75
340.964	7.41
341.336	7.98
341.707	6.99
342.078	7.37
342.449	6.77
342.82	6.62
343.191	7.01
343.562	7.08
343.933	7.27
344.303	6.99
344.674	6.86
345.045	7.41
345.416	6.98
345.786	7.46
346.157	7.05
346.527	7.25
346.898	7.16
347.268	7.38
347.639	7.36
348.009	6.94
348.38	7.44
348.75	7.49
349.12	6.97
349.49	7.08
349.861	7.79
350.231	7.1
350.601	7.27
350.971	7.55
351.341	7.24
351.711	7.71
352.081	7.4
352.45	6.89
352.82	7.51
353.19	7.47
353.56	7.64
353.929	7.18
354.299	7.2
354.669	7.51
355.038	7.1
355.408	7.51
355.777	6.98
356.147	7.16
356.516	7.18
356.885	7.28
357.254	7.36
357.624	7.23
357.993	7.26
358.362	7.4
358.731	7.4
359.1	6.89
359.469	7.42
359.838	7.27
360.207	7.31
360.576	7.63
360.945	7.18
361.314	7.39
361.682	7.13
362.051	7.37
362.42	7.34
362.788	7.69
363.157	7.5
363.525	7.12
363.894	7.45
364.262	7.43
364.631	7.6
364.999	7.37
365.367	7.42
365.735	7.29
366.104	7.28
366.472	7.25
366.84	7.41
367.208	7.41
367.576	7.29
367.944	7.5
368.312	7.47
368.68	7.74
369.048	7.64
369.416	7.58
369.783	7.5
370.151	7.49
370.519	7.57
370.886	7.55
371.254	7.83
371.621	7.6
371.989	7.42
372.356	7.72
372.724	7.89
373.091	7.62
373.458	7.54
373.826	7.44
374.193	7.66
374.56	7.68
374.927	7.73
375.294	7.75
375.661	8.07
376.028	8.08
376.395	7.9
376.762	7.7
377.129	7.64
377.496	7.67
377.863	7.85
378.229	7.71
378.596	7.75
378.963	7.98
379.329	7.99
379.696	7.85
380.062	7.74
380.429	7.54
380.795	7.85
381.161	7.9
381.528	7.99
381.894	7.58
382.26	8.1
382.626	8.11
382.993	8.06
383.359	8.03
383.725	8.16
384.091	7.94
384.457	8.13
384.823	7.92
385.188	8.38
385.554	7.92
385.92	7.87
386.286	8.16
386.651	8.18
387.017	8.29
387.383	7.96
387.748	7.87
388.114	7.92
388.479	8.24
388.845	8.45
389.21	8.21
389.575	7.75
389.94	8.02
390.306	8.23
390.671	8.06
391.036	8.13
391.401	8.17
391.766	8.49
392.131	8.23
392.496	8.3
392.861	8.37
393.226	8.13
393.591	8.23
393.956	8.24
394.32	8.3
394.685	8.13
395.05	8.47
395.414	8.56
395.779	8.14
396.143	8.42
396.508	8.32
396.872	8.39
397.236	8.5
397.601	8.27
397.965	8.14
398.329	8.03
398.694	8.31
399.058	8.05
399.422	8.46
399.786	8.45
400.15	8.3
400.514	8.61
400.878	8.8
401.242	8.76
401.605	8.58
401.969	8.35
402.333	8.49
402.697	8.36
403.06	8.61
403.424	8.44
403.787	8.39
404.151	8.61
404.514	8.72
404.878	8.71
405.241	8.51
405.604	8.47
405.968	8.66
406.331	8.4
406.694	8.57
407.057	8.54
407.42	8.9
407.783	8.79
408.146	8.48
408.509	8.63
408.872	8.6
409.235	8.55
409.598	8.66
409.961	8.73
410.323	8.82
410.686	8.48
411.049	8.8
411.411	8.71
411.774	8.7
412.136	8.84
412.499	8.52
412.861	8.69
413.223	8.73
413.586	8.6
413.948	8.71
414.31	8.88
414.672	8.74
415.035	8.82
415.397	8.82
415.759	8.62
416.121	8.88
416.483	8.84
416.845	8.91
417.206	8.57
417.568	8.73
417.93	8.98
418.292	8.66
418.653	8.77
419.015	8.86
419.377	8.75
419.738	8.84
420.1	8.65
420.461	8.8
420.822	8.59
421.184	8.71
421.545	8.88
421.906	8.65
422.267	8.68
422.629	8.8
422.99	8.67
423.351	8.75
423.712	8.64
424.073	8.76
424.434	8.64
424.795	8.85
425.155	8.89
425.516	8.83
425.877	8.72
426.238	8.69
426.598	8.65
426.959	8.68
427.32	8.68
427.68	8.89
428.041	8.9
428.401	8.78
428.761	8.91
429.122	8.86
429.482	8.92
429.842	9
430.202	9.02
430.563	8.92
430.923	9.04
431.283	9.05
431.643	9.16
432.003	9.16
432.363	8.94
432.722	9.26
433.082	8.98
433.442	9.02
433.802	9.19
434.161	8.99
434.521	9.12
434.881	9.09
435.24	9.05
435.6	8.93
435.959	8.98
436.319	9.06
436.678	9.1
437.037	9.06
437.396	9.24
437.756	9.15
438.115	8.95
438.474	9.11
438.833	9.2
439.192	9.08
439.551	9.04
439.91	9.06
440.269	9.24
440.628	9.38
440.987	9.15
441.345	9.12
441.704	9.04
442.063	9.08
442.421	8.97
442.78	9.01
443.138	9.09
443.497	9.09
443.855	8.99
444.214	9.06
444.572	9.12
444.93	9.26
445.288	9.16
445.647	9.34
446.005	9.04
446.363	9.25
446.721	9.07
447.079	9.31
447.437	9.1
447.795	8.95
448.153	9.02
448.51	9.05
448.868	8.99
449.226	9.04
449.584	8.97
449.941	8.96
450.299	9.13
450.656	9.09
451.014	9.06
451.371	9.3
451.729	9.06
452.086	9.24
452.443	9.26
452.801	9.09
453.158	9.39
453.515	9.19
453.872	9.29
454.229	9.4
454.586	9.22
454.943	9.18
455.3	9.09
455.657	9.26
456.014	9.21
456.371	9.19
456.727	9.19
457.084	9.19
457.441	9.12
457.797	9.13
458.154	9.33
458.51	9.14
458.867	9.36
459.223	9.42
459.58	9.33
459.936	9.2
460.292	9.17
460.648	9.05
461.005	9.09
461.361	9.25
461.717	8.9
462.073	9.13
462.429	9.16
462.785	9.06
463.141	9.17
463.496	9.27
463.852	9.15
464.208	9.19
464.564	9.34
464.919	9.13
465.275	9.33
465.631	9.23
465.986	9.4
466.342	9.26
466.697	9.19
467.052	9.26
467.408	9.33
467.763	9.49
468.118	9.55
468.473	9.39
468.829	9.23
469.184	9.22
469.539	9.26
469.894	9.26
470.249	9.26
470.603	9.19
470.958	9.24
471.313	9.36
471.668	9.31
472.023	9.35
472.377	9.24
472.732	9.23
473.086	9.49
473.441	9.46
473.795	9.48
474.15	9.28
474.504	9.26
474.859	9.37
475.213	9.29
475.567	9.33
475.921	9.39
476.275	9.37
476.63	9.47
476.984	9.52
477.338	9.32
477.692	9.24
478.045	9.18
478.399	9.26
478.753	9.45
479.107	9.38
479.461	9.24
479.814	9.42
480.168	9.5
480.521	9.28
480.875	9.24
481.228	9.39
481.582	9.32
481.935	9.4
482.289	9.37
482.642	9.26
482.995	9.17
483.348	9.33
483.701	9.3
484.055	9.16
484.408	9.07
484.761	9.13
485.114	9.11
485.466	9.05
485.819	8.94
486.172	8.82
486.525	8.83
486.878	8.85
487.23	8.86
487.583	8.92
487.936	9
488.288	9.04
488.641	9.14
488.993	9.02
489.345	9.01
489.698	8.98
490.05	8.92
490.402	8.86
490.754	8.92
491.107	8.95
491.459	9.08
491.811	9.13
492.163	9.1
492.515	9.17
492.866	9.13
493.218	9.08
493.57	9.08
493.922	8.96
494.274	8.95
494.625	8.94
494.977	9.03
495.328	9.21
495.68	9.26
496.031	9.11
496.383	9.3
496.734	9.27
497.086	9.22
497.437	9.41
497.788	9.21
498.139	9.44
498.49	9.13
498.842	9.22
499.193	9.25
499.544	9.26
499.894	9.25
500.245	9.27
500.596	9.26
500.947	9.3
501.298	9.26
501.648	9.19
501.999	9.21
502.35	9.34
502.7	9.53
503.051	9.2
503.401	9.3
503.752	9.36
504.102	9.35
504.452	9.37
504.803	9.39
505.153	9.33
505.503	9.5
505.853	9.3
506.203	9.34
506.553	9.22
506.903	9.39
507.253	9.23
507.603	9.3
507.953	9.34
508.303	9.31
508.652	9.45
509.002	9.48
509.352	9.46
509.701	9.4
510.051	9.33
510.4	9.32
510.75	9.42
511.099	9.24
511.449	9.32
511.798	9.32
512.147	9.27
512.496	9.32
512.846	9.3
513.195	9.37
513.544	9.42
513.893	9.16
514.242	9.27
514.591	9.34
514.939	9.27
515.288	9.21
515.637	9.31
515.986	9.35
516.334	9.2
516.683	9.33
517.032	9.19
517.38	9.29
517.729	9.45
518.077	9.31
518.426	9.35
518.774	9.27
519.122	9.35
519.47	9.36
519.819	9.31
520.167	9.2
520.515	9.17
520.863	9.29
521.211	9.35
521.559	9.3
521.907	9.17
522.255	9.3
522.602	9.28
522.95	9.34
523.298	9.3
523.645	9.35
523.993	9.28
524.341	9.34
524.688	9.41
525.036	9.42
525.383	9.36
525.73	9.52
526.078	9.42
526.425	9.4
526.772	9.33
527.119	9.16
527.466	9.21
527.814	9.28
528.161	9.25
528.508	9.26
528.854	9.18
529.201	9.17
529.548	9.23
529.895	9.18
530.242	9.05
530.588	8.98
530.935	8.99
531.282	9.01
531.628	8.97
531.975	8.89
532.321	9.02
532.667	9.09
533.014	9.16
533.36	9.16
533.706	9.27
534.052	9.13
534.399	9.17
534.745	9.09
535.091	9.11
535.437	9.12
535.783	9.13
536.129	9.13
536.474	9.08
536.82	9.17
537.166	9.12
537.512	9.32
537.857	9.38
538.203	9.25
538.549	9.3
538.894	9.24
539.239	9.36
539.585	9.26
539.93	9.25
540.276	9.33
540.621	9.38
540.966	9.44
541.311	9.34
541.656	9.4
542.001	9.43
542.346	9.47
542.691	9.26
543.036	9.17
543.381	9.11
543.726	9.06
544.071	9.16
544.415	9.08
544.76	9.1
545.105	9.11
545.449	9.21
545.794	9.31
546.138	9.2
546.483	9.18
546.827	9.19
547.171	9.4
547.516	9.25
547.86	9.43
548.204	9.29
548.548	9.35
548.892	9.26
549.236	9.32
549.58	9.26
549.924	9.27
550.268	9.31
550.612	9.57
550.956	9.51
551.3	9.33
551.643	9.39
551.987	9.56
552.33	9.49
552.674	9.32
553.017	9.43
553.361	9.49
553.704	9.58
554.048	9.57
554.391	9.5
554.734	9.37
555.077	9.47
555.42	9.29
555.764	9.43
556.107	9.47
556.45	9.36
556.793	9.25
557.135	9.38
557.478	9.27
557.821	9.35
558.164	9.45
558.507	9.7
558.849	9.58
559.192	9.51
559.534	9.6
559.877	9.28
560.219	9.53
560.562	9.55
560.904	9.2
561.246	9.51
561.589	9.43
561.931	9.48
562.273	9.66
562.615	9.51
562.957	9.4
563.299	9.63
563.641	9.5
563.983	9.25
564.325	9.19
564.667	9.46
565.008	9.36
565.35	9.44
565.692	9.54
566.033	9.34
566.375	9.28
566.716	9.39
567.058	9.26
567.399	9.52
567.741	9.35
568.082	9.59
568.423	9.45
568.764	9.31
569.105	9.59
569.447	9.4
569.788	9.48
570.129	9.47
570.47	9.32
570.811	9.49
571.151	9.33
571.492	9.45
571.833	9.54
572.174	9.48
572.514	9.44
572.855	9.42
573.195	9.38
573.536	9.16
573.876	9.43
574.217	9.3
574.557	9.17
574.898	9.24
575.238	9.28
575.578	9.26
575.918	9.33
576.258	9.46
576.598	9.48
576.938	9.31
577.278	9.36
577.618	9.34
577.958	9.22
578.298	9.3
578.638	9.5
578.977	9.3
579.317	9.19
579.657	9.24
579.996	9.41
580.336	9.4
580.675	9.38
581.014	9.55
581.354	9.33
581.693	9.46
582.032	9.38
582.372	9.32
582.711	9.49
583.05	9.79
583.389	9.56
583.728	9.28
584.067	9.62
584.406	9.35
584.745	9.29
585.083	9.3
585.422	9.25
585.761	9.4
586.1	9.47
586.438	9.08
586.777	9.49
587.115	9.4
587.454	9.42
587.792	9.48
588.13	9.31
588.469	9.47
588.807	9.1
589.145	9.2
589.483	9.29
589.821	9.09
590.159	9.23
590.497	9.39
590.835	9.43
591.173	9.21
591.511	9.52
591.849	9.2
592.187	9.17
592.524	9.38
592.862	9.26
593.2	9.27
593.537	9.18
593.875	9.35
594.212	9.5
594.55	9.28
594.887	9.46
595.224	9.3
595.561	8.86
595.899	9.07
596.236	9.38
596.573	9.41
596.91	9.4
597.247	9.19
597.584	9.17
597.921	9.3
598.258	9.32
598.594	9.17
598.931	9.1
599.268	9.05
599.604	9.17
599.941	9.03
600.277	9
600.614	9.16
600.95	9.08
601.287	9.1
601.623	9.24
601.959	9.23
602.296	9.43
602.632	9.47
602.968	8.84
603.304	9.62
603.64	9.07
603.976	9.22
604.312	9.33
604.648	9.34
604.984	9.18
605.319	9.2
605.655	9.04
605.991	9.1
606.326	8.99
606.662	8.83
606.998	8.9
607.333	8.98
607.668	8.86
608.004	8.94
608.339	8.92
608.674	9.03
609.01	9.21
609.345	9.27
609.68	9.18
610.015	9
610.35	9.33
610.685	9.27
611.02	9
611.355	9
611.689	9.07
612.024	9.08
612.359	9.11
612.694	9.04
613.028	9.1
613.363	9.16
613.697	9.02
614.032	9.35
614.366	8.84
614.7	8.87
615.035	9.15
615.369	9.07
615.703	8.74
616.037	8.99
616.371	9.11
616.705	8.78
617.039	9.08
617.373	9.11
617.707	9
618.041	9.29
618.375	9.24
618.709	8.85
619.042	8.99
619.376	9.07
619.71	9.04
620.043	9.31
620.377	9.08
620.71	9.25
621.043	9.23
621.377	8.96
621.71	8.79
622.043	8.69
622.376	9.14
622.709	9.07
623.043	9.18
623.376	8.74
623.709	8.96
624.041	9.31
624.374	8.84
624.707	8.75
625.04	9.18
625.373	8.99
625.705	8.6
626.038	9.2
626.37	8.31
626.703	8.88
627.035	8.79
627.368	9.06
627.7	9.29
628.032	8.76
628.365	9.16
628.697	9.01
629.029	8.92
629.361	9.05
629.693	8.93
630.025	9.05
630.357	9.13
630.689	8.84
631.021	9.19
631.353	8.9
631.684	8.76
632.016	9.37
632.348	8.54
632.679	8.91
633.011	8.74
633.342	8.57
633.674	8.86
634.005	8.7
634.336	9.32
634.668	8.59
634.999	8.74
635.33	8.99
635.661	9.3
635.992	8.93
636.323	8.73
636.654	8.74
636.985	8.82
637.316	8.66
637.647	8.85
637.977	8.75
638.308	8.89
638.639	8.44
638.969	8.92
639.3	8.82
639.63	9.04
639.961	8.64
640.291	8.78
640.622	8.89
640.952	8.83
641.282	8.56
641.612	8.7
641.943	9.07
642.273	8.46
642.603	8.77
642.933	8.81
643.263	9.26
643.592	8.67
643.922	8.82
644.252	8.09
644.582	8.88
644.911	8.92
645.241	9.38
645.571	9.47
645.9	8.35
646.23	8.55
646.559	8.21
646.888	8.77
647.218	8.64
647.547	8.54
647.876	8.56
648.205	8.76
648.534	8.61
648.863	8.86
649.192	8.74
649.521	9.01
649.85	8.8
650.179	8.72
650.508	8.68
650.837	8.75
651.165	8.71
651.494	8.37
651.822	9.04
652.151	8.69
652.479	8.46
652.808	8.72
653.136	8.23
653.465	8.84
653.793	8.93
654.121	9.05
654.449	8.79
654.777	8.72
655.105	8.97
655.433	9.33
655.761	8.79
656.089	8.71
656.417	8.15
656.745	8.42
657.073	8.53
657.4	9.12
657.728	8.71
658.056	8.39
658.383	9.04
658.711	8.72
659.038	9.3
659.365	8.9
659.693	8.64
660.02	8.22
660.347	8.78
660.674	8.52
661.001	8.13
661.329	8.73
661.656	8.95
661.982	8.47
662.309	8.48
662.636	8.67
662.963	8.68
663.29	8.4
663.616	8.63
663.943	8.26
664.27	8.92
664.596	8.21
664.923	8.46
665.249	9.08
665.576	8.27
665.902	8.64
666.228	8.31
666.554	8.94
666.881	8.17
667.207	8.71
667.533	8.43
667.859	8.47
668.185	8.69
668.511	8.74
668.837	8.77
669.162	8.86
669.488	8.7
669.814	8.19
670.139	9.1
670.465	8.19
670.791	8.81
671.116	8.63
671.442	8.53
671.767	8.35
672.092	8.82
672.418	8.58
672.743	8.89
673.068	8.87
673.393	8.52
673.718	8.33
674.043	8.16
674.368	8.47
674.693	8.3
675.018	9.16
675.343	8.95
675.667	8.72
675.992	8.58
676.317	8.91
676.641	9.01
676.966	9.11
677.29	8.59
677.615	8.64
677.939	8.07
678.264	8.56
678.588	8.32
678.912	8.82
679.236	8.46
679.56	8.79
679.885	8.6
680.209	8.94
680.532	7.64
680.856	8.89
681.18	8.47
681.504	8.51
681.828	9.2
682.152	8.7
682.475	8.07
682.799	8.37
683.122	7.91
683.446	8.3
683.769	8.5
684.093	8.87
684.416	8.6
684.739	8.29
685.062	7.61
685.386	8
685.709	8.33
686.032	7.92
686.355	8.3
686.678	7.99
687.001	8.78
687.324	8.26
687.646	7.9
687.969	8.89
688.292	9.42
688.614	8.62
688.937	8.07
689.26	7.93
689.582	7.77
689.904	7.59
690.227	8.82
690.549	8.58
690.871	8.31
