Data from 0244_crown_Reflection__1__114.txt Node

Date: Fri Oct 20 21:31:44 CDT 2023
User: ToomeyLab
Spectrometer: FLMS14357
Trigger mode: 0
Integration Time (sec): 1.000000E-2
Scans to average: 100
Electric dark correction enabled: true
Nonlinearity correction enabled: false
Boxcar width: 0
XAxis mode: Wavelengths
Number of Pixels in Spectrum: 2048
>>>>>Begin Spectral Data<<<<<
189.047	-204.83
189.435	-204.83
189.823	-204.83
190.211	1420
190.599	87.47
190.987	182.92
191.375	-77.23
191.763	29.14
192.151	-166.73
192.538	-2605.26
192.926	-35.79
193.314	-482.56
193.702	174.53
194.089	196.27
194.477	107.84
194.864	-41.73
195.252	218.4
195.639	-172.49
196.027	-296.51
196.414	77.4
196.801	-141.4
197.189	12.61
197.576	-52.22
197.963	-109.01
198.351	47.76
198.738	12.72
199.125	84.48
199.512	22.45
199.899	13.32
200.286	9.68
200.673	30.67
201.06	29.93
201.447	-11.99
201.833	47.5
202.22	28.21
202.607	27.64
202.994	40.74
203.38	-0.87
203.767	13.4
204.154	30.39
204.54	16.47
204.927	21.06
205.313	15.41
205.699	22.14
206.086	29.23
206.472	50.1
206.858	38.31
207.245	3.68
207.631	19.24
208.017	38.42
208.403	21.07
208.789	21.35
209.175	5.6
209.561	7.75
209.947	4.84
210.333	11.04
210.719	7.86
211.105	15.36
211.491	13.42
211.876	11.3
212.262	29.37
212.648	44.73
213.034	21.59
213.419	14.33
213.805	1.88
214.19	14.76
214.576	3.3
214.961	-0.82
215.346	17.96
215.732	12.27
216.117	-26.29
216.502	14.7
216.888	5.61
217.273	3.22
217.658	6.37
218.043	13.76
218.428	11.14
218.813	23.45
219.198	27.58
219.583	-20.78
219.968	15.2
220.353	13.19
220.738	15.8
221.122	10.22
221.507	16.33
221.892	8.22
222.276	-3.8
222.661	22
223.046	13.95
223.43	13.26
223.815	12.73
224.199	16.15
224.583	-6.96
224.968	2.42
225.352	3.55
225.736	8.95
226.121	9.18
226.505	5.92
226.889	12.84
227.273	7.08
227.657	10.84
228.041	11.52
228.425	4.06
228.809	5.11
229.193	6.38
229.577	8.22
229.961	6.02
230.344	5.92
230.728	5.63
231.112	7.14
231.495	6.24
231.879	6.02
232.263	7.29
232.646	4.62
233.03	5.11
233.413	6.35
233.797	5.82
234.18	6.95
234.563	7.1
234.946	8.4
235.33	7.24
235.713	5.99
236.096	7.56
236.479	6.87
236.862	7.09
237.245	4.94
237.628	6.36
238.011	5.76
238.394	5.99
238.777	8.43
239.16	6.06
239.543	7.58
239.925	7.54
240.308	6.29
240.691	5.55
241.073	7.62
241.456	6.06
241.838	6.36
242.221	6.35
242.603	7.33
242.986	6.45
243.368	6.14
243.75	5.82
244.133	5.31
244.515	5.96
244.897	5.93
245.279	5.93
245.661	5.53
246.043	5.39
246.425	5.57
246.807	5.55
247.189	5.7
247.571	6.02
247.953	6.72
248.335	5.74
248.717	5.43
249.098	5.41
249.48	5.57
249.862	5.8
250.243	5.59
250.625	5.86
251.006	5.72
251.388	5.72
251.769	6.16
252.151	5.23
252.532	6.23
252.913	5.94
253.295	4.89
253.676	5.55
254.057	5.15
254.438	5.32
254.819	5.7
255.2	5.66
255.581	5.9
255.962	4.37
256.343	6
256.724	3.89
257.105	5.71
257.486	6.88
257.867	6.25
258.247	6.3
258.628	5.49
259.009	4.52
259.389	4.77
259.77	4.97
260.15	5.61
260.531	5.16
260.911	5.37
261.292	5.24
261.672	5.52
262.052	5.36
262.432	5.21
262.813	5.36
263.193	5.37
263.573	4.71
263.953	5.51
264.333	5.63
264.713	5.43
265.093	5.09
265.473	5.48
265.853	5.22
266.233	5.25
266.612	5.44
266.992	4.89
267.372	5.16
267.752	5.32
268.131	5
268.511	5.11
268.89	5.23
269.27	4.75
269.649	5.2
270.029	5.03
270.408	5.1
270.787	5.45
271.167	5.25
271.546	5.08
271.925	5.29
272.304	5.28
272.683	4.84
273.062	4.79
273.441	5.38
273.82	4.87
274.199	5.31
274.578	4.86
274.957	4.93
275.336	5.24
275.715	5.28
276.093	5.26
276.472	5.32
276.851	5.12
277.229	4.71
277.608	4.93
277.986	5.03
278.365	5.04
278.743	5.29
279.122	4.5
279.5	5.01
279.878	4.26
280.257	5.73
280.635	5.28
281.013	5.27
281.391	5.06
281.769	5.01
282.147	4.37
282.525	4.96
282.903	5.28
283.281	5.08
283.659	5.44
284.037	5.24
284.415	4.52
284.792	4.73
285.17	4.93
285.548	4.59
285.925	4.71
286.303	4.67
286.68	4.54
287.058	5.29
287.435	5
287.813	4.53
288.19	4.69
288.567	4.92
288.945	5.15
289.322	5.19
289.699	4.64
290.076	5.75
290.453	4.61
290.83	4.71
291.207	5.16
291.584	4.22
291.961	4.47
292.338	4.61
292.715	4.94
293.092	4.97
293.469	5.09
293.845	4.94
294.222	4.73
294.599	4.96
294.975	5.38
295.352	4.71
295.728	4.94
296.105	4.81
296.481	4.74
296.858	4.89
297.234	5.12
297.61	4.35
297.986	4.33
298.363	4.73
298.739	4.96
299.115	4.96
299.491	4.84
299.867	4.8
300.243	5.07
300.619	4.75
300.995	4.98
301.371	4.66
301.746	4.32
302.122	4.96
302.498	4.34
302.874	5.01
303.249	4.46
303.625	5.15
304	5.17
304.376	4.91
304.751	4.14
305.127	4.35
305.502	5.29
305.878	4.78
306.253	4.52
306.628	4.66
307.003	4.98
307.378	4.74
307.754	4.52
308.129	5.22
308.504	5.18
308.879	5.06
309.254	4.93
309.629	4.53
310.003	4.04
310.378	4.62
310.753	4.85
311.128	4.8
311.502	4.78
311.877	4.74
312.252	4.77
312.626	4.88
313.001	4.92
313.375	4.81
313.75	4.53
314.124	4.34
314.498	4.49
314.873	4.5
315.247	4.95
315.621	4.58
315.995	4.98
316.369	4.46
316.743	4.83
317.117	4.61
317.491	4.14
317.865	4.84
318.239	5.54
318.613	4.89
318.987	4.61
319.361	4.21
319.734	4.5
320.108	4.22
320.482	4.4
320.855	4.89
321.229	5.41
321.602	4.9
321.976	4.56
322.349	4.9
322.723	4.46
323.096	4.56
323.469	4.55
323.843	5.2
324.216	4.85
324.589	4.47
324.962	5.2
325.335	4.79
325.708	4.67
326.081	4.8
326.454	5.17
326.827	4.56
327.2	5
327.573	4.89
327.945	4.91
328.318	4.58
328.691	4.79
329.063	5.04
329.436	4.5
329.809	4.51
330.181	4.85
330.553	5.04
330.926	4.72
331.298	4.25
331.671	4.66
332.043	4.18
332.415	4.92
332.787	4.69
333.159	4.09
333.532	5.2
333.904	4.87
334.276	4.46
334.648	4.92
335.02	5.01
335.391	4.36
335.763	4.96
336.135	4.56
336.507	4.99
336.879	4.43
337.25	4.41
337.622	4.5
337.993	4.9
338.365	5.13
338.736	4.97
339.108	4.76
339.479	4.02
339.851	4.4
340.222	4.58
340.593	3.99
340.964	4.66
341.336	5.09
341.707	4.77
342.078	4.59
342.449	4.87
342.82	4.14
343.191	4.57
343.562	4.56
343.933	4.77
344.303	4.71
344.674	4.78
345.045	4.58
345.416	4.97
345.786	4.5
346.157	4.84
346.527	4.5
346.898	4.81
347.268	4.34
347.639	4.61
348.009	4.26
348.38	4.86
348.75	4.68
349.12	4.68
349.49	4.75
349.861	4.84
350.231	4.35
350.601	4.63
350.971	4.89
351.341	4.47
351.711	5.34
352.081	4.68
352.45	4.37
352.82	4.69
353.19	4.7
353.56	4.85
353.929	4.6
354.299	4.68
354.669	4.87
355.038	4.77
355.408	4.79
355.777	4.62
356.147	4.55
356.516	4.5
356.885	4.7
357.254	4.86
357.624	5
357.993	4.38
358.362	4.52
358.731	4.21
359.1	4.36
359.469	4.29
359.838	4.79
360.207	4.62
360.576	4.87
360.945	4.23
361.314	4.49
361.682	4.67
362.051	4.38
362.42	4.71
362.788	4.79
363.157	4.58
363.525	4.54
363.894	4.73
364.262	4.61
364.631	4.64
364.999	4.65
365.367	4.49
365.735	4.91
366.104	4.58
366.472	4.57
366.84	4.77
367.208	4.65
367.576	4.4
367.944	4.28
368.312	4.43
368.68	4.85
369.048	4.53
369.416	4.67
369.783	4.43
370.151	4.57
370.519	4.74
370.886	4.89
371.254	4.83
371.621	4.79
371.989	4.49
372.356	4.62
372.724	4.6
373.091	4.55
373.458	4.55
373.826	4.23
374.193	4.62
374.56	4.52
374.927	4.77
375.294	4.67
375.661	4.38
376.028	4.71
376.395	5.01
376.762	4.29
377.129	4.76
377.496	4.7
377.863	4.72
378.229	5.05
378.596	4.95
378.963	4.65
379.329	4.89
379.696	4.67
380.062	4.8
380.429	4.69
380.795	4.51
381.161	4.92
381.528	4.83
381.894	4.66
382.26	4.99
382.626	5.03
382.993	4.76
383.359	4.67
383.725	4.92
384.091	4.7
384.457	4.79
384.823	4.6
385.188	4.69
385.554	4.72
385.92	4.53
386.286	4.9
386.651	4.9
387.017	4.82
387.383	4.8
387.748	4.71
388.114	4.55
388.479	4.45
388.845	4.82
389.21	4.52
389.575	4.61
389.94	4.8
390.306	4.71
390.671	4.94
391.036	4.95
391.401	4.91
391.766	4.82
392.131	5
392.496	4.7
392.861	4.71
393.226	4.78
393.591	4.7
393.956	4.75
394.32	5.02
394.685	4.64
395.05	5.13
395.414	4.93
395.779	4.64
396.143	4.77
396.508	4.69
396.872	4.95
397.236	4.83
397.601	4.72
397.965	4.46
398.329	4.7
398.694	4.82
399.058	4.96
399.422	4.93
399.786	4.9
400.15	4.49
400.514	4.92
400.878	4.99
401.242	4.92
401.605	4.91
401.969	4.54
402.333	4.69
402.697	4.96
403.06	4.75
403.424	4.8
403.787	4.97
404.151	4.95
404.514	4.96
404.878	4.81
405.241	4.99
405.604	4.89
405.968	5
406.331	4.7
406.694	4.87
407.057	4.78
407.42	5.15
407.783	4.74
408.146	4.7
408.509	4.81
408.872	5.13
409.235	4.83
409.598	5.03
409.961	4.83
410.323	4.75
410.686	4.83
411.049	4.9
411.411	4.94
411.774	4.91
412.136	4.91
412.499	4.9
412.861	5
413.223	4.96
413.586	4.86
413.948	4.98
414.31	5.08
414.672	4.75
415.035	4.84
415.397	5.02
415.759	4.98
416.121	4.85
416.483	5.11
416.845	4.86
417.206	4.84
417.568	5.11
417.93	4.98
418.292	4.8
418.653	5
419.015	4.87
419.377	4.8
419.738	4.88
420.1	4.84
420.461	4.8
420.822	4.91
421.184	4.9
421.545	4.95
421.906	4.86
422.267	4.88
422.629	4.86
422.99	4.74
423.351	4.86
423.712	4.87
424.073	4.81
424.434	4.71
424.795	4.81
425.155	4.95
425.516	4.83
425.877	4.99
426.238	4.85
426.598	4.9
426.959	4.86
427.32	4.85
427.68	4.95
428.041	4.85
428.401	4.96
428.761	4.92
429.122	4.92
429.482	5.02
429.842	5.04
430.202	5.07
430.563	4.88
430.923	5.23
431.283	5.13
431.643	5.17
432.003	5.11
432.363	4.82
432.722	5.03
433.082	4.97
433.442	4.95
433.802	5.18
434.161	4.83
434.521	4.96
434.881	5.03
435.24	4.95
435.6	4.95
435.959	4.96
436.319	4.83
436.678	5
437.037	5
437.396	5.05
437.756	4.97
438.115	4.86
438.474	5.21
438.833	4.99
439.192	4.85
439.551	4.82
439.91	4.98
440.269	5.01
440.628	5.06
440.987	5.12
441.345	5.02
441.704	5.04
442.063	5.17
442.421	4.9
442.78	5
443.138	5.11
443.497	5.02
443.855	5.07
444.214	4.87
444.572	5.02
444.93	5.04
445.288	5.04
445.647	5.24
446.005	5.02
446.363	4.97
446.721	4.94
447.079	5.13
447.437	5.03
447.795	4.95
448.153	5.02
448.51	5.01
448.868	4.92
449.226	5.02
449.584	5.08
449.941	4.95
450.299	5.02
450.656	4.93
451.014	5
451.371	5.06
451.729	5.05
452.086	5.16
452.443	5.03
452.801	5.01
453.158	5.18
453.515	5.14
453.872	5.15
454.229	5.09
454.586	5.13
454.943	5.04
455.3	5.04
455.657	5.16
456.014	4.89
456.371	5.1
456.727	5.13
457.084	5
457.441	5.15
457.797	5.15
458.154	5.05
458.51	4.98
458.867	5.06
459.223	5.17
459.58	5.08
459.936	4.96
460.292	4.99
460.648	4.92
461.005	4.97
461.361	5.06
461.717	4.91
462.073	5.02
462.429	5.05
462.785	5.08
463.141	5.13
463.496	5.08
463.852	5.12
464.208	5.13
464.564	5.13
464.919	5.12
465.275	5.35
465.631	5.3
465.986	5.18
466.342	5.29
466.697	5.17
467.052	5.13
467.408	5.14
467.763	5.18
468.118	5.35
468.473	5.09
468.829	5.22
469.184	5.17
469.539	5.16
469.894	5.25
470.249	5.17
470.603	5.18
470.958	5.28
471.313	5.32
471.668	5.35
472.023	5.29
472.377	5.17
472.732	5.08
473.086	5.31
473.441	5.22
473.795	5.41
474.15	5.35
474.504	5.25
474.859	5.13
475.213	5.25
475.567	5.09
475.921	5.31
476.275	5.12
476.63	5.31
476.984	5.41
477.338	5.22
477.692	5.2
478.045	5.2
478.399	5.06
478.753	5.34
479.107	5.24
479.461	5.27
479.814	5.39
480.168	5.34
480.521	5.3
480.875	5.27
481.228	5.28
481.582	5.33
481.935	5.21
482.289	5.31
482.642	5.25
482.995	5.22
483.348	5.2
483.701	5.27
484.055	5.16
484.408	5.17
484.761	5.15
485.114	5.05
485.466	5.04
485.819	4.96
486.172	4.94
486.525	4.92
486.878	4.95
487.23	4.97
487.583	4.98
487.936	5.07
488.288	5.1
488.641	5.15
488.993	5.05
489.345	5.09
489.698	5.08
490.05	5.03
490.402	5.03
490.754	5
491.107	5
491.459	5.14
491.811	5.13
492.163	5.06
492.515	5.22
492.866	5.22
493.218	5.12
493.57	5.11
493.922	5.07
494.274	5.06
494.625	5.03
494.977	5.1
495.328	5.16
495.68	5.25
496.031	5.22
496.383	5.22
496.734	5.39
497.086	5.3
497.437	5.35
497.788	5.18
498.139	5.43
498.49	5.23
498.842	5.2
499.193	5.29
499.544	5.31
499.894	5.28
500.245	5.25
500.596	5.34
500.947	5.28
501.298	5.34
501.648	5.27
501.999	5.37
502.35	5.28
502.7	5.52
503.051	5.33
503.401	5.34
503.752	5.37
504.102	5.35
504.452	5.32
504.803	5.32
505.153	5.48
505.503	5.42
505.853	5.39
506.203	5.36
506.553	5.35
506.903	5.34
507.253	5.34
507.603	5.38
507.953	5.42
508.303	5.42
508.652	5.51
509.002	5.37
509.352	5.52
509.701	5.5
510.051	5.36
510.4	5.34
510.75	5.37
511.099	5.3
511.449	5.35
511.798	5.38
512.147	5.32
512.496	5.46
512.846	5.32
513.195	5.46
513.544	5.46
513.893	5.38
514.242	5.34
514.591	5.41
514.939	5.36
515.288	5.35
515.637	5.35
515.986	5.46
516.334	5.44
516.683	5.45
517.032	5.26
517.38	5.31
517.729	5.44
518.077	5.5
518.426	5.37
518.774	5.33
519.122	5.5
519.47	5.41
519.819	5.37
520.167	5.34
520.515	5.36
520.863	5.4
521.211	5.37
521.559	5.41
521.907	5.38
522.255	5.4
522.602	5.43
522.95	5.4
523.298	5.46
523.645	5.5
523.993	5.41
524.341	5.36
524.688	5.48
525.036	5.45
525.383	5.48
525.73	5.54
526.078	5.51
526.425	5.58
526.772	5.4
527.119	5.37
527.466	5.41
527.814	5.44
528.161	5.48
528.508	5.35
528.854	5.41
529.201	5.36
529.548	5.4
529.895	5.42
530.242	5.31
530.588	5.28
530.935	5.24
531.282	5.26
531.628	5.23
531.975	5.22
532.321	5.3
532.667	5.38
533.014	5.38
533.36	5.52
533.706	5.45
534.052	5.53
534.399	5.31
534.745	5.35
535.091	5.42
535.437	5.43
535.783	5.43
536.129	5.43
536.474	5.4
536.82	5.42
537.166	5.51
537.512	5.52
537.857	5.63
538.203	5.46
538.549	5.6
538.894	5.46
539.239	5.52
539.585	5.5
539.93	5.53
540.276	5.67
540.621	5.54
540.966	5.63
541.311	5.69
541.656	5.76
542.001	5.63
542.346	5.67
542.691	5.51
543.036	5.53
543.381	5.41
543.726	5.43
544.071	5.46
544.415	5.37
544.76	5.38
545.105	5.52
545.449	5.45
545.794	5.58
546.138	5.48
546.483	5.57
546.827	5.52
547.171	5.67
547.516	5.54
547.86	5.69
548.204	5.52
548.548	5.65
548.892	5.58
549.236	5.63
549.58	5.43
549.924	5.54
550.268	5.59
550.612	5.66
550.956	5.77
551.3	5.64
551.643	5.64
551.987	5.92
552.33	5.84
552.674	5.76
553.017	5.75
553.361	5.83
553.704	5.8
554.048	5.79
554.391	5.78
554.734	5.84
555.077	5.75
555.42	5.53
555.764	5.67
556.107	5.79
556.45	5.7
556.793	5.53
557.135	5.7
557.478	5.62
557.821	5.69
558.164	5.97
558.507	5.84
558.849	5.95
559.192	5.83
559.534	5.92
559.877	5.75
560.219	5.89
560.562	5.88
560.904	5.57
561.246	5.81
561.589	5.56
561.931	5.95
562.273	6.05
562.615	5.91
562.957	5.87
563.299	5.76
563.641	5.89
563.983	5.75
564.325	5.86
564.667	5.83
565.008	5.79
565.35	5.89
565.692	6.01
566.033	5.89
566.375	5.91
566.716	6.01
567.058	5.78
567.399	5.92
567.741	5.85
568.082	5.91
568.423	5.89
568.764	5.83
569.105	5.94
569.447	5.85
569.788	5.97
570.129	5.91
570.47	5.85
570.811	5.97
571.151	6
571.492	6.04
571.833	6.14
572.174	6.03
572.514	5.95
572.855	5.91
573.195	5.9
573.536	5.68
573.876	6.06
574.217	5.79
574.557	5.79
574.898	5.72
575.238	5.77
575.578	5.88
575.918	5.77
576.258	5.91
576.598	6.06
576.938	5.93
577.278	6.07
577.618	5.88
577.958	5.83
578.298	5.89
578.638	5.94
578.977	6.12
579.317	5.99
579.657	5.83
579.996	6.05
580.336	6.08
580.675	5.85
581.014	6.03
581.354	6.06
581.693	5.97
582.032	6.15
582.372	6.09
582.711	6.08
583.05	6.57
583.389	6.11
583.728	6.2
584.067	6.01
584.406	5.92
584.745	6.02
585.083	5.96
585.422	6.01
585.761	6.03
586.1	6.12
586.438	6.02
586.777	6.05
587.115	6.32
587.454	6.21
587.792	6.09
588.13	6.12
588.469	6.26
588.807	5.81
589.145	6.12
589.483	6.02
589.821	5.93
590.159	6.06
590.497	6.12
590.835	6.23
591.173	5.97
591.511	6.2
591.849	6.1
592.187	5.92
592.524	6.02
592.862	5.94
593.2	6.15
593.537	6.07
593.875	6.14
594.212	6.26
594.55	6.09
594.887	6.25
595.224	6
595.561	6.1
595.899	5.93
596.236	6.41
596.573	6.28
596.91	6.36
597.247	6.13
597.584	5.91
597.921	6.1
598.258	6.14
598.594	6.22
598.931	6.07
599.268	5.98
599.604	6.18
599.941	6.07
600.277	6.2
600.614	6.1
600.95	6.06
601.287	5.95
601.623	6.17
601.959	6.34
602.296	6.34
602.632	6.2
602.968	6.02
603.304	6.2
603.64	6.06
603.976	6.25
604.312	6.54
604.648	6.16
604.984	6.62
605.319	6.11
605.655	6.22
605.991	6.2
606.326	6.23
606.662	6.16
606.998	6.15
607.333	6.18
607.668	6.01
608.004	6.27
608.339	6.29
608.674	6.43
609.01	6.36
609.345	6.49
609.68	6.5
610.015	5.72
610.35	6.1
610.685	6.35
611.02	6.22
611.355	6.12
611.689	6.21
612.024	6.33
612.359	6.23
612.694	6.07
613.028	6.47
613.363	6.09
613.697	6.34
614.032	6.34
614.366	6.62
614.7	6.34
615.035	6.27
615.369	6.55
615.703	6.14
616.037	6.36
616.371	6.54
616.705	6.52
617.039	6.46
617.373	6.3
617.707	6.35
618.041	6.57
618.375	6.19
618.709	6.23
619.042	6.2
619.376	6.6
619.71	6.37
620.043	6.48
620.377	6.14
620.71	6.5
621.043	6.7
621.377	6.31
621.71	6.62
622.043	6.45
622.376	6.51
622.709	6.67
623.043	6.71
623.376	6.18
623.709	6.01
624.041	6.31
624.374	6.62
624.707	6.22
625.04	6.34
625.373	6.61
625.705	6.34
626.038	6.73
626.37	6.16
626.703	6.5
627.035	5.89
627.368	6.58
627.7	6.71
628.032	6.36
628.365	6.49
628.697	6.41
629.029	6.42
629.361	6.34
629.693	6.53
630.025	6.53
630.357	6.39
630.689	6.31
631.021	6.69
631.353	6.56
631.684	6.16
632.016	6.37
632.348	6.42
632.679	6.25
633.011	6.55
633.342	6.26
633.674	6.48
634.005	6.71
634.336	6.81
634.668	6.59
634.999	6.9
635.33	6.34
635.661	6.92
635.992	6.8
636.323	7.12
636.654	6.48
636.985	6.83
637.316	6.54
637.647	6.37
637.977	6.18
638.308	6.66
638.639	6.36
638.969	6.67
639.3	6.49
639.63	6.75
639.961	6.5
640.291	6.53
640.622	6.59
640.952	6.99
641.282	6.43
641.612	6.62
641.943	7.03
642.273	6.51
642.603	6.85
642.933	6.53
643.263	7.33
643.592	6.62
643.922	7.06
644.252	6.45
644.582	6.45
644.911	6.96
645.241	7.04
645.571	6.97
645.9	6.36
646.23	6.59
646.559	6.53
646.888	6.85
647.218	6.67
647.547	6.53
647.876	6.86
648.205	6.51
648.534	6.5
648.863	7.06
649.192	6.38
649.521	6.76
649.85	6.87
650.179	6.54
650.508	6.71
650.837	6.77
651.165	7.05
651.494	6.58
651.822	6.68
652.151	6.97
652.479	6.66
652.808	6.59
653.136	6.24
653.465	6.82
653.793	7.05
654.121	6.98
654.449	6.76
654.777	6.58
655.105	6.62
655.433	6.96
655.761	6.72
656.089	7.03
656.417	6.75
656.745	6.79
657.073	6.88
657.4	7.33
657.728	7.22
658.056	6.91
658.383	6.67
658.711	6.48
659.038	6.82
659.365	7.54
659.693	7.34
660.02	7.24
660.347	7.08
660.674	6.35
661.001	6.8
661.329	6.98
661.656	6.93
661.982	6.77
662.309	7.02
662.636	6.97
662.963	6.66
663.29	7.1
663.616	6.94
663.943	6.86
664.27	7.3
664.596	6.64
664.923	6.5
665.249	7.27
665.576	6.73
665.902	7.06
666.228	7.02
666.554	6.9
666.881	6.81
667.207	7.4
667.533	6.85
667.859	7.23
668.185	7.02
668.511	7.54
668.837	6.79
669.162	7.39
669.488	6.86
669.814	6.67
670.139	6.95
670.465	6.91
670.791	7.82
671.116	6.85
671.442	6.96
671.767	7.03
672.092	7.25
672.418	7.31
672.743	6.74
673.068	7.47
673.393	6.75
673.718	6.98
674.043	7.04
674.368	6.65
674.693	7.31
675.018	7.77
675.343	7.11
675.667	6.8
675.992	7.05
676.317	6.94
676.641	7.51
676.966	7.5
677.29	7.76
677.615	7.23
677.939	7.58
678.264	7.78
678.588	6.72
678.912	7.6
679.236	7.05
679.56	6.84
679.885	7.17
680.209	7.09
680.532	7.18
680.856	7.05
681.18	6.74
681.504	7.16
681.828	7.25
682.152	7.4
682.475	6.78
682.799	7.41
683.122	7.34
683.446	7.71
683.769	7.22
684.093	7.59
684.416	7.29
684.739	6.66
685.062	7.32
685.386	7.49
685.709	7.41
686.032	7.51
686.355	7.16
686.678	7.81
687.001	7.68
687.324	7.28
687.646	7.36
687.969	7.81
688.292	7.2
688.614	7.42
688.937	7.05
689.26	7.12
689.582	7.37
689.904	6.43
690.227	7.33
690.549	7.16
690.871	7.05
691.194	7.44
691.516	7.55
691.838	7.59
692.16	6.77
692.482	7.27
692.804	7.44
693.126	7.04
