Data from 0244_forehead_Reflection__3__121.txt Node

Date: Fri Oct 20 21:33:14 CDT 2023
User: ToomeyLab
Spectrometer: FLMS14357
Trigger mode: 0
Integration Time (sec): 1.000000E-2
Scans to average: 100
Electric dark correction enabled: true
Nonlinearity correction enabled: false
Boxcar width: 0
XAxis mode: Wavelengths
Number of Pixels in Spectrum: 2048
>>>>>Begin Spectral Data<<<<<
189.047	94.35
189.435	94.35
189.823	94.35
190.211	-1003.2
190.599	5.12
190.987	87.81
191.375	-57.79
191.763	104.91
192.151	-165.71
192.538	-5105.26
192.926	76.38
193.314	-268.08
193.702	83.83
194.089	100.7
194.477	261.11
194.864	-188.85
195.252	216.39
195.639	-188.98
196.027	-136.49
196.414	94.34
196.801	1.29
197.189	-16.22
197.576	-86.99
197.963	30.95
198.351	67.64
198.738	8.17
199.125	82.7
199.512	63.91
199.899	27.36
200.286	10.16
200.673	44.35
201.06	32.66
201.447	38.16
201.833	53.06
202.22	49.39
202.607	47.57
202.994	59.32
203.38	3.8
203.767	46.57
204.154	60.86
204.54	31.02
204.927	20.86
205.313	-25.74
205.699	39
206.086	38.94
206.472	39.86
206.858	57.35
207.245	15.46
207.631	42.63
208.017	57.97
208.403	29.93
208.789	32.83
209.175	5.38
209.561	16.44
209.947	1.44
210.333	21.04
210.719	22.82
211.105	22.4
211.491	50.02
211.876	21.54
212.262	51.48
212.648	39.36
213.034	3.42
213.419	27.39
213.805	-8.82
214.19	33.22
214.576	24.28
214.961	50.71
215.346	45.74
215.732	20.79
216.117	19.94
216.502	25.01
216.888	22.04
217.273	34.97
217.658	3.23
218.043	6.6
218.428	26.12
218.813	21.7
219.198	14.28
219.583	6.36
219.968	28.21
220.353	21.3
220.738	13.96
221.122	8.37
221.507	11.12
221.892	8.9
222.276	22.5
222.661	33.89
223.046	7.14
223.43	15.23
223.815	26.83
224.199	20.54
224.583	13.77
224.968	5.34
225.352	5.2
225.736	2.24
226.121	5.47
226.505	4.98
226.889	15.83
227.273	8.37
227.657	14.9
228.041	8.71
228.425	6.9
228.809	7.43
229.193	7.81
229.577	7.76
229.961	3.55
230.344	4.13
230.728	3.83
231.112	4.3
231.495	3.51
231.879	4.77
232.263	4.98
232.646	3.81
233.03	3.82
233.413	3.51
233.797	3.64
234.18	4.98
234.563	6.78
234.946	7.34
235.33	4.82
235.713	4.43
236.096	5.04
236.479	5.98
236.862	5.3
237.245	4.54
237.628	4.18
238.011	4.64
238.394	4.78
238.777	5.76
239.16	5.7
239.543	5.45
239.925	6.69
240.308	4.73
240.691	4.98
241.073	6.18
241.456	5.01
241.838	5.23
242.221	4.97
242.603	4.56
242.986	4.82
243.368	4.87
243.75	4.16
244.133	3.57
244.515	4.53
244.897	4.42
245.279	4.43
245.661	4.62
246.043	4.78
246.425	4.04
246.807	5.22
247.189	4.88
247.571	4.36
247.953	5.11
248.335	4.85
248.717	4.58
249.098	4.09
249.48	4.27
249.862	4.61
250.243	4.59
250.625	4.32
251.006	4.83
251.388	4.49
251.769	5.06
252.151	4.33
252.532	5.13
252.913	5.12
253.295	4.76
253.676	4.99
254.057	4.53
254.438	4.6
254.819	4.58
255.2	5.4
255.581	5.04
255.962	4.75
256.343	5.36
256.724	4.62
257.105	4.22
257.486	5.7
257.867	5.42
258.247	4.84
258.628	5.67
259.009	4.39
259.389	4.6
259.77	4.33
260.15	4.76
260.531	5.08
260.911	5.01
261.292	4.5
261.672	4.22
262.052	4.5
262.432	4.34
262.813	4.49
263.193	4.63
263.573	3.91
263.953	4.78
264.333	4.55
264.713	4.37
265.093	5.14
265.473	4.6
265.853	5.03
266.233	4.95
266.612	4.4
266.992	3.72
267.372	4.45
267.752	4.91
268.131	4.71
268.511	4.67
268.89	4.37
269.27	4.22
269.649	4.22
270.029	4.23
270.408	4.69
270.787	4.94
271.167	4.46
271.546	3.91
271.925	4.96
272.304	4.62
272.683	4.35
273.062	4.28
273.441	4.68
273.82	3.94
274.199	4.36
274.578	4.37
274.957	4.61
275.336	4.34
275.715	4.26
276.093	4.51
276.472	4.48
276.851	4.16
277.229	4.23
277.608	3.82
277.986	3.96
278.365	4.57
278.743	3.95
279.122	4.32
279.5	3.97
279.878	3.21
280.257	4.73
280.635	4.5
281.013	4.69
281.391	4.65
281.769	4.34
282.147	4.5
282.525	4.47
282.903	4.35
283.281	4.52
283.659	4.3
284.037	4.36
284.415	3.75
284.792	4.32
285.17	4.68
285.548	4.2
285.925	4.21
286.303	4.18
286.68	4.44
287.058	4.81
287.435	4.39
287.813	3.68
288.19	4.2
288.567	4.06
288.945	4.58
289.322	4.36
289.699	3.53
290.076	4.51
290.453	4.36
290.83	4.34
291.207	4.89
291.584	4.6
291.961	4.76
292.338	4.63
292.715	4.65
293.092	4.64
293.469	4.91
293.845	4.24
294.222	4.6
294.599	4.55
294.975	5.54
295.352	5.25
295.728	5.47
296.105	4.7
296.481	4.76
296.858	4.71
297.234	4.77
297.61	4.6
297.986	5.12
298.363	4.85
298.739	4.65
299.115	5.07
299.491	5.04
299.867	5.31
300.243	5.02
300.619	5.23
300.995	5.05
301.371	5.61
301.746	5.63
302.122	5.82
302.498	5.73
302.874	5.4
303.249	5.39
303.625	5.5
304	6.21
304.376	5.64
304.751	5.74
305.127	5.39
305.502	6.36
305.878	6.26
306.253	6.12
306.628	6.21
307.003	6.41
307.378	6.06
307.754	6.76
308.129	7.04
308.504	7.03
308.879	6.71
309.254	7.37
309.629	6.22
310.003	5.92
310.378	7.19
310.753	6.51
311.128	6.64
311.502	6.6
311.877	7.3
312.252	6.72
312.626	7.24
313.001	7.05
313.375	7.44
313.75	7.09
314.124	6.91
314.498	7.61
314.873	7.32
315.247	7.95
315.621	7.91
315.995	7.89
316.369	7.62
316.743	7.72
317.117	7.71
317.491	7.42
317.865	8.16
318.239	8.79
318.613	8.84
318.987	8.22
319.361	7.59
319.734	7.83
320.108	8.45
320.482	8.65
320.855	8.99
321.229	9.44
321.602	8.45
321.976	8.72
322.349	8.95
322.723	9.01
323.096	8.77
323.469	9.17
323.843	9.23
324.216	9.28
324.589	9.34
324.962	10.05
325.335	9.7
325.708	9.32
326.081	9.56
326.454	9.3
326.827	10.09
327.2	9.71
327.573	9.54
327.945	9.62
328.318	9.41
328.691	9.82
329.063	10.15
329.436	10.01
329.809	10.29
330.181	10.05
330.553	10.57
330.926	10.37
331.298	10.11
331.671	9.98
332.043	10.08
332.415	10.29
332.787	10.78
333.159	10.6
333.532	10.17
333.904	10.43
334.276	9.99
334.648	10.48
335.02	10.77
335.391	10.63
335.763	10.73
336.135	10.93
336.507	11.4
336.879	10.67
337.25	11.09
337.622	11.28
337.993	11.02
338.365	10.83
338.736	11.1
339.108	11.19
339.479	11.47
339.851	10.78
340.222	10.85
340.593	10.91
340.964	10.77
341.336	11.56
341.707	11.54
342.078	11.5
342.449	11.62
342.82	11.43
343.191	11.52
343.562	11.46
343.933	11.5
344.303	11.76
344.674	11.78
345.045	11.63
345.416	12.03
345.786	11.7
346.157	12.05
346.527	11.68
346.898	11.71
347.268	12.14
347.639	11.98
348.009	11.96
348.38	12.44
348.75	12.11
349.12	12.04
349.49	12.52
349.861	12.56
350.231	12.26
350.601	12.56
350.971	13.41
351.341	12.69
351.711	12.96
352.081	12.5
352.45	12.55
352.82	12.75
353.19	13.23
353.56	12.99
353.929	12.71
354.299	12.68
354.669	12.77
355.038	13.1
355.408	12.95
355.777	12.82
356.147	13.02
356.516	12.71
356.885	13
357.254	13.11
357.624	13.11
357.993	13.09
358.362	13.63
358.731	12.59
359.1	12.78
359.469	12.91
359.838	13.27
360.207	13.15
360.576	13.55
360.945	12.88
361.314	13.54
361.682	13.5
362.051	13.38
362.42	13.38
362.788	13.57
363.157	13.49
363.525	13.47
363.894	13.51
364.262	13.67
364.631	13.87
364.999	13.64
365.367	13.87
365.735	13.72
366.104	13.84
366.472	13.93
366.84	13.94
367.208	14.19
367.576	14.07
367.944	14.46
368.312	14.18
368.68	14.26
369.048	14.34
369.416	14.56
369.783	14.73
370.151	14.75
370.519	14.83
370.886	14.64
371.254	14.99
371.621	14.92
371.989	14.67
372.356	14.75
372.724	14.93
373.091	14.81
373.458	14.72
373.826	14.96
374.193	15.05
374.56	14.94
374.927	14.9
375.294	15.51
375.661	15.51
376.028	15.6
376.395	15.58
376.762	15.22
377.129	15.37
377.496	15.55
377.863	15.6
378.229	15.66
378.596	15.37
378.963	15.44
379.329	15.55
379.696	15.73
380.062	15.36
380.429	15.85
380.795	15.49
381.161	15.47
381.528	16.18
381.894	15.77
382.26	15.93
382.626	16.09
382.993	15.91
383.359	16.18
383.725	16.16
384.091	16.11
384.457	16.06
384.823	16.27
385.188	16.33
385.554	16.08
385.92	16.4
386.286	16.62
386.651	16.26
387.017	16.55
387.383	16.62
387.748	16.26
388.114	16.24
388.479	16.72
388.845	16.85
389.21	16.77
389.575	16.43
389.94	16.8
390.306	16.8
390.671	16.8
391.036	16.93
391.401	17.07
391.766	17.08
392.131	17.04
392.496	17.06
392.861	17.2
393.226	17.31
393.591	17.12
393.956	17.33
394.32	17.38
394.685	17.07
395.05	17.49
395.414	17.72
395.779	17.31
396.143	17.36
396.508	17.19
396.872	17.68
397.236	17.53
397.601	17.52
397.965	17.73
398.329	17.8
398.694	17.64
399.058	17.75
399.422	17.86
399.786	17.94
400.15	17.8
400.514	17.83
400.878	18.08
401.242	18.3
401.605	18.37
401.969	18.2
402.333	18.06
402.697	18.28
403.06	17.99
403.424	18.45
403.787	18.28
404.151	18.63
404.514	18.64
404.878	18.58
405.241	18.71
405.604	18.43
405.968	18.5
406.331	18.57
406.694	18.61
407.057	18.53
407.42	18.82
407.783	18.65
408.146	18.89
408.509	18.8
408.872	19.1
409.235	19.02
409.598	18.84
409.961	19.15
410.323	19.15
410.686	19.06
411.049	19.12
411.411	19.08
411.774	19.12
412.136	19.16
412.499	19.32
412.861	19.41
413.223	19.48
413.586	19.6
413.948	19.72
414.31	19.68
414.672	19.5
415.035	19.61
415.397	19.51
415.759	19.94
416.121	19.84
416.483	20.11
416.845	19.88
417.206	19.86
417.568	19.9
417.93	19.81
418.292	19.67
418.653	20.02
419.015	19.73
419.377	19.88
419.738	19.93
420.1	19.82
420.461	20
420.822	19.92
421.184	20.04
421.545	19.83
421.906	19.87
422.267	20.02
422.629	20.09
422.99	19.9
423.351	19.99
423.712	19.92
424.073	20.15
424.434	20.11
424.795	20.07
425.155	20.21
425.516	20.24
425.877	20.45
426.238	20.16
426.598	20.33
426.959	20.31
427.32	20.5
427.68	20.58
428.041	20.68
428.401	20.62
428.761	20.88
429.122	20.98
429.482	20.94
429.842	21.15
430.202	21.23
430.563	21.28
430.923	21.3
431.283	21.3
431.643	21.37
432.003	21.72
432.363	21.59
432.722	21.84
433.082	21.72
433.442	21.53
433.802	21.85
434.161	21.65
434.521	21.83
434.881	21.68
435.24	21.58
435.6	21.81
435.959	21.78
436.319	21.77
436.678	21.94
437.037	21.95
437.396	22.05
437.756	22.19
438.115	22.11
438.474	22.16
438.833	22.49
439.192	22.26
439.551	22.32
439.91	22.47
440.269	22.42
440.628	22.29
440.987	22.32
441.345	22.38
441.704	22.5
442.063	22.27
442.421	22.28
442.78	22.32
443.138	22.53
443.497	22.39
443.855	22.55
444.214	22.61
444.572	22.81
444.93	22.87
445.288	22.89
445.647	23.08
446.005	22.85
446.363	23.17
446.721	23.12
447.079	23.12
447.437	22.91
447.795	22.95
448.153	23.02
448.51	22.83
448.868	22.95
449.226	22.93
449.584	22.96
449.941	22.94
450.299	23.04
450.656	23.33
451.014	23.38
451.371	23.46
451.729	23.53
452.086	23.62
452.443	23.64
452.801	23.78
453.158	24.02
453.515	23.92
453.872	24.16
454.229	24.15
454.586	24.01
454.943	23.97
455.3	24.13
455.657	24.05
456.014	23.92
456.371	24.24
456.727	24.39
457.084	24.31
457.441	24.38
457.797	24.4
458.154	24.6
458.51	24.5
458.867	24.67
459.223	24.55
459.58	24.89
459.936	24.84
460.292	24.61
460.648	24.67
461.005	24.69
461.361	24.73
461.717	24.34
462.073	24.5
462.429	24.58
462.785	24.53
463.141	24.95
463.496	24.78
463.852	24.99
464.208	25.29
464.564	25.41
464.919	25.35
465.275	25.52
465.631	25.67
465.986	25.83
466.342	25.76
466.697	25.64
467.052	25.46
467.408	25.74
467.763	25.74
468.118	25.84
468.473	25.91
468.829	25.97
469.184	25.99
469.539	26.08
469.894	26.12
470.249	26.19
470.603	26.31
470.958	26.24
471.313	26.45
471.668	26.32
472.023	26.46
472.377	26.27
472.732	26.34
473.086	26.6
473.441	26.72
473.795	26.89
474.15	26.56
474.504	26.55
474.859	26.83
475.213	26.76
475.567	26.8
475.921	26.89
476.275	26.84
476.63	26.97
476.984	27.21
477.338	27.05
477.692	27.04
478.045	26.95
478.399	26.8
478.753	27.08
479.107	27.17
479.461	27.26
479.814	27.2
480.168	27.33
480.521	27.13
480.875	27.15
481.228	27.32
481.582	27.54
481.935	27.27
482.289	27.49
482.642	27.61
482.995	27.58
483.348	27.49
483.701	27.53
484.055	27.38
484.408	27.16
484.761	27.16
485.114	26.99
485.466	26.65
485.819	26.64
486.172	26.57
486.525	26.72
486.878	26.77
487.23	26.87
487.583	26.99
487.936	27.19
488.288	27.36
488.641	27.42
488.993	27.23
489.345	27.23
489.698	27.18
490.05	27.22
490.402	27.24
490.754	27.38
491.107	27.59
491.459	27.81
491.811	27.96
492.163	27.99
492.515	28.2
492.866	28.09
493.218	28.02
493.57	27.91
493.922	27.76
494.274	27.9
494.625	28.06
494.977	28.2
495.328	28.56
495.68	28.63
496.031	28.82
496.383	29.08
496.734	29.31
497.086	29.33
497.437	29.37
497.788	29.36
498.139	29.59
498.49	29.31
498.842	29.22
499.193	29.37
499.544	29.49
499.894	29.32
500.245	29.73
500.596	29.73
500.947	29.77
501.298	29.83
501.648	29.93
501.999	30.09
502.35	30.14
502.7	30.1
503.051	30.37
503.401	30.14
503.752	30.4
504.102	30.5
504.452	30.22
504.803	30.45
505.153	30.42
505.503	30.56
505.853	30.64
506.203	30.59
506.553	30.61
506.903	30.71
507.253	30.69
507.603	30.7
507.953	30.78
508.303	30.93
508.652	30.98
509.002	30.94
509.352	30.97
509.701	31.03
510.051	30.79
510.4	30.96
510.75	31.07
511.099	30.92
511.449	30.97
511.798	31.18
512.147	31.18
512.496	31.13
512.846	31.21
513.195	31.39
513.544	31.48
513.893	31.3
514.242	31.33
514.591	31.24
514.939	31.49
515.288	31.39
515.637	31.8
515.986	31.75
516.334	31.72
516.683	31.84
517.032	31.88
517.38	31.93
517.729	32.13
518.077	32.01
518.426	32.07
518.774	31.97
519.122	32.11
519.47	32.16
519.819	32.07
520.167	31.86
520.515	31.83
520.863	31.85
521.211	31.88
521.559	31.93
521.907	32.07
522.255	32.17
522.602	32.45
522.95	32.5
523.298	32.57
523.645	32.74
523.993	32.74
524.341	32.78
524.688	32.69
525.036	33.06
525.383	33.1
525.73	32.99
526.078	33.2
526.425	33.13
526.772	33.12
527.119	33.07
527.466	32.7
527.814	32.82
528.161	32.88
528.508	32.8
528.854	32.8
529.201	32.77
529.548	32.9
529.895	32.72
530.242	32.65
530.588	32.38
530.935	32.44
531.282	32.56
531.628	32.57
531.975	32.65
532.321	32.87
532.667	33.1
533.014	33.27
533.36	33.45
533.706	33.62
534.052	33.53
534.399	33.7
534.745	33.48
535.091	33.47
535.437	33.36
535.783	33.45
536.129	33.5
536.474	33.7
536.82	33.75
537.166	33.86
537.512	34.12
537.857	34.23
538.203	34.31
538.549	34.27
538.894	34.12
539.239	34.31
539.585	34.49
539.93	34.57
540.276	34.69
540.621	34.8
540.966	34.93
541.311	34.95
541.656	35.07
542.001	35.07
542.346	35.21
542.691	34.76
543.036	34.53
543.381	34.48
543.726	34.43
544.071	34.5
544.415	34.48
544.76	34.78
545.105	34.93
545.449	35.11
545.794	35.16
546.138	35.18
546.483	35.43
546.827	35.57
547.171	35.88
547.516	35.66
547.86	35.95
548.204	35.87
548.548	35.78
548.892	35.96
549.236	36
549.58	36
549.924	36.25
550.268	36.29
550.612	36.4
550.956	36.74
551.3	36.85
551.643	36.78
551.987	37.08
552.33	36.98
552.674	37.1
553.017	37.07
553.361	37.37
553.704	37.36
554.048	37.22
554.391	37.25
554.734	37.25
555.077	37.13
555.42	37.32
555.764	37.42
556.107	37.57
556.45	37.38
556.793	37.38
557.135	37.57
557.478	37.79
557.821	37.94
558.164	37.81
558.507	38.07
558.849	37.93
559.192	38.25
559.534	38.38
559.877	38.01
560.219	38.28
560.562	38.23
560.904	38.23
561.246	38.19
561.589	38.59
561.931	38.9
562.273	38.62
562.615	38.51
562.957	38.77
563.299	38.87
563.641	38.87
563.983	38.6
564.325	38.55
564.667	38.75
565.008	38.9
565.35	39.17
565.692	39.01
566.033	39.05
566.375	39.17
566.716	39.13
567.058	39.1
567.399	39.27
567.741	39.01
568.082	39.09
568.423	38.87
568.764	39.07
569.105	39.06
569.447	39.25
569.788	39.17
570.129	39.2
570.47	39.44
570.811	39.52
571.151	39.55
571.492	39.74
571.833	39.55
572.174	39.81
572.514	39.74
572.855	39.86
573.195	39.55
573.536	39.72
573.876	39.95
574.217	39.55
574.557	39.57
574.898	39.78
575.238	39.84
575.578	40.18
575.918	39.97
576.258	40.33
576.598	40.27
576.938	40.31
577.278	40.45
577.618	40.26
577.958	40.47
578.298	40.32
578.638	40.77
578.977	40.96
579.317	40.85
579.657	40.72
579.996	41.01
580.336	41.23
580.675	41.14
581.014	41.33
581.354	41.46
581.693	41.24
582.032	41.46
582.372	41.34
582.711	41.43
583.05	41.99
583.389	41.82
583.728	41.75
584.067	41.88
584.406	41.89
584.745	42.19
585.083	42.05
585.422	41.92
585.761	41.84
586.1	42.32
586.438	42.15
586.777	42.12
587.115	42.1
587.454	42.4
587.792	42.32
588.13	42.73
588.469	42.62
588.807	42.13
589.145	42.64
589.483	42.4
589.821	42.72
590.159	42.83
590.497	42.64
590.835	42.43
591.173	42.69
591.511	42.77
591.849	42.54
592.187	42.79
592.524	42.65
592.862	42.7
593.2	43.02
593.537	43.4
593.875	43.12
594.212	43.3
594.55	43.12
594.887	43.31
595.224	43.14
595.561	43.08
595.899	43.35
596.236	43.2
596.573	43.64
596.91	43.41
597.247	43.2
597.584	43.49
597.921	43.87
598.258	43.62
598.594	43.4
598.931	43.34
599.268	43.3
599.604	43.59
599.941	43.41
600.277	43.53
600.614	43.62
600.95	43.98
601.287	43.83
601.623	43.91
601.959	44.22
602.296	44.59
602.632	43.94
602.968	44.08
603.304	44.64
603.64	44.35
603.976	44.23
604.312	44.53
604.648	44.27
604.984	44.9
605.319	44.36
605.655	44.35
605.991	44.45
606.326	44.55
606.662	43.83
606.998	44.29
607.333	44.43
607.668	44.2
608.004	44.28
608.339	44.77
608.674	45.08
609.01	44.8
609.345	45.01
609.68	45.38
610.015	45.04
610.35	45.14
610.685	45.19
611.02	45.46
611.355	45.07
611.689	45.04
612.024	45.1
612.359	45.1
612.694	45.38
613.028	45.32
613.363	45.57
613.697	45.59
614.032	45.47
614.366	45.5
614.7	45.67
615.035	45.95
615.369	45.85
615.703	45.83
616.037	46.58
616.371	46.34
616.705	45.94
617.039	46.44
617.373	46.23
617.707	46.73
618.041	46.78
618.375	46.75
618.709	46.72
619.042	46.78
619.376	46.79
619.71	46.71
620.043	47.07
620.377	46.68
620.71	46.64
621.043	47.07
621.377	46.74
621.71	47.18
622.043	47.29
622.376	47.11
622.709	47.49
623.043	47.09
623.376	46.81
623.709	47.23
624.041	47.31
624.374	47.15
624.707	47.28
625.04	47.6
625.373	47.61
625.705	47.34
626.038	47.45
626.37	47.55
626.703	47.73
627.035	47.74
627.368	47.95
627.7	47.73
628.032	47.64
628.365	47.55
628.697	48.17
629.029	47.7
629.361	47.97
629.693	47.94
630.025	47.74
630.357	48.13
630.689	47.91
631.021	48.03
631.353	48.1
631.684	48.06
632.016	48.39
632.348	48.59
632.679	47.96
633.011	48.34
633.342	48.21
633.674	48.64
634.005	48.65
634.336	48.67
634.668	48.23
634.999	48.23
635.33	48.56
635.661	48.26
635.992	48.53
636.323	48.78
636.654	48.86
636.985	48.69
637.316	48.83
637.647	49.24
637.977	49.01
638.308	48.9
638.639	48.78
638.969	49.32
639.3	49.19
639.63	49.36
639.961	49.54
640.291	49.31
640.622	49.34
640.952	49.58
641.282	49.32
641.612	49.61
641.943	49.96
642.273	49.45
642.603	50.12
642.933	49.85
643.263	49.99
643.592	49.98
643.922	49.94
644.252	50.17
644.582	50.18
644.911	49.99
645.241	50.18
645.571	50.66
645.9	50.07
646.23	50.75
646.559	50.11
646.888	50.71
647.218	50.24
647.547	50.43
647.876	50.46
648.205	50.6
648.534	50.44
648.863	50.61
649.192	50.22
649.521	50.4
649.85	50.78
650.179	50.44
650.508	50.33
650.837	50.63
651.165	50.02
651.494	50.74
651.822	50.65
652.151	51.54
652.479	50.47
652.808	50.81
653.136	50.63
653.465	51.04
653.793	50.64
654.121	51.36
654.449	51.54
654.777	50.99
655.105	50.95
655.433	51.3
655.761	51.52
656.089	51.32
656.417	51.38
656.745	51.43
657.073	51.45
657.4	52.31
657.728	51.91
658.056	51.37
658.383	51.59
658.711	51.16
659.038	51.24
659.365	51.81
659.693	51.86
660.02	51.89
660.347	51.71
660.674	52.18
661.001	51.92
661.329	51.89
661.656	52.29
661.982	52.03
662.309	51.5
662.636	52.01
662.963	52.37
663.29	51.95
663.616	52.54
663.943	51.65
664.27	51.63
664.596	52.57
664.923	51.74
665.249	52.29
665.576	52.45
665.902	52.1
666.228	51.73
666.554	52.53
666.881	53.03
667.207	52.43
667.533	52.43
667.859	52.51
668.185	52.97
668.511	53.49
668.837	53.15
669.162	52.75
669.488	53.02
669.814	52.65
