Data from 0244_forehead_Reflection__2__120.txt Node

Date: Fri Oct 20 21:33:04 CDT 2023
User: ToomeyLab
Spectrometer: FLMS14357
Trigger mode: 0
Integration Time (sec): 1.000000E-2
Scans to average: 100
Electric dark correction enabled: true
Nonlinearity correction enabled: false
Boxcar width: 0
XAxis mode: Wavelengths
Number of Pixels in Spectrum: 2048
>>>>>Begin Spectral Data<<<<<
189.047	-32.2
189.435	-32.2
189.823	-32.2
190.211	1810.4
190.599	187.03
190.987	113.33
191.375	-344.47
191.763	74.03
192.151	236.59
192.538	-13594.74
192.926	29.04
193.314	-128.35
193.702	198.6
194.089	330.14
194.477	263.02
194.864	-26.77
195.252	-10.76
195.639	-55.8
196.027	149.71
196.414	153.22
196.801	-53.97
197.189	-20.69
197.576	-53.74
197.963	-79.77
198.351	57.77
198.738	50.56
199.125	71.93
199.512	53.05
199.899	46.64
200.286	31.37
200.673	61.03
201.06	60.46
201.447	15.87
201.833	53.46
202.22	15.65
202.607	42.59
202.994	48.28
203.38	30.6
203.767	34.07
204.154	56.42
204.54	63.82
204.927	68.92
205.313	43.67
205.699	39.42
206.086	59.15
206.472	60.88
206.858	63.99
207.245	28.27
207.631	44.5
208.017	62.71
208.403	42.76
208.789	26.89
209.175	33.67
209.561	25.66
209.947	45.29
210.333	39.83
210.719	34.27
211.105	26.89
211.491	38.23
211.876	41.21
212.262	25.02
212.648	41.05
213.034	22.93
213.419	32.29
213.805	29.17
214.19	30.59
214.576	53.08
214.961	37.44
215.346	44.5
215.732	53.07
216.117	11.56
216.502	35.87
216.888	20.05
217.273	26.76
217.658	35.79
218.043	26.08
218.428	28.75
218.813	20.63
219.198	19.5
219.583	-6.43
219.968	18.81
220.353	34.68
220.738	25.41
221.122	4.04
221.507	28.63
221.892	25.73
222.276	29.25
222.661	30.25
223.046	16.56
223.43	22.89
223.815	26.57
224.199	18.91
224.583	18.54
224.968	9.59
225.352	15.23
225.736	19.44
226.121	17.83
226.505	12.32
226.889	17.99
227.273	13.99
227.657	18.36
228.041	10.9
228.425	12.64
228.809	11.69
229.193	9.52
229.577	12.46
229.961	8.64
230.344	7.73
230.728	5.62
231.112	6.58
231.495	6.82
231.879	7.42
232.263	8.22
232.646	6.61
233.03	7.45
233.413	7.28
233.797	7.95
234.18	8.1
234.563	8.58
234.946	9.47
235.33	10.58
235.713	7.85
236.096	7.74
236.479	7.5
236.862	7.56
237.245	8.47
237.628	7.83
238.011	9.2
238.394	7.55
238.777	9.51
239.16	8.13
239.543	8.7
239.925	9.15
240.308	7.05
240.691	7.82
241.073	9.3
241.456	7.49
241.838	8.07
242.221	8.65
242.603	7.25
242.986	7.46
243.368	7.87
243.75	6.84
244.133	6.51
244.515	6.5
244.897	6.86
245.279	7.04
245.661	6.31
246.043	6.51
246.425	7.09
246.807	7.07
247.189	8.42
247.571	7.32
247.953	7.93
248.335	6.89
248.717	6.47
249.098	6.44
249.48	6.54
249.862	6.7
250.243	6.98
250.625	6.99
251.006	7.11
251.388	7.05
251.769	7.53
252.151	6.46
252.532	7.82
252.913	7.04
253.295	6.52
253.676	6.59
254.057	7.22
254.438	7.12
254.819	7.15
255.2	7.57
255.581	6.99
255.962	8.53
256.343	7.92
256.724	6.85
257.105	7.46
257.486	6.47
257.867	7.32
258.247	8.56
258.628	7.21
259.009	6.95
259.389	7.66
259.77	6.72
260.15	7.24
260.531	7.05
260.911	6.9
261.292	6.64
261.672	6.52
262.052	6.6
262.432	6.39
262.813	6.56
263.193	6.48
263.573	6.55
263.953	6.82
264.333	6.76
264.713	6.83
265.093	7.46
265.473	7.08
265.853	6.55
266.233	6.89
266.612	6.64
266.992	7.27
267.372	6.36
267.752	6.83
268.131	6.65
268.511	6.62
268.89	6.81
269.27	6.39
269.649	6.34
270.029	6.72
270.408	6.97
270.787	6.62
271.167	6.05
271.546	6.83
271.925	6.9
272.304	7.27
272.683	6.86
273.062	6.28
273.441	6.66
273.82	6.5
274.199	7.1
274.578	6.71
274.957	6.65
275.336	6.86
275.715	6.71
276.093	6.67
276.472	6.55
276.851	6.8
277.229	6.88
277.608	6.51
277.986	6.57
278.365	6.41
278.743	6.37
279.122	6.9
279.5	6.4
279.878	5.86
280.257	6.69
280.635	6.33
281.013	6.54
281.391	6.85
281.769	6.25
282.147	5.9
282.525	6.68
282.903	6.7
283.281	6.44
283.659	6.29
284.037	6.57
284.415	5.78
284.792	6.32
285.17	6.44
285.548	6.4
285.925	5.82
286.303	5.9
286.68	6.12
287.058	6.79
287.435	6.31
287.813	5.97
288.19	6.25
288.567	6.36
288.945	6.48
289.322	6.66
289.699	6.14
290.076	7.13
290.453	6.63
290.83	5.95
291.207	6.86
291.584	6.13
291.961	6.4
292.338	6.6
292.715	6.72
293.092	6.73
293.469	6.86
293.845	6.51
294.222	6.86
294.599	6.54
294.975	7.9
295.352	7.23
295.728	7.2
296.105	6.88
296.481	7.45
296.858	7.51
297.234	7.6
297.61	6.88
297.986	6.92
298.363	7.48
298.739	7.55
299.115	7.2
299.491	7.41
299.867	7.75
300.243	7.44
300.619	7.54
300.995	7.42
301.371	8.5
301.746	8.3
302.122	8.36
302.498	8.16
302.874	7.81
303.249	8.55
303.625	8.73
304	8.9
304.376	8.37
304.751	8.71
305.127	8.51
305.502	9
305.878	8.99
306.253	8.95
306.628	9.16
307.003	9.22
307.378	9.3
307.754	9.68
308.129	9.8
308.504	9.63
308.879	9.86
309.254	9.89
309.629	9.9
310.003	9.59
310.378	9.92
310.753	9.75
311.128	10.45
311.502	10.02
311.877	10.44
312.252	9.68
312.626	10.44
313.001	10.41
313.375	10.13
313.75	10.23
314.124	10.6
314.498	10.72
314.873	10.67
315.247	11.19
315.621	10.97
315.995	11.12
316.369	11.47
316.743	11.52
317.117	11.65
317.491	11.28
317.865	11.89
318.239	12.19
318.613	11.99
318.987	12.02
319.361	11.73
319.734	11.67
320.108	11.14
320.482	11.97
320.855	12.9
321.229	12.59
321.602	12.29
321.976	12.79
322.349	13.12
322.723	12.72
323.096	13.28
323.469	12.66
323.843	13.34
324.216	13
324.589	12.88
324.962	13.55
325.335	13.39
325.708	13.59
326.081	13.3
326.454	13.59
326.827	13.78
327.2	13.8
327.573	13.84
327.945	13.69
328.318	13.43
328.691	13.98
329.063	14.49
329.436	14.16
329.809	14.47
330.181	14.31
330.553	14.3
330.926	14.44
331.298	14.57
331.671	14.6
332.043	14.14
332.415	14.27
332.787	14.88
333.159	14.62
333.532	15.09
333.904	14.97
334.276	14.82
334.648	15.41
335.02	15.34
335.391	14.97
335.763	15.61
336.135	15.26
336.507	15.55
336.879	15.87
337.25	15.95
337.622	14.92
337.993	16.13
338.365	14.99
338.736	15.41
339.108	15.95
339.479	15.27
339.851	15.95
340.222	15.78
340.593	15.06
340.964	15.92
341.336	16.59
341.707	16.3
342.078	16.31
342.449	16.31
342.82	15.93
343.191	16.37
343.562	16.2
343.933	16.27
344.303	16.41
344.674	16.43
345.045	16.73
345.416	16.77
345.786	16.01
346.157	17.11
346.527	16.51
346.898	16.5
347.268	16.95
347.639	17.06
348.009	16.62
348.38	16.53
348.75	17.12
349.12	16.91
349.49	16.9
349.861	16.78
350.231	17.1
350.601	17.14
350.971	17.72
351.341	17.47
351.711	17.89
352.081	17.69
352.45	17.29
352.82	17.41
353.19	17.64
353.56	17.71
353.929	18.09
354.299	17.63
354.669	17.26
355.038	17.78
355.408	18.06
355.777	18.08
356.147	18.17
356.516	17.8
356.885	18.01
357.254	18.06
357.624	18.23
357.993	18.01
358.362	18.14
358.731	18.12
359.1	18.14
359.469	18.26
359.838	18.55
360.207	18.51
360.576	18.95
360.945	18.4
361.314	18.65
361.682	18.8
362.051	18.65
362.42	18.95
362.788	18.79
363.157	19
363.525	18.81
363.894	19.09
364.262	18.84
364.631	19.17
364.999	19.09
365.367	19.23
365.735	19.22
366.104	19.53
366.472	19.23
366.84	19.34
367.208	19.5
367.576	19.79
367.944	19.62
368.312	19.56
368.68	19.77
369.048	19.96
369.416	20.21
369.783	19.95
370.151	19.69
370.519	20.11
370.886	20.24
371.254	20.62
371.621	20.51
371.989	20.44
372.356	20.84
372.724	20.64
373.091	20.54
373.458	20.28
373.826	20.48
374.193	20.75
374.56	20.9
374.927	20.72
375.294	21.13
375.661	20.98
376.028	21.32
376.395	21.32
376.762	21.28
377.129	21.07
377.496	21.38
377.863	21.42
378.229	21.18
378.596	21.64
378.963	21.66
379.329	21.36
379.696	21.38
380.062	21.29
380.429	21.69
380.795	21.56
381.161	21.41
381.528	22.19
381.894	21.59
382.26	21.78
382.626	22.16
382.993	22.02
383.359	21.74
383.725	22.16
384.091	22.27
384.457	22.65
384.823	22.27
385.188	22.54
385.554	22.39
385.92	22.41
386.286	22.61
386.651	22.58
387.017	22.97
387.383	22.47
387.748	22.53
388.114	22.13
388.479	22.79
388.845	23
389.21	22.71
389.575	22.53
389.94	23.1
390.306	23.32
390.671	23.07
391.036	23.3
391.401	23.31
391.766	23.51
392.131	23.43
392.496	23.54
392.861	23.5
393.226	23.55
393.591	23.35
393.956	23.76
394.32	23.72
394.685	23.7
395.05	23.7
395.414	24.06
395.779	23.93
396.143	23.88
396.508	23.84
396.872	24.2
397.236	23.98
397.601	23.92
397.965	24.14
398.329	24.16
398.694	24.31
399.058	24.08
399.422	24.5
399.786	24.26
400.15	24.25
400.514	24.51
400.878	24.66
401.242	24.77
401.605	24.75
401.969	24.27
402.333	24.5
402.697	25.02
403.06	24.86
403.424	25.14
403.787	24.97
404.151	25.19
404.514	25.09
404.878	25.08
405.241	25.34
405.604	25.04
405.968	25.44
406.331	25.15
406.694	25.33
407.057	25.36
407.42	25.69
407.783	25.36
408.146	25.7
408.509	25.72
408.872	25.9
409.235	25.5
409.598	26.08
409.961	25.96
410.323	25.81
410.686	26.12
411.049	26.24
411.411	26.18
411.774	26.18
412.136	26.27
412.499	26.13
412.861	26.55
413.223	26.43
413.586	26.52
413.948	26.57
414.31	26.58
414.672	26.65
415.035	27.02
415.397	26.66
415.759	27.05
416.121	26.78
416.483	27.12
416.845	26.96
417.206	26.95
417.568	27.3
417.93	27
418.292	26.9
418.653	27.01
419.015	26.95
419.377	27.08
419.738	27.07
420.1	26.89
420.461	27.16
420.822	27.2
421.184	26.96
421.545	27.11
421.906	27.06
422.267	27.24
422.629	27.27
422.99	27.06
423.351	27.2
423.712	27.22
424.073	27.29
424.434	27.29
424.795	27.2
425.155	27.67
425.516	27.48
425.877	27.68
426.238	27.55
426.598	27.61
426.959	27.64
427.32	27.83
427.68	27.81
428.041	27.97
428.401	28
428.761	28.19
429.122	28.19
429.482	28.34
429.842	28.55
430.202	28.34
430.563	28.62
430.923	28.65
431.283	28.9
431.643	28.79
432.003	29.04
432.363	28.9
432.722	29.17
433.082	29
433.442	29.04
433.802	29.17
434.161	29.09
434.521	29.39
434.881	29.28
435.24	29.25
435.6	29.07
435.959	29.28
436.319	29.25
436.678	29.34
437.037	29.35
437.396	29.55
437.756	29.66
438.115	29.66
438.474	29.83
438.833	29.69
439.192	29.58
439.551	29.69
439.91	29.81
440.269	30.03
440.628	30.04
440.987	30
441.345	30.03
441.704	30.14
442.063	29.95
442.421	29.93
442.78	29.88
443.138	30.27
443.497	30.15
443.855	30.26
444.214	30.35
444.572	30.4
444.93	30.6
445.288	30.67
445.647	30.63
446.005	30.58
446.363	30.53
446.721	30.76
447.079	30.99
447.437	30.82
447.795	30.74
448.153	30.72
448.51	30.5
448.868	30.56
449.226	30.68
449.584	30.86
449.941	30.79
450.299	30.99
450.656	31
451.014	31.14
451.371	31.56
451.729	31.28
452.086	31.36
452.443	31.41
452.801	31.56
453.158	31.81
453.515	31.86
453.872	31.67
454.229	31.9
454.586	31.91
454.943	31.81
455.3	31.83
455.657	31.93
456.014	32.01
456.371	32.24
456.727	32.36
457.084	32.25
457.441	32.35
457.797	32.37
458.154	32.46
458.51	32.21
458.867	32.47
459.223	32.58
459.58	32.74
459.936	32.56
460.292	32.6
460.648	32.81
461.005	32.54
461.361	32.74
461.717	32.34
462.073	32.56
462.429	32.5
462.785	32.45
463.141	32.69
463.496	32.77
463.852	33.03
464.208	33.12
464.564	33.38
464.919	33.31
465.275	33.36
465.631	33.51
465.986	33.71
466.342	33.74
466.697	33.58
467.052	33.41
467.408	33.83
467.763	33.9
468.118	33.96
468.473	33.8
468.829	33.99
469.184	33.96
469.539	33.84
469.894	34.07
470.249	33.86
470.603	34.08
470.958	34.35
471.313	34.47
471.668	34.34
472.023	34.68
472.377	34.3
472.732	34.47
473.086	34.5
473.441	34.8
473.795	34.8
474.15	34.74
474.504	34.8
474.859	34.87
475.213	35.21
475.567	35.03
475.921	34.82
476.275	34.99
476.63	35.19
476.984	35.11
477.338	35.19
477.692	35.16
478.045	35.21
478.399	35.13
478.753	35.36
479.107	35.24
479.461	35.25
479.814	35.43
480.168	35.49
480.521	35.36
480.875	35.37
481.228	35.74
481.582	35.58
481.935	35.66
482.289	35.64
482.642	35.75
482.995	35.53
483.348	35.75
483.701	35.64
484.055	35.74
484.408	35.39
484.761	35.28
485.114	35.11
485.466	35.15
485.819	35.17
486.172	35.37
486.525	35.27
486.878	35.02
487.23	34.9
487.583	35.12
487.936	35.34
488.288	35.59
488.641	35.64
488.993	35.67
489.345	35.66
489.698	35.61
490.05	35.67
490.402	35.58
490.754	35.62
491.107	35.65
491.459	35.91
491.811	36.13
492.163	36.13
492.515	36.5
492.866	36.52
493.218	36.27
493.57	36.4
493.922	36.33
494.274	36.23
494.625	36.18
494.977	36.33
495.328	36.67
495.68	36.79
496.031	36.82
496.383	37.11
496.734	37.54
497.086	37.78
497.437	37.64
497.788	37.52
498.139	37.66
498.49	37.5
498.842	37.78
499.193	37.57
499.544	37.62
499.894	37.7
500.245	37.76
500.596	37.8
500.947	38.17
501.298	37.86
501.648	38.31
501.999	38.16
502.35	38.26
502.7	38.69
503.051	38.63
503.401	38.68
503.752	38.69
504.102	38.52
504.452	38.81
504.803	38.7
505.153	38.97
505.503	38.91
505.853	38.94
506.203	38.82
506.553	38.99
506.903	39.07
507.253	38.9
507.603	38.88
507.953	39.14
508.303	39.09
508.652	39.18
509.002	39.23
509.352	39.3
509.701	39.38
510.051	39.29
510.4	39.37
510.75	39.28
511.099	39.23
511.449	39.32
511.798	39.43
512.147	39.48
512.496	39.4
512.846	39.54
513.195	39.8
513.544	39.7
513.893	39.74
514.242	39.83
514.591	39.91
514.939	39.76
515.288	39.66
515.637	40.12
515.986	40.11
516.334	40.11
516.683	40.12
517.032	40.17
517.38	40.32
517.729	40.5
518.077	40.35
518.426	40.47
518.774	40.56
519.122	40.54
519.47	40.44
519.819	40.5
520.167	40.65
520.515	40.29
520.863	40.54
521.211	40.31
521.559	40.38
521.907	40.32
522.255	40.49
522.602	40.61
522.95	40.72
523.298	40.79
523.645	41.04
523.993	41.05
524.341	41.08
524.688	41.21
525.036	41.22
525.383	41.49
525.73	41.4
526.078	41.4
526.425	41.53
526.772	41.42
527.119	41.33
527.466	41.29
527.814	41.27
528.161	41.29
528.508	41.2
528.854	41.13
529.201	41.29
529.548	41.33
529.895	41.38
530.242	41.32
530.588	41.34
530.935	41.55
531.282	41.36
531.628	41.07
531.975	40.84
532.321	41.11
532.667	41.33
533.014	41.65
533.36	41.68
533.706	41.83
534.052	42.04
534.399	42.07
534.745	42.17
535.091	41.99
535.437	41.97
535.783	42.06
536.129	42.01
536.474	41.87
536.82	42.04
537.166	42.18
537.512	42.35
537.857	42.6
538.203	42.66
538.549	42.82
538.894	42.82
539.239	42.73
539.585	42.82
539.93	42.6
540.276	42.71
540.621	43.09
540.966	43.3
541.311	43.29
541.656	43.53
542.001	43.44
542.346	43.56
542.691	43.23
543.036	43.18
543.381	43.19
543.726	43.03
544.071	43.08
544.415	42.84
544.76	42.87
545.105	43.22
545.449	43.33
545.794	43.55
546.138	43.58
546.483	43.6
546.827	43.83
547.171	43.77
547.516	43.95
547.86	44.26
548.204	44.27
548.548	44.15
548.892	44.14
549.236	44.3
549.58	44.24
549.924	44.33
550.268	44.39
550.612	44.48
550.956	44.67
551.3	44.99
551.643	44.98
551.987	45.26
552.33	45.15
552.674	45.33
553.017	45.3
553.361	45.49
553.704	45.59
554.048	45.42
554.391	45.43
554.734	45.59
555.077	45.36
555.42	45.34
555.764	45.25
556.107	45.54
556.45	45.45
556.793	45.72
557.135	45.61
557.478	45.69
557.821	46.27
558.164	46.02
558.507	46.41
558.849	45.97
559.192	46.18
559.534	46.17
559.877	46.23
560.219	46.25
560.562	46.43
560.904	46.11
561.246	46.42
561.589	46.47
561.931	46.76
562.273	46.61
562.615	46.48
562.957	46.84
563.299	46.76
563.641	46.62
563.983	46.75
564.325	46.74
564.667	46.8
565.008	46.72
565.35	47.01
565.692	47.4
566.033	47.07
566.375	47.05
566.716	47.03
567.058	47.15
567.399	47.15
567.741	47.36
568.082	47.36
568.423	47.05
568.764	47.16
569.105	47.18
569.447	47.16
569.788	47.02
570.129	47.27
570.47	47.2
570.811	47.5
571.151	47.41
571.492	47.62
571.833	47.76
572.174	47.68
572.514	47.68
572.855	47.8
573.195	47.66
573.536	47.81
573.876	47.9
574.217	47.55
574.557	47.76
574.898	47.76
575.238	47.75
575.578	48.04
575.918	47.82
576.258	48
576.598	48.05
576.938	48.27
577.278	48.53
577.618	48.35
577.958	48.5
578.298	48.22
578.638	48.43
578.977	48.65
579.317	48.82
579.657	48.73
579.996	48.66
580.336	48.8
580.675	48.88
581.014	48.87
581.354	49.2
581.693	49.36
582.032	49.24
582.372	49.21
582.711	49.47
583.05	49.58
583.389	48.99
583.728	49.38
584.067	49.68
584.406	49.44
584.745	49.84
585.083	49.72
585.422	49.62
585.761	49.63
586.1	50.16
586.438	49.88
586.777	49.67
587.115	49.89
587.454	50.37
587.792	50.12
588.13	50.13
588.469	50.29
588.807	49.89
589.145	49.93
589.483	50.03
589.821	50.11
590.159	50.67
590.497	50.44
590.835	50.16
591.173	50.13
591.511	50.65
591.849	50.28
592.187	50.53
592.524	50.59
592.862	50.59
593.2	50.89
593.537	50.62
593.875	50.57
594.212	50.65
594.55	50.51
594.887	50.93
595.224	50.55
595.561	50.77
595.899	50.63
596.236	50.78
596.573	50.99
596.91	51.16
597.247	50.93
597.584	50.85
597.921	51.35
598.258	51.05
598.594	51.26
598.931	51.28
599.268	50.93
599.604	51.09
599.941	50.85
600.277	51.12
600.614	51.07
600.95	51.33
601.287	51.24
601.623	51.93
601.959	51.59
602.296	51.74
602.632	51.65
602.968	51.69
603.304	51.62
603.64	51.97
603.976	52.04
604.312	51.98
604.648	51.78
604.984	51.94
605.319	51.99
605.655	52.15
605.991	52.35
606.326	52.36
606.662	51.62
606.998	52.13
607.333	52.19
607.668	51.76
608.004	52.09
608.339	52.01
608.674	52.14
609.01	52.18
609.345	52.31
609.68	52.89
610.015	52.24
610.35	52.57
610.685	52.6
611.02	52.53
611.355	52.75
611.689	52.64
612.024	52.88
612.359	52.67
612.694	52.97
613.028	52.82
613.363	53.22
613.697	52.88
614.032	53.22
614.366	53.14
614.7	52.9
615.035	52.88
615.369	53.34
615.703	53.33
616.037	53.64
616.371	53.61
616.705	53.24
617.039	53.5
617.373	53.8
617.707	53.77
618.041	53.75
618.375	54.16
618.709	53.25
619.042	53.98
619.376	53.91
619.71	54.05
620.043	54.42
620.377	53.63
620.71	53.85
621.043	54.06
621.377	54.46
621.71	54.21
622.043	54.43
622.376	54.34
622.709	54.26
623.043	54.36
623.376	53.87
623.709	54.33
624.041	54.43
624.374	54.49
624.707	54
625.04	54.69
625.373	54.92
625.705	54.62
626.038	55.09
626.37	54.65
626.703	54.62
627.035	54.65
627.368	55.01
627.7	54.93
628.032	54.84
628.365	55.31
628.697	55.53
629.029	54.76
629.361	55.19
629.693	54.98
630.025	54.68
630.357	55.32
630.689	54.58
631.021	55.53
631.353	55.37
631.684	55.12
632.016	55.8
632.348	56.03
632.679	55.57
633.011	55.3
633.342	55.2
633.674	55.42
634.005	55.67
634.336	55.64
634.668	55.58
634.999	55.62
635.33	55.96
635.661	56.04
635.992	55.5
636.323	56.18
636.654	55.8
636.985	56.04
637.316	55.96
637.647	55.86
637.977	56.09
638.308	55.78
638.639	55.83
638.969	55.67
639.3	56.64
639.63	56.04
639.961	56.64
640.291	56.03
640.622	56.59
640.952	56.97
641.282	56.08
641.612	56.24
641.943	56.95
642.273	56.38
642.603	56.64
642.933	56.94
643.263	57.17
643.592	56.97
643.922	57.28
644.252	56.5
644.582	57.18
644.911	56.95
645.241	56.61
645.571	57.41
645.9	56.6
646.23	57.42
646.559	57.04
646.888	56.84
647.218	56.75
647.547	57.38
647.876	57.4
648.205	57.48
648.534	57.18
648.863	57.62
649.192	57.03
649.521	57.69
649.85	57.6
650.179	56.81
650.508	56.99
650.837	57.49
651.165	57.25
651.494	56.94
651.822	57.08
652.151	57.81
652.479	57.55
652.808	57.96
653.136	57.81
653.465	58.21
653.793	57.95
654.121	57.82
654.449	57.86
654.777	58.32
655.105	57.52
655.433	58.94
655.761	57.51
656.089	57.31
656.417	57.95
656.745	58.63
657.073	57.88
657.4	58.96
657.728	58.71
658.056	57.75
658.383	58.16
658.711	58.51
659.038	57.94
659.365	58.37
659.693	58.42
660.02	58.36
660.347	58.6
660.674	59.45
661.001	58.52
661.329	58.74
661.656	58.74
661.982	58.62
662.309	58.8
662.636	58.61
662.963	58.72
663.29	58.88
663.616	58.71
663.943	58.73
664.27	58.75
664.596	58.54
664.923	58.89
665.249	59.5
665.576	59.4
665.902	59.3
666.228	59.1
666.554	59.6
666.881	58.72
667.207	58.99
667.533	58.48
667.859	59.5
668.185	58.92
668.511	59.81
668.837	58.89
