Data from 0244_chest_Reflection__4__112.txt Node

Date: Fri Oct 20 21:30:32 CDT 2023
User: ToomeyLab
Spectrometer: FLMS14357
Trigger mode: 0
Integration Time (sec): 1.000000E-2
Scans to average: 100
Electric dark correction enabled: true
Nonlinearity correction enabled: false
Boxcar width: 0
XAxis mode: Wavelengths
Number of Pixels in Spectrum: 2048
>>>>>Begin Spectral Data<<<<<
189.047	114.7
189.435	114.7
189.823	114.7
190.211	2960.8
190.599	309.71
190.987	193.8
191.375	-14.29
191.763	78.63
192.151	125.81
192.538	-22678.95
192.926	64.43
193.314	-192.19
193.702	191.46
194.089	250.42
194.477	62.21
194.864	85.04
195.252	132.42
195.639	0.71
196.027	152.54
196.414	96.24
196.801	-93.9
197.189	15.57
197.576	59.65
197.963	-86.28
198.351	61.24
198.738	46.49
199.125	91.94
199.512	46.28
199.899	44.76
200.286	14.1
200.673	31.93
201.06	26.64
201.447	-4.82
201.833	45.45
202.22	52.04
202.607	44.91
202.994	55.34
203.38	-6.2
203.767	5.39
204.154	39.96
204.54	46.04
204.927	10.1
205.313	10.19
205.699	50.3
206.086	25.77
206.472	50.52
206.858	41.97
207.245	25.46
207.631	30.9
208.017	15.92
208.403	26.27
208.789	32.19
209.175	27.29
209.561	12.43
209.947	-13.21
210.333	31.84
210.719	22.8
211.105	22.7
211.491	29.82
211.876	0.87
212.262	21.02
212.648	41.44
213.034	2.88
213.419	4.19
213.805	31.31
214.19	21.97
214.576	0.03
214.961	19.13
215.346	29.83
215.732	57.87
216.117	-1.38
216.502	12.35
216.888	29.67
217.273	8.81
217.658	21.05
218.043	14.74
218.428	12.86
218.813	23.97
219.198	23.77
219.583	-23.51
219.968	13.21
220.353	34.42
220.738	26.41
221.122	-6.61
221.507	19.11
221.892	16.28
222.276	4.08
222.661	14.19
223.046	14.49
223.43	12.24
223.815	18.72
224.199	17.34
224.583	-3.17
224.968	6.04
225.352	6.83
225.736	6.35
226.121	8.37
226.505	10.61
226.889	10.28
227.273	8.28
227.657	6.98
228.041	5.65
228.425	5.43
228.809	4.18
229.193	4.64
229.577	3.55
229.961	2.76
230.344	3.12
230.728	2.06
231.112	3.99
231.495	3.15
231.879	3.71
232.263	4.97
232.646	3.12
233.03	2.95
233.413	4.37
233.797	3.78
234.18	2.75
234.563	2.76
234.946	6.47
235.33	5.49
235.713	4.97
236.096	5.56
236.479	4.99
236.862	4.55
237.245	1.57
237.628	3.91
238.011	4.27
238.394	4.16
238.777	5.56
239.16	4.63
239.543	5.95
239.925	5.78
240.308	5.71
240.691	3.11
241.073	4.92
241.456	4.53
241.838	3.2
242.221	4.53
242.603	3.13
242.986	3.81
243.368	3.71
243.75	3.2
244.133	3.44
244.515	2.93
244.897	3.32
245.279	3.4
245.661	3.48
246.043	3.33
246.425	3.45
246.807	3.12
247.189	3.28
247.571	3.18
247.953	4.15
248.335	3.66
248.717	3.09
249.098	3
249.48	3.03
249.862	3.6
250.243	3.41
250.625	3.44
251.006	3.83
251.388	3.15
251.769	3.73
252.151	3.18
252.532	4.51
252.913	3.66
253.295	2.52
253.676	3.38
254.057	3.1
254.438	3.44
254.819	3.55
255.2	3.24
255.581	3.96
255.962	3.18
256.343	4.23
256.724	2.68
257.105	4.04
257.486	3.75
257.867	3.37
258.247	4.05
258.628	3.01
259.009	2.34
259.389	2.97
259.77	3.68
260.15	3.37
260.531	3.52
260.911	3.51
261.292	2.92
261.672	2.94
262.052	3.25
262.432	3.05
262.813	2.96
263.193	3.17
263.573	3.16
263.953	3.44
264.333	3.31
264.713	3.82
265.093	3.86
265.473	3.99
265.853	3.42
266.233	3.8
266.612	3.68
266.992	3.47
267.372	2.78
267.752	3.26
268.131	3.19
268.511	3.14
268.89	3.51
269.27	2.98
269.649	2.64
270.029	3.34
270.408	3.76
270.787	2.97
271.167	3.29
271.546	3.42
271.925	3.4
272.304	3.47
272.683	3.43
273.062	3.04
273.441	3.39
273.82	3.21
274.199	3.47
274.578	3.02
274.957	3.19
275.336	3.16
275.715	3.1
276.093	2.84
276.472	2.94
276.851	2.83
277.229	3.71
277.608	2.45
277.986	2.53
278.365	3.06
278.743	3.07
279.122	2.92
279.5	3.34
279.878	2.58
280.257	3.17
280.635	3.27
281.013	3.27
281.391	3.32
281.769	2.64
282.147	2.89
282.525	3.28
282.903	2.82
283.281	3.14
283.659	3.24
284.037	3.25
284.415	2.34
284.792	3
285.17	3.18
285.548	3.06
285.925	2.71
286.303	3.15
286.68	2.94
287.058	3.09
287.435	3.09
287.813	2.75
288.19	2.67
288.567	3.29
288.945	3.17
289.322	3.08
289.699	2.33
290.076	3.6
290.453	3.14
290.83	3.04
291.207	3.32
291.584	2.55
291.961	3.16
292.338	2.71
292.715	2.89
293.092	2.84
293.469	3.43
293.845	3.11
294.222	3.12
294.599	3.31
294.975	3.94
295.352	3.02
295.728	3.02
296.105	3.15
296.481	2.65
296.858	3.16
297.234	3.39
297.61	2.89
297.986	3.31
298.363	3.4
298.739	3.14
299.115	2.91
299.491	2.98
299.867	3.08
300.243	3.1
300.619	3.23
300.995	2.9
301.371	3.36
301.746	3.47
302.122	3.66
302.498	2.94
302.874	3.31
303.249	3.46
303.625	3.47
304	3.29
304.376	2.91
304.751	3.13
305.127	3.27
305.502	4.02
305.878	3.28
306.253	3.11
306.628	3.08
307.003	2.69
307.378	3.26
307.754	3.48
308.129	3.54
308.504	3.4
308.879	3.84
309.254	4.18
309.629	3.15
310.003	2.74
310.378	3.9
310.753	3.33
311.128	3.55
311.502	3.2
311.877	3.13
312.252	3.47
312.626	3.45
313.001	2.88
313.375	3.33
313.75	3.55
314.124	3.01
314.498	3.45
314.873	3.12
315.247	3.64
315.621	3.43
315.995	3.89
316.369	2.84
316.743	3.57
317.117	3.3
317.491	3.07
317.865	3.22
318.239	3.82
318.613	3.14
318.987	3.41
319.361	3.3
319.734	3.03
320.108	3.49
320.482	4.03
320.855	3.84
321.229	3.76
321.602	3.3
321.976	2.75
322.349	3.64
322.723	3.48
323.096	3.18
323.469	3.39
323.843	3.83
324.216	3.51
324.589	3.63
324.962	4.06
325.335	3.54
325.708	3.56
326.081	3.67
326.454	3.63
326.827	3.82
327.2	3.84
327.573	3.36
327.945	3.42
328.318	3.19
328.691	3.35
329.063	3.79
329.436	2.93
329.809	3.7
330.181	3.65
330.553	4.08
330.926	3.29
331.298	3.07
331.671	3.4
332.043	2.85
332.415	3.08
332.787	3.68
333.159	3.55
333.532	3.24
333.904	3.79
334.276	3.34
334.648	3.38
335.02	3.62
335.391	2.81
335.763	3.62
336.135	3.78
336.507	3.6
336.879	3.89
337.25	3.86
337.622	3.85
337.993	4.22
338.365	3.45
338.736	3.24
339.108	3.47
339.479	3.5
339.851	3.8
340.222	3.15
340.593	3.22
340.964	3.48
341.336	3.84
341.707	3.65
342.078	3.51
342.449	3.73
342.82	3.49
343.191	3.69
343.562	3.37
343.933	3.54
344.303	3.64
344.674	3.98
345.045	3.59
345.416	3.93
345.786	3.49
346.157	3.61
346.527	3.88
346.898	3.59
347.268	3.54
347.639	3.85
348.009	3.68
348.38	3.65
348.75	3.55
349.12	3.76
349.49	3.5
349.861	3.54
350.231	3.59
350.601	3.5
350.971	3.67
351.341	3.76
351.711	4.2
352.081	3.73
352.45	3.17
352.82	3.65
353.19	3.77
353.56	3.78
353.929	3.69
354.299	3.54
354.669	3.45
355.038	3.62
355.408	4.06
355.777	3.72
356.147	3.29
356.516	3.42
356.885	3.51
357.254	3.55
357.624	3.55
357.993	3.28
358.362	3.72
358.731	3.21
359.1	3.22
359.469	3.37
359.838	3.93
360.207	3.35
360.576	3.72
360.945	3.34
361.314	3.45
361.682	3.62
362.051	3.56
362.42	3.48
362.788	3.66
363.157	3.41
363.525	3.13
363.894	3.66
364.262	3.42
364.631	3.59
364.999	3.51
365.367	3.45
365.735	3.4
366.104	3.6
366.472	3.68
366.84	3.78
367.208	3.57
367.576	3.36
367.944	3.76
368.312	3.45
368.68	3.72
369.048	3.82
369.416	3.63
369.783	3.76
370.151	3.54
370.519	3.61
370.886	3.89
371.254	3.78
371.621	4.06
371.989	3.5
372.356	3.88
372.724	4.24
373.091	3.55
373.458	3.46
373.826	3.53
374.193	3.73
374.56	3.81
374.927	3.7
375.294	3.6
375.661	4.09
376.028	3.86
376.395	3.51
376.762	3.41
377.129	3.75
377.496	3.84
377.863	3.83
378.229	4.08
378.596	3.72
378.963	3.85
379.329	3.92
379.696	3.77
380.062	3.62
380.429	3.7
380.795	3.64
381.161	3.58
381.528	4.13
381.894	3.79
382.26	3.53
382.626	4.06
382.993	3.68
383.359	3.74
383.725	3.81
384.091	3.74
384.457	3.73
384.823	3.96
385.188	3.93
385.554	3.6
385.92	4
386.286	4.28
386.651	3.57
387.017	3.95
387.383	3.87
387.748	3.58
388.114	3.44
388.479	3.59
388.845	3.9
389.21	3.63
389.575	3.47
389.94	3.7
390.306	3.73
390.671	3.71
391.036	3.52
391.401	3.81
391.766	3.82
392.131	3.84
392.496	3.75
392.861	3.93
393.226	3.82
393.591	3.51
393.956	3.69
394.32	3.97
394.685	3.66
395.05	3.86
395.414	4.06
395.779	3.71
396.143	3.68
396.508	3.6
396.872	3.7
397.236	3.83
397.601	3.71
397.965	3.46
398.329	3.54
398.694	3.92
399.058	3.28
399.422	3.82
399.786	3.67
400.15	3.8
400.514	3.73
400.878	3.83
401.242	3.84
401.605	3.7
401.969	3.63
402.333	3.7
402.697	3.87
403.06	3.8
403.424	3.73
403.787	3.61
404.151	3.57
404.514	3.93
404.878	3.78
405.241	3.87
405.604	3.79
405.968	4.01
406.331	3.63
406.694	3.83
407.057	3.69
407.42	4.06
407.783	3.77
408.146	3.94
408.509	3.72
408.872	4.13
409.235	3.8
409.598	3.8
409.961	4.03
410.323	4.09
410.686	3.68
411.049	3.84
411.411	3.67
411.774	3.81
412.136	3.89
412.499	3.82
412.861	3.89
413.223	3.97
413.586	4.05
413.948	4
414.31	4.1
414.672	3.77
415.035	3.71
415.397	3.95
415.759	3.98
416.121	3.74
416.483	4.14
416.845	3.86
417.206	3.95
417.568	3.87
417.93	3.99
418.292	3.73
418.653	3.83
419.015	3.69
419.377	3.83
419.738	3.67
420.1	3.75
420.461	3.68
420.822	3.72
421.184	3.77
421.545	3.82
421.906	3.68
422.267	3.72
422.629	3.87
422.99	3.66
423.351	3.79
423.712	3.7
424.073	3.72
424.434	3.59
424.795	3.72
425.155	3.78
425.516	3.73
425.877	3.83
426.238	3.51
426.598	3.74
426.959	3.74
427.32	3.68
427.68	3.84
428.041	3.64
428.401	3.72
428.761	3.83
429.122	3.82
429.482	3.78
429.842	3.75
430.202	3.87
430.563	3.73
430.923	3.91
431.283	3.82
431.643	3.89
432.003	4.07
432.363	3.88
432.722	4.03
433.082	3.94
433.442	3.8
433.802	4.01
434.161	3.79
434.521	4.03
434.881	3.87
435.24	3.97
435.6	3.8
435.959	3.81
436.319	3.94
436.678	3.94
437.037	3.96
437.396	3.98
437.756	3.99
438.115	3.77
438.474	3.94
438.833	4.11
439.192	3.8
439.551	3.8
439.91	4
440.269	3.96
440.628	3.92
440.987	3.96
441.345	3.88
441.704	3.9
442.063	3.82
442.421	3.9
442.78	3.86
443.138	3.95
443.497	3.95
443.855	3.85
444.214	3.87
444.572	3.96
444.93	4.08
445.288	3.99
445.647	4.11
446.005	3.8
446.363	3.85
446.721	3.92
447.079	4.01
447.437	3.94
447.795	3.74
448.153	3.76
448.51	3.83
448.868	3.81
449.226	3.8
449.584	3.86
449.941	3.74
450.299	3.94
450.656	3.87
451.014	3.96
451.371	3.99
451.729	3.85
452.086	3.88
452.443	4.04
452.801	3.99
453.158	4.05
453.515	3.98
453.872	3.97
454.229	4.16
454.586	4.06
454.943	3.99
455.3	3.88
455.657	4.13
456.014	3.89
456.371	4.08
456.727	3.92
457.084	4.05
457.441	3.98
457.797	4.1
458.154	4.01
458.51	3.96
458.867	3.97
459.223	4.05
459.58	4.03
459.936	3.94
460.292	4.04
460.648	3.9
461.005	3.82
461.361	3.93
461.717	3.87
462.073	3.92
462.429	3.83
462.785	3.91
463.141	4.08
463.496	3.99
463.852	4.02
464.208	4.1
464.564	4.16
464.919	4.11
465.275	4.1
465.631	4.14
465.986	4.23
466.342	4.12
466.697	4.11
467.052	4.23
467.408	4
467.763	4.3
468.118	4.32
468.473	3.97
468.829	4.04
469.184	4.13
469.539	3.99
469.894	4.16
470.249	3.99
470.603	4.19
470.958	4.11
471.313	4.18
471.668	4.21
472.023	4.19
472.377	4.11
472.732	4.11
473.086	4.21
473.441	4.29
473.795	4.3
474.15	4.03
474.504	4.01
474.859	4.11
475.213	4.21
475.567	4.14
475.921	4.16
476.275	4.24
476.63	4.46
476.984	4.23
477.338	4.13
477.692	4.13
478.045	4.13
478.399	4.07
478.753	4.25
479.107	4.21
479.461	4.28
479.814	4.21
480.168	4.24
480.521	4.2
480.875	4.11
481.228	4.09
481.582	4.19
481.935	4.15
482.289	4.23
482.642	4.14
482.995	4.05
483.348	4.17
483.701	4.18
484.055	4.18
484.408	4.06
484.761	4
485.114	3.96
485.466	3.89
485.819	3.8
486.172	3.78
486.525	3.83
486.878	3.87
487.23	3.97
487.583	3.95
487.936	4
488.288	4.03
488.641	4.07
488.993	4.02
489.345	4
489.698	3.95
490.05	3.93
490.402	3.9
490.754	3.99
491.107	3.95
491.459	4.1
491.811	4.11
492.163	4.04
492.515	4.14
492.866	4.16
493.218	4.02
493.57	3.98
493.922	3.97
494.274	4.03
494.625	4.08
494.977	4.07
495.328	4.28
495.68	4.22
496.031	4.11
496.383	4.4
496.734	4.28
497.086	4.35
497.437	4.32
497.788	4.15
498.139	4.34
498.49	4.13
498.842	4.09
499.193	4.27
499.544	4.3
499.894	4.28
500.245	4.18
500.596	4.29
500.947	4.27
501.298	4.17
501.648	4.32
501.999	4.31
502.35	4.33
502.7	4.38
503.051	4.39
503.401	4.35
503.752	4.3
504.102	4.41
504.452	4.22
504.803	4.28
505.153	4.55
505.503	4.29
505.853	4.31
506.203	4.32
506.553	4.27
506.903	4.41
507.253	4.39
507.603	4.4
507.953	4.47
508.303	4.41
508.652	4.45
509.002	4.52
509.352	4.49
509.701	4.47
510.051	4.36
510.4	4.39
510.75	4.46
511.099	4.38
511.449	4.47
511.798	4.42
512.147	4.42
512.496	4.41
512.846	4.37
513.195	4.5
513.544	4.44
513.893	4.3
514.242	4.41
514.591	4.43
514.939	4.39
515.288	4.42
515.637	4.44
515.986	4.56
516.334	4.55
516.683	4.56
517.032	4.41
517.38	4.44
517.729	4.54
518.077	4.46
518.426	4.51
518.774	4.5
519.122	4.52
519.47	4.54
519.819	4.42
520.167	4.49
520.515	4.46
520.863	4.48
521.211	4.41
521.559	4.52
521.907	4.47
522.255	4.51
522.602	4.64
522.95	4.56
523.298	4.6
523.645	4.58
523.993	4.64
524.341	4.65
524.688	4.61
525.036	4.65
525.383	4.59
525.73	4.7
526.078	4.64
526.425	4.69
526.772	4.57
527.119	4.64
527.466	4.56
527.814	4.49
528.161	4.61
528.508	4.59
528.854	4.63
529.201	4.62
529.548	4.6
529.895	4.63
530.242	4.52
530.588	4.39
530.935	4.38
531.282	4.48
531.628	4.53
531.975	4.51
532.321	4.56
532.667	4.62
533.014	4.7
533.36	4.8
533.706	4.75
534.052	4.77
534.399	4.61
534.745	4.58
535.091	4.69
535.437	4.67
535.783	4.63
536.129	4.67
536.474	4.72
536.82	4.78
537.166	4.8
537.512	4.91
537.857	4.92
538.203	4.82
538.549	4.88
538.894	4.87
539.239	4.77
539.585	4.85
539.93	4.84
540.276	5.1
540.621	4.99
540.966	5.1
541.311	5.11
541.656	5.01
542.001	5.03
542.346	5.07
542.691	4.88
543.036	4.91
543.381	4.84
543.726	4.79
544.071	4.86
544.415	4.92
544.76	4.91
545.105	5.06
545.449	5.01
545.794	5.02
546.138	4.97
546.483	5.05
546.827	5.13
547.171	5.25
547.516	5.13
547.86	5.21
548.204	5.1
548.548	5.17
548.892	5.1
549.236	5.15
549.58	5.09
549.924	5.23
550.268	5.29
550.612	5.38
550.956	5.47
551.3	5.33
551.643	5.45
551.987	5.45
552.33	5.31
552.674	5.46
553.017	5.44
553.361	5.6
553.704	5.53
554.048	5.47
554.391	5.57
554.734	5.54
555.077	5.4
555.42	5.41
555.764	5.55
556.107	5.78
556.45	5.64
556.793	5.42
557.135	5.47
557.478	5.56
557.821	5.76
558.164	5.73
558.507	5.76
558.849	5.8
559.192	5.72
559.534	6.03
559.877	5.65
560.219	5.91
560.562	5.88
560.904	5.59
561.246	5.89
561.589	5.83
561.931	5.88
562.273	5.94
562.615	6.01
562.957	5.66
563.299	6
563.641	6.13
563.983	5.95
564.325	5.76
564.667	6.03
565.008	5.94
565.35	6.12
565.692	5.99
566.033	6.09
566.375	6.09
566.716	6.07
567.058	6.05
567.399	6.06
567.741	6.07
568.082	6.14
568.423	6.2
568.764	6.13
569.105	6.19
569.447	6.11
569.788	6.12
570.129	6.23
570.47	6.18
570.811	6.29
571.151	6.26
571.492	6.39
571.833	6.5
572.174	6.43
572.514	6.44
572.855	6.34
573.195	6.46
573.536	6.37
573.876	6.45
574.217	6.4
574.557	6.33
574.898	6.5
575.238	6.55
575.578	6.42
575.918	6.44
576.258	6.64
576.598	6.7
576.938	6.65
577.278	6.57
577.618	6.46
577.958	6.59
578.298	6.61
578.638	6.89
578.977	6.75
579.317	6.78
579.657	6.72
579.996	6.84
580.336	6.93
580.675	6.88
581.014	6.74
581.354	6.92
581.693	6.83
582.032	7.08
582.372	7.12
582.711	7.11
583.05	7.38
583.389	7.29
583.728	6.99
584.067	7.24
584.406	7.21
584.745	7.28
585.083	7.02
585.422	7.33
585.761	7.5
586.1	7.52
586.438	7.06
586.777	7.53
587.115	7.54
587.454	7.26
587.792	7.26
588.13	7.74
588.469	7.64
588.807	7.12
589.145	7.55
589.483	7.28
589.821	7.55
590.159	7.53
590.497	7.38
590.835	7.51
591.173	7.78
591.511	7.53
591.849	7.5
592.187	7.52
592.524	7.42
592.862	7.49
593.2	7.65
593.537	7.48
593.875	7.67
594.212	7.85
594.55	7.98
594.887	7.94
595.224	7.7
595.561	7.71
595.899	7.86
596.236	7.89
596.573	7.93
596.91	7.96
597.247	7.85
597.584	7.83
597.921	8.08
598.258	7.95
598.594	7.9
598.931	7.89
599.268	7.77
599.604	8
599.941	7.93
600.277	8.02
600.614	8.03
600.95	8.3
601.287	8.01
601.623	8.17
601.959	8.37
602.296	8.25
602.632	8.56
602.968	8.13
603.304	8.61
603.64	8.36
603.976	8.58
604.312	8.63
604.648	8.68
604.984	8.55
605.319	8.33
605.655	8.44
605.991	8.52
606.326	8.44
606.662	8.48
606.998	8.38
607.333	8.53
607.668	8.41
608.004	8.78
608.339	8.77
608.674	8.88
609.01	8.69
609.345	9.14
609.68	8.99
610.015	9.07
610.35	8.9
610.685	9.19
611.02	8.81
611.355	8.79
611.689	8.82
612.024	9.05
612.359	8.99
612.694	9.03
613.028	9.22
613.363	9.21
613.697	9.25
614.032	9.36
614.366	9.15
614.7	9.35
615.035	9.59
615.369	9.34
615.703	9.37
616.037	9.45
616.371	9.51
616.705	9.27
617.039	9.54
617.373	9.46
617.707	9.86
618.041	10.03
618.375	9.56
618.709	9.62
619.042	9.7
619.376	9.65
619.71	10.04
620.043	10.05
620.377	9.53
620.71	9.79
621.043	9.96
621.377	9.62
621.71	10.25
622.043	9.81
622.376	10.19
622.709	10
623.043	10.2
623.376	10.25
623.709	10.01
624.041	10.03
624.374	9.95
624.707	10.07
625.04	10.47
625.373	10.46
625.705	9.82
626.038	10.44
626.37	9.88
626.703	10.61
627.035	10.28
627.368	10.26
627.7	10.72
628.032	10.29
628.365	10.39
628.697	10.24
629.029	10.34
629.361	10.79
629.693	10.42
630.025	10.43
630.357	10.75
630.689	10.51
631.021	10.85
631.353	10.76
631.684	10.48
632.016	10.72
632.348	10.88
632.679	10.48
633.011	10.95
633.342	10.5
633.674	11.15
634.005	11.11
634.336	11.22
634.668	10.59
634.999	11.01
635.33	10.75
635.661	10.93
635.992	11.22
636.323	11.45
636.654	11.29
636.985	11.01
637.316	10.92
637.647	10.99
637.977	11.22
638.308	10.98
638.639	11.04
638.969	11.16
639.3	11.04
639.63	11.52
639.961	11.5
640.291	11.33
640.622	11.23
640.952	11.54
641.282	11.26
641.612	11.67
641.943	12.01
642.273	11.74
642.603	11.92
642.933	11.55
643.263	12.15
643.592	12.03
643.922	12.5
644.252	11.69
644.582	11.79
644.911	11.99
645.241	12.29
645.571	12.38
645.9	11.73
646.23	12.01
646.559	12.04
646.888	12.37
647.218	12.5
647.547	12.27
647.876	11.71
648.205	12.1
648.534	11.86
648.863	12.33
649.192	12.16
649.521	12.06
649.85	12.33
650.179	12.2
650.508	12
650.837	12.31
651.165	12.74
651.494	12.2
651.822	12.62
652.151	12.83
652.479	12.42
652.808	12.25
653.136	12.39
653.465	13
653.793	12.65
654.121	13.02
654.449	12.68
654.777	12.8
655.105	12.32
655.433	13.12
655.761	13.11
656.089	13.07
656.417	12.43
656.745	13.03
657.073	12.83
657.4	13.63
657.728	13.32
658.056	13.4
658.383	13.15
658.711	13.16
659.038	13.35
659.365	13.32
659.693	13.11
660.02	13.15
660.347	13.22
660.674	12.75
661.001	13.33
661.329	13.19
661.656	13.07
661.982	12.9
662.309	13.26
662.636	12.88
662.963	13.62
663.29	13.61
663.616	13.63
663.943	13.27
664.27	13.23
664.596	12.99
664.923	13.89
665.249	13.69
665.576	13.74
665.902	14.04
666.228	13.78
666.554	13.73
666.881	13.76
667.207	14.15
667.533	13.74
667.859	14.19
668.185	14.02
668.511	14.1
668.837	14.22
669.162	14.07
669.488	14.68
669.814	13.82
670.139	14
670.465	13.9
670.791	14.56
671.116	14.46
671.442	14.6
671.767	14.39
672.092	14.71
672.418	14.11
672.743	14.2
673.068	14.63
673.393	14.68
673.718	14.38
674.043	14.68
674.368	14.61
674.693	15.16
675.018	15.1
675.343	15.26
675.667	14.29
675.992	14.86
676.317	15.26
676.641	14.47
676.966	15.06
677.29	14.64
677.615	14.68
677.939	14.82
678.264	14.9
678.588	14.54
678.912	15.42
679.236	14.98
679.56	14.96
679.885	14.95
680.209	14.84
680.532	14.16
680.856	15.47
681.18	15.11
681.504	15.25
681.828	15.36
682.152	15.48
682.475	14.53
682.799	15.4
683.122	15.41
683.446	15.2
683.769	15.51
684.093	15.53
684.416	15.61
684.739	15.09
685.062	15.63
685.386	15.02
685.709	15.66
686.032	16.15
686.355	16.03
686.678	16.02
687.001	15.57
687.324	14.95
687.646	15.91
687.969	15.89
688.292	16.48
