Data from 0244_chest_Reflection__0__108.txt Node

Date: Fri Oct 20 21:29:37 CDT 2023
User: ToomeyLab
Spectrometer: FLMS14357
Trigger mode: 0
Integration Time (sec): 1.000000E-2
Scans to average: 100
Electric dark correction enabled: true
Nonlinearity correction enabled: false
Boxcar width: 0
XAxis mode: Wavelengths
Number of Pixels in Spectrum: 2048
>>>>>Begin Spectral Data<<<<<
189.047	21.38
189.435	21.38
189.823	21.38
190.211	1518.4
190.599	29.13
190.987	61.74
191.375	60.79
191.763	61.17
192.151	-184.88
192.538	-14115.79
192.926	67.3
193.314	-425.08
193.702	18.37
194.089	69.97
194.477	180.7
194.864	-130.16
195.252	157.52
195.639	-118.26
196.027	145.47
196.414	84.17
196.801	25.15
197.189	0.51
197.576	-104.59
197.963	-146.12
198.351	55.1
198.738	14.62
199.125	51.48
199.512	36.91
199.899	46.04
200.286	8.44
200.673	59.73
201.06	2.64
201.447	4.93
201.833	21.31
202.22	34.78
202.607	52.23
202.994	23.79
203.38	16.83
203.767	40.69
204.154	56.04
204.54	35.38
204.927	28.96
205.313	10.23
205.699	34.78
206.086	43.72
206.472	29.05
206.858	59.06
207.245	6.18
207.631	29.75
208.017	33.19
208.403	13.46
208.789	38.62
209.175	6.99
209.561	6.55
209.947	2.22
210.333	16.53
210.719	26.75
211.105	24.23
211.491	51.66
211.876	45.1
212.262	26.82
212.648	-7.65
213.034	-24.04
213.419	9.8
213.805	12.96
214.19	0.05
214.576	-10.77
214.961	11.6
215.346	21.42
215.732	15.89
216.117	7.78
216.502	8.85
216.888	23.63
217.273	-8.96
217.658	8.57
218.043	9.28
218.428	15.93
218.813	8.69
219.198	2.41
219.583	-0.39
219.968	-3.83
220.353	25.18
220.738	19.19
221.122	-13.35
221.507	10.93
221.892	9.87
222.276	14.6
222.661	24.09
223.046	20.38
223.43	7.37
223.815	17.65
224.199	19.74
224.583	-1.29
224.968	-3.01
225.352	7.24
225.736	-1.71
226.121	11.77
226.505	-1.87
226.889	17.57
227.273	11.71
227.657	11.8
228.041	9.72
228.425	3.04
228.809	5.99
229.193	3.84
229.577	7.58
229.961	3.8
230.344	5.34
230.728	2.44
231.112	4.6
231.495	2.96
231.879	4.33
232.263	4.4
232.646	2.18
233.03	2.36
233.413	3.85
233.797	3.96
234.18	4.47
234.563	3.41
234.946	6.06
235.33	6.51
235.713	3.73
236.096	4.31
236.479	4
236.862	3.87
237.245	3.83
237.628	3.66
238.011	4.55
238.394	4.53
238.777	3.9
239.16	4.69
239.543	5.24
239.925	4.23
240.308	5.3
240.691	3.34
241.073	4.79
241.456	4.27
241.838	4.62
242.221	4.76
242.603	4.17
242.986	3.81
243.368	3.25
243.75	3.68
244.133	3.49
244.515	3.63
244.897	3.69
245.279	3.83
245.661	3.61
246.043	3.52
246.425	3.77
246.807	4.12
247.189	3.58
247.571	3.03
247.953	3.36
248.335	4.07
248.717	3.62
249.098	3.5
249.48	3.67
249.862	3.83
250.243	3.88
250.625	4.14
251.006	4.25
251.388	3.61
251.769	4.66
252.151	3.24
252.532	4.47
252.913	3.39
253.295	3.82
253.676	4.33
254.057	3.89
254.438	4
254.819	4.13
255.2	4.31
255.581	2.85
255.962	3.85
256.343	4.11
256.724	3.28
257.105	4.42
257.486	4.35
257.867	4.35
258.247	3.62
258.628	3.79
259.009	3.35
259.389	4.45
259.77	3.11
260.15	3.75
260.531	4.25
260.911	4.43
261.292	3.41
261.672	3.37
262.052	3.69
262.432	3.59
262.813	3.5
263.193	4.07
263.573	3.08
263.953	3.61
264.333	3.78
264.713	4.02
265.093	4
265.473	4.36
265.853	3.45
266.233	3.83
266.612	4.05
266.992	3.68
267.372	4.19
267.752	4.44
268.131	4
268.511	3.9
268.89	3.98
269.27	3.55
269.649	2.97
270.029	3.77
270.408	4.13
270.787	3.8
271.167	3.92
271.546	3.47
271.925	3.86
272.304	3.42
272.683	3.81
273.062	3.98
273.441	3.47
273.82	3.61
274.199	3.99
274.578	3.43
274.957	3.53
275.336	3.81
275.715	3.49
276.093	3.29
276.472	3.61
276.851	3.84
277.229	3.64
277.608	3.17
277.986	2.96
278.365	3.64
278.743	3.02
279.122	3.52
279.5	4
279.878	4.19
280.257	4.11
280.635	3.64
281.013	4.1
281.391	3.44
281.769	3.51
282.147	3.57
282.525	3.75
282.903	3.45
283.281	3.6
283.659	3.79
284.037	3.75
284.415	3.06
284.792	3.11
285.17	3.52
285.548	3.12
285.925	3.18
286.303	3.32
286.68	3.84
287.058	4.12
287.435	3.89
287.813	3.1
288.19	3.5
288.567	3.54
288.945	3.99
289.322	3.73
289.699	3.07
290.076	4.04
290.453	3.49
290.83	3.36
291.207	4.17
291.584	3.43
291.961	3.59
292.338	3.54
292.715	3.67
293.092	3.37
293.469	3.99
293.845	3.3
294.222	3.95
294.599	3.8
294.975	4.19
295.352	4.26
295.728	4
296.105	3.54
296.481	3.84
296.858	3.79
297.234	4.09
297.61	3.58
297.986	3.87
298.363	4.3
298.739	4.08
299.115	3.68
299.491	4.15
299.867	3.98
300.243	3.87
300.619	3.99
300.995	4
301.371	4.36
301.746	4.09
302.122	4.26
302.498	3.72
302.874	4.32
303.249	4.18
303.625	4.28
304	4.55
304.376	3.79
304.751	3.52
305.127	3.9
305.502	4.58
305.878	4.18
306.253	4.14
306.628	4.44
307.003	4.12
307.378	4.04
307.754	4.41
308.129	4.41
308.504	4.91
308.879	4.81
309.254	4.88
309.629	3.99
310.003	3.87
310.378	4.68
310.753	4.17
311.128	4.33
311.502	4.65
311.877	4.56
312.252	4.09
312.626	4.7
313.001	4.28
313.375	4.19
313.75	4.35
314.124	4.25
314.498	4.63
314.873	4.26
315.247	4.52
315.621	4.34
315.995	4.69
316.369	3.83
316.743	4.32
317.117	4.75
317.491	3.84
317.865	4.96
318.239	4.58
318.613	4.53
318.987	4.51
319.361	4.08
319.734	4.37
320.108	4.42
320.482	4.7
320.855	4.84
321.229	5.4
321.602	4.64
321.976	4.51
322.349	5.04
322.723	4.56
323.096	4.51
323.469	4.26
323.843	4.97
324.216	4.75
324.589	4.93
324.962	5.23
325.335	4.62
325.708	4.84
326.081	4.6
326.454	4.89
326.827	4.99
327.2	5.14
327.573	4.86
327.945	4.66
328.318	4.28
328.691	4.84
329.063	4.98
329.436	4.39
329.809	4.5
330.181	5.29
330.553	4.84
330.926	5.19
331.298	4.44
331.671	4.74
332.043	4.4
332.415	4.83
332.787	5.01
333.159	4.11
333.532	5.24
333.904	4.77
334.276	4.33
334.648	4.93
335.02	5.13
335.391	4.48
335.763	4.6
336.135	4.74
336.507	5
336.879	4.27
337.25	4.69
337.622	5.23
337.993	5.49
338.365	4.59
338.736	4.89
339.108	4.71
339.479	4.6
339.851	4.91
340.222	4.72
340.593	4.27
340.964	4.81
341.336	4.93
341.707	4.94
342.078	4.86
342.449	4.74
342.82	4.67
343.191	5.12
343.562	4.74
343.933	4.8
344.303	5.11
344.674	5.15
345.045	5.06
345.416	5.4
345.786	4.91
346.157	4.72
346.527	5.04
346.898	4.89
347.268	5.02
347.639	4.95
348.009	4.71
348.38	5.2
348.75	4.9
349.12	4.75
349.49	5.11
349.861	5.3
350.231	4.58
350.601	4.8
350.971	5.07
351.341	5.11
351.711	5.52
352.081	4.92
352.45	4.46
352.82	5.1
353.19	5.17
353.56	5.23
353.929	4.7
354.299	4.74
354.669	5.04
355.038	4.98
355.408	5.65
355.777	4.93
356.147	4.84
356.516	4.49
356.885	5
357.254	5.08
357.624	5.18
357.993	4.72
358.362	5.05
358.731	4.45
359.1	4.62
359.469	4.59
359.838	4.93
360.207	4.66
360.576	5.28
360.945	4.85
361.314	4.86
361.682	4.93
362.051	4.9
362.42	4.83
362.788	5.14
363.157	5.08
363.525	4.64
363.894	4.92
364.262	4.81
364.631	5.02
364.999	4.97
365.367	4.9
365.735	4.99
366.104	4.85
366.472	5.13
366.84	5
367.208	5.16
367.576	5.35
367.944	5.03
368.312	4.87
368.68	5.03
369.048	5.37
369.416	5.22
369.783	5.23
370.151	5.19
370.519	4.9
370.886	5.17
371.254	5.65
371.621	5.45
371.989	4.99
372.356	5.17
372.724	5.21
373.091	4.78
373.458	4.94
373.826	4.88
374.193	5.02
374.56	5.02
374.927	5.03
375.294	5.15
375.661	5.59
376.028	5.41
376.395	5.13
376.762	5.02
377.129	5.05
377.496	5.31
377.863	5.09
378.229	5.33
378.596	5.42
378.963	5.19
379.329	5.2
379.696	4.99
380.062	5.19
380.429	5.11
380.795	4.87
381.161	5.06
381.528	5.15
381.894	5.1
382.26	5.24
382.626	5.62
382.993	5.05
383.359	5.29
383.725	5.23
384.091	5.35
384.457	5.1
384.823	5.29
385.188	5.45
385.554	5.24
385.92	5.27
386.286	5.44
386.651	5.23
387.017	5.24
387.383	5.13
387.748	4.84
388.114	5.22
388.479	5.26
388.845	5.31
389.21	4.96
389.575	5.24
389.94	5.22
390.306	5.22
390.671	4.94
391.036	5.31
391.401	5.64
391.766	5.57
392.131	5.47
392.496	5.12
392.861	5.26
393.226	5.16
393.591	5.19
393.956	5.17
394.32	5.41
394.685	5.25
395.05	5.4
395.414	5.55
395.779	5.2
396.143	5.13
396.508	5.16
396.872	5.36
397.236	5.34
397.601	5.32
397.965	5.15
398.329	5.23
398.694	5.41
399.058	5.19
399.422	5.37
399.786	5.27
400.15	5.14
400.514	5.14
400.878	5.37
401.242	5.67
401.605	5.33
401.969	5.08
402.333	5.58
402.697	5.47
403.06	5.4
403.424	5.59
403.787	5.19
404.151	5.31
404.514	5.23
404.878	5.4
405.241	5.55
405.604	5.24
405.968	5.52
406.331	5.33
406.694	5.6
407.057	5.35
407.42	5.72
407.783	5.71
408.146	5.36
408.509	5.24
408.872	5.6
409.235	5.48
409.598	5.27
409.961	5.58
410.323	5.43
410.686	5.47
411.049	5.65
411.411	5.32
411.774	5.51
412.136	5.48
412.499	5.49
412.861	5.69
413.223	5.5
413.586	5.57
413.948	5.67
414.31	5.71
414.672	5.56
415.035	5.51
415.397	5.47
415.759	5.4
416.121	5.63
416.483	5.62
416.845	5.56
417.206	5.43
417.568	5.8
417.93	5.55
418.292	5.36
418.653	5.59
419.015	5.42
419.377	5.49
419.738	5.4
420.1	5.46
420.461	5.4
420.822	5.48
421.184	5.34
421.545	5.26
421.906	5.36
422.267	5.27
422.629	5.45
422.99	5.26
423.351	5.34
423.712	5.42
424.073	5.39
424.434	5.26
424.795	5.37
425.155	5.29
425.516	5.38
425.877	5.41
426.238	5.2
426.598	5.37
426.959	5.37
427.32	5.32
427.68	5.42
428.041	5.36
428.401	5.47
428.761	5.58
429.122	5.4
429.482	5.43
429.842	5.64
430.202	5.59
430.563	5.58
430.923	5.59
431.283	5.62
431.643	5.79
432.003	5.83
432.363	5.54
432.722	5.72
433.082	5.65
433.442	5.52
433.802	5.72
434.161	5.49
434.521	5.69
434.881	5.74
435.24	5.63
435.6	5.51
435.959	5.61
436.319	5.65
436.678	5.6
437.037	5.57
437.396	5.76
437.756	5.77
438.115	5.54
438.474	5.75
438.833	5.74
439.192	5.57
439.551	5.62
439.91	5.56
440.269	5.69
440.628	5.84
440.987	5.62
441.345	5.68
441.704	5.67
442.063	5.71
442.421	5.61
442.78	5.52
443.138	5.72
443.497	5.7
443.855	5.73
444.214	5.68
444.572	5.67
444.93	5.78
445.288	5.8
445.647	5.78
446.005	5.64
446.363	5.62
446.721	5.7
447.079	5.76
447.437	5.67
447.795	5.59
448.153	5.58
448.51	5.57
448.868	5.61
449.226	5.54
449.584	5.66
449.941	5.61
450.299	5.67
450.656	5.59
451.014	5.75
451.371	5.76
451.729	5.68
452.086	5.72
452.443	5.77
452.801	5.73
453.158	5.96
453.515	5.76
453.872	5.81
454.229	5.95
454.586	5.94
454.943	5.69
455.3	5.85
455.657	5.93
456.014	5.89
456.371	5.82
456.727	5.97
457.084	5.78
457.441	5.86
457.797	5.97
458.154	5.8
458.51	5.94
458.867	5.94
459.223	5.98
459.58	5.87
459.936	5.97
460.292	5.78
460.648	5.61
461.005	5.86
461.361	5.76
461.717	5.56
462.073	5.78
462.429	5.82
462.785	5.69
463.141	5.92
463.496	5.84
463.852	6.05
464.208	5.92
464.564	5.9
464.919	5.89
465.275	6.1
465.631	6.15
465.986	5.99
466.342	5.98
466.697	6.01
467.052	5.8
467.408	6.05
467.763	6.11
468.118	6.27
468.473	6.17
468.829	6.03
469.184	6
469.539	6.05
469.894	6.09
470.249	5.99
470.603	6.1
470.958	6.16
471.313	6.28
471.668	6.04
472.023	6.19
472.377	5.94
472.732	5.99
473.086	6.19
473.441	6.19
473.795	6.41
474.15	6.03
474.504	6.03
474.859	6.24
475.213	6.13
475.567	6.09
475.921	6
476.275	6.13
476.63	6.35
476.984	6.27
477.338	6.17
477.692	6.13
478.045	6.13
478.399	6.07
478.753	6.18
479.107	6.08
479.461	6.15
479.814	6.3
480.168	6.12
480.521	6.26
480.875	6.19
481.228	6.26
481.582	6.34
481.935	6.21
482.289	6.23
482.642	6.12
482.995	6.21
483.348	6.14
483.701	6.21
484.055	6.21
484.408	6.1
484.761	5.94
485.114	5.93
485.466	5.92
485.819	5.8
486.172	5.73
486.525	5.78
486.878	5.93
487.23	5.97
487.583	6.05
487.936	6
488.288	6.05
488.641	6.08
488.993	5.98
489.345	6.02
489.698	5.87
490.05	5.96
490.402	5.98
490.754	5.98
491.107	6.06
491.459	6.2
491.811	6.22
492.163	6.21
492.515	6.23
492.866	6.27
493.218	6.1
493.57	6.09
493.922	6.05
494.274	6.08
494.625	6.16
494.977	6.22
495.328	6.33
495.68	6.4
496.031	6.3
496.383	6.32
496.734	6.46
497.086	6.44
497.437	6.48
497.788	6.36
498.139	6.47
498.49	6.51
498.842	6.25
499.193	6.38
499.544	6.53
499.894	6.48
500.245	6.5
500.596	6.41
500.947	6.55
501.298	6.54
501.648	6.43
501.999	6.51
502.35	6.58
502.7	6.69
503.051	6.68
503.401	6.7
503.752	6.58
504.102	6.61
504.452	6.63
504.803	6.59
505.153	6.68
505.503	6.64
505.853	6.66
506.203	6.71
506.553	6.6
506.903	6.64
507.253	6.82
507.603	6.74
507.953	6.72
508.303	6.68
508.652	6.85
509.002	6.6
509.352	6.76
509.701	6.67
510.051	6.7
510.4	6.73
510.75	6.89
511.099	6.65
511.449	6.66
511.798	6.81
512.147	6.68
512.496	6.76
512.846	6.7
513.195	6.87
513.544	6.85
513.893	6.66
514.242	6.74
514.591	6.77
514.939	6.73
515.288	6.69
515.637	7
515.986	6.97
516.334	6.84
516.683	6.78
517.032	6.89
517.38	6.88
517.729	7.02
518.077	6.98
518.426	6.98
518.774	6.87
519.122	6.89
519.47	6.92
519.819	6.84
520.167	6.83
520.515	6.92
520.863	6.87
521.211	6.93
521.559	6.92
521.907	6.99
522.255	7
522.602	7.14
522.95	6.95
523.298	7.05
523.645	7.19
523.993	7.07
524.341	7.11
524.688	7.05
525.036	7.07
525.383	7.05
525.73	7.25
526.078	7.18
526.425	7.14
526.772	7.19
527.119	7.15
527.466	7.11
527.814	7.1
528.161	7.16
528.508	7.14
528.854	7.11
529.201	7.11
529.548	7.17
529.895	7.11
530.242	7.02
530.588	6.88
530.935	6.91
531.282	7.01
531.628	7.11
531.975	7.09
532.321	7.1
532.667	7.26
533.014	7.25
533.36	7.44
533.706	7.4
534.052	7.41
534.399	7.32
534.745	7.24
535.091	7.25
535.437	7.26
535.783	7.25
536.129	7.42
536.474	7.47
536.82	7.43
537.166	7.46
537.512	7.6
537.857	7.6
538.203	7.46
538.549	7.59
538.894	7.49
539.239	7.53
539.585	7.65
539.93	7.67
540.276	7.74
540.621	7.89
540.966	7.99
541.311	7.91
541.656	7.81
542.001	7.84
542.346	7.75
542.691	7.68
543.036	7.63
543.381	7.58
543.726	7.54
544.071	7.62
544.415	7.67
544.76	7.71
545.105	7.82
545.449	7.82
545.794	7.85
546.138	7.93
546.483	7.96
546.827	8.14
547.171	8.02
547.516	7.96
547.86	8.22
548.204	8.1
548.548	8.07
548.892	8.04
549.236	8.23
549.58	8.03
549.924	8.15
550.268	8.23
550.612	8.43
550.956	8.46
551.3	8.43
551.643	8.23
551.987	8.56
552.33	8.49
552.674	8.43
553.017	8.58
553.361	8.6
553.704	8.75
554.048	8.88
554.391	8.55
554.734	8.76
555.077	8.62
555.42	8.41
555.764	8.71
556.107	8.72
556.45	8.67
556.793	8.61
557.135	8.71
557.478	8.82
557.821	8.97
558.164	8.9
558.507	8.91
558.849	8.94
559.192	9.1
559.534	9.25
559.877	8.63
560.219	9.13
560.562	9.01
560.904	8.76
561.246	8.96
561.589	9.08
561.931	9.12
562.273	9.13
562.615	9.25
562.957	9.25
563.299	9.23
563.641	9.36
563.983	9.4
564.325	9.25
564.667	9.31
565.008	9.11
565.35	9.3
565.692	9.38
566.033	9.28
566.375	9.37
566.716	9.59
567.058	9.5
567.399	9.64
567.741	9.45
568.082	9.54
568.423	9.59
568.764	9.4
569.105	9.61
569.447	9.48
569.788	9.69
570.129	9.7
570.47	9.7
570.811	9.79
571.151	9.7
571.492	9.83
571.833	9.88
572.174	10.08
572.514	9.94
572.855	9.9
573.195	9.96
573.536	9.76
573.876	10.01
574.217	10
574.557	10.03
574.898	9.87
575.238	9.96
575.578	10.18
575.918	10.16
576.258	10.18
576.598	10.17
576.938	10.22
577.278	10.26
577.618	10.16
577.958	10.33
578.298	10.34
578.638	10.54
578.977	10.34
579.317	10.39
579.657	10.38
579.996	10.58
580.336	10.36
580.675	10.49
581.014	10.58
581.354	10.87
581.693	10.86
582.032	10.87
582.372	10.75
582.711	10.88
583.05	11.04
583.389	10.73
583.728	10.99
584.067	11.16
584.406	11
584.745	10.99
585.083	10.92
585.422	11.23
585.761	10.91
586.1	11.17
586.438	10.88
586.777	11.44
587.115	11.43
587.454	11.37
587.792	11.38
588.13	11.58
588.469	11.38
588.807	11.14
589.145	11.57
589.483	11.39
589.821	11.55
590.159	11.57
590.497	11.68
590.835	11.39
591.173	11.34
591.511	11.79
591.849	11.6
592.187	11.57
592.524	11.39
592.862	11.65
593.2	11.76
593.537	11.63
593.875	11.77
594.212	11.8
594.55	11.6
594.887	11.93
595.224	11.83
595.561	11.84
595.899	11.81
596.236	12.12
596.573	12.18
596.91	12.05
597.247	12.25
597.584	11.88
597.921	12.08
598.258	12.37
598.594	12.43
598.931	12.07
599.268	12.11
599.604	12.17
599.941	12.26
600.277	12.25
600.614	12.29
600.95	12.47
601.287	12.35
601.623	12.6
601.959	12.75
602.296	12.61
602.632	12.43
602.968	12.27
603.304	12.92
603.64	12.72
603.976	12.98
604.312	12.76
604.648	13.11
604.984	13.03
605.319	12.86
605.655	12.74
605.991	12.71
606.326	12.86
606.662	12.83
606.998	12.99
607.333	12.95
607.668	12.79
608.004	13.04
608.339	13.08
608.674	13.13
609.01	13.17
609.345	13.51
609.68	13.48
610.015	13.33
610.35	13.52
610.685	13.51
611.02	13.3
611.355	13.23
611.689	13.54
612.024	13.65
612.359	13.41
612.694	13.65
613.028	13.59
613.363	13.62
613.697	13.6
614.032	13.72
614.366	13.82
614.7	13.94
615.035	14.15
615.369	14.36
615.703	13.78
616.037	14.12
616.371	14.01
616.705	14.11
617.039	13.98
617.373	14.11
617.707	14.23
618.041	14.63
618.375	14.09
618.709	14.13
619.042	14.27
619.376	14.7
619.71	14.44
620.043	14.42
620.377	14.05
620.71	14.54
621.043	14.47
621.377	14.64
621.71	14.73
622.043	14.85
622.376	14.68
622.709	15.16
623.043	15.22
623.376	14.78
623.709	14.59
624.041	14.66
624.374	15.12
624.707	15.09
625.04	15.3
625.373	15.3
625.705	14.85
626.038	15.39
626.37	15.21
626.703	15.27
627.035	14.89
627.368	15.13
627.7	15.19
628.032	15.15
628.365	15.13
628.697	15.41
629.029	15.16
629.361	15.19
629.693	15.19
630.025	15.43
630.357	15.31
630.689	15.45
631.021	15.73
631.353	15.52
631.684	15.47
632.016	15.91
632.348	15.61
632.679	15.79
633.011	15.77
633.342	15.28
633.674	15.73
634.005	16.09
634.336	16.3
634.668	15.68
634.999	15.69
635.33	15.77
635.661	16.44
635.992	16.36
636.323	16.09
636.654	16.18
636.985	16.11
637.316	15.99
637.647	16.3
637.977	15.81
638.308	16.25
638.639	16.45
638.969	16.86
639.3	16.36
639.63	16.5
639.961	16.4
640.291	16.44
640.622	16.69
640.952	16.7
641.282	16.79
641.612	16.6
641.943	16.9
642.273	16.61
642.603	16.86
642.933	16.86
643.263	16.85
643.592	16.85
643.922	17.43
644.252	16.5
644.582	17.26
644.911	17.03
645.241	17.4
645.571	17.5
645.9	16.99
646.23	17.18
646.559	16.99
646.888	17.5
647.218	17.36
647.547	17.03
647.876	17.67
648.205	17.9
648.534	17.28
648.863	17.73
649.192	17.18
649.521	17.35
649.85	17.46
650.179	17.19
650.508	17.18
650.837	17.51
651.165	17.76
651.494	17.41
651.822	17.69
652.151	17.86
652.479	17.98
652.808	17.87
653.136	17.81
653.465	18.14
653.793	18.21
654.121	17.8
654.449	17.79
654.777	18.34
655.105	18.1
655.433	18.84
655.761	18.31
656.089	18.32
656.417	17.98
656.745	18.4
657.073	18.44
657.4	19.02
657.728	18.47
658.056	18.24
658.383	18.32
658.711	18.21
659.038	18.56
659.365	18.29
659.693	18.39
660.02	18.73
660.347	18.69
660.674	18.35
661.001	18.49
661.329	18.71
661.656	18.95
661.982	18.59
662.309	19.02
662.636	18.97
662.963	19.11
663.29	18.93
663.616	18.83
663.943	18.33
664.27	19.4
664.596	19.05
664.923	18.69
665.249	19.36
665.576	19.16
665.902	18.87
666.228	19.06
666.554	19.5
666.881	18.83
667.207	19.35
667.533	19.22
667.859	19.74
668.185	19.28
668.511	19.4
668.837	20.11
669.162	19.42
669.488	19.63
669.814	19.52
670.139	19.47
670.465	19.3
670.791	20.15
671.116	19.32
671.442	19.79
671.767	19.34
672.092	19.89
672.418	19.93
672.743	19.67
673.068	20.2
673.393	20.06
673.718	20.14
674.043	20.98
674.368	20.14
674.693	20.63
675.018	20.58
675.343	20.41
675.667	20.09
675.992	20.19
676.317	20.6
676.641	20.94
676.966	20.26
677.29	20.88
677.615	20.4
677.939	20.02
678.264	20.57
678.588	20.36
678.912	21.25
679.236	20.83
679.56	20.1
679.885	20.08
680.209	20.98
680.532	20.05
680.856	20.79
681.18	20.32
681.504	21.41
681.828	21.02
682.152	20.85
682.475	20.42
682.799	21.08
683.122	21.15
683.446	21.29
683.769	21.16
684.093	21.04
684.416	21.14
684.739	21.38
685.062	20.7
685.386	20.72
685.709	21
