Data from 0244_crown_Reflection__4__117.txt Node

Date: Fri Oct 20 21:32:12 CDT 2023
User: ToomeyLab
Spectrometer: FLMS14357
Trigger mode: 0
Integration Time (sec): 1.000000E-2
Scans to average: 100
Electric dark correction enabled: true
Nonlinearity correction enabled: false
Boxcar width: 0
XAxis mode: Wavelengths
Number of Pixels in Spectrum: 2048
>>>>>Begin Spectral Data<<<<<
189.047	-107.69
189.435	-107.69
189.823	-107.69
190.211	3073.6
190.599	422.42
190.987	108.52
191.375	-58.65
191.763	145.5
192.151	-424.52
192.538	10852.63
192.926	55.94
193.314	-330.59
193.702	212.52
194.089	102.18
194.477	298.89
194.864	-106.74
195.252	59.52
195.639	-131.04
196.027	241.9
196.414	23.38
196.801	-44.83
197.189	-12.9
197.576	-66.67
197.963	123.49
198.351	81.92
198.738	14.58
199.125	50.39
199.512	5.1
199.899	-15.31
200.286	0.95
200.673	21.81
201.06	15.48
201.447	0.58
201.833	23.18
202.22	11.95
202.607	45.28
202.994	11.63
203.38	-4.11
203.767	13.42
204.154	35.93
204.54	46.85
204.927	8.1
205.313	-11.27
205.699	43.56
206.086	12.88
206.472	42.27
206.858	42.44
207.245	-27.31
207.631	19.02
208.017	21.56
208.403	24.61
208.789	29.01
209.175	-7.68
209.561	31.33
209.947	10.48
210.333	16.35
210.719	6.5
211.105	9.22
211.491	34.74
211.876	15.62
212.262	32.4
212.648	36.89
213.034	2.08
213.419	21.6
213.805	-4.74
214.19	13.6
214.576	36.62
214.961	18.22
215.346	10.15
215.732	21.54
216.117	-19.32
216.502	-11.63
216.888	4.1
217.273	15.97
217.658	24.7
218.043	-4.9
218.428	18.06
218.813	27.42
219.198	-10.54
219.583	-20.11
219.968	-0.22
220.353	17.9
220.738	0.76
221.122	-0.3
221.507	-2.87
221.892	-0.39
222.276	7.73
222.661	22.73
223.046	9.27
223.43	5.09
223.815	21.39
224.199	17.06
224.583	6.55
224.968	3.26
225.352	11.95
225.736	8.11
226.121	5.07
226.505	-0.36
226.889	2.91
227.273	10.49
227.657	11.06
228.041	8.22
228.425	6.5
228.809	6.39
229.193	5.54
229.577	8.4
229.961	4.73
230.344	7.14
230.728	7.26
231.112	7.26
231.495	5.95
231.879	7.18
232.263	7.44
232.646	6.81
233.03	6.31
233.413	4.77
233.797	6.35
234.18	5.85
234.563	8.38
234.946	8.23
235.33	7.63
235.713	5.88
236.096	6.29
236.479	7.61
236.862	7.03
237.245	6.15
237.628	6.38
238.011	6.5
238.394	5.82
238.777	9.4
239.16	7.69
239.543	6.91
239.925	7.43
240.308	8.67
240.691	6.45
241.073	8.78
241.456	6.29
241.838	6.24
242.221	7.02
242.603	7.26
242.986	6.83
243.368	6.85
243.75	6.67
244.133	6.19
244.515	5.95
244.897	6.1
245.279	6.35
245.661	6.37
246.043	5.42
246.425	6.32
246.807	6.03
247.189	6.25
247.571	6.26
247.953	6.75
248.335	6.29
248.717	5.99
249.098	5.63
249.48	6.02
249.862	6.33
250.243	6.27
250.625	6.4
251.006	6.71
251.388	6.32
251.769	6.63
252.151	6.47
252.532	6.72
252.913	6.42
253.295	5.16
253.676	5.96
254.057	6.21
254.438	6.18
254.819	6.16
255.2	5.43
255.581	6.73
255.962	6.36
256.343	6.27
256.724	5.32
257.105	5.86
257.486	5.98
257.867	4.93
258.247	5.49
258.628	6.36
259.009	5.36
259.389	5.91
259.77	5.85
260.15	6.28
260.531	5.93
260.911	5.83
261.292	5.62
261.672	5.81
262.052	5.85
262.432	5.76
262.813	5.66
263.193	5.91
263.573	6.07
263.953	5.64
264.333	6.2
264.713	6.19
265.093	6.42
265.473	6.21
265.853	5.51
266.233	5.88
266.612	6.02
266.992	5.41
267.372	5.64
267.752	5.67
268.131	5.47
268.511	6.17
268.89	6.09
269.27	5.47
269.649	5.27
270.029	5.45
270.408	6.05
270.787	5.94
271.167	6.07
271.546	5.6
271.925	6.28
272.304	6.3
272.683	5.26
273.062	5.94
273.441	5.75
273.82	5.97
274.199	5.91
274.578	5.88
274.957	5.92
275.336	5.93
275.715	5.81
276.093	5.58
276.472	5.63
276.851	5.43
277.229	5.69
277.608	5.25
277.986	5.47
278.365	5.46
278.743	5.97
279.122	5.79
279.5	5.21
279.878	4.66
280.257	5.55
280.635	5.53
281.013	6.19
281.391	6.13
281.769	5.67
282.147	5.85
282.525	5.62
282.903	4.95
283.281	5.85
283.659	5.51
284.037	5.78
284.415	5.14
284.792	5.62
285.17	5.3
285.548	5.29
285.925	4.66
286.303	5.06
286.68	4.95
287.058	5.9
287.435	5.22
287.813	5.09
288.19	5.61
288.567	5.49
288.945	6.03
289.322	5.94
289.699	5.23
290.076	5.98
290.453	5.51
290.83	5.09
291.207	5.71
291.584	5.06
291.961	4.97
292.338	5.22
292.715	5.24
293.092	5.5
293.469	5.5
293.845	5.45
294.222	5.18
294.599	5.4
294.975	5.42
295.352	5.4
295.728	4.86
296.105	5
296.481	5.53
296.858	5.14
297.234	5.51
297.61	4.78
297.986	5.07
298.363	5.38
298.739	5.14
299.115	5.17
299.491	5.2
299.867	5.5
300.243	5.21
300.619	5.42
300.995	5.48
301.371	5.49
301.746	5.59
302.122	4.98
302.498	5.21
302.874	5.29
303.249	5.12
303.625	5.27
304	5.51
304.376	4.78
304.751	4.92
305.127	4.45
305.502	5.8
305.878	5.37
306.253	5.4
306.628	5.34
307.003	5.36
307.378	5.22
307.754	4.92
308.129	5.4
308.504	5.27
308.879	5.16
309.254	5.64
309.629	4.6
310.003	4.53
310.378	5.28
310.753	5.31
311.128	5.3
311.502	4.97
311.877	5.1
312.252	4.74
312.626	5.63
313.001	5.07
313.375	4.82
313.75	5.08
314.124	4.61
314.498	5.11
314.873	4.95
315.247	4.93
315.621	4.87
315.995	5.21
316.369	4.96
316.743	5.1
317.117	5.11
317.491	4.5
317.865	5.15
318.239	5.76
318.613	5.03
318.987	5.03
319.361	4.72
319.734	4.85
320.108	4.29
320.482	4.99
320.855	5.14
321.229	5.55
321.602	4.69
321.976	4.79
322.349	5.11
322.723	5.3
323.096	5.04
323.469	4.78
323.843	5.03
324.216	5.16
324.589	4.86
324.962	5.47
325.335	4.65
325.708	4.46
326.081	4.73
326.454	5.19
326.827	5.04
327.2	5.7
327.573	5.33
327.945	4.87
328.318	4.8
328.691	4.52
329.063	4.99
329.436	4.28
329.809	4.98
330.181	5.01
330.553	4.86
330.926	5.15
331.298	4.54
331.671	4.24
332.043	4.66
332.415	5.06
332.787	5.04
333.159	4.56
333.532	5.32
333.904	5
334.276	4.48
334.648	4.9
335.02	5.24
335.391	4.84
335.763	4.72
336.135	4.89
336.507	5.19
336.879	4.76
337.25	4.43
337.622	5.07
337.993	5.4
338.365	4.73
338.736	4.89
339.108	5.2
339.479	4.76
339.851	5.03
340.222	4.71
340.593	4.27
340.964	4.53
341.336	5.1
341.707	5.26
342.078	4.97
342.449	4.74
342.82	4.36
343.191	4.74
343.562	4.79
343.933	5.01
344.303	4.83
344.674	5.15
345.045	4.99
345.416	4.65
345.786	4.76
346.157	4.79
346.527	4.69
346.898	4.8
347.268	4.98
347.639	5.07
348.009	4.91
348.38	5.13
348.75	4.82
349.12	4.79
349.49	4.93
349.861	5.13
350.231	4.77
350.601	4.97
350.971	5.13
351.341	4.8
351.711	5.5
352.081	5
352.45	4.95
352.82	4.9
353.19	5.12
353.56	5.01
353.929	4.68
354.299	4.69
354.669	4.59
355.038	5.2
355.408	5.25
355.777	4.87
356.147	4.72
356.516	5.15
356.885	4.76
357.254	4.95
357.624	4.99
357.993	4.67
358.362	4.65
358.731	4.75
359.1	4.64
359.469	4.67
359.838	4.92
360.207	4.88
360.576	5.31
360.945	4.81
361.314	5.01
361.682	4.74
362.051	4.75
362.42	4.87
362.788	5
363.157	4.8
363.525	4.54
363.894	4.88
364.262	4.84
364.631	4.89
364.999	4.98
365.367	4.83
365.735	4.83
366.104	4.76
366.472	4.9
366.84	5.15
367.208	4.87
367.576	5
367.944	4.91
368.312	4.64
368.68	4.89
369.048	5.15
369.416	5.19
369.783	5.1
370.151	5.05
370.519	4.75
370.886	4.95
371.254	5.08
371.621	4.8
371.989	4.68
372.356	4.98
372.724	5.4
373.091	4.94
373.458	4.98
373.826	4.84
374.193	5.13
374.56	4.52
374.927	5.11
375.294	4.93
375.661	5.32
376.028	5.4
376.395	5.18
376.762	5.03
377.129	5.05
377.496	5.05
377.863	5
378.229	5.39
378.596	5.15
378.963	5.14
379.329	5.3
379.696	4.94
380.062	5.09
380.429	4.86
380.795	4.8
381.161	5.02
381.528	5.42
381.894	4.93
382.26	5.05
382.626	5.24
382.993	5.16
383.359	4.96
383.725	5.27
384.091	5.11
384.457	5.06
384.823	5.22
385.188	5.36
385.554	5
385.92	4.86
386.286	5.49
386.651	5.12
387.017	5.2
387.383	4.89
387.748	4.91
388.114	4.92
388.479	5.11
388.845	5.15
389.21	5.15
389.575	4.76
389.94	5.11
390.306	5.14
390.671	5.04
391.036	5.14
391.401	5.23
391.766	5.16
392.131	5.09
392.496	4.9
392.861	5.18
393.226	5.28
393.591	5.08
393.956	5.22
394.32	5.41
394.685	5.27
395.05	5.27
395.414	5.26
395.779	5.19
396.143	5.29
396.508	5.07
396.872	5.39
397.236	4.92
397.601	5.26
397.965	5.06
398.329	5.25
398.694	5.26
399.058	5.22
399.422	5.32
399.786	5.41
400.15	5.27
400.514	5.15
400.878	5.74
401.242	5.45
401.605	5.41
401.969	5.06
402.333	5.12
402.697	5.35
403.06	5.2
403.424	5.36
403.787	5.19
404.151	5.48
404.514	5.31
404.878	5.56
405.241	5.27
405.604	5.11
405.968	5.52
406.331	5.38
406.694	5.27
407.057	5.09
407.42	5.66
407.783	5.47
408.146	5.26
408.509	5.26
408.872	5.57
409.235	5.53
409.598	5.45
409.961	5.29
410.323	5.31
410.686	5.22
411.049	5.33
411.411	5.32
411.774	5.66
412.136	5.34
412.499	5.29
412.861	5.32
413.223	5.46
413.586	5.32
413.948	5.5
414.31	5.62
414.672	5.4
415.035	5.41
415.397	5.42
415.759	5.49
416.121	5.45
416.483	5.53
416.845	5.38
417.206	5.56
417.568	5.69
417.93	5.39
418.292	5.34
418.653	5.7
419.015	5.49
419.377	5.46
419.738	5.37
420.1	5.51
420.461	5.4
420.822	5.41
421.184	5.31
421.545	5.41
421.906	5.4
422.267	5.41
422.629	5.5
422.99	5.29
423.351	5.36
423.712	5.34
424.073	5.47
424.434	5.35
424.795	5.29
425.155	5.47
425.516	5.43
425.877	5.57
426.238	5.41
426.598	5.42
426.959	5.4
427.32	5.44
427.68	5.46
428.041	5.43
428.401	5.52
428.761	5.47
429.122	5.58
429.482	5.48
429.842	5.6
430.202	5.66
430.563	5.53
430.923	5.75
431.283	5.61
431.643	5.72
432.003	5.8
432.363	5.49
432.722	5.47
433.082	5.47
433.442	5.59
433.802	5.79
434.161	5.39
434.521	5.63
434.881	5.59
435.24	5.65
435.6	5.46
435.959	5.53
436.319	5.6
436.678	5.57
437.037	5.61
437.396	5.67
437.756	5.71
438.115	5.5
438.474	5.58
438.833	5.81
439.192	5.45
439.551	5.57
439.91	5.72
440.269	5.74
440.628	5.72
440.987	5.72
441.345	5.58
441.704	5.67
442.063	5.55
442.421	5.56
442.78	5.62
443.138	5.72
443.497	5.68
443.855	5.77
444.214	5.64
444.572	5.7
444.93	5.79
445.288	5.58
445.647	5.75
446.005	5.48
446.363	5.59
446.721	5.66
447.079	5.69
447.437	5.65
447.795	5.48
448.153	5.64
448.51	5.66
448.868	5.58
449.226	5.57
449.584	5.63
449.941	5.6
450.299	5.78
450.656	5.66
451.014	5.65
451.371	5.66
451.729	5.64
452.086	5.65
452.443	5.85
452.801	5.66
453.158	5.84
453.515	5.79
453.872	5.62
454.229	5.78
454.586	5.62
454.943	5.76
455.3	5.64
455.657	5.82
456.014	5.63
456.371	5.94
456.727	5.87
457.084	5.83
457.441	5.85
457.797	5.79
458.154	5.86
458.51	5.7
458.867	5.64
459.223	5.71
459.58	5.85
459.936	5.79
460.292	5.82
460.648	5.7
461.005	5.68
461.361	5.73
461.717	5.59
462.073	5.65
462.429	5.75
462.785	5.82
463.141	5.81
463.496	5.76
463.852	5.79
464.208	5.94
464.564	5.79
464.919	5.87
465.275	5.87
465.631	6.06
465.986	6.03
466.342	5.92
466.697	5.91
467.052	5.94
467.408	5.93
467.763	5.75
468.118	6.1
468.473	5.91
468.829	5.97
469.184	5.89
469.539	5.82
469.894	5.98
470.249	5.97
470.603	5.86
470.958	5.93
471.313	6.1
471.668	5.94
472.023	5.99
472.377	5.89
472.732	5.82
473.086	5.97
473.441	5.97
473.795	6.1
474.15	5.88
474.504	5.84
474.859	5.89
475.213	6.01
475.567	5.91
475.921	5.95
476.275	5.85
476.63	6.14
476.984	6.01
477.338	5.92
477.692	6.03
478.045	5.91
478.399	5.94
478.753	6.04
479.107	6.01
479.461	5.93
479.814	6.02
480.168	5.98
480.521	6.03
480.875	5.96
481.228	5.94
481.582	5.9
481.935	5.83
482.289	5.91
482.642	5.96
482.995	5.93
483.348	5.99
483.701	5.93
484.055	5.91
484.408	5.89
484.761	5.83
485.114	5.78
485.466	5.71
485.819	5.64
486.172	5.51
486.525	5.6
486.878	5.68
487.23	5.71
487.583	5.76
487.936	5.78
488.288	5.81
488.641	5.85
488.993	5.74
489.345	5.75
489.698	5.71
490.05	5.71
490.402	5.69
490.754	5.77
491.107	5.79
491.459	5.88
491.811	5.89
492.163	5.87
492.515	5.96
492.866	5.95
493.218	5.84
493.57	5.78
493.922	5.76
494.274	5.8
494.625	5.87
494.977	5.87
495.328	5.95
495.68	6.07
496.031	5.86
496.383	6.11
496.734	6.06
497.086	6.23
497.437	6.04
497.788	6
498.139	6.26
498.49	6.06
498.842	6
499.193	6.06
499.544	6.1
499.894	6.06
500.245	6
500.596	6.13
500.947	6.17
501.298	6.06
501.648	6.01
501.999	6.18
502.35	6.15
502.7	6.19
503.051	6.2
503.401	6.2
503.752	6.2
504.102	6.15
504.452	6.2
504.803	6.05
505.153	6.17
505.503	6.26
505.853	6.16
506.203	6.09
506.553	6.13
506.903	6.18
507.253	6.25
507.603	6.16
507.953	6.14
508.303	6.16
508.652	6.06
509.002	6.21
509.352	6.3
509.701	6.19
510.051	6.13
510.4	6.27
510.75	6.08
511.099	6.14
511.449	6.16
511.798	6.22
512.147	6.18
512.496	6.16
512.846	6.08
513.195	6.15
513.544	6.17
513.893	6.04
514.242	6.16
514.591	6.25
514.939	6.12
515.288	6.08
515.637	6.16
515.986	6.31
516.334	6.27
516.683	6.08
517.032	6
517.38	6.1
517.729	6.29
518.077	6.16
518.426	6.2
518.774	6.1
519.122	6.09
519.47	6.15
519.819	6.1
520.167	6.15
520.515	6.2
520.863	6.09
521.211	6.11
521.559	6.14
521.907	6.11
522.255	6.18
522.602	6.2
522.95	6.19
523.298	6.25
523.645	6.27
523.993	6.23
524.341	6.24
524.688	6.26
525.036	6.38
525.383	6.19
525.73	6.41
526.078	6.34
526.425	6.36
526.772	6.18
527.119	6.29
527.466	6.12
527.814	6.21
528.161	6.18
528.508	6.19
528.854	6.07
529.201	6.07
529.548	6.15
529.895	6.13
530.242	6.08
530.588	5.96
530.935	5.96
531.282	6
531.628	6.04
531.975	6.06
532.321	6.1
532.667	6.14
533.014	6.18
533.36	6.25
533.706	6.29
534.052	6.21
534.399	6.11
534.745	6.11
535.091	6.1
535.437	6.09
535.783	6.14
536.129	6.16
536.474	6.19
536.82	6.15
537.166	6.27
537.512	6.22
537.857	6.29
538.203	6.38
538.549	6.33
538.894	6.25
539.239	6.19
539.585	6.26
539.93	6.37
540.276	6.42
540.621	6.39
540.966	6.36
541.311	6.36
541.656	6.37
542.001	6.4
542.346	6.37
542.691	6.22
543.036	6.19
543.381	6.2
543.726	6.08
544.071	6.18
544.415	6.16
544.76	6.18
545.105	6.29
545.449	6.28
545.794	6.33
546.138	6.26
546.483	6.34
546.827	6.39
547.171	6.43
547.516	6.35
547.86	6.38
548.204	6.33
548.548	6.34
548.892	6.38
549.236	6.36
549.58	6.37
549.924	6.38
550.268	6.43
550.612	6.51
550.956	6.63
551.3	6.51
551.643	6.42
551.987	6.56
552.33	6.47
552.674	6.51
553.017	6.29
553.361	6.61
553.704	6.57
554.048	6.63
554.391	6.67
554.734	6.61
555.077	6.56
555.42	6.31
555.764	6.44
556.107	6.53
556.45	6.6
556.793	6.49
557.135	6.44
557.478	6.45
557.821	6.5
558.164	6.73
558.507	6.62
558.849	6.67
559.192	6.55
559.534	6.8
559.877	6.39
560.219	6.55
560.562	6.43
560.904	6.45
561.246	6.63
561.589	6.38
561.931	6.68
562.273	6.76
562.615	6.75
562.957	6.68
563.299	6.6
563.641	6.75
563.983	6.42
564.325	6.6
564.667	6.61
565.008	6.54
565.35	6.67
565.692	6.6
566.033	6.71
566.375	6.59
566.716	6.6
567.058	6.73
567.399	6.9
567.741	6.43
568.082	6.79
568.423	6.7
568.764	6.53
569.105	6.63
569.447	6.55
569.788	6.59
570.129	6.71
570.47	6.85
570.811	6.79
571.151	6.71
571.492	6.85
571.833	6.86
572.174	6.65
572.514	6.58
572.855	6.42
573.195	6.48
573.536	6.66
573.876	6.74
574.217	6.62
574.557	6.59
574.898	6.52
575.238	6.61
575.578	6.6
575.918	6.57
576.258	6.74
576.598	6.62
576.938	6.6
577.278	6.72
577.618	6.53
577.958	6.53
578.298	6.57
578.638	6.81
578.977	6.66
579.317	6.68
579.657	6.69
579.996	6.68
580.336	6.87
580.675	6.51
581.014	6.63
581.354	6.77
581.693	6.69
582.032	6.78
582.372	6.8
582.711	6.99
583.05	6.99
583.389	6.57
583.728	6.74
584.067	6.97
584.406	6.69
584.745	6.71
585.083	6.73
585.422	6.75
585.761	6.55
586.1	6.84
586.438	6.54
586.777	6.82
587.115	6.91
587.454	6.86
587.792	6.77
588.13	6.73
588.469	6.85
588.807	6.58
589.145	6.66
589.483	6.59
589.821	6.69
590.159	6.89
590.497	6.8
590.835	6.67
591.173	6.82
591.511	6.73
591.849	6.63
592.187	6.84
592.524	6.51
592.862	6.71
593.2	6.87
593.537	6.54
593.875	6.55
594.212	6.78
594.55	6.84
594.887	7.01
595.224	6.69
595.561	6.55
595.899	6.52
596.236	6.79
596.573	6.97
596.91	6.8
597.247	6.64
597.584	6.54
597.921	6.78
598.258	6.9
598.594	6.99
598.931	6.73
599.268	6.69
599.604	6.81
599.941	6.88
600.277	6.64
600.614	6.8
600.95	6.76
601.287	6.83
601.623	6.83
601.959	7.19
602.296	7.15
602.632	7.01
602.968	6.87
603.304	7.11
603.64	6.6
603.976	6.86
604.312	6.94
604.648	6.65
604.984	6.98
605.319	6.83
605.655	6.64
605.991	6.82
606.326	6.69
606.662	6.54
606.998	6.72
607.333	6.71
607.668	6.49
608.004	6.68
608.339	6.68
608.674	6.94
609.01	6.89
609.345	7.06
609.68	7
610.015	6.78
610.35	6.75
610.685	7.12
611.02	6.69
611.355	6.76
611.689	6.81
612.024	6.79
612.359	6.79
612.694	6.91
613.028	6.93
613.363	6.84
613.697	6.76
614.032	6.87
614.366	6.98
614.7	7.01
615.035	6.72
615.369	6.93
615.703	6.72
616.037	6.95
616.371	6.73
616.705	7.09
617.039	7.11
617.373	6.86
617.707	6.85
618.041	7.09
618.375	6.89
618.709	6.75
619.042	6.71
619.376	7.18
619.71	7
620.043	7.28
620.377	6.86
620.71	7.1
621.043	6.92
621.377	6.65
621.71	7.19
622.043	6.89
622.376	6.74
622.709	6.88
623.043	7.12
623.376	6.82
623.709	6.65
624.041	7.1
624.374	6.98
624.707	6.8
625.04	7.18
625.373	7
625.705	6.43
626.038	6.96
626.37	6.53
626.703	7.01
627.035	6.67
627.368	6.9
627.7	7.09
628.032	6.72
628.365	6.94
628.697	6.91
629.029	6.99
629.361	6.89
629.693	6.87
630.025	7.02
630.357	6.93
630.689	6.89
631.021	7.31
631.353	7.16
631.684	6.67
632.016	7.04
632.348	7.06
632.679	6.79
633.011	6.76
633.342	6.87
633.674	6.97
634.005	6.91
634.336	7.46
634.668	6.58
634.999	6.72
635.33	6.81
635.661	7.28
635.992	6.97
636.323	7.09
636.654	6.99
636.985	6.99
637.316	7.18
637.647	7.1
637.977	6.68
638.308	6.76
638.639	6.86
638.969	7.17
639.3	6.89
639.63	7.07
639.961	7.17
640.291	6.84
640.622	7.23
640.952	6.96
641.282	6.85
641.612	6.73
641.943	7.25
642.273	6.76
642.603	7.25
642.933	7.11
643.263	7.28
643.592	7.08
643.922	7.37
644.252	6.77
644.582	6.77
644.911	7.33
645.241	7.43
645.571	7.38
645.9	6.93
646.23	6.66
646.559	6.47
646.888	7.41
647.218	7.15
647.547	6.56
647.876	6.99
648.205	7.39
648.534	7.06
648.863	7.1
649.192	6.21
649.521	6.5
649.85	7.33
650.179	6.8
650.508	7.14
650.837	7.23
651.165	7.14
651.494	6.82
651.822	7.2
652.151	7.34
652.479	7.25
652.808	6.78
653.136	6.81
653.465	7.48
653.793	7.52
654.121	7.62
654.449	7.27
654.777	7.22
655.105	7.07
655.433	7.63
655.761	7.23
656.089	7.47
656.417	7.06
656.745	7.5
657.073	6.77
657.4	7.99
657.728	7.32
658.056	7.01
658.383	7.56
658.711	7.26
659.038	7.22
659.365	7.12
659.693	6.91
660.02	7.26
660.347	6.9
660.674	6.45
661.001	6.95
661.329	7.25
661.656	7.07
661.982	7.1
662.309	7.11
662.636	7.13
662.963	7.21
663.29	7.56
663.616	7.67
663.943	7.22
664.27	7.06
664.596	7.28
664.923	7.14
665.249	7.57
665.576	7.07
665.902	7.15
666.228	7.15
666.554	7.35
666.881	7.01
667.207	7.26
667.533	7.27
667.859	7.74
668.185	7.23
668.511	7.7
668.837	7.49
669.162	7.56
669.488	6.78
669.814	6.76
670.139	7.23
670.465	7.06
670.791	7.73
671.116	7.54
671.442	7.46
671.767	7.43
672.092	7.39
672.418	7.43
672.743	6.37
673.068	6.97
673.393	6.82
673.718	7.18
674.043	7.19
674.368	7.4
674.693	7.31
675.018	7.45
675.343	6.8
675.667	7.08
675.992	7.89
676.317	7.54
676.641	7.42
676.966	8.14
677.29	7.94
677.615	7.45
677.939	7.09
678.264	7.62
678.588	7.46
678.912	7.75
679.236	7.55
679.56	7.26
679.885	7.34
680.209	7.67
680.532	7.12
680.856	7.3
681.18	7.69
681.504	7.31
681.828	7.35
682.152	7.62
682.475	7.16
682.799	7.53
683.122	7.45
683.446	7.86
683.769	7.96
684.093	7.26
684.416	7.11
684.739	6.97
685.062	6.81
685.386	7.21
685.709	7.27
686.032	7.25
686.355	7.57
686.678	7.18
687.001	7.57
687.324	7.57
687.646	7.19
687.969	7.76
688.292	7.84
688.614	7.54
688.937	7.73
689.26	7.11
689.582	7.4
689.904	7.07
690.227	7.72
690.549	7.26
690.871	7.17
691.194	7.68
691.516	7.34
691.838	8.26
692.16	7.37
692.482	7.56
692.804	7.74
