Data from 0356_crown_Reflection__3__70.txt Node

Date: Mon Dec 11 18:29:16 CST 2023
User: ToomeyLab
Spectrometer: FLMS14357
Trigger mode: 0
Integration Time (sec): 1.000000E-2
Scans to average: 100
Electric dark correction enabled: true
Nonlinearity correction enabled: false
Boxcar width: 0
XAxis mode: Wavelengths
Number of Pixels in Spectrum: 2048
>>>>>Begin Spectral Data<<<<<
189.047	65.39
189.435	65.39
189.823	65.39
190.211	145.46
190.599	140.28
190.987	332.05
191.375	110.21
191.763	143.86
192.151	9679.17
192.538	1157.77
192.926	-100.5
193.314	3562.5
193.702	58.4
194.089	-74.77
194.477	546.04
194.864	58.85
195.252	120.55
195.639	96.51
196.027	30.79
196.414	-193.65
196.801	-135.38
197.189	178.85
197.576	41.71
197.963	248.95
198.351	-1.57
198.738	14.89
199.125	-41.36
199.512	4.6
199.899	30.27
200.286	19.76
200.673	-139.27
201.06	16.04
201.447	36.99
201.833	14.24
202.22	60.06
202.607	15.8
202.994	-82.54
203.38	-28.4
203.767	40.57
204.154	22.75
204.54	19.53
204.927	11.21
205.313	-15.68
205.699	-54.4
206.086	-5.24
206.472	35.92
206.858	40.3
207.245	-3.78
207.631	-3.97
208.017	11.47
208.403	1.4
208.789	-39
209.175	10.36
209.561	34.11
209.947	-2.93
210.333	35.11
210.719	14.59
211.105	25.52
211.491	20.86
211.876	15.48
212.262	5.42
212.648	-1.21
213.034	-28.53
213.419	8.94
213.805	-0.14
214.19	-11.39
214.576	-29.81
214.961	1.66
215.346	-24.34
215.732	-18.53
216.117	27.71
216.502	-3.6
216.888	32.03
217.273	18.27
217.658	6.83
218.043	-3.4
218.428	9.17
218.813	7.25
219.198	17.55
219.583	-2.18
219.968	13
220.353	-32.21
220.738	18.54
221.122	11.57
221.507	20.5
221.892	3.82
222.276	-2.77
222.661	-13.47
223.046	-11.72
223.43	17.66
223.815	4.13
224.199	-2.2
224.583	-2.34
224.968	13.22
225.352	13.83
225.736	-4.25
226.121	10.68
226.505	2.98
226.889	6.64
227.273	9.18
227.657	14.36
228.041	4.14
228.425	3.09
228.809	4.29
229.193	8.83
229.577	5.35
229.961	5.74
230.344	5.85
230.728	5.61
231.112	6.03
231.495	6.22
231.879	5.19
232.263	5.85
232.646	5.45
233.03	5.93
233.413	4.52
233.797	8.53
234.18	5.65
234.563	7.15
234.946	4.98
235.33	5.37
235.713	5.38
236.096	4.91
236.479	5.19
236.862	4.76
237.245	7.91
237.628	7.1
238.011	6.08
238.394	7.18
238.777	4.23
239.16	5.69
239.543	7.27
239.925	6.07
240.308	4.8
240.691	4.9
241.073	7.45
241.456	6.19
241.838	5.73
242.221	5.05
242.603	5.32
242.986	5.22
243.368	5.22
243.75	5.8
244.133	5.36
244.515	4.94
244.897	5.19
245.279	5.14
245.661	5.1
246.043	5.12
246.425	6.02
246.807	6.13
247.189	5
247.571	5.65
247.953	5.18
248.335	5.07
248.717	5.49
249.098	5.15
249.48	5.16
249.862	5.44
250.243	5.31
250.625	5.09
251.006	4.95
251.388	5.63
251.769	6.44
252.151	6.56
252.532	6.06
252.913	6.2
253.295	6.18
253.676	5.14
254.057	5.03
254.438	5.14
254.819	4.83
255.2	4.26
255.581	4.83
255.962	4.13
256.343	3.92
256.724	3.97
257.105	5.04
257.486	4.78
257.867	5.47
258.247	4.48
258.628	5.2
259.009	5.39
259.389	5.37
259.77	5.2
260.15	4.79
260.531	4.83
260.911	4.32
261.292	4.85
261.672	4.96
262.052	4.93
262.432	4.81
262.813	4.95
263.193	4.66
263.573	5.1
263.953	4.97
264.333	4.24
264.713	5.08
265.093	4.51
265.473	4.51
265.853	4.94
266.233	4.06
266.612	5.32
266.992	5.68
267.372	6
267.752	5.12
268.131	5.17
268.511	4.39
268.89	5.09
269.27	5.08
269.649	4.23
270.029	5.64
270.408	4.3
270.787	4.35
271.167	3.89
271.546	5.21
271.925	4.95
272.304	4.83
272.683	4.91
273.062	4.7
273.441	4.41
273.82	4.35
274.199	4.62
274.578	4.42
274.957	4.79
275.336	4.04
275.715	4.38
276.093	4.89
276.472	5.29
276.851	4.69
277.229	5.37
277.608	4.38
277.986	4.83
278.365	4.41
278.743	4.48
279.122	4.35
279.5	4.52
279.878	4.18
280.257	4.19
280.635	4.51
281.013	4.74
281.391	5.39
281.769	3.93
282.147	4.24
282.525	4.4
282.903	4.77
283.281	5.09
283.659	4.53
284.037	4.26
284.415	4.51
284.792	4.82
285.17	4.97
285.548	4.2
285.925	4.38
286.303	4.38
286.68	4.13
287.058	4.91
287.435	4.81
287.813	4.9
288.19	4.44
288.567	4.54
288.945	4.57
289.322	3.87
289.699	4.11
290.076	4.03
290.453	4.71
290.83	4.99
291.207	4.44
291.584	4.47
291.961	4.57
292.338	4.53
292.715	4.53
293.092	4.42
293.469	4.44
293.845	4.57
294.222	5.12
294.599	4.39
294.975	4.09
295.352	4.18
295.728	4.46
296.105	4.16
296.481	4.24
296.858	4.29
297.234	4.89
297.61	4.42
297.986	4.27
298.363	4.5
298.739	4.63
299.115	4.02
299.491	4.58
299.867	4.33
300.243	4.54
300.619	4.53
300.995	4.24
301.371	4.39
301.746	3.9
302.122	4.49
302.498	4.7
302.874	4.7
303.249	4.34
303.625	4.1
304	4.34
304.376	4.56
304.751	4.09
305.127	4.16
305.502	4.97
305.878	4.61
306.253	4.86
306.628	4.53
307.003	4.7
307.378	4.03
307.754	4.44
308.129	4.38
308.504	3.49
308.879	4.32
309.254	4.69
309.629	4.48
310.003	4.6
310.378	4.02
310.753	4.21
311.128	4.16
311.502	4.03
311.877	4.26
312.252	4.28
312.626	4.48
313.001	4.32
313.375	4.09
313.75	4.42
314.124	4.4
314.498	4.41
314.873	4.17
315.247	3.96
315.621	4.78
315.995	4.51
316.369	4.35
316.743	4.62
317.117	4.52
317.491	4.57
317.865	3.84
318.239	4.94
318.613	4.28
318.987	4.18
319.361	4.35
319.734	4.86
320.108	4.36
320.482	4.56
320.855	4.42
321.229	4.24
321.602	4.15
321.976	4.54
322.349	3.95
322.723	4.51
323.096	4.65
323.469	4.81
323.843	4.72
324.216	4.84
324.589	4.16
324.962	4.07
325.335	4.43
325.708	4.84
326.081	5.03
326.454	4.39
326.827	4.31
327.2	3.97
327.573	3.82
327.945	4.55
328.318	4.16
328.691	4.38
329.063	4.62
329.436	3.82
329.809	4.57
330.181	4.6
330.553	4.11
330.926	3.94
331.298	4.74
331.671	4.69
332.043	4.51
332.415	4.34
332.787	4.57
333.159	3.92
333.532	3.9
333.904	4.42
334.276	4.31
334.648	4.55
335.02	4.49
335.391	4.19
335.763	4.36
336.135	4.75
336.507	4.15
336.879	4.56
337.25	4.02
337.622	4.29
337.993	4.38
338.365	3.88
338.736	4.22
339.108	4.45
339.479	4.24
339.851	4.47
340.222	4.53
340.593	3.96
340.964	4.64
341.336	4.31
341.707	4.19
342.078	4.44
342.449	4.06
342.82	3.9
343.191	3.87
343.562	4.3
343.933	4.11
344.303	4.1
344.674	4.58
345.045	4.52
345.416	4.05
345.786	4.33
346.157	4.09
346.527	4.56
346.898	4.13
347.268	4.05
347.639	4.38
348.009	4.49
348.38	4.11
348.75	4.06
349.12	4.44
349.49	4.49
349.861	3.98
350.231	4.54
350.601	4.47
350.971	4.83
351.341	3.7
351.711	4.42
352.081	4.15
352.45	4.3
352.82	4.01
353.19	4.41
353.56	4.1
353.929	4.44
354.299	4.75
354.669	4.43
355.038	3.95
355.408	4.07
355.777	4.35
356.147	4.33
356.516	4.33
356.885	4.26
357.254	4.43
357.624	4.5
357.993	4.2
358.362	4.42
358.731	4.43
359.1	4.25
359.469	4.17
359.838	4.43
360.207	4.13
360.576	4.24
360.945	4.81
361.314	4.6
361.682	4.12
362.051	4.08
362.42	4.28
362.788	4.28
363.157	4.5
363.525	4.17
363.894	4.21
364.262	4.18
364.631	4.48
364.999	4.37
365.367	4.45
365.735	4.25
366.104	4.35
366.472	4.52
366.84	4.17
367.208	4.11
367.576	4.64
367.944	4.74
368.312	4.57
368.68	4.38
369.048	4.28
369.416	4.21
369.783	4.19
370.151	4.81
370.519	4.86
370.886	4.61
371.254	4.53
371.621	4.68
371.989	4.31
372.356	4.55
372.724	4.76
373.091	4.83
373.458	4.53
373.826	4.48
374.193	4.28
374.56	4.6
374.927	4.91
375.294	4.44
375.661	4.34
376.028	4.54
376.395	4.88
376.762	4.44
377.129	4.81
377.496	4.65
377.863	4.6
378.229	4.83
378.596	4.51
378.963	4.94
379.329	4.73
379.696	4.79
380.062	4.29
380.429	4.26
380.795	4.48
381.161	4.52
381.528	4.35
381.894	4.74
382.26	4.73
382.626	4.54
382.993	4.74
383.359	4.61
383.725	4.21
384.091	4.69
384.457	4.38
384.823	4.79
385.188	4.61
385.554	4.19
385.92	4.62
386.286	4.67
386.651	4.57
387.017	4.56
387.383	4.73
387.748	4.9
388.114	4.82
388.479	4.62
388.845	4.62
389.21	4.78
389.575	5.04
389.94	4.86
390.306	4.61
390.671	4.7
391.036	4.96
391.401	4.78
391.766	4.82
392.131	4.69
392.496	4.9
392.861	4.61
393.226	4.73
393.591	4.88
393.956	4.69
394.32	4.52
394.685	4.75
395.05	4.63
395.414	4.97
395.779	4.49
396.143	4.61
396.508	4.52
396.872	4.66
397.236	4.82
397.601	4.86
397.965	4.61
398.329	4.7
398.694	4.76
399.058	4.81
399.422	4.69
399.786	4.85
400.15	4.62
400.514	5.06
400.878	4.79
401.242	4.79
401.605	4.71
401.969	4.68
402.333	4.77
402.697	4.78
403.06	4.85
403.424	4.91
403.787	5.1
404.151	4.73
404.514	4.61
404.878	4.75
405.241	4.68
405.604	4.77
405.968	4.64
406.331	4.51
406.694	4.68
407.057	4.66
407.42	5.11
407.783	4.99
408.146	4.83
408.509	4.8
408.872	4.65
409.235	4.86
409.598	4.9
409.961	4.8
410.323	4.95
410.686	4.98
411.049	5.01
411.411	4.94
411.774	4.99
412.136	4.89
412.499	5.02
412.861	5.04
413.223	4.91
413.586	5.06
413.948	4.79
414.31	4.85
414.672	4.63
415.035	4.93
415.397	4.7
415.759	5.07
416.121	4.98
416.483	5.12
416.845	5
417.206	4.8
417.568	5.01
417.93	5.18
418.292	4.72
418.653	4.64
419.015	4.81
419.377	4.92
419.738	4.96
420.1	4.79
420.461	4.81
420.822	4.8
421.184	4.74
421.545	4.84
421.906	4.77
422.267	4.84
422.629	4.78
422.99	4.88
423.351	4.74
423.712	4.69
424.073	4.8
424.434	4.73
424.795	4.95
425.155	4.77
425.516	4.81
425.877	4.74
426.238	4.71
426.598	4.77
426.959	4.8
427.32	4.93
427.68	4.87
428.041	4.6
428.401	4.83
428.761	4.98
429.122	4.77
429.482	4.91
429.842	4.96
430.202	5.04
430.563	4.92
430.923	5.05
431.283	5.02
431.643	5.23
432.003	5.09
432.363	5.11
432.722	5.04
433.082	5.12
433.442	5.09
433.802	5.01
434.161	5.15
434.521	4.83
434.881	5.06
435.24	4.92
435.6	5.1
435.959	4.86
436.319	5
436.678	4.84
437.037	5.05
437.396	5.13
437.756	5.19
438.115	5.28
438.474	5.25
438.833	4.98
439.192	5.01
439.551	5.18
439.91	5.05
440.269	5.12
440.628	4.82
440.987	5.3
441.345	5.04
441.704	5.05
442.063	4.93
442.421	4.98
442.78	4.88
443.138	4.98
443.497	4.96
443.855	4.86
444.214	5.1
444.572	5.06
444.93	5.02
445.288	5.11
445.647	5.21
446.005	4.82
446.363	5.02
446.721	5.04
447.079	4.96
447.437	5.09
447.795	5.04
448.153	5
448.51	4.91
448.868	4.89
449.226	4.9
449.584	5.07
449.941	4.97
450.299	5.02
450.656	5.01
451.014	5.04
451.371	4.92
451.729	5.15
452.086	5.05
452.443	5.2
452.801	5.18
453.158	5.11
453.515	4.97
453.872	5.28
454.229	5.07
454.586	4.97
454.943	5.17
455.3	5.23
455.657	5.3
456.014	5.15
456.371	5.11
456.727	5.21
457.084	5.11
457.441	5.29
457.797	5.04
458.154	5.08
458.51	5.17
458.867	4.85
459.223	5.07
459.58	5.14
459.936	5.19
460.292	5.13
460.648	5.22
461.005	5.11
461.361	5.06
461.717	4.98
462.073	5.08
462.429	5.07
462.785	5.02
463.141	5.12
463.496	5.35
463.852	5.08
464.208	5.15
464.564	5.1
464.919	5.11
465.275	5.08
465.631	4.88
465.986	5.36
466.342	5.26
466.697	5.12
467.052	5.25
467.408	5.35
467.763	5.12
468.118	5.02
468.473	5.12
468.829	5.29
469.184	5.42
469.539	5.35
469.894	5.09
470.249	5.16
470.603	5.15
470.958	5.34
471.313	5.18
471.668	5.33
472.023	5.3
472.377	5.28
472.732	5.19
473.086	5.38
473.441	5.44
473.795	5.39
474.15	5.25
474.504	5.25
474.859	5.26
475.213	5.25
475.567	5.22
475.921	5.18
476.275	5.2
476.63	5.22
476.984	5.32
477.338	4.97
477.692	5.23
478.045	5.25
478.399	5.15
478.753	4.95
479.107	5.17
479.461	5.23
479.814	5.13
480.168	5.2
480.521	5.33
480.875	5.15
481.228	5.18
481.582	5.19
481.935	5.3
482.289	5.26
482.642	5.25
482.995	5.26
483.348	5.08
483.701	5.06
484.055	5.24
484.408	5.15
484.761	5.15
485.114	5.04
485.466	4.93
485.819	4.85
486.172	4.92
486.525	4.9
486.878	5.01
487.23	5.07
487.583	5.1
487.936	5.07
488.288	5.19
488.641	5.06
488.993	4.96
489.345	5.07
489.698	4.97
490.05	5.06
490.402	5
490.754	5.12
491.107	5.13
491.459	5.13
491.811	5.14
492.163	5.2
492.515	5.31
492.866	5.26
493.218	5.04
493.57	5.01
493.922	5.05
494.274	5.14
494.625	5.16
494.977	5.25
495.328	5.28
495.68	5.4
496.031	5.42
496.383	5.34
496.734	5.3
497.086	5.42
497.437	5.34
497.788	5.45
498.139	5.4
498.49	5.32
498.842	5.46
499.193	5.32
499.544	5.2
499.894	5.4
500.245	5.3
500.596	5.43
500.947	5.32
501.298	5.45
501.648	5.32
501.999	5.32
502.35	5.37
502.7	5.39
503.051	5.24
503.401	5.45
503.752	5.34
504.102	5.4
504.452	5.36
504.803	5.6
505.153	5.45
505.503	5.55
505.853	5.4
506.203	5.39
506.553	5.56
506.903	5.25
507.253	5.38
507.603	5.33
507.953	5.49
508.303	5.55
508.652	5.3
509.002	5.46
509.352	5.57
509.701	5.36
510.051	5.31
510.4	5.33
510.75	5.35
511.099	5.37
511.449	5.35
511.798	5.33
512.147	5.53
512.496	5.33
512.846	5.41
513.195	5.59
513.544	5.43
513.893	5.4
514.242	5.35
514.591	5.36
514.939	5.36
515.288	5.42
515.637	5.41
515.986	5.34
516.334	5.43
516.683	5.48
517.032	5.42
517.38	5.49
517.729	5.43
518.077	5.59
518.426	5.57
518.774	5.46
519.122	5.48
519.47	5.38
519.819	5.38
520.167	5.39
520.515	5.39
520.863	5.33
521.211	5.5
521.559	5.34
521.907	5.31
522.255	5.33
522.602	5.44
522.95	5.52
523.298	5.53
523.645	5.61
523.993	5.52
524.341	5.63
524.688	5.38
525.036	5.46
525.383	5.57
525.73	5.46
526.078	5.66
526.425	5.54
526.772	5.52
527.119	5.44
527.466	5.36
527.814	5.44
528.161	5.34
528.508	5.46
528.854	5.37
529.201	5.32
529.548	5.41
529.895	5.28
530.242	5.21
530.588	5.17
530.935	5.18
531.282	5.26
531.628	5.28
531.975	5.31
532.321	5.34
532.667	5.49
533.014	5.38
533.36	5.43
533.706	5.46
534.052	5.39
534.399	5.47
534.745	5.37
535.091	5.3
535.437	5.35
535.783	5.26
536.129	5.38
536.474	5.45
536.82	5.4
537.166	5.48
537.512	5.49
537.857	5.55
538.203	5.44
538.549	5.43
538.894	5.46
539.239	5.55
539.585	5.5
539.93	5.39
540.276	5.61
540.621	5.51
540.966	5.54
541.311	5.54
541.656	5.56
542.001	5.55
542.346	5.55
542.691	5.54
543.036	5.37
543.381	5.25
543.726	5.34
544.071	5.41
544.415	5.39
544.76	5.45
545.105	5.47
545.449	5.5
545.794	5.42
546.138	5.47
546.483	5.53
546.827	5.66
547.171	5.54
547.516	5.51
547.86	5.74
548.204	5.64
548.548	5.42
548.892	5.61
549.236	5.6
549.58	5.62
549.924	5.64
550.268	5.53
550.612	5.59
550.956	5.55
551.3	5.79
551.643	5.77
551.987	5.87
552.33	5.65
552.674	5.79
553.017	5.71
553.361	5.6
553.704	5.63
554.048	5.72
554.391	5.55
554.734	5.67
555.077	5.62
555.42	5.79
555.764	5.8
556.107	5.71
556.45	5.58
556.793	5.7
557.135	5.75
557.478	5.73
557.821	5.63
558.164	5.76
558.507	5.57
558.849	5.76
559.192	5.74
559.534	5.54
559.877	5.85
560.219	5.79
560.562	5.93
560.904	5.62
561.246	5.86
561.589	5.71
561.931	5.81
562.273	5.71
562.615	5.71
562.957	5.78
563.299	5.84
563.641	5.56
563.983	6
564.325	6.06
564.667	5.89
565.008	5.91
565.35	5.84
565.692	5.83
566.033	5.78
566.375	5.92
566.716	5.79
567.058	5.74
567.399	5.9
567.741	5.69
568.082	5.67
568.423	5.67
568.764	5.75
569.105	5.87
569.447	5.71
569.788	5.72
570.129	5.81
570.47	5.62
570.811	5.44
571.151	5.7
571.492	5.74
571.833	5.81
572.174	5.97
572.514	5.67
572.855	5.68
573.195	5.8
573.536	5.81
573.876	5.73
574.217	5.74
574.557	5.65
574.898	5.73
575.238	5.91
575.578	5.88
575.918	5.93
576.258	5.72
576.598	5.75
576.938	5.93
577.278	5.9
577.618	5.8
577.958	5.72
578.298	5.71
578.638	6.02
578.977	5.84
579.317	5.8
579.657	5.75
579.996	5.82
580.336	5.86
580.675	5.85
581.014	5.98
581.354	5.51
581.693	5.91
582.032	5.63
582.372	6.07
582.711	5.62
583.05	5.85
583.389	5.66
583.728	6.08
584.067	5.85
584.406	5.82
584.745	5.67
585.083	5.76
585.422	6.11
585.761	5.86
586.1	5.87
586.438	5.68
586.777	5.9
587.115	5.78
587.454	5.58
587.792	5.91
588.13	6.18
588.469	5.88
588.807	6.12
589.145	5.92
589.483	5.94
589.821	5.7
590.159	6.01
590.497	6.02
590.835	5.9
591.173	5.85
591.511	5.9
591.849	6.14
592.187	5.79
592.524	5.87
592.862	5.76
593.2	5.76
593.537	5.75
593.875	5.92
594.212	5.77
594.55	5.6
594.887	5.82
595.224	5.96
595.561	5.82
595.899	5.8
596.236	5.76
596.573	5.9
596.91	5.66
597.247	5.93
597.584	5.66
597.921	5.8
598.258	5.83
598.594	5.87
598.931	5.91
599.268	5.8
599.604	5.91
599.941	6.02
600.277	5.72
600.614	6.01
600.95	5.79
601.287	6
601.623	6.08
601.959	5.89
602.296	5.8
602.632	5.98
602.968	5.97
603.304	5.94
603.64	5.88
603.976	6.09
604.312	6.09
604.648	6.11
604.984	6.1
605.319	5.98
605.655	5.86
605.991	5.8
606.326	5.88
606.662	5.76
606.998	5.75
607.333	5.96
607.668	5.78
608.004	5.79
608.339	6.11
608.674	6.14
609.01	5.68
609.345	5.96
609.68	5.88
610.015	5.75
610.35	5.96
610.685	5.85
611.02	5.73
611.355	6.02
611.689	5.97
612.024	5.55
612.359	6.02
612.694	5.88
613.028	5.88
613.363	5.86
613.697	5.78
614.032	6
614.366	6.05
614.7	5.84
615.035	6.01
615.369	6.12
615.703	6.08
616.037	6.07
616.371	6.14
616.705	6.08
617.039	6.43
617.373	6.13
617.707	5.89
618.041	6.24
618.375	6.12
618.709	6.01
619.042	5.65
619.376	6.16
619.71	6.08
620.043	5.6
620.377	6.09
620.71	5.95
621.043	6.08
621.377	5.68
621.71	6.24
622.043	6.2
622.376	5.91
622.709	6.18
623.043	6.5
623.376	6.01
623.709	6.1
624.041	6.26
624.374	6.12
624.707	5.88
625.04	6.7
625.373	6.11
625.705	6.06
626.038	5.99
626.37	6.27
626.703	6.42
627.035	6.17
627.368	5.91
627.7	5.91
628.032	5.6
628.365	6.11
628.697	5.6
629.029	6.26
629.361	5.74
629.693	6.15
630.025	5.84
630.357	5.86
630.689	5.7
631.021	5.95
631.353	5.92
631.684	6.24
632.016	6.18
632.348	6.3
632.679	6
633.011	5.77
633.342	6.14
633.674	6.03
634.005	6.44
634.336	6.04
634.668	6.05
634.999	6.14
635.33	5.73
635.661	5.92
635.992	6.42
636.323	6.08
636.654	6.36
636.985	5.9
637.316	6.02
637.647	6.26
637.977	6.35
638.308	6.27
638.639	5.98
638.969	6.1
639.3	6.26
639.63	6.24
639.961	6.21
640.291	6.45
640.622	5.76
640.952	6.11
641.282	6.52
641.612	6.54
641.943	6.16
642.273	6.21
642.603	6.02
642.933	6.17
643.263	6.19
643.592	6.15
643.922	6.64
644.252	5.94
644.582	6.26
644.911	6.08
645.241	5.66
645.571	6.71
645.9	6.36
646.23	6.5
646.559	6.16
646.888	5.97
647.218	6.32
647.547	5.89
647.876	6.07
648.205	5.88
648.534	6.09
648.863	6.5
649.192	6.03
649.521	6.52
649.85	6.21
650.179	6.03
650.508	6.54
650.837	6.05
651.165	6.39
651.494	6.57
651.822	6.24
652.151	6.26
652.479	6.47
652.808	6.23
653.136	5.9
653.465	6.43
653.793	6.41
654.121	6.51
654.449	6.9
654.777	6.5
655.105	6.29
655.433	6.83
655.761	6.1
656.089	6.12
656.417	5.94
656.745	6.55
657.073	6.24
657.4	6.62
657.728	6.52
658.056	6.3
658.383	6.32
658.711	6.55
659.038	6.64
659.365	6.17
659.693	6.19
660.02	5.82
660.347	5.83
660.674	6.07
661.001	6.34
661.329	6.31
661.656	6.27
661.982	6.28
662.309	6.54
662.636	6.28
662.963	6.73
663.29	6.44
663.616	5.76
663.943	5.68
664.27	6.22
664.596	6.64
664.923	6.01
665.249	6.23
665.576	5.91
665.902	6.35
666.228	6.43
666.554	6.45
666.881	6.49
667.207	6.56
667.533	6.32
667.859	6.25
668.185	7.11
668.511	6.32
668.837	6.76
669.162	6.31
669.488	6.3
669.814	6.04
670.139	6.51
670.465	6.55
670.791	6.39
671.116	6.87
671.442	6.77
671.767	6.59
672.092	6.23
672.418	6.47
672.743	6.12
673.068	6.06
673.393	6.71
673.718	6.2
674.043	7.02
674.368	6.49
674.693	6.54
675.018	6.59
675.343	5.89
675.667	6.31
675.992	6.82
676.317	6.62
676.641	6.83
676.966	6.71
677.29	5.75
677.615	6.98
677.939	6.29
678.264	6.32
678.588	7.27
678.912	6.7
679.236	6.31
679.56	6.65
679.885	6.43
680.209	6.73
680.532	6.91
680.856	6.8
681.18	6.73
681.504	6.3
681.828	6.46
682.152	6.13
682.475	6.69
682.799	6.55
683.122	6.49
683.446	5.94
683.769	6.31
684.093	6.61
684.416	5.98
684.739	6.58
685.062	6.67
685.386	6.61
685.709	6.61
686.032	6.5
686.355	6.63
686.678	6.54
687.001	6.69
687.324	6.15
687.646	6.52
687.969	6.67
688.292	6.96
688.614	7.44
688.937	6.78
689.26	6.15
689.582	6.13
689.904	6.65
690.227	6.98
690.549	7.7
690.871	6.64
691.194	6.45
691.516	5.94
691.838	6.92
692.16	7.07
692.482	6.85
692.804	6.46
