Data from 0356_forehead_Reflection__2__74.txt Node

Date: Mon Dec 11 18:31:03 CST 2023
User: ToomeyLab
Spectrometer: FLMS14357
Trigger mode: 0
Integration Time (sec): 1.000000E-2
Scans to average: 100
Electric dark correction enabled: true
Nonlinearity correction enabled: false
Boxcar width: 0
XAxis mode: Wavelengths
Number of Pixels in Spectrum: 2048
>>>>>Begin Spectral Data<<<<<
189.047	-111.01
189.435	-111.01
189.823	-111.01
190.211	92.35
190.599	97.94
190.987	95.02
191.375	494.37
191.763	130.18
192.151	-1345.83
192.538	1642.23
192.926	-37.1
193.314	24037.5
193.702	100.18
194.089	21.35
194.477	723.88
194.864	-580.2
195.252	125.08
195.639	88.62
196.027	1.66
196.414	-380.12
196.801	48.74
197.189	37.5
197.576	16.91
197.963	-44.48
198.351	54.35
198.738	30.64
199.125	3.33
199.512	-3.01
199.899	39.52
200.286	28.17
200.673	51.04
201.06	63.23
201.447	55.2
201.833	52.6
202.22	39.3
202.607	-19.95
202.994	130.69
203.38	-28.65
203.767	34.16
204.154	23.14
204.54	1.88
204.927	31.76
205.313	23.68
205.699	17.79
206.086	33.48
206.472	37.03
206.858	30.49
207.245	24.61
207.631	-0.77
208.017	43.52
208.403	41.23
208.789	-5.74
209.175	12.77
209.561	15.75
209.947	1.62
210.333	72.97
210.719	36.69
211.105	59.25
211.491	23.2
211.876	13.73
212.262	4.2
212.648	-5.9
213.034	20.72
213.419	23.04
213.805	2.92
214.19	8.77
214.576	-27.41
214.961	17.67
215.346	12.94
215.732	30.91
216.117	34.93
216.502	12.39
216.888	7.82
217.273	18.14
217.658	10.5
218.043	-16.8
218.428	23.96
218.813	45.42
219.198	27.16
219.583	16.14
219.968	14.23
220.353	7.95
220.738	26.91
221.122	49.3
221.507	36.43
221.892	6.2
222.276	5.26
222.661	9.32
223.046	-2.71
223.43	19.08
223.815	8.79
224.199	4.88
224.583	6.11
224.968	3.56
225.352	1.52
225.736	9.18
226.121	0.32
226.505	-4.84
226.889	12.72
227.273	7.69
227.657	13.23
228.041	-0.51
228.425	-1.38
228.809	-3.43
229.193	1.29
229.577	4.18
229.961	2.64
230.344	2.84
230.728	1.18
231.112	2.45
231.495	2.92
231.879	1.87
232.263	1.87
232.646	1.55
233.03	1.41
233.413	2.1
233.797	5.62
234.18	2.93
234.563	1.28
234.946	3.84
235.33	3.94
235.713	1.04
236.096	3.31
236.479	3.7
236.862	1.53
237.245	2.85
237.628	2.49
238.011	2.13
238.394	3.31
238.777	4.07
239.16	2.31
239.543	2.66
239.925	3.41
240.308	2.55
240.691	2.65
241.073	3.3
241.456	4.22
241.838	4.53
242.221	3.28
242.603	0.44
242.986	2.3
243.368	1.69
243.75	2.54
244.133	2.92
244.515	2.21
244.897	1.91
245.279	2.11
245.661	1.79
246.043	2.46
246.425	2.56
246.807	3.31
247.189	3.05
247.571	2.43
247.953	1.67
248.335	2.72
248.717	2.61
249.098	2.1
249.48	2.09
249.862	2.81
250.243	2.52
250.625	2.43
251.006	2.05
251.388	3.25
251.769	3.19
252.151	3.78
252.532	2.72
252.913	3.24
253.295	3.15
253.676	2.62
254.057	2.3
254.438	2.94
254.819	2.48
255.2	2.11
255.581	1.77
255.962	3
256.343	2.24
256.724	2.98
257.105	2.2
257.486	1.39
257.867	3.51
258.247	0.9
258.628	2.87
259.009	2.7
259.389	3.53
259.77	2.68
260.15	2.57
260.531	2.65
260.911	1.94
261.292	2.32
261.672	2.43
262.052	2.42
262.432	2.31
262.813	2.62
263.193	1.68
263.573	2.83
263.953	3.13
264.333	2.04
264.713	3.17
265.093	2.48
265.473	2.79
265.853	3.15
266.233	2.17
266.612	3.84
266.992	3.18
267.372	3
267.752	2.93
268.131	2.54
268.511	2.48
268.89	2.91
269.27	3.05
269.649	2.42
270.029	3.27
270.408	2.62
270.787	2.15
271.167	1.68
271.546	2.88
271.925	2.39
272.304	2.76
272.683	2.29
273.062	2.02
273.441	2.49
273.82	2.67
274.199	2.41
274.578	2.61
274.957	2.6
275.336	2.1
275.715	2.43
276.093	2.82
276.472	2.66
276.851	3.34
277.229	2.45
277.608	2.72
277.986	3.35
278.365	2.67
278.743	2.34
279.122	2.42
279.5	2.74
279.878	2.38
280.257	2.74
280.635	2.89
281.013	2
281.391	2.62
281.769	1.69
282.147	2.36
282.525	2.04
282.903	2.41
283.281	2.51
283.659	2.2
284.037	2.15
284.415	2.21
284.792	2.85
285.17	2.19
285.548	2.75
285.925	2.6
286.303	2.44
286.68	2.7
287.058	2.32
287.435	2.58
287.813	2.96
288.19	2.54
288.567	1.98
288.945	2.93
289.322	2.68
289.699	2.53
290.076	2.58
290.453	2.8
290.83	2.9
291.207	2.65
291.584	2.71
291.961	2.53
292.338	2.71
292.715	2.8
293.092	2.55
293.469	2.48
293.845	2.69
294.222	3.59
294.599	2.21
294.975	2.47
295.352	2.87
295.728	2.48
296.105	2.73
296.481	2.91
296.858	3
297.234	2.98
297.61	2.87
297.986	2.92
298.363	2.62
298.739	3.2
299.115	2.68
299.491	3.06
299.867	3.2
300.243	3.27
300.619	3.16
300.995	2.65
301.371	2.8
301.746	2.89
302.122	3.23
302.498	3.46
302.874	3.08
303.249	3.31
303.625	3.09
304	3.05
304.376	3.41
304.751	3.28
305.127	3.24
305.502	3.4
305.878	3.4
306.253	3.58
306.628	3.82
307.003	3.74
307.378	3.36
307.754	3.71
308.129	3.4
308.504	3.36
308.879	3.41
309.254	3.78
309.629	4.33
310.003	3.91
310.378	3.95
310.753	3.92
311.128	3.45
311.502	3.57
311.877	3.82
312.252	3.87
312.626	3.82
313.001	3.81
313.375	3.78
313.75	4
314.124	4.04
314.498	4.05
314.873	4.39
315.247	4.29
315.621	4.51
315.995	5
316.369	4.25
316.743	4.4
317.117	4.57
317.491	4.37
317.865	4.12
318.239	4.68
318.613	4.92
318.987	4.86
319.361	4.9
319.734	4.54
320.108	4.92
320.482	4.69
320.855	4.73
321.229	4.4
321.602	4.81
321.976	5.33
322.349	5.04
322.723	4.82
323.096	5.76
323.469	4.95
323.843	5.24
324.216	5.63
324.589	5.11
324.962	5.37
325.335	5
325.708	5.41
326.081	5.69
326.454	4.78
326.827	5.13
327.2	4.65
327.573	5.2
327.945	5.7
328.318	5.04
328.691	4.99
329.063	5.49
329.436	5.28
329.809	4.92
330.181	5.84
330.553	5.56
330.926	5.46
331.298	5.63
331.671	5.42
332.043	5.61
332.415	6.2
332.787	6.25
333.159	5.33
333.532	5.57
333.904	5.9
334.276	6.68
334.648	6.36
335.02	5.78
335.391	5.23
335.763	6.26
336.135	6.37
336.507	5.78
336.879	6.16
337.25	6.07
337.622	5.85
337.993	6.14
338.365	5.96
338.736	6.36
339.108	6.62
339.479	6.16
339.851	6.04
340.222	6.51
340.593	5.76
340.964	6.5
341.336	6.68
341.707	5.91
342.078	6.32
342.449	6.16
342.82	5.93
343.191	6.22
343.562	6.39
343.933	6.62
344.303	6.34
344.674	6.63
345.045	6.6
345.416	6.13
345.786	6.81
346.157	7.06
346.527	6.71
346.898	6.47
347.268	6.68
347.639	6.95
348.009	6.87
348.38	6.32
348.75	6.82
349.12	7.5
349.49	6.66
349.861	6.53
350.231	6.67
350.601	6.98
350.971	7.81
351.341	6.62
351.711	6.95
352.081	6.67
352.45	7.21
352.82	7
353.19	7.55
353.56	7.24
353.929	7.46
354.299	7.59
354.669	7.73
355.038	7.08
355.408	6.66
355.777	6.9
356.147	7.45
356.516	7.17
356.885	7.34
357.254	7.65
357.624	7.77
357.993	7.18
358.362	7.46
358.731	7.15
359.1	7.47
359.469	7.5
359.838	7.68
360.207	7.46
360.576	7.5
360.945	7.97
361.314	7.98
361.682	7.65
362.051	7.61
362.42	7.76
362.788	7.57
363.157	7.75
363.525	7.71
363.894	7.77
364.262	7.98
364.631	7.93
364.999	8.01
365.367	8.23
365.735	8.04
366.104	7.73
366.472	8.31
366.84	8.16
367.208	7.69
367.576	8.18
367.944	8.21
368.312	8.08
368.68	8.28
369.048	8.27
369.416	8.12
369.783	8.41
370.151	8.56
370.519	8.94
370.886	8.43
371.254	8.75
371.621	8.99
371.989	9
372.356	8.84
372.724	9.15
373.091	8.83
373.458	9
373.826	8.87
374.193	8.74
374.56	9.01
374.927	8.94
375.294	8.98
375.661	9.03
376.028	9.22
376.395	9.32
376.762	9.11
377.129	9.41
377.496	9.37
377.863	9.3
378.229	9.17
378.596	9.38
378.963	9.35
379.329	9.2
379.696	9.35
380.062	9.12
380.429	8.93
380.795	9.54
381.161	9.45
381.528	9.44
381.894	9.49
382.26	9.7
382.626	9.32
382.993	9.58
383.359	9.5
383.725	9.53
384.091	9.7
384.457	9.44
384.823	9.95
385.188	9.74
385.554	9.39
385.92	9.79
386.286	9.49
386.651	9.93
387.017	9.66
387.383	9.66
387.748	9.83
388.114	9.99
388.479	9.91
388.845	9.89
389.21	10.07
389.575	10.38
389.94	10.07
390.306	10.1
390.671	10.29
391.036	10.07
391.401	10.73
391.766	10.06
392.131	10.67
392.496	10.44
392.861	10.48
393.226	10.48
393.591	10.61
393.956	10.37
394.32	10.73
394.685	10.63
395.05	10.49
395.414	10.72
395.779	10.42
396.143	10.83
396.508	10.67
396.872	10.51
397.236	10.94
397.601	10.65
397.965	10.78
398.329	10.88
398.694	11.13
399.058	11.02
399.422	11
399.786	10.97
400.15	10.89
400.514	11.03
400.878	11.2
401.242	10.73
401.605	11.21
401.969	11.2
402.333	11.1
402.697	11.18
403.06	11.29
403.424	11.18
403.787	11.48
404.151	11.13
404.514	11.18
404.878	11.37
405.241	11.29
405.604	11.44
405.968	11.42
406.331	11.28
406.694	11.48
407.057	11.39
407.42	11.78
407.783	11.49
408.146	11.8
408.509	11.6
408.872	11.68
409.235	11.63
409.598	11.67
409.961	12.05
410.323	12.09
410.686	12.02
411.049	11.98
411.411	11.75
411.774	12.19
412.136	11.92
412.499	12.07
412.861	11.88
413.223	11.94
413.586	12.38
413.948	12.07
414.31	12.11
414.672	11.91
415.035	12.12
415.397	12.19
415.759	12.53
416.121	12.04
416.483	12.47
416.845	12.39
417.206	12.31
417.568	12.42
417.93	12.62
418.292	12.4
418.653	12.21
419.015	12.29
419.377	12.4
419.738	12.45
420.1	12.32
420.461	12.37
420.822	12.35
421.184	12.24
421.545	12.34
421.906	12.51
422.267	12.45
422.629	12.36
422.99	12.33
423.351	12.3
423.712	12.37
424.073	12.51
424.434	12.5
424.795	12.65
425.155	12.71
425.516	12.64
425.877	12.55
426.238	12.58
426.598	12.7
426.959	12.65
427.32	12.75
427.68	12.9
428.041	12.89
428.401	13.19
428.761	12.98
429.122	12.97
429.482	13.23
429.842	13.29
430.202	13.15
430.563	13.24
430.923	13.48
431.283	13.32
431.643	13.44
432.003	13.58
432.363	13.36
432.722	13.54
433.082	13.57
433.442	13.67
433.802	13.61
434.161	13.65
434.521	13.39
434.881	13.68
435.24	13.52
435.6	13.6
435.959	13.68
436.319	13.56
436.678	13.83
437.037	13.81
437.396	13.81
437.756	13.9
438.115	13.98
438.474	13.94
438.833	13.9
439.192	14.15
439.551	13.96
439.91	14.09
440.269	14.19
440.628	13.92
440.987	14.16
441.345	13.91
441.704	14.06
442.063	14
442.421	13.98
442.78	14.11
443.138	14.1
443.497	14.14
443.855	14.15
444.214	14.27
444.572	14.28
444.93	14.26
445.288	14.44
445.647	14.38
446.005	14.27
446.363	14.38
446.721	14.45
447.079	14.52
447.437	14.38
447.795	14.42
448.153	14.51
448.51	14.3
448.868	14.3
449.226	14.35
449.584	14.67
449.941	14.63
450.299	14.59
450.656	14.79
451.014	14.77
451.371	14.71
451.729	14.96
452.086	14.89
452.443	15.1
452.801	15.09
453.158	15.04
453.515	15.1
453.872	15.16
454.229	15.05
454.586	15.06
454.943	15.06
455.3	15.3
455.657	15.28
456.014	15.21
456.371	15.18
456.727	15.42
457.084	15.34
457.441	15.29
457.797	15.46
458.154	15.41
458.51	15.6
458.867	15.41
459.223	15.51
459.58	15.5
459.936	15.58
460.292	15.63
460.648	15.44
461.005	15.47
461.361	15.39
461.717	15.28
462.073	15.38
462.429	15.51
462.785	15.51
463.141	15.74
463.496	15.82
463.852	15.66
464.208	15.72
464.564	15.9
464.919	15.95
465.275	16.03
465.631	15.91
465.986	16.29
466.342	16.19
466.697	15.93
467.052	16.38
467.408	16.28
467.763	16.36
468.118	15.99
468.473	16.28
468.829	16.13
469.184	16.33
469.539	16.28
469.894	16.37
470.249	16.38
470.603	16.45
470.958	16.4
471.313	16.58
471.668	16.8
472.023	16.61
472.377	16.57
472.732	16.34
473.086	16.75
473.441	16.94
473.795	16.72
474.15	16.76
474.504	16.78
474.859	16.87
475.213	16.73
475.567	16.9
475.921	16.65
476.275	16.83
476.63	16.89
476.984	17.04
477.338	16.95
477.692	17.07
478.045	16.81
478.399	16.85
478.753	16.8
479.107	17.11
479.461	17.13
479.814	17.14
480.168	17.22
480.521	17.21
480.875	17.22
481.228	17.26
481.582	17.34
481.935	17.23
482.289	17.33
482.642	17.29
482.995	17.25
483.348	17.25
483.701	17.15
484.055	17.29
484.408	17.12
484.761	17.09
485.114	16.89
485.466	16.61
485.819	16.4
486.172	16.48
486.525	16.51
486.878	16.73
487.23	16.91
487.583	17.04
487.936	17.15
488.288	17.21
488.641	17.09
488.993	16.98
489.345	16.99
489.698	16.97
490.05	17
490.402	17.1
490.754	17.25
491.107	17.42
491.459	17.47
491.811	17.74
492.163	17.67
492.515	17.81
492.866	17.71
493.218	17.54
493.57	17.38
493.922	17.31
494.274	17.58
494.625	17.7
494.977	17.94
495.328	18.01
495.68	18.1
496.031	18.28
496.383	18.47
496.734	18.51
497.086	18.43
497.437	18.62
497.788	18.62
498.139	18.38
498.49	18.38
498.842	18.48
499.193	18.4
499.544	18.49
499.894	18.62
500.245	18.53
500.596	18.78
500.947	18.65
501.298	18.76
501.648	18.87
501.999	18.73
502.35	19
502.7	18.92
503.051	19
503.401	18.91
503.752	19.1
504.102	19.17
504.452	19.25
504.803	19.5
505.153	19.24
505.503	19.31
505.853	19.3
506.203	19.18
506.553	19.17
506.903	19.41
507.253	19.45
507.603	19.34
507.953	19.56
508.303	19.49
508.652	19.46
509.002	19.53
509.352	19.54
509.701	19.31
510.051	19.43
510.4	19.51
510.75	19.44
511.099	19.32
511.449	19.43
511.798	19.51
512.147	19.77
512.496	19.54
512.846	19.74
513.195	19.75
513.544	19.88
513.893	19.65
514.242	19.66
514.591	19.66
514.939	19.73
515.288	19.9
515.637	19.79
515.986	19.88
516.334	20.09
516.683	20.04
517.032	20.18
517.38	20.15
517.729	20.34
518.077	20.21
518.426	20.15
518.774	20.3
519.122	20.29
519.47	20.02
519.819	20.09
520.167	20.06
520.515	19.88
520.863	19.84
521.211	20.09
521.559	20.04
521.907	20.22
522.255	20.2
522.602	20.35
522.95	20.53
523.298	20.62
523.645	20.61
523.993	20.57
524.341	20.68
524.688	20.58
525.036	20.74
525.383	20.74
525.73	20.87
526.078	20.93
526.425	20.72
526.772	20.8
527.119	20.65
527.466	20.55
527.814	20.55
528.161	20.39
528.508	20.62
528.854	20.47
529.201	20.61
529.548	20.52
529.895	20.45
530.242	20.18
530.588	20.03
530.935	20.17
531.282	20.17
531.628	20.28
531.975	20.39
532.321	20.51
532.667	20.71
533.014	20.8
533.36	21.03
533.706	20.97
534.052	21.1
534.399	21.1
534.745	20.94
535.091	20.73
535.437	20.63
535.783	20.82
536.129	20.95
536.474	21.16
536.82	21.23
537.166	21.34
537.512	21.44
537.857	21.57
538.203	21.52
538.549	21.4
538.894	21.28
539.239	21.58
539.585	21.54
539.93	21.63
540.276	21.8
540.621	21.82
540.966	22.01
541.311	21.98
541.656	21.84
542.001	21.94
542.346	21.82
542.691	21.74
543.036	21.44
543.381	21.15
543.726	21.31
544.071	21.44
544.415	21.55
544.76	21.65
545.105	21.7
545.449	21.73
545.794	22
546.138	22.01
546.483	22.2
546.827	22.34
547.171	22.14
547.516	22.32
547.86	22.53
548.204	22.37
548.548	22.39
548.892	22.24
549.236	22.44
549.58	22.5
549.924	22.63
550.268	22.59
550.612	22.71
550.956	22.78
551.3	23.03
551.643	22.96
551.987	23.12
552.33	23.35
552.674	23.18
553.017	23.13
553.361	22.91
553.704	23.1
554.048	23.33
554.391	23.23
554.734	23.13
555.077	23.08
555.42	23.34
555.764	23.21
556.107	23.3
556.45	23.21
556.793	23.25
557.135	23.29
557.478	23.48
557.821	23.51
558.164	23.49
558.507	23.39
558.849	23.54
559.192	23.38
559.534	23.59
559.877	23.64
560.219	24
560.562	23.88
560.904	23.83
561.246	24.01
561.589	23.95
561.931	23.92
562.273	24.05
562.615	23.9
562.957	24.01
563.299	23.97
563.641	23.81
563.983	24.17
564.325	23.97
564.667	23.98
565.008	24.08
565.35	24.27
565.692	24.07
566.033	24.22
566.375	24.26
566.716	24.42
567.058	24.21
567.399	24.29
567.741	24.19
568.082	24.12
568.423	24.18
568.764	24.21
569.105	24.12
569.447	24.34
569.788	24.37
570.129	24.36
570.47	24.29
570.811	24.71
571.151	24.28
571.492	24.33
571.833	24.85
572.174	24.75
572.514	24.85
572.855	24.51
573.195	24.69
573.536	24.57
573.876	24.7
574.217	24.39
574.557	24.52
574.898	24.62
575.238	24.93
575.578	24.82
575.918	25.01
576.258	24.77
576.598	24.84
576.938	24.97
577.278	24.76
577.618	25.02
577.958	24.91
578.298	24.97
578.638	25.13
578.977	25.14
579.317	25.25
579.657	25.13
579.996	25.06
580.336	25.43
580.675	25.29
581.014	25.31
581.354	25.05
581.693	25.44
582.032	25.18
582.372	25.43
582.711	25.29
583.05	25.67
583.389	25.58
583.728	25.72
584.067	25.5
584.406	25.59
584.745	25.92
585.083	25.7
585.422	25.84
585.761	25.88
586.1	25.89
586.438	25.97
586.777	25.93
587.115	25.57
587.454	25.88
587.792	25.93
588.13	26.23
588.469	26.08
588.807	25.96
589.145	26.2
589.483	25.95
589.821	26.04
590.159	25.94
590.497	25.96
590.835	26.19
591.173	25.94
591.511	26.09
591.849	26.09
592.187	26.15
592.524	25.98
592.862	26.19
593.2	26.29
593.537	26.15
593.875	26.13
594.212	26.29
594.55	26.23
594.887	26.3
595.224	26.15
595.561	26.51
595.899	26.56
596.236	26.41
596.573	26.5
596.91	26.52
597.247	26.71
597.584	26.18
597.921	26.47
598.258	26.51
598.594	26.53
598.931	26.39
599.268	26.4
599.604	26.43
599.941	26.78
600.277	26.71
600.614	26.73
600.95	27
601.287	26.93
601.623	27.01
601.959	26.9
602.296	26.95
602.632	26.79
602.968	27.16
603.304	27.02
603.64	27.08
603.976	27.28
604.312	27.25
604.648	26.95
604.984	27
605.319	27.24
605.655	27.02
605.991	27.04
606.326	26.99
606.662	26.97
606.998	26.83
607.333	27.14
607.668	27.12
608.004	26.97
608.339	27.53
608.674	27.2
609.01	27.34
609.345	27.38
609.68	27.56
610.015	27.59
610.35	27.49
610.685	27.43
611.02	27.38
611.355	27.37
611.689	27.24
612.024	27.44
612.359	27.33
612.694	27.72
613.028	27.62
613.363	27.59
613.697	27.33
614.032	27.54
614.366	27.99
614.7	27.94
615.035	27.67
615.369	27.56
615.703	27.88
616.037	28.27
616.371	27.95
616.705	27.77
617.039	28.12
617.373	28.31
617.707	28.11
618.041	27.87
618.375	27.96
618.709	27.76
619.042	27.98
619.376	28.49
619.71	28.07
620.043	27.94
620.377	28
620.71	27.95
621.043	27.69
621.377	27.92
621.71	28.39
622.043	28.3
622.376	28.15
622.709	28.77
623.043	28.51
623.376	28.09
623.709	28.22
624.041	28.45
624.374	28.4
624.707	28.39
625.04	29.09
625.373	28.39
625.705	28.97
626.038	28.73
626.37	28.88
626.703	28.99
627.035	28.55
627.368	28.8
627.7	28.7
628.032	28.49
628.365	28.5
628.697	28.27
629.029	28.78
629.361	28.83
629.693	28.93
630.025	28.85
630.357	28.79
630.689	28.32
631.021	28.78
631.353	28.62
631.684	29.18
632.016	29.05
632.348	29.2
632.679	29.15
633.011	29.12
633.342	29.1
633.674	29.19
634.005	29.43
634.336	29.25
634.668	28.99
634.999	29.26
635.33	29.38
635.661	29.14
635.992	29.21
636.323	29.29
636.654	29.48
636.985	29.36
637.316	29.27
637.647	29.65
637.977	29.52
638.308	29.54
638.639	29.28
638.969	29.59
639.3	29.95
639.63	29.51
639.961	29.96
640.291	30.11
640.622	29.3
640.952	30.27
641.282	29.82
641.612	29.82
641.943	29.94
642.273	29.61
642.603	29.82
642.933	29.64
643.263	29.94
643.592	29.73
643.922	30.12
644.252	29.57
644.582	30.41
644.911	29.96
645.241	29.92
645.571	30.49
645.9	30.31
646.23	30.4
646.559	29.95
646.888	30.03
647.218	29.94
647.547	29.85
647.876	30.4
648.205	29.83
648.534	30.11
648.863	30.25
649.192	30.52
649.521	30.27
649.85	30.35
650.179	30.07
650.508	30.16
650.837	29.76
651.165	30.57
651.494	30.77
651.822	30.33
652.151	30.53
652.479	30.39
652.808	30.47
653.136	30.42
653.465	30.52
653.793	30.5
654.121	30.26
654.449	30.4
654.777	30.39
655.105	30.84
655.433	30.9
655.761	30.76
656.089	30.3
656.417	30.76
656.745	30.9
657.073	30.89
657.4	30.57
657.728	30.73
658.056	30.86
658.383	30.24
658.711	30.69
659.038	30.61
659.365	31.33
659.693	31.1
660.02	30.94
660.347	30.81
660.674	30.68
661.001	30.44
661.329	31.01
661.656	30.71
661.982	31.03
662.309	31.31
662.636	30.95
662.963	31.12
663.29	30.36
663.616	31.25
663.943	30.76
664.27	31.07
664.596	31.88
664.923	31.24
665.249	31.65
665.576	31.51
665.902	30.87
666.228	31.07
666.554	30.91
666.881	31.3
667.207	32.2
667.533	30.96
667.859	31.42
668.185	31.98
668.511	31.76
668.837	31.67
669.162	32.09
669.488	31.37
669.814	31.19
670.139	31.71
670.465	31.48
670.791	31.77
671.116	31.72
671.442	32.14
671.767	31.59
672.092	32.01
672.418	31.76
672.743	31.78
673.068	31.77
673.393	31.57
673.718	32.06
674.043	32.43
674.368	32.12
