Data from 0356_chest_Reflection__4__65.txt Node

Date: Mon Dec 11 18:26:18 CST 2023
User: ToomeyLab
Spectrometer: FLMS14357
Trigger mode: 0
Integration Time (sec): 1.000000E-2
Scans to average: 100
Electric dark correction enabled: true
Nonlinearity correction enabled: false
Boxcar width: 0
XAxis mode: Wavelengths
Number of Pixels in Spectrum: 2048
>>>>>Begin Spectral Data<<<<<
189.047	40.48
189.435	40.48
189.823	40.48
190.211	192.72
190.599	-89.5
190.987	60.62
191.375	237.69
191.763	14.03
192.151	19579.17
192.538	971.28
192.926	444.3
193.314	37662.5
193.702	26.29
194.089	-25.7
194.477	-140.96
194.864	-611.94
195.252	181.63
195.639	-132.85
196.027	-105.79
196.414	250.61
196.801	-65.35
197.189	134.2
197.576	47.07
197.963	-452.16
198.351	51.98
198.738	18.85
199.125	-51.93
199.512	14.65
199.899	-36.86
200.286	11.23
200.673	-153.61
201.06	36.91
201.447	1.6
201.833	0.78
202.22	45.51
202.607	7.22
202.994	-111.04
203.38	-38.14
203.767	3.37
204.154	23.04
204.54	-11.66
204.927	1.2
205.313	13.11
205.699	-49.45
206.086	-44.85
206.472	20.85
206.858	45.96
207.245	25.08
207.631	0.94
208.017	27.37
208.403	23.13
208.789	-34.59
209.175	5.11
209.561	-59.74
209.947	-14.48
210.333	15.95
210.719	40.84
211.105	7.91
211.491	4.09
211.876	1.03
212.262	-37.19
212.648	-8.12
213.034	19.97
213.419	-6.51
213.805	-11.07
214.19	9.17
214.576	-15.25
214.961	13.2
215.346	-10.6
215.732	15.95
216.117	19.88
216.502	-4.57
216.888	12.59
217.273	9.8
217.658	30.81
218.043	-47.6
218.428	-21.5
218.813	17.9
219.198	-3.75
219.583	-3.57
219.968	-10.03
220.353	-29.63
220.738	21.76
221.122	-5.77
221.507	20.84
221.892	8.27
222.276	16.43
222.661	-19.35
223.046	-12.97
223.43	3.59
223.815	0.14
224.199	6.74
224.583	-7.18
224.968	-0.97
225.352	-1.22
225.736	-3.09
226.121	-0.45
226.505	0.61
226.889	9.48
227.273	3.01
227.657	10.35
228.041	6.66
228.425	0.82
228.809	2.62
229.193	-0.03
229.577	4.21
229.961	3.04
230.344	2.3
230.728	2.67
231.112	2.91
231.495	3.74
231.879	2.89
232.263	1.96
232.646	2.09
233.03	1.11
233.413	2.91
233.797	4.12
234.18	3.42
234.563	4.32
234.946	3.98
235.33	4.94
235.713	2.38
236.096	3.3
236.479	4.07
236.862	2.24
237.245	1.79
237.628	4.32
238.011	3.05
238.394	3.21
238.777	1.74
239.16	1.25
239.543	3.99
239.925	2.33
240.308	1.92
240.691	2.68
241.073	3.97
241.456	4.1
241.838	4.5
242.221	3.69
242.603	2.24
242.986	2.62
243.368	2.62
243.75	1.89
244.133	2.86
244.515	2.37
244.897	2.53
245.279	2.61
245.661	2.2
246.043	2.02
246.425	2.17
246.807	2.46
247.189	2.39
247.571	2.79
247.953	1.91
248.335	2.84
248.717	2.47
249.098	2.44
249.48	2.38
249.862	2.68
250.243	2.51
250.625	2.49
251.006	2.08
251.388	3.02
251.769	2.8
252.151	3.39
252.532	2.69
252.913	2.46
253.295	2.17
253.676	2.23
254.057	2.25
254.438	2.83
254.819	2.33
255.2	2.34
255.581	2.5
255.962	2.11
256.343	1.84
256.724	2.2
257.105	2.46
257.486	2.23
257.867	2.33
258.247	1.1
258.628	2.37
259.009	3.98
259.389	3.86
259.77	2
260.15	2.06
260.531	2.85
260.911	1.83
261.292	1.99
261.672	2.45
262.052	2.25
262.432	2.28
262.813	2.42
263.193	2.07
263.573	2.32
263.953	2.09
264.333	2.16
264.713	2.6
265.093	2.49
265.473	1.97
265.853	1.97
266.233	1.7
266.612	2
266.992	2.64
267.372	3.46
267.752	3.36
268.131	2.49
268.511	2.09
268.89	2.9
269.27	2.52
269.649	2.71
270.029	2.47
270.408	1.95
270.787	2.1
271.167	1.55
271.546	2.21
271.925	2.57
272.304	2.37
272.683	2.15
273.062	2.17
273.441	1.93
273.82	1.92
274.199	2.17
274.578	2.4
274.957	2.66
275.336	1.98
275.715	1.97
276.093	2.86
276.472	2.22
276.851	2.72
277.229	2.99
277.608	2.33
277.986	2.25
278.365	2.53
278.743	2.43
279.122	1.77
279.5	2.48
279.878	2.27
280.257	1.94
280.635	2.39
281.013	2.51
281.391	2.26
281.769	1.87
282.147	2.26
282.525	2.06
282.903	2.74
283.281	2.33
283.659	1.95
284.037	2.19
284.415	2.04
284.792	2.43
285.17	2.37
285.548	2.09
285.925	2.27
286.303	2.31
286.68	2.37
287.058	2.27
287.435	2.6
287.813	2.7
288.19	2.11
288.567	2.18
288.945	2.09
289.322	1.77
289.699	1.8
290.076	1.68
290.453	2.5
290.83	2.75
291.207	2.42
291.584	2.28
291.961	2.63
292.338	2.2
292.715	2.68
293.092	2.22
293.469	2.44
293.845	2.42
294.222	2.54
294.599	2.05
294.975	2.24
295.352	1.83
295.728	2.04
296.105	1.78
296.481	2.69
296.858	2.23
297.234	2.75
297.61	2.63
297.986	2.46
298.363	2.81
298.739	2.25
299.115	2.22
299.491	2.4
299.867	2.52
300.243	2.4
300.619	2.52
300.995	2.28
301.371	2.3
301.746	1.88
302.122	2.53
302.498	2.62
302.874	2.53
303.249	2.57
303.625	2.6
304	2.73
304.376	2.26
304.751	2.1
305.127	2.51
305.502	2.6
305.878	2.57
306.253	2.7
306.628	3
307.003	2.67
307.378	2.34
307.754	2.56
308.129	2.64
308.504	2.2
308.879	2.02
309.254	2.69
309.629	2.63
310.003	2.49
310.378	2.29
310.753	2.74
311.128	2.5
311.502	2.16
311.877	2.95
312.252	2.51
312.626	3
313.001	2.74
313.375	1.99
313.75	2.35
314.124	2.37
314.498	2.4
314.873	2.35
315.247	2.75
315.621	3.22
315.995	2.68
316.369	2.37
316.743	2.73
317.117	2.91
317.491	2.61
317.865	2.04
318.239	2.58
318.613	2.99
318.987	2.79
319.361	3.15
319.734	2.78
320.108	2.36
320.482	3
320.855	2.87
321.229	2.18
321.602	2.32
321.976	3.08
322.349	2.64
322.723	2.56
323.096	3.34
323.469	3.42
323.843	2.93
324.216	2.9
324.589	3.09
324.962	2.66
325.335	2.14
325.708	2.96
326.081	3.22
326.454	2.92
326.827	2.68
327.2	1.8
327.573	2.21
327.945	3.19
328.318	2.51
328.691	2.7
329.063	2.8
329.436	2.37
329.809	2.53
330.181	3.25
330.553	2.7
330.926	2.28
331.298	3.03
331.671	2.32
332.043	3.52
332.415	2.83
332.787	2.99
333.159	2.56
333.532	2.26
333.904	2.85
334.276	3.23
334.648	3.21
335.02	2.29
335.391	2.4
335.763	2.74
336.135	3.34
336.507	2.62
336.879	3.22
337.25	2.25
337.622	2.49
337.993	2.99
338.365	2.93
338.736	2.69
339.108	2.95
339.479	2.81
339.851	2.69
340.222	2.4
340.593	2.16
340.964	2.89
341.336	2.68
341.707	2.66
342.078	3.04
342.449	2.49
342.82	2.33
343.191	2.45
343.562	2.5
343.933	2.27
344.303	2.61
344.674	2.65
345.045	3.19
345.416	2.42
345.786	3.24
346.157	2.61
346.527	2.92
346.898	2.44
347.268	2.61
347.639	2.85
348.009	3
348.38	2.15
348.75	2.67
349.12	2.9
349.49	2.37
349.861	2.29
350.231	2.71
350.601	2.93
350.971	2.85
351.341	2.41
351.711	2.95
352.081	2.67
352.45	2.56
352.82	2.34
353.19	2.78
353.56	2.61
353.929	3.21
354.299	3.18
354.669	2.69
355.038	2.3
355.408	2.27
355.777	2.81
356.147	2.71
356.516	3.03
356.885	2.89
357.254	2.97
357.624	2.99
357.993	2.56
358.362	2.97
358.731	2.68
359.1	3.02
359.469	2.7
359.838	2.69
360.207	2.66
360.576	2.91
360.945	2.87
361.314	3.13
361.682	2.32
362.051	3.04
362.42	2.35
362.788	2.42
363.157	2.8
363.525	2.44
363.894	2.75
364.262	2.8
364.631	2.67
364.999	2.72
365.367	3.08
365.735	2.7
366.104	2.56
366.472	2.72
366.84	2.71
367.208	2.65
367.576	2.75
367.944	2.92
368.312	2.71
368.68	2.9
369.048	2.76
369.416	2.4
369.783	2.77
370.151	3.12
370.519	3.31
370.886	2.48
371.254	2.92
371.621	3.06
371.989	2.94
372.356	3.04
372.724	3.25
373.091	3.22
373.458	2.68
373.826	2.86
374.193	2.48
374.56	2.95
374.927	2.84
375.294	3.03
375.661	2.54
376.028	3.16
376.395	2.98
376.762	3
377.129	3.16
377.496	2.81
377.863	2.62
378.229	2.79
378.596	2.99
378.963	2.83
379.329	2.62
379.696	2.94
380.062	2.5
380.429	2.81
380.795	2.9
381.161	3.07
381.528	2.92
381.894	2.97
382.26	3.09
382.626	2.86
382.993	2.84
383.359	2.69
383.725	2.8
384.091	2.83
384.457	2.57
384.823	3.23
385.188	3.05
385.554	2.86
385.92	2.84
386.286	2.89
386.651	2.91
387.017	3.11
387.383	2.61
387.748	2.66
388.114	2.9
388.479	2.79
388.845	2.68
389.21	2.91
389.575	3.2
389.94	3.02
390.306	3.21
390.671	2.88
391.036	2.74
391.401	2.98
391.766	3.08
392.131	2.85
392.496	3.32
392.861	3.06
393.226	2.8
393.591	3.16
393.956	2.67
394.32	2.77
394.685	2.69
395.05	3.02
395.414	2.94
395.779	2.87
396.143	2.71
396.508	2.89
396.872	2.8
397.236	2.94
397.601	2.75
397.965	2.94
398.329	3.17
398.694	2.89
399.058	2.93
399.422	2.91
399.786	2.85
400.15	2.74
400.514	3.07
400.878	2.99
401.242	2.86
401.605	2.96
401.969	2.94
402.333	2.77
402.697	2.88
403.06	2.92
403.424	2.77
403.787	3.15
404.151	2.89
404.514	2.9
404.878	3.02
405.241	2.82
405.604	2.86
405.968	3.07
406.331	2.56
406.694	2.96
407.057	2.96
407.42	2.95
407.783	3.03
408.146	2.93
408.509	2.8
408.872	2.81
409.235	2.69
409.598	2.74
409.961	2.97
410.323	2.98
410.686	3.22
411.049	3.06
411.411	2.93
411.774	3.07
412.136	2.91
412.499	3.22
412.861	2.77
413.223	2.78
413.586	3.06
413.948	3.16
414.31	2.97
414.672	2.63
415.035	2.91
415.397	2.96
415.759	2.94
416.121	3.03
416.483	3.08
416.845	2.98
417.206	2.88
417.568	2.97
417.93	2.96
418.292	3.06
418.653	2.8
419.015	3.01
419.377	3.01
419.738	3.1
420.1	2.88
420.461	2.93
420.822	2.84
421.184	2.96
421.545	2.85
421.906	2.92
422.267	2.98
422.629	2.81
422.99	2.89
423.351	2.87
423.712	2.88
424.073	2.95
424.434	2.96
424.795	3.01
425.155	2.96
425.516	2.92
425.877	2.82
426.238	2.85
426.598	2.95
426.959	2.85
427.32	2.94
427.68	2.95
428.041	2.84
428.401	2.83
428.761	2.99
429.122	2.87
429.482	3.09
429.842	3.01
430.202	3.01
430.563	3
430.923	2.98
431.283	2.95
431.643	3.22
432.003	3.24
432.363	3.28
432.722	2.93
433.082	3.05
433.442	3.12
433.802	2.96
434.161	2.97
434.521	2.93
434.881	3.06
435.24	3.05
435.6	2.88
435.959	3.12
436.319	2.96
436.678	3.08
437.037	2.94
437.396	2.99
437.756	3.04
438.115	3.18
438.474	3.12
438.833	2.92
439.192	3.15
439.551	3.13
439.91	3.1
440.269	2.96
440.628	2.9
440.987	3.18
441.345	2.95
441.704	3.11
442.063	3.02
442.421	3.01
442.78	2.93
443.138	3.02
443.497	3.01
443.855	2.93
444.214	3.16
444.572	3.04
444.93	3.06
445.288	3.12
445.647	3.29
446.005	2.79
446.363	3.07
446.721	3.05
447.079	3.12
447.437	3.02
447.795	2.92
448.153	3.1
448.51	3.02
448.868	2.95
449.226	2.94
449.584	3.04
449.941	3.09
450.299	3.09
450.656	2.99
451.014	3.1
451.371	3.01
451.729	3.2
452.086	3.08
452.443	3.32
452.801	3.08
453.158	3.2
453.515	3
453.872	3.14
454.229	3.09
454.586	2.98
454.943	3.09
455.3	3.09
455.657	3.13
456.014	2.95
456.371	3.2
456.727	3.18
457.084	3.02
457.441	3.38
457.797	3.03
458.154	3.11
458.51	3.37
458.867	2.92
459.223	3.07
459.58	3.14
459.936	3.17
460.292	3.07
460.648	2.97
461.005	2.96
461.361	3.04
461.717	3.06
462.073	3.13
462.429	3.05
462.785	2.96
463.141	3.12
463.496	3.15
463.852	3.04
464.208	3.14
464.564	3.11
464.919	3.26
465.275	3.03
465.631	3
465.986	3.24
466.342	3.21
466.697	3.17
467.052	3.12
467.408	3.33
467.763	3.26
468.118	2.99
468.473	3.13
468.829	3.26
469.184	3.37
469.539	3.2
469.894	3.19
470.249	3.05
470.603	3.07
470.958	3.11
471.313	3.07
471.668	3.34
472.023	3.23
472.377	3.13
472.732	3.13
473.086	3.37
473.441	3.14
473.795	3.25
474.15	3.2
474.504	3.07
474.859	3.26
475.213	3.25
475.567	3.29
475.921	3.32
476.275	3.35
476.63	3.17
476.984	3.14
477.338	3.18
477.692	3.18
478.045	3.3
478.399	3.15
478.753	2.91
479.107	3.14
479.461	3.16
479.814	3.21
480.168	3.19
480.521	3.34
480.875	3.14
481.228	3.16
481.582	3.49
481.935	3.24
482.289	3.23
482.642	3.15
482.995	3.22
483.348	3.24
483.701	3.1
484.055	3.22
484.408	3.21
484.761	3.18
485.114	3.06
485.466	2.99
485.819	2.96
486.172	3
486.525	3
486.878	3.08
487.23	3.14
487.583	3.14
487.936	3.12
488.288	3.25
488.641	3.06
488.993	3.04
489.345	3.13
489.698	3.07
490.05	3.11
490.402	3.11
490.754	3.17
491.107	3.21
491.459	3.12
491.811	3.23
492.163	3.22
492.515	3.24
492.866	3.27
493.218	3.09
493.57	3.17
493.922	3.13
494.274	3.22
494.625	3.2
494.977	3.27
495.328	3.33
495.68	3.41
496.031	3.36
496.383	3.15
496.734	3.39
497.086	3.24
497.437	3.35
497.788	3.43
498.139	3.3
498.49	3.31
498.842	3.44
499.193	3.33
499.544	3.22
499.894	3.23
500.245	3.36
500.596	3.48
500.947	3.35
501.298	3.42
501.648	3.26
501.999	3.34
502.35	3.45
502.7	3.41
503.051	3.46
503.401	3.36
503.752	3.38
504.102	3.26
504.452	3.47
504.803	3.52
505.153	3.56
505.503	3.44
505.853	3.49
506.203	3.43
506.553	3.5
506.903	3.39
507.253	3.65
507.603	3.44
507.953	3.53
508.303	3.35
508.652	3.49
509.002	3.49
509.352	3.5
509.701	3.45
510.051	3.45
510.4	3.21
510.75	3.43
511.099	3.4
511.449	3.44
511.798	3.42
512.147	3.48
512.496	3.43
512.846	3.56
513.195	3.52
513.544	3.49
513.893	3.41
514.242	3.5
514.591	3.4
514.939	3.41
515.288	3.61
515.637	3.44
515.986	3.49
516.334	3.55
516.683	3.62
517.032	3.65
517.38	3.64
517.729	3.44
518.077	3.6
518.426	3.51
518.774	3.59
519.122	3.54
519.47	3.51
519.819	3.52
520.167	3.49
520.515	3.48
520.863	3.48
521.211	3.6
521.559	3.59
521.907	3.57
522.255	3.48
522.602	3.56
522.95	3.65
523.298	3.6
523.645	3.78
523.993	3.62
524.341	3.76
524.688	3.53
525.036	3.58
525.383	3.53
525.73	3.68
526.078	3.76
526.425	3.69
526.772	3.65
527.119	3.64
527.466	3.65
527.814	3.6
528.161	3.57
528.508	3.63
528.854	3.57
529.201	3.67
529.548	3.66
529.895	3.5
530.242	3.51
530.588	3.51
530.935	3.54
531.282	3.58
531.628	3.55
531.975	3.57
532.321	3.61
532.667	3.67
533.014	3.61
533.36	3.7
533.706	3.88
534.052	3.72
534.399	3.74
534.745	3.72
535.091	3.65
535.437	3.67
535.783	3.71
536.129	3.74
536.474	3.78
536.82	3.75
537.166	3.81
537.512	3.74
537.857	3.83
538.203	3.84
538.549	3.87
538.894	3.85
539.239	3.92
539.585	3.85
539.93	3.77
540.276	3.91
540.621	3.81
540.966	4.07
541.311	3.83
541.656	3.87
542.001	4.02
542.346	4.03
542.691	3.84
543.036	3.81
543.381	3.74
543.726	3.87
544.071	3.76
544.415	3.85
544.76	3.91
545.105	3.95
545.449	3.94
545.794	3.95
546.138	4
546.483	3.89
546.827	4.08
547.171	3.94
547.516	4.02
547.86	4.15
548.204	4.09
548.548	4.03
548.892	3.97
549.236	3.97
549.58	4.1
549.924	4.18
550.268	4
550.612	4.15
550.956	4.21
551.3	4.22
551.643	4.26
551.987	4.32
552.33	4.42
552.674	4.34
553.017	4.27
553.361	4.08
553.704	4.23
554.048	4.3
554.391	4.17
554.734	4.28
555.077	4.3
555.42	4.45
555.764	4.38
556.107	4.41
556.45	4.33
556.793	4.28
557.135	4.56
557.478	4.39
557.821	4.38
558.164	4.5
558.507	4.38
558.849	4.43
559.192	4.31
559.534	4.45
559.877	4.46
560.219	4.29
560.562	4.56
560.904	4.41
561.246	4.39
561.589	4.84
561.931	4.4
562.273	4.45
562.615	4.69
562.957	4.7
563.299	4.7
563.641	4.52
563.983	4.82
564.325	4.8
564.667	4.83
565.008	4.69
565.35	4.97
565.692	4.77
566.033	4.64
566.375	4.81
566.716	4.65
567.058	4.66
567.399	4.85
567.741	4.79
568.082	4.77
568.423	4.74
568.764	4.71
569.105	4.8
569.447	4.85
569.788	4.62
570.129	4.77
570.47	4.66
570.811	4.69
571.151	4.85
571.492	5.05
571.833	4.93
572.174	5.01
572.514	4.84
572.855	4.77
573.195	5.06
573.536	4.91
573.876	4.87
574.217	4.87
574.557	4.9
574.898	4.99
575.238	5.08
575.578	5.05
575.918	5.29
576.258	5.01
576.598	5.11
576.938	5.22
577.278	4.95
577.618	5.21
577.958	5.25
578.298	5.35
578.638	5.26
578.977	5.27
579.317	5.21
579.657	5.27
579.996	5.09
580.336	5.34
580.675	5.41
581.014	5.43
581.354	5.22
581.693	5.49
582.032	4.99
582.372	5.25
582.711	5.29
583.05	5.29
583.389	5.38
583.728	5.46
584.067	5.49
584.406	5.28
584.745	5.57
585.083	5.71
585.422	5.59
585.761	5.65
586.1	5.22
586.438	5.46
586.777	5.67
587.115	5.36
587.454	5.67
587.792	5.51
588.13	5.78
588.469	5.7
588.807	5.68
589.145	6.25
589.483	5.79
589.821	5.42
590.159	5.94
590.497	5.86
590.835	5.76
591.173	5.81
591.511	5.85
591.849	5.9
592.187	5.69
592.524	5.85
592.862	6.16
593.2	5.75
593.537	5.93
593.875	5.8
594.212	5.94
594.55	5.97
594.887	5.9
595.224	6.21
595.561	6.05
595.899	5.9
596.236	6.01
596.573	6.14
596.91	5.71
597.247	6.15
597.584	5.95
597.921	5.82
598.258	6.16
598.594	6.13
598.931	5.91
599.268	6.22
599.604	6.28
599.941	6.37
600.277	6.32
600.614	6.59
600.95	6.14
601.287	6.32
601.623	6.47
601.959	6.33
602.296	6.33
602.632	6.61
602.968	6.3
603.304	6.67
603.64	6.63
603.976	6.69
604.312	6.62
604.648	6.77
604.984	6.6
605.319	6.44
605.655	6.42
605.991	6.58
606.326	6.73
606.662	6.58
606.998	6.54
607.333	6.62
607.668	6.67
608.004	6.53
608.339	6.96
608.674	6.79
609.01	6.82
609.345	6.91
609.68	6.62
610.015	7.18
610.35	7.17
610.685	6.71
611.02	6.95
611.355	7.06
611.689	6.99
612.024	6.82
612.359	6.79
612.694	6.98
613.028	6.94
613.363	7.13
613.697	7.14
614.032	6.94
614.366	7.12
614.7	6.94
615.035	7.51
615.369	7.24
615.703	7.18
616.037	7.41
616.371	7.13
616.705	7.23
617.039	7.59
617.373	7.08
617.707	7.55
618.041	7.46
618.375	7.37
618.709	7.37
619.042	7.39
619.376	7.52
619.71	7.26
620.043	7.16
620.377	7.5
620.71	7.72
621.043	7.5
621.377	7.47
621.71	7.62
622.043	7.25
622.376	7.23
622.709	8.01
623.043	8.09
623.376	7.69
623.709	7.88
624.041	7.43
624.374	7.68
624.707	8.06
625.04	8.11
625.373	7.99
625.705	7.78
626.038	7.56
626.37	8.05
626.703	8.02
627.035	7.67
627.368	8.13
627.7	7.88
628.032	8.01
628.365	7.91
628.697	8.07
629.029	7.82
629.361	7.8
629.693	8
630.025	8.22
630.357	7.73
630.689	7.73
631.021	8.3
631.353	7.88
631.684	8.3
632.016	8.09
632.348	8.27
632.679	8.65
633.011	8.3
633.342	8.51
633.674	8.56
634.005	8.61
634.336	8.29
634.668	8.08
634.999	8.48
635.33	8.24
635.661	8.6
635.992	8.84
636.323	8.76
636.654	8.77
636.985	8.32
637.316	8.59
637.647	8.78
637.977	8.77
638.308	8.71
638.639	8.69
638.969	8.32
639.3	8.57
639.63	8.98
639.961	8.64
640.291	9.09
640.622	8.63
640.952	9.45
641.282	8.66
641.612	9.3
641.943	8.6
642.273	8.31
642.603	9.04
642.933	9.35
643.263	9.31
643.592	9.11
643.922	9.22
644.252	9.15
644.582	9.24
644.911	9.6
645.241	8.79
645.571	9.58
645.9	9.33
646.23	9.47
646.559	9.17
646.888	9.23
647.218	9.14
647.547	9.03
647.876	9.32
648.205	8.98
648.534	9.02
648.863	9.64
649.192	9.51
649.521	10.2
649.85	9.31
650.179	9.3
650.508	9.39
650.837	8.78
651.165	9.83
651.494	9.6
651.822	9.78
652.151	10.4
652.479	9.55
652.808	9.74
653.136	10.11
653.465	9.43
653.793	9.64
654.121	9.86
654.449	9.76
654.777	9.73
655.105	9.76
655.433	9.81
655.761	10.18
656.089	9.6
656.417	9.77
656.745	10.39
657.073	10.23
657.4	10.44
657.728	10.08
658.056	10.54
658.383	9.66
658.711	10.01
659.038	10.18
659.365	10.02
659.693	10.03
660.02	10.22
660.347	10.17
660.674	10.26
661.001	9.97
661.329	10.47
661.656	10.38
661.982	10.04
662.309	10.43
662.636	10.51
662.963	10.41
663.29	10.79
663.616	10.21
663.943	10.05
664.27	10.61
664.596	10.93
664.923	10.5
665.249	10.54
665.576	10.09
665.902	10.37
666.228	10.86
666.554	10.72
666.881	10.4
667.207	11.29
667.533	10.91
667.859	10.89
668.185	11.4
668.511	10.9
668.837	11.35
669.162	10.91
669.488	10.58
669.814	10.61
670.139	11.29
670.465	10.86
670.791	11.12
671.116	11.05
671.442	11.34
671.767	10.93
672.092	11.31
672.418	11.23
672.743	11.21
673.068	11.26
673.393	11.56
673.718	10.99
674.043	11.67
674.368	11.57
674.693	11.31
675.018	11.55
675.343	11.08
675.667	11.37
675.992	11.44
676.317	11.39
676.641	11.86
676.966	11.62
677.29	10.79
677.615	11.86
677.939	11.45
678.264	12.17
678.588	11.86
678.912	11.79
679.236	11.66
679.56	11.53
679.885	11.31
680.209	11.9
680.532	11.56
680.856	12.33
681.18	12.15
681.504	11.73
681.828	11.51
682.152	11.55
682.475	11.99
682.799	11.5
683.122	11.89
683.446	12.13
683.769	12.42
684.093	12.19
684.416	11.98
684.739	12.69
685.062	11.87
685.386	12.19
685.709	12.27
686.032	12.15
686.355	11.67
686.678	11.82
687.001	12.22
687.324	11.86
687.646	11.4
687.969	12.71
688.292	13.57
688.614	12.9
688.937	12.86
689.26	12.81
689.582	12.42
689.904	12.66
690.227	12.31
