Data from 0356_forehead_Reflection__3__75.txt Node

Date: Mon Dec 11 18:31:12 CST 2023
User: ToomeyLab
Spectrometer: FLMS14357
Trigger mode: 0
Integration Time (sec): 1.000000E-2
Scans to average: 100
Electric dark correction enabled: true
Nonlinearity correction enabled: false
Boxcar width: 0
XAxis mode: Wavelengths
Number of Pixels in Spectrum: 2048
>>>>>Begin Spectral Data<<<<<
189.047	56.62
189.435	56.62
189.823	56.62
190.211	269.34
190.599	212.72
190.987	147.84
191.375	194.94
191.763	101.12
192.151	-3154.17
192.538	-185.47
192.926	-24.5
193.314	65262.5
193.702	58.27
194.089	-234.39
194.477	91.57
194.864	-68.12
195.252	67.53
195.639	-57.02
196.027	159.7
196.414	148.98
196.801	-17.14
197.189	44.89
197.576	56.22
197.963	59.57
198.351	-79.1
198.738	37.03
199.125	5.88
199.512	16.53
199.899	25.59
200.286	12.7
200.673	-26.85
201.06	65.67
201.447	48.47
201.833	8.44
202.22	74.85
202.607	15.14
202.994	18.52
203.38	-16.79
203.767	26.54
204.154	46.39
204.54	19.89
204.927	27.52
205.313	12.32
205.699	-37.25
206.086	16.99
206.472	15.05
206.858	54.35
207.245	23.83
207.631	4.44
208.017	35.46
208.403	5.6
208.789	-63.94
209.175	28.95
209.561	16.14
209.947	-3.44
210.333	22.45
210.719	38.48
211.105	48.53
211.491	40.4
211.876	37.02
212.262	-21.61
212.648	38.88
213.034	29.93
213.419	29.5
213.805	16.94
214.19	14.23
214.576	13.19
214.961	34.22
215.346	-11.36
215.732	9.81
216.117	35.34
216.502	-9.37
216.888	9.78
217.273	35.1
217.658	8.99
218.043	-12.93
218.428	29.77
218.813	7.47
219.198	12.94
219.583	-3.3
219.968	10.48
220.353	25.26
220.738	13.62
221.122	-2.39
221.507	35.4
221.892	3.44
222.276	-3.18
222.661	-2.9
223.046	-9.96
223.43	1.27
223.815	-7.16
224.199	6.78
224.583	4.87
224.968	8.88
225.352	4.14
225.736	8.57
226.121	13.53
226.505	-2.64
226.889	5.95
227.273	9.62
227.657	9.65
228.041	3.75
228.425	-0.64
228.809	-0.47
229.193	2.28
229.577	3.27
229.961	3.46
230.344	2.66
230.728	3.3
231.112	2.84
231.495	3.7
231.879	3.6
232.263	3.13
232.646	2.89
233.03	2.63
233.413	3.13
233.797	4.92
234.18	2.69
234.563	4.9
234.946	6.26
235.33	5.52
235.713	2.04
236.096	3.62
236.479	3.77
236.862	2.61
237.245	3.14
237.628	3.2
238.011	3.14
238.394	2.48
238.777	2.64
239.16	1.16
239.543	5.27
239.925	1.79
240.308	2.4
240.691	3.87
241.073	4.52
241.456	4.56
241.838	5.01
242.221	2.97
242.603	2.55
242.986	2.85
243.368	3.15
243.75	3.4
244.133	2.99
244.515	2.68
244.897	2.53
245.279	2.95
245.661	2.63
246.043	2.43
246.425	3.78
246.807	3.05
247.189	4.55
247.571	3.09
247.953	2.83
248.335	3.1
248.717	2.96
249.098	2.83
249.48	2.82
249.862	3.27
250.243	3.07
250.625	2.51
251.006	2.57
251.388	2.97
251.769	2.69
252.151	3.36
252.532	2.67
252.913	3.76
253.295	3.59
253.676	3.28
254.057	3.13
254.438	3.28
254.819	3.09
255.2	1.69
255.581	1.75
255.962	3.12
256.343	2.01
256.724	4.07
257.105	2.93
257.486	2.59
257.867	4.2
258.247	2.27
258.628	2.54
259.009	3.7
259.389	4
259.77	3
260.15	2.96
260.531	3.18
260.911	2.34
261.292	2.55
261.672	2.73
262.052	2.73
262.432	2.82
262.813	2.97
263.193	2.45
263.573	3.36
263.953	2.64
264.333	2.48
264.713	2.75
265.093	2.84
265.473	3.28
265.853	3.02
266.233	3.04
266.612	3.39
266.992	3.42
267.372	4.29
267.752	3.89
268.131	3.25
268.511	2.83
268.89	3.47
269.27	3.46
269.649	2.75
270.029	3.46
270.408	3.41
270.787	2.8
271.167	2.12
271.546	3.23
271.925	3.37
272.304	3.03
272.683	2.83
273.062	2.52
273.441	3.02
273.82	2.84
274.199	2.59
274.578	2.85
274.957	2.95
275.336	3.2
275.715	2.41
276.093	3.61
276.472	3.68
276.851	3.41
277.229	3.72
277.608	3.15
277.986	3.7
278.365	2.95
278.743	2.41
279.122	2.45
279.5	3.33
279.878	3.33
280.257	3.26
280.635	3.13
281.013	3.08
281.391	3.57
281.769	2.71
282.147	2.92
282.525	2.62
282.903	3.04
283.281	2.41
283.659	2.62
284.037	2.8
284.415	2.67
284.792	3.12
285.17	3.34
285.548	2.88
285.925	2.77
286.303	3.07
286.68	2.81
287.058	2.85
287.435	3.03
287.813	3.11
288.19	2.89
288.567	2.6
288.945	3.15
289.322	2.86
289.699	3.08
290.076	3.01
290.453	3.09
290.83	3.52
291.207	3.26
291.584	3.12
291.961	2.9
292.338	3.09
292.715	3.4
293.092	3.02
293.469	3.11
293.845	2.64
294.222	3.41
294.599	3.07
294.975	3.3
295.352	2.82
295.728	3.48
296.105	3.11
296.481	3
296.858	3.04
297.234	3.6
297.61	3.51
297.986	3.54
298.363	3.37
298.739	3.47
299.115	3.32
299.491	3.58
299.867	3.58
300.243	3.83
300.619	3.5
300.995	3.53
301.371	3.12
301.746	3.02
302.122	3.77
302.498	3.73
302.874	3.74
303.249	3.92
303.625	3.55
304	3.87
304.376	3.71
304.751	3.85
305.127	3.65
305.502	3.98
305.878	3.84
306.253	4.23
306.628	4.13
307.003	4.23
307.378	3.72
307.754	4.23
308.129	4.6
308.504	3.89
308.879	4.03
309.254	4.66
309.629	4.18
310.003	4.02
310.378	3.96
310.753	4.62
311.128	4.22
311.502	4.11
311.877	4.74
312.252	4.88
312.626	4.1
313.001	4.64
313.375	4.08
313.75	4.25
314.124	4.45
314.498	4.17
314.873	4.19
315.247	4.68
315.621	4.8
315.995	5.2
316.369	4.65
316.743	5.03
317.117	4.86
317.491	4.73
317.865	4.68
318.239	5.16
318.613	4.95
318.987	4.81
319.361	5.35
319.734	5.27
320.108	5.08
320.482	5.07
320.855	4.91
321.229	4.86
321.602	5.21
321.976	5.27
322.349	5.15
322.723	5.24
323.096	5.73
323.469	5.5
323.843	5.49
324.216	5.81
324.589	6.13
324.962	4.98
325.335	5.19
325.708	5.72
326.081	5.87
326.454	5.43
326.827	5.57
327.2	5.28
327.573	5.68
327.945	5.64
328.318	5.52
328.691	5.48
329.063	5.44
329.436	5.03
329.809	5.29
330.181	5.93
330.553	6.2
330.926	6.45
331.298	6.62
331.671	6.15
332.043	5.77
332.415	5.78
332.787	6.49
333.159	6.15
333.532	6.41
333.904	6.19
334.276	6.72
334.648	6.17
335.02	6.23
335.391	6.26
335.763	6.34
336.135	6.56
336.507	6.52
336.879	6.68
337.25	6.63
337.622	6.01
337.993	6.12
338.365	6.4
338.736	6.6
339.108	6.97
339.479	6.56
339.851	6.38
340.222	6.87
340.593	6.53
340.964	6.92
341.336	6.56
341.707	6.04
342.078	7.01
342.449	6.76
342.82	5.84
343.191	6.82
343.562	6.85
343.933	6.94
344.303	6.44
344.674	6.81
345.045	7.37
345.416	6.45
345.786	7.09
346.157	6.58
346.527	6.86
346.898	7.11
347.268	6.95
347.639	6.72
348.009	7.47
348.38	6.66
348.75	7.05
349.12	7.28
349.49	6.95
349.861	6.88
350.231	7.59
350.601	7.53
350.971	7.38
351.341	7.51
351.711	7.73
352.081	6.89
352.45	7.01
352.82	6.92
353.19	7.82
353.56	7.56
353.929	7.64
354.299	8.3
354.669	7.62
355.038	8.48
355.408	7.24
355.777	7.84
356.147	7.9
356.516	7.67
356.885	7.47
357.254	7.66
357.624	7.52
357.993	7.37
358.362	7.82
358.731	7.66
359.1	7.83
359.469	7.81
359.838	7.74
360.207	7.8
360.576	8.03
360.945	7.89
361.314	8.19
361.682	7.77
362.051	8.24
362.42	8.16
362.788	7.78
363.157	8.02
363.525	7.85
363.894	8.02
364.262	8
364.631	8.46
364.999	8.28
365.367	8.35
365.735	8.67
366.104	8.08
366.472	8.54
366.84	8.32
367.208	8.18
367.576	8.58
367.944	8.85
368.312	8.63
368.68	8.67
369.048	8.28
369.416	8.5
369.783	8.56
370.151	9.18
370.519	9.32
370.886	8.6
371.254	8.94
371.621	8.81
371.989	9.07
372.356	8.97
372.724	9.15
373.091	8.93
373.458	8.61
373.826	9.14
374.193	8.99
374.56	9.32
374.927	9.3
375.294	9.05
375.661	9.25
376.028	9.69
376.395	9.32
376.762	8.97
377.129	9.84
377.496	9.45
377.863	9.67
378.229	9.44
378.596	9.31
378.963	9.7
379.329	9.16
379.696	9.66
380.062	9.21
380.429	9.43
380.795	9.7
381.161	9.76
381.528	9.72
381.894	9.58
382.26	9.88
382.626	9.74
382.993	10.05
383.359	9.66
383.725	9.6
384.091	10.09
384.457	9.65
384.823	10.27
385.188	10.24
385.554	9.83
385.92	9.94
386.286	10.34
386.651	10.15
387.017	10.23
387.383	10.05
387.748	9.99
388.114	10.14
388.479	10.2
388.845	10.13
389.21	10.46
389.575	10.45
389.94	10.34
390.306	10.31
390.671	10.4
391.036	10.57
391.401	10.8
391.766	10.51
392.131	10.82
392.496	10.97
392.861	10.74
393.226	10.71
393.591	10.85
393.956	10.57
394.32	10.86
394.685	10.72
395.05	11.13
395.414	11.29
395.779	10.69
396.143	10.72
396.508	10.69
396.872	10.99
397.236	11.07
397.601	10.92
397.965	11.1
398.329	11.22
398.694	11.21
399.058	11.2
399.422	11.53
399.786	11.19
400.15	11.07
400.514	11.32
400.878	11.32
401.242	11.25
401.605	11.4
401.969	11.45
402.333	11.2
402.697	11.7
403.06	11.47
403.424	11.48
403.787	11.67
404.151	11.5
404.514	11.76
404.878	11.95
405.241	11.59
405.604	11.84
405.968	11.92
406.331	11.66
406.694	11.58
407.057	11.73
407.42	12.02
407.783	11.95
408.146	11.81
408.509	11.89
408.872	11.96
409.235	12.05
409.598	12.02
409.961	12.11
410.323	12.49
410.686	12.25
411.049	12.4
411.411	12.22
411.774	12.23
412.136	12.22
412.499	12.33
412.861	12.03
413.223	12.34
413.586	12.47
413.948	12.5
414.31	12.34
414.672	12.26
415.035	12.54
415.397	12.58
415.759	12.69
416.121	12.83
416.483	12.6
416.845	12.76
417.206	12.61
417.568	12.73
417.93	12.78
418.292	12.81
418.653	12.56
419.015	12.58
419.377	12.7
419.738	12.83
420.1	12.71
420.461	12.75
420.822	12.68
421.184	12.69
421.545	12.74
421.906	12.82
422.267	12.85
422.629	12.78
422.99	12.75
423.351	12.64
423.712	12.78
424.073	12.78
424.434	12.96
424.795	13.08
425.155	12.94
425.516	13
425.877	12.7
426.238	13.07
426.598	13.1
426.959	13.09
427.32	13.18
427.68	13.3
428.041	13.23
428.401	13.21
428.761	13.33
429.122	13.39
429.482	13.5
429.842	13.59
430.202	13.44
430.563	13.47
430.923	13.74
431.283	13.65
431.643	13.67
432.003	13.86
432.363	13.77
432.722	13.79
433.082	13.94
433.442	13.97
433.802	13.83
434.161	14.11
434.521	13.76
434.881	13.96
435.24	13.91
435.6	13.8
435.959	13.92
436.319	13.97
436.678	14.07
437.037	14.03
437.396	14.16
437.756	14.33
438.115	14.49
438.474	14.4
438.833	14.46
439.192	14.41
439.551	14.37
439.91	14.39
440.269	14.55
440.628	14.24
440.987	14.49
441.345	14.3
441.704	14.53
442.063	14.47
442.421	14.59
442.78	14.37
443.138	14.53
443.497	14.54
443.855	14.58
444.214	14.76
444.572	14.77
444.93	14.97
445.288	14.73
445.647	14.89
446.005	14.64
446.363	14.86
446.721	14.86
447.079	14.77
447.437	14.7
447.795	14.72
448.153	14.88
448.51	14.8
448.868	14.72
449.226	14.91
449.584	15.05
449.941	15.08
450.299	15.02
450.656	15.16
451.014	15.19
451.371	15.22
451.729	15.29
452.086	15.31
452.443	15.54
452.801	15.35
453.158	15.45
453.515	15.61
453.872	15.51
454.229	15.57
454.586	15.4
454.943	15.6
455.3	15.63
455.657	15.7
456.014	15.82
456.371	15.94
456.727	15.83
457.084	15.77
457.441	15.96
457.797	15.79
458.154	16.03
458.51	16.25
458.867	15.94
459.223	16.32
459.58	15.98
459.936	16.22
460.292	15.93
460.648	16.03
461.005	15.97
461.361	15.91
461.717	15.88
462.073	15.83
462.429	16.06
462.785	16.01
463.141	16.1
463.496	16.33
463.852	16.32
464.208	16.33
464.564	16.57
464.919	16.52
465.275	16.71
465.631	16.42
465.986	16.44
466.342	16.51
466.697	16.66
467.052	16.53
467.408	16.9
467.763	16.75
468.118	16.56
468.473	16.95
468.829	16.88
469.184	17.09
469.539	16.85
469.894	16.89
470.249	16.93
470.603	17.13
470.958	17.13
471.313	17.1
471.668	17.2
472.023	17.14
472.377	17.06
472.732	17.17
473.086	17.09
473.441	17.14
473.795	17.4
474.15	17.3
474.504	17.33
474.859	17.31
475.213	17.21
475.567	17.55
475.921	17.34
476.275	17.55
476.63	17.55
476.984	17.54
477.338	17.47
477.692	17.54
478.045	17.63
478.399	17.68
478.753	17.49
479.107	17.75
479.461	17.77
479.814	17.87
480.168	17.95
480.521	17.9
480.875	17.6
481.228	17.81
481.582	18.02
481.935	17.86
482.289	17.95
482.642	18.01
482.995	17.99
483.348	17.92
483.701	17.8
484.055	17.87
484.408	17.77
484.761	17.76
485.114	17.58
485.466	17.23
485.819	17.13
486.172	17.24
486.525	17.23
486.878	17.39
487.23	17.55
487.583	17.71
487.936	17.88
488.288	18.02
488.641	17.82
488.993	17.69
489.345	17.75
489.698	17.72
490.05	17.76
490.402	17.82
490.754	17.91
491.107	18.1
491.459	18.23
491.811	18.45
492.163	18.47
492.515	18.58
492.866	18.64
493.218	18.18
493.57	18.17
493.922	18.12
494.274	18.26
494.625	18.35
494.977	18.61
495.328	18.81
495.68	18.93
496.031	19.16
496.383	19.26
496.734	19.4
497.086	19.39
497.437	19.23
497.788	19.35
498.139	19.31
498.49	19.29
498.842	19.32
499.193	19.35
499.544	19.24
499.894	19.49
500.245	19.37
500.596	19.65
500.947	19.52
501.298	19.69
501.648	19.56
501.999	19.59
502.35	19.73
502.7	19.9
503.051	19.92
503.401	19.92
503.752	19.93
504.102	19.91
504.452	19.91
504.803	20.19
505.153	20.05
505.503	20.33
505.853	20.34
506.203	20.12
506.553	20.17
506.903	20.13
507.253	20.32
507.603	20.25
507.953	20.49
508.303	20.26
508.652	20.31
509.002	20.32
509.352	20.56
509.701	20.35
510.051	20.41
510.4	20.43
510.75	20.4
511.099	20.47
511.449	20.41
511.798	20.54
512.147	20.66
512.496	20.57
512.846	20.7
513.195	20.82
513.544	20.69
513.893	20.67
514.242	20.68
514.591	20.57
514.939	20.81
515.288	20.97
515.637	20.79
515.986	21.03
516.334	21.07
516.683	21.32
517.032	21.4
517.38	21.28
517.729	21.06
518.077	21.29
518.426	21.5
518.774	21.42
519.122	21.26
519.47	21.22
519.819	21.17
520.167	21.08
520.515	21.08
520.863	20.95
521.211	21.28
521.559	21.28
521.907	21.3
522.255	21.38
522.602	21.51
522.95	21.63
523.298	21.46
523.645	21.95
523.993	21.79
524.341	22.06
524.688	21.8
525.036	21.75
525.383	21.94
525.73	22.2
526.078	22.02
526.425	21.87
526.772	21.95
527.119	21.94
527.466	21.69
527.814	21.69
528.161	21.72
528.508	21.78
528.854	21.77
529.201	21.89
529.548	21.82
529.895	21.68
530.242	21.47
530.588	21.33
530.935	21.38
531.282	21.46
531.628	21.51
531.975	21.65
532.321	21.78
532.667	21.95
533.014	22.05
533.36	22.24
533.706	22.24
534.052	22.24
534.399	22.34
534.745	22.3
535.091	21.96
535.437	22.01
535.783	22.1
536.129	22.25
536.474	22.42
536.82	22.43
537.166	22.62
537.512	22.67
537.857	22.87
538.203	22.68
538.549	22.79
538.894	22.61
539.239	22.94
539.585	22.96
539.93	23.13
540.276	23.12
540.621	23.33
540.966	23.33
541.311	23.02
541.656	23.39
542.001	23.44
542.346	23.27
542.691	23.07
543.036	22.76
543.381	22.67
543.726	22.74
544.071	22.83
544.415	22.97
544.76	23.07
545.105	23.14
545.449	23.28
545.794	23.47
546.138	23.6
546.483	23.64
546.827	23.89
547.171	23.6
547.516	23.77
547.86	23.9
548.204	23.9
548.548	23.94
548.892	23.87
549.236	23.9
549.58	24.16
549.924	24.24
550.268	24.19
550.612	24.5
550.956	24.47
551.3	24.47
551.643	24.61
551.987	24.65
552.33	24.72
552.674	24.81
553.017	24.7
553.361	24.66
553.704	24.65
554.048	24.95
554.391	24.89
554.734	24.76
555.077	24.85
555.42	24.91
555.764	24.8
556.107	25.11
556.45	24.98
556.793	25.07
557.135	25.13
557.478	25.12
557.821	25.08
558.164	25.28
558.507	25.19
558.849	25.17
559.192	25.21
559.534	25.3
559.877	25.29
560.219	25.52
560.562	25.6
560.904	25.69
561.246	25.44
561.589	25.85
561.931	25.69
562.273	25.64
562.615	25.48
562.957	25.59
563.299	25.72
563.641	25.66
563.983	26.11
564.325	25.84
564.667	25.93
565.008	26.06
565.35	25.91
565.692	25.87
566.033	26.1
566.375	26.14
566.716	26.33
567.058	26.19
567.399	26.29
567.741	25.99
568.082	25.91
568.423	25.83
568.764	26.07
569.105	25.97
569.447	26.2
569.788	26.35
570.129	26.27
570.47	26.15
570.811	26.41
571.151	26.36
571.492	26.32
571.833	26.61
572.174	26.7
572.514	26.7
572.855	26.37
573.195	26.76
573.536	26.47
573.876	26.66
574.217	26.47
574.557	26.57
574.898	26.83
575.238	26.84
575.578	26.65
575.918	26.82
576.258	26.79
576.598	27
576.938	26.92
577.278	26.75
577.618	26.78
577.958	26.94
578.298	27.03
578.638	27.3
578.977	27.14
579.317	27.19
579.657	27.2
579.996	27.58
580.336	27.47
580.675	27.3
581.014	27.44
581.354	27.36
581.693	27.33
582.032	27.32
582.372	27.52
582.711	27.37
583.05	27.41
583.389	27.88
583.728	27.94
584.067	27.46
584.406	27.72
584.745	27.79
585.083	27.72
585.422	28.26
585.761	27.65
586.1	27.94
586.438	27.86
586.777	28.21
587.115	27.74
587.454	28.24
587.792	28.11
588.13	28.28
588.469	28.08
588.807	28.32
589.145	28.59
589.483	28.21
589.821	28.21
590.159	28.21
590.497	27.98
590.835	28.23
591.173	28.47
591.511	28.25
591.849	28.51
592.187	28.25
592.524	28.37
592.862	28.53
593.2	28.3
593.537	28.5
593.875	28.84
594.212	28.5
594.55	28.53
594.887	28.66
595.224	29.04
595.561	28.77
595.899	28.59
596.236	28.92
596.573	28.9
596.91	28.84
597.247	28.83
597.584	28.68
597.921	28.67
598.258	29.05
598.594	29.03
598.931	28.5
599.268	28.86
599.604	28.93
599.941	29.22
600.277	29.14
600.614	29.09
600.95	29.23
601.287	29.59
601.623	29.4
601.959	29.35
602.296	29.39
602.632	29.57
602.968	29.59
603.304	29.37
603.64	29.44
603.976	29.56
604.312	29.32
604.648	29.48
604.984	29.64
605.319	29.52
605.655	29.45
605.991	29.38
606.326	29.57
606.662	29.56
606.998	29.4
607.333	29.73
607.668	29.6
608.004	29.72
608.339	30.04
608.674	29.8
609.01	30.32
609.345	29.95
609.68	30.16
610.015	30.1
610.35	30.06
610.685	29.75
611.02	29.99
611.355	29.97
611.689	30.25
612.024	29.93
612.359	30.17
612.694	29.99
613.028	30.31
613.363	30.05
613.697	29.97
614.032	30.68
614.366	30.08
614.7	30.61
615.035	30.6
615.369	30.66
615.703	30.78
616.037	30.47
616.371	30.32
616.705	30.78
617.039	30.65
617.373	30.76
617.707	30.77
618.041	30.65
618.375	30.89
618.709	30.85
619.042	30.18
619.376	30.99
619.71	31.01
620.043	30.98
620.377	30.99
620.71	31.01
621.043	30.79
621.377	30.83
621.71	31.05
622.043	30.65
622.376	30.77
622.709	30.94
623.043	31.5
623.376	31.07
623.709	31.12
624.041	31.12
624.374	31.32
624.707	31.25
625.04	31.53
625.373	31.73
625.705	31.31
626.038	31.22
626.37	31.87
626.703	31.74
627.035	31.33
627.368	31.24
627.7	31.29
628.032	31.52
628.365	31.43
628.697	31.62
629.029	31.68
629.361	31.43
629.693	31.72
630.025	31.59
630.357	31.76
630.689	31.46
631.021	31.8
631.353	32.01
631.684	31.81
632.016	31.97
632.348	31.73
632.679	32.17
633.011	32.03
633.342	32.29
633.674	32.57
634.005	32.15
634.336	32.24
634.668	32.08
634.999	32.14
635.33	32.29
635.661	32.11
635.992	32.29
636.323	32.2
636.654	32.49
636.985	32.6
637.316	32.06
637.647	32.67
637.977	32.51
638.308	33
638.639	32.26
638.969	32.52
639.3	32.86
639.63	32.73
639.961	32.63
640.291	33.33
640.622	32.8
640.952	33.03
641.282	32.96
641.612	32.86
641.943	32.63
642.273	32.9
642.603	33.11
642.933	32.81
643.263	33.12
643.592	33.27
643.922	33.15
644.252	33.17
644.582	33.32
644.911	33.28
645.241	33.4
645.571	33.67
645.9	33.22
646.23	33.68
646.559	33.41
646.888	33.47
647.218	33.27
647.547	33.04
647.876	33.42
648.205	32.64
648.534	33.08
648.863	33.08
649.192	33.66
649.521	34.11
649.85	33.39
650.179	33.63
650.508	33.49
650.837	33.3
651.165	34.24
651.494	33.77
651.822	33.1
652.151	33.7
652.479	33.93
652.808	33.76
653.136	33.12
653.465	33.37
653.793	33.33
654.121	33.48
654.449	33.83
654.777	33.85
655.105	33.74
655.433	34.08
655.761	33.61
656.089	33.93
656.417	34.17
656.745	34.27
657.073	34.11
657.4	34.44
657.728	34.2
658.056	34.42
658.383	33.58
658.711	33.91
659.038	34.2
659.365	34.32
659.693	33.9
660.02	34.77
660.347	33.75
660.674	34.6
661.001	34.42
661.329	34.49
661.656	34.38
661.982	34.49
662.309	34.55
662.636	34.56
662.963	34.92
663.29	34.9
663.616	34.2
663.943	33.96
664.27	34.48
664.596	35.13
664.923	34.67
665.249	34.92
665.576	34.74
665.902	34.59
666.228	34.9
666.554	35.13
666.881	34.93
667.207	35.7
667.533	34.54
667.859	34.64
668.185	35
668.511	35.15
668.837	34.92
669.162	35.13
669.488	34.93
669.814	35.15
670.139	35.64
670.465	35.87
670.791	35.06
671.116	35.41
671.442	36.08
671.767	35.42
672.092	34.97
672.418	34.96
672.743	35.44
673.068	35.67
673.393	35.16
