Data from 0356_crown_Reflection__1__68.txt Node

Date: Mon Dec 11 18:28:59 CST 2023
User: ToomeyLab
Spectrometer: FLMS14357
Trigger mode: 0
Integration Time (sec): 1.000000E-2
Scans to average: 100
Electric dark correction enabled: true
Nonlinearity correction enabled: false
Boxcar width: 0
XAxis mode: Wavelengths
Number of Pixels in Spectrum: 2048
>>>>>Begin Spectral Data<<<<<
189.047	49.56
189.435	49.56
189.823	49.56
190.211	-5.35
190.599	299
190.987	-43.05
191.375	286.45
191.763	19.87
192.151	12375
192.538	-629.05
192.926	359.4
193.314	20075
193.702	66.94
194.089	189.29
194.477	569.72
194.864	-470.51
195.252	-10.23
195.639	62.73
196.027	97.71
196.414	-460.79
196.801	-17.83
197.189	-158.96
197.576	26.61
197.963	-149.3
198.351	-35.69
198.738	5.81
199.125	-49.59
199.512	-17.73
199.899	-12.79
200.286	38.97
200.673	-112.9
201.06	46.64
201.447	21.09
201.833	0.15
202.22	56.85
202.607	-31.22
202.994	-20.75
203.38	-41.56
203.767	34.44
204.154	52.93
204.54	21.75
204.927	-19.04
205.313	5.68
205.699	-37.78
206.086	-2.26
206.472	19.87
206.858	31.7
207.245	18.82
207.631	-9.33
208.017	37.08
208.403	-16.3
208.789	-3.31
209.175	20.1
209.561	-36.07
209.947	4.41
210.333	26.53
210.719	24.21
211.105	6.49
211.491	35.97
211.876	6.81
212.262	-2.05
212.648	13.35
213.034	-33.05
213.419	4.96
213.805	-12.27
214.19	37.96
214.576	11.96
214.961	30.39
215.346	9.55
215.732	38.1
216.117	15.6
216.502	1.47
216.888	-15.77
217.273	34.85
217.658	16.69
218.043	-4.94
218.428	-10.29
218.813	11.4
219.198	-1.64
219.583	10.75
219.968	-9.55
220.353	-5.36
220.738	21.92
221.122	5.65
221.507	18.51
221.892	1.67
222.276	14.43
222.661	-0.72
223.046	5.7
223.43	13.92
223.815	-6.4
224.199	-2.14
224.583	1.29
224.968	-3.29
225.352	11.01
225.736	5.5
226.121	10.15
226.505	-1.74
226.889	8.47
227.273	6.61
227.657	17.63
228.041	8.74
228.425	3.28
228.809	3.89
229.193	8.86
229.577	7.58
229.961	7.59
230.344	7.5
230.728	7.34
231.112	7.08
231.495	7.69
231.879	6.29
232.263	6.16
232.646	5.87
233.03	5.41
233.413	5.73
233.797	7.36
234.18	7.35
234.563	8.15
234.946	6.24
235.33	8.02
235.713	6.56
236.096	6.13
236.479	8.51
236.862	5.39
237.245	7.62
237.628	7.48
238.011	6.57
238.394	6.27
238.777	5.83
239.16	6.54
239.543	4.59
239.925	5.83
240.308	7.34
240.691	5.18
241.073	7.36
241.456	7.39
241.838	8.9
242.221	7.44
242.603	6.26
242.986	5.35
243.368	5.54
243.75	6.45
244.133	6.45
244.515	5.97
244.897	5.8
245.279	6.25
245.661	5.49
246.043	5.9
246.425	5.45
246.807	6.15
247.189	6.53
247.571	6.24
247.953	6.21
248.335	6.41
248.717	6.17
249.098	5.76
249.48	5.88
249.862	6.23
250.243	6.06
250.625	5.84
251.006	5.84
251.388	6.25
251.769	6.18
252.151	6.37
252.532	5.77
252.913	6.34
253.295	6.28
253.676	5.68
254.057	5.74
254.438	5.9
254.819	5.5
255.2	4.62
255.581	4.94
255.962	5.64
256.343	6.17
256.724	6.14
257.105	5.73
257.486	4.46
257.867	6.06
258.247	5
258.628	5.96
259.009	6.74
259.389	6
259.77	5.03
260.15	5.69
260.531	6.18
260.911	5.12
261.292	5.26
261.672	5.62
262.052	5.45
262.432	5.59
262.813	5.58
263.193	5.26
263.573	5.59
263.953	5.03
264.333	4.92
264.713	5.49
265.093	5.67
265.473	5.95
265.853	4.83
266.233	4.4
266.612	4.95
266.992	5.54
267.372	6.42
267.752	5.89
268.131	5.48
268.511	5.16
268.89	5.63
269.27	6.12
269.649	5.85
270.029	6.27
270.408	5.13
270.787	5.25
271.167	4.73
271.546	5.31
271.925	5.27
272.304	5.37
272.683	5.11
273.062	4.91
273.441	5.28
273.82	4.84
274.199	5.12
274.578	5.5
274.957	5.2
275.336	4.71
275.715	4.76
276.093	5.84
276.472	5.67
276.851	6.04
277.229	5.41
277.608	5.7
277.986	5.5
278.365	5.19
278.743	5.04
279.122	4.85
279.5	5.46
279.878	5.07
280.257	4.94
280.635	4.75
281.013	3.81
281.391	5.12
281.769	4.83
282.147	5.13
282.525	5.12
282.903	5.23
283.281	4.59
283.659	4.49
284.037	4.61
284.415	4.54
284.792	4.98
285.17	4.91
285.548	4.74
285.925	5.1
286.303	4.89
286.68	4.5
287.058	4.98
287.435	4.93
287.813	4.98
288.19	4.49
288.567	4.42
288.945	4.84
289.322	4.68
289.699	4.88
290.076	5
290.453	4.94
290.83	4.86
291.207	5.07
291.584	4.93
291.961	4.47
292.338	4.47
292.715	5.05
293.092	4.51
293.469	4.37
293.845	4.67
294.222	5.49
294.599	3.97
294.975	4.39
295.352	4.04
295.728	4.81
296.105	4.14
296.481	4.68
296.858	4.32
297.234	5.42
297.61	4.73
297.986	4.56
298.363	4.58
298.739	4.81
299.115	4.38
299.491	4.67
299.867	4.71
300.243	4.75
300.619	4.6
300.995	4.38
301.371	4.47
301.746	4.12
302.122	4.81
302.498	5
302.874	4.58
303.249	4.78
303.625	4.66
304	4.53
304.376	4.56
304.751	4.4
305.127	4.92
305.502	4.94
305.878	4.66
306.253	4.86
306.628	4.64
307.003	4.48
307.378	4.19
307.754	4.58
308.129	4.79
308.504	4.4
308.879	4.2
309.254	5.02
309.629	5.08
310.003	4.29
310.378	4.45
310.753	4.88
311.128	4.5
311.502	4.27
311.877	4.52
312.252	4.62
312.626	4.72
313.001	4.39
313.375	4.39
313.75	4.61
314.124	4.9
314.498	4.12
314.873	4.51
315.247	4.48
315.621	5.08
315.995	4.72
316.369	4.8
316.743	4.71
317.117	4.57
317.491	4.66
317.865	4.14
318.239	4.69
318.613	4.78
318.987	4.88
319.361	4.96
319.734	4.4
320.108	5.13
320.482	5.03
320.855	4.79
321.229	4.32
321.602	4.87
321.976	5.24
322.349	4.24
322.723	5.08
323.096	5.17
323.469	4.99
323.843	5.01
324.216	5.18
324.589	5.53
324.962	4.39
325.335	4.51
325.708	4.5
326.081	5.02
326.454	4.63
326.827	4.57
327.2	4.09
327.573	4.58
327.945	5.23
328.318	4.74
328.691	4.75
329.063	4.59
329.436	4.45
329.809	4.28
330.181	4.57
330.553	4.74
330.926	4.18
331.298	5.14
331.671	4.84
332.043	5.34
332.415	4.78
332.787	5.02
333.159	4.59
333.532	4.84
333.904	4.95
334.276	5.12
334.648	5.18
335.02	4.88
335.391	4.9
335.763	5.05
336.135	5.15
336.507	4.96
336.879	5.16
337.25	4.72
337.622	4.56
337.993	4.77
338.365	4.85
338.736	5.1
339.108	5.27
339.479	4.8
339.851	4.99
340.222	4.98
340.593	4.18
340.964	5.08
341.336	4.9
341.707	4.51
342.078	4.96
342.449	4.9
342.82	4.53
343.191	4.38
343.562	4.74
343.933	4.66
344.303	4.38
344.674	5.28
345.045	5.08
345.416	4.34
345.786	5.39
346.157	5.15
346.527	5.26
346.898	4.7
347.268	5.3
347.639	5.08
348.009	4.89
348.38	4.35
348.75	4.63
349.12	5.28
349.49	5.03
349.861	4.76
350.231	4.65
350.601	5.12
350.971	5.3
351.341	4.77
351.711	5.01
352.081	4.71
352.45	5.05
352.82	4.73
353.19	5.22
353.56	5.12
353.929	5.36
354.299	5.02
354.669	5.04
355.038	5.19
355.408	4.86
355.777	5.17
356.147	5.2
356.516	4.92
356.885	4.82
357.254	5.18
357.624	5
357.993	4.61
358.362	5.41
358.731	4.71
359.1	5.22
359.469	5.01
359.838	4.98
360.207	4.97
360.576	5.06
360.945	5.2
361.314	5.13
361.682	5.13
362.051	5.12
362.42	5.05
362.788	4.85
363.157	5.09
363.525	4.61
363.894	5.13
364.262	5.02
364.631	5.38
364.999	5.01
365.367	5.16
365.735	5.32
366.104	4.94
366.472	5.18
366.84	5.01
367.208	4.92
367.576	5.4
367.944	5.12
368.312	5.37
368.68	5.37
369.048	4.92
369.416	5.11
369.783	5.09
370.151	5.44
370.519	5.56
370.886	5.12
371.254	5.46
371.621	5.65
371.989	5.1
372.356	5.26
372.724	5.83
373.091	5.28
373.458	5.37
373.826	5.24
374.193	5.32
374.56	5.57
374.927	5.31
375.294	5.55
375.661	5.36
376.028	5.3
376.395	5.44
376.762	5.09
377.129	5.72
377.496	5.4
377.863	5.58
378.229	5.33
378.596	5.55
378.963	5.35
379.329	5.47
379.696	5.56
380.062	5.17
380.429	5.19
380.795	5.7
381.161	5.1
381.528	5.21
381.894	5.34
382.26	5.74
382.626	5.69
382.993	5.59
383.359	5.42
383.725	5.52
384.091	5.71
384.457	5.18
384.823	5.44
385.188	5.3
385.554	5.09
385.92	5.48
386.286	5.57
386.651	5.33
387.017	5.19
387.383	5.39
387.748	5.36
388.114	5.29
388.479	5.34
388.845	5.53
389.21	5.25
389.575	5.41
389.94	5.68
390.306	5.65
390.671	5.4
391.036	5.74
391.401	5.92
391.766	5.62
392.131	5.34
392.496	5.78
392.861	5.75
393.226	5.8
393.591	5.83
393.956	5.54
394.32	5.64
394.685	5.35
395.05	5.47
395.414	5.75
395.779	5.55
396.143	5.35
396.508	5.44
396.872	5.45
397.236	5.63
397.601	5.39
397.965	5.62
398.329	5.56
398.694	5.19
399.058	5.29
399.422	5.41
399.786	5.51
400.15	5.57
400.514	5.8
400.878	5.57
401.242	5.77
401.605	5.68
401.969	5.44
402.333	5.54
402.697	5.71
403.06	5.5
403.424	5.71
403.787	5.73
404.151	5.39
404.514	5.58
404.878	5.66
405.241	5.68
405.604	5.78
405.968	5.55
406.331	5.28
406.694	5.35
407.057	5.49
407.42	5.71
407.783	5.5
408.146	5.73
408.509	5.52
408.872	5.34
409.235	5.56
409.598	5.55
409.961	5.68
410.323	5.71
410.686	5.77
411.049	5.79
411.411	5.73
411.774	5.83
412.136	5.66
412.499	5.75
412.861	5.76
413.223	5.64
413.586	6.02
413.948	5.73
414.31	5.58
414.672	5.25
415.035	5.62
415.397	5.47
415.759	5.63
416.121	5.96
416.483	5.59
416.845	5.58
417.206	5.59
417.568	5.67
417.93	5.88
418.292	5.59
418.653	5.46
419.015	5.46
419.377	5.69
419.738	5.6
420.1	5.72
420.461	5.57
420.822	5.54
421.184	5.6
421.545	5.45
421.906	5.6
422.267	5.58
422.629	5.54
422.99	5.53
423.351	5.41
423.712	5.43
424.073	5.42
424.434	5.54
424.795	5.61
425.155	5.55
425.516	5.57
425.877	5.4
426.238	5.53
426.598	5.64
426.959	5.44
427.32	5.56
427.68	5.72
428.041	5.49
428.401	5.53
428.761	5.76
429.122	5.49
429.482	5.73
429.842	5.6
430.202	5.5
430.563	5.65
430.923	5.78
431.283	5.58
431.643	5.85
432.003	5.8
432.363	5.83
432.722	5.65
433.082	5.89
433.442	5.83
433.802	5.57
434.161	5.89
434.521	5.53
434.881	5.8
435.24	5.68
435.6	5.57
435.959	5.62
436.319	5.53
436.678	5.67
437.037	5.64
437.396	5.68
437.756	5.88
438.115	5.8
438.474	5.66
438.833	5.52
439.192	5.69
439.551	5.7
439.91	5.75
440.269	5.84
440.628	5.56
440.987	5.82
441.345	5.63
441.704	5.71
442.063	5.66
442.421	5.72
442.78	5.6
443.138	5.61
443.497	5.6
443.855	5.56
444.214	5.74
444.572	5.63
444.93	5.75
445.288	5.58
445.647	5.82
446.005	5.56
446.363	5.57
446.721	5.67
447.079	5.66
447.437	5.6
447.795	5.52
448.153	5.7
448.51	5.7
448.868	5.48
449.226	5.48
449.584	5.63
449.941	5.7
450.299	5.6
450.656	5.65
451.014	5.85
451.371	5.54
451.729	5.79
452.086	5.72
452.443	5.83
452.801	5.68
453.158	5.68
453.515	5.66
453.872	5.81
454.229	5.64
454.586	5.63
454.943	5.75
455.3	5.8
455.657	5.8
456.014	5.86
456.371	5.74
456.727	5.62
457.084	5.8
457.441	5.69
457.797	5.72
458.154	5.62
458.51	5.8
458.867	5.43
459.223	5.6
459.58	5.58
459.936	5.77
460.292	5.69
460.648	5.63
461.005	5.62
461.361	5.67
461.717	5.54
462.073	5.47
462.429	5.62
462.785	5.66
463.141	5.54
463.496	5.78
463.852	5.69
464.208	5.55
464.564	5.61
464.919	5.67
465.275	5.66
465.631	5.6
465.986	5.81
466.342	5.77
466.697	5.68
467.052	5.7
467.408	5.75
467.763	5.59
468.118	5.42
468.473	5.78
468.829	5.76
469.184	5.96
469.539	5.72
469.894	5.64
470.249	5.64
470.603	5.56
470.958	5.71
471.313	5.66
471.668	5.89
472.023	5.7
472.377	5.62
472.732	5.61
473.086	5.88
473.441	5.94
473.795	5.61
474.15	5.66
474.504	5.75
474.859	5.79
475.213	5.85
475.567	5.82
475.921	5.63
476.275	5.77
476.63	5.58
476.984	5.57
477.338	5.44
477.692	5.69
478.045	5.63
478.399	5.4
478.753	5.53
479.107	5.42
479.461	5.57
479.814	5.54
480.168	5.63
480.521	5.83
480.875	5.56
481.228	5.52
481.582	5.73
481.935	5.67
482.289	5.54
482.642	5.55
482.995	5.65
483.348	5.48
483.701	5.47
484.055	5.57
484.408	5.48
484.761	5.45
485.114	5.39
485.466	5.32
485.819	5.19
486.172	5.21
486.525	5.24
486.878	5.3
487.23	5.37
487.583	5.39
487.936	5.43
488.288	5.47
488.641	5.39
488.993	5.31
489.345	5.32
489.698	5.28
490.05	5.26
490.402	5.3
490.754	5.4
491.107	5.39
491.459	5.4
491.811	5.45
492.163	5.44
492.515	5.52
492.866	5.42
493.218	5.27
493.57	5.34
493.922	5.22
494.274	5.39
494.625	5.41
494.977	5.47
495.328	5.45
495.68	5.61
496.031	5.59
496.383	5.53
496.734	5.51
497.086	5.73
497.437	5.71
497.788	5.66
498.139	5.53
498.49	5.52
498.842	5.62
499.193	5.56
499.544	5.54
499.894	5.51
500.245	5.53
500.596	5.61
500.947	5.51
501.298	5.58
501.648	5.48
501.999	5.53
502.35	5.46
502.7	5.58
503.051	5.44
503.401	5.63
503.752	5.57
504.102	5.39
504.452	5.54
504.803	5.76
505.153	5.55
505.503	5.7
505.853	5.55
506.203	5.56
506.553	5.66
506.903	5.53
507.253	5.64
507.603	5.46
507.953	5.63
508.303	5.44
508.652	5.61
509.002	5.43
509.352	5.73
509.701	5.59
510.051	5.49
510.4	5.43
510.75	5.42
511.099	5.58
511.449	5.51
511.798	5.52
512.147	5.52
512.496	5.45
512.846	5.52
513.195	5.69
513.544	5.49
513.893	5.46
514.242	5.48
514.591	5.39
514.939	5.39
515.288	5.43
515.637	5.4
515.986	5.55
516.334	5.52
516.683	5.63
517.032	5.56
517.38	5.52
517.729	5.46
518.077	5.57
518.426	5.59
518.774	5.56
519.122	5.55
519.47	5.38
519.819	5.43
520.167	5.42
520.515	5.35
520.863	5.33
521.211	5.45
521.559	5.36
521.907	5.42
522.255	5.34
522.602	5.41
522.95	5.55
523.298	5.44
523.645	5.67
523.993	5.4
524.341	5.47
524.688	5.42
525.036	5.61
525.383	5.48
525.73	5.53
526.078	5.55
526.425	5.56
526.772	5.48
527.119	5.32
527.466	5.27
527.814	5.4
528.161	5.28
528.508	5.28
528.854	5.35
529.201	5.29
529.548	5.27
529.895	5.23
530.242	5.17
530.588	5.1
530.935	5.13
531.282	5.16
531.628	5.17
531.975	5.22
532.321	5.27
532.667	5.29
533.014	5.32
533.36	5.27
533.706	5.32
534.052	5.32
534.399	5.38
534.745	5.25
535.091	5.18
535.437	5.17
535.783	5.21
536.129	5.27
536.474	5.35
536.82	5.29
537.166	5.29
537.512	5.19
537.857	5.43
538.203	5.34
538.549	5.34
538.894	5.28
539.239	5.28
539.585	5.34
539.93	5.23
540.276	5.38
540.621	5.45
540.966	5.56
541.311	5.44
541.656	5.34
542.001	5.43
542.346	5.33
542.691	5.28
543.036	5.11
543.381	5.1
543.726	5.16
544.071	5.21
544.415	5.2
544.76	5.26
545.105	5.22
545.449	5.26
545.794	5.27
546.138	5.23
546.483	5.31
546.827	5.4
547.171	5.35
547.516	5.31
547.86	5.5
548.204	5.38
548.548	5.24
548.892	5.21
549.236	5.28
549.58	5.42
549.924	5.34
550.268	5.29
550.612	5.22
550.956	5.37
551.3	5.36
551.643	5.49
551.987	5.37
552.33	5.44
552.674	5.4
553.017	5.43
553.361	5.26
553.704	5.2
554.048	5.51
554.391	5.26
554.734	5.38
555.077	5.36
555.42	5.47
555.764	5.29
556.107	5.52
556.45	5.48
556.793	5.15
557.135	5.36
557.478	5.21
557.821	5.42
558.164	5.41
558.507	5.17
558.849	5.34
559.192	5.37
559.534	5.29
559.877	5.51
560.219	5.29
560.562	5.52
560.904	5.32
561.246	5.31
561.589	5.37
561.931	5.4
562.273	5.17
562.615	5.44
562.957	5.38
563.299	5.42
563.641	5.26
563.983	5.52
564.325	5.54
564.667	5.39
565.008	5.31
565.35	5.47
565.692	5.42
566.033	5.32
566.375	5.3
566.716	5.48
567.058	5.26
567.399	5.31
567.741	5.23
568.082	5.16
568.423	5.2
568.764	5.31
569.105	5.27
569.447	5.4
569.788	5.19
570.129	5.17
570.47	5.12
570.811	5.06
571.151	5.27
571.492	5.25
571.833	5.08
572.174	5.33
572.514	5.35
572.855	5.15
573.195	5.3
573.536	5.25
573.876	5.2
574.217	5.29
574.557	5.13
574.898	5.04
575.238	5.25
575.578	5.23
575.918	5.39
576.258	5.37
576.598	5.34
576.938	5.19
577.278	5.25
577.618	5.27
577.958	5.24
578.298	5.48
578.638	5.35
578.977	5.29
579.317	5.2
579.657	5.06
579.996	5.11
580.336	5.35
580.675	5.19
581.014	5.24
581.354	5.04
581.693	5.47
582.032	4.92
582.372	5.14
582.711	5.04
583.05	5.23
583.389	5.21
583.728	5.48
584.067	5.2
584.406	5.23
584.745	5.12
585.083	5.37
585.422	5.43
585.761	5.4
586.1	5.21
586.438	4.78
586.777	5.36
587.115	4.99
587.454	5.18
587.792	5.28
588.13	5.47
588.469	5.2
588.807	5.36
589.145	5.26
589.483	5.13
589.821	4.8
590.159	5.08
590.497	5.2
590.835	5.1
591.173	5.16
591.511	5.32
591.849	5.17
592.187	5.04
592.524	5.32
592.862	5.08
593.2	5.03
593.537	5.04
593.875	5.2
594.212	5.13
594.55	4.94
594.887	5.22
595.224	5.37
595.561	5.17
595.899	4.94
596.236	5.22
596.573	5.11
596.91	4.92
597.247	5.24
597.584	4.82
597.921	4.95
598.258	5.25
598.594	4.99
598.931	4.91
599.268	5.22
599.604	5.08
599.941	5.3
600.277	4.97
600.614	5.12
600.95	4.93
601.287	5.32
601.623	5.21
601.959	5.24
602.296	5.3
602.632	4.93
602.968	5.03
603.304	4.9
603.64	5.14
603.976	5.31
604.312	5.15
604.648	5.23
604.984	5.04
605.319	5.11
605.655	5.08
605.991	4.89
606.326	4.99
606.662	4.92
606.998	4.94
607.333	5.14
607.668	5.2
608.004	4.9
608.339	5.18
608.674	5.25
609.01	5.1
609.345	4.95
609.68	5.1
610.015	5.04
610.35	4.93
610.685	4.92
611.02	4.81
611.355	4.94
611.689	4.98
612.024	4.86
612.359	5.17
612.694	5.03
613.028	4.92
613.363	4.96
613.697	5.01
614.032	5.05
614.366	5.04
614.7	4.85
615.035	4.8
615.369	5.22
615.703	5.01
616.037	4.99
616.371	4.98
616.705	5.24
617.039	5.31
617.373	5.19
617.707	5.18
618.041	5.52
618.375	5.42
618.709	4.92
619.042	4.91
619.376	5.28
619.71	5.12
620.043	4.73
620.377	4.78
620.71	5.1
621.043	4.93
621.377	4.44
621.71	4.91
622.043	4.84
622.376	5.14
622.709	5.42
623.043	5.29
623.376	4.86
623.709	4.89
624.041	4.77
624.374	5.11
624.707	4.99
625.04	5.45
625.373	5.04
625.705	4.91
626.038	4.95
626.37	5.35
626.703	5.17
627.035	5.11
627.368	5.37
627.7	5.1
628.032	5.05
628.365	4.87
628.697	4.87
629.029	4.94
629.361	4.59
629.693	4.96
630.025	4.86
630.357	4.66
630.689	4.58
631.021	4.82
631.353	4.7
631.684	5.09
632.016	5.2
632.348	5.34
632.679	5.38
633.011	5.02
633.342	5.23
633.674	5.06
634.005	5.15
634.336	5.08
634.668	5.13
634.999	5.14
635.33	4.78
635.661	4.85
635.992	5.31
636.323	4.85
636.654	5.03
636.985	4.83
637.316	4.45
637.647	5.03
637.977	4.96
638.308	4.97
638.639	4.85
638.969	4.59
639.3	4.87
639.63	4.61
639.961	4.88
640.291	5.24
640.622	4.85
640.952	5.41
641.282	5.02
641.612	5.49
641.943	4.89
642.273	4.79
642.603	4.83
642.933	5.11
643.263	5.25
643.592	5.04
643.922	4.93
644.252	4.42
644.582	5.16
644.911	5.42
645.241	4.89
645.571	5.28
645.9	4.84
646.23	4.89
646.559	4.94
646.888	4.81
647.218	5.01
647.547	5
647.876	4.6
648.205	4.5
648.534	4.96
648.863	4.91
649.192	5.08
649.521	4.96
649.85	5.09
650.179	4.72
650.508	5.21
650.837	4.37
651.165	5.4
651.494	4.82
651.822	4.81
652.151	4.88
652.479	4.86
652.808	5.03
653.136	4.79
653.465	4.94
653.793	5.01
654.121	4.94
654.449	5.08
654.777	5.25
655.105	4.81
655.433	5.01
655.761	5.16
656.089	4.72
656.417	5.24
656.745	5.27
657.073	5.11
657.4	4.95
657.728	5.01
658.056	5.12
658.383	4.79
658.711	5.35
659.038	5.41
659.365	5.48
659.693	5.4
660.02	4.53
660.347	4.69
660.674	4.75
661.001	4.71
661.329	4.9
661.656	5.01
661.982	4.65
662.309	5.01
662.636	5.26
662.963	5.13
663.29	4.63
663.616	4.72
663.943	4.41
664.27	5.42
664.596	5.62
664.923	4.83
665.249	5.01
665.576	5.21
665.902	4.69
666.228	5.24
666.554	5.16
666.881	5
667.207	5.42
667.533	4.84
667.859	5
668.185	5.18
668.511	4.56
668.837	5.11
669.162	5.67
669.488	5.42
669.814	4.86
670.139	4.83
670.465	5.07
670.791	4.74
671.116	5.23
671.442	5.24
671.767	5.61
672.092	5.04
672.418	5.09
672.743	4.5
673.068	5.17
673.393	5.35
673.718	4.99
674.043	5.35
674.368	4.8
674.693	5.13
675.018	4.98
675.343	5.26
675.667	4.95
675.992	5.19
676.317	5.06
676.641	5.64
676.966	5.56
677.29	5.01
677.615	5.43
677.939	4.79
678.264	5.08
678.588	4.96
678.912	5.08
679.236	4.17
679.56	5.26
679.885	4.58
680.209	4.94
680.532	5.31
680.856	5.44
681.18	4.81
681.504	4.86
681.828	4.37
682.152	4.32
682.475	5.54
682.799	4.99
683.122	5.05
683.446	4.83
683.769	4.74
684.093	5.32
684.416	5.13
684.739	5.51
685.062	5.4
685.386	4.66
685.709	5.37
686.032	5.48
686.355	4.96
686.678	5.04
687.001	5.24
687.324	3.93
687.646	4.8
687.969	5.34
688.292	5.75
688.614	6.07
688.937	5.49
689.26	5.46
689.582	5.02
689.904	5.1
690.227	5.38
690.549	5.11
690.871	5.05
691.194	4.53
691.516	4.59
691.838	5.17
692.16	5.76
692.482	5.85
