Data from 0356_forehead_Reflection__0__72.txt Node

Date: Mon Dec 11 18:30:39 CST 2023
User: ToomeyLab
Spectrometer: FLMS14357
Trigger mode: 0
Integration Time (sec): 1.000000E-2
Scans to average: 100
Electric dark correction enabled: true
Nonlinearity correction enabled: false
Boxcar width: 0
XAxis mode: Wavelengths
Number of Pixels in Spectrum: 2048
>>>>>Begin Spectral Data<<<<<
189.047	-83.99
189.435	-83.99
189.823	-83.99
190.211	421.21
190.599	53.06
190.987	276.22
191.375	114.98
191.763	119.39
192.151	9154.17
192.538	498.99
192.926	381.3
193.314	3337.5
193.702	49.72
194.089	190.92
194.477	536.08
194.864	173.74
195.252	238.51
195.639	72.63
196.027	50.33
196.414	-210.18
196.801	-128.79
197.189	15.49
197.576	99.96
197.963	89.04
198.351	-10.1
198.738	16.42
199.125	-60.78
199.512	12.83
199.899	2.7
200.286	20.38
200.673	-90.93
201.06	29.4
201.447	56.83
201.833	43.71
202.22	54.79
202.607	-25.13
202.994	-174.98
203.38	24.58
203.767	54.46
204.154	41.41
204.54	-35.02
204.927	-28.19
205.313	-15.25
205.699	-27.97
206.086	-17.42
206.472	17.35
206.858	-27.57
207.245	7.02
207.631	3.8
208.017	43.79
208.403	21.75
208.789	-61.48
209.175	2.56
209.561	3.2
209.947	-28.66
210.333	38.41
210.719	15.55
211.105	14.3
211.491	15.49
211.876	-0.49
212.262	-25.86
212.648	-23.21
213.034	4.24
213.419	-14.45
213.805	-37.33
214.19	8.72
214.576	-7.23
214.961	-2.93
215.346	-11.95
215.732	2.78
216.117	-2.82
216.502	-33.14
216.888	16.75
217.273	1.31
217.658	14.94
218.043	-19.66
218.428	2.64
218.813	12.03
219.198	-16.45
219.583	9.97
219.968	-2.02
220.353	-66.46
220.738	9.72
221.122	0.58
221.507	28.73
221.892	6.05
222.276	-3.59
222.661	-13.68
223.046	-14.05
223.43	4.28
223.815	-3.35
224.199	12.84
224.583	6.44
224.968	1.43
225.352	2.09
225.736	-2.39
226.121	-0.47
226.505	-11.18
226.889	5.03
227.273	5.47
227.657	9.52
228.041	5.45
228.425	-2
228.809	-1.21
229.193	-1.71
229.577	3.23
229.961	1.91
230.344	2.93
230.728	2.47
231.112	3.07
231.495	2.75
231.879	2.79
232.263	2.11
232.646	2.56
233.03	0.45
233.413	1.18
233.797	3.2
234.18	1.86
234.563	2.92
234.946	2.74
235.33	6.9
235.713	0.67
236.096	3.31
236.479	4.84
236.862	0.73
237.245	2.75
237.628	2.04
238.011	2.29
238.394	2.11
238.777	1.61
239.16	1.41
239.543	0.43
239.925	2.38
240.308	3.01
240.691	3.44
241.073	4.67
241.456	2.26
241.838	4.02
242.221	3.26
242.603	1.49
242.986	1.48
243.368	2.44
243.75	2.81
244.133	2.81
244.515	2.43
244.897	2.91
245.279	2.46
245.661	2.35
246.043	1.71
246.425	3.32
246.807	2.36
247.189	1.72
247.571	2.65
247.953	2.51
248.335	2.38
248.717	2.71
249.098	2.41
249.48	2.38
249.862	2.88
250.243	2.96
250.625	2.33
251.006	2.07
251.388	2.89
251.769	2.3
252.151	3.1
252.532	2.3
252.913	3
253.295	2.13
253.676	2.48
254.057	2.53
254.438	2.61
254.819	2.2
255.2	2.86
255.581	1.5
255.962	1.32
256.343	2.43
256.724	2.52
257.105	1.59
257.486	2
257.867	3.78
258.247	2.25
258.628	2.62
259.009	3.58
259.389	2.96
259.77	1.94
260.15	2.62
260.531	3.29
260.911	2.12
261.292	2.32
261.672	2.56
262.052	2.66
262.432	2.59
262.813	2.59
263.193	2.28
263.573	2.79
263.953	2.6
264.333	2.61
264.713	2.65
265.093	3.12
265.473	2.48
265.853	2.66
266.233	2.57
266.612	3.42
266.992	2.97
267.372	3.2
267.752	3.15
268.131	2.87
268.511	2.1
268.89	2.88
269.27	3.02
269.649	2.53
270.029	2.84
270.408	2.44
270.787	2.32
271.167	1.68
271.546	2.26
271.925	2.73
272.304	2.93
272.683	2.09
273.062	2.29
273.441	2.66
273.82	2.39
274.199	2.48
274.578	2.45
274.957	2.52
275.336	2.43
275.715	2.45
276.093	3.11
276.472	3.19
276.851	3.5
277.229	3
277.608	2.32
277.986	2.73
278.365	2.16
278.743	2.01
279.122	2.12
279.5	2.9
279.878	2.49
280.257	2.56
280.635	2.62
281.013	2.34
281.391	3.34
281.769	2.78
282.147	2.54
282.525	2.36
282.903	2.86
283.281	2.5
283.659	2.01
284.037	2.62
284.415	2.01
284.792	2.84
285.17	2.74
285.548	2.48
285.925	2.29
286.303	2.83
286.68	2.25
287.058	2.75
287.435	2.93
287.813	2.73
288.19	2.71
288.567	2.41
288.945	2.53
289.322	2.07
289.699	2.42
290.076	2.36
290.453	3.17
290.83	2.98
291.207	2.5
291.584	2.94
291.961	2.69
292.338	2.94
292.715	3.06
293.092	2.54
293.469	2.98
293.845	2.65
294.222	3.4
294.599	2.87
294.975	3.17
295.352	2.68
295.728	3.06
296.105	2.9
296.481	2.62
296.858	2.52
297.234	3.52
297.61	3.22
297.986	3.01
298.363	3.12
298.739	3.28
299.115	3.13
299.491	3.13
299.867	3.1
300.243	3.04
300.619	3.18
300.995	3.34
301.371	2.93
301.746	3.1
302.122	2.61
302.498	3.2
302.874	3.39
303.249	3.33
303.625	3.16
304	3.19
304.376	3.33
304.751	2.82
305.127	3.12
305.502	3.8
305.878	3.22
306.253	4.09
306.628	3.62
307.003	3.23
307.378	3.35
307.754	3.89
308.129	3.09
308.504	3.03
308.879	3.39
309.254	3.73
309.629	4.11
310.003	3.78
310.378	3.06
310.753	3.53
311.128	3.85
311.502	3.66
311.877	4.05
312.252	3.88
312.626	3.92
313.001	3.77
313.375	3.2
313.75	3.58
314.124	3.92
314.498	3.89
314.873	3.43
315.247	4.02
315.621	4.6
315.995	4.52
316.369	4.15
316.743	4.72
317.117	4.65
317.491	4.1
317.865	3.93
318.239	3.8
318.613	3.98
318.987	4.47
319.361	4.59
319.734	4.34
320.108	4.67
320.482	4.31
320.855	3.98
321.229	3.98
321.602	4.35
321.976	4.71
322.349	4.2
322.723	4.58
323.096	5.06
323.469	4.94
323.843	4.8
324.216	5.11
324.589	4.84
324.962	4.52
325.335	4.85
325.708	4.79
326.081	5.08
326.454	4.83
326.827	4.81
327.2	4.52
327.573	5
327.945	5.57
328.318	4.78
328.691	4.94
329.063	4.88
329.436	4.72
329.809	4.2
330.181	5.54
330.553	5.53
330.926	4.81
331.298	5.27
331.671	5.12
332.043	5.69
332.415	5.17
332.787	5.49
333.159	5.2
333.532	5.18
333.904	5.57
334.276	5.47
334.648	5.75
335.02	5.31
335.391	4.74
335.763	5.2
336.135	5.59
336.507	5.29
336.879	5.6
337.25	6.02
337.622	5.63
337.993	5.63
338.365	5.34
338.736	5.31
339.108	5.54
339.479	5.39
339.851	5.7
340.222	5.98
340.593	5.61
340.964	6.1
341.336	5.59
341.707	5.79
342.078	5.67
342.449	5.95
342.82	5.39
343.191	5.35
343.562	5.76
343.933	5.83
344.303	5.6
344.674	5.77
345.045	6.25
345.416	5.63
345.786	6.41
346.157	6.03
346.527	6.05
346.898	6.18
347.268	6.39
347.639	6.1
348.009	6.13
348.38	5.61
348.75	6.17
349.12	6.6
349.49	6.04
349.861	6.09
350.231	6.09
350.601	6.63
350.971	6.19
351.341	5.9
351.711	6.52
352.081	5.82
352.45	6.59
352.82	5.86
353.19	6.2
353.56	6.06
353.929	6.56
354.299	6.39
354.669	6.56
355.038	6.72
355.408	6.03
355.777	6.3
356.147	6.57
356.516	6.46
356.885	6.89
357.254	6.46
357.624	6.67
357.993	6.44
358.362	7.11
358.731	6.7
359.1	6.71
359.469	6.57
359.838	6.74
360.207	6.8
360.576	6.78
360.945	7.01
361.314	7.26
361.682	6.84
362.051	6.83
362.42	6.62
362.788	6.64
363.157	6.86
363.525	6.76
363.894	6.81
364.262	6.81
364.631	7.23
364.999	6.86
365.367	7.17
365.735	7.05
366.104	7.06
366.472	7.18
366.84	6.91
367.208	7.06
367.576	7.65
367.944	7.31
368.312	7.17
368.68	7.63
369.048	7.44
369.416	7.23
369.783	7.34
370.151	7.4
370.519	7.93
370.886	7.11
371.254	7.89
371.621	7.48
371.989	7.74
372.356	7.46
372.724	8.05
373.091	7.89
373.458	7.73
373.826	8.01
374.193	7.56
374.56	8.26
374.927	8.15
375.294	8.03
375.661	7.63
376.028	7.76
376.395	7.6
376.762	7.89
377.129	8.41
377.496	7.79
377.863	7.74
378.229	7.6
378.596	8.06
378.963	8.1
379.329	8.15
379.696	8.11
380.062	8.06
380.429	8
380.795	8.24
381.161	8.28
381.528	8.45
381.894	8.44
382.26	8.05
382.626	8.18
382.993	8.31
383.359	8.19
383.725	8.05
384.091	8.43
384.457	8.2
384.823	8.45
385.188	8.27
385.554	8.06
385.92	8.34
386.286	8.47
386.651	8.61
387.017	8.68
387.383	8.64
387.748	8.43
388.114	8.45
388.479	8.47
388.845	8.67
389.21	8.59
389.575	8.95
389.94	8.96
390.306	8.67
390.671	8.87
391.036	8.77
391.401	9.22
391.766	8.79
392.131	8.91
392.496	9.05
392.861	9.03
393.226	9.07
393.591	9.36
393.956	8.89
394.32	9.09
394.685	9.2
395.05	9.05
395.414	9.44
395.779	9.05
396.143	9.01
396.508	9.1
396.872	9.34
397.236	9.34
397.601	9.21
397.965	9.2
398.329	9.34
398.694	9.46
399.058	9.64
399.422	9.53
399.786	9.35
400.15	9.25
400.514	9.8
400.878	9.4
401.242	9.5
401.605	9.67
401.969	9.47
402.333	9.45
402.697	9.64
403.06	9.47
403.424	9.63
403.787	9.82
404.151	9.73
404.514	9.7
404.878	9.92
405.241	9.87
405.604	9.69
405.968	9.82
406.331	9.66
406.694	9.62
407.057	9.82
407.42	9.99
407.783	9.82
408.146	9.9
408.509	9.87
408.872	9.88
409.235	9.97
409.598	10.02
409.961	10.19
410.323	10.13
410.686	10.07
411.049	10.26
411.411	10.15
411.774	10.32
412.136	10.2
412.499	10.5
412.861	10.01
413.223	10.21
413.586	10.46
413.948	10.34
414.31	10.26
414.672	10.32
415.035	10.42
415.397	10.49
415.759	10.67
416.121	10.5
416.483	10.44
416.845	10.84
417.206	10.64
417.568	10.46
417.93	10.64
418.292	10.7
418.653	10.52
419.015	10.43
419.377	10.62
419.738	10.58
420.1	10.52
420.461	10.56
420.822	10.39
421.184	10.51
421.545	10.6
421.906	10.51
422.267	10.54
422.629	10.56
422.99	10.66
423.351	10.44
423.712	10.59
424.073	10.55
424.434	10.66
424.795	10.63
425.155	10.68
425.516	10.64
425.877	10.52
426.238	10.69
426.598	10.76
426.959	10.76
427.32	10.76
427.68	11.01
428.041	10.88
428.401	11.01
428.761	11.07
429.122	11.07
429.482	11.07
429.842	11.27
430.202	11.22
430.563	10.98
430.923	11.54
431.283	11.42
431.643	11.3
432.003	11.5
432.363	11.51
432.722	11.59
433.082	11.5
433.442	11.45
433.802	11.47
434.161	11.61
434.521	11.21
434.881	11.4
435.24	11.44
435.6	11.47
435.959	11.49
436.319	11.53
436.678	11.55
437.037	11.55
437.396	11.64
437.756	11.84
438.115	11.68
438.474	11.77
438.833	11.8
439.192	11.86
439.551	11.97
439.91	11.81
440.269	11.99
440.628	11.84
440.987	11.94
441.345	11.84
441.704	11.83
442.063	11.71
442.421	11.87
442.78	11.83
443.138	11.83
443.497	11.84
443.855	11.87
444.214	12.26
444.572	12.02
444.93	12.16
445.288	12.2
445.647	12.3
446.005	12.14
446.363	12.05
446.721	12.1
447.079	12.12
447.437	12.2
447.795	12.06
448.153	12.12
448.51	12.15
448.868	12
449.226	12.04
449.584	12.24
449.941	12.34
450.299	12.28
450.656	12.3
451.014	12.46
451.371	12.47
451.729	12.71
452.086	12.67
452.443	12.68
452.801	12.71
453.158	12.77
453.515	12.77
453.872	12.73
454.229	12.75
454.586	12.69
454.943	12.9
455.3	12.82
455.657	12.92
456.014	12.81
456.371	12.88
456.727	12.98
457.084	13.01
457.441	13.1
457.797	13.03
458.154	12.86
458.51	13.08
458.867	13.1
459.223	12.89
459.58	13.03
459.936	13.07
460.292	13.18
460.648	13.1
461.005	13.1
461.361	12.86
461.717	12.88
462.073	13.02
462.429	13.06
462.785	13.08
463.141	13.09
463.496	13.15
463.852	13.4
464.208	13.4
464.564	13.41
464.919	13.55
465.275	13.42
465.631	13.34
465.986	13.63
466.342	13.68
466.697	13.48
467.052	13.48
467.408	13.8
467.763	13.54
468.118	13.75
468.473	13.61
468.829	13.68
469.184	13.89
469.539	13.82
469.894	13.62
470.249	13.9
470.603	13.92
470.958	14.12
471.313	13.77
471.668	14.1
472.023	14
472.377	13.97
472.732	13.95
473.086	14.16
473.441	14.06
473.795	14.08
474.15	14.1
474.504	13.9
474.859	14.07
475.213	14.14
475.567	14.26
475.921	14.18
476.275	14.29
476.63	14.37
476.984	14.34
477.338	14.25
477.692	14.45
478.045	14.48
478.399	14.3
478.753	14.17
479.107	14.36
479.461	14.35
479.814	14.43
480.168	14.34
480.521	14.51
480.875	14.33
481.228	14.44
481.582	14.64
481.935	14.64
482.289	14.57
482.642	14.53
482.995	14.52
483.348	14.53
483.701	14.38
484.055	14.55
484.408	14.37
484.761	14.37
485.114	14.14
485.466	13.9
485.819	13.73
486.172	13.77
486.525	13.88
486.878	14.1
487.23	14.17
487.583	14.22
487.936	14.41
488.288	14.42
488.641	14.38
488.993	14.15
489.345	14.23
489.698	14.23
490.05	14.21
490.402	14.32
490.754	14.4
491.107	14.64
491.459	14.72
491.811	14.85
492.163	14.97
492.515	14.85
492.866	14.9
493.218	14.64
493.57	14.56
493.922	14.52
494.274	14.72
494.625	14.91
494.977	14.97
495.328	15.09
495.68	15.42
496.031	15.41
496.383	15.49
496.734	15.45
497.086	15.73
497.437	15.68
497.788	15.71
498.139	15.59
498.49	15.7
498.842	15.47
499.193	15.62
499.544	15.58
499.894	15.71
500.245	15.78
500.596	15.79
500.947	15.75
501.298	15.81
501.648	15.95
501.999	15.65
502.35	16.03
502.7	16.01
503.051	15.92
503.401	16.08
503.752	16.11
504.102	16.08
504.452	16.14
504.803	16.23
505.153	16.18
505.503	16.41
505.853	16.3
506.203	16.15
506.553	16.2
506.903	16.3
507.253	16.28
507.603	16.3
507.953	16.45
508.303	16.21
508.652	16.25
509.002	16.39
509.352	16.61
509.701	16.43
510.051	16.45
510.4	16.37
510.75	16.32
511.099	16.23
511.449	16.5
511.798	16.48
512.147	16.47
512.496	16.56
512.846	16.62
513.195	16.71
513.544	16.67
513.893	16.62
514.242	16.61
514.591	16.48
514.939	16.62
515.288	16.79
515.637	16.79
515.986	16.93
516.334	17.04
516.683	16.99
517.032	17.1
517.38	16.99
517.729	17
518.077	17.17
518.426	17.2
518.774	17.14
519.122	17.03
519.47	16.99
519.819	16.9
520.167	16.83
520.515	16.88
520.863	16.69
521.211	16.88
521.559	16.97
521.907	17.12
522.255	17.1
522.602	17.14
522.95	17.29
523.298	17.31
523.645	17.45
523.993	17.62
524.341	17.39
524.688	17.43
525.036	17.45
525.383	17.43
525.73	17.54
526.078	17.61
526.425	17.57
526.772	17.56
527.119	17.42
527.466	17.3
527.814	17.16
528.161	17.18
528.508	17.35
528.854	17.29
529.201	17.34
529.548	17.25
529.895	17.14
530.242	16.95
530.588	16.68
530.935	16.84
531.282	17
531.628	17.07
531.975	17.29
532.321	17.37
532.667	17.47
533.014	17.59
533.36	17.73
533.706	17.82
534.052	17.76
534.399	17.73
534.745	17.65
535.091	17.48
535.437	17.34
535.783	17.49
536.129	17.59
536.474	17.73
536.82	17.95
537.166	17.93
537.512	18.02
537.857	18.26
538.203	17.98
538.549	18.02
538.894	17.98
539.239	18.01
539.585	18.2
539.93	18.24
540.276	18.44
540.621	18.52
540.966	18.59
541.311	18.44
541.656	18.5
542.001	18.76
542.346	18.52
542.691	18.25
543.036	17.95
543.381	17.77
543.726	17.93
544.071	18.02
544.415	18.24
544.76	18.26
545.105	18.27
545.449	18.46
545.794	18.49
546.138	18.63
546.483	18.75
546.827	19.03
547.171	18.78
547.516	18.81
547.86	19.03
548.204	19
548.548	18.94
548.892	18.8
549.236	19.03
549.58	19.08
549.924	19.07
550.268	19.2
550.612	19.21
550.956	19.3
551.3	19.49
551.643	19.6
551.987	19.44
552.33	19.77
552.674	19.69
553.017	19.68
553.361	19.43
553.704	19.62
554.048	19.71
554.391	19.6
554.734	19.57
555.077	19.63
555.42	19.8
555.764	19.68
556.107	19.94
556.45	19.72
556.793	19.79
557.135	19.89
557.478	20.01
557.821	19.92
558.164	20.07
558.507	19.86
558.849	20.13
559.192	20.04
559.534	20.01
559.877	20.17
560.219	20.12
560.562	20.26
560.904	20.43
561.246	20.64
561.589	20.42
561.931	20.52
562.273	20.22
562.615	20.24
562.957	20.38
563.299	20.51
563.641	20.32
563.983	20.56
564.325	20.3
564.667	20.5
565.008	20.6
565.35	20.58
565.692	20.73
566.033	20.57
566.375	20.68
566.716	20.71
567.058	20.55
567.399	20.61
567.741	20.67
568.082	20.64
568.423	20.54
568.764	20.51
569.105	20.52
569.447	20.66
569.788	20.73
570.129	20.88
570.47	20.7
570.811	20.91
571.151	20.71
571.492	20.62
571.833	21
572.174	20.97
572.514	21.11
572.855	20.69
573.195	20.95
573.536	20.93
573.876	20.85
574.217	21
574.557	21.06
574.898	21.04
575.238	21.38
575.578	21.17
575.918	21.2
576.258	21.29
576.598	21.36
576.938	21.26
577.278	21.38
577.618	21.12
577.958	21.12
578.298	21.49
578.638	21.59
578.977	21.39
579.317	21.49
579.657	21.54
579.996	21.42
580.336	21.76
580.675	21.5
581.014	21.79
581.354	21.59
581.693	21.95
582.032	21.27
582.372	22.05
582.711	21.75
583.05	21.72
583.389	22.06
583.728	22.2
584.067	21.88
584.406	21.86
584.745	22.05
585.083	22.12
585.422	22.14
585.761	21.99
586.1	21.98
586.438	21.9
586.777	21.95
587.115	21.95
587.454	22.23
587.792	22.19
588.13	22.3
588.469	22.38
588.807	22.32
589.145	22.72
589.483	22.34
589.821	22.46
590.159	22.49
590.497	22.33
590.835	22.56
591.173	22.54
591.511	22.39
591.849	22.27
592.187	22.3
592.524	22.35
592.862	22.52
593.2	22.57
593.537	22.6
593.875	22.97
594.212	22.43
594.55	22.51
594.887	22.64
595.224	22.78
595.561	22.83
595.899	22.62
596.236	22.57
596.573	22.96
596.91	22.82
597.247	22.95
597.584	22.72
597.921	22.72
598.258	22.88
598.594	22.5
598.931	22.55
599.268	22.8
599.604	22.59
599.941	23.05
600.277	22.89
600.614	23.18
600.95	23
601.287	23.06
601.623	23.14
601.959	23.23
602.296	22.94
602.632	23.4
602.968	23.04
603.304	23.24
603.64	23.39
603.976	23.55
604.312	23.23
604.648	23.16
604.984	23.33
605.319	23.28
605.655	23.1
605.991	23
606.326	23.31
606.662	22.99
606.998	23
607.333	23.26
607.668	23.25
608.004	23.22
608.339	23.69
608.674	23.69
609.01	23.74
609.345	23.49
609.68	23.8
610.015	23.97
610.35	23.75
610.685	23.54
611.02	23.7
611.355	23.47
611.689	23.72
612.024	23.36
612.359	23.78
612.694	23.66
613.028	23.74
613.363	23.74
613.697	23.91
614.032	23.8
614.366	23.87
614.7	24.08
615.035	24.24
615.369	24.18
615.703	24.35
616.037	24.25
616.371	24.55
616.705	24.16
617.039	24.2
617.373	24.3
617.707	24.12
618.041	24.07
618.375	24.5
618.709	24.73
619.042	24.29
619.376	24.68
619.71	24.24
620.043	24.03
620.377	24.34
620.71	24.26
621.043	24.39
621.377	24.59
621.71	24.27
622.043	24.41
622.376	24.71
622.709	24.69
623.043	24.75
623.376	24.61
623.709	24.87
624.041	24.66
624.374	24.74
624.707	24.72
625.04	25.26
625.373	24.88
625.705	24.96
626.038	24.68
626.37	25.28
626.703	24.81
627.035	24.84
627.368	25.04
627.7	24.54
628.032	25.15
628.365	24.71
628.697	24.61
629.029	24.94
629.361	24.7
629.693	24.84
630.025	24.99
630.357	25.03
630.689	24.96
631.021	25.36
631.353	25.05
631.684	25.02
632.016	25.36
632.348	25.04
632.679	25.43
633.011	25.23
633.342	25.35
633.674	25.82
634.005	25.55
634.336	25.17
634.668	25.19
634.999	25.31
635.33	25.22
635.661	25.66
635.992	25.58
636.323	25.2
636.654	25.13
636.985	25.23
637.316	25.78
637.647	25.83
637.977	25.46
638.308	25.84
638.639	25.71
638.969	25.42
639.3	25.66
639.63	25.8
639.961	25.52
640.291	26.2
640.622	25.51
640.952	25.81
641.282	26.12
641.612	26.32
641.943	25.68
642.273	25.96
642.603	26.03
642.933	26.11
643.263	26.13
643.592	26.11
643.922	26.4
644.252	25.56
644.582	26.12
644.911	26.24
645.241	25.81
645.571	26.49
645.9	26
646.23	26.36
646.559	26.44
646.888	26.08
647.218	26.26
647.547	25.96
647.876	26.21
648.205	25.9
648.534	26.78
648.863	26.85
649.192	26.45
649.521	26.47
649.85	26.52
650.179	26.54
650.508	26.48
650.837	25.99
651.165	27.4
651.494	26.91
651.822	26.34
652.151	26.87
652.479	26.27
652.808	27.12
653.136	26.67
653.465	26.62
653.793	26.51
654.121	26.45
654.449	26.8
654.777	26.4
655.105	26.88
655.433	26.88
655.761	26.59
656.089	26.58
656.417	26.72
656.745	27.37
657.073	26.66
657.4	27
657.728	26.69
658.056	27
658.383	26.78
658.711	27.37
659.038	27
659.365	27.08
659.693	27.12
660.02	26.9
660.347	26.74
660.674	27.02
661.001	26.89
661.329	26.96
661.656	26.77
661.982	27.19
662.309	27.15
662.636	27.43
662.963	27.47
663.29	27.27
663.616	27.5
663.943	26.9
664.27	27.26
664.596	27.49
664.923	26.98
665.249	26.76
665.576	27.58
665.902	27.59
666.228	27.51
666.554	27.29
666.881	27.56
667.207	28.4
667.533	27.02
667.859	27.69
668.185	28.01
668.511	27.92
668.837	27.91
669.162	28.12
669.488	27.18
669.814	27.27
670.139	28.32
670.465	28.22
670.791	27.74
671.116	27.91
671.442	28.42
671.767	28.11
672.092	28.02
672.418	27.28
672.743	27.81
673.068	27.99
673.393	27.62
673.718	28.08
674.043	28.42
674.368	28.46
674.693	27.88
675.018	28.25
675.343	27.85
