Data from 0356_chest_Reflection__0__61.txt Node

Date: Mon Dec 11 18:25:32 CST 2023
User: ToomeyLab
Spectrometer: FLMS14357
Trigger mode: 0
Integration Time (sec): 1.000000E-2
Scans to average: 100
Electric dark correction enabled: true
Nonlinearity correction enabled: false
Boxcar width: 0
XAxis mode: Wavelengths
Number of Pixels in Spectrum: 2048
>>>>>Begin Spectral Data<<<<<
189.047	94.47
189.435	94.47
189.823	94.47
190.211	105.1
190.599	437.67
190.987	236.65
191.375	124.62
191.763	85.39
192.151	-16491.67
192.538	506.08
192.926	-10.2
193.314	49675
193.702	16.35
194.089	-338.66
194.477	-14.02
194.864	-394.1
195.252	240.77
195.639	-152.14
196.027	180.31
196.414	-99.04
196.801	-196.34
197.189	97.64
197.576	45.3
197.963	45.11
198.351	-19.33
198.738	11.56
199.125	-35.81
199.512	3.96
199.899	-24.72
200.286	37.51
200.673	-126.18
201.06	33.41
201.447	-3.4
201.833	16.22
202.22	59.07
202.607	23.82
202.994	-24.65
203.38	-6.49
203.767	54.17
204.154	35.19
204.54	18.9
204.927	-23.09
205.313	-23.96
205.699	-24.76
206.086	-31.37
206.472	1.8
206.858	12.12
207.245	13.7
207.631	-15.99
208.017	25.76
208.403	-9.9
208.789	-7.64
209.175	-3.61
209.561	56.98
209.947	-1.25
210.333	1.83
210.719	33.05
211.105	-3.86
211.491	15.83
211.876	25.46
212.262	-20.66
212.648	36.92
213.034	-1.63
213.419	-5.43
213.805	10.3
214.19	-13.38
214.576	-5.69
214.961	21.33
215.346	-0.97
215.732	44.55
216.117	3.53
216.502	29.88
216.888	14.01
217.273	-10.41
217.658	-14.6
218.043	12.81
218.428	4.71
218.813	-2.02
219.198	14.35
219.583	-12.12
219.968	-10.67
220.353	-38.39
220.738	20.12
221.122	22.34
221.507	39.7
221.892	-0.68
222.276	15.18
222.661	2.2
223.046	4.72
223.43	3.59
223.815	-6.53
224.199	11.81
224.583	-2.35
224.968	3.36
225.352	10.59
225.736	1.74
226.121	8.66
226.505	6.4
226.889	9.46
227.273	12.88
227.657	7.33
228.041	3.33
228.425	6.09
228.809	-1.3
229.193	3.14
229.577	4.36
229.961	4.27
230.344	4.03
230.728	4.39
231.112	4.35
231.495	4.22
231.879	4.68
232.263	3.48
232.646	3.46
233.03	5.35
233.413	4.39
233.797	4.04
234.18	4.76
234.563	4
234.946	4.85
235.33	4.95
235.713	3.98
236.096	5.72
236.479	3.91
236.862	3.49
237.245	4.33
237.628	3.3
238.011	4.19
238.394	3.76
238.777	4.41
239.16	1.87
239.543	4.57
239.925	3.76
240.308	3.41
240.691	4.86
241.073	3.99
241.456	3.25
241.838	6.12
242.221	3.83
242.603	3
242.986	3.42
243.368	3.88
243.75	3.75
244.133	3.79
244.515	3.73
244.897	3.43
245.279	3.77
245.661	3.27
246.043	3.91
246.425	4.51
246.807	4.54
247.189	3.47
247.571	3.79
247.953	3.46
248.335	4.16
248.717	3.84
249.098	3.77
249.48	3.39
249.862	3.77
250.243	3.68
250.625	3.77
251.006	3.3
251.388	3.89
251.769	3.62
252.151	4.93
252.532	3.62
252.913	4.55
253.295	4.16
253.676	3.84
254.057	3.49
254.438	3.36
254.819	2.73
255.2	2.88
255.581	2.19
255.962	3.9
256.343	3.98
256.724	4.71
257.105	2.42
257.486	2.75
257.867	4.11
258.247	2.63
258.628	3.64
259.009	4.47
259.389	4.72
259.77	2.6
260.15	3.09
260.531	3.75
260.911	2.97
261.292	2.93
261.672	3.11
262.052	3.25
262.432	3.47
262.813	3.6
263.193	2.82
263.573	3.36
263.953	3.62
264.333	3.1
264.713	3.41
265.093	3.08
265.473	3.72
265.853	3.42
266.233	2.94
266.612	4.57
266.992	4.13
267.372	3.65
267.752	4.19
268.131	3.22
268.511	3.51
268.89	3.66
269.27	3.44
269.649	3.43
270.029	3.71
270.408	3.54
270.787	2.64
271.167	2.58
271.546	3.13
271.925	3.52
272.304	3.97
272.683	3.17
273.062	3.07
273.441	3.41
273.82	3.18
274.199	3.42
274.578	2.94
274.957	3.57
275.336	3.1
275.715	2.92
276.093	3.59
276.472	3.84
276.851	3.29
277.229	3.64
277.608	3.05
277.986	4.04
278.365	3.03
278.743	3.2
279.122	3.34
279.5	3.69
279.878	3.7
280.257	2.95
280.635	3.17
281.013	2.79
281.391	3.34
281.769	3.22
282.147	3.17
282.525	3.44
282.903	3.59
283.281	3.55
283.659	3.2
284.037	3.28
284.415	2.84
284.792	3.71
285.17	3.11
285.548	2.62
285.925	2.87
286.303	3.26
286.68	3.07
287.058	2.88
287.435	3.24
287.813	3.41
288.19	3.3
288.567	3.08
288.945	3.1
289.322	2.87
289.699	3.08
290.076	2.93
290.453	3.4
290.83	3.48
291.207	3.53
291.584	3.65
291.961	3.51
292.338	3.4
292.715	3.62
293.092	3.35
293.469	3.27
293.845	3.55
294.222	3.69
294.599	3.32
294.975	2.82
295.352	2.75
295.728	3.82
296.105	3.15
296.481	2.97
296.858	3.67
297.234	3.94
297.61	3.73
297.986	3.36
298.363	3.2
298.739	3.47
299.115	3.36
299.491	3.3
299.867	3.57
300.243	3.53
300.619	3.07
300.995	3.11
301.371	3.15
301.746	3.2
302.122	3.27
302.498	3.67
302.874	3.73
303.249	3.65
303.625	3.44
304	3.8
304.376	3.47
304.751	3.09
305.127	3.59
305.502	3.52
305.878	3.63
306.253	3.33
306.628	3.33
307.003	3.59
307.378	3.28
307.754	4.1
308.129	3.27
308.504	2.77
308.879	3.19
309.254	4.38
309.629	3.68
310.003	3.62
310.378	3.2
310.753	3.7
311.128	3.92
311.502	3.2
311.877	3.57
312.252	3.39
312.626	3.64
313.001	3.35
313.375	3.18
313.75	3.11
314.124	3.48
314.498	3.05
314.873	3.28
315.247	3.13
315.621	3.93
315.995	3.36
316.369	3.63
316.743	3.73
317.117	3.73
317.491	3.36
317.865	3.62
318.239	3.35
318.613	3.22
318.987	3.25
319.361	3.91
319.734	3
320.108	2.89
320.482	3.43
320.855	2.94
321.229	3.46
321.602	3.47
321.976	4.22
322.349	3.1
322.723	2.86
323.096	4.38
323.469	4.25
323.843	4.27
324.216	4.02
324.589	4.78
324.962	3.34
325.335	3.54
325.708	3.76
326.081	3.98
326.454	3.51
326.827	3.43
327.2	3.56
327.573	3.15
327.945	4.06
328.318	3.15
328.691	3.63
329.063	3.47
329.436	3.53
329.809	3.26
330.181	3.81
330.553	3.35
330.926	3.58
331.298	4.44
331.671	3.71
332.043	3.69
332.415	3.78
332.787	4.11
333.159	3.81
333.532	3.64
333.904	3.68
334.276	3.55
334.648	3.65
335.02	3.54
335.391	3.45
335.763	3.83
336.135	3.42
336.507	3.57
336.879	3.74
337.25	3.84
337.622	3.64
337.993	3.85
338.365	3.73
338.736	3.52
339.108	4.45
339.479	3.61
339.851	3.59
340.222	3.73
340.593	3.1
340.964	3.61
341.336	3.7
341.707	3.31
342.078	3.9
342.449	3.55
342.82	3.55
343.191	3.5
343.562	3.89
343.933	3.37
344.303	3.3
344.674	3.57
345.045	3.75
345.416	3.29
345.786	4.03
346.157	3.44
346.527	3.72
346.898	4.04
347.268	3.84
347.639	3.84
348.009	3.79
348.38	3.17
348.75	3.56
349.12	3.99
349.49	3.5
349.861	3.23
350.231	3.24
350.601	3.81
350.971	3.61
351.341	3.02
351.711	3.82
352.081	3.32
352.45	3.66
352.82	2.82
353.19	3.75
353.56	3.37
353.929	3.6
354.299	3.71
354.669	3.76
355.038	3.32
355.408	3.34
355.777	3.44
356.147	3.81
356.516	3.5
356.885	3.68
357.254	3.86
357.624	3.71
357.993	3.35
358.362	3.77
358.731	3.37
359.1	3.44
359.469	3.69
359.838	3.75
360.207	3.36
360.576	3.72
360.945	4.07
361.314	3.89
361.682	3.62
362.051	3.75
362.42	3.6
362.788	3.41
363.157	3.48
363.525	3.19
363.894	3.43
364.262	3.65
364.631	3.94
364.999	3.31
365.367	3.47
365.735	3.47
366.104	3.39
366.472	3.33
366.84	3.3
367.208	3.57
367.576	4.13
367.944	3.87
368.312	3.49
368.68	3.45
369.048	3.83
369.416	3.19
369.783	3.46
370.151	4.06
370.519	4.08
370.886	3.55
371.254	4
371.621	3.99
371.989	3.61
372.356	4.06
372.724	4.11
373.091	3.74
373.458	3.58
373.826	3.69
374.193	3.54
374.56	3.46
374.927	3.85
375.294	3.89
375.661	3.8
376.028	3.8
376.395	3.72
376.762	3.53
377.129	4.11
377.496	3.64
377.863	3.8
378.229	3.49
378.596	4.04
378.963	3.71
379.329	3.75
379.696	3.86
380.062	3.48
380.429	3.49
380.795	3.94
381.161	3.38
381.528	3.87
381.894	4.04
382.26	3.66
382.626	3.85
382.993	3.61
383.359	3.92
383.725	3.6
384.091	3.73
384.457	3.45
384.823	4.11
385.188	3.73
385.554	3.25
385.92	3.52
386.286	3.71
386.651	3.71
387.017	3.83
387.383	3.57
387.748	3.72
388.114	3.43
388.479	3.68
388.845	3.68
389.21	3.65
389.575	3.86
389.94	3.89
390.306	3.74
390.671	3.82
391.036	3.8
391.401	3.68
391.766	3.62
392.131	3.73
392.496	4.03
392.861	3.91
393.226	3.69
393.591	3.9
393.956	3.67
394.32	3.99
394.685	3.7
395.05	3.96
395.414	3.87
395.779	3.79
396.143	3.56
396.508	3.6
396.872	3.85
397.236	3.86
397.601	3.55
397.965	3.89
398.329	3.64
398.694	3.6
399.058	3.62
399.422	3.88
399.786	3.71
400.15	3.77
400.514	3.75
400.878	3.79
401.242	3.78
401.605	3.8
401.969	3.35
402.333	3.52
402.697	3.75
403.06	3.86
403.424	3.93
403.787	3.82
404.151	3.71
404.514	3.52
404.878	4.04
405.241	3.68
405.604	3.67
405.968	3.84
406.331	3.62
406.694	3.79
407.057	3.81
407.42	3.88
407.783	3.95
408.146	3.87
408.509	3.59
408.872	3.62
409.235	3.84
409.598	3.8
409.961	3.85
410.323	3.95
410.686	3.91
411.049	3.74
411.411	3.71
411.774	3.91
412.136	3.77
412.499	4.11
412.861	3.66
413.223	3.69
413.586	4.15
413.948	3.66
414.31	3.62
414.672	3.48
415.035	4
415.397	3.73
415.759	3.93
416.121	3.8
416.483	3.9
416.845	4.13
417.206	3.89
417.568	4.02
417.93	4.08
418.292	3.71
418.653	3.81
419.015	3.74
419.377	3.85
419.738	3.71
420.1	3.83
420.461	3.8
420.822	3.72
421.184	3.86
421.545	3.79
421.906	3.83
422.267	3.85
422.629	3.7
422.99	3.83
423.351	3.71
423.712	3.72
424.073	3.77
424.434	3.74
424.795	3.9
425.155	3.84
425.516	3.74
425.877	3.65
426.238	3.89
426.598	3.92
426.959	3.76
427.32	3.78
427.68	3.92
428.041	3.67
428.401	3.74
428.761	3.79
429.122	3.83
429.482	3.86
429.842	3.97
430.202	4.1
430.563	4.01
430.923	4.03
431.283	3.77
431.643	4.02
432.003	4
432.363	4.1
432.722	4.08
433.082	4
433.442	4.01
433.802	3.83
434.161	3.94
434.521	3.82
434.881	4.05
435.24	3.94
435.6	3.89
435.959	3.82
436.319	3.83
436.678	3.84
437.037	3.89
437.396	4.05
437.756	4.15
438.115	4.12
438.474	3.9
438.833	3.9
439.192	4
439.551	4.07
439.91	4.11
440.269	3.98
440.628	3.76
440.987	4.01
441.345	3.87
441.704	3.9
442.063	3.99
442.421	3.91
442.78	3.97
443.138	3.94
443.497	3.99
443.855	3.94
444.214	4.04
444.572	3.86
444.93	4.11
445.288	4.1
445.647	4.15
446.005	3.85
446.363	3.99
446.721	3.94
447.079	3.96
447.437	3.96
447.795	3.88
448.153	4
448.51	3.9
448.868	3.85
449.226	3.87
449.584	4.08
449.941	4.08
450.299	3.95
450.656	3.97
451.014	4.05
451.371	3.97
451.729	4.05
452.086	4.14
452.443	4.09
452.801	4
453.158	3.99
453.515	4.08
453.872	4.04
454.229	4.07
454.586	4.07
454.943	3.99
455.3	4.1
455.657	4.25
456.014	4.13
456.371	4.27
456.727	4.19
457.084	4.04
457.441	4.21
457.797	4
458.154	4.08
458.51	3.98
458.867	4
459.223	4.14
459.58	4.14
459.936	4.16
460.292	4.12
460.648	4.08
461.005	4.01
461.361	4.05
461.717	4.04
462.073	4.13
462.429	4.11
462.785	4.07
463.141	4.09
463.496	4.24
463.852	3.98
464.208	4.07
464.564	4.16
464.919	4.08
465.275	4.24
465.631	4.01
465.986	4.25
466.342	4.19
466.697	4.17
467.052	4.32
467.408	4.45
467.763	4.17
468.118	4.1
468.473	4.19
468.829	4.29
469.184	4.38
469.539	4.19
469.894	4.04
470.249	4.18
470.603	4.14
470.958	4.21
471.313	4.31
471.668	4.4
472.023	4.44
472.377	4.31
472.732	4.22
473.086	4.37
473.441	4.38
473.795	4.29
474.15	4.2
474.504	4.1
474.859	4.29
475.213	4.26
475.567	4.29
475.921	4.02
476.275	4.18
476.63	4.22
476.984	4.29
477.338	4.2
477.692	4.39
478.045	4.23
478.399	4.1
478.753	4.12
479.107	4.11
479.461	4.22
479.814	4.26
480.168	4.27
480.521	4.31
480.875	4.33
481.228	4.3
481.582	4.28
481.935	4.37
482.289	4.26
482.642	4.16
482.995	4.22
483.348	4.21
483.701	4.01
484.055	4.23
484.408	4.28
484.761	4.22
485.114	4.21
485.466	4.07
485.819	3.99
486.172	3.98
486.525	4.03
486.878	4.09
487.23	4.18
487.583	4.16
487.936	4.17
488.288	4.25
488.641	4.05
488.993	4.07
489.345	4.13
489.698	4.1
490.05	4.11
490.402	4.1
490.754	4.15
491.107	4.23
491.459	4.21
491.811	4.31
492.163	4.27
492.515	4.33
492.866	4.31
493.218	4.13
493.57	4.14
493.922	4.17
494.274	4.26
494.625	4.24
494.977	4.33
495.328	4.36
495.68	4.5
496.031	4.34
496.383	4.32
496.734	4.43
497.086	4.43
497.437	4.51
497.788	4.39
498.139	4.43
498.49	4.48
498.842	4.44
499.193	4.5
499.544	4.34
499.894	4.41
500.245	4.38
500.596	4.54
500.947	4.41
501.298	4.51
501.648	4.49
501.999	4.41
502.35	4.53
502.7	4.58
503.051	4.38
503.401	4.53
503.752	4.48
504.102	4.49
504.452	4.47
504.803	4.67
505.153	4.59
505.503	4.61
505.853	4.62
506.203	4.4
506.553	4.55
506.903	4.53
507.253	4.49
507.603	4.56
507.953	4.64
508.303	4.49
508.652	4.56
509.002	4.49
509.352	4.71
509.701	4.52
510.051	4.49
510.4	4.56
510.75	4.6
511.099	4.6
511.449	4.72
511.798	4.52
512.147	4.71
512.496	4.59
512.846	4.66
513.195	4.7
513.544	4.65
513.893	4.65
514.242	4.7
514.591	4.47
514.939	4.68
515.288	4.69
515.637	4.59
515.986	4.67
516.334	4.83
516.683	4.82
517.032	4.83
517.38	4.78
517.729	4.71
518.077	4.67
518.426	4.86
518.774	4.76
519.122	4.74
519.47	4.68
519.819	4.64
520.167	4.75
520.515	4.64
520.863	4.69
521.211	4.77
521.559	4.75
521.907	4.76
522.255	4.67
522.602	4.81
522.95	4.87
523.298	4.79
523.645	4.96
523.993	4.77
524.341	4.82
524.688	4.81
525.036	5.03
525.383	4.92
525.73	4.87
526.078	4.93
526.425	4.81
526.772	4.88
527.119	4.88
527.466	4.81
527.814	4.89
528.161	4.77
528.508	4.81
528.854	4.76
529.201	4.83
529.548	4.83
529.895	4.76
530.242	4.82
530.588	4.67
530.935	4.73
531.282	4.73
531.628	4.78
531.975	4.85
532.321	4.89
532.667	4.94
533.014	4.85
533.36	4.98
533.706	4.99
534.052	5.01
534.399	4.97
534.745	4.99
535.091	4.86
535.437	4.86
535.783	4.93
536.129	5
536.474	4.98
536.82	4.95
537.166	5
537.512	5.01
537.857	5.05
538.203	5.04
538.549	5.1
538.894	5.1
539.239	5.14
539.585	5.19
539.93	5.05
540.276	5.1
540.621	5.2
540.966	5.31
541.311	5.15
541.656	5.19
542.001	5.33
542.346	5.25
542.691	5.14
543.036	5.08
543.381	5.01
543.726	5.04
544.071	5.09
544.415	5.13
544.76	5.18
545.105	5.16
545.449	5.15
545.794	5.24
546.138	5.26
546.483	5.3
546.827	5.47
547.171	5.28
547.516	5.28
547.86	5.4
548.204	5.36
548.548	5.29
548.892	5.37
549.236	5.46
549.58	5.5
549.924	5.41
550.268	5.46
550.612	5.36
550.956	5.49
551.3	5.53
551.643	5.74
551.987	5.68
552.33	5.83
552.674	5.85
553.017	5.64
553.361	5.55
553.704	5.53
554.048	5.83
554.391	5.63
554.734	5.44
555.077	5.63
555.42	5.68
555.764	5.65
556.107	5.81
556.45	5.7
556.793	5.75
557.135	5.79
557.478	5.8
557.821	5.78
558.164	5.94
558.507	5.81
558.849	5.89
559.192	5.77
559.534	5.85
559.877	5.98
560.219	6.08
560.562	6.14
560.904	5.97
561.246	5.98
561.589	5.79
561.931	6.08
562.273	5.94
562.615	5.87
562.957	6.07
563.299	6.02
563.641	5.91
563.983	6.22
564.325	6.17
564.667	6.1
565.008	6.14
565.35	6.35
565.692	6.19
566.033	6.07
566.375	6.24
566.716	6.25
567.058	6.25
567.399	6.25
567.741	6.15
568.082	6.17
568.423	6.15
568.764	6.12
569.105	6.18
569.447	6.4
569.788	6.11
570.129	6.19
570.47	6.06
570.811	5.91
571.151	6.48
571.492	6.42
571.833	6.33
572.174	6.34
572.514	6.45
572.855	6.3
573.195	6.45
573.536	6.32
573.876	6.4
574.217	6.43
574.557	6.44
574.898	6.53
575.238	6.56
575.578	6.56
575.918	6.61
576.258	6.54
576.598	6.67
576.938	6.65
577.278	6.57
577.618	6.57
577.958	6.47
578.298	6.67
578.638	6.87
578.977	6.93
579.317	6.58
579.657	6.66
579.996	6.6
580.336	6.8
580.675	6.96
581.014	6.79
581.354	6.78
581.693	7.12
582.032	6.41
582.372	7.07
582.711	6.88
583.05	6.95
583.389	6.98
583.728	7.1
584.067	6.87
584.406	6.9
584.745	6.93
585.083	7.19
585.422	7.2
585.761	7.29
586.1	7.1
586.438	6.98
586.777	7.01
587.115	6.78
587.454	6.98
587.792	7.18
588.13	7.48
588.469	7.01
588.807	7.19
589.145	7.43
589.483	7.46
589.821	7.09
590.159	7.3
590.497	7.23
590.835	7.33
591.173	7.21
591.511	7.53
591.849	7.31
592.187	7.18
592.524	7.49
592.862	7.26
593.2	7.27
593.537	7.75
593.875	7.58
594.212	7.63
594.55	7.34
594.887	7.46
595.224	7.6
595.561	7.74
595.899	7.39
596.236	7.83
596.573	7.64
596.91	7.52
597.247	7.96
597.584	7.63
597.921	7.39
598.258	7.72
598.594	7.59
598.931	7.7
599.268	7.75
599.604	7.85
599.941	7.89
600.277	7.82
600.614	7.99
600.95	7.67
601.287	8.04
601.623	7.79
601.959	8.04
602.296	7.97
602.632	8.08
602.968	7.78
603.304	8.11
603.64	8.1
603.976	8.12
604.312	7.91
604.648	8.29
604.984	8.24
605.319	8.15
605.655	8.19
605.991	8.31
606.326	8.34
606.662	8.15
606.998	8.23
607.333	8.43
607.668	8.23
608.004	8.29
608.339	8.7
608.674	8.43
609.01	8.48
609.345	8.32
609.68	8.49
610.015	8.63
610.35	8.5
610.685	8.35
611.02	8.5
611.355	8.58
611.689	8.75
612.024	8.35
612.359	8.68
612.694	8.58
613.028	8.49
613.363	8.72
613.697	8.59
614.032	8.93
614.366	8.99
614.7	8.84
615.035	8.91
615.369	8.86
615.703	8.91
616.037	8.89
616.371	9.1
616.705	8.99
617.039	9.37
617.373	9.29
617.707	9
618.041	9.26
618.375	9.36
618.709	8.98
619.042	9.41
619.376	9.47
619.71	8.73
620.043	9.23
620.377	9.18
620.71	8.99
621.043	9.07
621.377	8.7
621.71	9.29
622.043	9.13
622.376	9.08
622.709	9.45
623.043	9.71
623.376	9.03
623.709	9.75
624.041	9.62
624.374	9.46
624.707	9.32
625.04	10.07
625.373	9.73
625.705	9.88
626.038	9.45
626.37	9.87
626.703	9.77
627.035	9.85
627.368	9.81
627.7	9.62
628.032	10.1
628.365	9.91
628.697	9.47
629.029	9.78
629.361	9.48
629.693	9.66
630.025	9.85
630.357	9.74
630.689	9.68
631.021	9.74
631.353	9.77
631.684	9.82
632.016	9.92
632.348	10.37
632.679	10.35
633.011	10.11
633.342	9.84
633.674	10.21
634.005	10.6
634.336	10.26
634.668	10.08
634.999	10.35
635.33	10.2
635.661	10.43
635.992	10.33
636.323	10.18
636.654	10.51
636.985	10.21
637.316	10.31
637.647	10.55
637.977	10.61
638.308	10.9
638.639	10.02
638.969	10.45
639.3	10.84
639.63	10.66
639.961	10.69
640.291	11.22
640.622	10.49
640.952	10.89
641.282	10.71
641.612	11.25
641.943	10.92
642.273	10.65
642.603	11.34
642.933	10.51
643.263	10.66
643.592	10.7
643.922	11.11
644.252	10.83
644.582	11.09
644.911	11.05
645.241	10.79
645.571	11.53
645.9	10.86
646.23	11.24
646.559	11.3
646.888	10.98
647.218	11.29
647.547	11.21
647.876	11.41
648.205	10.95
648.534	10.81
648.863	11.26
649.192	10.85
649.521	11.05
649.85	10.81
650.179	11.25
650.508	11.6
650.837	10.6
651.165	11.88
651.494	11.45
651.822	11.53
652.151	11.8
652.479	11.63
652.808	11.65
653.136	11.4
653.465	11.7
653.793	11.31
654.121	11.36
654.449	11.83
654.777	11.88
655.105	11.54
655.433	12.25
655.761	11.46
656.089	11.4
656.417	11.71
656.745	12.08
657.073	12.08
657.4	11.95
657.728	12
658.056	12.44
658.383	11.63
658.711	11.91
659.038	12.54
659.365	12.26
659.693	12.07
660.02	11.58
660.347	12.11
660.674	12.56
661.001	11.87
661.329	12.06
661.656	12.21
661.982	12.28
662.309	12.66
662.636	12.37
662.963	12.86
663.29	12.07
663.616	12.28
663.943	12
664.27	12.52
664.596	12.92
664.923	12.27
665.249	13.05
665.576	12.63
665.902	12.58
666.228	12.48
666.554	12.39
666.881	12.48
667.207	13.27
667.533	12.99
667.859	12.78
668.185	13.15
668.511	12.79
668.837	13.47
669.162	13.34
669.488	12.9
669.814	12.89
670.139	12.43
670.465	13.21
670.791	12.84
671.116	13.45
671.442	13.28
671.767	13.14
672.092	13.11
672.418	12.64
672.743	12.55
673.068	12.78
673.393	12.98
673.718	12.48
674.043	13.47
674.368	13.35
674.693	12.78
675.018	14.29
675.343	13.4
675.667	13.7
675.992	13.66
676.317	13.89
676.641	13.41
676.966	13.71
677.29	13.13
677.615	14.54
677.939	13.21
678.264	14.03
678.588	14.09
678.912	13.61
679.236	14.11
679.56	13.41
679.885	13.98
680.209	13.95
680.532	13.91
680.856	14.32
681.18	13.99
681.504	13.84
681.828	13.69
682.152	13.77
682.475	14.11
682.799	14.28
683.122	14.3
683.446	13.43
683.769	14.35
684.093	14.07
684.416	13.91
684.739	14.73
685.062	14.54
685.386	14.49
685.709	14.33
686.032	14.64
686.355	13.97
686.678	14.75
687.001	14.36
687.324	13.42
687.646	14.39
687.969	13.79
688.292	15.04
688.614	15.44
688.937	14.83
