Data from 0356_chest_Reflection__2__63.txt Node

Date: Mon Dec 11 18:25:56 CST 2023
User: ToomeyLab
Spectrometer: FLMS14357
Trigger mode: 0
Integration Time (sec): 1.000000E-2
Scans to average: 100
Electric dark correction enabled: true
Nonlinearity correction enabled: false
Boxcar width: 0
XAxis mode: Wavelengths
Number of Pixels in Spectrum: 2048
>>>>>Begin Spectral Data<<<<<
189.047	21.89
189.435	21.89
189.823	21.89
190.211	159.39
190.599	367.83
190.987	-192.76
191.375	-210.4
191.763	46.39
192.151	1879.17
192.538	1228.04
192.926	345.9
193.314	69562.5
193.702	-26.26
194.089	105.36
194.477	376.93
194.864	-781.6
195.252	-70.05
195.639	28.11
196.027	250.85
196.414	-13.32
196.801	-114.54
197.189	79.48
197.576	68.78
197.963	65.71
198.351	13.48
198.738	42.55
199.125	-18.66
199.512	-11.6
199.899	-12.34
200.286	32.53
200.673	-178.67
201.06	33.47
201.447	-8.72
201.833	28.83
202.22	44.16
202.607	-17.75
202.994	-3.25
203.38	-17.02
203.767	37.74
204.154	37.46
204.54	-2.31
204.927	-52.46
205.313	-12.08
205.699	-65.79
206.086	-60.27
206.472	-3.16
206.858	14.1
207.245	5.44
207.631	21.66
208.017	-22.85
208.403	19.63
208.789	-53.92
209.175	28.06
209.561	2.5
209.947	-17.89
210.333	36.26
210.719	10.45
211.105	20.86
211.491	10.79
211.876	10.31
212.262	-28.98
212.648	4.58
213.034	-1.25
213.419	-18.11
213.805	19.41
214.19	8.73
214.576	-13.29
214.961	13.06
215.346	-21.56
215.732	16.52
216.117	7.26
216.502	25.33
216.888	-0.35
217.273	16.77
217.658	-2.38
218.043	-28.29
218.428	5.31
218.813	9.56
219.198	-13.37
219.583	-16.41
219.968	9.97
220.353	-13.96
220.738	15.04
221.122	6.3
221.507	15.27
221.892	-0.95
222.276	1.34
222.661	0.06
223.046	-7.38
223.43	14.38
223.815	-6.72
224.199	-5.83
224.583	-1.86
224.968	0.59
225.352	-2.3
225.736	5.19
226.121	3.57
226.505	-4.67
226.889	1.03
227.273	-1.39
227.657	15.56
228.041	8.01
228.425	1.95
228.809	-0.1
229.193	4.89
229.577	3.32
229.961	2.39
230.344	3.03
230.728	2.71
231.112	3.1
231.495	3.75
231.879	3.08
232.263	2.88
232.646	3.05
233.03	0.84
233.413	1.92
233.797	5.28
234.18	1.7
234.563	4.11
234.946	2.79
235.33	4.52
235.713	2.67
236.096	3.85
236.479	3.9
236.862	2.05
237.245	3.69
237.628	3.21
238.011	1.32
238.394	2.89
238.777	2.27
239.16	2.36
239.543	3.88
239.925	4.03
240.308	5.82
240.691	2.86
241.073	2.05
241.456	5.07
241.838	5.74
242.221	3.84
242.603	1.61
242.986	2.81
243.368	2.35
243.75	3.49
244.133	3.04
244.515	2.83
244.897	2.99
245.279	3.04
245.661	3.39
246.043	3.1
246.425	3.23
246.807	3.01
247.189	3.38
247.571	2.73
247.953	2.93
248.335	3.48
248.717	3.37
249.098	2.9
249.48	3
249.862	3.23
250.243	3.28
250.625	3.18
251.006	3.15
251.388	2.74
251.769	3.67
252.151	3.67
252.532	2.93
252.913	3.52
253.295	3.88
253.676	2.76
254.057	3.23
254.438	3.42
254.819	2.72
255.2	1.85
255.581	2.9
255.962	1.9
256.343	3.15
256.724	3.99
257.105	2.51
257.486	1.88
257.867	4
258.247	2.37
258.628	1.99
259.009	3.72
259.389	3.97
259.77	2.73
260.15	2.63
260.531	3.23
260.911	2.19
261.292	2.34
261.672	2.99
262.052	2.87
262.432	2.7
262.813	2.84
263.193	2.93
263.573	3.31
263.953	2.33
264.333	2.28
264.713	3.33
265.093	2.93
265.473	3.61
265.853	2.95
266.233	2.3
266.612	3.91
266.992	3.49
267.372	3.56
267.752	3.45
268.131	3.25
268.511	2.47
268.89	2.84
269.27	3.43
269.649	2.57
270.029	3.05
270.408	2.72
270.787	2.42
271.167	1.87
271.546	2.42
271.925	2.97
272.304	3.05
272.683	2.87
273.062	2.01
273.441	2.61
273.82	2.74
274.199	2.42
274.578	2.64
274.957	3.14
275.336	2.47
275.715	2.67
276.093	3.49
276.472	3.28
276.851	3.68
277.229	3.11
277.608	3
277.986	3.25
278.365	2.34
278.743	2.35
279.122	2.75
279.5	3.38
279.878	2.54
280.257	2.79
280.635	2.29
281.013	2.32
281.391	2.91
281.769	2.33
282.147	2.65
282.525	2.27
282.903	3.71
283.281	2.69
283.659	2.57
284.037	2.65
284.415	2.46
284.792	2.91
285.17	3.34
285.548	2.35
285.925	2.92
286.303	2.56
286.68	2.43
287.058	3.12
287.435	3.03
287.813	3.29
288.19	2.56
288.567	2.41
288.945	2.84
289.322	2.14
289.699	2.41
290.076	2.25
290.453	3.1
290.83	3.67
291.207	2.86
291.584	2.67
291.961	2.92
292.338	2.54
292.715	3.2
293.092	2.48
293.469	2.83
293.845	2.32
294.222	3.3
294.599	2.32
294.975	2.69
295.352	2.13
295.728	2.77
296.105	2.93
296.481	2.29
296.858	2.79
297.234	2.84
297.61	3.27
297.986	2.98
298.363	2.82
298.739	2.96
299.115	2.85
299.491	3.21
299.867	3.03
300.243	2.99
300.619	2.8
300.995	2.98
301.371	2.52
301.746	2.69
302.122	2.32
302.498	2.78
302.874	3.11
303.249	3.3
303.625	2.67
304	2.93
304.376	2.58
304.751	2.94
305.127	2.87
305.502	2.74
305.878	2.76
306.253	3.34
306.628	3.02
307.003	3.47
307.378	3.05
307.754	3.12
308.129	2.77
308.504	2.15
308.879	2.78
309.254	3.35
309.629	3.12
310.003	3.34
310.378	2.75
310.753	3.29
311.128	3.03
311.502	2.46
311.877	2.92
312.252	3.24
312.626	3.29
313.001	3.32
313.375	2.71
313.75	3.01
314.124	3.01
314.498	2.61
314.873	3.09
315.247	3.05
315.621	3.73
315.995	3.38
316.369	2.93
316.743	3.59
317.117	3.07
317.491	3.23
317.865	2.97
318.239	3.57
318.613	3.26
318.987	2.86
319.361	3.33
319.734	3.2
320.108	2.99
320.482	3.46
320.855	3.03
321.229	3.08
321.602	3.31
321.976	3.62
322.349	3.54
322.723	2.65
323.096	3.73
323.469	3.44
323.843	3.48
324.216	3.3
324.589	4.19
324.962	2.94
325.335	3.43
325.708	3.46
326.081	3.7
326.454	3.73
326.827	3.63
327.2	2.95
327.573	3.25
327.945	3.76
328.318	3.22
328.691	3.58
329.063	3.32
329.436	3.13
329.809	2.9
330.181	3.3
330.553	3.67
330.926	3.51
331.298	3.31
331.671	3.18
332.043	3.45
332.415	3.58
332.787	3.89
333.159	3.34
333.532	3.29
333.904	3.55
334.276	3.78
334.648	3.96
335.02	3.5
335.391	3.2
335.763	3.55
336.135	3.46
336.507	3.23
336.879	3.7
337.25	3.36
337.622	3.47
337.993	3.26
338.365	3.37
338.736	3.67
339.108	3.81
339.479	3.73
339.851	3.51
340.222	3.57
340.593	2.94
340.964	3.1
341.336	3.37
341.707	3.47
342.078	3.65
342.449	3.37
342.82	3.48
343.191	2.97
343.562	3.18
343.933	3.52
344.303	3.16
344.674	3.51
345.045	3.18
345.416	3.03
345.786	3.36
346.157	3.25
346.527	3.63
346.898	3.39
347.268	3.55
347.639	3.57
348.009	3.26
348.38	3.22
348.75	3.31
349.12	3.95
349.49	3.29
349.861	3.2
350.231	2.96
350.601	3.71
350.971	3.8
351.341	3.03
351.711	3.32
352.081	3.52
352.45	3.34
352.82	2.98
353.19	3.23
353.56	3.5
353.929	3.49
354.299	3.79
354.669	3.41
355.038	3.4
355.408	3.05
355.777	3.47
356.147	3.54
356.516	3.71
356.885	3.36
357.254	3.5
357.624	3.68
357.993	3.22
358.362	3.59
358.731	3.14
359.1	3.51
359.469	3.42
359.838	3.45
360.207	3.25
360.576	3.52
360.945	3.87
361.314	3.64
361.682	3.31
362.051	3.48
362.42	3.36
362.788	3.22
363.157	3.52
363.525	3.19
363.894	3.43
364.262	3.22
364.631	3.47
364.999	3.45
365.367	3.58
365.735	3.45
366.104	3.13
366.472	3.54
366.84	3.49
367.208	3.38
367.576	3.66
367.944	3.47
368.312	3.22
368.68	3.69
369.048	3.28
369.416	3.17
369.783	3.36
370.151	3.81
370.519	3.84
370.886	3.4
371.254	3.97
371.621	3.58
371.989	3.94
372.356	3.68
372.724	4.17
373.091	3.6
373.458	3.38
373.826	3.71
374.193	3.33
374.56	3.68
374.927	4.05
375.294	3.69
375.661	3.75
376.028	3.61
376.395	3.73
376.762	3.37
377.129	4.04
377.496	3.69
377.863	3.74
378.229	3.69
378.596	3.57
378.963	3.72
379.329	3.48
379.696	3.81
380.062	3.3
380.429	3.52
380.795	3.7
381.161	3.26
381.528	3.78
381.894	3.39
382.26	3.68
382.626	3.58
382.993	3.7
383.359	3.57
383.725	3.72
384.091	3.51
384.457	3.46
384.823	4.04
385.188	3.59
385.554	3.67
385.92	3.72
386.286	3.94
386.651	3.54
387.017	3.84
387.383	3.83
387.748	3.72
388.114	3.52
388.479	3.59
388.845	3.78
389.21	3.57
389.575	3.88
389.94	3.97
390.306	3.52
390.671	4.04
391.036	3.84
391.401	3.84
391.766	3.78
392.131	3.78
392.496	3.99
392.861	3.93
393.226	3.54
393.591	3.94
393.956	3.73
394.32	3.79
394.685	3.64
395.05	3.82
395.414	4.1
395.779	3.48
396.143	3.64
396.508	3.78
396.872	3.87
397.236	3.85
397.601	3.54
397.965	3.82
398.329	4.12
398.694	3.72
399.058	3.65
399.422	3.83
399.786	3.67
400.15	3.71
400.514	3.71
400.878	3.82
401.242	3.66
401.605	4.07
401.969	3.8
402.333	3.57
402.697	3.63
403.06	3.83
403.424	3.82
403.787	4.28
404.151	3.63
404.514	3.77
404.878	3.8
405.241	3.85
405.604	3.9
405.968	4.01
406.331	3.69
406.694	3.88
407.057	3.76
407.42	4.14
407.783	4.01
408.146	3.85
408.509	3.8
408.872	3.96
409.235	3.75
409.598	4.07
409.961	3.94
410.323	4.01
410.686	3.91
411.049	3.9
411.411	3.86
411.774	4.09
412.136	3.89
412.499	3.98
412.861	3.72
413.223	3.92
413.586	4
413.948	4.05
414.31	3.78
414.672	3.65
415.035	4
415.397	3.94
415.759	3.98
416.121	3.85
416.483	3.93
416.845	4.31
417.206	4.08
417.568	4.06
417.93	4.04
418.292	4.03
418.653	3.89
419.015	3.78
419.377	4.05
419.738	4.08
420.1	3.83
420.461	3.89
420.822	4.02
421.184	3.85
421.545	3.69
421.906	3.87
422.267	4
422.629	3.88
422.99	3.88
423.351	3.85
423.712	3.75
424.073	3.96
424.434	3.97
424.795	3.93
425.155	3.95
425.516	3.85
425.877	3.78
426.238	3.89
426.598	3.93
426.959	3.91
427.32	3.98
427.68	3.98
428.041	3.92
428.401	3.98
428.761	3.94
429.122	3.89
429.482	3.9
429.842	4.07
430.202	4.11
430.563	4.06
430.923	3.98
431.283	4.09
431.643	4.16
432.003	4.09
432.363	4.14
432.722	4.21
433.082	4.04
433.442	4.13
433.802	4.06
434.161	4.31
434.521	3.97
434.881	4.12
435.24	4.01
435.6	3.98
435.959	4.1
436.319	4.05
436.678	4.1
437.037	4.15
437.396	4.16
437.756	4.27
438.115	4.26
438.474	4.26
438.833	4.04
439.192	4.1
439.551	4.06
439.91	4.2
440.269	4.25
440.628	4.01
440.987	4.36
441.345	4.19
441.704	4.15
442.063	4.03
442.421	4.17
442.78	4.15
443.138	4.17
443.497	4.1
443.855	4.08
444.214	4.28
444.572	4.29
444.93	4.32
445.288	4.26
445.647	4.23
446.005	3.95
446.363	4.17
446.721	4.13
447.079	4.24
447.437	4.24
447.795	4.11
448.153	4.21
448.51	4.19
448.868	4.03
449.226	4.03
449.584	4.15
449.941	4.3
450.299	4.28
450.656	4.1
451.014	4.21
451.371	4.13
451.729	4.22
452.086	4.28
452.443	4.45
452.801	4.38
453.158	4.36
453.515	4.12
453.872	4.36
454.229	4.29
454.586	4.39
454.943	4.25
455.3	4.26
455.657	4.33
456.014	4.32
456.371	4.35
456.727	4.42
457.084	4.41
457.441	4.44
457.797	4.47
458.154	4.36
458.51	4.53
458.867	4.15
459.223	4.32
459.58	4.4
459.936	4.51
460.292	4.42
460.648	4.53
461.005	4.35
461.361	4.29
461.717	4.32
462.073	4.26
462.429	4.39
462.785	4.31
463.141	4.35
463.496	4.49
463.852	4.38
464.208	4.48
464.564	4.43
464.919	4.48
465.275	4.48
465.631	4.28
465.986	4.51
466.342	4.45
466.697	4.48
467.052	4.48
467.408	4.58
467.763	4.35
468.118	4.25
468.473	4.44
468.829	4.54
469.184	4.68
469.539	4.34
469.894	4.38
470.249	4.43
470.603	4.43
470.958	4.57
471.313	4.68
471.668	4.7
472.023	4.73
472.377	4.6
472.732	4.63
473.086	4.68
473.441	4.7
473.795	4.5
474.15	4.49
474.504	4.67
474.859	4.71
475.213	4.67
475.567	4.6
475.921	4.73
476.275	4.62
476.63	4.81
476.984	4.73
477.338	4.44
477.692	4.74
478.045	4.79
478.399	4.6
478.753	4.5
479.107	4.71
479.461	4.69
479.814	4.64
480.168	4.62
480.521	4.79
480.875	4.68
481.228	4.5
481.582	4.81
481.935	4.71
482.289	4.74
482.642	4.81
482.995	4.65
483.348	4.62
483.701	4.42
484.055	4.7
484.408	4.61
484.761	4.64
485.114	4.59
485.466	4.45
485.819	4.4
486.172	4.39
486.525	4.42
486.878	4.52
487.23	4.59
487.583	4.6
487.936	4.62
488.288	4.7
488.641	4.56
488.993	4.5
489.345	4.57
489.698	4.53
490.05	4.55
490.402	4.55
490.754	4.65
491.107	4.68
491.459	4.72
491.811	4.74
492.163	4.77
492.515	4.71
492.866	4.73
493.218	4.6
493.57	4.61
493.922	4.62
494.274	4.72
494.625	4.76
494.977	4.84
495.328	4.8
495.68	4.92
496.031	4.87
496.383	4.96
496.734	4.94
497.086	5.01
497.437	4.92
497.788	4.89
498.139	4.87
498.49	4.91
498.842	5.08
499.193	4.92
499.544	4.83
499.894	4.91
500.245	5
500.596	5.09
500.947	4.86
501.298	5.11
501.648	5
501.999	4.96
502.35	5.1
502.7	5.12
503.051	5.02
503.401	5.06
503.752	5.14
504.102	5.12
504.452	5.12
504.803	5.14
505.153	5.15
505.503	5.17
505.853	5.16
506.203	5.13
506.553	5.27
506.903	5.14
507.253	5.19
507.603	5.1
507.953	5.27
508.303	5.05
508.652	5.17
509.002	5.27
509.352	5.28
509.701	5.25
510.051	5.1
510.4	5.21
510.75	5.18
511.099	5.25
511.449	5.29
511.798	5.24
512.147	5.21
512.496	5.22
512.846	5.3
513.195	5.35
513.544	5.27
513.893	5.26
514.242	5.39
514.591	5.23
514.939	5.22
515.288	5.33
515.637	5.3
515.986	5.35
516.334	5.37
516.683	5.39
517.032	5.37
517.38	5.21
517.729	5.41
518.077	5.41
518.426	5.45
518.774	5.54
519.122	5.46
519.47	5.29
519.819	5.28
520.167	5.32
520.515	5.35
520.863	5.3
521.211	5.38
521.559	5.39
521.907	5.38
522.255	5.36
522.602	5.45
522.95	5.5
523.298	5.5
523.645	5.67
523.993	5.43
524.341	5.51
524.688	5.55
525.036	5.5
525.383	5.62
525.73	5.61
526.078	5.62
526.425	5.49
526.772	5.55
527.119	5.54
527.466	5.51
527.814	5.54
528.161	5.53
528.508	5.56
528.854	5.61
529.201	5.48
529.548	5.52
529.895	5.48
530.242	5.39
530.588	5.4
530.935	5.4
531.282	5.46
531.628	5.48
531.975	5.47
532.321	5.6
532.667	5.63
533.014	5.57
533.36	5.63
533.706	5.74
534.052	5.7
534.399	5.71
534.745	5.65
535.091	5.59
535.437	5.54
535.783	5.67
536.129	5.77
536.474	5.82
536.82	5.78
537.166	5.8
537.512	5.84
537.857	5.87
538.203	5.88
538.549	5.89
538.894	5.85
539.239	5.99
539.585	5.83
539.93	5.91
540.276	6.03
540.621	5.96
540.966	6.19
541.311	6.04
541.656	6.1
542.001	6.16
542.346	6.07
542.691	6.04
543.036	5.9
543.381	5.81
543.726	5.81
544.071	5.98
544.415	5.91
544.76	5.99
545.105	5.98
545.449	6
545.794	6.02
546.138	6.08
546.483	6.14
546.827	6.29
547.171	6.15
547.516	6.18
547.86	6.36
548.204	6.25
548.548	6.22
548.892	6.26
549.236	6.24
549.58	6.36
549.924	6.36
550.268	6.33
550.612	6.32
550.956	6.3
551.3	6.44
551.643	6.5
551.987	6.67
552.33	6.55
552.674	6.66
553.017	6.6
553.361	6.44
553.704	6.52
554.048	6.67
554.391	6.65
554.734	6.57
555.077	6.49
555.42	6.78
555.764	6.55
556.107	6.63
556.45	6.62
556.793	6.68
557.135	6.75
557.478	6.85
557.821	6.9
558.164	6.82
558.507	6.59
558.849	6.75
559.192	6.71
559.534	6.98
559.877	6.96
560.219	6.9
560.562	7.21
560.904	6.92
561.246	6.95
561.589	7
561.931	7.17
562.273	6.79
562.615	6.86
562.957	6.75
563.299	7.09
563.641	7.01
563.983	7.26
564.325	7.34
564.667	7.01
565.008	7.2
565.35	7.27
565.692	7.19
566.033	7.11
566.375	7.26
566.716	7.27
567.058	7.21
567.399	7.29
567.741	7.16
568.082	7.28
568.423	7.11
568.764	7.08
569.105	7.22
569.447	7.33
569.788	7.36
570.129	7.36
570.47	7.21
570.811	7.38
571.151	7.37
571.492	7.44
571.833	7.54
572.174	7.54
572.514	7.3
572.855	7.24
573.195	7.41
573.536	7.59
573.876	7.48
574.217	7.46
574.557	7.47
574.898	7.57
575.238	7.54
575.578	7.55
575.918	7.63
576.258	7.63
576.598	7.68
576.938	7.69
577.278	7.75
577.618	7.85
577.958	7.83
578.298	7.99
578.638	7.95
578.977	7.87
579.317	7.64
579.657	7.68
579.996	7.86
580.336	7.92
580.675	7.83
581.014	8.05
581.354	7.84
581.693	8.19
582.032	7.76
582.372	8.18
582.711	7.85
583.05	8.24
583.389	8.11
583.728	8.46
584.067	7.91
584.406	8.02
584.745	8.34
585.083	7.98
585.422	8.24
585.761	8.21
586.1	8.18
586.438	8.21
586.777	8.34
587.115	7.93
587.454	8.23
587.792	8.29
588.13	8.54
588.469	8.59
588.807	8.49
589.145	8.83
589.483	8.78
589.821	8.34
590.159	8.33
590.497	8.6
590.835	8.37
591.173	8.62
591.511	8.84
591.849	8.46
592.187	8.45
592.524	8.49
592.862	8.57
593.2	8.57
593.537	8.77
593.875	8.8
594.212	8.8
594.55	8.47
594.887	8.73
595.224	8.95
595.561	8.86
595.899	8.77
596.236	8.94
596.573	8.85
596.91	8.93
597.247	9.04
597.584	8.85
597.921	8.73
598.258	8.76
598.594	9.03
598.931	8.86
599.268	8.97
599.604	9.05
599.941	9.01
600.277	8.81
600.614	9.26
600.95	9.11
601.287	9.02
601.623	9.35
601.959	9.23
602.296	9.32
602.632	9.22
602.968	9.35
603.304	9.38
603.64	9.15
603.976	9.59
604.312	9.45
604.648	9.14
604.984	9.39
605.319	9.37
605.655	9.39
605.991	9.26
606.326	9.58
606.662	9.36
606.998	9.31
607.333	9.47
607.668	9.48
608.004	9.19
608.339	9.77
608.674	9.58
609.01	9.6
609.345	9.67
609.68	9.86
610.015	9.88
610.35	9.9
610.685	9.53
611.02	9.72
611.355	9.9
611.689	9.76
612.024	9.68
612.359	9.76
612.694	9.92
613.028	9.75
613.363	9.64
613.697	9.8
614.032	9.99
614.366	10.24
614.7	9.91
615.035	10.12
615.369	10.04
615.703	10.39
616.037	10.16
616.371	10.16
616.705	10.29
617.039	10.29
617.373	10.28
617.707	10.47
618.041	10.34
618.375	10.5
618.709	10.13
619.042	10.46
619.376	10.48
619.71	10.32
620.043	10.23
620.377	10.63
620.71	10.54
621.043	10.09
621.377	9.83
621.71	10.24
622.043	10.41
622.376	10.73
622.709	10.48
623.043	11.01
623.376	10.67
623.709	11.03
624.041	10.7
624.374	10.39
624.707	10.54
625.04	11.43
625.373	11.03
625.705	10.58
626.038	10.79
626.37	10.67
626.703	10.85
627.035	11.06
627.368	11.13
627.7	11.03
628.032	11.05
628.365	10.82
628.697	11.12
629.029	11.02
629.361	10.67
629.693	11.1
630.025	11.07
630.357	10.95
630.689	10.89
631.021	11.19
631.353	11.04
631.684	11.13
632.016	11.5
632.348	11.43
632.679	11.53
633.011	11.54
633.342	11.41
633.674	11.7
634.005	11.74
634.336	11.44
634.668	11.42
634.999	11.75
635.33	11.43
635.661	11.25
635.992	11.9
636.323	11.42
636.654	11.63
636.985	11.34
637.316	11.43
637.647	11.55
637.977	11.66
638.308	11.77
638.639	11.68
638.969	11.59
639.3	11.94
639.63	11.28
639.961	11.7
640.291	12.22
640.622	11.99
640.952	12.25
641.282	12.27
641.612	12.22
641.943	11.95
642.273	12.17
642.603	12.3
642.933	12.11
643.263	12.2
643.592	12.14
643.922	12.21
644.252	12.02
644.582	12.37
644.911	12.55
645.241	12.06
645.571	12.67
645.9	12.19
646.23	11.91
646.559	12.8
646.888	12.35
647.218	12.69
647.547	12.16
647.876	12.71
648.205	11.86
648.534	12.53
648.863	12.8
649.192	12.56
649.521	12.64
649.85	12.77
650.179	12.49
650.508	12.28
650.837	11.89
651.165	13.11
651.494	12.56
651.822	12.43
652.151	12.99
652.479	12.84
652.808	12.75
653.136	12.48
653.465	12.86
653.793	12.72
654.121	12.56
654.449	12.72
654.777	13.34
655.105	12.58
655.433	12.34
655.761	12.85
656.089	12.98
656.417	13.16
656.745	13.5
657.073	13.21
657.4	13.37
657.728	13.2
658.056	13.74
658.383	12.69
658.711	13.53
659.038	13.47
659.365	13.38
659.693	13.2
660.02	13.36
660.347	13.31
660.674	13.52
661.001	13.22
661.329	13.57
661.656	13.56
661.982	13.38
662.309	13.29
662.636	13.51
662.963	13.84
663.29	13.76
663.616	13.54
663.943	13.45
664.27	13.99
664.596	14.29
664.923	13.82
665.249	14.16
665.576	13.71
665.902	13.59
666.228	14.05
666.554	14.38
666.881	13.62
667.207	14.23
667.533	14.35
667.859	14.43
668.185	14.19
668.511	13.78
668.837	14.44
669.162	14.42
669.488	14.63
669.814	14.04
670.139	13.67
670.465	13.92
670.791	14.8
671.116	14.44
671.442	14.43
671.767	14.34
672.092	14.42
672.418	14.32
672.743	14.03
673.068	14.27
673.393	14.42
673.718	14.32
674.043	14.69
674.368	14.72
674.693	14.62
675.018	14.48
675.343	14.74
675.667	14.63
675.992	14.95
676.317	14.9
676.641	15.21
676.966	14.19
677.29	13.94
677.615	15.8
677.939	13.93
678.264	14.79
678.588	14.9
678.912	14.45
679.236	14.71
679.56	14.48
679.885	14.95
680.209	15.08
680.532	15.7
680.856	15.8
681.18	15.19
681.504	15.04
681.828	14.43
682.152	14.94
682.475	15.59
682.799	15.71
683.122	15.41
683.446	14.7
683.769	14.94
684.093	15.39
684.416	15.12
684.739	15.71
685.062	15.98
685.386	15.17
685.709	15.54
686.032	15.57
686.355	15.17
686.678	15.76
687.001	15.51
