Data from 0003_forehead_Reflection__1__267.txt Node

Date: Thu Dec 15 18:49:44 CST 2022
User: ToomeyLab
Spectrometer: FLMS14357
Trigger mode: 0
Integration Time (sec): 1.000000E-2
Scans to average: 100
Electric dark correction enabled: true
Nonlinearity correction enabled: false
Boxcar width: 0
XAxis mode: Wavelengths
Number of Pixels in Spectrum: 2048
>>>>>Begin Spectral Data<<<<<
189.047	-122.76
189.435	-122.76
189.823	-122.76
190.211	-74.36
190.599	344.68
190.987	-180.13
191.375	5.56
191.763	25.71
192.151	93.88
192.538	56.14
192.926	-27.32
193.314	10.26
193.702	-55.25
194.089	49.87
194.477	-112.91
194.864	19
195.252	26.81
195.639	95.38
196.027	-211.85
196.414	339.49
196.801	112.39
197.189	129.97
197.576	58
197.963	22.83
198.351	4.89
198.738	3.04
199.125	117.26
199.512	19.45
199.899	-27.25
200.286	2.23
200.673	56.48
201.06	1.81
201.447	35.76
201.833	32.35
202.22	-3.67
202.607	-41.61
202.994	21.88
203.38	-7.76
203.767	5.38
204.154	28.14
204.54	26.04
204.927	29.32
205.313	35.41
205.699	32.25
206.086	26.88
206.472	47.44
206.858	34.8
207.245	63.35
207.631	19.31
208.017	51.68
208.403	-84.32
208.789	-3.19
209.175	10.24
209.561	-30.61
209.947	3.69
210.333	43.13
210.719	35.02
211.105	28.35
211.491	53.41
211.876	-13.92
212.262	28.42
212.648	4.81
213.034	2.04
213.419	21.64
213.805	-10.11
214.19	-25.91
214.576	43.41
214.961	29.01
215.346	-20.24
215.732	-10.59
216.117	21.55
216.502	36.51
216.888	42.74
217.273	18.28
217.658	18.52
218.043	-11.55
218.428	7.78
218.813	34.65
219.198	-13.46
219.583	22.32
219.968	8.19
220.353	-12.96
220.738	30.1
221.122	-15.12
221.507	-10.1
221.892	-22.54
222.276	-6.14
222.661	4.04
223.046	-2.98
223.43	21.64
223.815	19.34
224.199	15.56
224.583	6.68
224.968	-5.42
225.352	-5.67
225.736	9.5
226.121	5.32
226.505	-3.84
226.889	9.81
227.273	4.39
227.657	7.78
228.041	6.94
228.425	4.03
228.809	4.67
229.193	4.84
229.577	5.87
229.961	4.66
230.344	6.33
230.728	6.07
231.112	5.83
231.495	4.45
231.879	5.09
232.263	6.77
232.646	3.48
233.03	7.78
233.413	5.69
233.797	4.07
234.18	5.78
234.563	7.48
234.946	5.45
235.33	5.46
235.713	5.38
236.096	6.14
236.479	4.74
236.862	6.26
237.245	3.9
237.628	7.38
238.011	6.9
238.394	5.22
238.777	5.94
239.16	5.38
239.543	7.45
239.925	5.86
240.308	4.75
240.691	4.94
241.073	5.85
241.456	5.94
241.838	4.71
242.221	5.96
242.603	6.34
242.986	5.52
243.368	5.73
243.75	5.29
244.133	5.17
244.515	5.49
244.897	4.87
245.279	5.19
245.661	5.77
246.043	5.76
246.425	4.92
246.807	5.24
247.189	5.06
247.571	4.95
247.953	5.34
248.335	5.16
248.717	5.47
249.098	5.3
249.48	5.11
249.862	5.92
250.243	5.69
250.625	5.44
251.006	6.66
251.388	5.38
251.769	4.27
252.151	5.93
252.532	4.91
252.913	5.57
253.295	5.34
253.676	5.3
254.057	5.14
254.438	5.72
254.819	5.56
255.2	6.7
255.581	6.44
255.962	6.2
256.343	5.9
256.724	6.4
257.105	5.53
257.486	4.12
257.867	5.65
258.247	5.28
258.628	4.83
259.009	4.64
259.389	4.34
259.77	4.92
260.15	5.9
260.531	5.06
260.911	5.16
261.292	5.54
261.672	5.3
262.052	5.29
262.432	4.9
262.813	5.32
263.193	5.83
263.573	5.32
263.953	5.34
264.333	5.58
264.713	5.84
265.093	5.32
265.473	5.11
265.853	5.98
266.233	5.41
266.612	4.22
266.992	5.78
267.372	5.8
267.752	6.34
268.131	4.54
268.511	5.1
268.89	5.52
269.27	5
269.649	5.25
270.029	5.53
270.408	5.36
270.787	5.44
271.167	5.63
271.546	6.41
271.925	5.11
272.304	5.04
272.683	5.07
273.062	5.02
273.441	4.62
273.82	5.13
274.199	4.89
274.578	5.43
274.957	5.2
275.336	5.88
275.715	5.42
276.093	5.03
276.472	3.95
276.851	5.41
277.229	4.9
277.608	4.56
277.986	5.03
278.365	5.77
278.743	5.32
279.122	5.03
279.5	5.6
279.878	4.67
280.257	5.07
280.635	5.92
281.013	4.69
281.391	5.25
281.769	5.08
282.147	5.49
282.525	4.91
282.903	4.78
283.281	5.31
283.659	5.37
284.037	5.04
284.415	5.33
284.792	5.79
285.17	5.08
285.548	5.32
285.925	5.53
286.303	5.46
286.68	5.48
287.058	5.49
287.435	5.08
287.813	5.25
288.19	5.05
288.567	5.51
288.945	5.28
289.322	5.83
289.699	5.25
290.076	5.3
290.453	5.01
290.83	5.83
291.207	5.37
291.584	5.56
291.961	5.61
292.338	5.57
292.715	5.35
293.092	5.77
293.469	5.6
293.845	5.79
294.222	6.75
294.599	5.94
294.975	5.96
295.352	6.07
295.728	6.03
296.105	6.23
296.481	6.06
296.858	6.07
297.234	5.51
297.61	6.31
297.986	6.47
298.363	6.44
298.739	6.28
299.115	6.28
299.491	6.74
299.867	6.32
300.243	6.2
300.619	6.26
300.995	6.65
301.371	6.68
301.746	6.9
302.122	6.7
302.498	6.37
302.874	6.84
303.249	7.04
303.625	6.02
304	6.9
304.376	6.77
304.751	7.11
305.127	6.24
305.502	7.12
305.878	7.17
306.253	6.26
306.628	7.01
307.003	7.27
307.378	7.21
307.754	7.49
308.129	7.32
308.504	7.63
308.879	7.77
309.254	7.75
309.629	7.62
310.003	7.62
310.378	7.7
310.753	7.98
311.128	7.37
311.502	7.92
311.877	7.55
312.252	7.92
312.626	8.08
313.001	8.03
313.375	8.16
313.75	8.39
314.124	8.4
314.498	8.64
314.873	8.24
315.247	8.55
315.621	8.34
315.995	8.19
316.369	8.28
316.743	8.14
317.117	8.86
317.491	8.66
317.865	8.33
318.239	8.74
318.613	8.37
318.987	8.59
319.361	9.55
319.734	9.07
320.108	9.08
320.482	9.33
320.855	9.36
321.229	8.72
321.602	9.74
321.976	8.69
322.349	10.17
322.723	9.36
323.096	9.22
323.469	8.9
323.843	8.8
324.216	9.9
324.589	9.22
324.962	9.75
325.335	9.27
325.708	10.06
326.081	9.88
326.454	9.67
326.827	9.7
327.2	9.53
327.573	10.25
327.945	9.77
328.318	10.02
328.691	9.91
329.063	9.93
329.436	9.78
329.809	11.04
330.181	10.96
330.553	10.5
330.926	10.61
331.298	10.59
331.671	10.55
332.043	10.6
332.415	10.63
332.787	10.63
333.159	10.39
333.532	10.73
333.904	10.84
334.276	10.86
334.648	10.94
335.02	11
335.391	10.94
335.763	11.29
336.135	11.43
336.507	11.1
336.879	11.11
337.25	11.37
337.622	11.31
337.993	11.31
338.365	11
338.736	11.8
339.108	11.73
339.479	11.36
339.851	11.77
340.222	11.97
340.593	11.54
340.964	12.15
341.336	11.93
341.707	12.2
342.078	11.41
342.449	11.85
342.82	12.41
343.191	12.09
343.562	12.44
343.933	12.17
344.303	12.99
344.674	12.32
345.045	12.58
345.416	12.48
345.786	12.36
346.157	12.58
346.527	12.3
346.898	12.12
347.268	12.64
347.639	12.43
348.009	12.91
348.38	12.67
348.75	13.02
349.12	13.42
349.49	13.09
349.861	13.39
350.231	13.3
350.601	13.02
350.971	13.23
351.341	13.64
351.711	13.25
352.081	13.27
352.45	13.51
352.82	13.38
353.19	13.5
353.56	13.23
353.929	13.65
354.299	13.52
354.669	14.19
355.038	13.98
355.408	13.59
355.777	14.16
356.147	14.03
356.516	14.01
356.885	14.43
357.254	14.11
357.624	14
357.993	14.59
358.362	14.24
358.731	14.58
359.1	14.32
359.469	14.79
359.838	14.26
360.207	14.71
360.576	14.57
360.945	14.88
361.314	14.73
361.682	14.79
362.051	14.6
362.42	14.75
362.788	14.96
363.157	14.89
363.525	14.92
363.894	14.83
364.262	15.12
364.631	15.51
364.999	15.56
365.367	15.21
365.735	15.5
366.104	15.12
366.472	15.49
366.84	15.76
367.208	15.9
367.576	15.64
367.944	15.68
368.312	15.67
368.68	16.17
369.048	15.72
369.416	15.89
369.783	16.16
370.151	16.43
370.519	16.59
370.886	16.41
371.254	16.72
371.621	16.3
371.989	16.85
372.356	16.15
372.724	16.21
373.091	16.49
373.458	16.38
373.826	16.92
374.193	16.9
374.56	17.05
374.927	16.86
375.294	17.3
375.661	17.02
376.028	17.08
376.395	17.49
376.762	16.95
377.129	17.16
377.496	17.11
377.863	17.59
378.229	17.64
378.596	17.63
378.963	17.71
379.329	17.59
379.696	17.4
380.062	17.66
380.429	17.94
380.795	18.01
381.161	17.66
381.528	17.84
381.894	18.02
382.26	17.94
382.626	18.32
382.993	18.4
383.359	18.29
383.725	18.02
384.091	18.16
384.457	18.3
384.823	18.37
385.188	18.49
385.554	18.65
385.92	18.53
386.286	18.32
386.651	18.53
387.017	18.98
387.383	18.89
387.748	19.12
388.114	19.06
388.479	18.9
388.845	18.99
389.21	19.36
389.575	19.32
389.94	19.72
390.306	19.41
390.671	19.3
391.036	19.5
391.401	19.9
391.766	19.59
392.131	19.65
392.496	19.79
392.861	19.73
393.226	19.68
393.591	19.98
393.956	19.82
394.32	20.22
394.685	19.94
395.05	20.31
395.414	20.17
395.779	20.39
396.143	20.14
396.508	20.17
396.872	20.42
397.236	20.8
397.601	20.82
397.965	21.02
398.329	20.85
398.694	20.5
399.058	20.82
399.422	20.79
399.786	20.84
400.15	20.79
400.514	20.92
400.878	20.99
401.242	21.11
401.605	21.31
401.969	21.16
402.333	21.32
402.697	21.34
403.06	21.49
403.424	21.48
403.787	21.38
404.151	21.73
404.514	21.55
404.878	21.76
405.241	21.68
405.604	21.73
405.968	21.82
406.331	21.91
406.694	21.87
407.057	21.84
407.42	22.11
407.783	22.25
408.146	22.26
408.509	22.55
408.872	22.31
409.235	22.56
409.598	22.5
409.961	22.65
410.323	22.28
410.686	22.56
411.049	22.68
411.411	22.79
411.774	22.72
412.136	22.71
412.499	22.96
412.861	22.84
413.223	23.01
413.586	22.96
413.948	23.2
414.31	23.22
414.672	23.01
415.035	23.34
415.397	23.29
415.759	23.36
416.121	23.52
416.483	23.57
416.845	23.4
417.206	23.62
417.568	23.33
417.93	23.52
418.292	23.4
418.653	23.47
419.015	23.79
419.377	23.74
419.738	23.69
420.1	23.72
420.461	23.59
420.822	23.74
421.184	23.68
421.545	23.72
421.906	23.76
422.267	23.81
422.629	23.63
422.99	23.68
423.351	23.93
423.712	23.98
424.073	24.14
424.434	24.22
424.795	24.17
425.155	24.21
425.516	24.12
425.877	24.08
426.238	24.23
426.598	24.35
426.959	24.51
427.32	24.54
427.68	24.7
428.041	24.83
428.401	24.75
428.761	24.98
429.122	25.09
429.482	25.14
429.842	25.2
430.202	25.56
430.563	25.57
430.923	25.48
431.283	25.58
431.643	25.6
432.003	25.6
432.363	26.05
432.722	25.59
433.082	25.94
433.442	25.98
433.802	25.56
434.161	25.85
434.521	25.89
434.881	25.79
435.24	25.64
435.6	25.98
435.959	26.09
436.319	26.16
436.678	26.5
437.037	26.36
437.396	26.34
437.756	26.36
438.115	26.39
438.474	26.61
438.833	26.52
439.192	26.58
439.551	26.42
439.91	26.61
440.269	26.66
440.628	26.78
440.987	26.73
441.345	26.7
441.704	26.67
442.063	26.75
442.421	26.83
442.78	26.71
443.138	26.89
443.497	27.14
443.855	27.22
444.214	27.29
444.572	27.38
444.93	27.44
445.288	27.27
445.647	27.21
446.005	27.57
446.363	27.5
446.721	27.33
447.079	27.16
447.437	27.17
447.795	27.37
448.153	27.17
448.51	27.37
448.868	27.49
449.226	27.59
449.584	27.71
449.941	27.81
450.299	27.9
450.656	28.04
451.014	28.24
451.371	28.31
451.729	28.29
452.086	28.35
452.443	28.62
452.801	28.68
453.158	28.59
453.515	28.74
453.872	28.67
454.229	28.41
454.586	28.48
454.943	28.67
455.3	29
455.657	28.86
456.014	29.02
456.371	29.09
456.727	29.17
457.084	29.27
457.441	29.15
457.797	29.43
458.154	29.31
458.51	29.13
458.867	29.28
459.223	29.32
459.58	29.43
459.936	29.39
460.292	29.31
460.648	29.28
461.005	29.18
461.361	29.08
461.717	29.09
462.073	29.3
462.429	29.43
462.785	29.65
463.141	29.8
463.496	30.16
463.852	30.06
464.208	30.12
464.564	30.25
464.919	30.25
465.275	30.27
465.631	30.33
465.986	30.52
466.342	30.25
466.697	30.25
467.052	30.62
467.408	30.63
467.763	30.61
468.118	30.45
468.473	30.74
468.829	30.76
469.184	30.72
469.539	30.69
469.894	30.73
470.249	30.89
470.603	31.09
470.958	31.07
471.313	31.35
471.668	31.18
472.023	31.39
472.377	31.26
472.732	31.34
473.086	31.23
473.441	31.28
473.795	31.57
474.15	31.58
474.504	31.56
474.859	31.39
475.213	31.72
475.567	31.58
475.921	31.76
476.275	31.88
476.63	31.85
476.984	31.8
477.338	31.99
477.692	31.74
478.045	31.81
478.399	31.9
478.753	31.75
479.107	32.2
479.461	32.03
479.814	32.24
480.168	32.15
480.521	32.37
480.875	32.25
481.228	32.28
481.582	32.38
481.935	32.42
482.289	32.4
482.642	32.25
482.995	32.26
483.348	32.18
483.701	32.33
484.055	32.02
484.408	31.93
484.761	31.65
485.114	31.33
485.466	31.46
485.819	31.58
486.172	31.66
486.525	31.74
486.878	31.77
487.23	32.15
487.583	32.33
487.936	32.33
488.288	32.25
488.641	32.02
488.993	31.98
489.345	32.05
489.698	32.15
490.05	32.13
490.402	32.33
490.754	32.65
491.107	32.77
491.459	32.95
491.811	33.19
492.163	33.03
492.515	33.02
492.866	32.64
493.218	32.51
493.57	32.66
493.922	32.84
494.274	33.17
494.625	33.4
494.977	33.54
495.328	33.85
495.68	34
496.031	34.11
496.383	34.2
496.734	34.2
497.086	34.42
497.437	34.32
497.788	34.42
498.139	34.27
498.49	34.07
498.842	34.2
499.193	34.08
499.544	34.26
499.894	34.43
500.245	34.5
500.596	34.66
500.947	34.66
501.298	34.65
501.648	34.87
501.999	34.84
502.35	34.9
502.7	35.14
503.051	35.23
503.401	35.13
503.752	35.03
504.102	35.28
504.452	35.43
504.803	35.24
505.153	35.38
505.503	35.22
505.853	35.63
506.203	35.29
506.553	35.49
506.903	35.49
507.253	35.66
507.603	35.62
507.953	35.51
508.303	35.72
508.652	35.56
509.002	35.62
509.352	35.66
509.701	35.57
510.051	35.72
510.4	35.77
510.75	35.62
511.099	35.59
511.449	35.77
511.798	35.81
512.147	35.95
512.496	36
512.846	35.97
513.195	35.82
513.544	35.97
513.893	36.08
514.242	36.01
514.591	36.21
514.939	36.32
515.288	36.46
515.637	36.45
515.986	36.57
516.334	36.65
516.683	36.87
517.032	36.82
517.38	36.69
517.729	36.95
518.077	36.75
518.426	36.6
518.774	36.73
519.122	36.7
519.47	36.66
519.819	36.45
520.167	36.35
520.515	36.44
520.863	36.38
521.211	36.47
521.559	36.64
521.907	36.81
522.255	36.91
522.602	37.28
522.95	37.37
523.298	37.59
523.645	37.39
523.993	37.51
524.341	37.73
524.688	37.54
525.036	37.43
525.383	37.52
525.73	37.44
526.078	37.66
526.425	37.37
526.772	37.18
527.119	37.21
527.466	37.26
527.814	37.19
528.161	37.22
528.508	37.38
528.854	37.35
529.201	37.24
529.548	36.94
529.895	36.88
530.242	36.79
530.588	37.02
530.935	37.02
531.282	37.05
531.628	37.25
531.975	37.38
532.321	37.78
532.667	37.84
533.014	38
533.36	37.94
533.706	38.1
534.052	37.87
534.399	37.82
534.745	37.62
535.091	37.54
535.437	37.64
535.783	37.95
536.129	38.1
536.474	38.37
536.82	38.57
537.166	38.42
537.512	38.34
537.857	38.46
538.203	38.46
538.549	38.4
538.894	38.7
539.239	38.75
539.585	38.88
539.93	39.07
540.276	39.2
540.621	39.17
540.966	39.53
541.311	39.29
541.656	39.16
542.001	38.94
542.346	38.72
542.691	38.42
543.036	38.49
543.381	38.46
543.726	38.53
544.071	38.7
544.415	38.84
544.76	38.94
545.105	39.09
545.449	39.23
545.794	39.36
546.138	39.61
546.483	39.74
546.827	39.77
547.171	39.79
547.516	39.7
547.86	39.9
548.204	39.79
548.548	39.65
548.892	40.04
549.236	39.88
549.58	40.23
549.924	40.33
550.268	40.52
550.612	40.46
550.956	40.74
551.3	41.06
551.643	40.74
551.987	40.89
552.33	41.04
552.674	41.1
553.017	41.13
553.361	41.3
553.704	40.78
554.048	40.85
554.391	41.01
554.734	40.88
555.077	41.19
555.42	41.15
555.764	41.32
556.107	41.18
556.45	41.38
556.793	41.5
557.135	41.23
557.478	41.56
557.821	41.53
558.164	41.65
558.507	41.43
558.849	41.57
559.192	41.45
559.534	41.98
559.877	42.02
560.219	41.7
560.562	41.73
560.904	41.88
561.246	42.01
561.589	41.95
561.931	41.9
562.273	41.87
562.615	42.06
562.957	41.87
563.299	42.19
563.641	42.18
563.983	42.12
564.325	42.27
564.667	42.33
565.008	42.39
565.35	42.44
565.692	42.33
566.033	42.51
566.375	42.2
566.716	42.36
567.058	42.34
567.399	42.42
567.741	42.28
568.082	42.32
568.423	42.39
568.764	42.57
569.105	42.51
569.447	42.64
569.788	42.75
570.129	42.76
570.47	42.78
570.811	42.65
571.151	42.9
571.492	42.76
571.833	42.79
572.174	43.26
572.514	43
572.855	43.01
573.195	42.93
573.536	42.94
573.876	42.85
574.217	42.82
574.557	42.96
574.898	43.12
575.238	43.33
575.578	43.29
575.918	43.54
576.258	43.31
576.598	43.26
576.938	43.28
577.278	43.37
577.618	43.29
577.958	43.57
578.298	43.73
578.638	43.53
578.977	43.55
579.317	43.65
579.657	44.08
579.996	43.82
580.336	43.83
580.675	44.35
581.014	44.11
581.354	44.12
581.693	44.3
582.032	43.98
582.372	44.23
582.711	44.49
583.05	44.37
583.389	44.45
583.728	44.18
584.067	44.31
584.406	44.39
584.745	44.62
585.083	44.39
585.422	44.88
585.761	44.62
586.1	44.56
586.438	44.82
586.777	44.38
587.115	44.97
587.454	44.73
587.792	44.91
588.13	44.89
588.469	44.82
588.807	45.1
589.145	45.09
589.483	44.84
589.821	44.91
590.159	44.97
590.497	45.1
590.835	45.18
591.173	44.91
591.511	45.23
591.849	45.22
592.187	44.93
592.524	44.9
592.862	44.64
593.2	45.34
593.537	45.19
593.875	45.39
594.212	45.82
594.55	45.38
594.887	45.34
595.224	45.29
595.561	45.57
595.899	45.42
596.236	45.82
596.573	45.43
596.91	45.33
597.247	45.6
597.584	45.7
597.921	45.44
598.258	45.17
598.594	45.35
598.931	45.39
599.268	45.56
599.604	45.7
599.941	45.83
600.277	45.54
600.614	45.87
600.95	46.07
601.287	46.02
601.623	45.9
601.959	46.24
602.296	46.38
602.632	46.21
602.968	46.09
603.304	46.54
603.64	46.63
603.976	46.42
604.312	45.97
604.648	46.13
604.984	46.31
605.319	46.18
605.655	46.13
605.991	46.09
606.326	46.1
606.662	46.01
606.998	46.11
607.333	46.34
607.668	46.42
608.004	46.47
608.339	46.47
608.674	46.82
609.01	46.8
609.345	47.1
609.68	46.43
610.015	46.71
610.35	46.58
610.685	46.51
611.02	46.63
611.355	46.51
611.689	46.42
612.024	46.68
612.359	46.66
612.694	46.89
613.028	46.94
613.363	47.06
613.697	47.58
614.032	47.01
614.366	47.35
614.7	47.44
615.035	47.08
615.369	47.71
615.703	47.5
616.037	47.42
616.371	47.56
616.705	47.97
617.039	47.8
617.373	48.04
617.707	47.41
618.041	47.71
618.375	47.34
618.709	47.61
619.042	47.73
619.376	47.77
619.71	48.13
620.043	47.64
620.377	48.18
620.71	48.02
621.043	48.25
621.377	48.13
621.71	48.16
622.043	48.55
622.376	47.75
622.709	48.51
623.043	47.93
623.376	47.81
623.709	48.02
624.041	48.14
624.374	47.96
624.707	48.45
625.04	48.12
625.373	48.49
625.705	48.54
626.038	48.48
626.37	48.73
626.703	48.45
627.035	48.42
627.368	48.53
627.7	48.27
628.032	48.59
628.365	48.79
628.697	48.95
629.029	48.51
629.361	48.41
629.693	49
630.025	48.96
630.357	48.46
630.689	48.95
631.021	49.08
631.353	49.26
631.684	49.1
632.016	48.65
632.348	48.76
632.679	48.89
633.011	49.37
633.342	48.84
633.674	48.51
634.005	49.15
634.336	49.07
634.668	48.88
634.999	49.11
635.33	49.11
635.661	49.16
635.992	49.39
636.323	49.28
636.654	49.36
636.985	49.1
637.316	49.43
637.647	49.69
637.977	49.31
638.308	49.3
638.639	49.22
638.969	49.83
639.3	49.21
639.63	49.19
639.961	49.66
640.291	49.39
640.622	49.94
640.952	49.7
641.282	49.77
641.612	49.38
641.943	49.64
642.273	49.21
642.603	49.88
642.933	49.98
643.263	49.84
643.592	50.15
643.922	49.84
644.252	50.33
644.582	49.4
644.911	49.68
645.241	49.94
645.571	50.34
645.9	49.84
646.23	50.72
646.559	49.95
646.888	50.04
647.218	50.28
647.547	50.11
647.876	50.3
648.205	50.33
648.534	49.78
648.863	50.07
649.192	49.7
649.521	50.66
649.85	50.12
650.179	50.51
650.508	50.58
650.837	50.81
651.165	50.04
651.494	51.11
651.822	50.93
652.151	50.34
652.479	50.27
652.808	50.61
653.136	50.68
653.465	50.66
653.793	50.6
654.121	49.96
654.449	50.64
654.777	50.33
655.105	50.43
655.433	50.77
655.761	51.17
656.089	51.01
656.417	51.74
656.745	51.26
657.073	50.93
657.4	50.63
657.728	50.42
658.056	50.89
658.383	51
658.711	50.55
659.038	50.87
659.365	50.85
659.693	50.95
660.02	50.98
660.347	51.01
660.674	50.6
661.001	51.67
661.329	50.88
661.656	51.22
661.982	51.18
662.309	51.66
662.636	51.06
662.963	51.08
663.29	51.5
663.616	50.45
663.943	51.93
664.27	51.38
664.596	51.36
664.923	51.47
665.249	51.64
665.576	52.25
665.902	51.44
666.228	52.17
666.554	51.5
666.881	51.36
667.207	51.41
667.533	51.7
667.859	51.55
668.185	51.42
668.511	51.92
668.837	52.66
669.162	51.74
669.488	52.05
669.814	51.74
