Data from 0003_chest_Reflection__0__256.txt Node

Date: Thu Dec 15 18:46:42 CST 2022
User: ToomeyLab
Spectrometer: FLMS14357
Trigger mode: 0
Integration Time (sec): 1.000000E-2
Scans to average: 100
Electric dark correction enabled: true
Nonlinearity correction enabled: false
Boxcar width: 0
XAxis mode: Wavelengths
Number of Pixels in Spectrum: 2048
>>>>>Begin Spectral Data<<<<<
189.047	6.93
189.435	6.93
189.823	6.93
190.211	195.2
190.599	441.22
190.987	201.46
191.375	120.24
191.763	92.43
192.151	34.63
192.538	-40.51
192.926	269.38
193.314	-36.68
193.702	48.11
194.089	-11.98
194.477	-270.58
194.864	60.91
195.252	47.07
195.639	33.02
196.027	-116.46
196.414	-16.02
196.801	172.43
197.189	80.08
197.576	-31.32
197.963	-439.34
198.351	57.63
198.738	-49.73
199.125	-317.59
199.512	-4.65
199.899	-72.3
200.286	-59.15
200.673	26.32
201.06	-49.74
201.447	-37.54
201.833	24.5
202.22	2.07
202.607	-67.38
202.994	-29.3
203.38	27.08
203.767	-20.85
204.154	39.34
204.54	-2.2
204.927	-32.46
205.313	41.49
205.699	17.26
206.086	6.04
206.472	38.55
206.858	7.75
207.245	-61.58
207.631	-52.26
208.017	28.92
208.403	-19.11
208.789	10.09
209.175	-41.33
209.561	-36.8
209.947	-9.22
210.333	15.61
210.719	14.05
211.105	21.25
211.491	2.02
211.876	-11.34
212.262	2.62
212.648	-18
213.034	-34.14
213.419	-38.44
213.805	-17.3
214.19	-36.7
214.576	-11.57
214.961	13.78
215.346	-9.29
215.732	-28.58
216.117	-0.32
216.502	-22.68
216.888	-13.09
217.273	23.51
217.658	-33.8
218.043	-29.48
218.428	-5.19
218.813	5.44
219.198	-60.57
219.583	-16.37
219.968	-15.22
220.353	-35.36
220.738	-21.76
221.122	0.17
221.507	-21.73
221.892	-46.59
222.276	-29.78
222.661	-41.06
223.046	-12.56
223.43	7.21
223.815	0.38
224.199	-11.53
224.583	-2.1
224.968	-14.21
225.352	-8.46
225.736	8.57
226.121	2.98
226.505	-7
226.889	-2.38
227.273	-4.3
227.657	-2.79
228.041	-3.9
228.425	2.65
228.809	-0.26
229.193	3.32
229.577	1.75
229.961	0.92
230.344	2.31
230.728	2.86
231.112	1.63
231.495	1.21
231.879	1.72
232.263	1.96
232.646	0.89
233.03	3.74
233.413	2.45
233.797	0.22
234.18	0.03
234.563	0.63
234.946	-0.41
235.33	2.24
235.713	1.76
236.096	3.05
236.479	2.63
236.862	1.75
237.245	1.63
237.628	1.78
238.011	1.36
238.394	0.51
238.777	0.75
239.16	3.12
239.543	0.77
239.925	2.97
240.308	2.03
240.691	1.37
241.073	1.75
241.456	1.28
241.838	1.52
242.221	1.92
242.603	1.47
242.986	1.71
243.368	2.39
243.75	2.33
244.133	2.61
244.515	2.34
244.897	1.53
245.279	1.34
245.661	2.49
246.043	2.62
246.425	2.51
246.807	1.42
247.189	1.71
247.571	2.44
247.953	1.81
248.335	2.26
248.717	2.39
249.098	2.35
249.48	2.19
249.862	2.21
250.243	2.6
250.625	2.27
251.006	2.92
251.388	1.82
251.769	1.31
252.151	2.93
252.532	2.4
252.913	2.42
253.295	2.06
253.676	2.29
254.057	2.01
254.438	2.12
254.819	1.95
255.2	2.18
255.581	3.44
255.962	2.56
256.343	2.75
256.724	3.33
257.105	2.09
257.486	1.44
257.867	1.59
258.247	1.98
258.628	2.56
259.009	2.35
259.389	1.3
259.77	1.34
260.15	2.69
260.531	2.33
260.911	2.22
261.292	2.45
261.672	2.24
262.052	2.01
262.432	1.66
262.813	1.98
263.193	2.58
263.573	1.96
263.953	1.74
264.333	2.57
264.713	2.04
265.093	1.8
265.473	1.43
265.853	2.08
266.233	1.8
266.612	1.38
266.992	1.89
267.372	2.56
267.752	2.24
268.131	1.57
268.511	2.03
268.89	2.33
269.27	1.59
269.649	2.29
270.029	2.29
270.408	1.91
270.787	1.47
271.167	2.5
271.546	2.28
271.925	2.39
272.304	2.11
272.683	1.69
273.062	1.68
273.441	1.57
273.82	2.1
274.199	1.72
274.578	2.17
274.957	1.7
275.336	2.07
275.715	1.98
276.093	1.47
276.472	0.99
276.851	1.66
277.229	1.8
277.608	1.54
277.986	1.92
278.365	2.25
278.743	1.91
279.122	1.8
279.5	1.86
279.878	1.69
280.257	1.71
280.635	2.56
281.013	1.57
281.391	1.59
281.769	2.07
282.147	1.52
282.525	1.73
282.903	1.61
283.281	2.22
283.659	2.07
284.037	2.21
284.415	1.52
284.792	2.36
285.17	1.85
285.548	2.02
285.925	2.02
286.303	2.39
286.68	2.22
287.058	2.24
287.435	1.84
287.813	1.87
288.19	1.82
288.567	1.68
288.945	1.86
289.322	2.08
289.699	2.22
290.076	2.09
290.453	1.7
290.83	2.19
291.207	2.62
291.584	2.18
291.961	1.89
292.338	2.05
292.715	2.15
293.092	2.56
293.469	2
293.845	2.51
294.222	3.02
294.599	2.32
294.975	1.85
295.352	2.22
295.728	2.54
296.105	2.42
296.481	2.68
296.858	2.25
297.234	2.54
297.61	2.69
297.986	2.79
298.363	2.66
298.739	2.85
299.115	2.71
299.491	2.89
299.867	2.72
300.243	2.83
300.619	2.42
300.995	3.04
301.371	2.64
301.746	3.17
302.122	2.62
302.498	2.3
302.874	2.72
303.249	2.88
303.625	2.61
304	3.42
304.376	2.69
304.751	2.68
305.127	2.72
305.502	3.18
305.878	2.86
306.253	2.81
306.628	3.13
307.003	2.93
307.378	2.97
307.754	2.93
308.129	2.39
308.504	3.29
308.879	3.08
309.254	3
309.629	3.27
310.003	3.07
310.378	3.26
310.753	3.12
311.128	2.71
311.502	3.18
311.877	2.99
312.252	3.2
312.626	3.52
313.001	3.31
313.375	3.13
313.75	3.41
314.124	3.51
314.498	3.31
314.873	2.97
315.247	3.56
315.621	3
315.995	3.18
316.369	2.94
316.743	3.08
317.117	3.42
317.491	3.37
317.865	2.76
318.239	3.93
318.613	3.37
318.987	3.07
319.361	3.2
319.734	3.7
320.108	3.31
320.482	3.81
320.855	3.84
321.229	3.57
321.602	3.79
321.976	3.41
322.349	3.75
322.723	3.59
323.096	3.52
323.469	3.47
323.843	3.21
324.216	3.63
324.589	3.8
324.962	3.37
325.335	3.44
325.708	3.49
326.081	3.53
326.454	3.83
326.827	4.18
327.2	3.91
327.573	4.08
327.945	4.21
328.318	3.59
328.691	4.33
329.063	3.64
329.436	3.42
329.809	4
330.181	4.76
330.553	4.18
330.926	4.49
331.298	3.28
331.671	4.42
332.043	3.78
332.415	4.38
332.787	4.29
333.159	3.58
333.532	3.84
333.904	4.39
334.276	4.17
334.648	4.03
335.02	3.49
335.391	3.6
335.763	4.18
336.135	3.92
336.507	3.75
336.879	4.18
337.25	4.49
337.622	4.58
337.993	4.36
338.365	4.29
338.736	4.68
339.108	4.31
339.479	4.48
339.851	4.54
340.222	4.64
340.593	4.12
340.964	4.27
341.336	4.16
341.707	4.37
342.078	3.99
342.449	4.27
342.82	4.73
343.191	4.62
343.562	4.58
343.933	4.37
344.303	4.57
344.674	4.45
345.045	4.39
345.416	4.28
345.786	4.32
346.157	4.78
346.527	4.38
346.898	4.48
347.268	4.61
347.639	4.44
348.009	4.65
348.38	4.19
348.75	4.61
349.12	4.72
349.49	4.69
349.861	4.43
350.231	4.34
350.601	4.26
350.971	4.42
351.341	4.84
351.711	4.65
352.081	4.7
352.45	4
352.82	4.33
353.19	4.36
353.56	4.66
353.929	4.94
354.299	4.7
354.669	4.86
355.038	5.01
355.408	4.64
355.777	4.74
356.147	4.54
356.516	4.6
356.885	4.67
357.254	4.54
357.624	4.31
357.993	4.81
358.362	4.86
358.731	5.1
359.1	5.12
359.469	4.94
359.838	4.89
360.207	5.03
360.576	4.91
360.945	5.03
361.314	4.91
361.682	4.55
362.051	4.85
362.42	4.78
362.788	4.93
363.157	4.83
363.525	4.88
363.894	4.78
364.262	5.03
364.631	5.17
364.999	4.91
365.367	4.99
365.735	4.76
366.104	5.11
366.472	5.03
366.84	4.96
367.208	4.94
367.576	5.26
367.944	5.09
368.312	5.03
368.68	5.55
369.048	5.02
369.416	4.97
369.783	5.07
370.151	5.56
370.519	5.58
370.886	5.32
371.254	5.33
371.621	5.41
371.989	5.36
372.356	5.18
372.724	4.93
373.091	5.25
373.458	5.04
373.826	5.18
374.193	5.1
374.56	5.64
374.927	5.05
375.294	5.39
375.661	5.33
376.028	5.3
376.395	5.2
376.762	5.12
377.129	5.63
377.496	5.29
377.863	5.58
378.229	5.63
378.596	5.49
378.963	5.35
379.329	5.6
379.696	5.35
380.062	5.42
380.429	5.16
380.795	5.57
381.161	5.25
381.528	5.34
381.894	5.41
382.26	5.42
382.626	5.65
382.993	5.65
383.359	5.54
383.725	5.14
384.091	5.77
384.457	5.37
384.823	5.71
385.188	5.71
385.554	5.55
385.92	5.6
386.286	5.61
386.651	5.68
387.017	5.98
387.383	5.54
387.748	5.83
388.114	6.01
388.479	5.79
388.845	5.41
389.21	5.93
389.575	6
389.94	5.91
390.306	5.92
390.671	5.91
391.036	5.93
391.401	6.03
391.766	5.86
392.131	5.92
392.496	5.91
392.861	5.91
393.226	5.62
393.591	5.93
393.956	5.89
394.32	5.94
394.685	5.96
395.05	5.86
395.414	5.74
395.779	6.13
396.143	5.94
396.508	5.97
396.872	5.79
397.236	6.44
397.601	6.15
397.965	5.93
398.329	6.04
398.694	6.04
399.058	5.94
399.422	5.96
399.786	5.97
400.15	6.03
400.514	6.21
400.878	6.1
401.242	6.26
401.605	6.22
401.969	6.04
402.333	6.13
402.697	6.38
403.06	6.22
403.424	6.5
403.787	6.47
404.151	6.1
404.514	6.29
404.878	6.15
405.241	6.14
405.604	5.98
405.968	6.29
406.331	6.41
406.694	6.24
407.057	6.11
407.42	6.34
407.783	6.42
408.146	6.24
408.509	6.49
408.872	6.56
409.235	6.56
409.598	6.46
409.961	6.38
410.323	6.53
410.686	6.41
411.049	6.5
411.411	6.41
411.774	6.35
412.136	6.39
412.499	6.58
412.861	6.02
413.223	6.59
413.586	6.72
413.948	6.55
414.31	6.33
414.672	6.43
415.035	6.72
415.397	6.51
415.759	6.2
416.121	6.62
416.483	6.62
416.845	6.34
417.206	6.63
417.568	6.44
417.93	6.56
418.292	6.46
418.653	6.44
419.015	6.67
419.377	6.57
419.738	6.56
420.1	6.48
420.461	6.49
420.822	6.68
421.184	6.62
421.545	6.57
421.906	6.58
422.267	6.55
422.629	6.48
422.99	6.57
423.351	6.55
423.712	6.66
424.073	6.71
424.434	6.72
424.795	6.62
425.155	6.53
425.516	6.55
425.877	6.68
426.238	6.63
426.598	6.67
426.959	6.86
427.32	6.73
427.68	6.84
428.041	6.8
428.401	6.79
428.761	7.07
429.122	6.95
429.482	6.75
429.842	6.9
430.202	6.99
430.563	7.01
430.923	6.84
431.283	7
431.643	7.12
432.003	6.89
432.363	7.25
432.722	7.12
433.082	7.04
433.442	7.06
433.802	7.01
434.161	7.02
434.521	7.17
434.881	7.13
435.24	7.08
435.6	7.18
435.959	7.17
436.319	7.11
436.678	7.26
437.037	7.23
437.396	7.13
437.756	7.15
438.115	7.16
438.474	7.28
438.833	7.11
439.192	7.26
439.551	7.17
439.91	7.26
440.269	7.2
440.628	7.1
440.987	7.28
441.345	7.17
441.704	7.26
442.063	7.12
442.421	7.21
442.78	7.2
443.138	7.23
443.497	7.17
443.855	7.47
444.214	7.21
444.572	7.44
444.93	7.27
445.288	7.43
445.647	7.23
446.005	7.47
446.363	7.34
446.721	7.44
447.079	7.2
447.437	7.29
447.795	7.36
448.153	7.3
448.51	7.27
448.868	7.27
449.226	7.38
449.584	7.41
449.941	7.42
450.299	7.44
450.656	7.49
451.014	7.69
451.371	7.64
451.729	7.5
452.086	7.6
452.443	7.75
452.801	7.59
453.158	7.78
453.515	7.7
453.872	7.72
454.229	7.58
454.586	7.6
454.943	7.63
455.3	7.8
455.657	7.7
456.014	7.71
456.371	7.74
456.727	7.75
457.084	7.86
457.441	8.05
457.797	7.83
458.154	7.95
458.51	7.84
458.867	7.84
459.223	7.68
459.58	7.84
459.936	7.88
460.292	7.77
460.648	7.84
461.005	7.8
461.361	7.73
461.717	7.68
462.073	7.87
462.429	7.84
462.785	7.97
463.141	7.92
463.496	8.12
463.852	8.15
464.208	7.99
464.564	8.01
464.919	8.15
465.275	8.15
465.631	8.23
465.986	8.17
466.342	8.08
466.697	8.16
467.052	8.26
467.408	8.27
467.763	8.07
468.118	8.21
468.473	8.26
468.829	8.05
469.184	8.34
469.539	8.23
469.894	8.35
470.249	8.21
470.603	8.22
470.958	8.44
471.313	8.41
471.668	8.41
472.023	8.5
472.377	8.45
472.732	8.62
473.086	8.54
473.441	8.55
473.795	8.59
474.15	8.33
474.504	8.39
474.859	8.36
475.213	8.49
475.567	8.58
475.921	8.69
476.275	8.47
476.63	8.49
476.984	8.46
477.338	8.71
477.692	8.62
478.045	8.58
478.399	8.66
478.753	8.58
479.107	8.74
479.461	8.61
479.814	8.74
480.168	8.74
480.521	8.66
480.875	8.74
481.228	8.85
481.582	8.7
481.935	8.87
482.289	8.89
482.642	8.9
482.995	8.7
483.348	8.66
483.701	8.71
484.055	8.73
484.408	8.61
484.761	8.44
485.114	8.25
485.466	8.23
485.819	8.23
486.172	8.33
486.525	8.33
486.878	8.53
487.23	8.56
487.583	8.64
487.936	8.65
488.288	8.65
488.641	8.62
488.993	8.53
489.345	8.47
489.698	8.55
490.05	8.61
490.402	8.61
490.754	8.78
491.107	8.76
491.459	9.01
491.811	8.96
492.163	8.97
492.515	8.81
492.866	8.79
493.218	8.73
493.57	8.79
493.922	8.83
494.274	8.99
494.625	9.03
494.977	9.04
495.328	9.23
495.68	9.3
496.031	9.33
496.383	9.27
496.734	9.31
497.086	9.5
497.437	9.5
497.788	9.48
498.139	9.44
498.49	9.35
498.842	9.45
499.193	9.3
499.544	9.48
499.894	9.54
500.245	9.57
500.596	9.62
500.947	9.5
501.298	9.64
501.648	9.64
501.999	9.76
502.35	9.63
502.7	9.89
503.051	9.82
503.401	9.74
503.752	9.65
504.102	9.83
504.452	9.76
504.803	9.8
505.153	9.77
505.503	9.9
505.853	9.96
506.203	9.99
506.553	9.89
506.903	9.98
507.253	10.04
507.603	10.09
507.953	10.01
508.303	10.03
508.652	9.87
509.002	9.97
509.352	9.96
509.701	9.91
510.051	10.12
510.4	10.01
510.75	9.88
511.099	9.9
511.449	10.08
511.798	9.93
512.147	10.07
512.496	10.08
512.846	9.99
513.195	10.08
513.544	10.24
513.893	10.24
514.242	10.11
514.591	10.03
514.939	10.45
515.288	10.24
515.637	10.22
515.986	10.42
516.334	10.37
516.683	10.47
517.032	10.56
517.38	10.37
517.729	10.45
518.077	10.38
518.426	10.52
518.774	10.41
519.122	10.43
519.47	10.23
519.819	10.26
520.167	10.26
520.515	10.32
520.863	10.31
521.211	10.23
521.559	10.35
521.907	10.34
522.255	10.38
522.602	10.58
522.95	10.71
523.298	10.7
523.645	10.6
523.993	10.73
524.341	10.78
524.688	10.79
525.036	10.73
525.383	10.96
525.73	10.69
526.078	10.7
526.425	10.69
526.772	10.53
527.119	10.57
527.466	10.6
527.814	10.56
528.161	10.63
528.508	10.63
528.854	10.52
529.201	10.45
529.548	10.33
529.895	10.21
530.242	10.21
530.588	10.21
530.935	10.3
531.282	10.31
531.628	10.36
531.975	10.42
532.321	10.64
532.667	10.79
533.014	10.85
533.36	10.94
533.706	10.86
534.052	10.97
534.399	10.76
534.745	10.61
535.091	10.58
535.437	10.64
535.783	10.71
536.129	10.7
536.474	10.93
536.82	11.06
537.166	11.04
537.512	11.13
537.857	11.13
538.203	10.97
538.549	10.98
538.894	10.98
539.239	11.15
539.585	11.29
539.93	11.41
540.276	11.39
540.621	11.37
540.966	11.38
541.311	11.51
541.656	11.31
542.001	11.18
542.346	11.11
542.691	11.02
543.036	11.01
543.381	11
543.726	11.05
544.071	11.08
544.415	11.13
544.76	11.17
545.105	11.31
545.449	11.4
545.794	11.41
546.138	11.57
546.483	11.68
546.827	11.6
547.171	11.74
547.516	11.78
547.86	11.75
548.204	11.55
548.548	11.65
548.892	11.65
549.236	11.81
549.58	11.91
549.924	11.98
550.268	12.19
550.612	12.11
550.956	12.21
551.3	12.37
551.643	12.35
551.987	12.27
552.33	12.56
552.674	12.33
553.017	12.45
553.361	12.4
553.704	12.34
554.048	12.27
554.391	12.32
554.734	12.19
555.077	12.21
555.42	12.3
555.764	12.37
556.107	12.55
556.45	12.73
556.793	12.77
557.135	12.59
557.478	12.74
557.821	12.8
558.164	12.69
558.507	12.68
558.849	12.74
559.192	12.69
559.534	12.68
559.877	12.84
560.219	12.86
560.562	12.54
560.904	13.01
561.246	13.06
561.589	13.04
561.931	13
562.273	12.88
562.615	12.79
562.957	12.79
563.299	12.98
563.641	13.02
563.983	12.9
564.325	12.94
564.667	12.98
565.008	12.87
565.35	12.79
565.692	13.06
566.033	13.08
566.375	13.05
566.716	13
567.058	12.95
567.399	13.02
567.741	13.08
568.082	13.08
568.423	13.06
568.764	13.1
569.105	13.05
569.447	12.9
569.788	13.33
570.129	13.38
570.47	13.26
570.811	13.07
571.151	13.37
571.492	13.44
571.833	13.37
572.174	13.3
572.514	13.28
572.855	13.36
573.195	13.14
573.536	13.22
573.876	13.15
574.217	13.27
574.557	13.31
574.898	13.33
575.238	13.51
575.578	13.46
575.918	13.65
576.258	13.81
576.598	13.33
576.938	13.44
577.278	13.54
577.618	13.4
577.958	13.7
578.298	13.67
578.638	13.68
578.977	13.96
579.317	13.9
579.657	13.96
579.996	14
580.336	13.91
580.675	14.08
581.014	13.98
581.354	14.01
581.693	14.16
582.032	14.38
582.372	14.34
582.711	14.34
583.05	14.25
583.389	13.99
583.728	14.5
584.067	14.4
584.406	14.11
584.745	14.17
585.083	14.43
585.422	14.6
585.761	14.4
586.1	14.42
586.438	14.2
586.777	14.49
587.115	14.67
587.454	14.39
587.792	14.5
588.13	14.41
588.469	14.32
588.807	14.72
589.145	14.61
589.483	14.46
589.821	14.51
590.159	14.77
590.497	14.78
590.835	14.77
591.173	14.65
591.511	14.69
591.849	14.72
592.187	14.46
592.524	14.72
592.862	14.44
593.2	14.75
593.537	14.75
593.875	14.94
594.212	14.93
594.55	14.8
594.887	14.88
595.224	14.76
595.561	14.83
595.899	14.87
596.236	14.95
596.573	14.82
596.91	14.77
597.247	15.17
597.584	14.77
597.921	14.94
598.258	14.95
598.594	14.86
598.931	14.66
599.268	14.83
599.604	15.04
599.941	14.78
600.277	15.09
600.614	15.19
600.95	15.28
601.287	15.03
601.623	15.22
601.959	15.69
602.296	15.4
602.632	15.09
602.968	15.27
603.304	15.14
603.64	15.59
603.976	15.3
604.312	15.32
604.648	15.39
604.984	15.3
605.319	15.3
605.655	15.25
605.991	15.26
606.326	15.17
606.662	15.13
606.998	15.34
607.333	15.23
607.668	15.51
608.004	15.62
608.339	15.46
608.674	15.71
609.01	15.67
609.345	15.69
609.68	15.52
610.015	15.82
610.35	15.69
610.685	15.39
611.02	15.46
611.355	15.54
611.689	15.62
612.024	15.67
612.359	15.81
612.694	15.68
613.028	15.66
613.363	15.79
613.697	16.01
614.032	16.07
614.366	15.94
614.7	16.29
615.035	16.14
615.369	16.25
615.703	15.95
616.037	16.19
616.371	15.77
616.705	16.41
617.039	15.89
617.373	16.37
617.707	16.16
618.041	16.34
618.375	15.93
618.709	16.59
619.042	16.12
619.376	16.34
619.71	16.29
620.043	16.37
620.377	16.38
620.71	16.47
621.043	16.81
621.377	16.75
621.71	16.7
622.043	16.58
622.376	16.61
622.709	16.77
623.043	16.52
623.376	16.59
623.709	16.69
624.041	16.6
624.374	16.55
624.707	16.72
625.04	16.77
625.373	16.89
625.705	17.26
626.038	16.68
626.37	16.95
626.703	16.93
627.035	16.69
627.368	17.28
627.7	16.92
628.032	16.64
628.365	16.83
628.697	17.01
629.029	16.77
629.361	16.79
629.693	16.86
630.025	17.13
630.357	16.87
630.689	17.01
631.021	16.94
631.353	17.11
631.684	17.25
632.016	16.58
632.348	16.89
632.679	16.98
633.011	17.14
633.342	17.23
633.674	17.01
634.005	17.27
634.336	17.42
634.668	17.46
634.999	17.37
635.33	17.45
635.661	17.2
635.992	17.22
636.323	17.66
636.654	17.34
636.985	17.16
637.316	17.37
637.647	17.61
637.977	17.28
638.308	17.67
638.639	17.58
638.969	17.65
639.3	17.58
639.63	17.57
639.961	17.65
640.291	17.6
640.622	17.95
640.952	17.33
641.282	17.46
641.612	17.43
641.943	17.47
642.273	17.29
642.603	17.73
642.933	17.77
643.263	17.65
643.592	18.13
643.922	18.08
644.252	17.57
644.582	18.14
644.911	17.93
645.241	17.89
645.571	17.91
645.9	18.12
646.23	18.32
646.559	18.05
646.888	18.05
647.218	17.77
647.547	18.08
647.876	17.99
648.205	17.74
648.534	17.9
648.863	17.92
649.192	18.24
649.521	18.34
649.85	18.14
650.179	18.27
650.508	18.45
650.837	18.54
651.165	18.18
651.494	17.99
651.822	18.48
652.151	18.16
652.479	18.83
652.808	18.69
653.136	18.2
653.465	18.07
653.793	18.19
654.121	18.03
654.449	18.14
654.777	18.16
655.105	18.72
655.433	18.81
655.761	18.96
656.089	18.51
656.417	18.62
656.745	18.74
657.073	18.88
657.4	18.6
657.728	18.04
658.056	18.96
658.383	18.31
658.711	18.7
659.038	18.93
659.365	18.71
659.693	18.62
660.02	18.81
660.347	18.74
660.674	18.17
661.001	19.07
661.329	18.71
661.656	18.35
661.982	18.54
662.309	18.68
662.636	18.75
662.963	18.74
663.29	19.12
663.616	18.25
663.943	19.09
664.27	18.64
664.596	19.1
664.923	19.04
665.249	19.12
665.576	19.17
665.902	19
666.228	18.99
666.554	19.48
666.881	19.05
667.207	19.03
667.533	18.88
667.859	19.35
668.185	19.27
668.511	19.89
668.837	19.39
669.162	19.27
669.488	18.89
669.814	19.6
670.139	18.43
670.465	19.36
670.791	18.82
671.116	18.83
671.442	18.67
671.767	18.85
672.092	18.56
672.418	19.78
672.743	19.01
673.068	19.26
673.393	19.48
673.718	19.18
674.043	19.76
674.368	19.8
674.693	19.24
675.018	19.72
675.343	20.31
675.667	19.22
675.992	19.64
676.317	19.41
676.641	20.1
676.966	19.67
677.29	19.63
677.615	19.58
677.939	19.59
678.264	19.87
678.588	19.96
678.912	19.51
679.236	19.65
679.56	19.52
679.885	19.86
