Data from 0003_chest_Reflection__4__260.txt Node

Date: Thu Dec 15 18:47:31 CST 2022
User: ToomeyLab
Spectrometer: FLMS14357
Trigger mode: 0
Integration Time (sec): 1.000000E-2
Scans to average: 100
Electric dark correction enabled: true
Nonlinearity correction enabled: false
Boxcar width: 0
XAxis mode: Wavelengths
Number of Pixels in Spectrum: 2048
>>>>>Begin Spectral Data<<<<<
189.047	300.25
189.435	300.25
189.823	300.25
190.211	141.5
190.599	126.52
190.987	21.21
191.375	-114.84
191.763	157.95
192.151	70.76
192.538	74.08
192.926	202.65
193.314	5.47
193.702	49.42
194.089	184.18
194.477	-70.8
194.864	31.1
195.252	14.03
195.639	149.32
196.027	-44.19
196.414	337.51
196.801	88.76
197.189	107.61
197.576	83.08
197.963	-322.08
198.351	21.04
198.738	18.27
199.125	-95.35
199.512	-3.95
199.899	-49.38
200.286	-104.72
200.673	20.07
201.06	-35.85
201.447	-11.6
201.833	-38.22
202.22	-46.37
202.607	-11.33
202.994	-5.15
203.38	0.2
203.767	-30.29
204.154	0.61
204.54	-43.28
204.927	-58.17
205.313	22.15
205.699	12.15
206.086	23.9
206.472	39.6
206.858	-31.91
207.245	-40.12
207.631	-40.4
208.017	41.41
208.403	-73.15
208.789	-6.98
209.175	-59.01
209.561	-78.37
209.947	-16.17
210.333	-21.16
210.719	3.16
211.105	30.63
211.491	-1.51
211.876	-32.06
212.262	4.14
212.648	-22.99
213.034	-32.49
213.419	-17.77
213.805	-49.43
214.19	-39.35
214.576	-101.17
214.961	-55.05
215.346	-14.48
215.732	-31.31
216.117	-11.68
216.502	-17.67
216.888	-18.57
217.273	-29.91
217.658	19.56
218.043	-20.44
218.428	-34.26
218.813	-12.45
219.198	-75.58
219.583	-29.76
219.968	0.02
220.353	-35.52
220.738	-4.49
221.122	9.44
221.507	-29.99
221.892	-38.69
222.276	-23.6
222.661	-21.25
223.046	-1.23
223.43	3.82
223.815	-2.69
224.199	-10.69
224.583	-4.26
224.968	-22.12
225.352	-8.44
225.736	4.43
226.121	-2.92
226.505	-8.09
226.889	2.31
227.273	-3.67
227.657	2.93
228.041	2.49
228.425	0.79
228.809	1.48
229.193	3.4
229.577	1.28
229.961	3.42
230.344	2.9
230.728	3.82
231.112	2.77
231.495	2.8
231.879	2.52
232.263	3.07
232.646	2.19
233.03	4.78
233.413	4.27
233.797	0.45
234.18	3
234.563	1.73
234.946	1.19
235.33	2.34
235.713	1.9
236.096	2.31
236.479	3.51
236.862	2.27
237.245	2.88
237.628	1.64
238.011	2.42
238.394	-0.1
238.777	2.33
239.16	4.85
239.543	3.64
239.925	2
240.308	1.82
240.691	3.75
241.073	1.35
241.456	2.05
241.838	2.32
242.221	3.16
242.603	3.95
242.986	3.23
243.368	3.33
243.75	3.24
244.133	3.18
244.515	2.53
244.897	2.4
245.279	2.32
245.661	1.98
246.043	2.43
246.425	2.52
246.807	3.02
247.189	2.84
247.571	3.13
247.953	2.85
248.335	2.84
248.717	2.77
249.098	2.96
249.48	2.59
249.862	2.91
250.243	2.77
250.625	2.2
251.006	2.99
251.388	2.83
251.769	1.51
252.151	2.32
252.532	2.48
252.913	2.32
253.295	2.66
253.676	2.38
254.057	2.64
254.438	2.73
254.819	2.66
255.2	2.69
255.581	3.57
255.962	2.38
256.343	2.88
256.724	2.22
257.105	3.09
257.486	1.04
257.867	2.73
258.247	2.64
258.628	3.07
259.009	1.99
259.389	2.26
259.77	2.23
260.15	2.53
260.531	2.66
260.911	2.58
261.292	2.65
261.672	2.77
262.052	2.43
262.432	2.38
262.813	2.76
263.193	2.67
263.573	2.61
263.953	1.92
264.333	2.51
264.713	2.55
265.093	1.84
265.473	1.89
265.853	2
266.233	2.53
266.612	1.78
266.992	2.29
267.372	2.51
267.752	3.01
268.131	2.51
268.511	2.46
268.89	3
269.27	2.09
269.649	1.44
270.029	2.35
270.408	1.81
270.787	2.27
271.167	2.84
271.546	2.51
271.925	2.17
272.304	2.14
272.683	2.11
273.062	2.14
273.441	2.36
273.82	2.45
274.199	2.24
274.578	2.54
274.957	2.44
275.336	2.44
275.715	2.43
276.093	2.11
276.472	1.99
276.851	2.3
277.229	1.45
277.608	2.62
277.986	2.05
278.365	2.31
278.743	2.11
279.122	2.2
279.5	2.34
279.878	2.28
280.257	2.09
280.635	2.14
281.013	2.05
281.391	1.99
281.769	2.9
282.147	2.71
282.525	1.89
282.903	2.2
283.281	2.58
283.659	2.29
284.037	2.26
284.415	2.14
284.792	2.47
285.17	2.08
285.548	2.11
285.925	2.52
286.303	2.84
286.68	2.47
287.058	2.36
287.435	2.06
287.813	2.25
288.19	2.07
288.567	2.21
288.945	1.98
289.322	2.2
289.699	2.64
290.076	2.17
290.453	1.85
290.83	2.02
291.207	2.19
291.584	2.45
291.961	2.17
292.338	2.15
292.715	2
293.092	2.47
293.469	2.38
293.845	2.29
294.222	2.51
294.599	1.89
294.975	1.49
295.352	2.35
295.728	2.17
296.105	2.17
296.481	2.88
296.858	2.41
297.234	1.95
297.61	2.66
297.986	2.7
298.363	2.24
298.739	2.82
299.115	2.6
299.491	2.61
299.867	2.13
300.243	2.29
300.619	1.66
300.995	2.3
301.371	2.24
301.746	2.39
302.122	1.95
302.498	2.22
302.874	2.57
303.249	2.32
303.625	1.81
304	2.72
304.376	3.08
304.751	2.52
305.127	2.29
305.502	2.65
305.878	2.6
306.253	2.06
306.628	2.47
307.003	2.06
307.378	1.9
307.754	2.39
308.129	1.63
308.504	1.92
308.879	2.17
309.254	2.65
309.629	2.66
310.003	2.54
310.378	2.26
310.753	2.71
311.128	2.17
311.502	2.39
311.877	2.58
312.252	2.18
312.626	2.75
313.001	2.64
313.375	2.54
313.75	2.26
314.124	2.58
314.498	2.7
314.873	2.3
315.247	1.87
315.621	1.77
315.995	2.34
316.369	1.95
316.743	1.78
317.117	2.17
317.491	2.01
317.865	2.04
318.239	2.68
318.613	2.07
318.987	2.27
319.361	2.38
319.734	2.42
320.108	2.29
320.482	2.51
320.855	2.42
321.229	2.14
321.602	2.48
321.976	1.77
322.349	2.56
322.723	1.97
323.096	2.1
323.469	1.71
323.843	1.86
324.216	2.31
324.589	2.53
324.962	2.18
325.335	2.47
325.708	2.51
326.081	2.28
326.454	2.65
326.827	2.49
327.2	2.21
327.573	2.3
327.945	2.22
328.318	2.03
328.691	2.6
329.063	2.12
329.436	2.31
329.809	2.85
330.181	3.28
330.553	2.53
330.926	3.07
331.298	2.38
331.671	2.58
332.043	2.01
332.415	2.23
332.787	2.9
333.159	1.86
333.532	2.61
333.904	2.48
334.276	2.67
334.648	2.51
335.02	1.94
335.391	2.28
335.763	2.18
336.135	2.41
336.507	2.27
336.879	2.05
337.25	2.57
337.622	2.44
337.993	2.22
338.365	1.89
338.736	2.25
339.108	2.73
339.479	2.46
339.851	2.76
340.222	2.86
340.593	2.25
340.964	2.06
341.336	2.26
341.707	2.17
342.078	1.9
342.449	2.45
342.82	2.77
343.191	2.27
343.562	2.51
343.933	1.96
344.303	2.37
344.674	2.29
345.045	2.42
345.416	2.95
345.786	2.5
346.157	2.36
346.527	2.35
346.898	2.41
347.268	2.23
347.639	2.31
348.009	2.75
348.38	2
348.75	2.97
349.12	2.23
349.49	2.21
349.861	2.57
350.231	2.33
350.601	2.44
350.971	2.17
351.341	2.49
351.711	2.44
352.081	2.13
352.45	1.82
352.82	2.27
353.19	2.44
353.56	2.21
353.929	2.4
354.299	2.4
354.669	2.27
355.038	2.49
355.408	2.34
355.777	2.76
356.147	2.44
356.516	2.18
356.885	2.53
357.254	2.36
357.624	2.28
357.993	2.55
358.362	2.52
358.731	2.75
359.1	2.31
359.469	2.6
359.838	2.53
360.207	2.66
360.576	2.91
360.945	2.64
361.314	2.61
361.682	2.26
362.051	2.48
362.42	2.83
362.788	2.71
363.157	2.57
363.525	2.74
363.894	2.28
364.262	2.61
364.631	2.66
364.999	2.61
365.367	2.59
365.735	2.44
366.104	2.54
366.472	2.73
366.84	2.54
367.208	2.51
367.576	2.6
367.944	2.63
368.312	2.31
368.68	2.96
369.048	2.5
369.416	2.24
369.783	2.38
370.151	2.97
370.519	3
370.886	2.67
371.254	2.91
371.621	2.7
371.989	2.6
372.356	2.65
372.724	2.59
373.091	2.72
373.458	2.48
373.826	2.69
374.193	2.85
374.56	2.42
374.927	2.46
375.294	2.93
375.661	2.74
376.028	2.46
376.395	2.63
376.762	2.38
377.129	2.43
377.496	2.64
377.863	2.38
378.229	3.13
378.596	2.78
378.963	2.77
379.329	2.83
379.696	2.63
380.062	2.64
380.429	2.27
380.795	2.73
381.161	2.36
381.528	2.51
381.894	2.62
382.26	2.74
382.626	2.65
382.993	3.15
383.359	2.74
383.725	2.51
384.091	2.82
384.457	2.66
384.823	2.61
385.188	2.71
385.554	2.77
385.92	2.66
386.286	2.8
386.651	2.62
387.017	3.01
387.383	2.74
387.748	2.78
388.114	2.89
388.479	2.69
388.845	2.69
389.21	3.06
389.575	2.88
389.94	2.9
390.306	2.78
390.671	2.74
391.036	2.67
391.401	2.85
391.766	2.5
392.131	3.09
392.496	2.66
392.861	2.78
393.226	2.52
393.591	2.83
393.956	2.73
394.32	2.87
394.685	2.79
395.05	2.83
395.414	2.7
395.779	2.85
396.143	2.73
396.508	2.59
396.872	2.67
397.236	3.12
397.601	3.05
397.965	2.69
398.329	2.89
398.694	2.6
399.058	2.82
399.422	2.7
399.786	2.64
400.15	2.65
400.514	2.72
400.878	2.89
401.242	2.73
401.605	2.72
401.969	2.81
402.333	2.71
402.697	3
403.06	2.82
403.424	2.91
403.787	2.76
404.151	2.9
404.514	2.93
404.878	2.72
405.241	2.71
405.604	2.86
405.968	3.01
406.331	3.01
406.694	2.77
407.057	2.83
407.42	2.8
407.783	3.03
408.146	2.89
408.509	2.83
408.872	2.81
409.235	2.97
409.598	2.68
409.961	2.84
410.323	2.68
410.686	2.73
411.049	2.96
411.411	3.02
411.774	2.95
412.136	2.74
412.499	3.14
412.861	2.62
413.223	2.65
413.586	2.9
413.948	3.06
414.31	2.95
414.672	3.01
415.035	2.95
415.397	2.78
415.759	2.54
416.121	2.91
416.483	2.62
416.845	2.88
417.206	2.77
417.568	2.76
417.93	2.95
418.292	2.77
418.653	2.77
419.015	2.81
419.377	2.79
419.738	2.89
420.1	2.79
420.461	2.86
420.822	2.88
421.184	2.83
421.545	2.92
421.906	2.91
422.267	2.83
422.629	2.86
422.99	2.9
423.351	2.8
423.712	2.94
424.073	2.96
424.434	3.03
424.795	2.74
425.155	2.73
425.516	2.76
425.877	2.86
426.238	2.87
426.598	2.87
426.959	2.96
427.32	2.9
427.68	2.96
428.041	2.98
428.401	2.84
428.761	3.02
429.122	2.97
429.482	2.92
429.842	2.83
430.202	3.02
430.563	2.99
430.923	2.91
431.283	3.01
431.643	3.15
432.003	2.97
432.363	3.12
432.722	2.93
433.082	3
433.442	3
433.802	2.95
434.161	2.98
434.521	2.89
434.881	3.02
435.24	2.95
435.6	3.04
435.959	3.03
436.319	3.02
436.678	3.09
437.037	2.99
437.396	2.88
437.756	2.98
438.115	2.95
438.474	2.96
438.833	3.05
439.192	2.95
439.551	2.93
439.91	3.01
440.269	3.01
440.628	2.98
440.987	3.03
441.345	3.06
441.704	2.93
442.063	2.98
442.421	2.95
442.78	3.04
443.138	2.98
443.497	3.06
443.855	3.01
444.214	2.98
444.572	3.17
444.93	2.99
445.288	3.06
445.647	2.94
446.005	3.02
446.363	3.06
446.721	3
447.079	2.91
447.437	3.05
447.795	3.1
448.153	3.01
448.51	3.07
448.868	2.99
449.226	3.1
449.584	3.03
449.941	2.98
450.299	3.02
450.656	3.02
451.014	3.11
451.371	3.05
451.729	3.13
452.086	3.13
452.443	3.32
452.801	3.01
453.158	3.23
453.515	3.01
453.872	3.13
454.229	2.98
454.586	2.99
454.943	3.17
455.3	3.19
455.657	3.08
456.014	3.08
456.371	3.15
456.727	3.31
457.084	3.33
457.441	3.13
457.797	3.18
458.154	3.13
458.51	3.07
458.867	3.01
459.223	3.06
459.58	3.24
459.936	3.1
460.292	3.02
460.648	3.11
461.005	3.06
461.361	3.07
461.717	3.16
462.073	3.11
462.429	3.22
462.785	3.39
463.141	3.09
463.496	3.18
463.852	3.3
464.208	3.19
464.564	3.1
464.919	3.16
465.275	3.23
465.631	3.31
465.986	3.38
466.342	3.06
466.697	3.16
467.052	3.34
467.408	3.24
467.763	3.17
468.118	3.08
468.473	3.18
468.829	2.98
469.184	3.24
469.539	3.04
469.894	3.29
470.249	3.26
470.603	3.28
470.958	3.32
471.313	3.17
471.668	3.3
472.023	3.23
472.377	3.35
472.732	3.34
473.086	3.15
473.441	3.37
473.795	3.51
474.15	3.29
474.504	3.12
474.859	3.08
475.213	3.35
475.567	3.22
475.921	3.37
476.275	3.2
476.63	3.31
476.984	3.05
477.338	3.26
477.692	3.29
478.045	3.35
478.399	3.35
478.753	3.18
479.107	3.37
479.461	3.24
479.814	3.25
480.168	3.31
480.521	3.37
480.875	3.24
481.228	3.19
481.582	3.42
481.935	3.31
482.289	3.38
482.642	3.41
482.995	3.29
483.348	3.29
483.701	3.37
484.055	3.31
484.408	3.33
484.761	3.24
485.114	3.12
485.466	3.16
485.819	3.18
486.172	3.19
486.525	3.22
486.878	3.3
487.23	3.31
487.583	3.4
487.936	3.28
488.288	3.26
488.641	3.25
488.993	3.22
489.345	3.24
489.698	3.25
490.05	3.24
490.402	3.28
490.754	3.32
491.107	3.37
491.459	3.37
491.811	3.47
492.163	3.44
492.515	3.35
492.866	3.26
493.218	3.28
493.57	3.4
493.922	3.35
494.274	3.44
494.625	3.51
494.977	3.4
495.328	3.51
495.68	3.32
496.031	3.42
496.383	3.44
496.734	3.35
497.086	3.53
497.437	3.45
497.788	3.55
498.139	3.51
498.49	3.42
498.842	3.51
499.193	3.36
499.544	3.53
499.894	3.46
500.245	3.62
500.596	3.54
500.947	3.51
501.298	3.54
501.648	3.55
501.999	3.75
502.35	3.52
502.7	3.78
503.051	3.53
503.401	3.6
503.752	3.52
504.102	3.69
504.452	3.44
504.803	3.55
505.153	3.63
505.503	3.57
505.853	3.66
506.203	3.75
506.553	3.53
506.903	3.66
507.253	3.61
507.603	3.7
507.953	3.52
508.303	3.74
508.652	3.52
509.002	3.76
509.352	3.66
509.701	3.62
510.051	3.8
510.4	3.7
510.75	3.59
511.099	3.57
511.449	3.77
511.798	3.65
512.147	3.64
512.496	3.77
512.846	3.71
513.195	3.76
513.544	3.83
513.893	3.66
514.242	3.72
514.591	3.65
514.939	3.7
515.288	3.87
515.637	3.77
515.986	3.8
516.334	3.82
516.683	3.76
517.032	3.69
517.38	3.82
517.729	3.75
518.077	3.75
518.426	3.84
518.774	3.77
519.122	3.81
519.47	3.76
519.819	3.87
520.167	3.74
520.515	3.82
520.863	3.77
521.211	3.78
521.559	3.84
521.907	3.93
522.255	3.81
522.602	3.93
522.95	3.89
523.298	4.01
523.645	3.88
523.993	3.93
524.341	3.95
524.688	3.9
525.036	3.85
525.383	3.95
525.73	3.81
526.078	4
526.425	3.92
526.772	3.92
527.119	3.96
527.466	4.01
527.814	3.92
528.161	4.02
528.508	4.08
528.854	3.97
529.201	3.98
529.548	3.91
529.895	3.83
530.242	3.78
530.588	3.86
530.935	3.92
531.282	3.89
531.628	3.96
531.975	3.92
532.321	4.03
532.667	4.08
533.014	4.15
533.36	4.11
533.706	4.12
534.052	4.15
534.399	4.06
534.745	3.99
535.091	4.01
535.437	4.04
535.783	4.07
536.129	4.08
536.474	4.23
536.82	4.24
537.166	4.22
537.512	4.15
537.857	4.25
538.203	4.13
538.549	4.19
538.894	4.31
539.239	4.29
539.585	4.29
539.93	4.39
540.276	4.34
540.621	4.45
540.966	4.31
541.311	4.44
541.656	4.25
542.001	4.31
542.346	4.27
542.691	4.17
543.036	4.26
543.381	4.28
543.726	4.31
544.071	4.32
544.415	4.35
544.76	4.36
545.105	4.39
545.449	4.36
545.794	4.41
546.138	4.49
546.483	4.48
546.827	4.5
547.171	4.61
547.516	4.55
547.86	4.54
548.204	4.53
548.548	4.52
548.892	4.48
549.236	4.53
549.58	4.77
549.924	4.73
550.268	4.75
550.612	4.72
550.956	4.81
551.3	4.82
551.643	4.75
551.987	4.85
552.33	4.94
552.674	4.57
553.017	5.01
553.361	4.94
553.704	4.75
554.048	4.81
554.391	4.85
554.734	4.74
555.077	4.99
555.42	4.83
555.764	4.84
556.107	4.97
556.45	4.89
556.793	4.93
557.135	5.05
557.478	5.13
557.821	4.95
558.164	5.11
558.507	4.9
558.849	5.15
559.192	5.04
559.534	4.94
559.877	5.02
560.219	5.05
560.562	5.12
560.904	5.39
561.246	4.99
561.589	5.29
561.931	5.15
562.273	5.16
562.615	5.24
562.957	5.1
563.299	5.1
563.641	5.16
563.983	5.13
564.325	5.2
564.667	5.2
565.008	5.3
565.35	5.17
565.692	5.37
566.033	5.18
566.375	5.29
566.716	5.14
567.058	5.3
567.399	5.45
567.741	5.44
568.082	5.51
568.423	5.42
568.764	5.41
569.105	5.38
569.447	5.36
569.788	5.46
570.129	5.49
570.47	5.44
570.811	5.38
571.151	5.48
571.492	5.63
571.833	5.65
572.174	5.64
572.514	5.63
572.855	5.66
573.195	5.55
573.536	5.79
573.876	5.7
574.217	5.68
574.557	5.78
574.898	5.77
575.238	5.84
575.578	5.83
575.918	5.84
576.258	5.95
576.598	5.74
576.938	5.92
577.278	6.02
577.618	5.88
577.958	6.06
578.298	6.03
578.638	5.96
578.977	6.09
579.317	5.96
579.657	6
579.996	6.3
580.336	6.01
580.675	6.12
581.014	6.11
581.354	6.02
581.693	6.15
582.032	6.43
582.372	6.3
582.711	6.16
583.05	6.3
583.389	6.11
583.728	6.37
584.067	6.03
584.406	6.47
584.745	6.15
585.083	6.33
585.422	6.63
585.761	6.25
586.1	6.49
586.438	6.44
586.777	6.57
587.115	6.5
587.454	6.5
587.792	6.43
588.13	6.59
588.469	6.38
588.807	6.63
589.145	6.76
589.483	6.6
589.821	6.81
590.159	6.5
590.497	6.75
590.835	6.64
591.173	6.83
591.511	6.85
591.849	6.84
592.187	6.67
592.524	6.87
592.862	6.65
593.2	7.05
593.537	7.03
593.875	6.94
594.212	6.88
594.55	6.95
594.887	7.15
595.224	6.97
595.561	7.02
595.899	6.97
596.236	7.13
596.573	7.06
596.91	7.07
597.247	7.41
597.584	7.17
597.921	7.17
598.258	7.29
598.594	7.2
598.931	7.07
599.268	7.08
599.604	7.23
599.941	7.31
600.277	7.37
600.614	7.33
600.95	7.59
601.287	7.27
601.623	7.18
601.959	7.57
602.296	7.52
602.632	7.41
602.968	7.56
603.304	7.49
603.64	7.38
603.976	7.66
604.312	7.4
604.648	7.59
604.984	7.73
605.319	7.58
605.655	7.82
605.991	7.62
606.326	7.57
606.662	7.59
606.998	7.94
607.333	7.88
607.668	7.88
608.004	7.87
608.339	7.85
608.674	7.74
609.01	8.1
609.345	8.02
609.68	7.98
610.015	8.13
610.35	8.04
610.685	7.85
611.02	8.01
611.355	8.16
611.689	8.23
612.024	8.32
612.359	8.12
612.694	8.24
613.028	8.12
613.363	8.39
613.697	8.05
614.032	8.42
614.366	8.29
614.7	8.42
615.035	8.41
615.369	8.67
615.703	8.33
616.037	8.92
616.371	8.45
616.705	8.74
617.039	8.75
617.373	8.72
617.707	8.45
618.041	8.42
618.375	8.56
618.709	8.87
619.042	8.53
619.376	8.83
619.71	8.79
620.043	9.19
620.377	9.11
620.71	8.54
621.043	9
621.377	8.95
621.71	8.91
622.043	8.96
622.376	9.08
622.709	9.59
623.043	9.06
623.376	8.56
623.709	9.31
624.041	9.49
624.374	8.89
624.707	9.17
625.04	9.16
625.373	9.26
625.705	9.38
626.038	9.33
626.37	9.36
626.703	9.39
627.035	9.28
627.368	9.63
627.7	9.24
628.032	9.42
628.365	9.51
628.697	9.85
629.029	9.52
629.361	9.67
629.693	9.69
630.025	10.07
630.357	10.07
630.689	9.82
631.021	9.59
631.353	9.7
631.684	9.96
632.016	9.71
632.348	9.7
632.679	9.95
633.011	10.03
633.342	9.91
633.674	9.69
634.005	10.17
634.336	10.24
634.668	10.07
634.999	10.01
635.33	10.3
635.661	10.13
635.992	10.15
636.323	10.36
636.654	9.98
636.985	10.29
637.316	10.21
637.647	10.44
637.977	9.97
638.308	10.54
638.639	10.48
638.969	10.48
639.3	10.46
639.63	10.65
639.961	10.63
640.291	10.33
640.622	10.77
640.952	10.78
641.282	10.32
641.612	10.3
641.943	10.73
642.273	10.79
642.603	10.6
642.933	10.95
643.263	10.85
643.592	11.26
643.922	10.88
644.252	11.27
644.582	11.25
644.911	11.11
645.241	10.97
645.571	11.25
645.9	11.1
646.23	11.4
646.559	10.7
646.888	11.78
647.218	11.16
647.547	11.19
647.876	11.23
648.205	11.09
648.534	11.26
648.863	11.49
649.192	11.48
649.521	11.68
649.85	11.24
650.179	11.65
650.508	11.51
650.837	11.64
651.165	12.02
651.494	11.65
651.822	11.73
652.151	11.4
652.479	11.87
652.808	11.93
653.136	11.38
653.465	11.78
653.793	11.66
654.121	11.73
654.449	11.98
654.777	11.75
655.105	11.82
655.433	12.17
655.761	11.86
656.089	12.15
656.417	12.69
656.745	12.41
657.073	12.06
657.4	12.21
657.728	11.68
658.056	12.22
658.383	12.05
658.711	12.15
659.038	12.47
659.365	12.61
659.693	12.66
660.02	12.43
660.347	12.59
660.674	12.17
661.001	12.31
661.329	12.38
661.656	12.17
661.982	12.3
662.309	12.57
662.636	12.8
662.963	12.74
663.29	12.58
663.616	12.39
663.943	12.91
664.27	12.69
664.596	12.84
664.923	12.89
665.249	13.13
665.576	13.37
665.902	12.82
666.228	13.19
666.554	13.32
666.881	12.69
667.207	12.73
667.533	13.23
667.859	13.14
668.185	13.39
668.511	13.46
668.837	13.5
669.162	13.06
669.488	12.96
669.814	13.41
670.139	12.57
670.465	13.8
670.791	13.22
671.116	13.34
671.442	12.81
671.767	13.3
672.092	13.56
672.418	13.52
672.743	13.51
673.068	13.46
673.393	14.14
673.718	13.08
674.043	13.79
674.368	14.18
674.693	13.94
675.018	14.17
675.343	14.34
675.667	13.85
675.992	13.7
676.317	13.64
676.641	14.1
676.966	13.87
677.29	14.05
677.615	13.64
677.939	14.47
678.264	14.03
678.588	14.47
678.912	14.48
679.236	14.45
679.56	14.02
679.885	14.62
680.209	14.38
680.532	14.66
680.856	14.74
681.18	15.01
681.504	14.22
681.828	14.26
682.152	14.8
682.475	14.49
682.799	14.2
683.122	14.53
683.446	14.05
683.769	14.92
684.093	14.61
684.416	14.57
684.739	15.13
685.062	14.88
685.386	15.17
685.709	14.75
686.032	15.11
686.355	14.61
686.678	15.54
687.001	15.44
687.324	14.76
687.646	14.81
