Data from 0003_crown_Reflection__0__261.txt Node

Date: Thu Dec 15 18:48:29 CST 2022
User: ToomeyLab
Spectrometer: FLMS14357
Trigger mode: 0
Integration Time (sec): 1.000000E-2
Scans to average: 100
Electric dark correction enabled: true
Nonlinearity correction enabled: false
Boxcar width: 0
XAxis mode: Wavelengths
Number of Pixels in Spectrum: 2048
>>>>>Begin Spectral Data<<<<<
189.047	195.36
189.435	195.36
189.823	195.36
190.211	169.65
190.599	13.5
190.987	608.64
191.375	43.2
191.763	242.05
192.151	-7.46
192.538	115.3
192.926	253.19
193.314	43.59
193.702	-31.58
194.089	10.46
194.477	44.97
194.864	36.43
195.252	65.37
195.639	95.81
196.027	-122.22
196.414	114.68
196.801	115.75
197.189	62.87
197.576	-55.61
197.963	-498.93
198.351	34.67
198.738	-23.07
199.125	-528.38
199.512	-15
199.899	-30.83
200.286	-58.16
200.673	6.84
201.06	-42.17
201.447	-52.6
201.833	-22.08
202.22	-32.46
202.607	3.14
202.994	3.57
203.38	-28.59
203.767	-75.12
204.154	51.82
204.54	14
204.927	-1.82
205.313	33.19
205.699	-5.24
206.086	9.66
206.472	11.6
206.858	7.29
207.245	5.1
207.631	-25.5
208.017	-17.97
208.403	-67.16
208.789	-15.21
209.175	-59.43
209.561	-106.63
209.947	-47.71
210.333	-40.23
210.719	9.91
211.105	2.49
211.491	-12.15
211.876	-2.41
212.262	-8.52
212.648	31.6
213.034	4.81
213.419	1.75
213.805	-33.36
214.19	-128.2
214.576	-63.83
214.961	15.17
215.346	-15.47
215.732	-4.97
216.117	-8.62
216.502	-33.56
216.888	-13.27
217.273	-17.9
217.658	-41.33
218.043	-45.23
218.428	-19.67
218.813	9.09
219.198	-61.14
219.583	-28.73
219.968	-25.13
220.353	-7.54
220.738	-38.64
221.122	-19.12
221.507	-29
221.892	-20.07
222.276	-22.37
222.661	-26.94
223.046	-35.09
223.43	6.91
223.815	3.93
224.199	-4.47
224.583	-3.24
224.968	-9.56
225.352	-16.37
225.736	-5.99
226.121	-0.7
226.505	-5.75
226.889	-4.4
227.273	-0.58
227.657	5.27
228.041	8.3
228.425	-2.8
228.809	0.19
229.193	1.96
229.577	2.28
229.961	0.28
230.344	1.66
230.728	2.52
231.112	3.27
231.495	0.59
231.879	1.65
232.263	1.34
232.646	0.15
233.03	2.27
233.413	2.34
233.797	-1.56
234.18	0.17
234.563	0.38
234.946	1.83
235.33	0.38
235.713	1.48
236.096	2.18
236.479	1.78
236.862	0.5
237.245	-0.1
237.628	2.24
238.011	2.79
238.394	0.92
238.777	0.75
239.16	1.91
239.543	3.29
239.925	1.2
240.308	0.01
240.691	0.85
241.073	2.01
241.456	2.81
241.838	1.43
242.221	1.81
242.603	2.38
242.986	1.95
243.368	2.18
243.75	2.3
244.133	2.45
244.515	2.14
244.897	1.82
245.279	1.84
245.661	2.44
246.043	1.45
246.425	1.47
246.807	2.06
247.189	2.24
247.571	2.2
247.953	1.74
248.335	1.91
248.717	2.2
249.098	2.07
249.48	2.01
249.862	2.04
250.243	2.03
250.625	1.86
251.006	2.68
251.388	1.42
251.769	1.54
252.151	1.81
252.532	1.36
252.913	1.37
253.295	1.46
253.676	1.88
254.057	1.62
254.438	1.67
254.819	1.41
255.2	2.25
255.581	2.47
255.962	1.63
256.343	1.69
256.724	2.26
257.105	1.96
257.486	1.16
257.867	1.83
258.247	1.2
258.628	1.83
259.009	0.96
259.389	0.86
259.77	1.4
260.15	2.27
260.531	1.94
260.911	1.81
261.292	1.99
261.672	1.85
262.052	2.12
262.432	1.88
262.813	1.72
263.193	1.81
263.573	1.89
263.953	2.19
264.333	1.58
264.713	1.92
265.093	1.36
265.473	0.86
265.853	1.49
266.233	2.36
266.612	1.39
266.992	1.45
267.372	1.66
267.752	2.2
268.131	1.19
268.511	1.59
268.89	2.07
269.27	1.75
269.649	1.07
270.029	1.73
270.408	2.04
270.787	1.6
271.167	1.96
271.546	2.31
271.925	1.63
272.304	1.43
272.683	1.48
273.062	1.28
273.441	1.72
273.82	1.78
274.199	1.68
274.578	1.62
274.957	1.45
275.336	2.16
275.715	2.2
276.093	1.57
276.472	1.81
276.851	1.8
277.229	1.47
277.608	1.75
277.986	1.56
278.365	2.16
278.743	1.86
279.122	1.04
279.5	1.58
279.878	1.48
280.257	1.54
280.635	1.76
281.013	1.01
281.391	1.24
281.769	2.18
282.147	1.7
282.525	1.62
282.903	1.35
283.281	1.85
283.659	1.92
284.037	1.9
284.415	1.25
284.792	1.52
285.17	1.37
285.548	1.22
285.925	1.39
286.303	2
286.68	1.62
287.058	1.76
287.435	1.39
287.813	1.64
288.19	1.59
288.567	1.86
288.945	1.38
289.322	1.56
289.699	2.01
290.076	1.51
290.453	1.4
290.83	1.84
291.207	1.84
291.584	1.7
291.961	1.58
292.338	1.56
292.715	1.41
293.092	1.86
293.469	1.75
293.845	1.68
294.222	1.97
294.599	1.18
294.975	0.83
295.352	1.79
295.728	1.68
296.105	1.66
296.481	1.55
296.858	1.71
297.234	1.32
297.61	1.57
297.986	2.09
298.363	1.74
298.739	1.87
299.115	1.61
299.491	2.02
299.867	1.58
300.243	1.87
300.619	1.66
300.995	1.83
301.371	1.61
301.746	1.83
302.122	0.89
302.498	1.6
302.874	1.82
303.249	1.76
303.625	1.31
304	2.01
304.376	1.64
304.751	1.71
305.127	1.04
305.502	1.84
305.878	1.96
306.253	1.15
306.628	1.36
307.003	1.37
307.378	1.09
307.754	1.58
308.129	1.24
308.504	1.82
308.879	1.84
309.254	2.13
309.629	1.6
310.003	1.6
310.378	1.98
310.753	1.89
311.128	1.29
311.502	1.34
311.877	1.39
312.252	1.73
312.626	1.68
313.001	1.73
313.375	1.61
313.75	1.5
314.124	1.65
314.498	1.76
314.873	0.91
315.247	1.69
315.621	1.36
315.995	1.42
316.369	1.37
316.743	1.36
317.117	1.45
317.491	2.02
317.865	0.76
318.239	1.63
318.613	1.36
318.987	0.73
319.361	1.05
319.734	1.9
320.108	1.28
320.482	1.67
320.855	1.5
321.229	1.26
321.602	1.72
321.976	0.97
322.349	2.42
322.723	1.8
323.096	1.15
323.469	1.34
323.843	1.28
324.216	1.37
324.589	1.76
324.962	1.72
325.335	1.75
325.708	1.78
326.081	1.28
326.454	1.42
326.827	1.41
327.2	1.45
327.573	2.13
327.945	1.15
328.318	1.41
328.691	1.61
329.063	0.89
329.436	1.29
329.809	1.75
330.181	2.46
330.553	1.91
330.926	2.22
331.298	1.29
331.671	1.75
332.043	1.39
332.415	1.64
332.787	1.78
333.159	1.87
333.532	1.41
333.904	1.78
334.276	1.5
334.648	1.63
335.02	1.73
335.391	1.54
335.763	1.59
336.135	1.73
336.507	1.65
336.879	1.44
337.25	1.92
337.622	2.07
337.993	1.22
338.365	1.61
338.736	1.93
339.108	1.96
339.479	1.71
339.851	1.66
340.222	2.08
340.593	1.39
340.964	1.87
341.336	1.35
341.707	1.62
342.078	1.16
342.449	2
342.82	1.49
343.191	1.4
343.562	1.89
343.933	1.3
344.303	2.09
344.674	1.76
345.045	1.89
345.416	2.37
345.786	1.82
346.157	1.89
346.527	1.75
346.898	1.42
347.268	1.6
347.639	1.1
348.009	1.98
348.38	1.59
348.75	2.07
349.12	2.11
349.49	2.07
349.861	1.64
350.231	1.32
350.601	2.1
350.971	1.5
351.341	1.78
351.711	1.88
352.081	1.78
352.45	1.48
352.82	1.35
353.19	1.49
353.56	1.55
353.929	1.7
354.299	2.17
354.669	1.76
355.038	1.94
355.408	1.69
355.777	1.84
356.147	1.84
356.516	1.56
356.885	1.78
357.254	1.54
357.624	1.33
357.993	1.64
358.362	1.89
358.731	1.97
359.1	1.78
359.469	1.78
359.838	1.69
360.207	1.54
360.576	1.93
360.945	1.85
361.314	1.57
361.682	1.7
362.051	1.53
362.42	1.65
362.788	1.96
363.157	1.69
363.525	1.9
363.894	1.84
364.262	1.71
364.631	2.18
364.999	1.58
365.367	1.84
365.735	1.4
366.104	1.67
366.472	1.86
366.84	1.89
367.208	2.07
367.576	1.61
367.944	1.86
368.312	1.49
368.68	2.04
369.048	1.69
369.416	1.48
369.783	1.84
370.151	1.92
370.519	2.17
370.886	1.95
371.254	2.16
371.621	2.15
371.989	1.96
372.356	1.78
372.724	1.81
373.091	1.65
373.458	1.59
373.826	1.85
374.193	1.92
374.56	1.94
374.927	1.63
375.294	1.92
375.661	1.89
376.028	1.71
376.395	2.01
376.762	1.64
377.129	1.81
377.496	1.85
377.863	1.96
378.229	2.1
378.596	1.86
378.963	2.02
379.329	1.99
379.696	1.89
380.062	1.78
380.429	1.48
380.795	2.24
381.161	1.35
381.528	1.82
381.894	2.01
382.26	2.04
382.626	2.02
382.993	2.02
383.359	1.74
383.725	1.84
384.091	2.18
384.457	1.85
384.823	1.88
385.188	2.02
385.554	2.08
385.92	1.59
386.286	2.03
386.651	1.91
387.017	2.22
387.383	1.89
387.748	2.21
388.114	2.24
388.479	1.8
388.845	1.7
389.21	2.14
389.575	2.29
389.94	2.04
390.306	2.13
390.671	2.19
391.036	1.73
391.401	1.98
391.766	2.09
392.131	2.06
392.496	1.88
392.861	1.98
393.226	2.15
393.591	1.91
393.956	1.91
394.32	1.89
394.685	2.06
395.05	1.93
395.414	2.09
395.779	2.08
396.143	1.68
396.508	1.84
396.872	2.1
397.236	2.23
397.601	2.09
397.965	1.94
398.329	1.92
398.694	1.72
399.058	1.89
399.422	1.86
399.786	2.1
400.15	1.87
400.514	2.11
400.878	2.1
401.242	2.03
401.605	2.15
401.969	1.96
402.333	1.78
402.697	2.24
403.06	2.11
403.424	2.1
403.787	1.99
404.151	2.16
404.514	1.98
404.878	1.99
405.241	1.96
405.604	2.05
405.968	2.13
406.331	2.1
406.694	2.2
407.057	1.9
407.42	2.11
407.783	2.15
408.146	2.16
408.509	2.15
408.872	2.33
409.235	2.32
409.598	2.19
409.961	2.27
410.323	2.11
410.686	1.98
411.049	2.07
411.411	1.99
411.774	2.11
412.136	2.06
412.499	2.26
412.861	1.82
413.223	1.84
413.586	2.09
413.948	2.3
414.31	2.19
414.672	2.06
415.035	2.27
415.397	1.95
415.759	1.75
416.121	1.96
416.483	2.08
416.845	2.02
417.206	1.95
417.568	2
417.93	2.21
418.292	1.95
418.653	1.87
419.015	2.01
419.377	2.05
419.738	2.22
420.1	2.09
420.461	2.11
420.822	2.17
421.184	2.06
421.545	2.14
421.906	2.15
422.267	2.01
422.629	2.12
422.99	2.09
423.351	2.14
423.712	2.11
424.073	2.27
424.434	2.25
424.795	2.01
425.155	2.06
425.516	2.01
425.877	2.14
426.238	2.12
426.598	2.19
426.959	2.12
427.32	2.1
427.68	2.19
428.041	2.21
428.401	2.05
428.761	2.25
429.122	2.13
429.482	2.21
429.842	2.19
430.202	2.2
430.563	2
430.923	2.11
431.283	2.18
431.643	2.28
432.003	2.32
432.363	2.28
432.722	1.99
433.082	2.12
433.442	2.39
433.802	2.15
434.161	2.23
434.521	2.2
434.881	2.24
435.24	2.17
435.6	2.35
435.959	2.16
436.319	2.18
436.678	2.23
437.037	2.22
437.396	2.15
437.756	2.1
438.115	2.25
438.474	2.07
438.833	2.24
439.192	2.26
439.551	2.13
439.91	2.32
440.269	2.22
440.628	2.08
440.987	2.19
441.345	2.24
441.704	2.17
442.063	2.14
442.421	2.28
442.78	2.23
443.138	2.24
443.497	2.25
443.855	2.29
444.214	1.96
444.572	2.28
444.93	2.21
445.288	2.24
445.647	2.12
446.005	2.26
446.363	2.21
446.721	2.23
447.079	2.23
447.437	2.27
447.795	2.32
448.153	2.18
448.51	2.21
448.868	2.19
449.226	2.23
449.584	2.25
449.941	2.27
450.299	2.29
450.656	2.23
451.014	2.36
451.371	2.3
451.729	2.29
452.086	2.25
452.443	2.35
452.801	2.29
453.158	2.51
453.515	2.22
453.872	2.18
454.229	2.06
454.586	2.27
454.943	2.25
455.3	2.24
455.657	2.28
456.014	2.33
456.371	2.43
456.727	2.33
457.084	2.42
457.441	2.42
457.797	2.36
458.154	2.26
458.51	2.17
458.867	2.29
459.223	2.2
459.58	2.38
459.936	2.24
460.292	2.26
460.648	2.25
461.005	2.23
461.361	2.23
461.717	2.28
462.073	2.38
462.429	2.36
462.785	2.43
463.141	2.31
463.496	2.26
463.852	2.5
464.208	2.41
464.564	2.33
464.919	2.25
465.275	2.43
465.631	2.5
465.986	2.51
466.342	2.28
466.697	2.38
467.052	2.55
467.408	2.33
467.763	2.35
468.118	2.21
468.473	2.4
468.829	2.33
469.184	2.43
469.539	2.31
469.894	2.39
470.249	2.41
470.603	2.45
470.958	2.57
471.313	2.43
471.668	2.23
472.023	2.35
472.377	2.32
472.732	2.44
473.086	2.38
473.441	2.3
473.795	2.5
474.15	2.26
474.504	2.46
474.859	2.3
475.213	2.45
475.567	2.34
475.921	2.6
476.275	2.49
476.63	2.6
476.984	2.3
477.338	2.53
477.692	2.41
478.045	2.56
478.399	2.38
478.753	2.34
479.107	2.47
479.461	2.37
479.814	2.37
480.168	2.43
480.521	2.58
480.875	2.43
481.228	2.45
481.582	2.35
481.935	2.6
482.289	2.46
482.642	2.55
482.995	2.4
483.348	2.35
483.701	2.44
484.055	2.38
484.408	2.4
484.761	2.37
485.114	2.26
485.466	2.26
485.819	2.3
486.172	2.36
486.525	2.33
486.878	2.44
487.23	2.41
487.583	2.39
487.936	2.34
488.288	2.39
488.641	2.32
488.993	2.35
489.345	2.35
489.698	2.33
490.05	2.4
490.402	2.43
490.754	2.48
491.107	2.39
491.459	2.48
491.811	2.45
492.163	2.41
492.515	2.45
492.866	2.35
493.218	2.37
493.57	2.44
493.922	2.42
494.274	2.47
494.625	2.53
494.977	2.5
495.328	2.55
495.68	2.43
496.031	2.47
496.383	2.44
496.734	2.56
497.086	2.59
497.437	2.57
497.788	2.6
498.139	2.46
498.49	2.45
498.842	2.53
499.193	2.52
499.544	2.56
499.894	2.49
500.245	2.59
500.596	2.54
500.947	2.46
501.298	2.5
501.648	2.56
501.999	2.66
502.35	2.42
502.7	2.73
503.051	2.49
503.401	2.56
503.752	2.47
504.102	2.51
504.452	2.44
504.803	2.5
505.153	2.65
505.503	2.54
505.853	2.54
506.203	2.62
506.553	2.51
506.903	2.66
507.253	2.62
507.603	2.61
507.953	2.57
508.303	2.68
508.652	2.44
509.002	2.59
509.352	2.58
509.701	2.56
510.051	2.63
510.4	2.6
510.75	2.5
511.099	2.48
511.449	2.62
511.798	2.4
512.147	2.44
512.496	2.59
512.846	2.55
513.195	2.67
513.544	2.63
513.893	2.46
514.242	2.43
514.591	2.44
514.939	2.52
515.288	2.55
515.637	2.62
515.986	2.56
516.334	2.62
516.683	2.53
517.032	2.5
517.38	2.51
517.729	2.56
518.077	2.59
518.426	2.59
518.774	2.53
519.122	2.59
519.47	2.56
519.819	2.62
520.167	2.56
520.515	2.61
520.863	2.53
521.211	2.53
521.559	2.61
521.907	2.64
522.255	2.63
522.602	2.54
522.95	2.72
523.298	2.62
523.645	2.67
523.993	2.59
524.341	2.62
524.688	2.64
525.036	2.53
525.383	2.59
525.73	2.62
526.078	2.65
526.425	2.59
526.772	2.49
527.119	2.57
527.466	2.62
527.814	2.62
528.161	2.65
528.508	2.62
528.854	2.67
529.201	2.55
529.548	2.57
529.895	2.49
530.242	2.48
530.588	2.46
530.935	2.57
531.282	2.59
531.628	2.58
531.975	2.63
532.321	2.62
532.667	2.65
533.014	2.73
533.36	2.58
533.706	2.57
534.052	2.67
534.399	2.6
534.745	2.55
535.091	2.58
535.437	2.6
535.783	2.6
536.129	2.66
536.474	2.78
536.82	2.75
537.166	2.64
537.512	2.63
537.857	2.61
538.203	2.63
538.549	2.51
538.894	2.65
539.239	2.66
539.585	2.74
539.93	2.73
540.276	2.7
540.621	2.83
540.966	2.65
541.311	2.72
541.656	2.67
542.001	2.66
542.346	2.58
542.691	2.56
543.036	2.57
543.381	2.61
543.726	2.66
544.071	2.63
544.415	2.74
544.76	2.68
545.105	2.66
545.449	2.67
545.794	2.68
546.138	2.66
546.483	2.74
546.827	2.59
547.171	2.7
547.516	2.69
547.86	2.71
548.204	2.69
548.548	2.68
548.892	2.7
549.236	2.74
549.58	2.74
549.924	2.8
550.268	2.83
550.612	2.81
550.956	2.86
551.3	2.9
551.643	2.7
551.987	2.84
552.33	2.87
552.674	2.86
553.017	2.78
553.361	2.83
553.704	2.79
554.048	2.76
554.391	2.81
554.734	2.79
555.077	2.75
555.42	2.78
555.764	2.87
556.107	2.92
556.45	2.85
556.793	2.92
557.135	2.84
557.478	2.73
557.821	2.78
558.164	2.84
558.507	2.67
558.849	2.91
559.192	2.81
559.534	2.66
559.877	2.82
560.219	2.71
560.562	2.84
560.904	2.97
561.246	2.81
561.589	2.91
561.931	2.86
562.273	2.86
562.615	2.79
562.957	2.79
563.299	2.85
563.641	2.88
563.983	2.71
564.325	2.95
564.667	2.89
565.008	2.75
565.35	2.73
565.692	2.67
566.033	2.67
566.375	2.76
566.716	2.71
567.058	2.78
567.399	2.85
567.741	2.8
568.082	2.85
568.423	2.77
568.764	2.81
569.105	2.76
569.447	2.85
569.788	2.79
570.129	2.91
570.47	2.86
570.811	2.72
571.151	2.82
571.492	2.94
571.833	2.72
572.174	2.99
572.514	2.95
572.855	3.02
573.195	2.74
573.536	2.9
573.876	2.78
574.217	2.79
574.557	2.82
574.898	2.68
575.238	2.92
575.578	2.84
575.918	2.95
576.258	3.12
576.598	2.69
576.938	2.83
577.278	3.03
577.618	2.8
577.958	3.14
578.298	2.82
578.638	2.94
578.977	3.03
579.317	2.88
579.657	2.84
579.996	3.07
580.336	3.02
580.675	2.76
581.014	2.99
581.354	2.84
581.693	2.98
582.032	3.12
582.372	2.96
582.711	2.98
583.05	2.93
583.389	3.14
583.728	3.24
584.067	2.79
584.406	3.01
584.745	2.84
585.083	2.88
585.422	3.16
585.761	2.84
586.1	3.1
586.438	2.83
586.777	2.91
587.115	3.01
587.454	2.76
587.792	2.95
588.13	2.77
588.469	2.83
588.807	3.14
589.145	2.88
589.483	2.65
589.821	2.85
590.159	3
590.497	3.03
590.835	2.77
591.173	3.18
591.511	2.94
591.849	3.25
592.187	2.96
592.524	3.07
592.862	2.83
593.2	3.02
593.537	2.97
593.875	2.99
594.212	3.1
594.55	2.99
594.887	3.06
595.224	3.13
595.561	2.88
595.899	3.24
596.236	3.14
596.573	2.98
596.91	3.04
597.247	3.18
597.584	3.01
597.921	2.89
598.258	3.11
598.594	2.81
598.931	2.77
599.268	2.8
599.604	3.03
599.941	3.09
600.277	2.93
600.614	2.96
600.95	2.92
601.287	2.81
601.623	2.69
601.959	3.12
602.296	3.14
602.632	2.89
602.968	2.92
603.304	3.02
603.64	3.04
603.976	2.8
604.312	2.97
604.648	2.96
604.984	3.06
605.319	2.91
605.655	2.98
605.991	2.93
606.326	3
606.662	2.82
606.998	3.08
607.333	2.97
607.668	2.94
608.004	3.04
608.339	3.04
608.674	3.15
609.01	3.27
609.345	2.9
609.68	2.87
610.015	3.2
610.35	3.08
610.685	2.72
611.02	2.91
611.355	3.06
611.689	3.11
612.024	3.1
612.359	3.16
612.694	3.26
613.028	2.87
613.363	2.98
613.697	3.07
614.032	3.1
614.366	2.83
614.7	3.28
615.035	3.02
615.369	3.09
615.703	3.36
616.037	3.07
616.371	2.91
616.705	3.14
617.039	2.98
617.373	3.29
617.707	2.93
618.041	2.98
618.375	2.72
618.709	3.2
619.042	2.94
619.376	3.16
619.71	3.24
620.043	3.35
620.377	3.09
620.71	2.99
621.043	3.15
621.377	2.99
621.71	3.48
622.043	3.45
622.376	3.46
622.709	3.32
623.043	3.11
623.376	3.09
623.709	3.65
624.041	3.23
624.374	3.13
624.707	3.1
625.04	2.9
625.373	3.05
625.705	3.42
626.038	3.29
626.37	3.11
626.703	3.16
627.035	3.18
627.368	3.19
627.7	2.86
628.032	3.05
628.365	3.36
628.697	3.28
629.029	2.93
629.361	3.46
629.693	3.24
630.025	3.28
630.357	3.31
630.689	3.26
631.021	3.31
631.353	3.56
631.684	3.14
632.016	2.95
632.348	3.06
632.679	3.32
633.011	2.98
633.342	3.2
633.674	3.14
634.005	3.43
634.336	3.38
634.668	3.14
634.999	3.17
635.33	3.21
635.661	3.06
635.992	3.24
636.323	3.27
636.654	3.2
636.985	2.99
637.316	3.24
637.647	3.01
637.977	3.19
638.308	3.55
638.639	3.2
638.969	3.43
639.3	3.15
639.63	3.28
639.961	3.02
640.291	2.89
640.622	3.47
640.952	3.53
641.282	2.88
641.612	2.81
641.943	3.35
642.273	2.74
642.603	3.19
642.933	3.53
643.263	3.73
643.592	3.54
643.922	3.36
644.252	3.32
644.582	3.61
644.911	3.14
645.241	3.07
645.571	3.58
645.9	3.37
646.23	3.63
646.559	2.97
646.888	3.57
647.218	3.63
647.547	3.42
647.876	3.23
648.205	3.01
648.534	3.47
648.863	3.64
649.192	3.33
649.521	3.33
649.85	3.41
650.179	3.38
650.508	3.3
650.837	3.55
651.165	3.29
651.494	3.62
651.822	3.41
652.151	2.87
652.479	3.53
652.808	3.34
653.136	3.1
653.465	3.09
653.793	3.4
654.121	3.53
654.449	3.09
654.777	2.76
655.105	2.7
655.433	3.48
655.761	3.63
656.089	3.27
656.417	3.92
656.745	4.16
657.073	3.4
657.4	3.63
657.728	2.93
658.056	3.57
658.383	3.56
658.711	3.99
659.038	3.51
659.365	3.64
659.693	3.59
660.02	3.06
660.347	3.27
660.674	3.26
661.001	3.42
661.329	3.07
661.656	3.03
661.982	3.28
662.309	3.5
662.636	3.53
662.963	3.85
663.29	3.55
663.616	3.39
663.943	3.69
664.27	3.14
664.596	3.44
664.923	3.29
665.249	3.81
665.576	3.3
665.902	3.04
666.228	3.49
666.554	3.64
666.881	3.01
667.207	3.37
667.533	3.42
667.859	3.42
668.185	3.09
668.511	4.3
668.837	3.87
669.162	3.82
669.488	3.07
669.814	3.18
670.139	3.42
670.465	3.86
670.791	2.98
671.116	2.99
671.442	3.15
671.767	3.26
672.092	2.92
672.418	3.23
672.743	3.43
673.068	3.14
673.393	3.77
673.718	2.7
674.043	3.39
674.368	3.77
674.693	3.64
675.018	4.03
675.343	3.66
675.667	3.09
675.992	3.52
676.317	3.14
676.641	3.8
676.966	3.05
677.29	3.27
677.615	3.46
677.939	3.51
678.264	3.21
678.588	3.36
678.912	3.89
679.236	3.39
679.56	3.28
679.885	3.12
680.209	3.76
680.532	3.83
680.856	3.85
681.18	4.36
681.504	3.24
681.828	2.97
682.152	3.95
682.475	3.85
682.799	3.55
683.122	3.2
683.446	3.33
683.769	3.36
684.093	3.37
684.416	3.29
684.739	3.33
685.062	3.87
685.386	3.94
685.709	3.7
686.032	3.69
686.355	3.72
686.678	3.98
687.001	3.84
687.324	3.81
687.646	3.6
687.969	3.89
688.292	4.23
688.614	4.39
688.937	3.71
689.26	3.9
689.582	3.51
689.904	3.96
690.227	4.04
690.549	3.92
690.871	3.08
691.194	3.15
691.516	3.59
691.838	4.63
