Data from 0003_crown_Reflection__1__262.txt Node

Date: Thu Dec 15 18:48:37 CST 2022
User: ToomeyLab
Spectrometer: FLMS14357
Trigger mode: 0
Integration Time (sec): 1.000000E-2
Scans to average: 100
Electric dark correction enabled: true
Nonlinearity correction enabled: false
Boxcar width: 0
XAxis mode: Wavelengths
Number of Pixels in Spectrum: 2048
>>>>>Begin Spectral Data<<<<<
189.047	24.6
189.435	24.6
189.823	24.6
190.211	246.39
190.599	833.81
190.987	283.39
191.375	41.11
191.763	111.18
192.151	-9.7
192.538	93.57
192.926	40.34
193.314	62.39
193.702	-15.12
194.089	-40.58
194.477	-316.96
194.864	94.6
195.252	-80.95
195.639	56.94
196.027	-53.05
196.414	199.59
196.801	-118.58
197.189	92.47
197.576	-28.51
197.963	-124.87
198.351	12.7
198.738	-95.63
199.125	-534.85
199.512	26.94
199.899	-44.55
200.286	-70.61
200.673	17.11
201.06	-27.62
201.447	22.73
201.833	-27.55
202.22	-28.39
202.607	10.08
202.994	-17.44
203.38	28.14
203.767	-15.79
204.154	39.25
204.54	-3.3
204.927	25.81
205.313	9.45
205.699	16.32
206.086	17.59
206.472	6.83
206.858	22.2
207.245	16.52
207.631	-7.43
208.017	22.55
208.403	-94.71
208.789	17.35
209.175	17.19
209.561	-72.88
209.947	-10.62
210.333	-16.61
210.719	-6.09
211.105	11.15
211.491	-15.85
211.876	-21.62
212.262	2.53
212.648	3.97
213.034	16.82
213.419	-13.4
213.805	-37.16
214.19	-47.94
214.576	-96.48
214.961	9.63
215.346	-18.62
215.732	-8.28
216.117	30.56
216.502	-29.3
216.888	-4.65
217.273	15.11
217.658	0.63
218.043	-33.38
218.428	-24.63
218.813	4.86
219.198	-32.7
219.583	-8.1
219.968	-10.39
220.353	-31.59
220.738	-22.41
221.122	-25.48
221.507	-5.66
221.892	-33.15
222.276	-24.62
222.661	-2.67
223.046	-14.91
223.43	7.86
223.815	-2.5
224.199	2.5
224.583	3.89
224.968	-13.48
225.352	-7.19
225.736	7.17
226.121	5.7
226.505	-1.1
226.889	-7.2
227.273	-6.19
227.657	5.29
228.041	5.08
228.425	-1.7
228.809	0.27
229.193	3.34
229.577	3
229.961	4.05
230.344	5.34
230.728	6.5
231.112	6.74
231.495	3.9
231.879	5.86
232.263	4.16
232.646	5.02
233.03	7.22
233.413	4.03
233.797	2.94
234.18	0.44
234.563	5.49
234.946	4.81
235.33	3.78
235.713	5.85
236.096	6.01
236.479	4.81
236.862	3.55
237.245	3.35
237.628	5.9
238.011	5.77
238.394	4.08
238.777	4.25
239.16	5.63
239.543	5.04
239.925	4.32
240.308	2.54
240.691	4.08
241.073	5.02
241.456	4.91
241.838	4.33
242.221	5.31
242.603	5.1
242.986	4.69
243.368	5.46
243.75	5.72
244.133	5.96
244.515	5.31
244.897	4.86
245.279	5.4
245.661	4.79
246.043	5.54
246.425	4.74
246.807	4.33
247.189	4.96
247.571	5.3
247.953	4.89
248.335	5.12
248.717	5.2
249.098	5.23
249.48	5.14
249.862	5.05
250.243	4.88
250.625	4.98
251.006	5.97
251.388	4.71
251.769	4.69
252.151	5.48
252.532	4.74
252.913	4.38
253.295	5.25
253.676	4.55
254.057	5.04
254.438	4.67
254.819	4.74
255.2	5.62
255.581	5.75
255.962	5.49
256.343	4.54
256.724	4.65
257.105	4.59
257.486	3.64
257.867	3.29
258.247	4.59
258.628	4.62
259.009	3.82
259.389	3.62
259.77	3.69
260.15	4.79
260.531	4.97
260.911	4.62
261.292	4.7
261.672	4.56
262.052	4.64
262.432	4.45
262.813	4.75
263.193	4.71
263.573	4.03
263.953	3.91
264.333	4.72
264.713	4.31
265.093	4.7
265.473	3.67
265.853	4.23
266.233	4.17
266.612	3.25
266.992	4.73
267.372	5.17
267.752	4.64
268.131	4.32
268.511	4.8
268.89	4.89
269.27	3.9
269.649	4.37
270.029	4.12
270.408	3.6
270.787	4.7
271.167	4.17
271.546	4.74
271.925	4.15
272.304	4.32
272.683	3.78
273.062	3.97
273.441	4.08
273.82	4.18
274.199	4.35
274.578	4.39
274.957	3.95
275.336	4.6
275.715	4.63
276.093	4.67
276.472	4.03
276.851	4.43
277.229	4.22
277.608	3.87
277.986	4.26
278.365	4.54
278.743	4.37
279.122	3.87
279.5	3.92
279.878	3.5
280.257	4.05
280.635	3.98
281.013	3.22
281.391	3.99
281.769	4.45
282.147	3.98
282.525	3.16
282.903	3.63
283.281	4.28
283.659	4.28
284.037	3.91
284.415	3.95
284.792	4.15
285.17	3.58
285.548	4.03
285.925	4.04
286.303	4.05
286.68	4.01
287.058	3.85
287.435	3.93
287.813	3.86
288.19	4.2
288.567	4.03
288.945	3.88
289.322	4.23
289.699	4.2
290.076	4.09
290.453	3.59
290.83	3.74
291.207	3.69
291.584	3.87
291.961	3.7
292.338	3.69
292.715	3.79
293.092	4.19
293.469	3.77
293.845	3.78
294.222	4.09
294.599	3.35
294.975	3.53
295.352	3.57
295.728	3.61
296.105	3.77
296.481	3.87
296.858	3.94
297.234	3.2
297.61	3.9
297.986	4.09
298.363	3.82
298.739	3.84
299.115	3.77
299.491	3.79
299.867	3.76
300.243	3.56
300.619	3.59
300.995	3.75
301.371	3.84
301.746	4.09
302.122	3.57
302.498	3.24
302.874	3.93
303.249	3.65
303.625	3.29
304	3.69
304.376	3.73
304.751	4.1
305.127	3.49
305.502	3.68
305.878	3.54
306.253	3.04
306.628	3.72
307.003	3.6
307.378	3.65
307.754	3.6
308.129	3.22
308.504	3.78
308.879	3.42
309.254	3.59
309.629	3.2
310.003	3.29
310.378	3.9
310.753	3.64
311.128	3.58
311.502	3.53
311.877	3.37
312.252	3.58
312.626	3.72
313.001	3.79
313.375	3.66
313.75	3.75
314.124	3.63
314.498	3.63
314.873	2.9
315.247	3.69
315.621	3.34
315.995	3.71
316.369	3.24
316.743	3.84
317.117	3.43
317.491	3.57
317.865	2.93
318.239	3.78
318.613	2.97
318.987	3.06
319.361	3.2
319.734	3.46
320.108	3.36
320.482	3.74
320.855	2.9
321.229	2.97
321.602	3.41
321.976	2.63
322.349	4.42
322.723	3.58
323.096	3.27
323.469	3.03
323.843	3.27
324.216	3.65
324.589	3.49
324.962	3.18
325.335	3.04
325.708	3.64
326.081	3.58
326.454	3.56
326.827	3.63
327.2	3.06
327.573	3.79
327.945	3.11
328.318	3.1
328.691	3.54
329.063	3.51
329.436	3.11
329.809	3.56
330.181	3.73
330.553	3.43
330.926	3.68
331.298	3.01
331.671	3.64
332.043	3.45
332.415	3.46
332.787	3.89
333.159	3.47
333.532	3.96
333.904	3.73
334.276	3.53
334.648	3.5
335.02	3.44
335.391	3.35
335.763	3.51
336.135	3.45
336.507	3.16
336.879	3
337.25	3.5
337.622	3.46
337.993	3.34
338.365	3.44
338.736	3.38
339.108	3.49
339.479	3.77
339.851	3.65
340.222	3.68
340.593	2.96
340.964	3.92
341.336	3.34
341.707	3.08
342.078	3.65
342.449	3.32
342.82	3.71
343.191	3.66
343.562	3.62
343.933	3.37
344.303	3.6
344.674	3.4
345.045	3.66
345.416	3.93
345.786	3.13
346.157	3.53
346.527	3.77
346.898	3.29
347.268	3.54
347.639	3.34
348.009	3.52
348.38	3.36
348.75	3.63
349.12	3.43
349.49	3.49
349.861	3.73
350.231	3.38
350.601	3.54
350.971	3.2
351.341	3.64
351.711	3.71
352.081	3.34
352.45	3.12
352.82	3.31
353.19	3.57
353.56	3.36
353.929	3.5
354.299	3.55
354.669	3.89
355.038	3.54
355.408	3.81
355.777	4.1
356.147	3.57
356.516	3.41
356.885	3.53
357.254	3.44
357.624	2.85
357.993	3.85
358.362	3.78
358.731	3.88
359.1	3.66
359.469	3.91
359.838	3.81
360.207	3.74
360.576	4.11
360.945	4.11
361.314	3.72
361.682	3.42
362.051	3.54
362.42	3.68
362.788	4.03
363.157	3.72
363.525	3.71
363.894	3.89
364.262	3.75
364.631	4.01
364.999	3.84
365.367	3.84
365.735	3.77
366.104	3.64
366.472	3.96
366.84	3.96
367.208	3.97
367.576	3.77
367.944	3.98
368.312	3.95
368.68	3.72
369.048	3.98
369.416	3.72
369.783	3.62
370.151	4.01
370.519	4.05
370.886	3.75
371.254	4.03
371.621	3.91
371.989	4.09
372.356	3.76
372.724	3.89
373.091	3.69
373.458	3.81
373.826	3.84
374.193	3.89
374.56	3.82
374.927	3.58
375.294	4.13
375.661	3.82
376.028	3.97
376.395	4.18
376.762	3.7
377.129	3.82
377.496	3.77
377.863	3.86
378.229	4.07
378.596	3.91
378.963	4.05
379.329	4.02
379.696	3.81
380.062	3.87
380.429	3.76
380.795	4.21
381.161	3.79
381.528	3.73
381.894	3.66
382.26	4.04
382.626	3.87
382.993	4.12
383.359	3.75
383.725	3.51
384.091	4.05
384.457	3.66
384.823	4.1
385.188	4.04
385.554	3.92
385.92	3.91
386.286	3.94
386.651	3.89
387.017	4.23
387.383	3.92
387.748	4.07
388.114	4.07
388.479	3.79
388.845	3.84
389.21	4.23
389.575	4.13
389.94	4.3
390.306	4.1
390.671	4.13
391.036	3.83
391.401	4.25
391.766	3.98
392.131	4.43
392.496	4.03
392.861	4.12
393.226	3.99
393.591	4.06
393.956	4.19
394.32	4.12
394.685	4.08
395.05	4.3
395.414	4.06
395.779	4.29
396.143	4.09
396.508	3.86
396.872	3.99
397.236	4.28
397.601	4.36
397.965	4.21
398.329	4.01
398.694	3.94
399.058	4.11
399.422	4.19
399.786	4.12
400.15	4.02
400.514	4.14
400.878	4.22
401.242	4.28
401.605	4.2
401.969	4.17
402.333	4.21
402.697	4.5
403.06	3.99
403.424	4.26
403.787	4.14
404.151	4.23
404.514	4.24
404.878	4.35
405.241	4.21
405.604	4.31
405.968	4.2
406.331	4.28
406.694	4.37
407.057	4.14
407.42	4.21
407.783	4.25
408.146	4.22
408.509	4.26
408.872	4.34
409.235	4.53
409.598	4.36
409.961	4.73
410.323	4.49
410.686	4.21
411.049	4.26
411.411	4.21
411.774	4.38
412.136	4.18
412.499	4.48
412.861	3.87
413.223	4.12
413.586	4.47
413.948	4.42
414.31	4.22
414.672	4.36
415.035	4.53
415.397	4.09
415.759	4.26
416.121	4.24
416.483	4.38
416.845	4.31
417.206	4.32
417.568	4.18
417.93	4.32
418.292	4.22
418.653	4.24
419.015	4.27
419.377	4.25
419.738	4.48
420.1	4.29
420.461	4.2
420.822	4.34
421.184	4.3
421.545	4.31
421.906	4.17
422.267	4.33
422.629	4.2
422.99	4.26
423.351	4.34
423.712	4.36
424.073	4.35
424.434	4.44
424.795	4.33
425.155	4.19
425.516	4.26
425.877	4.33
426.238	4.23
426.598	4.24
426.959	4.44
427.32	4.34
427.68	4.39
428.041	4.38
428.401	4.29
428.761	4.5
429.122	4.43
429.482	4.43
429.842	4.18
430.202	4.46
430.563	4.42
430.923	4.5
431.283	4.49
431.643	4.57
432.003	4.39
432.363	4.54
432.722	4.43
433.082	4.31
433.442	4.46
433.802	4.32
434.161	4.43
434.521	4.47
434.881	4.42
435.24	4.32
435.6	4.49
435.959	4.5
436.319	4.36
436.678	4.53
437.037	4.33
437.396	4.43
437.756	4.29
438.115	4.35
438.474	4.47
438.833	4.46
439.192	4.45
439.551	4.26
439.91	4.49
440.269	4.36
440.628	4.39
440.987	4.41
441.345	4.45
441.704	4.4
442.063	4.43
442.421	4.41
442.78	4.47
443.138	4.47
443.497	4.46
443.855	4.52
444.214	4.41
444.572	4.67
444.93	4.38
445.288	4.48
445.647	4.58
446.005	4.5
446.363	4.36
446.721	4.48
447.079	4.39
447.437	4.51
447.795	4.47
448.153	4.37
448.51	4.49
448.868	4.33
449.226	4.45
449.584	4.4
449.941	4.43
450.299	4.52
450.656	4.43
451.014	4.62
451.371	4.58
451.729	4.53
452.086	4.55
452.443	4.71
452.801	4.49
453.158	4.65
453.515	4.41
453.872	4.51
454.229	4.39
454.586	4.31
454.943	4.45
455.3	4.58
455.657	4.47
456.014	4.67
456.371	4.52
456.727	4.64
457.084	4.7
457.441	4.69
457.797	4.51
458.154	4.51
458.51	4.5
458.867	4.6
459.223	4.58
459.58	4.62
459.936	4.63
460.292	4.5
460.648	4.42
461.005	4.49
461.361	4.3
461.717	4.46
462.073	4.55
462.429	4.57
462.785	4.6
463.141	4.63
463.496	4.51
463.852	4.77
464.208	4.52
464.564	4.63
464.919	4.63
465.275	4.63
465.631	4.78
465.986	4.71
466.342	4.53
466.697	4.66
467.052	4.91
467.408	4.73
467.763	4.6
468.118	4.52
468.473	4.65
468.829	4.57
469.184	4.63
469.539	4.51
469.894	4.68
470.249	4.56
470.603	4.77
470.958	4.84
471.313	4.66
471.668	4.89
472.023	4.71
472.377	4.7
472.732	4.83
473.086	4.64
473.441	4.67
473.795	4.85
474.15	4.62
474.504	4.68
474.859	4.5
475.213	4.69
475.567	4.69
475.921	4.76
476.275	4.8
476.63	4.74
476.984	4.53
477.338	4.78
477.692	4.54
478.045	4.66
478.399	4.7
478.753	4.64
479.107	4.85
479.461	4.6
479.814	4.61
480.168	4.71
480.521	4.73
480.875	4.63
481.228	4.7
481.582	4.57
481.935	4.8
482.289	4.7
482.642	4.92
482.995	4.63
483.348	4.64
483.701	4.73
484.055	4.65
484.408	4.58
484.761	4.44
485.114	4.39
485.466	4.34
485.819	4.36
486.172	4.47
486.525	4.5
486.878	4.57
487.23	4.62
487.583	4.71
487.936	4.57
488.288	4.53
488.641	4.46
488.993	4.42
489.345	4.48
489.698	4.48
490.05	4.48
490.402	4.54
490.754	4.61
491.107	4.61
491.459	4.74
491.811	4.64
492.163	4.6
492.515	4.61
492.866	4.51
493.218	4.46
493.57	4.52
493.922	4.59
494.274	4.78
494.625	4.75
494.977	4.73
495.328	4.87
495.68	4.68
496.031	4.82
496.383	4.76
496.734	4.67
497.086	4.86
497.437	4.83
497.788	4.76
498.139	4.7
498.49	4.67
498.842	4.79
499.193	4.71
499.544	4.79
499.894	4.81
500.245	4.78
500.596	4.83
500.947	4.81
501.298	4.72
501.648	4.72
501.999	4.91
502.35	4.74
502.7	4.9
503.051	4.86
503.401	4.85
503.752	4.64
504.102	4.77
504.452	4.74
504.803	4.7
505.153	4.84
505.503	4.82
505.853	4.96
506.203	4.81
506.553	4.81
506.903	4.81
507.253	4.81
507.603	4.8
507.953	4.84
508.303	4.91
508.652	4.63
509.002	4.83
509.352	4.78
509.701	4.71
510.051	4.79
510.4	4.82
510.75	4.72
511.099	4.64
511.449	4.74
511.798	4.69
512.147	4.6
512.496	4.73
512.846	4.79
513.195	4.66
513.544	4.88
513.893	4.85
514.242	4.74
514.591	4.72
514.939	4.82
515.288	4.81
515.637	4.89
515.986	4.81
516.334	4.82
516.683	4.85
517.032	4.75
517.38	4.69
517.729	4.72
518.077	4.8
518.426	4.79
518.774	4.74
519.122	4.7
519.47	4.68
519.819	4.73
520.167	4.66
520.515	4.68
520.863	4.66
521.211	4.74
521.559	4.76
521.907	4.78
522.255	4.73
522.602	4.81
522.95	4.83
523.298	4.84
523.645	4.89
523.993	4.74
524.341	4.85
524.688	4.8
525.036	4.73
525.383	4.74
525.73	4.66
526.078	4.83
526.425	4.78
526.772	4.73
527.119	4.66
527.466	4.73
527.814	4.66
528.161	4.81
528.508	4.74
528.854	4.71
529.201	4.56
529.548	4.59
529.895	4.56
530.242	4.48
530.588	4.5
530.935	4.61
531.282	4.59
531.628	4.7
531.975	4.65
532.321	4.75
532.667	4.76
533.014	4.72
533.36	4.78
533.706	4.71
534.052	4.74
534.399	4.65
534.745	4.58
535.091	4.56
535.437	4.62
535.783	4.71
536.129	4.72
536.474	4.79
536.82	4.86
537.166	4.71
537.512	4.79
537.857	4.74
538.203	4.66
538.549	4.65
538.894	4.74
539.239	4.79
539.585	4.8
539.93	4.84
540.276	4.78
540.621	4.88
540.966	4.67
541.311	4.87
541.656	4.72
542.001	4.63
542.346	4.6
542.691	4.61
543.036	4.5
543.381	4.57
543.726	4.67
544.071	4.62
544.415	4.71
544.76	4.72
545.105	4.77
545.449	4.7
545.794	4.75
546.138	4.76
546.483	4.94
546.827	4.7
547.171	4.82
547.516	4.82
547.86	4.75
548.204	4.74
548.548	4.7
548.892	4.77
549.236	4.76
549.58	4.83
549.924	4.91
550.268	4.83
550.612	4.82
550.956	4.97
551.3	5.06
551.643	4.93
551.987	4.93
552.33	4.92
552.674	4.69
553.017	4.81
553.361	4.85
553.704	4.89
554.048	4.73
554.391	4.85
554.734	4.74
555.077	4.91
555.42	4.73
555.764	4.78
556.107	4.91
556.45	4.91
556.793	4.96
557.135	4.76
557.478	4.93
557.821	4.89
558.164	4.84
558.507	4.76
558.849	4.86
559.192	4.91
559.534	4.82
559.877	4.86
560.219	4.79
560.562	4.85
560.904	5.03
561.246	4.83
561.589	5.09
561.931	4.62
562.273	4.57
562.615	4.77
562.957	4.8
563.299	4.94
563.641	4.76
563.983	4.62
564.325	4.82
564.667	4.83
565.008	4.85
565.35	4.73
565.692	4.83
566.033	4.69
566.375	4.86
566.716	4.71
567.058	4.84
567.399	4.93
567.741	4.83
568.082	4.82
568.423	4.74
568.764	4.78
569.105	4.77
569.447	4.75
569.788	4.8
570.129	4.78
570.47	4.81
570.811	4.68
571.151	4.67
571.492	4.75
571.833	4.69
572.174	4.74
572.514	4.72
572.855	5.02
573.195	4.73
573.536	4.89
573.876	4.6
574.217	4.7
574.557	4.74
574.898	4.77
575.238	4.76
575.578	4.8
575.918	4.73
576.258	4.96
576.598	4.61
576.938	4.65
577.278	4.79
577.618	4.79
577.958	5.03
578.298	4.7
578.638	4.78
578.977	4.91
579.317	4.82
579.657	4.81
579.996	4.79
580.336	4.88
580.675	4.75
581.014	4.72
581.354	4.68
581.693	4.84
582.032	5.05
582.372	4.89
582.711	4.83
583.05	4.83
583.389	4.94
583.728	5.03
584.067	4.56
584.406	4.83
584.745	4.84
585.083	4.75
585.422	5.05
585.761	5.02
586.1	4.95
586.438	4.71
586.777	4.9
587.115	4.82
587.454	4.59
587.792	4.92
588.13	4.77
588.469	4.73
588.807	5.08
589.145	4.75
589.483	4.54
589.821	4.95
590.159	4.82
590.497	4.83
590.835	4.87
591.173	4.98
591.511	4.97
591.849	5.02
592.187	4.67
592.524	5.04
592.862	4.86
593.2	4.97
593.537	4.76
593.875	4.76
594.212	4.64
594.55	4.83
594.887	4.87
595.224	4.98
595.561	4.88
595.899	4.9
596.236	4.94
596.573	4.64
596.91	4.83
597.247	4.88
597.584	4.77
597.921	4.69
598.258	4.82
598.594	4.66
598.931	4.58
599.268	4.6
599.604	4.83
599.941	4.78
600.277	4.93
600.614	4.97
600.95	4.92
601.287	4.6
601.623	4.53
601.959	5.12
602.296	5.09
602.632	4.73
602.968	4.57
603.304	4.82
603.64	4.82
603.976	4.48
604.312	4.73
604.648	4.69
604.984	4.75
605.319	4.81
605.655	4.77
605.991	4.66
606.326	4.6
606.662	4.47
606.998	4.78
607.333	4.74
607.668	4.77
608.004	4.81
608.339	4.54
608.674	4.66
609.01	4.83
609.345	4.6
609.68	4.57
610.015	5.1
610.35	4.97
610.685	4.48
611.02	4.63
611.355	4.73
611.689	4.89
612.024	4.68
612.359	4.77
612.694	5.02
613.028	4.64
613.363	4.55
613.697	4.78
614.032	4.87
614.366	4.63
614.7	4.82
615.035	4.74
615.369	4.92
615.703	4.73
616.037	4.52
616.371	4.77
616.705	4.8
617.039	4.64
617.373	4.75
617.707	4.85
618.041	4.66
618.375	4.38
618.709	4.8
619.042	4.85
619.376	4.68
619.71	4.95
620.043	4.83
620.377	4.77
620.71	4.88
621.043	4.89
621.377	4.77
621.71	4.88
622.043	4.85
622.376	4.63
622.709	5.27
623.043	4.53
623.376	4.64
623.709	4.99
624.041	4.68
624.374	5.03
624.707	4.84
625.04	4.75
625.373	5.05
625.705	5.33
626.038	4.52
626.37	4.53
626.703	4.95
627.035	4.8
627.368	5.01
627.7	4.87
628.032	4.77
628.365	5.1
628.697	4.98
629.029	4.88
629.361	4.99
629.693	4.97
630.025	4.64
630.357	4.83
630.689	4.76
631.021	4.96
631.353	4.77
631.684	4.77
632.016	4.44
632.348	4.58
632.679	4.65
633.011	4.73
633.342	4.58
633.674	4.56
634.005	4.67
634.336	5.05
634.668	4.69
634.999	4.73
635.33	4.74
635.661	4.71
635.992	5.01
636.323	4.8
636.654	4.92
636.985	4.69
637.316	4.65
637.647	4.95
637.977	4.65
638.308	4.73
638.639	4.84
638.969	4.53
639.3	5.23
639.63	4.44
639.961	4.8
640.291	4.6
640.622	4.72
640.952	5.23
641.282	4.59
641.612	4.87
641.943	4.6
642.273	4.85
642.603	4.68
642.933	5.03
643.263	4.94
643.592	5.16
643.922	5.19
644.252	4.97
644.582	4.74
644.911	4.55
645.241	4.55
645.571	4.83
645.9	4.66
646.23	4.93
646.559	4.64
646.888	4.75
647.218	4.74
647.547	4.77
647.876	4.92
648.205	4.48
648.534	4.79
648.863	4.51
649.192	4.67
649.521	4.91
649.85	5.09
650.179	5.02
650.508	4.59
650.837	5.16
651.165	4.57
651.494	4.75
651.822	5.29
652.151	4.39
652.479	4.83
652.808	4.93
653.136	4.21
653.465	4.63
653.793	4.96
654.121	4.57
654.449	4.34
654.777	4.26
655.105	4.7
655.433	5.14
655.761	4.89
656.089	4.93
656.417	4.97
656.745	5.08
657.073	4.57
657.4	4.49
657.728	4.28
658.056	4.69
658.383	4.85
658.711	4.68
659.038	5.27
659.365	5.02
659.693	4.85
660.02	4.88
660.347	4.92
660.674	4.76
661.001	4.63
661.329	4.59
661.656	4.66
661.982	4.22
662.309	4.68
662.636	4.52
662.963	4.9
663.29	5
663.616	4.63
663.943	5.13
664.27	4.52
664.596	4.49
664.923	5.12
665.249	5.12
665.576	4.42
665.902	4.65
666.228	5.06
666.554	4.7
666.881	4.5
667.207	5.25
667.533	4.86
667.859	4.57
668.185	5.05
668.511	5.43
668.837	4.75
669.162	4.58
669.488	4.48
669.814	5.2
670.139	4.31
670.465	4.69
670.791	4.57
671.116	4.73
671.442	4.41
671.767	5.04
672.092	4.45
672.418	4.6
672.743	5.03
673.068	4.84
673.393	4.73
673.718	3.92
674.043	4.71
674.368	4.76
674.693	5.33
675.018	4.9
675.343	4.93
675.667	4.48
675.992	4.46
676.317	4.09
676.641	4.74
676.966	5.56
677.29	4.87
677.615	4.16
677.939	5.3
678.264	4.57
678.588	5.27
678.912	5.12
679.236	4.83
679.56	4.79
679.885	4.93
680.209	5.25
680.532	5.34
680.856	5.08
681.18	5.84
681.504	5.13
681.828	4.3
682.152	4.75
682.475	5.26
682.799	4.48
683.122	4.79
683.446	4.64
683.769	5.24
684.093	5.53
684.416	4.83
684.739	4.96
685.062	5.13
685.386	4.76
685.709	4.82
686.032	5.18
686.355	4.99
686.678	4.82
687.001	4.99
687.324	4.97
687.646	4.46
687.969	4.42
688.292	4.31
688.614	5.14
688.937	4.93
689.26	5.57
689.582	5.62
689.904	5.72
690.227	5.13
690.549	4.71
690.871	4.8
691.194	4.65
691.516	4.6
691.838	5.46
