Data from 0003_crown_Reflection__3__264.txt Node

Date: Thu Dec 15 18:48:56 CST 2022
User: ToomeyLab
Spectrometer: FLMS14357
Trigger mode: 0
Integration Time (sec): 1.000000E-2
Scans to average: 100
Electric dark correction enabled: true
Nonlinearity correction enabled: false
Boxcar width: 0
XAxis mode: Wavelengths
Number of Pixels in Spectrum: 2048
>>>>>Begin Spectral Data<<<<<
189.047	-119.01
189.435	-119.01
189.823	-119.01
190.211	191.73
190.599	258.06
190.987	-165.21
191.375	44.79
191.763	564.06
192.151	96.64
192.538	40.07
192.926	125.83
193.314	6.43
193.702	-19.62
194.089	-105.1
194.477	-353.96
194.864	79.87
195.252	148.81
195.639	82.18
196.027	-96.27
196.414	278.63
196.801	225.65
197.189	106.03
197.576	36.91
197.963	-370.42
198.351	67.29
198.738	-80.77
199.125	-557.68
199.512	20.19
199.899	-111.09
200.286	-74.01
200.673	8.59
201.06	-30.63
201.447	-8.45
201.833	-25.75
202.22	-6.38
202.607	-70.31
202.994	-14.23
203.38	-35.26
203.767	-40.65
204.154	23.42
204.54	1.33
204.927	-15.47
205.313	22.26
205.699	0.87
206.086	-30.19
206.472	24.58
206.858	-20.52
207.245	-56.64
207.631	-6.59
208.017	23.41
208.403	-68.42
208.789	6.55
209.175	0.4
209.561	-88.76
209.947	-54.87
210.333	-38.96
210.719	7.04
211.105	5.56
211.491	-9.86
211.876	-16.59
212.262	36.31
212.648	17.7
213.034	-20.52
213.419	-20.84
213.805	-58.68
214.19	-60.13
214.576	-1.49
214.961	-4.2
215.346	-32.6
215.732	-19.59
216.117	-3.47
216.502	-46.16
216.888	-10.3
217.273	-12.55
217.658	-22.87
218.043	-28.72
218.428	-21.96
218.813	-3.98
219.198	-46.94
219.583	-24.99
219.968	-22.33
220.353	-52.45
220.738	-25.06
221.122	-35.02
221.507	-18.34
221.892	-51.39
222.276	-12.93
222.661	-29.69
223.046	-26.79
223.43	2.83
223.815	1.54
224.199	-1.74
224.583	-6.62
224.968	6.9
225.352	-15.23
225.736	12.54
226.121	-2.22
226.505	-2.35
226.889	2.62
227.273	-7.53
227.657	-0.49
228.041	-0.3
228.425	-2.95
228.809	0.95
229.193	1.21
229.577	1.37
229.961	1.07
230.344	2.09
230.728	2.99
231.112	2.76
231.495	0.76
231.879	1.28
232.263	2.45
232.646	0.77
233.03	2.39
233.413	1.48
233.797	1.02
234.18	-0.13
234.563	3.52
234.946	1.23
235.33	1.23
235.713	1
236.096	2.21
236.479	2.62
236.862	-0.47
237.245	0.2
237.628	2.36
238.011	0.92
238.394	1.68
238.777	0.31
239.16	1.19
239.543	1.72
239.925	0.59
240.308	0.54
240.691	1.19
241.073	1.44
241.456	1.25
241.838	0.5
242.221	2.19
242.603	2.4
242.986	2.49
243.368	2.26
243.75	2.48
244.133	2.82
244.515	2.51
244.897	2.43
245.279	1.5
245.661	2.33
246.043	2.07
246.425	1.99
246.807	1.91
247.189	2.54
247.571	2.31
247.953	2.25
248.335	2.45
248.717	2.61
249.098	2.54
249.48	2.64
249.862	2.58
250.243	2.66
250.625	2.85
251.006	3.12
251.388	2.68
251.769	1.87
252.151	3.14
252.532	2.02
252.913	2.26
253.295	2.28
253.676	2.56
254.057	2.16
254.438	1.62
254.819	2.92
255.2	3.07
255.581	3.11
255.962	2.03
256.343	3.35
256.724	2.18
257.105	1.92
257.486	0.99
257.867	2.69
258.247	2.08
258.628	2.49
259.009	1.69
259.389	1.58
259.77	1.66
260.15	2.56
260.531	2.37
260.911	2.13
261.292	2.43
261.672	2.44
262.052	2.41
262.432	2.18
262.813	2.48
263.193	1.89
263.573	1.92
263.953	2.04
264.333	1.84
264.713	2.24
265.093	1.49
265.473	1.83
265.853	2.33
266.233	2.7
266.612	1.66
266.992	2.35
267.372	1.91
267.752	2.67
268.131	2.08
268.511	2.28
268.89	2.62
269.27	2.09
269.649	2.15
270.029	2.42
270.408	2.02
270.787	2.61
271.167	2.15
271.546	2.76
271.925	2.7
272.304	2.1
272.683	1.88
273.062	2.18
273.441	1.72
273.82	2.18
274.199	1.93
274.578	2.43
274.957	2.04
275.336	2.53
275.715	1.98
276.093	1.78
276.472	1.47
276.851	2.6
277.229	1.82
277.608	1.82
277.986	1.86
278.365	2.47
278.743	2.32
279.122	2.15
279.5	1.5
279.878	1.39
280.257	1.79
280.635	1.63
281.013	1.5
281.391	1.87
281.769	2.08
282.147	2.34
282.525	1.94
282.903	1.95
283.281	2.72
283.659	2.08
284.037	1.88
284.415	1.9
284.792	2.21
285.17	1.86
285.548	2.17
285.925	1.88
286.303	2.47
286.68	2.11
287.058	2.44
287.435	1.88
287.813	2.19
288.19	1.81
288.567	2.14
288.945	1.95
289.322	2.31
289.699	2.42
290.076	2.04
290.453	2.14
290.83	2.23
291.207	1.84
291.584	2.45
291.961	1.84
292.338	2.11
292.715	1.9
293.092	2.63
293.469	2
293.845	2.47
294.222	2.93
294.599	2.07
294.975	1.27
295.352	2.23
295.728	2.14
296.105	2.21
296.481	2.29
296.858	2.24
297.234	1.82
297.61	1.99
297.986	2.94
298.363	2.21
298.739	2.37
299.115	2.53
299.491	2.83
299.867	2.24
300.243	1.76
300.619	2.35
300.995	2.33
301.371	2.71
301.746	2.23
302.122	2.07
302.498	2.09
302.874	2.37
303.249	2.26
303.625	1.98
304	2.47
304.376	2.57
304.751	2.28
305.127	1.99
305.502	2.28
305.878	2.28
306.253	2.23
306.628	2.3
307.003	2.26
307.378	2.28
307.754	2.36
308.129	2.63
308.504	2.14
308.879	2.06
309.254	2.57
309.629	2.19
310.003	2.45
310.378	2.44
310.753	2.21
311.128	2.05
311.502	2.11
311.877	2.3
312.252	2.51
312.626	2.59
313.001	2.44
313.375	2.44
313.75	2.38
314.124	2.45
314.498	2.53
314.873	2.34
315.247	2.43
315.621	2.04
315.995	2.27
316.369	2.02
316.743	2.34
317.117	2.02
317.491	2.2
317.865	2.26
318.239	2.27
318.613	2.69
318.987	2.42
319.361	2.12
319.734	2.65
320.108	2.05
320.482	2.81
320.855	2.11
321.229	2.21
321.602	2.22
321.976	1.64
322.349	3.29
322.723	2.57
323.096	2.02
323.469	2.13
323.843	1.91
324.216	2.52
324.589	2.49
324.962	1.89
325.335	2.19
325.708	2.37
326.081	2.03
326.454	2.44
326.827	2.54
327.2	1.98
327.573	2.48
327.945	2.32
328.318	2.33
328.691	2.33
329.063	2.31
329.436	2.18
329.809	2.22
330.181	3.19
330.553	2.52
330.926	2.93
331.298	2.16
331.671	2.73
332.043	2.71
332.415	2.47
332.787	2.61
333.159	2.01
333.532	2.36
333.904	2.63
334.276	2.82
334.648	2.4
335.02	2.19
335.391	2.24
335.763	2.63
336.135	2.81
336.507	1.94
336.879	2.01
337.25	2.55
337.622	2.25
337.993	2.66
338.365	2.29
338.736	2.4
339.108	2.55
339.479	2.27
339.851	2.24
340.222	2.26
340.593	2.23
340.964	2.56
341.336	1.94
341.707	2.52
342.078	2.46
342.449	2.22
342.82	2.93
343.191	2.22
343.562	2.76
343.933	2.31
344.303	2.77
344.674	2.23
345.045	2.5
345.416	2.82
345.786	2.2
346.157	2.47
346.527	2.7
346.898	2.08
347.268	2.4
347.639	2.48
348.009	2.37
348.38	2.3
348.75	3.04
349.12	2.41
349.49	2.67
349.861	2.6
350.231	2.47
350.601	2.69
350.971	2.28
351.341	2.82
351.711	2.58
352.081	2.12
352.45	2.28
352.82	2.25
353.19	2.36
353.56	2.55
353.929	2.3
354.299	3.17
354.669	2.63
355.038	2.98
355.408	2.4
355.777	2.56
356.147	2.64
356.516	2.3
356.885	2.43
357.254	2.25
357.624	1.85
357.993	2.31
358.362	2.63
358.731	2.72
359.1	2.44
359.469	2.88
359.838	2.77
360.207	2.43
360.576	2.47
360.945	2.8
361.314	2.7
361.682	2.29
362.051	2.32
362.42	2.5
362.788	2.65
363.157	2.47
363.525	2.45
363.894	2.56
364.262	2.66
364.631	2.67
364.999	2.62
365.367	2.52
365.735	2.45
366.104	2.53
366.472	2.38
366.84	2.77
367.208	2.9
367.576	2.69
367.944	2.54
368.312	2.47
368.68	2.77
369.048	2.48
369.416	2.28
369.783	2.67
370.151	2.87
370.519	3.1
370.886	2.61
371.254	2.64
371.621	2.81
371.989	2.69
372.356	2.77
372.724	2.61
373.091	2.45
373.458	2.67
373.826	3.03
374.193	2.48
374.56	2.56
374.927	2.42
375.294	2.97
375.661	2.68
376.028	2.56
376.395	2.83
376.762	2.33
377.129	2.24
377.496	2.51
377.863	2.92
378.229	3.02
378.596	3.1
378.963	2.67
379.329	2.74
379.696	2.38
380.062	2.61
380.429	2.29
380.795	3.01
381.161	2.37
381.528	2.52
381.894	2.63
382.26	2.52
382.626	2.82
382.993	3.01
383.359	2.44
383.725	2.63
384.091	2.57
384.457	2.55
384.823	2.88
385.188	2.79
385.554	2.63
385.92	2.64
386.286	2.57
386.651	2.84
387.017	2.85
387.383	2.68
387.748	2.84
388.114	2.93
388.479	2.59
388.845	2.57
389.21	2.84
389.575	3.01
389.94	2.81
390.306	2.91
390.671	2.63
391.036	2.73
391.401	2.82
391.766	2.6
392.131	2.92
392.496	2.67
392.861	2.63
393.226	2.78
393.591	2.97
393.956	2.92
394.32	2.87
394.685	2.86
395.05	2.67
395.414	3
395.779	3.06
396.143	2.77
396.508	2.88
396.872	2.77
397.236	3.09
397.601	3.22
397.965	2.84
398.329	3.17
398.694	2.88
399.058	2.85
399.422	2.7
399.786	2.66
400.15	2.82
400.514	2.79
400.878	2.76
401.242	2.99
401.605	2.95
401.969	2.85
402.333	2.82
402.697	3.08
403.06	3
403.424	2.95
403.787	2.87
404.151	2.72
404.514	2.94
404.878	2.92
405.241	2.92
405.604	2.82
405.968	3.05
406.331	2.99
406.694	3.03
407.057	2.9
407.42	2.8
407.783	2.91
408.146	2.99
408.509	3.01
408.872	3.04
409.235	2.9
409.598	2.71
409.961	2.98
410.323	2.82
410.686	2.91
411.049	2.92
411.411	2.95
411.774	2.89
412.136	2.96
412.499	3.11
412.861	2.71
413.223	2.75
413.586	3.14
413.948	3.24
414.31	3.27
414.672	2.75
415.035	2.93
415.397	3.05
415.759	2.76
416.121	3.13
416.483	2.96
416.845	2.99
417.206	3.02
417.568	2.95
417.93	2.97
418.292	2.84
418.653	2.7
419.015	2.95
419.377	2.86
419.738	3.11
420.1	3.05
420.461	2.89
420.822	3.05
421.184	2.93
421.545	3.04
421.906	3.02
422.267	2.96
422.629	2.96
422.99	2.94
423.351	2.87
423.712	3.01
424.073	3.06
424.434	3.02
424.795	3.03
425.155	2.92
425.516	2.94
425.877	2.98
426.238	2.95
426.598	3.03
426.959	3.02
427.32	3
427.68	3.05
428.041	3.14
428.401	2.99
428.761	3.11
429.122	3.07
429.482	3.15
429.842	3.01
430.202	3.18
430.563	3.16
430.923	3.11
431.283	3.11
431.643	3.21
432.003	3.25
432.363	3.25
432.722	3.17
433.082	3.01
433.442	3.18
433.802	3.24
434.161	3.12
434.521	3.19
434.881	3.08
435.24	3.09
435.6	3.13
435.959	3.22
436.319	3.08
436.678	3.16
437.037	3.16
437.396	3.14
437.756	3.15
438.115	3.18
438.474	3.2
438.833	3.22
439.192	3.18
439.551	3.09
439.91	3.25
440.269	3.03
440.628	3.05
440.987	3.12
441.345	3.11
441.704	3.17
442.063	3.13
442.421	3.18
442.78	3.23
443.138	3.18
443.497	3.14
443.855	3.26
444.214	3.05
444.572	3.27
444.93	3.06
445.288	3.14
445.647	3.1
446.005	3.16
446.363	3.17
446.721	3.12
447.079	3.08
447.437	3.22
447.795	3.24
448.153	3.22
448.51	3.26
448.868	3.13
449.226	3.24
449.584	3.11
449.941	3.2
450.299	3.12
450.656	3.21
451.014	3.4
451.371	3.29
451.729	3.14
452.086	3.3
452.443	3.37
452.801	3.33
453.158	3.3
453.515	3.2
453.872	3.28
454.229	3.12
454.586	3.14
454.943	3.23
455.3	3.36
455.657	3.22
456.014	3.2
456.371	3.37
456.727	3.4
457.084	3.35
457.441	3.48
457.797	3.41
458.154	3.19
458.51	3.23
458.867	3.24
459.223	3.21
459.58	3.39
459.936	3.26
460.292	3.2
460.648	3.23
461.005	3.27
461.361	3.31
461.717	3.3
462.073	3.41
462.429	3.37
462.785	3.4
463.141	3.48
463.496	3.38
463.852	3.44
464.208	3.41
464.564	3.24
464.919	3.31
465.275	3.39
465.631	3.57
465.986	3.4
466.342	3.21
466.697	3.32
467.052	3.59
467.408	3.43
467.763	3.35
468.118	3.34
468.473	3.4
468.829	3.41
469.184	3.41
469.539	3.3
469.894	3.48
470.249	3.72
470.603	3.56
470.958	3.58
471.313	3.55
471.668	3.56
472.023	3.52
472.377	3.39
472.732	3.55
473.086	3.45
473.441	3.4
473.795	3.69
474.15	3.48
474.504	3.49
474.859	3.29
475.213	3.62
475.567	3.36
475.921	3.5
476.275	3.46
476.63	3.52
476.984	3.49
477.338	3.52
477.692	3.52
478.045	3.48
478.399	3.66
478.753	3.47
479.107	3.49
479.461	3.56
479.814	3.65
480.168	3.47
480.521	3.66
480.875	3.54
481.228	3.55
481.582	3.51
481.935	3.62
482.289	3.49
482.642	3.62
482.995	3.52
483.348	3.4
483.701	3.59
484.055	3.54
484.408	3.56
484.761	3.39
485.114	3.35
485.466	3.36
485.819	3.37
486.172	3.43
486.525	3.41
486.878	3.51
487.23	3.48
487.583	3.59
487.936	3.51
488.288	3.43
488.641	3.5
488.993	3.41
489.345	3.43
489.698	3.47
490.05	3.45
490.402	3.41
490.754	3.51
491.107	3.55
491.459	3.63
491.811	3.54
492.163	3.57
492.515	3.53
492.866	3.45
493.218	3.52
493.57	3.51
493.922	3.54
494.274	3.65
494.625	3.65
494.977	3.61
495.328	3.72
495.68	3.63
496.031	3.68
496.383	3.65
496.734	3.59
497.086	3.78
497.437	3.79
497.788	3.72
498.139	3.71
498.49	3.71
498.842	3.75
499.193	3.53
499.544	3.73
499.894	3.62
500.245	3.71
500.596	3.82
500.947	3.67
501.298	3.71
501.648	3.75
501.999	3.78
502.35	3.53
502.7	3.88
503.051	3.75
503.401	3.82
503.752	3.66
504.102	3.75
504.452	3.62
504.803	3.7
505.153	3.82
505.503	3.75
505.853	3.77
506.203	3.83
506.553	3.74
506.903	3.93
507.253	3.83
507.603	3.77
507.953	3.81
508.303	3.88
508.652	3.69
509.002	3.89
509.352	3.77
509.701	3.77
510.051	3.86
510.4	3.81
510.75	3.78
511.099	3.68
511.449	3.88
511.798	3.78
512.147	3.78
512.496	3.82
512.846	3.85
513.195	3.91
513.544	3.92
513.893	3.8
514.242	3.88
514.591	3.82
514.939	3.9
515.288	3.92
515.637	3.76
515.986	3.88
516.334	3.95
516.683	3.97
517.032	3.87
517.38	3.8
517.729	3.93
518.077	3.78
518.426	3.97
518.774	3.82
519.122	3.87
519.47	3.86
519.819	3.93
520.167	3.82
520.515	3.74
520.863	3.79
521.211	3.86
521.559	3.83
521.907	3.85
522.255	3.84
522.602	3.92
522.95	4.05
523.298	3.92
523.645	3.95
523.993	4.01
524.341	3.89
524.688	3.95
525.036	3.93
525.383	3.96
525.73	3.89
526.078	4.12
526.425	3.93
526.772	3.85
527.119	3.91
527.466	4.01
527.814	3.99
528.161	4.01
528.508	3.98
528.854	3.95
529.201	3.87
529.548	3.89
529.895	3.81
530.242	3.76
530.588	3.84
530.935	3.85
531.282	3.86
531.628	3.93
531.975	3.88
532.321	3.94
532.667	3.99
533.014	4.06
533.36	4.01
533.706	4
534.052	4.06
534.399	3.99
534.745	3.95
535.091	3.89
535.437	3.91
535.783	3.96
536.129	3.92
536.474	4.07
536.82	4.13
537.166	3.97
537.512	4.01
537.857	4.08
538.203	4
538.549	4.02
538.894	4.03
539.239	4.09
539.585	4.11
539.93	4.15
540.276	4.12
540.621	4.16
540.966	4.16
541.311	4.18
541.656	3.95
542.001	4.01
542.346	3.99
542.691	3.97
543.036	3.96
543.381	4.02
543.726	4.03
544.071	4.02
544.415	4.03
544.76	4.07
545.105	4.09
545.449	4.08
545.794	4.05
546.138	4.07
546.483	4.23
546.827	4.13
547.171	4.24
547.516	4.23
547.86	4.15
548.204	4.14
548.548	4.15
548.892	4.21
549.236	4.23
549.58	4.41
549.924	4.32
550.268	4.25
550.612	4.33
550.956	4.31
551.3	4.32
551.643	4.21
551.987	4.4
552.33	4.52
552.674	4.15
553.017	4.55
553.361	4.42
553.704	4.44
554.048	4.2
554.391	4.32
554.734	4.11
555.077	4.27
555.42	4.32
555.764	4.27
556.107	4.47
556.45	4.33
556.793	4.49
557.135	4.25
557.478	4.3
557.821	4.4
558.164	4.35
558.507	4.21
558.849	4.69
559.192	4.43
559.534	4.42
559.877	4.5
560.219	4.48
560.562	4.35
560.904	4.69
561.246	4.42
561.589	4.62
561.931	4.37
562.273	4.27
562.615	4.44
562.957	4.37
563.299	4.38
563.641	4.56
563.983	4.3
564.325	4.49
564.667	4.42
565.008	4.38
565.35	4.34
565.692	4.48
566.033	4.54
566.375	4.43
566.716	4.13
567.058	4.37
567.399	4.34
567.741	4.54
568.082	4.58
568.423	4.38
568.764	4.49
569.105	4.63
569.447	4.43
569.788	4.47
570.129	4.44
570.47	4.51
570.811	4.4
571.151	4.32
571.492	4.6
571.833	4.45
572.174	4.51
572.514	4.56
572.855	4.44
573.195	4.42
573.536	4.59
573.876	4.42
574.217	4.46
574.557	4.34
574.898	4.48
575.238	4.75
575.578	4.63
575.918	4.68
576.258	4.75
576.598	4.58
576.938	4.45
577.278	4.47
577.618	4.51
577.958	4.52
578.298	4.55
578.638	4.64
578.977	4.71
579.317	4.63
579.657	4.53
579.996	4.72
580.336	4.65
580.675	4.49
581.014	4.81
581.354	4.72
581.693	4.94
582.032	4.85
582.372	4.72
582.711	4.6
583.05	4.76
583.389	4.78
583.728	4.84
584.067	4.84
584.406	4.88
584.745	4.57
585.083	4.74
585.422	4.77
585.761	4.65
586.1	4.85
586.438	4.67
586.777	4.95
587.115	4.78
587.454	4.72
587.792	4.62
588.13	4.81
588.469	4.74
588.807	4.79
589.145	4.8
589.483	4.62
589.821	4.83
590.159	4.78
590.497	5.02
590.835	4.96
591.173	4.93
591.511	4.96
591.849	4.9
592.187	4.7
592.524	5
592.862	4.99
593.2	4.84
593.537	4.82
593.875	4.93
594.212	5.04
594.55	4.91
594.887	4.93
595.224	5.16
595.561	4.75
595.899	4.77
596.236	4.79
596.573	4.78
596.91	4.92
597.247	5.2
597.584	4.91
597.921	4.95
598.258	4.93
598.594	4.88
598.931	4.71
599.268	4.58
599.604	4.93
599.941	4.89
600.277	5.13
600.614	4.74
600.95	4.98
601.287	4.73
601.623	4.64
601.959	5.17
602.296	4.88
602.632	4.84
602.968	4.82
603.304	4.74
603.64	5.11
603.976	4.86
604.312	4.65
604.648	5
604.984	5.13
605.319	4.98
605.655	4.98
605.991	5.08
606.326	5.01
606.662	4.85
606.998	5.13
607.333	4.97
607.668	4.91
608.004	4.88
608.339	4.98
608.674	5.15
609.01	5.33
609.345	5.17
609.68	5
610.015	5.25
610.35	5.17
610.685	4.95
611.02	5
611.355	5.14
611.689	5.05
612.024	5.27
612.359	5.23
612.694	5.17
613.028	4.9
613.363	4.95
613.697	5.1
614.032	5.29
614.366	5
614.7	5.09
615.035	5.22
615.369	5.14
615.703	5.21
616.037	5.29
616.371	4.98
616.705	5.01
617.039	4.98
617.373	5.43
617.707	5.13
618.041	5.06
618.375	4.68
618.709	5.25
619.042	5.12
619.376	5.22
619.71	5.28
620.043	5.29
620.377	5.11
620.71	5.13
621.043	5.35
621.377	5.18
621.71	5.49
622.043	5.46
622.376	4.81
622.709	5.55
623.043	5.06
623.376	5.19
623.709	5.64
624.041	5.18
624.374	5.27
624.707	5.23
625.04	5.53
625.373	5.52
625.705	5.72
626.038	5.42
626.37	4.99
626.703	5.59
627.035	5.31
627.368	5.63
627.7	5.4
628.032	5.28
628.365	5.55
628.697	5.5
629.029	5.19
629.361	5.53
629.693	5.47
630.025	5.29
630.357	5.52
630.689	5.48
631.021	5.51
631.353	5.47
631.684	5.37
632.016	5.08
632.348	5.3
632.679	5.4
633.011	5.23
633.342	5.21
633.674	4.95
634.005	5.74
634.336	5.65
634.668	5.41
634.999	5.4
635.33	5.43
635.661	5.3
635.992	5.75
636.323	5.75
636.654	5.29
636.985	5.5
637.316	5.42
637.647	5.36
637.977	5.49
638.308	5.64
638.639	5.63
638.969	5.64
639.3	5.7
639.63	5.43
639.961	5.6
640.291	5.41
640.622	5.65
640.952	5.91
641.282	5.46
641.612	5.77
641.943	5.45
642.273	5.28
642.603	5.68
642.933	5.88
643.263	5.7
643.592	5.73
643.922	6.48
644.252	5.38
644.582	5.95
644.911	5.7
645.241	5.5
645.571	5.69
645.9	5.79
646.23	5.84
646.559	5.61
646.888	5.98
647.218	5.92
647.547	5.55
647.876	5.53
648.205	5.59
648.534	5.97
648.863	5.53
649.192	5.92
649.521	5.84
649.85	5.84
650.179	6.04
650.508	5.81
650.837	5.91
651.165	5.84
651.494	5.81
651.822	6
652.151	5.56
652.479	6.2
652.808	5.99
653.136	5.62
653.465	5.5
653.793	5.8
654.121	5.83
654.449	5.44
654.777	5.5
655.105	5.57
655.433	6.12
655.761	5.65
656.089	6.13
656.417	6.1
656.745	6.08
657.073	6.18
657.4	5.87
657.728	5.92
658.056	6.14
658.383	5.94
658.711	6.32
659.038	6.45
659.365	6.03
659.693	6.13
660.02	5.82
660.347	6.02
660.674	5.96
661.001	5.69
661.329	5.8
661.656	5.45
661.982	5.93
662.309	5.86
662.636	5.97
662.963	6.06
663.29	6.2
663.616	5.79
663.943	6.46
664.27	5.91
664.596	5.38
664.923	6.42
665.249	5.78
665.576	6.01
665.902	5.9
666.228	6.75
666.554	6.31
666.881	5.36
667.207	6.24
667.533	6.06
667.859	6.09
668.185	5.74
668.511	6.54
668.837	6.19
669.162	5.83
669.488	5.67
669.814	5.99
670.139	5.4
670.465	6.66
670.791	6.26
671.116	5.79
671.442	5.98
671.767	5.95
672.092	5.74
672.418	6.05
672.743	5.67
673.068	6.18
673.393	6.7
673.718	5.56
674.043	5.9
674.368	6.4
674.693	6.51
675.018	6.48
675.343	6.86
675.667	6.07
675.992	6.44
676.317	5.78
676.641	6.73
676.966	6.4
677.29	6.2
677.615	5.92
677.939	5.74
678.264	5.83
678.588	6.68
678.912	5.9
679.236	6.64
679.56	5.98
679.885	6.09
680.209	6.79
680.532	7.25
680.856	7.15
681.18	6.85
681.504	6.53
681.828	5.7
682.152	6.43
682.475	6.54
682.799	6.1
683.122	6.36
683.446	5.9
683.769	6.52
684.093	6.43
684.416	6.26
684.739	5.98
685.062	6.14
685.386	6.33
685.709	6.83
686.032	6.76
686.355	6.78
686.678	6.69
687.001	6.43
687.324	6.36
687.646	6.3
687.969	6.78
688.292	6.5
688.614	6.83
688.937	6.73
689.26	6.96
689.582	6.24
689.904	6.45
690.227	6.82
690.549	7.06
690.871	6.28
691.194	5.74
691.516	5.74
