Data from 0003_forehead_Reflection__4__270.txt Node

Date: Thu Dec 15 18:50:20 CST 2022
User: ToomeyLab
Spectrometer: FLMS14357
Trigger mode: 0
Integration Time (sec): 1.000000E-2
Scans to average: 100
Electric dark correction enabled: true
Nonlinearity correction enabled: false
Boxcar width: 0
XAxis mode: Wavelengths
Number of Pixels in Spectrum: 2048
>>>>>Begin Spectral Data<<<<<
189.047	-72.22
189.435	-72.22
189.823	-72.22
190.211	13.36
190.599	584.95
190.987	456.12
191.375	36.69
191.763	397.59
192.151	14.43
192.538	46.02
192.926	157.84
193.314	29.15
193.702	-3.98
194.089	-57.4
194.477	-323.41
194.864	68.58
195.252	21.17
195.639	122.78
196.027	6.5
196.414	207.8
196.801	126.02
197.189	27
197.576	63.22
197.963	-128.62
198.351	65.52
198.738	18.61
199.125	-118.17
199.512	35.42
199.899	-36.6
200.286	20.71
200.673	50.63
201.06	-10.85
201.447	46.79
201.833	-6.25
202.22	40.59
202.607	23.71
202.994	46.9
203.38	34.26
203.767	16.82
204.154	33.95
204.54	35.15
204.927	-7.48
205.313	47.25
205.699	29.89
206.086	30.8
206.472	50.93
206.858	43.02
207.245	23.5
207.631	40.78
208.017	44.64
208.403	-24.47
208.789	17.55
209.175	35.91
209.561	-88.56
209.947	-28.16
210.333	26.45
210.719	38.04
211.105	78.01
211.491	42.49
211.876	8.02
212.262	15.58
212.648	53.52
213.034	4.26
213.419	26.08
213.805	-33.36
214.19	-18.86
214.576	-48.9
214.961	66.49
215.346	0.76
215.732	10.18
216.117	26.38
216.502	30.53
216.888	34.1
217.273	20.01
217.658	3.63
218.043	1.85
218.428	-14.31
218.813	27.44
219.198	-17.2
219.583	23.85
219.968	-2.64
220.353	11.98
220.738	31.09
221.122	7.76
221.507	14.42
221.892	-22.97
222.276	-2.12
222.661	-4.66
223.046	6.73
223.43	31.71
223.815	8.78
224.199	-5.06
224.583	1.03
224.968	0.95
225.352	-4.4
225.736	7.47
226.121	8.74
226.505	7.68
226.889	9.73
227.273	3.42
227.657	10.11
228.041	5.5
228.425	3.48
228.809	5.31
229.193	5.37
229.577	5.23
229.961	4.34
230.344	5.85
230.728	6.58
231.112	6.88
231.495	4
231.879	6.35
232.263	4.67
232.646	5.51
233.03	8.22
233.413	6.31
233.797	3.95
234.18	5.34
234.563	6.33
234.946	4.28
235.33	5.08
235.713	5.39
236.096	6.73
236.479	6.18
236.862	5.96
237.245	6.22
237.628	7.19
238.011	6.73
238.394	4.63
238.777	6.8
239.16	5.79
239.543	8.56
239.925	6.64
240.308	4.88
240.691	4.72
241.073	7.37
241.456	7.08
241.838	5.71
242.221	5.91
242.603	5.86
242.986	4.95
243.368	5.41
243.75	5.85
244.133	5.63
244.515	5.81
244.897	5.7
245.279	5.31
245.661	5.78
246.043	6.34
246.425	6.3
246.807	6.23
247.189	6.14
247.571	5.64
247.953	5.33
248.335	5.45
248.717	5.42
249.098	5.59
249.48	5.85
249.862	6
250.243	5.87
250.625	5.77
251.006	5.94
251.388	6.27
251.769	5.21
252.151	6.55
252.532	5.54
252.913	5.49
253.295	5.56
253.676	5.83
254.057	5.44
254.438	5.7
254.819	5.96
255.2	6.24
255.581	7.03
255.962	6.73
256.343	6.08
256.724	5.87
257.105	6.6
257.486	5.4
257.867	5.55
258.247	6.27
258.628	6.04
259.009	5.44
259.389	5.5
259.77	6.32
260.15	6.39
260.531	5.53
260.911	5.74
261.292	5.82
261.672	5.63
262.052	5.8
262.432	5.87
262.813	6.39
263.193	5.95
263.573	6.03
263.953	5.35
264.333	5.71
264.713	6.23
265.093	5.67
265.473	5.62
265.853	5.14
266.233	5.02
266.612	5.08
266.992	6.28
267.372	5.2
267.752	6.1
268.131	5.27
268.511	5.61
268.89	6.04
269.27	5.1
269.649	5.91
270.029	5.28
270.408	5.23
270.787	5.72
271.167	6.17
271.546	6.55
271.925	6.04
272.304	5.72
272.683	5.1
273.062	5.42
273.441	5.5
273.82	5.31
274.199	5.64
274.578	5.8
274.957	5.92
275.336	5.94
275.715	5.48
276.093	5.61
276.472	5.07
276.851	5.91
277.229	5.85
277.608	4.96
277.986	5.92
278.365	6
278.743	5.44
279.122	4.99
279.5	5.09
279.878	5.62
280.257	5.33
280.635	5.64
281.013	5.24
281.391	5.2
281.769	6.37
282.147	5.85
282.525	5.03
282.903	5.74
283.281	6.26
283.659	5.92
284.037	5.45
284.415	5.39
284.792	5.52
285.17	5.82
285.548	5.49
285.925	6.1
286.303	6.39
286.68	5.49
287.058	6.01
287.435	5.65
287.813	6.1
288.19	5.68
288.567	5.61
288.945	5.46
289.322	6.31
289.699	6.32
290.076	6.2
290.453	5.8
290.83	6.26
291.207	5.99
291.584	6.34
291.961	6.02
292.338	6.15
292.715	6.15
293.092	6.61
293.469	6.13
293.845	6.48
294.222	7.04
294.599	5.77
294.975	6.48
295.352	6.53
295.728	6.42
296.105	6.76
296.481	6.72
296.858	6.89
297.234	6.6
297.61	6.85
297.986	7.81
298.363	7.05
298.739	7.24
299.115	7.05
299.491	7.48
299.867	7.23
300.243	7.11
300.619	7.15
300.995	7.82
301.371	7.86
301.746	7.74
302.122	7.59
302.498	7.59
302.874	7.84
303.249	7.52
303.625	8.04
304	7.44
304.376	8.49
304.751	8.04
305.127	7.98
305.502	8.05
305.878	8.12
306.253	8.08
306.628	8.39
307.003	7.93
307.378	7.66
307.754	8.36
308.129	8.39
308.504	8.67
308.879	8.33
309.254	8.51
309.629	8.85
310.003	8.56
310.378	9.11
310.753	8.95
311.128	8.88
311.502	8.54
311.877	8.83
312.252	8.81
312.626	9.58
313.001	9.34
313.375	9.29
313.75	9.19
314.124	9.38
314.498	9.53
314.873	8.98
315.247	9.63
315.621	9.69
315.995	9.57
316.369	9.21
316.743	9.44
317.117	9.86
317.491	10.1
317.865	9.85
318.239	10.82
318.613	9.88
318.987	10.18
319.361	10.53
319.734	10.03
320.108	10.46
320.482	10.84
320.855	10.17
321.229	10.81
321.602	10.65
321.976	10.35
322.349	11.41
322.723	10.85
323.096	10.69
323.469	10.47
323.843	10.73
324.216	10.75
324.589	11.62
324.962	10.74
325.335	11.18
325.708	11.14
326.081	11.55
326.454	11.46
326.827	11.4
327.2	11.89
327.573	11.77
327.945	11.64
328.318	11.86
328.691	11.87
329.063	11.55
329.436	11.69
329.809	12.5
330.181	12.88
330.553	12.25
330.926	12.74
331.298	12.3
331.671	12.62
332.043	12.45
332.415	12.56
332.787	12.96
333.159	12.14
333.532	12.8
333.904	12.72
334.276	12.78
334.648	12.88
335.02	12.71
335.391	12.76
335.763	13.17
336.135	13.09
336.507	12.99
336.879	12.74
337.25	13.51
337.622	13.11
337.993	13.46
338.365	13.44
338.736	13.82
339.108	13.69
339.479	13.57
339.851	14.08
340.222	13.9
340.593	13.79
340.964	13.94
341.336	13.79
341.707	14
342.078	14.44
342.449	14.6
342.82	14.5
343.191	14.51
343.562	14.48
343.933	14.06
344.303	14.73
344.674	14.44
345.045	14.94
345.416	14.95
345.786	14.58
346.157	15.12
346.527	14.65
346.898	14.48
347.268	15.19
347.639	15.19
348.009	15.23
348.38	15.18
348.75	15.33
349.12	15.33
349.49	15.37
349.861	15.44
350.231	15.67
350.601	15.19
350.971	15.52
351.341	16.17
351.711	15.64
352.081	15.38
352.45	15.14
352.82	15.79
353.19	15.68
353.56	16.11
353.929	15.85
354.299	15.95
354.669	15.99
355.038	16.27
355.408	16.36
355.777	16.65
356.147	16.33
356.516	16.39
356.885	16.73
357.254	16.47
357.624	16.14
357.993	16.88
358.362	16.65
358.731	16.75
359.1	16.63
359.469	17.26
359.838	17.05
360.207	16.86
360.576	17.4
360.945	17.23
361.314	17.54
361.682	17.07
362.051	17.16
362.42	17.03
362.788	17.74
363.157	17.57
363.525	17.5
363.894	17.51
364.262	17.6
364.631	18.05
364.999	18.05
365.367	18.08
365.735	17.93
366.104	17.57
366.472	18.41
366.84	18.24
367.208	18.4
367.576	18.46
367.944	18.6
368.312	18.47
368.68	18.76
369.048	18.84
369.416	18.73
369.783	18.94
370.151	18.91
370.519	19.49
370.886	19.13
371.254	19.48
371.621	19.28
371.989	19.29
372.356	19.48
372.724	19.1
373.091	19.04
373.458	19.11
373.826	19.69
374.193	19.65
374.56	19.65
374.927	19.52
375.294	20.17
375.661	19.95
376.028	20.06
376.395	20.56
376.762	20.05
377.129	20.36
377.496	20.4
377.863	20.69
378.229	20.49
378.596	20.72
378.963	20.52
379.329	20.88
379.696	20.44
380.062	20.9
380.429	20.69
380.795	21.14
381.161	20.77
381.528	21.07
381.894	21.12
382.26	21.15
382.626	21.03
382.993	21.66
383.359	21.46
383.725	21.15
384.091	21.51
384.457	21.32
384.823	21.67
385.188	21.79
385.554	21.73
385.92	21.84
386.286	21.78
386.651	22.29
387.017	22.43
387.383	22.24
387.748	22.24
388.114	22.47
388.479	22.43
388.845	22.33
389.21	22.41
389.575	22.59
389.94	23
390.306	22.76
390.671	22.98
391.036	22.69
391.401	22.94
391.766	22.82
392.131	23.22
392.496	22.94
392.861	22.89
393.226	23.05
393.591	23.07
393.956	23.22
394.32	23.52
394.685	23.38
395.05	23.5
395.414	23.53
395.779	23.78
396.143	23.27
396.508	23.68
396.872	23.68
397.236	24.13
397.601	24.1
397.965	24.31
398.329	24.3
398.694	24.43
399.058	24.48
399.422	24.5
399.786	24.52
400.15	24.4
400.514	24.5
400.878	24.59
401.242	24.74
401.605	24.97
401.969	24.91
402.333	24.77
402.697	25
403.06	25.19
403.424	25
403.787	25.28
404.151	25.46
404.514	25.41
404.878	24.99
405.241	25.34
405.604	25.38
405.968	25.45
406.331	25.68
406.694	25.59
407.057	25.57
407.42	25.97
407.783	26.12
408.146	25.81
408.509	26.17
408.872	26.29
409.235	26.35
409.598	26.17
409.961	26.16
410.323	26.41
410.686	26.29
411.049	26.48
411.411	26.45
411.774	26.66
412.136	26.68
412.499	26.71
412.861	26.72
413.223	27.02
413.586	27.14
413.948	27.16
414.31	27.26
414.672	27.13
415.035	27.34
415.397	27.45
415.759	27.13
416.121	27.56
416.483	27.3
416.845	27.54
417.206	27.43
417.568	27.41
417.93	27.48
418.292	27.4
418.653	27.46
419.015	27.72
419.377	27.67
419.738	27.5
420.1	27.61
420.461	27.61
420.822	27.57
421.184	27.69
421.545	27.77
421.906	27.81
422.267	27.64
422.629	27.56
422.99	27.67
423.351	27.81
423.712	27.95
424.073	28.17
424.434	28.29
424.795	28.12
425.155	28.15
425.516	28.13
425.877	28.1
426.238	28.22
426.598	28.41
426.959	28.54
427.32	28.68
427.68	28.71
428.041	28.97
428.401	28.85
428.761	29.21
429.122	29.3
429.482	29.51
429.842	29.47
430.202	29.5
430.563	29.77
430.923	29.53
431.283	29.96
431.643	29.96
432.003	29.82
432.363	30.21
432.722	30.24
433.082	30.04
433.442	29.99
433.802	30.13
434.161	30.16
434.521	30.13
434.881	30.09
435.24	30.12
435.6	30.23
435.959	30.26
436.319	30.41
436.678	30.56
437.037	30.51
437.396	30.63
437.756	30.65
438.115	30.61
438.474	30.71
438.833	30.83
439.192	30.97
439.551	30.99
439.91	30.88
440.269	30.89
440.628	30.94
440.987	30.72
441.345	31.03
441.704	30.72
442.063	30.94
442.421	31.03
442.78	30.98
443.138	31.3
443.497	31.43
443.855	31.47
444.214	31.34
444.572	31.63
444.93	31.66
445.288	31.57
445.647	31.61
446.005	31.47
446.363	31.77
446.721	31.62
447.079	31.67
447.437	31.64
447.795	31.65
448.153	31.73
448.51	31.69
448.868	31.64
449.226	32.07
449.584	32.03
449.941	32.09
450.299	32.37
450.656	32.52
451.014	32.56
451.371	32.77
451.729	32.75
452.086	32.83
452.443	32.82
452.801	33.01
453.158	32.89
453.515	32.9
453.872	33.23
454.229	32.97
454.586	32.91
454.943	33.19
455.3	33.29
455.657	33.35
456.014	33.55
456.371	33.51
456.727	33.49
457.084	33.72
457.441	33.61
457.797	33.84
458.154	33.69
458.51	33.79
458.867	33.84
459.223	33.58
459.58	33.99
459.936	33.77
460.292	33.64
460.648	33.78
461.005	33.44
461.361	33.49
461.717	33.55
462.073	33.83
462.429	33.87
462.785	34.05
463.141	34.12
463.496	34.27
463.852	34.66
464.208	34.61
464.564	34.66
464.919	34.85
465.275	34.95
465.631	34.92
465.986	34.65
466.342	34.82
466.697	35.02
467.052	34.99
467.408	35.2
467.763	35.15
468.118	35.02
468.473	35.17
468.829	35.19
469.184	35.31
469.539	35.3
469.894	35.46
470.249	35.25
470.603	35.58
470.958	35.62
471.313	35.7
471.668	35.52
472.023	35.93
472.377	36.04
472.732	35.9
473.086	35.93
473.441	36
473.795	36.1
474.15	36
474.504	35.93
474.859	36.03
475.213	36.15
475.567	36.29
475.921	36.09
476.275	36.19
476.63	36.67
476.984	36.43
477.338	36.79
477.692	36.39
478.045	36.56
478.399	36.67
478.753	36.5
479.107	36.54
479.461	36.7
479.814	36.78
480.168	36.57
480.521	37.05
480.875	36.84
481.228	36.94
481.582	36.99
481.935	37.08
482.289	37.04
482.642	36.87
482.995	36.81
483.348	36.77
483.701	36.88
484.055	36.87
484.408	36.53
484.761	36.08
485.114	36.02
485.466	36.18
485.819	36.12
486.172	36.21
486.525	36.09
486.878	36.2
487.23	36.48
487.583	36.81
487.936	36.83
488.288	36.72
488.641	36.69
488.993	36.56
489.345	36.56
489.698	36.62
490.05	36.68
490.402	36.86
490.754	37.04
491.107	37.3
491.459	37.36
491.811	37.58
492.163	37.59
492.515	37.49
492.866	37.18
493.218	37.18
493.57	37.2
493.922	37.38
494.274	37.56
494.625	37.86
494.977	38.01
495.328	38.2
495.68	38.57
496.031	38.73
496.383	38.81
496.734	38.92
497.086	38.99
497.437	38.83
497.788	38.9
498.139	38.82
498.49	38.69
498.842	38.66
499.193	38.8
499.544	38.59
499.894	38.81
500.245	38.94
500.596	39.11
500.947	39.27
501.298	39.36
501.648	39.4
501.999	39.56
502.35	39.44
502.7	39.63
503.051	39.61
503.401	39.76
503.752	39.61
504.102	39.92
504.452	39.88
504.803	39.8
505.153	39.8
505.503	39.87
505.853	40.11
506.203	39.79
506.553	40.07
506.903	40.13
507.253	40.09
507.603	40.19
507.953	40.27
508.303	40.29
508.652	40.25
509.002	40.24
509.352	40.26
509.701	40.12
510.051	40.22
510.4	40.39
510.75	40.2
511.099	40.06
511.449	40.35
511.798	40.29
512.147	40.55
512.496	40.38
512.846	40.47
513.195	40.46
513.544	40.65
513.893	40.8
514.242	40.68
514.591	40.81
514.939	41.05
515.288	40.98
515.637	40.82
515.986	41.02
516.334	41.02
516.683	41.21
517.032	41.36
517.38	41.14
517.729	41.25
518.077	41.27
518.426	41.12
518.774	41.23
519.122	41.12
519.47	41.1
519.819	41.07
520.167	40.85
520.515	41.16
520.863	41.02
521.211	41.06
521.559	41.19
521.907	41.32
522.255	41.34
522.602	41.56
522.95	41.76
523.298	41.94
523.645	41.87
523.993	42.06
524.341	41.97
524.688	41.99
525.036	41.94
525.383	42.22
525.73	41.94
526.078	42.04
526.425	41.68
526.772	41.69
527.119	41.61
527.466	41.72
527.814	41.59
528.161	41.66
528.508	41.94
528.854	41.81
529.201	41.53
529.548	41.34
529.895	41.22
530.242	41.46
530.588	41.46
530.935	41.44
531.282	41.35
531.628	41.4
531.975	41.56
532.321	41.92
532.667	42.2
533.014	42.33
533.36	42.39
533.706	42.47
534.052	42.37
534.399	42.21
534.745	42.02
535.091	41.96
535.437	42.17
535.783	42.22
536.129	42.41
536.474	42.51
536.82	42.61
537.166	42.8
537.512	42.89
537.857	42.78
538.203	42.8
538.549	42.72
538.894	42.93
539.239	43.14
539.585	43.02
539.93	43.2
540.276	43.39
540.621	43.56
540.966	43.69
541.311	43.63
541.656	43.29
542.001	43.21
542.346	43.05
542.691	42.74
543.036	42.77
543.381	42.82
543.726	42.78
544.071	42.97
544.415	43.03
544.76	43.07
545.105	43.32
545.449	43.6
545.794	43.66
546.138	43.67
546.483	43.94
546.827	43.96
547.171	43.92
547.516	44.05
547.86	44.06
548.204	44.04
548.548	43.86
548.892	43.93
549.236	44.05
549.58	44.27
549.924	44.49
550.268	44.74
550.612	44.85
550.956	45.06
551.3	45.03
551.643	44.99
551.987	45.03
552.33	45.17
552.674	45.36
553.017	45.13
553.361	45.38
553.704	44.98
554.048	44.8
554.391	45.26
554.734	45.07
555.077	45.18
555.42	45.43
555.764	45.13
556.107	45.19
556.45	45.76
556.793	45.84
557.135	45.27
557.478	45.64
557.821	45.84
558.164	45.67
558.507	45.75
558.849	46.09
559.192	45.8
559.534	45.87
559.877	46.21
560.219	46.07
560.562	46.18
560.904	46.08
561.246	46.31
561.589	46.45
561.931	46.18
562.273	46.23
562.615	46.17
562.957	46.19
563.299	46.28
563.641	46.24
563.983	46.22
564.325	46.33
564.667	46.33
565.008	46.27
565.35	46.67
565.692	46.4
566.033	46.46
566.375	46.23
566.716	46.48
567.058	46.39
567.399	46.69
567.741	46.4
568.082	46.4
568.423	46.2
568.764	46.28
569.105	46.58
569.447	46.29
569.788	46.61
570.129	46.68
570.47	46.78
570.811	46.71
571.151	46.96
571.492	46.9
571.833	46.98
572.174	47.09
572.514	46.85
572.855	47.16
573.195	46.69
573.536	46.86
573.876	46.75
574.217	46.92
574.557	46.88
574.898	46.84
575.238	47.24
575.578	47
575.918	47.2
576.258	47.36
576.598	47.26
576.938	47.34
577.278	47.44
577.618	47.24
577.958	47.61
578.298	47.48
578.638	47.52
578.977	47.57
579.317	47.79
579.657	47.87
579.996	47.91
580.336	47.79
580.675	48.12
581.014	47.92
581.354	48.2
581.693	48.2
582.032	48.18
582.372	48.19
582.711	48.08
583.05	48.22
583.389	48.01
583.728	48.17
584.067	48.13
584.406	48.18
584.745	47.96
585.083	48.43
585.422	48.76
585.761	48.4
586.1	48.84
586.438	48.44
586.777	48.58
587.115	48.76
587.454	48.56
587.792	48.79
588.13	48.63
588.469	48.45
588.807	48.6
589.145	48.57
589.483	48.95
589.821	48.96
590.159	49.06
590.497	49.06
590.835	49.09
591.173	49
591.511	48.92
591.849	48.96
592.187	48.87
592.524	48.8
592.862	48.92
593.2	48.94
593.537	48.84
593.875	49.07
594.212	49.28
594.55	49.06
594.887	49.11
595.224	49.59
595.561	49.23
595.899	49.16
596.236	49.49
596.573	49.1
596.91	49.46
597.247	49.43
597.584	49.2
597.921	49.06
598.258	49.12
598.594	49.11
598.931	49.26
599.268	49.27
599.604	49.47
599.941	49.48
600.277	49.24
600.614	49.8
600.95	49.7
601.287	49.55
601.623	49.25
601.959	49.81
602.296	49.87
602.632	49.67
602.968	49.72
603.304	49.73
603.64	50.09
603.976	49.79
604.312	49.73
604.648	49.53
604.984	49.85
605.319	49.66
605.655	49.65
605.991	49.5
606.326	49.45
606.662	49.57
606.998	49.87
607.333	49.83
607.668	49.97
608.004	50.15
608.339	50.04
608.674	50.15
609.01	50.34
609.345	50.25
609.68	49.85
610.015	50.23
610.35	50.2
610.685	50.23
611.02	50.2
611.355	50.19
611.689	50.05
612.024	50.29
612.359	50.5
612.694	50.45
613.028	50.2
613.363	50.53
613.697	50.71
614.032	50.64
614.366	50.45
614.7	51.2
615.035	50.79
615.369	51.12
615.703	51.08
616.037	51.37
616.371	51.48
616.705	51.1
617.039	50.93
617.373	51.32
617.707	51.09
618.041	51.54
618.375	51.06
618.709	51.09
619.042	51
619.376	51.23
619.71	50.99
620.043	51.31
620.377	51.39
620.71	51.48
621.043	51.46
621.377	51.52
621.71	51.67
622.043	51.67
622.376	51.44
622.709	52.08
623.043	51.59
623.376	51.24
623.709	51.76
624.041	51.63
624.374	51.97
624.707	51.48
625.04	51.59
625.373	52.14
625.705	52.56
626.038	51.78
626.37	51.83
626.703	51.83
627.035	51.67
627.368	51.85
627.7	51.82
628.032	52.04
628.365	52.1
628.697	52.48
629.029	51.77
629.361	51.91
629.693	52.18
630.025	52.11
630.357	51.77
630.689	52.41
631.021	52.44
631.353	52.39
631.684	52.27
632.016	52.28
632.348	52.28
632.679	52.04
633.011	52.64
633.342	52.11
633.674	51.79
634.005	52.51
634.336	52.62
634.668	52.63
634.999	52.23
635.33	52.96
635.661	52.48
635.992	52.37
636.323	52.91
636.654	52.4
636.985	52.49
637.316	52.76
637.647	52.88
637.977	52.59
638.308	52.72
638.639	53.36
638.969	52.96
639.3	53.23
639.63	52.57
639.961	52.93
640.291	52.54
640.622	53.44
640.952	53.12
641.282	52.75
641.612	52.98
641.943	53.03
642.273	52.71
642.603	53.39
642.933	52.93
643.263	52.99
643.592	53.14
643.922	52.94
644.252	53.43
644.582	53.2
644.911	52.57
645.241	53.41
645.571	52.97
645.9	53.32
646.23	53.14
646.559	53.63
646.888	53.72
647.218	53.22
647.547	53.24
647.876	53.71
648.205	53.6
648.534	53.42
648.863	54.05
649.192	54.06
649.521	53.72
649.85	53.4
650.179	53.42
650.508	53.24
650.837	53.66
651.165	53.12
651.494	53.96
651.822	53.96
652.151	53.66
652.479	53.4
652.808	53.86
653.136	53.62
653.465	53.78
653.793	53.44
654.121	54.18
654.449	54.1
654.777	53.44
655.105	54.15
655.433	53.53
655.761	53.65
656.089	54.08
656.417	54.78
656.745	54.51
657.073	54.44
657.4	53.41
657.728	53.88
658.056	54.28
658.383	54.04
658.711	54.3
659.038	54.99
659.365	53.9
659.693	54.02
660.02	54.95
660.347	54.38
660.674	54.22
661.001	54.31
661.329	53.99
661.656	53.8
661.982	54.27
662.309	54.55
662.636	54.12
662.963	54.16
663.29	54.54
663.616	54.41
663.943	54.5
664.27	54.05
664.596	54.87
664.923	54.48
665.249	54.61
665.576	54.85
665.902	54.41
666.228	54.68
666.554	54.83
666.881	54.58
667.207	55.23
667.533	55.02
667.859	55.09
668.185	54.51
668.511	55.29
668.837	55.05
669.162	54.93
669.488	55.07
