Data from 0003_forehead_Reflection__3__269.txt Node

Date: Thu Dec 15 18:50:09 CST 2022
User: ToomeyLab
Spectrometer: FLMS14357
Trigger mode: 0
Integration Time (sec): 1.000000E-2
Scans to average: 100
Electric dark correction enabled: true
Nonlinearity correction enabled: false
Boxcar width: 0
XAxis mode: Wavelengths
Number of Pixels in Spectrum: 2048
>>>>>Begin Spectral Data<<<<<
189.047	-204.01
189.435	-204.01
189.823	-204.01
190.211	43.13
190.599	683.27
190.987	-413.8
191.375	16.42
191.763	143.85
192.151	165.54
192.538	-4.03
192.926	91.16
193.314	60.49
193.702	9.83
194.089	-174.99
194.477	-164.01
194.864	82.25
195.252	38.37
195.639	29.28
196.027	-78.89
196.414	38.61
196.801	14.3
197.189	-1.79
197.576	-93.53
197.963	228.83
198.351	64.87
198.738	6.04
199.125	-28.63
199.512	37.23
199.899	-0.1
200.286	6.83
200.673	63.7
201.06	31.06
201.447	7.4
201.833	42.58
202.22	8.17
202.607	-51.63
202.994	42.28
203.38	40.32
203.767	46.88
204.154	53.48
204.54	47.21
204.927	51.96
205.313	85.41
205.699	25.57
206.086	64.26
206.472	53.25
206.858	15.79
207.245	-3.43
207.631	83.88
208.017	53.62
208.403	9.84
208.789	28.71
209.175	78.28
209.561	-71.41
209.947	-3.88
210.333	2.91
210.719	30.68
211.105	48.04
211.491	21.81
211.876	15.65
212.262	-0.96
212.648	19.4
213.034	-19
213.419	16.96
213.805	-22.36
214.19	-6.61
214.576	-23.18
214.961	32.93
215.346	-5.4
215.732	-12.02
216.117	69.37
216.502	-17.64
216.888	32.66
217.273	28.04
217.658	1.13
218.043	30.5
218.428	-4.23
218.813	4.54
219.198	-34.7
219.583	11.29
219.968	0.36
220.353	2.96
220.738	2.08
221.122	-1.25
221.507	8.7
221.892	-42.52
222.276	-17.63
222.661	-14.72
223.046	-1.11
223.43	18.9
223.815	11.11
224.199	-0.98
224.583	13.17
224.968	-6.8
225.352	2.37
225.736	24.29
226.121	3.35
226.505	-2.14
226.889	-0.39
227.273	2.62
227.657	9.45
228.041	4.5
228.425	-0.35
228.809	4.36
229.193	3.31
229.577	3.23
229.961	4.36
230.344	5.32
230.728	4.45
231.112	4.82
231.495	3.89
231.879	5.26
232.263	4.48
232.646	4.17
233.03	5.47
233.413	3.88
233.797	3.08
234.18	3.44
234.563	5.94
234.946	4.91
235.33	3.77
235.713	4.41
236.096	5.32
236.479	5.7
236.862	3.78
237.245	2.98
237.628	3.63
238.011	5.16
238.394	4.64
238.777	4.04
239.16	4.85
239.543	5.34
239.925	4.34
240.308	2.36
240.691	5.21
241.073	3.4
241.456	3.77
241.838	3.78
242.221	4.73
242.603	5.27
242.986	4.01
243.368	4.5
243.75	4.27
244.133	4.2
244.515	4.31
244.897	4.01
245.279	3.32
245.661	4.41
246.043	4.82
246.425	4.7
246.807	3.67
247.189	3.9
247.571	4
247.953	3.91
248.335	3.96
248.717	4.26
249.098	4.25
249.48	3.94
249.862	3.91
250.243	4.12
250.625	4.43
251.006	5.13
251.388	4.53
251.769	4.63
252.151	4.93
252.532	3.48
252.913	4.47
253.295	4
253.676	4.26
254.057	4.58
254.438	4.77
254.819	4.65
255.2	4.71
255.581	4.75
255.962	3.9
256.343	4.97
256.724	4.63
257.105	5.4
257.486	3.24
257.867	4.64
258.247	5.12
258.628	4.56
259.009	4.23
259.389	4.42
259.77	4.15
260.15	4.63
260.531	4.28
260.911	4.22
261.292	4.16
261.672	4.07
262.052	4.16
262.432	3.92
262.813	4.64
263.193	4.1
263.573	4.4
263.953	3.99
264.333	4.43
264.713	5.07
265.093	4.6
265.473	3.29
265.853	3.98
266.233	3.99
266.612	4.34
266.992	4.03
267.372	4.16
267.752	4.5
268.131	4.19
268.511	4.25
268.89	4.86
269.27	3.59
269.649	4.52
270.029	4.03
270.408	3.53
270.787	4.48
271.167	4.5
271.546	5.03
271.925	4.05
272.304	4.25
272.683	3.72
273.062	4.01
273.441	3.9
273.82	4.01
274.199	3.75
274.578	4.27
274.957	3.99
275.336	4.4
275.715	5
276.093	3.72
276.472	3.52
276.851	4.08
277.229	3.54
277.608	3.92
277.986	4.35
278.365	4.5
278.743	4.49
279.122	3.92
279.5	4.93
279.878	3.69
280.257	3.98
280.635	4.21
281.013	3.9
281.391	4.08
281.769	4.26
282.147	4.14
282.525	3.62
282.903	3.59
283.281	4.11
283.659	4.21
284.037	3.64
284.415	3.85
284.792	3.85
285.17	3.79
285.548	3.85
285.925	4.23
286.303	4.57
286.68	4.07
287.058	4.51
287.435	4.1
287.813	4.11
288.19	4.07
288.567	3.78
288.945	4.19
289.322	4.44
289.699	4.46
290.076	4.07
290.453	3.79
290.83	4.44
291.207	4.54
291.584	4.79
291.961	4.46
292.338	4.2
292.715	4.06
293.092	4.78
293.469	4.04
293.845	4.48
294.222	5.05
294.599	4.28
294.975	4.3
295.352	4.77
295.728	4.6
296.105	4.88
296.481	4.98
296.858	4.85
297.234	4.67
297.61	4.89
297.986	5.33
298.363	5.02
298.739	5.32
299.115	5.16
299.491	5.48
299.867	5.15
300.243	5.27
300.619	5.17
300.995	5.73
301.371	5.45
301.746	5.68
302.122	5.03
302.498	5.53
302.874	5.38
303.249	5.1
303.625	5.08
304	5.4
304.376	5.92
304.751	5.78
305.127	5.53
305.502	5.9
305.878	5.96
306.253	5.58
306.628	5.62
307.003	5.75
307.378	5.63
307.754	5.61
308.129	5.96
308.504	5.99
308.879	5.74
309.254	6.4
309.629	5.91
310.003	6.2
310.378	6.57
310.753	6.17
311.128	6.2
311.502	6.18
311.877	6.4
312.252	6.27
312.626	6.69
313.001	6.67
313.375	6.65
313.75	6.48
314.124	7.21
314.498	7.17
314.873	6.9
315.247	6.72
315.621	6.39
315.995	7
316.369	6.51
316.743	6.5
317.117	7.03
317.491	7.25
317.865	6.25
318.239	7.57
318.613	7.13
318.987	6.71
319.361	7.42
319.734	7.65
320.108	7.57
320.482	7.87
320.855	7.87
321.229	7.75
321.602	8.03
321.976	7.8
322.349	8.31
322.723	8.22
323.096	7.52
323.469	7.55
323.843	8.03
324.216	8.17
324.589	8.19
324.962	7.98
325.335	8.11
325.708	7.84
326.081	8.19
326.454	8.41
326.827	8.74
327.2	8.4
327.573	8.68
327.945	8.11
328.318	8.39
328.691	8.39
329.063	8.47
329.436	8.78
329.809	9.13
330.181	9.67
330.553	9.39
330.926	9.17
331.298	8.71
331.671	9.09
332.043	9.3
332.415	9.06
332.787	9.21
333.159	9.1
333.532	8.98
333.904	9.2
334.276	9.55
334.648	9.36
335.02	9.42
335.391	9.47
335.763	9.57
336.135	9.42
336.507	9.54
336.879	9.79
337.25	10.04
337.622	10.09
337.993	10.18
338.365	9.71
338.736	9.87
339.108	10.2
339.479	10.03
339.851	9.88
340.222	10.38
340.593	9.82
340.964	10.32
341.336	9.96
341.707	10.48
342.078	10.13
342.449	10.37
342.82	10.28
343.191	10.22
343.562	10.87
343.933	10.36
344.303	11.01
344.674	10.73
345.045	10.89
345.416	11.06
345.786	10.89
346.157	10.87
346.527	11.19
346.898	10.44
347.268	11.21
347.639	11.03
348.009	11.52
348.38	11.07
348.75	11.32
349.12	11.58
349.49	11.82
349.861	11.61
350.231	11.42
350.601	11.3
350.971	11.41
351.341	11.8
351.711	11.76
352.081	11.54
352.45	11.46
352.82	11.43
353.19	11.67
353.56	11.83
353.929	12.01
354.299	12.09
354.669	12.37
355.038	12.68
355.408	12.31
355.777	12.53
356.147	12.05
356.516	12.32
356.885	12.4
357.254	12.39
357.624	12.36
357.993	12.39
358.362	12.72
358.731	12.89
359.1	12.75
359.469	12.7
359.838	13.06
360.207	12.89
360.576	13.01
360.945	13.12
361.314	12.85
361.682	12.88
362.051	13.11
362.42	13.27
362.788	13.34
363.157	13.13
363.525	13.32
363.894	13.08
364.262	13.46
364.631	13.86
364.999	13.5
365.367	13.27
365.735	13.39
366.104	13.6
366.472	13.82
366.84	13.86
367.208	14.06
367.576	13.78
367.944	13.93
368.312	13.97
368.68	14.45
369.048	13.81
369.416	14.24
369.783	14.22
370.151	14.51
370.519	14.69
370.886	14.44
371.254	14.9
371.621	14.75
371.989	14.81
372.356	14.86
372.724	14.91
373.091	14.58
373.458	14.69
373.826	15.2
374.193	14.88
374.56	15.2
374.927	15.15
375.294	15.12
375.661	14.9
376.028	15.36
376.395	15.49
376.762	15.29
377.129	15.5
377.496	15.73
377.863	15.67
378.229	15.71
378.596	15.83
378.963	15.69
379.329	15.93
379.696	15.65
380.062	15.92
380.429	15.36
380.795	16.05
381.161	15.79
381.528	15.76
381.894	16.28
382.26	16.22
382.626	16.43
382.993	16.68
383.359	16.33
383.725	16.39
384.091	16.67
384.457	16.37
384.823	16.63
385.188	16.88
385.554	16.56
385.92	16.6
386.286	16.78
386.651	16.73
387.017	17.23
387.383	16.98
387.748	17.16
388.114	17.28
388.479	17.11
388.845	17.14
389.21	17.48
389.575	17.52
389.94	17.45
390.306	17.59
390.671	17.74
391.036	17.47
391.401	17.67
391.766	17.43
392.131	17.95
392.496	18.06
392.861	17.84
393.226	17.83
393.591	17.88
393.956	17.96
394.32	18.06
394.685	18.16
395.05	18.24
395.414	18.31
395.779	18.37
396.143	18.31
396.508	18.17
396.872	18.64
397.236	19.13
397.601	18.87
397.965	18.82
398.329	18.77
398.694	18.57
399.058	18.72
399.422	18.84
399.786	18.93
400.15	19.05
400.514	18.82
400.878	19.17
401.242	19.03
401.605	19.38
401.969	19.31
402.333	19.22
402.697	19.62
403.06	19.38
403.424	19.64
403.787	19.71
404.151	19.63
404.514	19.74
404.878	19.62
405.241	19.71
405.604	19.69
405.968	19.89
406.331	19.76
406.694	19.72
407.057	20.05
407.42	19.96
407.783	20.26
408.146	20.13
408.509	20.35
408.872	20.37
409.235	20.29
409.598	20.55
409.961	20.69
410.323	20.58
410.686	20.46
411.049	20.62
411.411	20.57
411.774	20.83
412.136	20.62
412.499	20.8
412.861	20.69
413.223	20.84
413.586	21.13
413.948	21.13
414.31	21.26
414.672	21.1
415.035	21.32
415.397	21.27
415.759	21.18
416.121	21.28
416.483	21.21
416.845	21.5
417.206	21.41
417.568	21.36
417.93	21.52
418.292	21.44
418.653	21.3
419.015	21.45
419.377	21.48
419.738	21.66
420.1	21.38
420.461	21.41
420.822	21.61
421.184	21.49
421.545	21.7
421.906	21.73
422.267	21.56
422.629	21.57
422.99	21.48
423.351	21.72
423.712	21.84
424.073	22.01
424.434	22.12
424.795	22.04
425.155	22.04
425.516	21.92
425.877	21.87
426.238	22.07
426.598	22.09
426.959	22.34
427.32	22.42
427.68	22.56
428.041	22.64
428.401	22.75
428.761	23.04
429.122	22.98
429.482	22.97
429.842	22.84
430.202	23.3
430.563	23.29
430.923	23.18
431.283	23.46
431.643	23.5
432.003	23.46
432.363	23.54
432.722	23.64
433.082	23.52
433.442	23.6
433.802	23.56
434.161	23.58
434.521	23.71
434.881	23.64
435.24	23.58
435.6	23.64
435.959	23.78
436.319	24.02
436.678	23.95
437.037	24.11
437.396	24.16
437.756	24.2
438.115	24.26
438.474	24.21
438.833	24.29
439.192	24.44
439.551	24.4
439.91	24.33
440.269	24.28
440.628	24.31
440.987	24.35
441.345	24.44
441.704	24.28
442.063	24.39
442.421	24.33
442.78	24.37
443.138	24.61
443.497	24.79
443.855	24.82
444.214	24.92
444.572	25.22
444.93	25.23
445.288	25.14
445.647	25.1
446.005	25.01
446.363	25.01
446.721	25.12
447.079	24.96
447.437	24.98
447.795	24.97
448.153	24.91
448.51	25.05
448.868	24.95
449.226	25.13
449.584	25.25
449.941	25.44
450.299	25.59
450.656	25.55
451.014	25.74
451.371	26.01
451.729	25.93
452.086	25.94
452.443	26.16
452.801	26.06
453.158	26.19
453.515	26.1
453.872	26.18
454.229	26.2
454.586	26.2
454.943	26.37
455.3	26.56
455.657	26.4
456.014	26.6
456.371	26.8
456.727	26.7
457.084	26.63
457.441	26.86
457.797	26.81
458.154	26.79
458.51	26.88
458.867	26.9
459.223	26.79
459.58	27.04
459.936	26.91
460.292	26.87
460.648	26.81
461.005	26.63
461.361	26.64
461.717	26.66
462.073	26.82
462.429	26.97
462.785	27.23
463.141	27.19
463.496	27.54
463.852	27.77
464.208	27.4
464.564	27.68
464.919	27.73
465.275	28.01
465.631	28.09
465.986	27.96
466.342	27.82
466.697	27.88
467.052	28.21
467.408	28.04
467.763	28.09
468.118	27.99
468.473	28.05
468.829	28.1
469.184	28.25
469.539	28.18
469.894	28.46
470.249	28.3
470.603	28.66
470.958	28.64
471.313	28.64
471.668	28.7
472.023	28.72
472.377	28.63
472.732	28.73
473.086	28.88
473.441	28.76
473.795	29.17
474.15	28.84
474.504	28.87
474.859	28.88
475.213	29.18
475.567	29.11
475.921	29.02
476.275	29.18
476.63	29.38
476.984	29.29
477.338	29.47
477.692	29.34
478.045	29.33
478.399	29.54
478.753	29.27
479.107	29.52
479.461	29.53
479.814	29.48
480.168	29.48
480.521	29.65
480.875	29.69
481.228	29.7
481.582	29.75
481.935	29.82
482.289	29.85
482.642	29.68
482.995	29.63
483.348	29.5
483.701	29.45
484.055	29.49
484.408	29.16
484.761	28.79
485.114	28.62
485.466	28.67
485.819	28.73
486.172	28.94
486.525	29.06
486.878	29.24
487.23	29.48
487.583	29.58
487.936	29.57
488.288	29.5
488.641	29.28
488.993	29.25
489.345	29.25
489.698	29.39
490.05	29.43
490.402	29.65
490.754	29.84
491.107	30.09
491.459	30.39
491.811	30.46
492.163	30.38
492.515	30.18
492.866	29.87
493.218	29.79
493.57	30.01
493.922	30.24
494.274	30.56
494.625	30.65
494.977	30.94
495.328	31.3
495.68	31.25
496.031	31.33
496.383	31.54
496.734	31.6
497.086	31.45
497.437	31.68
497.788	31.73
498.139	31.51
498.49	31.28
498.842	31.44
499.193	31.35
499.544	31.68
499.894	31.51
500.245	31.89
500.596	31.83
500.947	32
501.298	31.88
501.648	31.98
501.999	32.15
502.35	32.18
502.7	32.38
503.051	32.44
503.401	32.25
503.752	32.49
504.102	32.38
504.452	32.51
504.803	32.52
505.153	32.61
505.503	32.37
505.853	32.56
506.203	32.64
506.553	32.7
506.903	32.66
507.253	32.89
507.603	32.83
507.953	32.86
508.303	32.88
508.652	32.63
509.002	32.99
509.352	33.09
509.701	32.67
510.051	33
510.4	32.88
510.75	32.75
511.099	32.74
511.449	33.02
511.798	33.1
512.147	32.96
512.496	33.09
512.846	33.09
513.195	33.06
513.544	33.28
513.893	33.36
514.242	33.36
514.591	33.5
514.939	33.44
515.288	33.64
515.637	33.53
515.986	33.71
516.334	33.81
516.683	33.97
517.032	33.97
517.38	33.88
517.729	33.98
518.077	33.84
518.426	33.76
518.774	33.9
519.122	33.68
519.47	33.63
519.819	33.57
520.167	33.37
520.515	33.66
520.863	33.61
521.211	33.6
521.559	33.84
521.907	34.07
522.255	34.04
522.602	34.3
522.95	34.36
523.298	34.55
523.645	34.48
523.993	34.55
524.341	34.66
524.688	34.73
525.036	34.63
525.383	34.75
525.73	34.53
526.078	34.72
526.425	34.41
526.772	34.27
527.119	34.14
527.466	34.17
527.814	34.19
528.161	34.3
528.508	34.53
528.854	34.3
529.201	34.27
529.548	33.97
529.895	33.71
530.242	33.7
530.588	33.86
530.935	34.05
531.282	34.11
531.628	34.29
531.975	34.51
532.321	34.81
532.667	34.78
533.014	35.07
533.36	35.12
533.706	34.94
534.052	34.93
534.399	34.73
534.745	34.5
535.091	34.44
535.437	34.64
535.783	34.91
536.129	35.08
536.474	35.27
536.82	35.37
537.166	35.55
537.512	35.46
537.857	35.32
538.203	35.26
538.549	35.16
538.894	35.52
539.239	35.64
539.585	35.89
539.93	36
540.276	36.3
540.621	36.27
540.966	36.24
541.311	36.25
541.656	36.09
542.001	35.81
542.346	35.61
542.691	35.32
543.036	35.3
543.381	35.45
543.726	35.41
544.071	35.7
544.415	35.92
544.76	36
545.105	35.99
545.449	36.17
545.794	36.36
546.138	36.4
546.483	36.74
546.827	36.56
547.171	36.71
547.516	36.69
547.86	36.74
548.204	36.65
548.548	36.63
548.892	36.72
549.236	37.03
549.58	36.94
549.924	37.31
550.268	37.53
550.612	37.53
550.956	37.71
551.3	38
551.643	37.87
551.987	37.82
552.33	38.15
552.674	38
553.017	38.02
553.361	38.08
553.704	37.66
554.048	37.73
554.391	37.9
554.734	37.88
555.077	37.98
555.42	38
555.764	38.19
556.107	38.07
556.45	38.14
556.793	38.57
557.135	38.24
557.478	38.49
557.821	38.48
558.164	38.48
558.507	38.34
558.849	38.63
559.192	38.56
559.534	38.66
559.877	38.71
560.219	38.86
560.562	38.71
560.904	38.8
561.246	38.77
561.589	39.15
561.931	38.8
562.273	38.89
562.615	39.14
562.957	38.78
563.299	39.06
563.641	39.03
563.983	39.26
564.325	39.24
564.667	39.24
565.008	39.11
565.35	39.34
565.692	39.46
566.033	39.16
566.375	39.23
566.716	39.32
567.058	39.04
567.399	39.46
567.741	39.25
568.082	39.25
568.423	39.19
568.764	39.34
569.105	39.33
569.447	39.48
569.788	39.59
570.129	39.63
570.47	39.74
570.811	39.69
571.151	39.58
571.492	39.68
571.833	39.65
572.174	39.96
572.514	39.64
572.855	39.98
573.195	39.54
573.536	39.61
573.876	39.62
574.217	39.64
574.557	39.89
574.898	39.87
575.238	39.94
575.578	39.79
575.918	40.37
576.258	40.31
576.598	40.19
576.938	39.94
577.278	40.23
577.618	40.27
577.958	40.47
578.298	40.36
578.638	40.61
578.977	40.68
579.317	40.61
579.657	40.44
579.996	40.65
580.336	40.87
580.675	40.99
581.014	40.88
581.354	41.2
581.693	41.28
582.032	41.14
582.372	41.13
582.711	41
583.05	41.3
583.389	41.21
583.728	41.5
584.067	41.09
584.406	41.13
584.745	41.11
585.083	41.32
585.422	41.49
585.761	41.59
586.1	41.62
586.438	41.43
586.777	41.56
587.115	41.99
587.454	41.52
587.792	41.65
588.13	41.64
588.469	41.8
588.807	41.71
589.145	42.11
589.483	41.8
589.821	41.96
590.159	41.98
590.497	41.85
590.835	41.86
591.173	41.74
591.511	41.92
591.849	42
592.187	41.69
592.524	41.91
592.862	41.67
593.2	41.94
593.537	42.13
593.875	42.14
594.212	42.22
594.55	42.3
594.887	42.27
595.224	42.39
595.561	42.11
595.899	42.36
596.236	42.56
596.573	42.14
596.91	42.44
597.247	42.64
597.584	42.53
597.921	42.08
598.258	42.14
598.594	42.09
598.931	42.19
599.268	42.07
599.604	42.25
599.941	42.45
600.277	42.41
600.614	42.62
600.95	42.86
601.287	42.75
601.623	42.83
601.959	42.91
602.296	43.09
602.632	42.83
602.968	42.94
603.304	43.19
603.64	42.85
603.976	42.96
604.312	42.94
604.648	42.92
604.984	42.98
605.319	42.93
605.655	42.72
605.991	42.72
606.326	42.39
606.662	42.55
606.998	42.8
607.333	43.02
607.668	43.1
608.004	43.52
608.339	43.23
608.674	43.46
609.01	43.66
609.345	43.86
609.68	43.42
610.015	43.53
610.35	43.85
610.685	43.14
611.02	43.22
611.355	43.03
611.689	43.26
612.024	43.23
612.359	43.44
612.694	43.79
613.028	43.83
613.363	43.99
613.697	43.72
614.032	43.95
614.366	43.96
614.7	44.2
615.035	44.44
615.369	44.34
615.703	44.24
616.037	44.08
616.371	44.05
616.705	44.72
617.039	44.55
617.373	44.72
617.707	44.55
618.041	44.56
618.375	44.14
618.709	44.62
619.042	44.39
619.376	44.52
619.71	44.23
620.043	44.55
620.377	44.51
620.71	44.85
621.043	44.92
621.377	44.46
621.71	45.23
622.043	44.86
622.376	44.36
622.709	44.87
623.043	45.17
623.376	44.79
623.709	44.98
624.041	44.91
624.374	44.66
624.707	44.74
625.04	45.17
625.373	44.96
625.705	45.19
626.038	45.18
626.37	45.17
626.703	44.95
627.035	44.78
627.368	45.6
627.7	45.28
628.032	45.14
628.365	44.95
628.697	45.36
629.029	44.84
629.361	44.95
629.693	45.47
630.025	45.52
630.357	45.84
630.689	45.86
631.021	45.55
631.353	45.77
631.684	45.57
632.016	45.49
632.348	45.55
632.679	45.33
633.011	45.63
633.342	45.64
633.674	45.4
634.005	45.91
634.336	45.75
634.668	45.83
634.999	45.84
635.33	46.01
635.661	45.75
635.992	45.86
636.323	46.05
636.654	45.69
636.985	45.94
637.316	45.76
637.647	46.42
637.977	45.84
638.308	46.27
638.639	46.01
638.969	46.47
639.3	46.41
639.63	45.92
639.961	46.71
640.291	46.01
640.622	46.53
640.952	46.37
641.282	46.3
641.612	46.04
641.943	46.44
642.273	46.31
642.603	46.21
642.933	46.84
643.263	46.98
643.592	46.56
643.922	46.57
644.252	47.01
644.582	45.9
644.911	46.56
645.241	46.45
645.571	46.76
645.9	46.62
646.23	46.79
646.559	46.64
646.888	46.8
647.218	47.1
647.547	47.14
647.876	46.78
648.205	46.77
648.534	47.08
648.863	47.23
649.192	47.12
649.521	46.7
649.85	47.19
650.179	47.24
650.508	47.22
650.837	47.64
651.165	46.87
651.494	47.11
651.822	47.28
652.151	46.54
652.479	47.38
652.808	47
653.136	46.97
653.465	47.19
653.793	47.62
654.121	47.02
654.449	47.71
654.777	46.92
655.105	47.57
655.433	47.14
655.761	47.73
656.089	47.58
656.417	48.03
656.745	47.75
657.073	48.11
657.4	46.94
657.728	47.24
658.056	47.92
658.383	47.37
658.711	47.96
659.038	47.9
659.365	48.07
659.693	47.59
660.02	47.71
660.347	47.49
660.674	47.3
661.001	47.72
661.329	47.25
661.656	47.3
661.982	47.62
662.309	47.77
662.636	47.79
662.963	47.66
663.29	48.37
663.616	48.07
663.943	48.65
664.27	47.48
664.596	47.96
664.923	48.11
665.249	48.35
665.576	48.35
665.902	48.48
666.228	48.92
666.554	48.75
666.881	47.93
667.207	48.26
667.533	48.48
667.859	48.47
668.185	48.32
668.511	49.16
668.837	49.22
669.162	48.42
669.488	48.38
669.814	48.7
670.139	48.01
670.465	48.97
670.791	48.25
