Data from 430_crown_Reflection__0__129.txt Node

Date: Fri Dec 15 17:51:28 CST 2023
User: ToomeyLab
Spectrometer: FLMS14357
Trigger mode: 0
Integration Time (sec): 1.000000E-2
Scans to average: 100
Electric dark correction enabled: true
Nonlinearity correction enabled: false
Boxcar width: 0
XAxis mode: Wavelengths
Number of Pixels in Spectrum: 2048
>>>>>Begin Spectral Data<<<<<
189.047	-216.68
189.435	-216.68
189.823	-216.68
190.211	-18.22
190.599	5413.21
190.987	89.45
191.375	237.91
191.763	-736.46
192.151	-120.86
192.538	82.51
192.926	14.02
193.314	93.95
193.702	-470.89
194.089	-64.91
194.477	1008.11
194.864	-458.92
195.252	77.88
195.639	51.91
196.027	-382.73
196.414	41.22
196.801	3972.9
197.189	62.83
197.576	-5.27
197.963	424.96
198.351	-140.67
198.738	-138.39
199.125	12.5
199.512	-3.92
199.899	15.94
200.286	11.89
200.673	20.72
201.06	-40.63
201.447	-27.18
201.833	3.37
202.22	25.8
202.607	9.35
202.994	18.53
203.38	-0.88
203.767	32.83
204.154	39.53
204.54	14.12
204.927	2.21
205.313	9.34
205.699	7.42
206.086	62.56
206.472	28.69
206.858	28.94
207.245	-35.39
207.631	11.94
208.017	8.6
208.403	63.85
208.789	-1.68
209.175	14.77
209.561	-24.53
209.947	-0.39
210.333	-48.26
210.719	16.75
211.105	41.8
211.491	34.02
211.876	72.5
212.262	23.94
212.648	13.36
213.034	-3.25
213.419	-0.79
213.805	-6.72
214.19	-38.43
214.576	8.85
214.961	2.22
215.346	-69.82
215.732	-45.47
216.117	13.22
216.502	4.56
216.888	6.46
217.273	6.41
217.658	1.04
218.043	-11.3
218.428	-67.04
218.813	-20.53
219.198	-32.73
219.583	-32.45
219.968	30.83
220.353	-16.6
220.738	16.29
221.122	14.64
221.507	-5.53
221.892	-22.33
222.276	-8.66
222.661	-5.24
223.046	22.16
223.43	10.93
223.815	15.99
224.199	-8.57
224.583	14.49
224.968	0.89
225.352	9.12
225.736	-5.44
226.121	-8.99
226.505	0.57
226.889	7.77
227.273	2.07
227.657	4.73
228.041	5.68
228.425	2.23
228.809	9.24
229.193	6.06
229.577	4.01
229.961	7.99
230.344	5.34
230.728	6.46
231.112	6.98
231.495	6.69
231.879	6.36
232.263	6.96
232.646	6.25
233.03	5.55
233.413	4.59
233.797	7.92
234.18	7.27
234.563	4.35
234.946	4.93
235.33	8.91
235.713	7.27
236.096	6.2
236.479	7.57
236.862	4.35
237.245	6.54
237.628	6.62
238.011	6.32
238.394	9.3
238.777	6.86
239.16	5.83
239.543	4.9
239.925	6.51
240.308	7.93
240.691	7.51
241.073	9.39
241.456	6.12
241.838	5.86
242.221	6.14
242.603	7.09
242.986	5.98
243.368	7.01
243.75	7.02
244.133	6
244.515	6.54
244.897	6.81
245.279	6.02
245.661	6.14
246.043	4.9
246.425	5.17
246.807	7.38
247.189	7.01
247.571	6.7
247.953	6.77
248.335	6.22
248.717	6.44
249.098	6.08
249.48	6.31
249.862	5.96
250.243	6.15
250.625	6.11
251.006	6.31
251.388	5.58
251.769	6.44
252.151	5.83
252.532	6.08
252.913	5.72
253.295	5.79
253.676	5.93
254.057	5.62
254.438	5.99
254.819	5.55
255.2	5.41
255.581	5.32
255.962	4.53
256.343	5.83
256.724	6.09
257.105	6.28
257.486	4.98
257.867	6.56
258.247	5.23
258.628	5.28
259.009	5.9
259.389	5.84
259.77	5.41
260.15	5.2
260.531	5.78
260.911	6.61
261.292	5.45
261.672	5.78
262.052	5.81
262.432	5.87
262.813	6.15
263.193	5.31
263.573	5.23
263.953	5.07
264.333	6.16
264.713	6.25
265.093	5.05
265.473	5.38
265.853	4.34
266.233	5.39
266.612	4.22
266.992	3.24
267.372	5.3
267.752	6.18
268.131	6.03
268.511	6.94
268.89	6.06
269.27	5.77
269.649	5.55
270.029	5.08
270.408	6.54
270.787	5.63
271.167	5.82
271.546	5.8
271.925	4.92
272.304	5.22
272.683	5.77
273.062	4.98
273.441	5.48
273.82	5.04
274.199	5.4
274.578	6.14
274.957	5.44
275.336	5.3
275.715	5.09
276.093	5.04
276.472	5.51
276.851	4.72
277.229	5.47
277.608	4.66
277.986	5.23
278.365	4.46
278.743	5.22
279.122	5.49
279.5	4.86
279.878	5.51
280.257	5.27
280.635	5.19
281.013	4.76
281.391	5.53
281.769	4.79
282.147	5.59
282.525	5.85
282.903	5.25
283.281	5.48
283.659	5.3
284.037	5.12
284.415	5.43
284.792	5.52
285.17	4.4
285.548	4.8
285.925	5.33
286.303	5.58
286.68	4.95
287.058	5.09
287.435	5.18
287.813	5.2
288.19	5.29
288.567	4.99
288.945	5.56
289.322	5.13
289.699	4.59
290.076	5.13
290.453	4.64
290.83	4.96
291.207	4.78
291.584	4.79
291.961	5.09
292.338	5.49
292.715	5.67
293.092	5.19
293.469	4.93
293.845	5.47
294.222	4.33
294.599	5.06
294.975	4.15
295.352	5.47
295.728	4.68
296.105	5.35
296.481	5.53
296.858	5.09
297.234	5.04
297.61	4.79
297.986	4.87
298.363	4.96
298.739	5.09
299.115	4.79
299.491	4.97
299.867	5.04
300.243	5
300.619	4.76
300.995	4.54
301.371	5.45
301.746	4.52
302.122	5.33
302.498	5.17
302.874	5.14
303.249	4.95
303.625	4.73
304	5.35
304.376	5.6
304.751	4.39
305.127	5.4
305.502	5.2
305.878	3.89
306.253	4.97
306.628	5.46
307.003	4.73
307.378	5.4
307.754	5.25
308.129	4.1
308.504	5.22
308.879	4.79
309.254	5.78
309.629	5.35
310.003	5.2
310.378	5.21
310.753	5.24
311.128	5.41
311.502	5.09
311.877	5.04
312.252	4.44
312.626	5.1
313.001	4.95
313.375	5.42
313.75	4.52
314.124	5.43
314.498	4.88
314.873	4.64
315.247	4.8
315.621	5.03
315.995	4
316.369	5.17
316.743	4.86
317.117	4.81
317.491	4.88
317.865	4.36
318.239	5.05
318.613	5.33
318.987	5.05
319.361	4.41
319.734	5.75
320.108	5.08
320.482	4.91
320.855	5.05
321.229	5.11
321.602	4.5
321.976	4.92
322.349	4.34
322.723	5.21
323.096	4.85
323.469	4.4
323.843	5.06
324.216	4.95
324.589	3.97
324.962	5
325.335	5.12
325.708	4.85
326.081	4.76
326.454	5.25
326.827	4.92
327.2	4.75
327.573	5.46
327.945	4.96
328.318	4.94
328.691	4.61
329.063	4.65
329.436	4.94
329.809	5.03
330.181	4.82
330.553	4.52
330.926	5.06
331.298	5.04
331.671	4.89
332.043	5.26
332.415	5.33
332.787	4.89
333.159	5.36
333.532	4.8
333.904	4.9
334.276	5.06
334.648	4.8
335.02	5.15
335.391	5.07
335.763	4.83
336.135	4.81
336.507	5.12
336.879	4.69
337.25	4.42
337.622	4.5
337.993	4.89
338.365	5.27
338.736	5.08
339.108	4.6
339.479	5.12
339.851	4.82
340.222	4.88
340.593	4.75
340.964	4.67
341.336	5.98
341.707	4.97
342.078	5.36
342.449	5.03
342.82	5.26
343.191	5.39
343.562	5.33
343.933	5
344.303	4.92
344.674	5.27
345.045	5.28
345.416	5.52
345.786	4.77
346.157	5.08
346.527	5.09
346.898	4.84
347.268	5.28
347.639	5.23
348.009	5.19
348.38	4.54
348.75	5.36
349.12	4.95
349.49	5.3
349.861	5.14
350.231	4.95
350.601	5.37
350.971	5.72
351.341	5.23
351.711	5.41
352.081	5.3
352.45	5.15
352.82	5.54
353.19	5.31
353.56	5.2
353.929	4.92
354.299	4.79
354.669	5.17
355.038	5.64
355.408	5.49
355.777	5.23
356.147	4.97
356.516	5.59
356.885	5.65
357.254	5.25
357.624	5.81
357.993	5.22
358.362	4.99
358.731	4.75
359.1	5.64
359.469	5.73
359.838	5.5
360.207	4.97
360.576	4.84
360.945	5.62
361.314	5.56
361.682	5.03
362.051	5.26
362.42	5.51
362.788	5.32
363.157	5.64
363.525	5.62
363.894	5.46
364.262	5.44
364.631	5.26
364.999	5.53
365.367	5.01
365.735	6.06
366.104	5.7
366.472	5.79
366.84	5.16
367.208	5.18
367.576	5.54
367.944	5.67
368.312	5.34
368.68	4.98
369.048	5.78
369.416	5.62
369.783	5.31
370.151	5.57
370.519	5.78
370.886	5.96
371.254	5.14
371.621	5.86
371.989	5.64
372.356	5.22
372.724	5.62
373.091	5.2
373.458	5.4
373.826	5.49
374.193	5.39
374.56	5.86
374.927	5.48
375.294	5.18
375.661	5.64
376.028	5.33
376.395	5.37
376.762	5.75
377.129	5.66
377.496	5.39
377.863	5.53
378.229	5.18
378.596	5.58
378.963	5.74
379.329	5.54
379.696	5.91
380.062	5.53
380.429	5.34
380.795	5.3
381.161	5.56
381.528	5.73
381.894	5.51
382.26	5.29
382.626	6
382.993	5.23
383.359	6.03
383.725	5.48
384.091	5.24
384.457	6.04
384.823	5.87
385.188	5.76
385.554	5.62
385.92	5.72
386.286	5.76
386.651	5.91
387.017	5.92
387.383	5.51
387.748	5.52
388.114	5.97
388.479	5.45
388.845	6.07
389.21	5.73
389.575	5.65
389.94	5.62
390.306	5.74
390.671	5.63
391.036	5.35
391.401	5.5
391.766	5.93
392.131	5.37
392.496	5.61
392.861	5.71
393.226	5.98
393.591	5.85
393.956	5.84
394.32	5.92
394.685	5.86
395.05	5.77
395.414	5.77
395.779	5.69
396.143	5.73
396.508	5.88
396.872	5.97
397.236	5.86
397.601	5.63
397.965	5.61
398.329	6.05
398.694	5.73
399.058	5.71
399.422	5.64
399.786	6.11
400.15	5.99
400.514	5.68
400.878	6.13
401.242	6.33
401.605	5.91
401.969	6.04
402.333	5.99
402.697	5.76
403.06	6.09
403.424	6.05
403.787	5.55
404.151	6.2
404.514	5.9
404.878	5.89
405.241	5.99
405.604	5.91
405.968	5.86
406.331	5.84
406.694	5.9
407.057	5.86
407.42	6.13
407.783	5.76
408.146	5.82
408.509	6
408.872	5.85
409.235	5.92
409.598	6.36
409.961	6.15
410.323	6.44
410.686	5.71
411.049	6.03
411.411	5.79
411.774	6.27
412.136	5.91
412.499	6.02
412.861	6.05
413.223	5.77
413.586	6.09
413.948	5.93
414.31	5.99
414.672	5.79
415.035	5.89
415.397	6.34
415.759	5.84
416.121	6.15
416.483	6.14
416.845	6.23
417.206	6.11
417.568	6.13
417.93	5.77
418.292	5.98
418.653	5.94
419.015	6.19
419.377	6.11
419.738	6.18
420.1	6.07
420.461	6.15
420.822	6
421.184	6.02
421.545	6.04
421.906	5.99
422.267	6.02
422.629	6.06
422.99	5.93
423.351	5.91
423.712	5.96
424.073	6.02
424.434	5.98
424.795	5.98
425.155	5.98
425.516	5.95
425.877	6
426.238	5.96
426.598	6.02
426.959	5.97
427.32	6.01
427.68	6
428.041	5.85
428.401	6.03
428.761	6.02
429.122	6.09
429.482	5.97
429.842	6.19
430.202	6.01
430.563	6.05
430.923	5.94
431.283	6.23
431.643	6.34
432.003	6.02
432.363	6.43
432.722	6.15
433.082	6.09
433.442	6.18
433.802	5.96
434.161	6.29
434.521	6.46
434.881	6.3
435.24	6.12
435.6	6.09
435.959	6.17
436.319	6.27
436.678	6.14
437.037	6.06
437.396	6.25
437.756	6.38
438.115	6.2
438.474	6.17
438.833	6.24
439.192	6.28
439.551	6.23
439.91	6.12
440.269	6.22
440.628	6.04
440.987	6.32
441.345	5.98
441.704	6.17
442.063	6.23
442.421	6.16
442.78	6.03
443.138	6.15
443.497	6.17
443.855	6.22
444.214	6.28
444.572	6.33
444.93	6.13
445.288	6.2
445.647	6.32
446.005	6.24
446.363	6.24
446.721	6.27
447.079	6.19
447.437	6.22
447.795	6.35
448.153	6.19
448.51	6.12
448.868	6.19
449.226	6.16
449.584	6.15
449.941	6.23
450.299	6.35
450.656	6.2
451.014	6.2
451.371	6.12
451.729	6.25
452.086	6.28
452.443	6.21
452.801	6.33
453.158	6.42
453.515	6.13
453.872	6.45
454.229	6.29
454.586	6.23
454.943	6.32
455.3	6.29
455.657	6.26
456.014	6.34
456.371	6.17
456.727	6.22
457.084	6.43
457.441	6.32
457.797	6.25
458.154	6.46
458.51	6.49
458.867	6.57
459.223	6.23
459.58	6.45
459.936	6.38
460.292	6.35
460.648	6.26
461.005	6.23
461.361	6.29
461.717	6.43
462.073	6.21
462.429	6.32
462.785	6.24
463.141	6.33
463.496	6.27
463.852	6.34
464.208	6.16
464.564	6.35
464.919	6.37
465.275	6.21
465.631	6.54
465.986	6.23
466.342	6.41
466.697	6.36
467.052	6.45
467.408	6.54
467.763	6.53
468.118	6.54
468.473	6.32
468.829	6.59
469.184	6.37
469.539	6.47
469.894	6.21
470.249	6.55
470.603	6.57
470.958	6.54
471.313	6.56
471.668	6.56
472.023	6.25
472.377	6.27
472.732	6.41
473.086	6.27
473.441	6.22
473.795	6.74
474.15	6.39
474.504	6.48
474.859	6.6
475.213	6.16
475.567	6.33
475.921	6.22
476.275	6.5
476.63	6.54
476.984	6.51
477.338	6.66
477.692	6.26
478.045	6.42
478.399	6.45
478.753	6.45
479.107	6.48
479.461	6.42
479.814	6.56
480.168	6.5
480.521	6.42
480.875	6.53
481.228	6.27
481.582	6.47
481.935	6.4
482.289	6.33
482.642	6.48
482.995	6.5
483.348	6.42
483.701	6.48
484.055	6.34
484.408	6.45
484.761	6.3
485.114	6.32
485.466	6.14
485.819	6.13
486.172	6.08
486.525	6.1
486.878	6.1
487.23	6.16
487.583	6.3
487.936	6.27
488.288	6.28
488.641	6.41
488.993	6.2
489.345	6.23
489.698	6.15
490.05	6.12
490.402	6.24
490.754	6.15
491.107	6.27
491.459	6.33
491.811	6.42
492.163	6.3
492.515	6.29
492.866	6.32
493.218	6.27
493.57	6.26
493.922	6.22
494.274	6.33
494.625	6.39
494.977	6.45
495.328	6.5
495.68	6.46
496.031	6.5
496.383	6.31
496.734	6.64
497.086	6.56
497.437	6.6
497.788	6.46
498.139	6.41
498.49	6.47
498.842	6.29
499.193	6.47
499.544	6.34
499.894	6.48
500.245	6.3
500.596	6.38
500.947	6.64
501.298	6.34
501.648	6.46
501.999	6.59
502.35	6.51
502.7	6.44
503.051	6.38
503.401	6.39
503.752	6.56
504.102	6.48
504.452	6.73
504.803	6.48
505.153	6.42
505.503	6.39
505.853	6.57
506.203	6.33
506.553	6.54
506.903	6.4
507.253	6.43
507.603	6.33
507.953	6.58
508.303	6.67
508.652	6.5
509.002	6.64
509.352	6.64
509.701	6.42
510.051	6.43
510.4	6.46
510.75	6.4
511.099	6.49
511.449	6.4
511.798	6.47
512.147	6.57
512.496	6.3
512.846	6.59
513.195	6.5
513.544	6.5
513.893	6.43
514.242	6.43
514.591	6.56
514.939	6.61
515.288	6.41
515.637	6.45
515.986	6.58
516.334	6.59
516.683	6.43
517.032	6.45
517.38	6.51
517.729	6.49
518.077	6.23
518.426	6.49
518.774	6.62
519.122	6.54
519.47	6.49
519.819	6.34
520.167	6.44
520.515	6.38
520.863	6.49
521.211	6.53
521.559	6.48
521.907	6.46
522.255	6.32
522.602	6.47
522.95	6.38
523.298	6.43
523.645	6.56
523.993	6.53
524.341	6.56
524.688	6.59
525.036	6.47
525.383	6.43
525.73	6.58
526.078	6.41
526.425	6.46
526.772	6.55
527.119	6.43
527.466	6.44
527.814	6.45
528.161	6.42
528.508	6.48
528.854	6.39
529.201	6.28
529.548	6.36
529.895	6.4
530.242	6.23
530.588	6.24
530.935	6.24
531.282	6.25
531.628	6.23
531.975	6.3
532.321	6.39
532.667	6.39
533.014	6.42
533.36	6.41
533.706	6.38
534.052	6.47
534.399	6.45
534.745	6.39
535.091	6.37
535.437	6.35
535.783	6.41
536.129	6.4
536.474	6.36
536.82	6.42
537.166	6.47
537.512	6.39
537.857	6.45
538.203	6.46
538.549	6.42
538.894	6.3
539.239	6.48
539.585	6.42
539.93	6.32
540.276	6.65
540.621	6.45
540.966	6.58
541.311	6.32
541.656	6.43
542.001	6.52
542.346	6.5
542.691	6.48
543.036	6.31
543.381	6.25
543.726	6.22
544.071	6.3
544.415	6.4
544.76	6.34
545.105	6.42
545.449	6.39
545.794	6.49
546.138	6.46
546.483	6.49
546.827	6.52
547.171	6.54
547.516	6.59
547.86	6.49
548.204	6.41
548.548	6.39
548.892	6.55
549.236	6.33
549.58	6.37
549.924	6.52
550.268	6.64
550.612	6.42
550.956	6.6
551.3	6.59
551.643	6.52
551.987	6.54
552.33	6.7
552.674	6.58
553.017	6.53
553.361	6.56
553.704	6.64
554.048	6.45
554.391	6.44
554.734	6.6
555.077	6.59
555.42	6.35
555.764	6.51
556.107	6.33
556.45	6.3
556.793	6.46
557.135	6.47
557.478	6.76
557.821	6.65
558.164	6.51
558.507	6.41
558.849	6.45
559.192	6.68
559.534	6.55
559.877	6.59
560.219	6.42
560.562	6.77
560.904	6.56
561.246	6.56
561.589	6.41
561.931	6.52
562.273	6.52
562.615	6.7
562.957	6.53
563.299	6.21
563.641	6.48
563.983	6.52
564.325	6.22
564.667	6.46
565.008	6.45
565.35	6.51
565.692	6.29
566.033	6.48
566.375	6.58
566.716	6.76
567.058	6.17
567.399	6.4
567.741	6.34
568.082	6.45
568.423	6.47
568.764	6.4
569.105	6.52
569.447	6.5
569.788	6.37
570.129	6.47
570.47	6.24
570.811	6.47
571.151	6.59
571.492	6.69
571.833	6.65
572.174	6.44
572.514	6.47
572.855	6.43
573.195	6.44
573.536	6.61
573.876	6.33
574.217	6.51
574.557	6.39
574.898	6.62
575.238	6.55
575.578	6.3
575.918	6.74
576.258	6.48
576.598	6.55
576.938	6.36
577.278	6.51
577.618	6.36
577.958	6.6
578.298	6.41
578.638	6.38
578.977	6.3
579.317	6.4
579.657	6.46
579.996	6.7
580.336	6.76
580.675	6.43
581.014	6.54
581.354	6.74
581.693	6.46
582.032	6.29
582.372	6.41
582.711	6.55
583.05	6.43
583.389	6.52
583.728	6.17
584.067	6.38
584.406	6.53
584.745	6.39
585.083	6.42
585.422	6.45
585.761	6.53
586.1	6.69
586.438	6.5
586.777	6.57
587.115	6.75
587.454	6.38
587.792	6.34
588.13	6.63
588.469	6.3
588.807	6.25
589.145	6.23
589.483	6.41
589.821	6.7
590.159	6.58
590.497	6.69
590.835	6.88
591.173	6.3
591.511	6.73
591.849	6.37
592.187	6.53
592.524	6.55
592.862	6.66
593.2	6.49
593.537	6.51
593.875	6.42
594.212	6.15
594.55	6.1
594.887	6.59
595.224	6.47
595.561	6.33
595.899	6.39
596.236	6.57
596.573	6.8
596.91	6.02
597.247	6.19
597.584	6.63
597.921	6.36
598.258	6.4
598.594	6.47
598.931	6.33
599.268	6.58
599.604	6.3
599.941	6.57
600.277	6.19
600.614	6.28
600.95	6.26
601.287	6.76
601.623	6.39
601.959	6.19
602.296	6.53
602.632	6.52
602.968	6.59
603.304	6.36
603.64	6.44
603.976	6.7
604.312	6.4
604.648	6.3
604.984	6.57
605.319	6.63
605.655	6.56
605.991	6.44
606.326	6.49
606.662	6.49
606.998	6.23
607.333	6.35
607.668	6.42
608.004	6.41
608.339	6.61
608.674	6.61
609.01	6.51
609.345	6.02
609.68	6.77
610.015	6.11
610.35	6.24
610.685	6.25
611.02	6.56
611.355	6.58
611.689	6.33
612.024	6.34
612.359	6.17
612.694	6.64
613.028	6.33
613.363	6.61
613.697	6.43
614.032	6.56
614.366	6.36
614.7	6.59
615.035	6.85
615.369	6.33
615.703	6.66
616.037	6.67
616.371	6.23
616.705	6.34
617.039	6.47
617.373	6.37
617.707	6.24
618.041	6.13
618.375	6.42
618.709	6.59
619.042	6.13
619.376	6.72
619.71	6.7
620.043	6.62
620.377	6.57
620.71	6.37
621.043	6.02
621.377	6.09
621.71	6.12
622.043	6.02
622.376	6.04
622.709	6.45
623.043	6.47
623.376	6.41
623.709	6.06
624.041	7.16
624.374	6.26
624.707	6.33
625.04	6.71
625.373	6.51
625.705	6.3
626.038	6.3
626.37	6.33
626.703	6.07
627.035	6.62
627.368	6.74
627.7	6.59
628.032	6.57
628.365	6.7
628.697	6.44
629.029	6.24
629.361	6.39
629.693	6.49
630.025	6.23
630.357	6.77
630.689	6.13
631.021	6.41
631.353	6.66
631.684	6.02
632.016	6.01
632.348	6.64
632.679	6.33
633.011	6.32
633.342	6.57
633.674	6.4
634.005	6.59
634.336	6.52
634.668	6.59
634.999	6.09
635.33	6.47
635.661	6.48
635.992	6.16
636.323	6.4
636.654	6.57
636.985	6.38
637.316	6.31
637.647	6.22
637.977	6.57
638.308	6.45
638.639	5.75
638.969	6.25
639.3	6.23
639.63	6.27
639.961	6.77
640.291	6.28
640.622	6.78
640.952	6.42
641.282	6.84
641.612	6.55
641.943	6.4
642.273	6.34
642.603	6.61
642.933	6.36
643.263	6.35
643.592	6.22
643.922	5.92
644.252	5.63
644.582	6.39
644.911	6.23
645.241	6.34
645.571	6.49
645.9	5.99
646.23	6.72
646.559	6.66
646.888	6.08
647.218	6.71
647.547	6.47
647.876	5.99
648.205	6.65
648.534	5.98
648.863	6.16
649.192	6.79
649.521	6.34
649.85	6.16
650.179	6.58
650.508	5.99
650.837	6.42
651.165	6.19
651.494	6.17
651.822	6.57
652.151	5.99
652.479	6.51
652.808	6.08
653.136	6.24
653.465	5.69
653.793	5.77
654.121	6.14
654.449	6.72
654.777	6.79
655.105	6.49
655.433	6.38
655.761	6.51
656.089	6.32
656.417	6.44
656.745	6.4
657.073	6.23
657.4	6.49
657.728	6.47
658.056	5.5
658.383	6.38
658.711	6.55
659.038	6.29
659.365	6.96
659.693	6.39
660.02	6.32
660.347	6.31
660.674	6.46
661.001	6.43
661.329	5.64
661.656	6.62
661.982	6.8
662.309	6.14
662.636	5.86
662.963	6.95
663.29	6.61
663.616	6.54
663.943	5.94
664.27	5.52
664.596	6.89
664.923	6.37
665.249	6.15
665.576	6.04
665.902	7.04
666.228	6.45
666.554	6.5
666.881	6.75
667.207	6.15
667.533	6.49
667.859	6.47
668.185	6.75
668.511	5.47
668.837	5.72
669.162	6.73
669.488	6.08
669.814	6.39
670.139	6.81
670.465	6.33
670.791	6.22
671.116	7.09
671.442	6.08
671.767	6.52
672.092	6.37
672.418	6.14
672.743	6.5
673.068	5.74
673.393	6.39
673.718	6.4
674.043	6.47
674.368	6.15
674.693	7.14
675.018	6.88
675.343	6.1
675.667	6.54
675.992	6.59
676.317	6.64
676.641	6.48
676.966	6.77
677.29	6.47
677.615	6.78
677.939	7.23
678.264	7.85
678.588	7.09
678.912	6.7
679.236	6.86
679.56	5.76
679.885	6.78
680.209	6.26
680.532	6.12
680.856	7.12
681.18	6.68
681.504	6.65
681.828	6.59
682.152	6.16
682.475	6.35
682.799	6.18
683.122	6.65
683.446	6.59
683.769	7.07
684.093	6.44
684.416	7.01
684.739	6.2
685.062	6.56
685.386	6.88
685.709	5.89
686.032	6.65
686.355	6.96
686.678	6.55
687.001	6.27
687.324	6.89
687.646	5.86
687.969	6.12
688.292	6.11
688.614	5.86
688.937	7.23
689.26	6.23
689.582	6.81
689.904	6.56
690.227	6.66
690.549	6.84
690.871	6.96
691.194	6.33
691.516	6.45
691.838	6.55
692.16	6
692.482	6.88
