Data from 430_crown_Reflection__4__133.txt Node

Date: Fri Dec 15 17:52:08 CST 2023
User: ToomeyLab
Spectrometer: FLMS14357
Trigger mode: 0
Integration Time (sec): 1.000000E-2
Scans to average: 100
Electric dark correction enabled: true
Nonlinearity correction enabled: false
Boxcar width: 0
XAxis mode: Wavelengths
Number of Pixels in Spectrum: 2048
>>>>>Begin Spectral Data<<<<<
189.047	-85.54
189.435	-85.54
189.823	-85.54
190.211	-54.77
190.599	-4656.6
190.987	59.89
191.375	326.58
191.763	119.03
192.151	186.95
192.538	121.19
192.926	-355.96
193.314	203.87
193.702	-602.82
194.089	-22.72
194.477	-6756.76
194.864	-78.56
195.252	72.41
195.639	84.22
196.027	705.6
196.414	200.76
196.801	1708.41
197.189	78.61
197.576	53.78
197.963	-388.98
198.351	-255.92
198.738	-117.03
199.125	48.2
199.512	-0.05
199.899	7.47
200.286	-4.35
200.673	-29.85
201.06	-45.44
201.447	-38.15
201.833	-32.89
202.22	51.93
202.607	5.46
202.994	-2.37
203.38	-4.24
203.767	-20.87
204.154	3.04
204.54	4.33
204.927	-55.17
205.313	-25.53
205.699	18.89
206.086	20.79
206.472	29.49
206.858	16.65
207.245	-81.29
207.631	59.2
208.017	-29.87
208.403	-7.89
208.789	8.85
209.175	-18.38
209.561	-21.67
209.947	4.21
210.333	-69.71
210.719	20.01
211.105	-2.47
211.491	-83.85
211.876	-4.98
212.262	-36.79
212.648	22.6
213.034	-0.03
213.419	-25.85
213.805	-31.97
214.19	-38.51
214.576	-15.8
214.961	-46.76
215.346	-61.35
215.732	-8.96
216.117	-10.38
216.502	-3.39
216.888	-6
217.273	2.25
217.658	-17.78
218.043	-12.85
218.428	-23.68
218.813	-19.22
219.198	-41.47
219.583	-6.91
219.968	-4.26
220.353	-37.07
220.738	4.2
221.122	-2.23
221.507	-23.16
221.892	-69.81
222.276	-31.9
222.661	-13.09
223.046	8.64
223.43	1.34
223.815	3.25
224.199	-9.44
224.583	7.83
224.968	0.65
225.352	8.64
225.736	-13.19
226.121	-17.22
226.505	3.42
226.889	4.65
227.273	-7.82
227.657	6.39
228.041	4.58
228.425	0.13
228.809	4.25
229.193	8.49
229.577	3.84
229.961	4.47
230.344	4.23
230.728	4.72
231.112	4.28
231.495	3.94
231.879	2.77
232.263	5.1
232.646	4.95
233.03	4.56
233.413	4.58
233.797	3.34
234.18	2.43
234.563	2.32
234.946	1.33
235.33	4.23
235.713	4.14
236.096	2.82
236.479	5.43
236.862	1.85
237.245	4.99
237.628	3.04
238.011	5.63
238.394	5.33
238.777	3.89
239.16	3.74
239.543	3.62
239.925	2.41
240.308	4.43
240.691	4.97
241.073	4.52
241.456	3.19
241.838	2.38
242.221	3.09
242.603	5.79
242.986	4.38
243.368	4.77
243.75	4.34
244.133	4.26
244.515	4.63
244.897	4.01
245.279	5.01
245.661	3.45
246.043	2.99
246.425	3.4
246.807	4.77
247.189	3.87
247.571	4.6
247.953	4.73
248.335	4.1
248.717	4.56
249.098	4.51
249.48	4.29
249.862	3.93
250.243	4.37
250.625	4.11
251.006	4.3
251.388	3.27
251.769	3.28
252.151	4.3
252.532	3.97
252.913	3.43
253.295	3.49
253.676	4.03
254.057	3.63
254.438	3.97
254.819	3.23
255.2	3.12
255.581	2.74
255.962	3.04
256.343	3.87
256.724	4
257.105	3.62
257.486	3.07
257.867	3.79
258.247	3.56
258.628	2.55
259.009	3.83
259.389	4.26
259.77	3.22
260.15	3.29
260.531	3.83
260.911	4.4
261.292	3.95
261.672	4.27
262.052	4.26
262.432	4.42
262.813	4.51
263.193	3.43
263.573	3.46
263.953	3.46
264.333	4.21
264.713	3.94
265.093	2.44
265.473	3.62
265.853	2.94
266.233	3.96
266.612	1.25
266.992	2.87
267.372	4.32
267.752	3.61
268.131	3.49
268.511	4.4
268.89	4.14
269.27	4.01
269.649	3.53
270.029	3.2
270.408	4.62
270.787	4.07
271.167	4.35
271.546	4.64
271.925	3.88
272.304	4.19
272.683	4.57
273.062	3.97
273.441	4.08
273.82	3.51
274.199	4.51
274.578	4.08
274.957	3.98
275.336	3.97
275.715	3.55
276.093	3.22
276.472	3.89
276.851	3.95
277.229	4.29
277.608	3.54
277.986	3.49
278.365	3.5
278.743	3.72
279.122	3.85
279.5	3.93
279.878	4.08
280.257	3.75
280.635	3.23
281.013	3.25
281.391	4.78
281.769	4.2
282.147	4.03
282.525	3.86
282.903	3.46
283.281	3.4
283.659	3.87
284.037	3.89
284.415	4.15
284.792	4.4
285.17	2.98
285.548	3.51
285.925	3.7
286.303	4.04
286.68	3.98
287.058	3.99
287.435	3.91
287.813	3.88
288.19	3.63
288.567	3.58
288.945	4.21
289.322	3.77
289.699	3.32
290.076	3.46
290.453	3.12
290.83	3.6
291.207	3.31
291.584	3.68
291.961	4.21
292.338	3.66
292.715	3.89
293.092	3.4
293.469	3.81
293.845	3.53
294.222	3.01
294.599	3.55
294.975	3.41
295.352	4.33
295.728	3.32
296.105	3.78
296.481	4.27
296.858	3.77
297.234	3.44
297.61	3.85
297.986	3.88
298.363	3.98
298.739	3.91
299.115	3.82
299.491	3.54
299.867	3.85
300.243	3.78
300.619	3.33
300.995	3.38
301.371	3.85
301.746	3.91
302.122	4
302.498	3.67
302.874	3.82
303.249	3.57
303.625	4.19
304	3.72
304.376	3.3
304.751	3.1
305.127	4.28
305.502	3.12
305.878	3.38
306.253	3.57
306.628	4.02
307.003	3.59
307.378	3.98
307.754	3.79
308.129	2.66
308.504	3.75
308.879	3.38
309.254	4.29
309.629	3.81
310.003	3.75
310.378	4.21
310.753	3.97
311.128	3.66
311.502	3.31
311.877	4.17
312.252	3.11
312.626	3.52
313.001	3.53
313.375	3.95
313.75	3.47
314.124	3.92
314.498	3.41
314.873	3.24
315.247	3.41
315.621	4.07
315.995	3.11
316.369	3.59
316.743	3.62
317.117	3.66
317.491	3.37
317.865	3.17
318.239	3.19
318.613	3.77
318.987	3.92
319.361	2.92
319.734	3.96
320.108	3.92
320.482	3.3
320.855	3.69
321.229	2.94
321.602	3.37
321.976	3.19
322.349	3.34
322.723	3.12
323.096	3.99
323.469	2.5
323.843	3.43
324.216	3.89
324.589	3.79
324.962	3.92
325.335	3.15
325.708	3.37
326.081	3.36
326.454	3.67
326.827	3.59
327.2	3.39
327.573	3.59
327.945	3.35
328.318	3.2
328.691	3.38
329.063	3.79
329.436	3.04
329.809	2.99
330.181	3.51
330.553	3.84
330.926	4.35
331.298	3.44
331.671	2.93
332.043	4.06
332.415	3.53
332.787	3.34
333.159	4.55
333.532	4.06
333.904	3.84
334.276	3.57
334.648	3.87
335.02	3.84
335.391	3.06
335.763	3.28
336.135	3.14
336.507	4.18
336.879	3.25
337.25	3.34
337.622	3.31
337.993	3.53
338.365	3.85
338.736	3.5
339.108	3.9
339.479	3.37
339.851	3.29
340.222	3.87
340.593	3.53
340.964	3.38
341.336	4.56
341.707	3.13
342.078	3.93
342.449	3.82
342.82	3.61
343.191	3.66
343.562	3.39
343.933	4.25
344.303	3.28
344.674	3.42
345.045	3.28
345.416	3.83
345.786	3.2
346.157	3.86
346.527	3.62
346.898	3.03
347.268	4.06
347.639	3.68
348.009	3.63
348.38	3.73
348.75	3.71
349.12	3.54
349.49	4.21
349.861	3.4
350.231	3.41
350.601	3.52
350.971	3.8
351.341	3.68
351.711	3.56
352.081	3.52
352.45	3.35
352.82	3.89
353.19	3.83
353.56	3.53
353.929	4.19
354.299	3.71
354.669	2.84
355.038	4.07
355.408	3.76
355.777	3.79
356.147	3.58
356.516	3.83
356.885	3.85
357.254	3.7
357.624	3.64
357.993	3.96
358.362	3.61
358.731	3.48
359.1	3.53
359.469	3.88
359.838	3.86
360.207	3.6
360.576	3.47
360.945	3.89
361.314	4.29
361.682	3.68
362.051	3.48
362.42	3.83
362.788	3.83
363.157	4.03
363.525	3.99
363.894	3.92
364.262	3.86
364.631	3.51
364.999	3.88
365.367	3.19
365.735	4.29
366.104	3.62
366.472	3.83
366.84	3.89
367.208	3.66
367.576	4.19
367.944	4.15
368.312	3.77
368.68	3.3
369.048	4.07
369.416	4.09
369.783	3.75
370.151	3.99
370.519	4.32
370.886	4.02
371.254	3.52
371.621	4.15
371.989	4.2
372.356	3.54
372.724	4.03
373.091	3.39
373.458	4.04
373.826	3.8
374.193	3.73
374.56	4.47
374.927	4.07
375.294	3.94
375.661	3.79
376.028	3.52
376.395	3.97
376.762	3.67
377.129	3.94
377.496	3.77
377.863	4.09
378.229	3.4
378.596	3.73
378.963	4.05
379.329	3.54
379.696	3.55
380.062	3.97
380.429	4
380.795	3.74
381.161	3.82
381.528	4.22
381.894	3.58
382.26	4.22
382.626	4.21
382.993	3.53
383.359	4.4
383.725	3.55
384.091	4
384.457	4.04
384.823	3.79
385.188	3.95
385.554	3.93
385.92	4.06
386.286	4.43
386.651	4.3
387.017	4.32
387.383	4.03
387.748	3.92
388.114	4.32
388.479	4.14
388.845	4.25
389.21	4.21
389.575	4.09
389.94	4.64
390.306	4.28
390.671	4.09
391.036	3.57
391.401	3.85
391.766	4.15
392.131	3.83
392.496	3.93
392.861	4.03
393.226	4.24
393.591	4.13
393.956	3.99
394.32	4.18
394.685	3.77
395.05	4.07
395.414	3.95
395.779	3.77
396.143	4.02
396.508	4.08
396.872	4.09
397.236	4.14
397.601	3.73
397.965	4.2
398.329	4.61
398.694	4.13
399.058	4.21
399.422	4
399.786	4.64
400.15	4
400.514	4.34
400.878	4.04
401.242	4.51
401.605	4.11
401.969	4.3
402.333	4.08
402.697	4.08
403.06	4.31
403.424	4.22
403.787	4.08
404.151	4.53
404.514	4.34
404.878	4.13
405.241	4.43
405.604	3.97
405.968	4.29
406.331	4.21
406.694	4.34
407.057	4.25
407.42	4.16
407.783	4.03
408.146	4.16
408.509	4.25
408.872	4.03
409.235	4.37
409.598	4.54
409.961	4.26
410.323	4.59
410.686	4.13
411.049	4.1
411.411	4.28
411.774	4.18
412.136	4.26
412.499	4.2
412.861	4.15
413.223	4.19
413.586	4.14
413.948	4.37
414.31	4.27
414.672	3.76
415.035	4.01
415.397	4.47
415.759	4.12
416.121	4.23
416.483	3.95
416.845	4.09
417.206	4.23
417.568	4.1
417.93	4.04
418.292	4.26
418.653	4.28
419.015	4.17
419.377	4.09
419.738	4.45
420.1	4.21
420.461	4.37
420.822	4.24
421.184	4.26
421.545	4.17
421.906	4.1
422.267	4.23
422.629	4.2
422.99	4.19
423.351	4.18
423.712	4.26
424.073	4.15
424.434	4.16
424.795	4.27
425.155	4.23
425.516	4.21
425.877	4.23
426.238	4.18
426.598	4.37
426.959	4.27
427.32	4.13
427.68	4.37
428.041	4.2
428.401	4.36
428.761	4.3
429.122	4.44
429.482	4.37
429.842	4.41
430.202	4.45
430.563	4.34
430.923	4.05
431.283	4.31
431.643	4.23
432.003	4.19
432.363	4.32
432.722	4.2
433.082	4.2
433.442	4.35
433.802	4.34
434.161	4.41
434.521	4.49
434.881	4.5
435.24	4.33
435.6	4.27
435.959	4.24
436.319	4.35
436.678	4.22
437.037	4.38
437.396	4.55
437.756	4.41
438.115	4.41
438.474	4.46
438.833	4.18
439.192	4.36
439.551	4.38
439.91	4.32
440.269	4.25
440.628	4.25
440.987	4.23
441.345	4.23
441.704	4.39
442.063	4.3
442.421	4.42
442.78	4.31
443.138	4.27
443.497	4.39
443.855	4.31
444.214	4.43
444.572	4.37
444.93	4.36
445.288	4.19
445.647	4.46
446.005	4.25
446.363	4.45
446.721	4.56
447.079	4.19
447.437	4.28
447.795	4.32
448.153	4.28
448.51	4.33
448.868	4.29
449.226	4.37
449.584	4.36
449.941	4.56
450.299	4.33
450.656	4.39
451.014	4.45
451.371	4.24
451.729	4.41
452.086	4.33
452.443	4.36
452.801	4.58
453.158	4.34
453.515	4.29
453.872	4.56
454.229	4.21
454.586	4.37
454.943	4.5
455.3	4.41
455.657	4.46
456.014	4.41
456.371	4.36
456.727	4.42
457.084	4.58
457.441	4.39
457.797	4.27
458.154	4.66
458.51	4.62
458.867	4.63
459.223	4.4
459.58	4.5
459.936	4.52
460.292	4.38
460.648	4.34
461.005	4.34
461.361	4.44
461.717	4.41
462.073	4.34
462.429	4.37
462.785	4.44
463.141	4.41
463.496	4.33
463.852	4.44
464.208	4.64
464.564	4.72
464.919	4.47
465.275	4.4
465.631	4.71
465.986	4.48
466.342	4.53
466.697	4.38
467.052	4.53
467.408	4.57
467.763	4.46
468.118	4.6
468.473	4.44
468.829	4.51
469.184	4.47
469.539	4.37
469.894	4.39
470.249	4.7
470.603	4.65
470.958	4.69
471.313	4.78
471.668	4.91
472.023	4.47
472.377	4.56
472.732	4.4
473.086	4.33
473.441	4.39
473.795	4.73
474.15	4.53
474.504	4.61
474.859	4.54
475.213	4.53
475.567	4.51
475.921	4.58
476.275	4.49
476.63	4.66
476.984	4.67
477.338	4.61
477.692	4.41
478.045	4.54
478.399	4.45
478.753	4.57
479.107	4.47
479.461	4.55
479.814	4.55
480.168	4.52
480.521	4.53
480.875	4.4
481.228	4.53
481.582	4.52
481.935	4.58
482.289	4.56
482.642	4.41
482.995	4.5
483.348	4.46
483.701	4.61
484.055	4.6
484.408	4.55
484.761	4.41
485.114	4.4
485.466	4.29
485.819	4.3
486.172	4.32
486.525	4.33
486.878	4.37
487.23	4.41
487.583	4.45
487.936	4.5
488.288	4.53
488.641	4.46
488.993	4.37
489.345	4.32
489.698	4.37
490.05	4.37
490.402	4.43
490.754	4.42
491.107	4.44
491.459	4.53
491.811	4.54
492.163	4.52
492.515	4.38
492.866	4.64
493.218	4.45
493.57	4.45
493.922	4.41
494.274	4.53
494.625	4.58
494.977	4.6
495.328	4.64
495.68	4.59
496.031	4.77
496.383	4.52
496.734	4.72
497.086	4.72
497.437	4.63
497.788	4.58
498.139	4.64
498.49	4.61
498.842	4.48
499.193	4.58
499.544	4.61
499.894	4.53
500.245	4.58
500.596	4.55
500.947	4.73
501.298	4.5
501.648	4.57
501.999	4.8
502.35	4.66
502.7	4.48
503.051	4.52
503.401	4.59
503.752	4.65
504.102	4.69
504.452	4.7
504.803	4.58
505.153	4.74
505.503	4.62
505.853	4.57
506.203	4.52
506.553	4.57
506.903	4.72
507.253	4.63
507.603	4.56
507.953	4.68
508.303	4.91
508.652	4.41
509.002	4.64
509.352	4.74
509.701	4.69
510.051	4.64
510.4	4.54
510.75	4.67
511.099	4.71
511.449	4.69
511.798	4.66
512.147	4.67
512.496	4.6
512.846	4.73
513.195	4.65
513.544	4.67
513.893	4.7
514.242	4.54
514.591	4.85
514.939	4.69
515.288	4.53
515.637	4.72
515.986	4.66
516.334	4.72
516.683	4.81
517.032	4.65
517.38	4.76
517.729	4.75
518.077	4.58
518.426	4.83
518.774	4.85
519.122	4.59
519.47	4.67
519.819	4.48
520.167	4.77
520.515	4.56
520.863	4.66
521.211	4.66
521.559	4.76
521.907	4.67
522.255	4.74
522.602	4.74
522.95	4.61
523.298	4.66
523.645	4.75
523.993	4.58
524.341	4.87
524.688	4.76
525.036	4.61
525.383	4.77
525.73	4.83
526.078	4.63
526.425	4.57
526.772	4.84
527.119	4.78
527.466	4.63
527.814	4.7
528.161	4.61
528.508	4.67
528.854	4.68
529.201	4.69
529.548	4.65
529.895	4.59
530.242	4.5
530.588	4.49
530.935	4.58
531.282	4.57
531.628	4.56
531.975	4.6
532.321	4.59
532.667	4.65
533.014	4.81
533.36	4.69
533.706	4.62
534.052	4.66
534.399	4.57
534.745	4.68
535.091	4.6
535.437	4.61
535.783	4.66
536.129	4.68
536.474	4.66
536.82	4.66
537.166	4.76
537.512	4.81
537.857	4.69
538.203	4.7
538.549	4.64
538.894	4.7
539.239	4.77
539.585	4.68
539.93	4.71
540.276	4.76
540.621	4.81
540.966	4.76
541.311	4.67
541.656	4.62
542.001	4.77
542.346	4.73
542.691	4.58
543.036	4.61
543.381	4.53
543.726	4.55
544.071	4.65
544.415	4.73
544.76	4.66
545.105	4.63
545.449	4.63
545.794	4.83
546.138	4.76
546.483	4.83
546.827	4.77
547.171	4.65
547.516	4.86
547.86	4.64
548.204	4.72
548.548	4.72
548.892	4.83
549.236	4.63
549.58	4.63
549.924	4.75
550.268	4.88
550.612	4.83
550.956	5
551.3	4.73
551.643	4.94
551.987	4.78
552.33	4.77
552.674	4.85
553.017	4.87
553.361	4.61
553.704	5.04
554.048	4.71
554.391	4.7
554.734	4.65
555.077	4.85
555.42	4.76
555.764	4.69
556.107	4.64
556.45	4.76
556.793	4.77
557.135	4.9
557.478	4.89
557.821	4.88
558.164	4.6
558.507	4.75
558.849	4.77
559.192	4.74
559.534	4.78
559.877	4.88
560.219	4.69
560.562	4.99
560.904	4.94
561.246	4.79
561.589	4.71
561.931	4.98
562.273	4.72
562.615	4.96
562.957	4.85
563.299	4.61
563.641	4.84
563.983	4.93
564.325	4.76
564.667	4.69
565.008	4.75
565.35	4.82
565.692	4.75
566.033	4.84
566.375	5.03
566.716	5.07
567.058	4.63
567.399	4.89
567.741	4.71
568.082	4.71
568.423	4.8
568.764	4.75
569.105	4.91
569.447	4.98
569.788	4.89
570.129	4.84
570.47	4.83
570.811	4.88
571.151	4.83
571.492	4.97
571.833	4.81
572.174	4.76
572.514	4.97
572.855	4.81
573.195	4.78
573.536	4.9
573.876	4.61
574.217	4.76
574.557	4.99
574.898	4.93
575.238	4.85
575.578	4.83
575.918	4.9
576.258	4.83
576.598	4.96
576.938	4.9
577.278	4.83
577.618	4.73
577.958	4.69
578.298	4.69
578.638	4.75
578.977	4.65
579.317	4.62
579.657	4.88
579.996	4.57
580.336	4.93
580.675	4.65
581.014	5
581.354	4.98
581.693	4.76
582.032	4.64
582.372	4.83
582.711	4.91
583.05	4.65
583.389	4.77
583.728	4.81
584.067	5.02
584.406	4.85
584.745	4.79
585.083	5.14
585.422	5
585.761	5.11
586.1	4.85
586.438	4.7
586.777	5.03
587.115	5.04
587.454	4.77
587.792	4.82
588.13	5.11
588.469	4.7
588.807	4.56
589.145	4.59
589.483	5.02
589.821	5.01
590.159	5.09
590.497	5.1
590.835	5.27
591.173	5.06
591.511	5.23
591.849	4.92
592.187	5.05
592.524	5.04
592.862	4.97
593.2	4.87
593.537	4.81
593.875	4.73
594.212	4.69
594.55	4.78
594.887	5.09
595.224	4.6
595.561	4.66
595.899	4.9
596.236	4.76
596.573	5.09
596.91	4.78
597.247	4.72
597.584	4.97
597.921	4.72
598.258	4.84
598.594	4.76
598.931	4.83
599.268	4.9
599.604	4.72
599.941	4.86
600.277	4.96
600.614	4.83
600.95	4.61
601.287	5.08
601.623	4.84
601.959	4.8
602.296	5.01
602.632	4.63
602.968	4.95
603.304	4.93
603.64	4.91
603.976	4.82
604.312	4.55
604.648	4.79
604.984	5.13
605.319	4.73
605.655	4.92
605.991	4.94
606.326	4.89
606.662	4.7
606.998	4.58
607.333	4.83
607.668	4.72
608.004	4.87
608.339	5.15
608.674	4.97
609.01	4.52
609.345	4.54
609.68	5.06
610.015	4.74
610.35	4.6
610.685	4.61
611.02	4.81
611.355	4.9
611.689	4.79
612.024	4.86
612.359	4.79
612.694	4.97
613.028	4.68
613.363	5.07
613.697	4.87
614.032	5.14
614.366	4.81
614.7	4.82
615.035	4.91
615.369	4.87
615.703	4.92
616.037	5.17
616.371	4.55
616.705	4.93
617.039	4.64
617.373	4.67
617.707	4.89
618.041	4.52
618.375	5
618.709	4.79
619.042	4.57
619.376	4.78
619.71	4.83
620.043	5
620.377	4.57
620.71	4.87
621.043	4.82
621.377	5.02
621.71	4.74
622.043	4.65
622.376	4.39
622.709	4.73
623.043	5.34
623.376	4.66
623.709	4.79
624.041	4.98
624.374	4.92
624.707	4.76
625.04	5.04
625.373	4.19
625.705	4.91
626.038	4.36
626.37	4.72
626.703	5
627.035	4.72
627.368	5.1
627.7	5.21
628.032	5.11
628.365	5.16
628.697	4.94
629.029	4.58
629.361	4.64
629.693	4.96
630.025	4.79
630.357	5.1
630.689	5.23
631.021	4.99
631.353	5.15
631.684	4.99
632.016	4.45
632.348	4.82
632.679	4.58
633.011	5
633.342	5.34
633.674	5.01
634.005	5.44
634.336	4.95
634.668	5.67
634.999	4.78
635.33	4.88
635.661	5.18
635.992	4.66
636.323	5.31
636.654	5.3
636.985	4.75
637.316	4.89
637.647	4.56
637.977	4.9
638.308	4.91
638.639	4.73
638.969	4.7
639.3	5.02
639.63	4.57
639.961	5.02
640.291	4.96
640.622	4.91
640.952	4.86
641.282	5.6
641.612	4.77
641.943	4.69
642.273	5.14
642.603	5.31
642.933	5.55
643.263	5.07
643.592	5.15
643.922	5.04
644.252	4.79
644.582	4.69
644.911	4.25
645.241	4.88
645.571	4.68
645.9	4.7
646.23	5.12
646.559	5.31
646.888	4.66
647.218	5.04
647.547	4.69
647.876	4.53
648.205	5.01
648.534	5.01
648.863	4.36
649.192	5.1
649.521	5.18
649.85	4.33
650.179	4.87
650.508	4.65
650.837	4.5
651.165	4.55
651.494	5.43
651.822	4.63
652.151	4.93
652.479	5.18
652.808	4.44
653.136	4.79
653.465	4.14
653.793	4.66
654.121	5
654.449	5.45
654.777	5.05
655.105	5.1
655.433	4.73
655.761	4.66
656.089	5.14
656.417	5.42
656.745	4.67
657.073	4.57
657.4	5.83
657.728	4.76
658.056	4.68
658.383	4.62
658.711	4.93
659.038	5.02
659.365	5.17
659.693	4.89
660.02	4.74
660.347	4.78
660.674	4.94
661.001	5.39
661.329	4.44
661.656	4.94
661.982	5.02
662.309	5.26
662.636	4.61
662.963	5.47
663.29	5.43
663.616	5.2
663.943	4.69
664.27	4.92
664.596	4.94
664.923	5.03
665.249	4.75
665.576	5.22
665.902	5.44
666.228	5.07
666.554	4.69
666.881	4.8
667.207	5.03
667.533	4.81
667.859	5.33
668.185	4.66
668.511	4.47
668.837	3.85
669.162	4.14
669.488	4.4
669.814	4.95
670.139	5.11
670.465	5.55
670.791	5.25
671.116	5.58
671.442	4.35
671.767	5.56
672.092	5.62
672.418	4.76
672.743	5.12
673.068	4.69
673.393	4.79
673.718	4.75
674.043	4.32
674.368	5.02
674.693	6.24
675.018	4.67
675.343	5.12
675.667	4.38
675.992	5.56
676.317	4.44
676.641	5.08
676.966	5.23
677.29	5.1
677.615	5.71
677.939	4.96
678.264	5.34
678.588	5.59
678.912	5.71
679.236	5.21
679.56	4.29
679.885	5.79
680.209	5.2
680.532	5.12
680.856	5.89
681.18	4.92
681.504	4.64
681.828	5.23
682.152	4.61
682.475	4.85
682.799	5.17
683.122	5.14
683.446	4.06
683.769	5.56
684.093	5.04
684.416	5.29
684.739	4.74
685.062	4.92
685.386	5.26
685.709	5.04
686.032	4.88
686.355	5.44
686.678	5.01
687.001	4.93
687.324	5.45
687.646	4.84
687.969	5.22
688.292	4.7
688.614	4.54
688.937	5.15
689.26	4.82
689.582	5.24
689.904	4.02
690.227	5.79
690.549	5.05
690.871	5.84
691.194	4.25
691.516	4.31
691.838	4.93
