Data from 430_chest_Reflection__0__124.txt Node

Date: Fri Dec 15 17:30:35 CST 2023
User: ToomeyLab
Spectrometer: FLMS14357
Trigger mode: 0
Integration Time (sec): 1.000000E-2
Scans to average: 100
Electric dark correction enabled: true
Nonlinearity correction enabled: false
Boxcar width: 0
XAxis mode: Wavelengths
Number of Pixels in Spectrum: 2048
>>>>>Begin Spectral Data<<<<<
189.047	194.19
189.435	194.19
189.823	194.19
190.211	23.04
190.599	-1649.06
190.987	34.72
191.375	211.17
191.763	-32.71
192.151	-23.56
192.538	78.45
192.926	-510.35
193.314	219.46
193.702	1354.93
194.089	-154.95
194.477	-9194.59
194.864	-255.17
195.252	120.25
195.639	76.68
196.027	-480.29
196.414	-10.7
196.801	996.26
197.189	39.11
197.576	151.58
197.963	224.1
198.351	-107.18
198.738	22.39
199.125	-15.63
199.512	-33.3
199.899	38.77
200.286	17.69
200.673	9.71
201.06	7.75
201.447	-1.22
201.833	-0.36
202.22	8.8
202.607	15.61
202.994	21.36
203.38	15.81
203.767	28.13
204.154	20.04
204.54	48.01
204.927	-38.95
205.313	-21.85
205.699	32.89
206.086	21.92
206.472	28.88
206.858	33.74
207.245	-46.77
207.631	26.63
208.017	-9.7
208.403	-16.95
208.789	16.15
209.175	30.71
209.561	-41.41
209.947	0.05
210.333	-15.65
210.719	36.15
211.105	42.81
211.491	26.44
211.876	35.7
212.262	-0.32
212.648	33.67
213.034	20.37
213.419	20.07
213.805	-43.13
214.19	-8.89
214.576	2.94
214.961	-6.78
215.346	-28.46
215.732	1.08
216.117	13.87
216.502	-7.44
216.888	-19.57
217.273	7.03
217.658	-7.02
218.043	12.44
218.428	-72.07
218.813	-12.67
219.198	-13.18
219.583	2.5
219.968	-10.79
220.353	-21.67
220.738	20.28
221.122	7.66
221.507	-0.94
221.892	-25.14
222.276	-29.35
222.661	2.02
223.046	-1.75
223.43	23.83
223.815	1.06
224.199	-14.5
224.583	-1.45
224.968	9.4
225.352	3.18
225.736	4.05
226.121	-15.13
226.505	-0.65
226.889	5.42
227.273	5.14
227.657	8.18
228.041	1.31
228.425	1.17
228.809	6.51
229.193	3.68
229.577	0.29
229.961	4.68
230.344	2.99
230.728	2.95
231.112	3.77
231.495	3.9
231.879	3.62
232.263	4.98
232.646	3.84
233.03	3.99
233.413	4.02
233.797	3.16
234.18	4.33
234.563	3.53
234.946	3.57
235.33	4.02
235.713	5.02
236.096	3.81
236.479	5.58
236.862	2.52
237.245	5.08
237.628	2.94
238.011	6.18
238.394	6.19
238.777	2.99
239.16	3.93
239.543	2.08
239.925	5.49
240.308	4.71
240.691	6.76
241.073	5.37
241.456	3.87
241.838	3.75
242.221	2.7
242.603	4.39
242.986	3.81
243.368	3.98
243.75	4.6
244.133	3.89
244.515	4.19
244.897	4.03
245.279	4.33
245.661	3.87
246.043	3.25
246.425	3.33
246.807	4.8
247.189	4.81
247.571	3.61
247.953	4.07
248.335	4.01
248.717	3.94
249.098	3.7
249.48	3.61
249.862	3.94
250.243	3.88
250.625	4.15
251.006	3.95
251.388	3.13
251.769	3.08
252.151	4.71
252.532	4.21
252.913	3.01
253.295	3.3
253.676	3.42
254.057	3.72
254.438	3.54
254.819	3.58
255.2	2.36
255.581	4.68
255.962	3.89
256.343	3.62
256.724	3.02
257.105	3.53
257.486	2.92
257.867	4.92
258.247	3.28
258.628	2.95
259.009	3.37
259.389	4.23
259.77	3.69
260.15	3.08
260.531	3.42
260.911	3.72
261.292	3.76
261.672	3.83
262.052	3.82
262.432	3.77
262.813	3.92
263.193	3.44
263.573	2.78
263.953	3.65
264.333	3.7
264.713	4.22
265.093	2.84
265.473	4.04
265.853	2.3
266.233	3.58
266.612	1.7
266.992	3.79
267.372	4.57
267.752	3.06
268.131	3.42
268.511	4.44
268.89	3.94
269.27	3.8
269.649	2.9
270.029	2.95
270.408	4.73
270.787	3.91
271.167	4.45
271.546	3.68
271.925	3.54
272.304	3.88
272.683	4.1
273.062	3.44
273.441	3.89
273.82	3
274.199	3.28
274.578	3.56
274.957	3.14
275.336	3.46
275.715	3.18
276.093	3.13
276.472	4.19
276.851	4.06
277.229	3.12
277.608	2.86
277.986	3.33
278.365	3.44
278.743	2.98
279.122	2.94
279.5	3.65
279.878	4.45
280.257	4.25
280.635	2.61
281.013	3.66
281.391	4.33
281.769	3.38
282.147	3.33
282.525	4.29
282.903	3.01
283.281	3.64
283.659	3.9
284.037	3.6
284.415	3.95
284.792	3.8
285.17	3.16
285.548	2.96
285.925	3.79
286.303	4.04
286.68	3.65
287.058	3.76
287.435	3.36
287.813	3.71
288.19	3.82
288.567	3.52
288.945	4.01
289.322	3.04
289.699	3.15
290.076	3.45
290.453	3.01
290.83	3.48
291.207	3.25
291.584	3.86
291.961	4.03
292.338	3.42
292.715	3.96
293.092	3.44
293.469	3.63
293.845	3.79
294.222	3.51
294.599	3.33
294.975	3.48
295.352	3.66
295.728	2.6
296.105	3.09
296.481	3.3
296.858	3.46
297.234	3.57
297.61	3.56
297.986	3.51
298.363	4.35
298.739	3.79
299.115	3.21
299.491	3.62
299.867	3.41
300.243	3.69
300.619	3.33
300.995	3.31
301.371	4.07
301.746	3.3
302.122	3.97
302.498	3.55
302.874	4.16
303.249	3.56
303.625	3.53
304	3.88
304.376	3.61
304.751	3.17
305.127	4.93
305.502	2.63
305.878	3.02
306.253	3.75
306.628	4.29
307.003	4.07
307.378	3.92
307.754	3.91
308.129	3.3
308.504	3.63
308.879	3.41
309.254	5.2
309.629	4.41
310.003	3.53
310.378	4.48
310.753	3.97
311.128	3.67
311.502	3.95
311.877	3.82
312.252	3.49
312.626	2.9
313.001	3.55
313.375	4.15
313.75	3.52
314.124	3.76
314.498	3.27
314.873	3.52
315.247	3.96
315.621	3.32
315.995	3.22
316.369	3.93
316.743	4.01
317.117	4.1
317.491	3.53
317.865	4.13
318.239	3.93
318.613	3.96
318.987	4.09
319.361	3.41
319.734	4.25
320.108	3.82
320.482	3.86
320.855	4.05
321.229	3.64
321.602	3.97
321.976	3.93
322.349	3.37
322.723	3.8
323.096	4.64
323.469	3.3
323.843	3.9
324.216	4.54
324.589	3.76
324.962	3.87
325.335	3.74
325.708	3.98
326.081	4.54
326.454	4.12
326.827	3.68
327.2	3.85
327.573	4.24
327.945	4.09
328.318	3.63
328.691	3.74
329.063	4.25
329.436	3.83
329.809	4.53
330.181	3.73
330.553	3.45
330.926	4.13
331.298	4.12
331.671	3.84
332.043	4.6
332.415	4.33
332.787	3.72
333.159	4.39
333.532	3.77
333.904	4.19
334.276	4.24
334.648	4.68
335.02	3.94
335.391	4.3
335.763	3.71
336.135	3.46
336.507	4.16
336.879	3.56
337.25	3.63
337.622	4.39
337.993	4.03
338.365	3.88
338.736	4.28
339.108	4.01
339.479	3.7
339.851	3.64
340.222	3.3
340.593	3.91
340.964	3.67
341.336	4.65
341.707	3.38
342.078	4.05
342.449	3.95
342.82	4.07
343.191	3.82
343.562	3.7
343.933	4.12
344.303	3.85
344.674	4.05
345.045	4.04
345.416	4.5
345.786	4.44
346.157	3.98
346.527	3.72
346.898	3.66
347.268	4.46
347.639	4.07
348.009	4.2
348.38	4.13
348.75	4.19
349.12	3.64
349.49	4.22
349.861	4.34
350.231	4.22
350.601	4.16
350.971	4.38
351.341	4.41
351.711	4.34
352.081	4.11
352.45	3.8
352.82	4.25
353.19	4.16
353.56	3.14
353.929	4.45
354.299	4.14
354.669	3.8
355.038	4.63
355.408	3.82
355.777	4.04
356.147	3.94
356.516	4.11
356.885	4.04
357.254	4.33
357.624	4.24
357.993	4.24
358.362	3.9
358.731	3.92
359.1	4.15
359.469	4.35
359.838	4.42
360.207	3.91
360.576	3.57
360.945	4.32
361.314	4.36
361.682	3.9
362.051	4.13
362.42	4.46
362.788	3.91
363.157	4.39
363.525	4.56
363.894	4.05
364.262	4.15
364.631	3.7
364.999	4.18
365.367	3.88
365.735	4.8
366.104	4.52
366.472	4.42
366.84	4.16
367.208	4.03
367.576	4.28
367.944	4.47
368.312	3.95
368.68	3.56
369.048	4.2
369.416	4.06
369.783	4.06
370.151	4.55
370.519	4.23
370.886	4.57
371.254	4.18
371.621	4.32
371.989	4.47
372.356	3.74
372.724	4.24
373.091	4.01
373.458	4.47
373.826	4.08
374.193	4.1
374.56	4.47
374.927	4.21
375.294	4.25
375.661	4.61
376.028	3.93
376.395	4.1
376.762	4.47
377.129	4.59
377.496	3.89
377.863	4.29
378.229	3.86
378.596	4.26
378.963	3.87
379.329	4.22
379.696	4.33
380.062	4.51
380.429	4.42
380.795	4.24
381.161	4.34
381.528	4.37
381.894	4.16
382.26	4.07
382.626	4.42
382.993	3.92
383.359	4.57
383.725	4.22
384.091	4.46
384.457	4.4
384.823	4.33
385.188	4.32
385.554	4.07
385.92	4.24
386.286	4.49
386.651	4.38
387.017	4.75
387.383	4.43
387.748	4.39
388.114	4.49
388.479	4.18
388.845	4.7
389.21	4.57
389.575	4.54
389.94	4.46
390.306	4.44
390.671	4.53
391.036	4.12
391.401	3.88
391.766	4.44
392.131	4.35
392.496	4.54
392.861	3.99
393.226	4.61
393.591	4.41
393.956	4.24
394.32	4.46
394.685	4.2
395.05	4.23
395.414	4.44
395.779	4.19
396.143	4.24
396.508	4.4
396.872	4.64
397.236	4.53
397.601	4.25
397.965	4.19
398.329	4.27
398.694	4.63
399.058	4.45
399.422	4.1
399.786	4.69
400.15	4.19
400.514	4.68
400.878	4.35
401.242	4.95
401.605	4.56
401.969	4.27
402.333	4.81
402.697	4.42
403.06	4.55
403.424	4.61
403.787	4.5
404.151	4.6
404.514	4.28
404.878	4.47
405.241	4.81
405.604	4.43
405.968	4.48
406.331	4.72
406.694	4.66
407.057	4.57
407.42	4.78
407.783	4.48
408.146	4.33
408.509	4.37
408.872	4.35
409.235	4.38
409.598	4.58
409.961	4.78
410.323	4.67
410.686	4.8
411.049	4.52
411.411	4.63
411.774	4.58
412.136	4.52
412.499	4.39
412.861	4.57
413.223	4.39
413.586	4.5
413.948	4.53
414.31	4.54
414.672	4.42
415.035	4.42
415.397	4.74
415.759	4.47
416.121	4.71
416.483	4.42
416.845	4.49
417.206	4.69
417.568	4.63
417.93	4.34
418.292	4.62
418.653	4.5
419.015	4.68
419.377	4.51
419.738	4.59
420.1	4.57
420.461	4.77
420.822	4.65
421.184	4.54
421.545	4.55
421.906	4.32
422.267	4.47
422.629	4.47
422.99	4.5
423.351	4.44
423.712	4.42
424.073	4.44
424.434	4.41
424.795	4.47
425.155	4.5
425.516	4.44
425.877	4.5
426.238	4.39
426.598	4.59
426.959	4.56
427.32	4.37
427.68	4.51
428.041	4.32
428.401	4.63
428.761	4.52
429.122	4.69
429.482	4.37
429.842	4.64
430.202	4.58
430.563	4.66
430.923	4.61
431.283	4.55
431.643	4.66
432.003	4.62
432.363	4.9
432.722	4.72
433.082	4.47
433.442	4.49
433.802	4.54
434.161	4.69
434.521	4.83
434.881	4.64
435.24	4.52
435.6	4.53
435.959	4.55
436.319	4.57
436.678	4.66
437.037	4.53
437.396	4.68
437.756	4.7
438.115	4.64
438.474	4.82
438.833	4.51
439.192	4.55
439.551	4.7
439.91	4.63
440.269	4.64
440.628	4.53
440.987	4.69
441.345	4.33
441.704	4.69
442.063	4.67
442.421	4.66
442.78	4.67
443.138	4.6
443.497	4.72
443.855	4.58
444.214	4.72
444.572	4.71
444.93	4.62
445.288	4.69
445.647	4.7
446.005	4.84
446.363	4.85
446.721	4.71
447.079	4.57
447.437	4.75
447.795	4.72
448.153	4.58
448.51	4.71
448.868	4.68
449.226	4.69
449.584	4.62
449.941	4.82
450.299	4.74
450.656	4.71
451.014	4.67
451.371	4.72
451.729	4.67
452.086	4.94
452.443	4.72
452.801	4.82
453.158	4.91
453.515	4.61
453.872	4.79
454.229	4.83
454.586	4.7
454.943	4.73
455.3	4.94
455.657	4.61
456.014	4.7
456.371	4.86
456.727	4.79
457.084	4.96
457.441	4.87
457.797	4.66
458.154	4.97
458.51	4.97
458.867	4.99
459.223	5.1
459.58	4.91
459.936	4.91
460.292	4.94
460.648	4.85
461.005	4.86
461.361	4.93
461.717	4.89
462.073	4.69
462.429	4.78
462.785	4.8
463.141	4.87
463.496	4.98
463.852	4.96
464.208	4.85
464.564	4.95
464.919	4.94
465.275	4.73
465.631	4.89
465.986	4.87
466.342	5.05
466.697	4.51
467.052	5.04
467.408	5.01
467.763	4.81
468.118	4.75
468.473	4.93
468.829	4.85
469.184	4.88
469.539	4.98
469.894	4.78
470.249	5.15
470.603	5.14
470.958	5.08
471.313	5.1
471.668	5.19
472.023	4.97
472.377	4.99
472.732	4.93
473.086	4.83
473.441	4.77
473.795	5.04
474.15	5.19
474.504	4.84
474.859	5.09
475.213	4.88
475.567	5.06
475.921	4.95
476.275	5.06
476.63	5.02
476.984	5.04
477.338	5.11
477.692	5.04
478.045	5.1
478.399	4.94
478.753	5.09
479.107	4.95
479.461	5.07
479.814	4.94
480.168	4.9
480.521	5.03
480.875	5.01
481.228	5.03
481.582	5.15
481.935	5.12
482.289	5.03
482.642	5
482.995	5
483.348	5.04
483.701	5.12
484.055	5.03
484.408	5.11
484.761	4.95
485.114	4.91
485.466	4.8
485.819	4.76
486.172	4.73
486.525	4.81
486.878	4.86
487.23	4.85
487.583	4.9
487.936	5
488.288	5
488.641	5.01
488.993	4.94
489.345	4.88
489.698	4.89
490.05	4.89
490.402	4.93
490.754	4.92
491.107	4.98
491.459	5.01
491.811	5.05
492.163	5.07
492.515	5.1
492.866	5.09
493.218	5.06
493.57	4.97
493.922	4.9
494.274	4.96
494.625	5.12
494.977	5.12
495.328	5.13
495.68	5.15
496.031	5.44
496.383	5.11
496.734	5.18
497.086	5.26
497.437	5.3
497.788	5.32
498.139	5.26
498.49	5.33
498.842	5.11
499.193	5.17
499.544	5.23
499.894	5.21
500.245	5.32
500.596	5.13
500.947	5.26
501.298	5.19
501.648	5.38
501.999	5.44
502.35	5.18
502.7	5.31
503.051	5.36
503.401	5.25
503.752	5.46
504.102	5.41
504.452	5.43
504.803	5.17
505.153	5.37
505.503	5.26
505.853	5.23
506.203	5.27
506.553	5.25
506.903	5.23
507.253	5.36
507.603	5.3
507.953	5.33
508.303	5.58
508.652	5.28
509.002	5.53
509.352	5.42
509.701	5.36
510.051	5.35
510.4	5.29
510.75	5.35
511.099	5.38
511.449	5.42
511.798	5.41
512.147	5.45
512.496	5.34
512.846	5.5
513.195	5.42
513.544	5.41
513.893	5.55
514.242	5.45
514.591	5.62
514.939	5.43
515.288	5.35
515.637	5.58
515.986	5.57
516.334	5.58
516.683	5.64
517.032	5.56
517.38	5.49
517.729	5.72
518.077	5.37
518.426	5.6
518.774	5.61
519.122	5.5
519.47	5.51
519.819	5.38
520.167	5.56
520.515	5.58
520.863	5.57
521.211	5.61
521.559	5.7
521.907	5.63
522.255	5.63
522.602	5.64
522.95	5.57
523.298	5.68
523.645	5.71
523.993	5.66
524.341	5.84
524.688	5.91
525.036	5.59
525.383	5.8
525.73	5.92
526.078	5.8
526.425	5.68
526.772	5.76
527.119	5.68
527.466	5.71
527.814	5.82
528.161	5.74
528.508	5.78
528.854	5.71
529.201	5.69
529.548	5.72
529.895	5.71
530.242	5.62
530.588	5.56
530.935	5.64
531.282	5.63
531.628	5.61
531.975	5.67
532.321	5.78
532.667	5.8
533.014	5.92
533.36	5.91
533.706	5.92
534.052	5.97
534.399	5.79
534.745	5.82
535.091	5.85
535.437	5.82
535.783	5.86
536.129	5.85
536.474	5.8
536.82	5.93
537.166	6.05
537.512	6.11
537.857	6.05
538.203	6
538.549	5.94
538.894	5.99
539.239	6.03
539.585	6.07
539.93	6.08
540.276	6.2
540.621	6.27
540.966	6.34
541.311	6.1
541.656	6.21
542.001	6.05
542.346	6.27
542.691	6.09
543.036	6.02
543.381	6
543.726	6.07
544.071	6.12
544.415	6.13
544.76	6.14
545.105	6.27
545.449	6.26
545.794	6.29
546.138	6.24
546.483	6.35
546.827	6.47
547.171	6.29
547.516	6.41
547.86	6.36
548.204	6.25
548.548	6.35
548.892	6.41
549.236	6.39
549.58	6.29
549.924	6.55
550.268	6.64
550.612	6.71
550.956	6.7
551.3	6.49
551.643	6.72
551.987	6.76
552.33	6.75
552.674	6.6
553.017	6.63
553.361	6.6
553.704	6.86
554.048	6.71
554.391	6.52
554.734	6.78
555.077	6.85
555.42	6.62
555.764	6.78
556.107	6.68
556.45	6.8
556.793	6.96
557.135	6.97
557.478	7.15
557.821	7.06
558.164	6.84
558.507	6.77
558.849	7.04
559.192	6.93
559.534	6.94
559.877	7.29
560.219	6.9
560.562	7.34
560.904	7.03
561.246	7.08
561.589	7.05
561.931	7.13
562.273	6.93
562.615	7.18
562.957	7.04
563.299	7.07
563.641	7.14
563.983	7.29
564.325	7.27
564.667	7.27
565.008	7.24
565.35	7.1
565.692	7.2
566.033	7.24
566.375	7.26
566.716	7.52
567.058	7.39
567.399	7.27
567.741	7.28
568.082	7.42
568.423	7.41
568.764	7.38
569.105	7.57
569.447	7.56
569.788	7.56
570.129	7.53
570.47	7.56
570.811	7.64
571.151	7.58
571.492	7.62
571.833	7.63
572.174	7.69
572.514	7.71
572.855	7.75
573.195	7.72
573.536	7.77
573.876	7.52
574.217	7.73
574.557	7.89
574.898	7.85
575.238	7.94
575.578	7.7
575.918	8.04
576.258	7.92
576.598	8.03
576.938	7.83
577.278	7.9
577.618	7.89
577.958	7.95
578.298	8.12
578.638	7.82
578.977	7.88
579.317	8.21
579.657	8.13
579.996	8.17
580.336	8.28
580.675	8.04
581.014	8.37
581.354	8.37
581.693	8.27
582.032	8.08
582.372	7.9
582.711	8.4
583.05	8.24
583.389	8.35
583.728	8.28
584.067	8.66
584.406	8.64
584.745	8.33
585.083	8.58
585.422	8.45
585.761	8.62
586.1	9.11
586.438	8.88
586.777	9.02
587.115	8.7
587.454	8.5
587.792	8.79
588.13	8.87
588.469	8.95
588.807	8.82
589.145	8.79
589.483	9.07
589.821	8.8
590.159	8.85
590.497	9.35
590.835	9.12
591.173	9.02
591.511	9
591.849	8.87
592.187	9.08
592.524	9.21
592.862	9.09
593.2	9.17
593.537	9.44
593.875	8.96
594.212	9.23
594.55	9.44
594.887	9.38
595.224	9.09
595.561	9.43
595.899	9.32
596.236	9.28
596.573	9.65
596.91	9.1
597.247	9.34
597.584	9.64
597.921	9.63
598.258	9.72
598.594	9.42
598.931	9.63
599.268	9.51
599.604	9.77
599.941	9.86
600.277	9.64
600.614	9.64
600.95	9.69
601.287	9.86
601.623	9.75
601.959	9.49
602.296	10.01
602.632	9.75
602.968	9.97
603.304	9.95
603.64	10
603.976	10.26
604.312	9.96
604.648	9.96
604.984	10.05
605.319	10.16
605.655	10.21
605.991	10.42
606.326	10.34
606.662	10.28
606.998	10.15
607.333	10.47
607.668	10.23
608.004	10.63
608.339	10.72
608.674	10.73
609.01	10.5
609.345	10.03
609.68	10.65
610.015	10.54
610.35	10.22
610.685	10.62
611.02	10.59
611.355	10.71
611.689	10.66
612.024	10.65
612.359	10.8
612.694	10.76
613.028	10.64
613.363	10.93
613.697	11.2
614.032	11.22
614.366	11.11
614.7	11.17
615.035	11.22
615.369	11.22
615.703	10.99
616.037	11.2
616.371	11.09
616.705	11.13
617.039	10.95
617.373	10.92
617.707	10.9
618.041	11.34
618.375	11.03
618.709	11.05
619.042	11.38
619.376	11.44
619.71	11.4
620.043	11.85
620.377	11.67
620.71	11.56
621.043	11.57
621.377	11.43
621.71	11.49
622.043	11.58
622.376	11.25
622.709	11.85
623.043	11.93
623.376	12.07
623.709	11.83
624.041	12.3
624.374	11.97
624.707	12.15
625.04	12.37
625.373	11.83
625.705	12.37
626.038	12.07
626.37	12
626.703	12.13
627.035	12.33
627.368	12.4
627.7	12.48
628.032	12.12
628.365	12.68
628.697	12.44
629.029	12.17
629.361	12.68
629.693	12.31
630.025	12.39
630.357	12.33
630.689	12.57
631.021	12.48
631.353	12.63
631.684	12.61
632.016	12.49
632.348	13.01
632.679	12.61
633.011	12.82
633.342	13.35
633.674	12.59
634.005	12.97
634.336	12.93
634.668	13.44
634.999	13.2
635.33	12.86
635.661	13.35
635.992	12.99
636.323	13.46
636.654	13.13
636.985	13.54
637.316	13.13
637.647	12.79
637.977	13.82
638.308	13.72
638.639	13.04
638.969	13.26
639.3	13.65
639.63	13.16
639.961	13.82
640.291	13.42
640.622	13.65
640.952	13.52
641.282	14.05
641.612	13.86
641.943	13.55
642.273	14.02
642.603	14.26
642.933	13.98
643.263	14.09
643.592	13.71
643.922	14.07
644.252	14.22
644.582	14.16
644.911	13.64
645.241	14.04
645.571	14.44
645.9	13.89
646.23	13.86
646.559	14.55
646.888	13.93
647.218	14.31
647.547	14.98
647.876	14.06
648.205	14.14
648.534	14.8
648.863	14.53
649.192	14.5
649.521	14.19
649.85	14.78
650.179	15.34
650.508	14.67
650.837	14.12
651.165	14.7
651.494	15.01
651.822	14.82
652.151	14.93
652.479	15.06
652.808	14.93
653.136	14.99
653.465	15
653.793	14.64
654.121	15.12
654.449	15.37
654.777	15.02
655.105	15.37
655.433	15.4
655.761	15
656.089	14.99
656.417	15.62
656.745	15.12
657.073	14.81
657.4	15.92
657.728	15.44
658.056	15.31
658.383	15.67
658.711	16.26
659.038	15.8
659.365	15.73
659.693	16.13
660.02	15.1
660.347	15.78
660.674	16.31
661.001	16.1
661.329	15.3
661.656	16.02
661.982	16.35
662.309	16.04
662.636	15.67
662.963	16.16
663.29	16.22
663.616	15.92
663.943	15.52
664.27	16.21
664.596	16.83
664.923	16.49
665.249	16.28
665.576	16.46
665.902	17
666.228	16.81
666.554	16.64
666.881	15.74
667.207	16.78
667.533	16.8
667.859	16.7
668.185	17.23
668.511	16.96
668.837	15.8
669.162	15.97
669.488	16.46
669.814	16.89
670.139	17.11
670.465	17.08
670.791	17.25
671.116	17.42
671.442	16.03
671.767	16.99
672.092	18.06
672.418	17.09
672.743	16.89
673.068	16.67
673.393	17.25
673.718	17.17
674.043	17.59
674.368	18.04
674.693	17.76
675.018	17.75
675.343	17.44
675.667	18.37
675.992	17.6
676.317	17.2
676.641	17.89
676.966	18.25
677.29	17.57
677.615	18.02
677.939	18
678.264	18.2
678.588	18.16
678.912	17.77
679.236	17.91
679.56	17.25
679.885	18.8
680.209	17.7
680.532	18.47
680.856	19.15
681.18	17.84
681.504	18.1
681.828	18.63
682.152	18.36
682.475	18.37
682.799	18.56
683.122	18.6
683.446	18.47
683.769	18.88
684.093	18.35
684.416	19.09
684.739	19.02
685.062	18.31
685.386	18.47
685.709	18.37
686.032	18.26
686.355	18.39
686.678	18.13
