Data from 430_forehead_Reflection__0__134.txt Node

Date: Fri Dec 15 17:53:15 CST 2023
User: ToomeyLab
Spectrometer: FLMS14357
Trigger mode: 0
Integration Time (sec): 1.000000E-2
Scans to average: 100
Electric dark correction enabled: true
Nonlinearity correction enabled: false
Boxcar width: 0
XAxis mode: Wavelengths
Number of Pixels in Spectrum: 2048
>>>>>Begin Spectral Data<<<<<
189.047	68.3
189.435	68.3
189.823	68.3
190.211	-11.58
190.599	-3118.87
190.987	20.37
191.375	-175.34
191.763	886.6
192.151	117.25
192.538	98.41
192.926	-227.92
193.314	562.82
193.702	808.92
194.089	-62.19
194.477	-10002.7
194.864	195.05
195.252	72.63
195.639	57.86
196.027	612.41
196.414	233.66
196.801	857.01
197.189	73
197.576	67.61
197.963	-91.74
198.351	-98.92
198.738	-54.89
199.125	76.14
199.512	36.67
199.899	65.9
200.286	-2.75
200.673	122.84
201.06	49.37
201.447	8.41
201.833	8.7
202.22	64.49
202.607	25.92
202.994	50.14
203.38	30.56
203.767	78.16
204.154	59.94
204.54	62.36
204.927	9.58
205.313	-6.18
205.699	35.19
206.086	40.23
206.472	56.13
206.858	37.34
207.245	1.44
207.631	33.15
208.017	25.76
208.403	11.67
208.789	22.15
209.175	40.65
209.561	25.36
209.947	14.59
210.333	-26.26
210.719	9.93
211.105	57.73
211.491	-42.56
211.876	64.84
212.262	13.06
212.648	18.45
213.034	14.65
213.419	-13.99
213.805	8.25
214.19	-0.33
214.576	40.2
214.961	-16.57
215.346	-36.55
215.732	22.64
216.117	38.73
216.502	-9.86
216.888	18.45
217.273	22.57
217.658	-11.43
218.043	15.72
218.428	-59.5
218.813	-7.59
219.198	-35.81
219.583	10
219.968	3.12
220.353	-6.9
220.738	17.32
221.122	18.23
221.507	-7.16
221.892	-18.77
222.276	-52.6
222.661	-3.5
223.046	26.06
223.43	6.22
223.815	13.03
224.199	-10.83
224.583	-9.41
224.968	8.4
225.352	9.42
225.736	8.67
226.121	-11.22
226.505	-0.47
226.889	0.68
227.273	4.63
227.657	11.28
228.041	3.46
228.425	4.44
228.809	6.85
229.193	3.74
229.577	1.99
229.961	1.64
230.344	2.5
230.728	1.15
231.112	2.41
231.495	1.52
231.879	2.06
232.263	2.73
232.646	1.97
233.03	3.62
233.413	2.52
233.797	0.81
234.18	2.21
234.563	3.12
234.946	3.06
235.33	3.26
235.713	3.68
236.096	1.82
236.479	3.78
236.862	0.82
237.245	4.76
237.628	0.35
238.011	1.36
238.394	3.61
238.777	0.61
239.16	0.9
239.543	2.63
239.925	2.31
240.308	3.16
240.691	3.49
241.073	3.05
241.456	2.01
241.838	2.73
242.221	1.63
242.603	2.28
242.986	2.28
243.368	1.62
243.75	1.6
244.133	1.84
244.515	1.99
244.897	2.26
245.279	1.87
245.661	1.9
246.043	1.46
246.425	1.31
246.807	3.36
247.189	1.87
247.571	1.8
247.953	1.73
248.335	1.92
248.717	2.05
249.098	1.83
249.48	1.83
249.862	1.73
250.243	1.52
250.625	1.69
251.006	1.87
251.388	1.19
251.769	1.59
252.151	2.21
252.532	2.85
252.913	1.8
253.295	1.37
253.676	1.68
254.057	2.24
254.438	2.18
254.819	2.06
255.2	2.54
255.581	3.48
255.962	1.71
256.343	3.25
256.724	1.36
257.105	2.28
257.486	1.62
257.867	1.66
258.247	2.02
258.628	1.86
259.009	1.67
259.389	2.74
259.77	1.61
260.15	1.86
260.531	1.33
260.911	3.01
261.292	1.9
261.672	2.01
262.052	1.84
262.432	2.19
262.813	1.77
263.193	1.61
263.573	1.48
263.953	2.2
264.333	2.16
264.713	2.13
265.093	1.51
265.473	2.07
265.853	1.32
266.233	2.67
266.612	0.98
266.992	0.91
267.372	2.39
267.752	2.13
268.131	1.82
268.511	2.51
268.89	2.38
269.27	2.02
269.649	1.68
270.029	1.97
270.408	2.5
270.787	2.67
271.167	2.07
271.546	2.34
271.925	1.64
272.304	1.18
272.683	2.09
273.062	2.11
273.441	1.98
273.82	1.19
274.199	2.17
274.578	2.45
274.957	1.97
275.336	2.11
275.715	1.84
276.093	1.88
276.472	1.73
276.851	2.06
277.229	2.03
277.608	1.69
277.986	2.34
278.365	2.08
278.743	1.55
279.122	2.28
279.5	1.53
279.878	2.35
280.257	2.09
280.635	1.42
281.013	1.64
281.391	2.36
281.769	1.94
282.147	2.45
282.525	2.51
282.903	1.7
283.281	2.33
283.659	2.11
284.037	2.21
284.415	2.56
284.792	1.83
285.17	1.41
285.548	1.12
285.925	2.58
286.303	2.12
286.68	2.01
287.058	1.87
287.435	1.86
287.813	1.95
288.19	1.9
288.567	2.16
288.945	2.14
289.322	1.86
289.699	2.18
290.076	2.11
290.453	2.11
290.83	1.82
291.207	2.24
291.584	2.03
291.961	2.13
292.338	2.17
292.715	2.3
293.092	1.87
293.469	2.2
293.845	2.35
294.222	1.74
294.599	1.89
294.975	2.19
295.352	2.41
295.728	1.48
296.105	2.84
296.481	2.79
296.858	2.25
297.234	2.13
297.61	2.27
297.986	2.23
298.363	2.29
298.739	2.44
299.115	2.32
299.491	2.01
299.867	2.31
300.243	2.92
300.619	1.97
300.995	2.76
301.371	2.72
301.746	2.35
302.122	2.89
302.498	2.72
302.874	2.67
303.249	2.28
303.625	2.51
304	2.68
304.376	3.25
304.751	2.24
305.127	3.09
305.502	2.87
305.878	1.96
306.253	2.7
306.628	3.19
307.003	3.01
307.378	3.41
307.754	2.9
308.129	2.44
308.504	2.27
308.879	2.42
309.254	3.92
309.629	3.1
310.003	3.17
310.378	3.57
310.753	3.4
311.128	3.65
311.502	3.06
311.877	4.05
312.252	3.03
312.626	3.33
313.001	3.26
313.375	3.93
313.75	2.76
314.124	3.23
314.498	2.97
314.873	3.53
315.247	3.5
315.621	3.27
315.995	3.37
316.369	3.79
316.743	3.98
317.117	4.19
317.491	3.87
317.865	3.55
318.239	4.15
318.613	3.99
318.987	4.03
319.361	3.34
319.734	3.42
320.108	3.97
320.482	4.35
320.855	4.86
321.229	4.2
321.602	3.66
321.976	3.7
322.349	3.54
322.723	4.6
323.096	4.88
323.469	3.89
323.843	4.46
324.216	4.39
324.589	4.26
324.962	4.39
325.335	4.34
325.708	4.01
326.081	4.22
326.454	4.46
326.827	4.42
327.2	4.74
327.573	4.8
327.945	4.57
328.318	4.49
328.691	4.09
329.063	4.72
329.436	4.99
329.809	4.8
330.181	5.08
330.553	5.51
330.926	5.02
331.298	4.93
331.671	4.09
332.043	5.77
332.415	5.65
332.787	5.58
333.159	5.43
333.532	5.64
333.904	4.76
334.276	4.64
334.648	5.63
335.02	5.35
335.391	5.66
335.763	4.88
336.135	5.29
336.507	6.05
336.879	5.65
337.25	5.16
337.622	5.35
337.993	5.56
338.365	5.87
338.736	6.01
339.108	5.85
339.479	5.28
339.851	6.22
340.222	5.28
340.593	5.67
340.964	5.54
341.336	6.9
341.707	5.88
342.078	6.47
342.449	6.18
342.82	5.64
343.191	6.22
343.562	6.34
343.933	6.45
344.303	6.29
344.674	6.07
345.045	6.23
345.416	6.85
345.786	6.09
346.157	6.56
346.527	5.95
346.898	6.1
347.268	6.34
347.639	6.26
348.009	6.72
348.38	6.45
348.75	7.01
349.12	6.5
349.49	6.6
349.861	6.67
350.231	6.21
350.601	7.22
350.971	7.03
351.341	6.78
351.711	6.5
352.081	7.25
352.45	6.7
352.82	7.41
353.19	7.03
353.56	6.75
353.929	7.27
354.299	7.3
354.669	6.77
355.038	7.55
355.408	7.21
355.777	7.33
356.147	7.04
356.516	7.52
356.885	7.17
357.254	7.88
357.624	8.12
357.993	7.62
358.362	7.21
358.731	7.07
359.1	7.27
359.469	7.36
359.838	7.68
360.207	7.51
360.576	7.4
360.945	7.95
361.314	7.8
361.682	7.16
362.051	7.58
362.42	7.88
362.788	7.64
363.157	7.89
363.525	7.91
363.894	8.01
364.262	8.13
364.631	8.25
364.999	8.01
365.367	7.75
365.735	8.27
366.104	8.71
366.472	8.64
366.84	8.29
367.208	8.35
367.576	8.64
367.944	8.75
368.312	8.42
368.68	8.21
369.048	8.33
369.416	8.69
369.783	8.45
370.151	8.66
370.519	9.14
370.886	9.04
371.254	8.58
371.621	8.88
371.989	9.2
372.356	8.26
372.724	9.42
373.091	8.56
373.458	8.86
373.826	9.02
374.193	9.12
374.56	9.59
374.927	9.4
375.294	9.71
375.661	9.34
376.028	8.87
376.395	9.27
376.762	9.75
377.129	9.13
377.496	9.35
377.863	9.19
378.229	9.14
378.596	9.73
378.963	9.32
379.329	9.33
379.696	9.96
380.062	9.53
380.429	9.77
380.795	9.77
381.161	9.69
381.528	10.02
381.894	9.84
382.26	9.75
382.626	10.04
382.993	9.59
383.359	10.34
383.725	10.02
384.091	10.33
384.457	10.51
384.823	10.26
385.188	10.56
385.554	10.43
385.92	10.66
386.286	10.75
386.651	10.64
387.017	10.95
387.383	10.5
387.748	10.45
388.114	10.98
388.479	10.48
388.845	10.96
389.21	11
389.575	10.63
389.94	10.9
390.306	11.03
390.671	11.13
391.036	10.75
391.401	10.88
391.766	10.55
392.131	11.21
392.496	11.24
392.861	11.2
393.226	11.17
393.591	11.31
393.956	11.22
394.32	11.43
394.685	11.41
395.05	11.3
395.414	11.29
395.779	11.36
396.143	11.43
396.508	11.63
396.872	11.78
397.236	11.78
397.601	11.69
397.965	11.65
398.329	11.81
398.694	11.87
399.058	11.95
399.422	11.6
399.786	12.22
400.15	12.01
400.514	12.17
400.878	12.02
401.242	12.4
401.605	12.1
401.969	12.31
402.333	12.36
402.697	12.28
403.06	12.34
403.424	12.35
403.787	12.13
404.151	12.59
404.514	12.39
404.878	12.59
405.241	12.68
405.604	12.55
405.968	12.37
406.331	12.28
406.694	12.55
407.057	12.52
407.42	12.88
407.783	12.79
408.146	12.85
408.509	12.9
408.872	12.84
409.235	13.05
409.598	13.38
409.961	12.92
410.323	13.21
410.686	13.13
411.049	12.82
411.411	13.35
411.774	13.25
412.136	12.98
412.499	13.19
412.861	13.13
413.223	13.54
413.586	13.55
413.948	13.59
414.31	13.71
414.672	13.3
415.035	13.65
415.397	14
415.759	13.66
416.121	13.89
416.483	13.59
416.845	13.67
417.206	13.8
417.568	14.03
417.93	13.69
418.292	13.72
418.653	14.02
419.015	14.02
419.377	13.78
419.738	13.91
420.1	13.82
420.461	14.03
420.822	13.92
421.184	13.9
421.545	14.07
421.906	13.88
422.267	14.07
422.629	14.01
422.99	14.03
423.351	14.06
423.712	14.13
424.073	14.18
424.434	14.19
424.795	14.3
425.155	14.36
425.516	14.29
425.877	14.39
426.238	14.29
426.598	14.45
426.959	14.58
427.32	14.55
427.68	14.72
428.041	14.77
428.401	14.76
428.761	14.88
429.122	15.1
429.482	15.08
429.842	15.28
430.202	15.35
430.563	15.36
430.923	15.14
431.283	15.34
431.643	15.4
432.003	15.53
432.363	15.43
432.722	15.5
433.082	15.65
433.442	15.45
433.802	15.42
434.161	15.55
434.521	15.77
434.881	15.7
435.24	15.44
435.6	15.53
435.959	15.63
436.319	15.73
436.678	15.81
437.037	15.77
437.396	16
437.756	16.01
438.115	16.16
438.474	16.18
438.833	15.86
439.192	16.16
439.551	16.36
439.91	16.15
440.269	16.35
440.628	16.24
440.987	16.1
441.345	16.18
441.704	16.46
442.063	16.21
442.421	16.29
442.78	16.11
443.138	16.37
443.497	16.46
443.855	16.48
444.214	16.7
444.572	16.85
444.93	16.79
445.288	16.67
445.647	17.07
446.005	16.73
446.363	16.85
446.721	16.77
447.079	16.68
447.437	16.83
447.795	16.86
448.153	16.76
448.51	16.79
448.868	16.8
449.226	16.97
449.584	17.04
449.941	17.26
450.299	17.36
450.656	17.29
451.014	17.42
451.371	17.25
451.729	17.49
452.086	17.61
452.443	17.7
452.801	17.7
453.158	17.85
453.515	17.77
453.872	17.87
454.229	17.77
454.586	17.71
454.943	18.01
455.3	17.89
455.657	17.92
456.014	18.17
456.371	18.2
456.727	18.14
457.084	18.43
457.441	18.39
457.797	18.35
458.154	18.47
458.51	18.57
458.867	18.7
459.223	18.49
459.58	18.43
459.936	18.67
460.292	18.54
460.648	18.38
461.005	18.45
461.361	18.48
461.717	18.33
462.073	18.26
462.429	18.56
462.785	18.61
463.141	18.78
463.496	18.96
463.852	19.04
464.208	18.9
464.564	19.09
464.919	19.14
465.275	19.39
465.631	19.55
465.986	19.19
466.342	19.18
466.697	19.4
467.052	19.43
467.408	19.63
467.763	19.56
468.118	19.54
468.473	19.65
468.829	19.68
469.184	19.75
469.539	19.74
469.894	19.48
470.249	19.77
470.603	19.98
470.958	20.21
471.313	20
471.668	20.07
472.023	19.82
472.377	20.14
472.732	20.14
473.086	20.12
473.441	20.1
473.795	20.16
474.15	20.3
474.504	20.3
474.859	20.51
475.213	20.18
475.567	20.5
475.921	20.53
476.275	20.4
476.63	20.53
476.984	20.59
477.338	20.75
477.692	20.47
478.045	20.65
478.399	20.56
478.753	20.7
479.107	20.47
479.461	20.74
479.814	20.79
480.168	20.9
480.521	20.87
480.875	20.93
481.228	20.98
481.582	21.16
481.935	21.07
482.289	21.07
482.642	21.17
482.995	21.05
483.348	20.99
483.701	21.06
484.055	20.91
484.408	20.86
484.761	20.74
485.114	20.36
485.466	20
485.819	19.97
486.172	20.12
486.525	20.34
486.878	20.49
487.23	20.67
487.583	20.93
487.936	21.06
488.288	21.02
488.641	20.94
488.993	20.65
489.345	20.66
489.698	20.69
490.05	20.85
490.402	20.94
490.754	21.28
491.107	21.33
491.459	21.56
491.811	21.68
492.163	21.97
492.515	21.81
492.866	21.68
493.218	21.38
493.57	21.17
493.922	21.27
494.274	21.56
494.625	21.88
494.977	22.05
495.328	22.27
495.68	22.51
496.031	22.83
496.383	22.62
496.734	22.86
497.086	22.93
497.437	22.79
497.788	22.76
498.139	22.61
498.49	22.84
498.842	22.63
499.193	22.76
499.544	22.89
499.894	22.88
500.245	22.91
500.596	22.93
500.947	23.13
501.298	23.25
501.648	23.28
501.999	23.53
502.35	23.6
502.7	23.46
503.051	23.38
503.401	23.37
503.752	23.73
504.102	23.66
504.452	23.79
504.803	23.89
505.153	23.73
505.503	23.93
505.853	23.75
506.203	24.07
506.553	23.84
506.903	23.84
507.253	24.11
507.603	24.15
507.953	24.09
508.303	24.13
508.652	23.99
509.002	24.37
509.352	24.33
509.701	24.19
510.051	24.13
510.4	24.29
510.75	24.26
511.099	24.18
511.449	24.11
511.798	24.28
512.147	24.23
512.496	24.24
512.846	24.46
513.195	24.56
513.544	24.58
513.893	24.67
514.242	24.53
514.591	24.67
514.939	24.81
515.288	24.69
515.637	24.79
515.986	24.97
516.334	24.96
516.683	25.14
517.032	25.13
517.38	25.24
517.729	25.09
518.077	25.09
518.426	25.34
518.774	25.45
519.122	25.27
519.47	25.11
519.819	24.82
520.167	24.94
520.515	24.71
520.863	24.9
521.211	25.16
521.559	25.21
521.907	25.38
522.255	25.46
522.602	25.45
522.95	25.51
523.298	25.56
523.645	25.85
523.993	25.85
524.341	25.98
524.688	25.91
525.036	25.63
525.383	26.04
525.73	26.23
526.078	25.99
526.425	25.86
526.772	25.94
527.119	25.89
527.466	25.7
527.814	25.56
528.161	25.75
528.508	25.73
528.854	25.72
529.201	25.66
529.548	25.67
529.895	25.41
530.242	25.06
530.588	25.04
530.935	25.23
531.282	25.29
531.628	25.51
531.975	25.74
532.321	26.01
532.667	26.27
533.014	26.38
533.36	26.34
533.706	26.48
534.052	26.46
534.399	26.32
534.745	26.18
535.091	26.01
535.437	26.01
535.783	26.12
536.129	26.48
536.474	26.57
536.82	26.82
537.166	26.88
537.512	27.23
537.857	27.14
538.203	26.92
538.549	26.68
538.894	26.76
539.239	27.02
539.585	27.29
539.93	27.36
540.276	27.51
540.621	27.64
540.966	27.6
541.311	27.54
541.656	27.6
542.001	27.59
542.346	27.46
542.691	27.13
543.036	26.83
543.381	26.73
543.726	26.92
544.071	27.2
544.415	27.32
544.76	27.28
545.105	27.53
545.449	27.6
545.794	27.68
546.138	28.14
546.483	28.32
546.827	28.22
547.171	28.29
547.516	28.41
547.86	28.18
548.204	28.37
548.548	28
548.892	28.22
549.236	28.32
549.58	28.49
549.924	28.64
550.268	28.83
550.612	28.86
550.956	29.05
551.3	29.13
551.643	29.44
551.987	29.42
552.33	29.5
552.674	29.48
553.017	29.49
553.361	29.42
553.704	29.79
554.048	29.34
554.391	29.32
554.734	29.27
555.077	29.42
555.42	29.48
555.764	29.6
556.107	29.6
556.45	29.71
556.793	29.69
557.135	30.03
557.478	30.28
557.821	29.86
558.164	30.18
558.507	30.21
558.849	30.2
559.192	30.03
559.534	30.23
559.877	30.32
560.219	30.38
560.562	30.81
560.904	30.52
561.246	30.57
561.589	30.69
561.931	30.68
562.273	30.57
562.615	30.55
562.957	30.69
563.299	30.46
563.641	30.79
563.983	30.72
564.325	30.88
564.667	30.96
565.008	30.75
565.35	31.02
565.692	30.66
566.033	31.06
566.375	31
566.716	31.12
567.058	30.85
567.399	30.78
567.741	30.73
568.082	30.64
568.423	30.69
568.764	30.7
569.105	31.04
569.447	31.16
569.788	31.42
570.129	31.58
570.47	31.38
570.811	31.68
571.151	31.56
571.492	31.75
571.833	31.48
572.174	31.69
572.514	31.83
572.855	31.71
573.195	31.49
573.536	31.7
573.876	31.37
574.217	31.46
574.557	31.79
574.898	31.96
575.238	31.75
575.578	31.82
575.918	31.96
576.258	32.09
576.598	32.29
576.938	31.86
577.278	31.83
577.618	31.83
577.958	31.97
578.298	32.17
578.638	32.45
578.977	32.39
579.317	32.38
579.657	32.45
579.996	32.45
580.336	32.67
580.675	32.76
581.014	32.72
581.354	32.44
581.693	32.85
582.032	32.99
582.372	32.86
582.711	33.03
583.05	32.63
583.389	32.75
583.728	32.78
584.067	33.24
584.406	33.32
584.745	32.97
585.083	33.32
585.422	33.06
585.761	33.39
586.1	33.64
586.438	33.36
586.777	33.38
587.115	33.51
587.454	33.19
587.792	33.8
588.13	33.88
588.469	33.54
588.807	33.56
589.145	33.37
589.483	33.57
589.821	33.88
590.159	33.71
590.497	34.23
590.835	33.96
591.173	33.89
591.511	33.96
591.849	33.99
592.187	34.02
592.524	33.73
592.862	33.73
593.2	34.04
593.537	34
593.875	34.23
594.212	33.88
594.55	34.09
594.887	34.48
595.224	34.06
595.561	34.2
595.899	34.22
596.236	34.22
596.573	34.71
596.91	33.97
597.247	34.23
597.584	34.53
597.921	34.37
598.258	34.4
598.594	34.55
598.931	34.19
599.268	34.43
599.604	34.54
599.941	34.45
600.277	34.86
600.614	34.67
600.95	34.59
601.287	35.1
601.623	34.95
601.959	34.77
602.296	35.02
602.632	34.55
602.968	35.14
603.304	35.11
603.64	35.66
603.976	35.16
604.312	35.61
604.648	35.37
604.984	35.27
605.319	35.09
605.655	34.98
605.991	35.13
606.326	35.06
606.662	34.99
606.998	34.93
607.333	35.3
607.668	35.02
608.004	35.59
608.339	35.45
608.674	35.72
609.01	35.39
609.345	35.33
609.68	36.03
610.015	35.46
610.35	35.98
610.685	35.55
611.02	35.68
611.355	35.54
611.689	35.54
612.024	35.78
612.359	35.88
612.694	36.04
613.028	35.93
613.363	36.11
613.697	36.21
614.032	36.33
614.366	36.31
614.7	36.76
615.035	36.54
615.369	36.23
615.703	36.6
616.037	36.75
616.371	36.4
616.705	36.6
617.039	36.65
617.373	36.57
617.707	36.19
618.041	36.65
618.375	36.36
618.709	36.48
619.042	36.81
619.376	36.84
619.71	36.74
620.043	36.76
620.377	36.55
620.71	36.74
621.043	36.91
621.377	37.07
621.71	37.21
622.043	36.8
622.376	36.95
622.709	37.42
623.043	37.53
623.376	37.11
623.709	37.47
624.041	37.82
624.374	37.18
624.707	37.39
625.04	37.76
625.373	37.1
625.705	37.87
626.038	37.4
626.37	37.26
626.703	37.49
627.035	37.22
627.368	38.03
627.7	36.92
628.032	38.02
628.365	37.61
628.697	37.69
629.029	37.4
629.361	37.62
629.693	37.53
630.025	37.5
630.357	37.55
630.689	37.75
631.021	37.61
631.353	38.04
631.684	38
632.016	37.5
632.348	38.44
632.679	38.15
633.011	38.4
633.342	38.37
633.674	38.13
634.005	38.5
634.336	38.35
634.668	39.11
634.999	37.89
635.33	38.47
635.661	38.14
635.992	38.46
636.323	38.58
636.654	38.24
636.985	38.41
637.316	38.74
637.647	38.51
637.977	38.48
638.308	39.1
638.639	38.71
638.969	38.84
639.3	38.72
639.63	38.84
639.961	39.01
640.291	38.5
640.622	39.17
640.952	39.02
641.282	39.37
641.612	38.69
641.943	39.4
642.273	39.51
642.603	39.3
642.933	39.24
643.263	39.36
643.592	38.9
643.922	39.62
644.252	39.14
644.582	39.52
644.911	38.94
645.241	39.46
645.571	39.83
645.9	39.13
646.23	39.32
646.559	39.86
646.888	39.36
647.218	39.59
647.547	39.59
647.876	39.19
648.205	39.42
648.534	39.23
648.863	40.17
649.192	39.95
649.521	39.44
649.85	39.7
650.179	40.33
650.508	40.42
650.837	39.6
651.165	40.04
651.494	40.49
651.822	40.52
652.151	39.49
652.479	40.13
652.808	39.96
653.136	39.91
653.465	40.02
653.793	40.08
654.121	40.17
654.449	40.4
654.777	40.35
655.105	40.53
655.433	39.98
655.761	40.54
656.089	40.84
656.417	40.75
656.745	40.77
657.073	40.01
657.4	40.73
657.728	40.63
658.056	40.69
658.383	40.78
658.711	40.82
659.038	40.83
659.365	40.96
659.693	41.2
660.02	40.9
660.347	40.8
660.674	40.26
661.001	40.79
661.329	39.94
661.656	40.75
661.982	40.84
662.309	40.83
662.636	41.04
662.963	41.38
663.29	41.1
663.616	41.18
663.943	40.63
664.27	41.04
664.596	41.87
664.923	41.32
665.249	41.2
665.576	41.32
665.902	41.87
666.228	41.6
666.554	41.57
666.881	41.28
667.207	41.33
667.533	41.47
667.859	41.71
668.185	42.23
668.511	40.94
668.837	41.58
669.162	41.73
669.488	41.51
669.814	41.55
670.139	41.34
670.465	41.95
670.791	41.92
671.116	41.66
671.442	41.75
671.767	42.09
672.092	41.83
672.418	41.87
672.743	41.72
