Data from 430_forehead_Reflection__1__135.txt Node

Date: Fri Dec 15 17:53:25 CST 2023
User: ToomeyLab
Spectrometer: FLMS14357
Trigger mode: 0
Integration Time (sec): 1.000000E-2
Scans to average: 100
Electric dark correction enabled: true
Nonlinearity correction enabled: false
Boxcar width: 0
XAxis mode: Wavelengths
Number of Pixels in Spectrum: 2048
>>>>>Begin Spectral Data<<<<<
189.047	-45.26
189.435	-45.26
189.823	-45.26
190.211	56.69
190.599	-2532.08
190.987	58.11
191.375	222.35
191.763	1038.61
192.151	221.01
192.538	31.42
192.926	18.61
193.314	286.54
193.702	226.29
194.089	-160.78
194.477	-2070.27
194.864	-580.81
195.252	63.44
195.639	68.72
196.027	307.06
196.414	514.21
196.801	-345.79
197.189	37.95
197.576	154.77
197.963	135.28
198.351	-17.74
198.738	3.44
199.125	-19.5
199.512	42.65
199.899	27.99
200.286	29.88
200.673	48.59
201.06	-0.61
201.447	-5.31
201.833	12.08
202.22	37.27
202.607	24.33
202.994	-2.79
203.38	43.89
203.767	50.18
204.154	45.15
204.54	34.12
204.927	-44.15
205.313	7.33
205.699	67.85
206.086	57.39
206.472	68.45
206.858	4.96
207.245	-47.68
207.631	24.48
208.017	48.16
208.403	67.49
208.789	39.25
209.175	32.85
209.561	59.07
209.947	26.51
210.333	13.22
210.719	50.59
211.105	14.32
211.491	-18.48
211.876	49.63
212.262	2.44
212.648	19.28
213.034	32.79
213.419	3.47
213.805	1.65
214.19	7.83
214.576	22.51
214.961	10.2
215.346	-30.78
215.732	33.09
216.117	0.65
216.502	7.51
216.888	17.26
217.273	19.99
217.658	8.08
218.043	36.5
218.428	7.5
218.813	-9.49
219.198	-14.24
219.583	42.43
219.968	-3.73
220.353	33.37
220.738	20.88
221.122	19.33
221.507	-11.51
221.892	-3.77
222.276	9.25
222.661	0.15
223.046	19.81
223.43	4.26
223.815	11
224.199	-13.45
224.583	12.33
224.968	11.14
225.352	13.29
225.736	-1.07
226.121	-4.94
226.505	1.51
226.889	11.37
227.273	8.29
227.657	5.79
228.041	4.62
228.425	1.18
228.809	4.05
229.193	7.04
229.577	5.01
229.961	3.15
230.344	3.9
230.728	4.2
231.112	5.15
231.495	3.69
231.879	4.74
232.263	4.16
232.646	3.41
233.03	3.16
233.413	3.73
233.797	4.78
234.18	5.93
234.563	6.9
234.946	2.62
235.33	6.13
235.713	5.71
236.096	4.64
236.479	5.44
236.862	4.99
237.245	6.88
237.628	3.1
238.011	5.97
238.394	5.42
238.777	5.05
239.16	2.69
239.543	5.15
239.925	5.43
240.308	5.7
240.691	4.69
241.073	4.84
241.456	4.89
241.838	3.82
242.221	4.37
242.603	5.15
242.986	4.65
243.368	4.69
243.75	4.55
244.133	3.9
244.515	4.85
244.897	4.38
245.279	4.2
245.661	4.35
246.043	4.12
246.425	3.28
246.807	5.92
247.189	5.23
247.571	4.24
247.953	4.36
248.335	4.69
248.717	4.6
249.098	4.08
249.48	4.29
249.862	4.36
250.243	4.32
250.625	4.32
251.006	4.76
251.388	3.34
251.769	5.14
252.151	5.89
252.532	4.53
252.913	4.03
253.295	4.1
253.676	4.87
254.057	4.43
254.438	4.28
254.819	3.85
255.2	3.3
255.581	3.58
255.962	5.13
256.343	4.7
256.724	6.04
257.105	4.44
257.486	4.55
257.867	4.85
258.247	4.41
258.628	4.85
259.009	5.01
259.389	4.03
259.77	4.59
260.15	3.76
260.531	4.12
260.911	5
261.292	4.29
261.672	4.2
262.052	4.37
262.432	4.56
262.813	4.48
263.193	4.56
263.573	4.33
263.953	4.35
264.333	5.28
264.713	4.55
265.093	4.38
265.473	3.48
265.853	4.1
266.233	5.53
266.612	3.06
266.992	3.03
267.372	4.92
267.752	3.77
268.131	4.64
268.511	5.13
268.89	4.84
269.27	4.12
269.649	4.14
270.029	4.15
270.408	5.05
270.787	4.78
271.167	4.74
271.546	5.03
271.925	3.84
272.304	4.33
272.683	5.05
273.062	4.19
273.441	4.77
273.82	3.65
274.199	4.38
274.578	4.47
274.957	4.1
275.336	4.46
275.715	3.92
276.093	4.45
276.472	4.27
276.851	3.59
277.229	4.14
277.608	4.36
277.986	4.13
278.365	4.39
278.743	4.3
279.122	4.72
279.5	4.8
279.878	5.13
280.257	3.61
280.635	4.24
281.013	3.89
281.391	4.83
281.769	4.64
282.147	5.35
282.525	5.3
282.903	4.02
283.281	4.21
283.659	4.74
284.037	4.34
284.415	4.59
284.792	4.62
285.17	3.48
285.548	4.27
285.925	4.83
286.303	4.83
286.68	4.47
287.058	4.62
287.435	4.4
287.813	4.3
288.19	4.54
288.567	4.34
288.945	4.79
289.322	4.47
289.699	4.7
290.076	4.38
290.453	4.66
290.83	4.24
291.207	4.14
291.584	4.65
291.961	4.82
292.338	4.77
292.715	5.09
293.092	5.08
293.469	4.88
293.845	4.73
294.222	4.43
294.599	4.44
294.975	4.41
295.352	5.28
295.728	4.62
296.105	4.66
296.481	5.16
296.858	4.96
297.234	4.53
297.61	4.87
297.986	4.88
298.363	5.23
298.739	5.29
299.115	4.85
299.491	4.72
299.867	5.05
300.243	5.49
300.619	5.24
300.995	5.71
301.371	5.76
301.746	5.36
302.122	6.28
302.498	5.3
302.874	6.01
303.249	5.77
303.625	5.35
304	6.21
304.376	5.79
304.751	5.46
305.127	7.05
305.502	6.16
305.878	5.23
306.253	5.72
306.628	6.64
307.003	5.63
307.378	6.63
307.754	6.35
308.129	5.61
308.504	6.55
308.879	6.21
309.254	7.25
309.629	7.21
310.003	6.35
310.378	6.76
310.753	6.82
311.128	6.5
311.502	6.7
311.877	6.82
312.252	6.32
312.626	6.78
313.001	6.34
313.375	7
313.75	6.4
314.124	7.02
314.498	7.01
314.873	7.1
315.247	7.09
315.621	7.59
315.995	6.73
316.369	7.18
316.743	7.2
317.117	7.03
317.491	7.25
317.865	7.43
318.239	8.11
318.613	7.98
318.987	7.17
319.361	7.31
319.734	8.45
320.108	7.76
320.482	7.93
320.855	7.61
321.229	8.27
321.602	8.55
321.976	8.77
322.349	7.66
322.723	8.36
323.096	8.97
323.469	7.09
323.843	7.63
324.216	8.49
324.589	8.38
324.962	8.79
325.335	8.42
325.708	8.62
326.081	8.59
326.454	8.62
326.827	8.52
327.2	8.94
327.573	9.17
327.945	8.95
328.318	8.5
328.691	8.68
329.063	9.11
329.436	9.01
329.809	9.74
330.181	8.82
330.553	9.53
330.926	9.77
331.298	9.5
331.671	9.37
332.043	10.18
332.415	10.1
332.787	9.57
333.159	10.41
333.532	9.24
333.904	9.86
334.276	9.82
334.648	10.11
335.02	9.41
335.391	9.84
335.763	9.82
336.135	10.11
336.507	10.62
336.879	10.2
337.25	9.85
337.622	10.59
337.993	9.76
338.365	10.38
338.736	10.95
339.108	10.22
339.479	10.65
339.851	10.39
340.222	9.95
340.593	10.66
340.964	9.88
341.336	10.71
341.707	10.43
342.078	11.08
342.449	10.73
342.82	11.03
343.191	10.56
343.562	10.64
343.933	10.99
344.303	11.35
344.674	11.09
345.045	10.71
345.416	10.96
345.786	10.57
346.157	11.09
346.527	10.7
346.898	11.09
347.268	11.61
347.639	11.11
348.009	11.77
348.38	11.25
348.75	11.83
349.12	11.19
349.49	12.21
349.861	11.98
350.231	11.53
350.601	12.07
350.971	12.24
351.341	11.76
351.711	12.11
352.081	11.94
352.45	11.84
352.82	12.26
353.19	11.7
353.56	11.89
353.929	12.49
354.299	11.78
354.669	11.94
355.038	12.58
355.408	12.89
355.777	12.26
356.147	12.14
356.516	12.43
356.885	12.58
357.254	12.42
357.624	12.84
357.993	12.5
358.362	12.36
358.731	12.53
359.1	12.98
359.469	13.03
359.838	12.98
360.207	12.8
360.576	12.67
360.945	13.14
361.314	13.3
361.682	12.89
362.051	12.68
362.42	13.16
362.788	13.22
363.157	13.22
363.525	13.35
363.894	13.39
364.262	13.3
364.631	13.38
364.999	13.72
365.367	13
365.735	14.27
366.104	13.67
366.472	13.68
366.84	13.32
367.208	13.66
367.576	14.11
367.944	14.18
368.312	13.95
368.68	13.88
369.048	13.99
369.416	13.85
369.783	13.84
370.151	14.67
370.519	14.59
370.886	14.54
371.254	14.23
371.621	14.72
371.989	14.58
372.356	14.16
372.724	14.56
373.091	14.31
373.458	14.4
373.826	14.67
374.193	14.42
374.56	15.01
374.927	14.86
375.294	14.64
375.661	14.71
376.028	14.78
376.395	14.56
376.762	15.46
377.129	15.01
377.496	14.94
377.863	14.88
378.229	14.66
378.596	15.06
378.963	15.11
379.329	15.28
379.696	15.33
380.062	15.54
380.429	15.34
380.795	15.19
381.161	15.51
381.528	15.81
381.894	15.64
382.26	15.48
382.626	15.73
382.993	15.2
383.359	15.89
383.725	15.53
384.091	16.04
384.457	16.08
384.823	15.87
385.188	16.01
385.554	16.01
385.92	16.63
386.286	16.22
386.651	16.39
387.017	16.41
387.383	16.38
387.748	16.14
388.114	16.77
388.479	16.32
388.845	17
389.21	16.45
389.575	16.82
389.94	16.78
390.306	16.91
390.671	16.76
391.036	16.45
391.401	16.7
391.766	16.84
392.131	16.8
392.496	16.87
392.861	16.87
393.226	16.99
393.591	16.93
393.956	17.22
394.32	16.99
394.685	16.77
395.05	17.11
395.414	17.11
395.779	17.03
396.143	17.31
396.508	17.44
396.872	17.41
397.236	17.56
397.601	17.39
397.965	17.46
398.329	17.62
398.694	17.63
399.058	17.65
399.422	17.63
399.786	17.67
400.15	17.71
400.514	17.93
400.878	18.02
401.242	18.45
401.605	18.25
401.969	18.02
402.333	17.83
402.697	17.86
403.06	18.19
403.424	18.42
403.787	18.15
404.151	18.22
404.514	18.52
404.878	18.19
405.241	18.35
405.604	18.15
405.968	18.5
406.331	18.41
406.694	18.56
407.057	18.54
407.42	18.67
407.783	18.51
408.146	18.69
408.509	18.67
408.872	18.77
409.235	18.88
409.598	19.25
409.961	18.84
410.323	19.23
410.686	19.1
411.049	18.92
411.411	19.16
411.774	18.92
412.136	19.13
412.499	19.14
412.861	19.34
413.223	19.56
413.586	19.36
413.948	19.46
414.31	19.53
414.672	19.39
415.035	19.38
415.397	19.67
415.759	19.53
416.121	19.7
416.483	19.9
416.845	19.99
417.206	19.72
417.568	19.75
417.93	19.47
418.292	19.83
418.653	19.74
419.015	19.78
419.377	19.58
419.738	19.64
420.1	19.71
420.461	19.81
420.822	19.77
421.184	19.7
421.545	19.9
421.906	19.93
422.267	19.74
422.629	19.77
422.99	19.85
423.351	19.83
423.712	20.09
424.073	20.15
424.434	20.13
424.795	20.23
425.155	20.05
425.516	20.1
425.877	20.02
426.238	20.03
426.598	20.19
426.959	20.34
427.32	20.47
427.68	20.63
428.041	20.47
428.401	20.86
428.761	20.74
429.122	20.89
429.482	20.83
429.842	21.06
430.202	21.2
430.563	21.08
430.923	20.88
431.283	21.16
431.643	21.14
432.003	21.13
432.363	21.45
432.722	21.22
433.082	21.49
433.442	21.45
433.802	21.27
434.161	21.25
434.521	21.67
434.881	21.48
435.24	21.28
435.6	21.42
435.959	21.6
436.319	21.46
436.678	21.35
437.037	21.67
437.396	21.79
437.756	21.95
438.115	21.85
438.474	21.95
438.833	21.71
439.192	21.7
439.551	22.19
439.91	21.79
440.269	21.82
440.628	21.83
440.987	21.93
441.345	21.85
441.704	22
442.063	22.15
442.421	22.07
442.78	22.04
443.138	22.26
443.497	22.18
443.855	22.38
444.214	22.46
444.572	22.66
444.93	22.52
445.288	22.55
445.647	22.78
446.005	22.57
446.363	22.8
446.721	22.81
447.079	22.38
447.437	22.62
447.795	22.46
448.153	22.49
448.51	22.46
448.868	22.63
449.226	22.62
449.584	22.84
449.941	23.16
450.299	23.07
450.656	23.11
451.014	23.24
451.371	23.27
451.729	23.25
452.086	23.55
452.443	23.7
452.801	23.49
453.158	23.59
453.515	23.43
453.872	23.69
454.229	23.6
454.586	23.64
454.943	23.42
455.3	24
455.657	23.71
456.014	23.68
456.371	23.7
456.727	23.79
457.084	24.12
457.441	24
457.797	24.02
458.154	24.25
458.51	24.1
458.867	24.22
459.223	24.22
459.58	24.02
459.936	24.04
460.292	24.31
460.648	24.07
461.005	23.91
461.361	23.91
461.717	23.87
462.073	23.9
462.429	24.09
462.785	24.27
463.141	24.52
463.496	24.57
463.852	24.92
464.208	24.66
464.564	24.76
464.919	24.74
465.275	24.8
465.631	24.99
465.986	24.85
466.342	24.9
466.697	24.93
467.052	25.02
467.408	25.08
467.763	25.34
468.118	25.14
468.473	25.07
468.829	25.02
469.184	25.17
469.539	25.36
469.894	25.12
470.249	25.29
470.603	25.32
470.958	25.57
471.313	25.51
471.668	25.5
472.023	25.37
472.377	25.55
472.732	25.59
473.086	25.73
473.441	25.26
473.795	25.7
474.15	25.69
474.504	25.95
474.859	26.03
475.213	25.59
475.567	25.7
475.921	25.79
476.275	26.12
476.63	26.14
476.984	26.31
477.338	26.01
477.692	25.86
478.045	26.08
478.399	26.22
478.753	26.18
479.107	25.99
479.461	26.09
479.814	26.23
480.168	26.18
480.521	26.21
480.875	26.22
481.228	26.15
481.582	26.21
481.935	26.39
482.289	26.42
482.642	26.42
482.995	26.16
483.348	26.07
483.701	26.18
484.055	26.17
484.408	26.22
484.761	25.97
485.114	25.45
485.466	25.03
485.819	25.01
486.172	25.33
486.525	25.75
486.878	25.93
487.23	26.09
487.583	26.35
487.936	26.47
488.288	26.33
488.641	26.19
488.993	25.79
489.345	25.75
489.698	25.83
490.05	25.98
490.402	26.21
490.754	26.46
491.107	26.69
491.459	26.86
491.811	26.92
492.163	26.91
492.515	26.87
492.866	26.58
493.218	26.38
493.57	26.08
493.922	26.44
494.274	26.86
494.625	27.17
494.977	27.35
495.328	27.52
495.68	27.81
496.031	27.84
496.383	27.78
496.734	27.92
497.086	28.02
497.437	27.89
497.788	27.85
498.139	27.7
498.49	27.81
498.842	27.78
499.193	27.68
499.544	27.96
499.894	27.97
500.245	28.13
500.596	28.04
500.947	28.11
501.298	28.12
501.648	28.28
501.999	28.45
502.35	28.25
502.7	28.49
503.051	28.28
503.401	28.58
503.752	28.57
504.102	28.7
504.452	28.79
504.803	28.57
505.153	28.64
505.503	28.74
505.853	28.53
506.203	28.69
506.553	28.78
506.903	28.78
507.253	28.9
507.603	28.95
507.953	29
508.303	29
508.652	28.92
509.002	29.01
509.352	29.19
509.701	28.89
510.051	28.97
510.4	28.94
510.75	28.94
511.099	29.01
511.449	29.15
511.798	28.88
512.147	29.08
512.496	28.98
512.846	29.22
513.195	29.33
513.544	29.24
513.893	29.32
514.242	29.08
514.591	29.26
514.939	29.34
515.288	29.34
515.637	29.54
515.986	29.63
516.334	29.67
516.683	29.63
517.032	29.89
517.38	29.97
517.729	29.82
518.077	29.62
518.426	30.01
518.774	29.92
519.122	29.76
519.47	29.74
519.819	29.4
520.167	29.52
520.515	29.43
520.863	29.57
521.211	29.63
521.559	29.88
521.907	30.02
522.255	30.05
522.602	30.12
522.95	30.19
523.298	30.3
523.645	30.26
523.993	30.21
524.341	30.25
524.688	30.39
525.036	30.42
525.383	30.47
525.73	30.66
526.078	30.43
526.425	30.36
526.772	30.37
527.119	30.12
527.466	29.94
527.814	29.82
528.161	30.24
528.508	30.39
528.854	30.25
529.201	30.12
529.548	29.91
529.895	29.68
530.242	29.28
530.588	29.19
530.935	29.52
531.282	29.81
531.628	30.05
531.975	30.22
532.321	30.39
532.667	30.54
533.014	30.65
533.36	30.85
533.706	30.85
534.052	30.73
534.399	30.62
534.745	30.28
535.091	30.11
535.437	30.13
535.783	30.5
536.129	30.84
536.474	31.03
536.82	31.19
537.166	31.27
537.512	31.3
537.857	31.32
538.203	30.91
538.549	30.77
538.894	30.88
539.239	31.22
539.585	31.54
539.93	31.43
540.276	31.72
540.621	31.86
540.966	31.71
541.311	31.76
541.656	31.52
542.001	31.64
542.346	31.44
542.691	30.99
543.036	30.67
543.381	30.51
543.726	30.97
544.071	31.33
544.415	31.38
544.76	31.53
545.105	31.56
545.449	31.69
545.794	31.98
546.138	32.08
546.483	32.15
546.827	32.37
547.171	32.06
547.516	32.26
547.86	32.05
548.204	32.18
548.548	31.96
548.892	32.2
549.236	32.17
549.58	32.53
549.924	32.56
550.268	32.78
550.612	32.74
550.956	33.1
551.3	32.88
551.643	33.26
551.987	33.22
552.33	33.16
552.674	33.14
553.017	33.09
553.361	33.17
553.704	33.35
554.048	33.27
554.391	32.87
554.734	33.03
555.077	33.13
555.42	33.11
555.764	33.29
556.107	33.12
556.45	33.17
556.793	33.71
557.135	33.63
557.478	33.78
557.821	33.75
558.164	33.74
558.507	33.96
558.849	33.9
559.192	33.73
559.534	33.74
559.877	33.96
560.219	33.84
560.562	34.16
560.904	34.09
561.246	34.03
561.589	33.76
561.931	34.09
562.273	34.04
562.615	34.1
562.957	33.96
563.299	33.88
563.641	33.99
563.983	34.24
564.325	34
564.667	34.14
565.008	34.31
565.35	34.5
565.692	34.06
566.033	34.32
566.375	34.49
566.716	34.42
567.058	34.17
567.399	34.11
567.741	34.12
568.082	34.07
568.423	34.1
568.764	34.19
569.105	34.26
569.447	34.6
569.788	34.7
570.129	34.63
570.47	34.71
570.811	34.94
571.151	34.43
571.492	34.7
571.833	34.87
572.174	34.63
572.514	34.94
572.855	34.79
573.195	34.71
573.536	34.85
573.876	34.42
574.217	34.7
574.557	34.86
574.898	34.94
575.238	34.82
575.578	35
575.918	34.94
576.258	34.92
576.598	34.93
576.938	34.8
577.278	34.92
577.618	35.3
577.958	34.86
578.298	35.1
578.638	35.38
578.977	35.33
579.317	35.19
579.657	35.82
579.996	35.46
580.336	35.61
580.675	35.61
581.014	35.95
581.354	35.77
581.693	35.87
582.032	35.86
582.372	35.82
582.711	36.24
583.05	36.09
583.389	35.61
583.728	35.84
584.067	35.77
584.406	35.96
584.745	36.22
585.083	36.1
585.422	35.63
585.761	36.13
586.1	36.65
586.438	35.78
586.777	36.21
587.115	36.14
587.454	36.21
587.792	35.82
588.13	36.58
588.469	36.35
588.807	36.34
589.145	36.34
589.483	36.26
589.821	36.53
590.159	36.83
590.497	36.85
590.835	36.72
591.173	36.32
591.511	36.53
591.849	36.43
592.187	36.44
592.524	36.55
592.862	36.56
593.2	36.9
593.537	36.69
593.875	36.7
594.212	36.55
594.55	36.8
594.887	36.77
595.224	36.64
595.561	36.98
595.899	36.8
596.236	36.76
596.573	36.96
596.91	36.42
597.247	36.55
597.584	37.07
597.921	37.13
598.258	36.68
598.594	36.78
598.931	36.58
599.268	36.79
599.604	36.78
599.941	36.93
600.277	36.95
600.614	37.3
600.95	37.3
601.287	37.37
601.623	37.48
601.959	37.34
602.296	37.19
602.632	37.36
602.968	37.44
603.304	37.69
603.64	37.88
603.976	37.35
604.312	37.6
604.648	37.57
604.984	37.22
605.319	37.26
605.655	37.04
605.991	37.34
606.326	37.35
606.662	37.22
606.998	36.96
607.333	37.25
607.668	37.52
608.004	37.92
608.339	37.74
608.674	37.74
609.01	37.74
609.345	37.81
609.68	38.09
610.015	37.75
610.35	37.89
610.685	37.57
611.02	37.74
611.355	37.71
611.689	37.59
612.024	37.81
612.359	37.79
612.694	38.16
613.028	38.15
613.363	38.15
613.697	38.21
614.032	38.57
614.366	38.3
614.7	38.55
615.035	38.25
615.369	38.21
615.703	38.42
616.037	38.32
616.371	38.34
616.705	38.43
617.039	38.16
617.373	38.67
617.707	38.71
618.041	39.05
618.375	38.39
618.709	38.69
619.042	38.6
619.376	38.84
619.71	38.37
620.043	38.99
620.377	38.58
620.71	38.71
621.043	39.15
621.377	38.74
621.71	38.95
622.043	38.42
622.376	38.69
622.709	39.51
623.043	39.42
623.376	39.04
623.709	38.98
624.041	39.46
624.374	39.4
624.707	39.12
625.04	39.27
625.373	38.95
625.705	39.26
626.038	39.45
626.37	39.42
626.703	38.99
627.035	39.42
627.368	39.6
627.7	38.96
628.032	38.88
628.365	39.2
628.697	39.2
629.029	39.02
629.361	39.07
629.693	39.27
630.025	39.58
630.357	39.56
630.689	39.29
631.021	39.27
631.353	39.63
631.684	39.39
632.016	39.7
632.348	39.47
632.679	39.8
633.011	40.14
633.342	39.99
633.674	39.96
634.005	39.7
634.336	39.66
634.668	40.01
634.999	39.32
635.33	39.46
635.661	39.76
635.992	39.59
636.323	39.53
636.654	39.86
636.985	39.76
637.316	40.42
637.647	39.61
637.977	39.99
638.308	40.08
638.639	39.77
638.969	39.6
639.3	40.02
639.63	39.79
639.961	40.05
640.291	40.09
640.622	40.09
640.952	39.96
641.282	40.77
641.612	40.9
641.943	40.37
642.273	41.06
642.603	40.4
642.933	41.11
643.263	40.48
643.592	40.33
643.922	40.52
644.252	40.41
644.582	40.44
644.911	40.22
645.241	40.46
645.571	41.13
645.9	40.71
646.23	41.15
646.559	40.9
646.888	40.82
647.218	40.14
647.547	40.99
647.876	40.63
648.205	40.58
648.534	40.65
648.863	40.45
649.192	41.46
649.521	40.57
649.85	40.76
650.179	40.7
650.508	40.4
650.837	40.71
651.165	40.92
651.494	41.27
651.822	40.9
652.151	40.51
652.479	41.27
652.808	40.77
653.136	41.05
653.465	41.11
653.793	40.77
654.121	41.23
654.449	40.86
654.777	41.58
655.105	41.17
655.433	41.39
655.761	41.22
656.089	41.7
656.417	41.48
656.745	41.27
657.073	41.07
657.4	41.79
657.728	41.04
658.056	41.99
658.383	41.27
658.711	41.44
659.038	41.62
659.365	41.42
659.693	41.37
660.02	41.37
660.347	41.09
660.674	40.99
661.001	41.29
661.329	40.86
661.656	41.32
661.982	41.52
662.309	41.9
662.636	41.72
662.963	41.73
663.29	41.98
663.616	41.8
663.943	41.24
664.27	42.45
664.596	42.64
664.923	41.65
665.249	42.01
665.576	41.18
665.902	41.62
666.228	42.21
666.554	41.51
666.881	42.1
667.207	41.5
667.533	42.47
667.859	41.79
668.185	42.29
668.511	41.19
668.837	40.87
669.162	42
669.488	42.29
669.814	42.4
670.139	41.99
