Data from 430_chest_Reflection__1__125.txt Node

Date: Fri Dec 15 17:30:45 CST 2023
User: ToomeyLab
Spectrometer: FLMS14357
Trigger mode: 0
Integration Time (sec): 1.000000E-2
Scans to average: 100
Electric dark correction enabled: true
Nonlinearity correction enabled: false
Boxcar width: 0
XAxis mode: Wavelengths
Number of Pixels in Spectrum: 2048
>>>>>Begin Spectral Data<<<<<
189.047	129.27
189.435	129.27
189.823	129.27
190.211	81.34
190.599	4792.45
190.987	41.98
191.375	-19.47
191.763	200.54
192.151	30.91
192.538	138.69
192.926	117.96
193.314	285.5
193.702	2522.07
194.089	-96.73
194.477	-2043.24
194.864	-572.71
195.252	131.33
195.639	51.19
196.027	1449.15
196.414	245.71
196.801	-908.41
197.189	11.1
197.576	40.5
197.963	-441.31
198.351	10.66
198.738	-2.16
199.125	40.73
199.512	53.9
199.899	19.1
200.286	1.33
200.673	-1.94
201.06	46.18
201.447	4
201.833	4.59
202.22	-4.94
202.607	23.33
202.994	26.07
203.38	15.2
203.767	3.21
204.154	-1.26
204.54	46.94
204.927	-48.09
205.313	-9.53
205.699	21.87
206.086	43.15
206.472	73.43
206.858	-1.58
207.245	-47.33
207.631	39.1
208.017	6.93
208.403	55.89
208.789	24.29
209.175	34.5
209.561	-0.59
209.947	-10.28
210.333	9.27
210.719	33.4
211.105	31.14
211.491	-38.51
211.876	39.68
212.262	11.13
212.648	29.32
213.034	13.24
213.419	15.84
213.805	-23.03
214.19	-21.47
214.576	6.12
214.961	-7.55
215.346	-10.44
215.732	52.21
216.117	29.02
216.502	-15.14
216.888	36.04
217.273	52.72
217.658	4.72
218.043	13.81
218.428	-54.27
218.813	-19.51
219.198	-32.03
219.583	-15.92
219.968	12.47
220.353	-8.99
220.738	14.02
221.122	-19.41
221.507	-6.76
221.892	-26.6
222.276	-6.4
222.661	4.74
223.046	16.91
223.43	9.21
223.815	19.27
224.199	-1.13
224.583	11.15
224.968	-1.02
225.352	1.95
225.736	0.76
226.121	-3.57
226.505	4.79
226.889	11.89
227.273	0.73
227.657	4.26
228.041	4.61
228.425	1.38
228.809	5.88
229.193	3.17
229.577	-0.86
229.961	0.95
230.344	0.93
230.728	1.94
231.112	1.38
231.495	0.93
231.879	0.92
232.263	3.26
232.646	2
233.03	1.27
233.413	-0.01
233.797	-0.63
234.18	2.05
234.563	2.18
234.946	-0.41
235.33	0.89
235.713	1.89
236.096	0.93
236.479	0.78
236.862	0.16
237.245	2.21
237.628	1.76
238.011	1.93
238.394	2.23
238.777	2.71
239.16	0.27
239.543	3.63
239.925	1.78
240.308	1.85
240.691	4.59
241.073	2.81
241.456	1.82
241.838	0.19
242.221	0.55
242.603	2.33
242.986	1.82
243.368	1.99
243.75	1.31
244.133	0.95
244.515	1.73
244.897	1.85
245.279	0.89
245.661	0.79
246.043	0.52
246.425	0.88
246.807	1.92
247.189	1.8
247.571	0.97
247.953	1.06
248.335	1.37
248.717	1.34
249.098	1.06
249.48	1.24
249.862	1.13
250.243	1.24
250.625	1.36
251.006	1.18
251.388	0.34
251.769	0.96
252.151	2.71
252.532	0.82
252.913	1.02
253.295	0.42
253.676	1.33
254.057	1.56
254.438	1.33
254.819	0.73
255.2	1.43
255.581	1.87
255.962	0.74
256.343	2.03
256.724	2.53
257.105	1.71
257.486	0.43
257.867	1.46
258.247	0.19
258.628	0.79
259.009	1.98
259.389	1.78
259.77	0.59
260.15	1.48
260.531	1.16
260.911	2.06
261.292	1.3
261.672	1.52
262.052	1.48
262.432	1.56
262.813	1.5
263.193	1.29
263.573	1.06
263.953	1.98
264.333	1.7
264.713	1.28
265.093	0.68
265.473	1.28
265.853	0.72
266.233	1.82
266.612	-1.08
266.992	0.5
267.372	1.45
267.752	1.52
268.131	1.52
268.511	1.91
268.89	1.88
269.27	1.56
269.649	1.19
270.029	1.27
270.408	2.43
270.787	1.91
271.167	1.99
271.546	1.62
271.925	1.18
272.304	1.27
272.683	1.45
273.062	1.21
273.441	1.42
273.82	0.71
274.199	0.8
274.578	1.43
274.957	0.91
275.336	1.4
275.715	1.33
276.093	1.26
276.472	1.5
276.851	0.98
277.229	1.7
277.608	1.01
277.986	0.65
278.365	1.72
278.743	1.5
279.122	1.8
279.5	1.29
279.878	1.84
280.257	0.94
280.635	1.07
281.013	0.83
281.391	1.78
281.769	1.97
282.147	1.25
282.525	1.55
282.903	0.9
283.281	1.79
283.659	1.76
284.037	1.96
284.415	1.12
284.792	1.42
285.17	0.68
285.548	1.34
285.925	1.27
286.303	1.08
286.68	1.02
287.058	1.4
287.435	1.31
287.813	1.47
288.19	1.03
288.567	1.12
288.945	1.81
289.322	1.67
289.699	1.27
290.076	0.93
290.453	1.22
290.83	1.11
291.207	1.6
291.584	1.17
291.961	1.48
292.338	1.7
292.715	2.03
293.092	1.02
293.469	1.19
293.845	1.63
294.222	0.79
294.599	1.39
294.975	1.19
295.352	1.67
295.728	1.51
296.105	1.28
296.481	1.67
296.858	1.38
297.234	1.26
297.61	1.71
297.986	1.17
298.363	1.64
298.739	1.46
299.115	1.19
299.491	1.25
299.867	1.41
300.243	1.5
300.619	1.33
300.995	1.9
301.371	1.27
301.746	0.87
302.122	1.71
302.498	1.35
302.874	1.68
303.249	1.82
303.625	1.4
304	1.57
304.376	1.73
304.751	0.59
305.127	2.08
305.502	0.52
305.878	1.08
306.253	1.01
306.628	2.16
307.003	1.71
307.378	1.91
307.754	1.37
308.129	1.3
308.504	1.85
308.879	1.74
309.254	2.3
309.629	2.02
310.003	1.78
310.378	2.09
310.753	1.52
311.128	2.04
311.502	1.69
311.877	1.94
312.252	1.07
312.626	1.44
313.001	1.63
313.375	1.84
313.75	1.38
314.124	1.99
314.498	1.43
314.873	1.24
315.247	1.42
315.621	2.26
315.995	0.91
316.369	1.5
316.743	1.54
317.117	1.9
317.491	1.27
317.865	1.54
318.239	1.58
318.613	1.89
318.987	1.88
319.361	1.15
319.734	1.9
320.108	1.73
320.482	1.56
320.855	2.23
321.229	1.21
321.602	1.27
321.976	2.15
322.349	1.24
322.723	1.43
323.096	1.92
323.469	0.76
323.843	1.44
324.216	2.44
324.589	1.31
324.962	2.07
325.335	2.07
325.708	1.62
326.081	1.1
326.454	1.37
326.827	1.3
327.2	1.24
327.573	2.14
327.945	2.53
328.318	1.77
328.691	1.26
329.063	1.46
329.436	1.15
329.809	1.37
330.181	1.32
330.553	1.98
330.926	2.03
331.298	2.34
331.671	1.77
332.043	2.03
332.415	2.6
332.787	1.68
333.159	2.28
333.532	1.96
333.904	1.48
334.276	1.75
334.648	1.97
335.02	1.91
335.391	1.39
335.763	1.76
336.135	2.02
336.507	1.91
336.879	2.05
337.25	1.63
337.622	1.79
337.993	1.67
338.365	1.97
338.736	1.79
339.108	1.98
339.479	1.58
339.851	2.02
340.222	1.88
340.593	2.38
340.964	1.43
341.336	2.07
341.707	1.35
342.078	2.01
342.449	1.98
342.82	1.64
343.191	1.44
343.562	2
343.933	1.92
344.303	1.86
344.674	1.66
345.045	1.43
345.416	2.36
345.786	1.77
346.157	2.2
346.527	1.58
346.898	1.46
347.268	1.67
347.639	1.27
348.009	1.8
348.38	1.62
348.75	2.12
349.12	1.69
349.49	2.36
349.861	1.93
350.231	1.64
350.601	1.46
350.971	1.8
351.341	2.13
351.711	1.71
352.081	2.36
352.45	1.75
352.82	2.41
353.19	2
353.56	1.73
353.929	2.16
354.299	2
354.669	1.41
355.038	2.41
355.408	1.63
355.777	2.09
356.147	1.8
356.516	1.49
356.885	1.58
357.254	1.85
357.624	2.39
357.993	1.81
358.362	1.6
358.731	1.58
359.1	1.72
359.469	1.87
359.838	2.03
360.207	1.77
360.576	1.72
360.945	1.89
361.314	2.41
361.682	1.72
362.051	1.92
362.42	2.16
362.788	2.07
363.157	2.4
363.525	1.98
363.894	2.08
364.262	2
364.631	1.91
364.999	1.85
365.367	1.4
365.735	2.3
366.104	2.32
366.472	2.32
366.84	1.8
367.208	1.99
367.576	2.15
367.944	2.39
368.312	2.06
368.68	1.65
369.048	2.45
369.416	1.98
369.783	1.83
370.151	2.19
370.519	1.78
370.886	2.04
371.254	1.88
371.621	2.19
371.989	2.09
372.356	1.71
372.724	2.02
373.091	1.93
373.458	2.06
373.826	2.11
374.193	1.93
374.56	2.1
374.927	2.58
375.294	1.69
375.661	2.12
376.028	1.95
376.395	1.59
376.762	2.07
377.129	2.21
377.496	1.84
377.863	1.96
378.229	1.5
378.596	2.12
378.963	1.85
379.329	2.08
379.696	2.14
380.062	2.28
380.429	2
380.795	2.13
381.161	2.18
381.528	2.26
381.894	2.16
382.26	1.91
382.626	2.44
382.993	1.57
383.359	2.42
383.725	2.03
384.091	1.98
384.457	2.08
384.823	1.78
385.188	2.06
385.554	2.18
385.92	2.55
386.286	2.22
386.651	2.09
387.017	2.25
387.383	2.06
387.748	1.95
388.114	2.04
388.479	2
388.845	2.54
389.21	2.39
389.575	2
389.94	1.88
390.306	2.18
390.671	2.39
391.036	2.11
391.401	1.82
391.766	2.15
392.131	1.89
392.496	2.34
392.861	2.12
393.226	2.03
393.591	2.14
393.956	1.95
394.32	2.29
394.685	2.01
395.05	2.06
395.414	2.17
395.779	1.95
396.143	2.13
396.508	2.13
396.872	2.17
397.236	2.56
397.601	1.89
397.965	2.09
398.329	2.34
398.694	2.24
399.058	2.21
399.422	1.94
399.786	2.38
400.15	2.38
400.514	2.11
400.878	2.14
401.242	2.4
401.605	2.33
401.969	2.31
402.333	2.23
402.697	2.27
403.06	2.28
403.424	2.42
403.787	1.67
404.151	1.95
404.514	2.16
404.878	2.18
405.241	2.26
405.604	2.19
405.968	2.39
406.331	2.28
406.694	2.37
407.057	2.26
407.42	2.53
407.783	2.08
408.146	2.05
408.509	2.13
408.872	1.93
409.235	2.26
409.598	2.84
409.961	2.03
410.323	2.46
410.686	2.23
411.049	2.03
411.411	2.06
411.774	2.44
412.136	2.26
412.499	2.05
412.861	2.26
413.223	2.36
413.586	2.15
413.948	2.26
414.31	2.39
414.672	2.13
415.035	2.17
415.397	2.26
415.759	2.06
416.121	2.47
416.483	2.03
416.845	2.33
417.206	2.12
417.568	2.34
417.93	2.06
418.292	2.22
418.653	2.27
419.015	2.31
419.377	2.32
419.738	2.37
420.1	2.27
420.461	2.25
420.822	2.48
421.184	2.26
421.545	2.31
421.906	2.2
422.267	2.29
422.629	2.18
422.99	2.23
423.351	2.22
423.712	2.2
424.073	2.16
424.434	2.16
424.795	2.12
425.155	2.15
425.516	2.11
425.877	2.15
426.238	2.24
426.598	2.27
426.959	2.32
427.32	2.14
427.68	2.21
428.041	2.15
428.401	2.36
428.761	2.18
429.122	2.42
429.482	2.19
429.842	2.41
430.202	2.37
430.563	2.53
430.923	2.36
431.283	2.36
431.643	2.42
432.003	2.39
432.363	2.41
432.722	2.38
433.082	2.26
433.442	2.13
433.802	2.29
434.161	2.35
434.521	2.66
434.881	2.45
435.24	2.26
435.6	2.35
435.959	2.41
436.319	2.09
436.678	2.51
437.037	2.28
437.396	2.28
437.756	2.33
438.115	2.05
438.474	2.45
438.833	2.17
439.192	2.26
439.551	2.38
439.91	2.24
440.269	2.24
440.628	2.32
440.987	2.33
441.345	2.21
441.704	2.34
442.063	2.32
442.421	2.3
442.78	2.4
443.138	2.33
443.497	2.36
443.855	2.3
444.214	2.25
444.572	2.36
444.93	2.23
445.288	2.32
445.647	2.49
446.005	2.24
446.363	2.37
446.721	2.44
447.079	2.18
447.437	2.54
447.795	2.46
448.153	2.16
448.51	2.33
448.868	2.33
449.226	2.31
449.584	2.35
449.941	2.47
450.299	2.3
450.656	2.51
451.014	2.43
451.371	2.37
451.729	2.33
452.086	2.61
452.443	2.38
452.801	2.29
453.158	2.44
453.515	2.26
453.872	2.65
454.229	2.31
454.586	2.29
454.943	2.39
455.3	2.54
455.657	2.53
456.014	2.32
456.371	2.41
456.727	2.57
457.084	2.7
457.441	2.4
457.797	2.64
458.154	2.74
458.51	2.32
458.867	2.56
459.223	2.52
459.58	2.41
459.936	2.58
460.292	2.52
460.648	2.3
461.005	2.35
461.361	2.54
461.717	2.48
462.073	2.4
462.429	2.41
462.785	2.32
463.141	2.43
463.496	2.55
463.852	2.58
464.208	2.54
464.564	2.74
464.919	2.58
465.275	2.47
465.631	2.63
465.986	2.46
466.342	2.56
466.697	2.51
467.052	2.57
467.408	2.51
467.763	2.38
468.118	2.44
468.473	2.37
468.829	2.54
469.184	2.36
469.539	2.6
469.894	2.4
470.249	2.62
470.603	2.43
470.958	2.86
471.313	2.68
471.668	2.72
472.023	2.52
472.377	2.42
472.732	2.35
473.086	2.32
473.441	2.31
473.795	2.68
474.15	2.73
474.504	2.67
474.859	2.8
475.213	2.49
475.567	2.58
475.921	2.5
476.275	2.61
476.63	2.64
476.984	2.7
477.338	2.54
477.692	2.46
478.045	2.44
478.399	2.64
478.753	2.75
479.107	2.54
479.461	2.48
479.814	2.61
480.168	2.4
480.521	2.52
480.875	2.45
481.228	2.59
481.582	2.66
481.935	2.53
482.289	2.59
482.642	2.61
482.995	2.63
483.348	2.58
483.701	2.46
484.055	2.56
484.408	2.52
484.761	2.43
485.114	2.42
485.466	2.3
485.819	2.3
486.172	2.33
486.525	2.46
486.878	2.47
487.23	2.52
487.583	2.55
487.936	2.55
488.288	2.52
488.641	2.61
488.993	2.41
489.345	2.42
489.698	2.42
490.05	2.43
490.402	2.5
490.754	2.56
491.107	2.57
491.459	2.6
491.811	2.6
492.163	2.64
492.515	2.53
492.866	2.51
493.218	2.54
493.57	2.46
493.922	2.44
494.274	2.61
494.625	2.73
494.977	2.69
495.328	2.75
495.68	2.66
496.031	2.8
496.383	2.76
496.734	2.8
497.086	2.8
497.437	2.74
497.788	2.79
498.139	2.64
498.49	2.68
498.842	2.59
499.193	2.61
499.544	2.69
499.894	2.55
500.245	2.64
500.596	2.71
500.947	2.84
501.298	2.71
501.648	2.79
501.999	2.87
502.35	2.65
502.7	2.83
503.051	2.57
503.401	2.59
503.752	2.91
504.102	2.74
504.452	2.81
504.803	2.64
505.153	2.76
505.503	2.73
505.853	2.82
506.203	2.82
506.553	2.79
506.903	2.61
507.253	2.69
507.603	2.74
507.953	2.83
508.303	2.94
508.652	2.75
509.002	2.92
509.352	3.01
509.701	2.73
510.051	2.78
510.4	2.73
510.75	2.8
511.099	2.8
511.449	2.71
511.798	2.79
512.147	2.83
512.496	2.7
512.846	2.9
513.195	2.75
513.544	2.68
513.893	2.86
514.242	2.76
514.591	2.97
514.939	2.8
515.288	2.82
515.637	3
515.986	2.97
516.334	2.84
516.683	2.83
517.032	2.84
517.38	2.94
517.729	2.95
518.077	2.79
518.426	2.92
518.774	2.94
519.122	2.91
519.47	2.88
519.819	2.68
520.167	2.81
520.515	2.84
520.863	2.87
521.211	2.88
521.559	2.98
521.907	2.82
522.255	2.82
522.602	2.88
522.95	2.89
523.298	2.88
523.645	3.07
523.993	2.95
524.341	3.13
524.688	3.07
525.036	2.94
525.383	3.07
525.73	3.09
526.078	2.89
526.425	2.96
526.772	3
527.119	2.92
527.466	2.82
527.814	2.96
528.161	2.88
528.508	2.99
528.854	2.92
529.201	2.86
529.548	2.84
529.895	2.94
530.242	2.78
530.588	2.77
530.935	2.83
531.282	2.9
531.628	2.87
531.975	2.96
532.321	3.01
532.667	3.01
533.014	3.1
533.36	3.06
533.706	2.93
534.052	3.02
534.399	2.99
534.745	2.97
535.091	2.89
535.437	2.95
535.783	2.99
536.129	3.07
536.474	3.13
536.82	3.18
537.166	3.14
537.512	3.1
537.857	3.13
538.203	3.17
538.549	3.04
538.894	3.04
539.239	3.15
539.585	3.21
539.93	2.99
540.276	3.42
540.621	3.37
540.966	3.11
541.311	3.09
541.656	3.15
542.001	3.19
542.346	3.31
542.691	3.09
543.036	3.07
543.381	3.02
543.726	3.15
544.071	3.23
544.415	3.31
544.76	3.18
545.105	3.24
545.449	3.28
545.794	3.31
546.138	3.23
546.483	3.29
546.827	3.35
547.171	3.38
547.516	3.46
547.86	3.28
548.204	3.34
548.548	3.38
548.892	3.5
549.236	3.33
549.58	3.28
549.924	3.41
550.268	3.58
550.612	3.51
550.956	3.55
551.3	3.41
551.643	3.62
551.987	3.68
552.33	3.44
552.674	3.66
553.017	3.62
553.361	3.42
553.704	3.71
554.048	3.49
554.391	3.57
554.734	3.46
555.077	3.56
555.42	3.41
555.764	3.45
556.107	3.5
556.45	3.49
556.793	3.44
557.135	3.79
557.478	3.95
557.821	3.76
558.164	3.67
558.507	3.89
558.849	3.74
559.192	3.69
559.534	3.54
559.877	3.84
560.219	3.75
560.562	3.85
560.904	3.93
561.246	3.89
561.589	3.78
561.931	3.93
562.273	3.57
562.615	4.02
562.957	3.96
563.299	3.82
563.641	3.9
563.983	3.92
564.325	3.72
564.667	3.76
565.008	4.08
565.35	3.93
565.692	3.67
566.033	3.76
566.375	4.02
566.716	4.01
567.058	3.78
567.399	3.89
567.741	3.9
568.082	4.06
568.423	3.93
568.764	3.86
569.105	4.06
569.447	3.96
569.788	4.04
570.129	4.14
570.47	3.95
570.811	4.4
571.151	4.17
571.492	4.01
571.833	4.14
572.174	4.01
572.514	4.29
572.855	4.12
573.195	4.07
573.536	4.11
573.876	3.92
574.217	4.02
574.557	4.32
574.898	4.26
575.238	4.4
575.578	4.29
575.918	4.53
576.258	4.2
576.598	4.25
576.938	4.07
577.278	4.28
577.618	4.27
577.958	4.19
578.298	4.32
578.638	4.08
578.977	4.41
579.317	4.45
579.657	4.54
579.996	4.39
580.336	4.49
580.675	4.39
581.014	4.6
581.354	4.42
581.693	4.48
582.032	4.55
582.372	4.47
582.711	4.69
583.05	4.4
583.389	4.54
583.728	4.49
584.067	4.89
584.406	4.84
584.745	4.88
585.083	4.76
585.422	4.7
585.761	4.7
586.1	4.98
586.438	4.66
586.777	4.93
587.115	4.96
587.454	4.64
587.792	4.82
588.13	4.77
588.469	4.76
588.807	4.81
589.145	4.6
589.483	4.72
589.821	4.7
590.159	4.95
590.497	5.2
590.835	5.25
591.173	4.88
591.511	5.19
591.849	5.23
592.187	5.09
592.524	5.11
592.862	5.03
593.2	5.19
593.537	5.07
593.875	5
594.212	4.89
594.55	5.1
594.887	5.11
595.224	4.96
595.561	5.15
595.899	5.22
596.236	4.99
596.573	5.12
596.91	4.94
597.247	5.29
597.584	5.46
597.921	5.44
598.258	5.23
598.594	5.18
598.931	5.16
599.268	5.25
599.604	5.2
599.941	5.38
600.277	5.2
600.614	5.42
600.95	5.21
601.287	5.47
601.623	5.36
601.959	5.59
602.296	5.46
602.632	5.47
602.968	5.78
603.304	5.5
603.64	5.85
603.976	5.79
604.312	5.51
604.648	5.25
604.984	5.59
605.319	5.61
605.655	5.6
605.991	5.59
606.326	5.63
606.662	5.68
606.998	5.41
607.333	5.78
607.668	5.55
608.004	5.85
608.339	5.86
608.674	5.89
609.01	5.64
609.345	5.76
609.68	6.09
610.015	5.85
610.35	6
610.685	5.79
611.02	5.8
611.355	5.9
611.689	5.88
612.024	6.17
612.359	5.85
612.694	5.92
613.028	5.84
613.363	6.15
613.697	6.26
614.032	6.1
614.366	6.26
614.7	6.54
615.035	6.25
615.369	6.15
615.703	6.33
616.037	6.17
616.371	5.8
616.705	6.26
617.039	6.49
617.373	5.85
617.707	6.48
618.041	6.47
618.375	6.37
618.709	6.58
619.042	6.08
619.376	6.7
619.71	6.84
620.043	7
620.377	6.24
620.71	6.74
621.043	6.42
621.377	6.68
621.71	6.27
622.043	6.21
622.376	6.15
622.709	6.84
623.043	6.84
623.376	6.94
623.709	6.55
624.041	6.82
624.374	6.8
624.707	6.59
625.04	7.11
625.373	6.6
625.705	7.06
626.038	6.74
626.37	6.75
626.703	6.81
627.035	6.83
627.368	7.32
627.7	6.78
628.032	6.82
628.365	7.14
628.697	7.24
629.029	6.82
629.361	6.7
629.693	7.13
630.025	7.03
630.357	7.25
630.689	7.16
631.021	7.06
631.353	7.32
631.684	7.05
632.016	7.21
632.348	7.38
632.679	7.43
633.011	7.62
633.342	7.76
633.674	7.17
634.005	7.85
634.336	7.37
634.668	7.83
634.999	6.96
635.33	7.66
635.661	7.68
635.992	7.12
636.323	7.31
636.654	7.66
636.985	7.86
637.316	7.73
637.647	7.47
637.977	7.59
638.308	7.86
638.639	7.11
638.969	7.36
639.3	7.24
639.63	7.3
639.961	7.71
640.291	7.56
640.622	8.11
640.952	7.51
641.282	8.39
641.612	7.94
641.943	7.73
642.273	8.05
642.603	8.16
642.933	8.15
643.263	8.11
643.592	7.83
643.922	7.89
644.252	7.81
644.582	8.47
644.911	7.82
645.241	7.94
645.571	7.56
645.9	7.6
646.23	8.45
646.559	8.79
646.888	8.23
647.218	8.3
647.547	8.72
647.876	7.91
648.205	8.23
648.534	8.73
648.863	8.16
649.192	8.66
649.521	8.31
649.85	8.22
650.179	8.62
650.508	7.77
650.837	8
651.165	8.3
651.494	8.57
651.822	8.13
652.151	8.33
652.479	8.46
652.808	8.52
653.136	8.83
653.465	8.02
653.793	8.01
654.121	8.11
654.449	8.86
654.777	8.65
655.105	8.95
655.433	8.38
655.761	8.54
656.089	9.13
656.417	8.54
656.745	8.81
657.073	8.48
657.4	9.32
657.728	8.68
658.056	8.98
658.383	9.32
658.711	9.11
659.038	9.21
659.365	8.74
659.693	9.33
660.02	8.86
660.347	9.08
660.674	8.92
661.001	9.25
661.329	8.22
661.656	8.88
661.982	8.95
662.309	8.94
662.636	9.16
662.963	9.76
663.29	9.47
663.616	9.41
663.943	8.58
664.27	9.8
664.596	9.24
664.923	9.83
665.249	9.23
665.576	9.43
665.902	10.07
666.228	10.05
666.554	9.54
666.881	9.17
667.207	9.21
667.533	9.45
667.859	10.03
668.185	9.63
668.511	8.79
668.837	9.06
669.162	10.1
669.488	9.59
669.814	10.39
670.139	10.07
670.465	9.94
670.791	9.77
671.116	10.96
671.442	10.05
671.767	10.91
672.092	10.36
672.418	9.88
672.743	10.15
673.068	9.64
673.393	9.9
673.718	9.53
674.043	10.29
674.368	9.89
674.693	10.35
675.018	10.27
675.343	9.41
675.667	9.85
675.992	10.75
676.317	10.04
676.641	10.7
676.966	10.1
677.29	10.06
677.615	10.4
677.939	10.66
678.264	10.98
678.588	10.64
678.912	10.78
679.236	10.2
679.56	9.92
679.885	10.65
680.209	11.04
680.532	10.5
680.856	10.71
681.18	10.75
681.504	10.6
681.828	10.96
682.152	11.08
682.475	10.48
682.799	10.16
683.122	10.31
683.446	9.81
683.769	11.08
684.093	10.88
684.416	11.05
684.739	10.35
685.062	11.09
685.386	11.11
685.709	10.63
686.032	10.91
686.355	11.36
686.678	11.09
687.001	11.54
687.324	11.45
687.646	10.9
687.969	11.05
688.292	11.35
688.614	11.27
688.937	11.76
689.26	10.37
689.582	10.94
689.904	10.97
690.227	11.86
690.549	10.73
690.871	11.78
691.194	10.98
