Data from 430_chest_Reflection__2__126.txt Node

Date: Fri Dec 15 17:30:56 CST 2023
User: ToomeyLab
Spectrometer: FLMS14357
Trigger mode: 0
Integration Time (sec): 1.000000E-2
Scans to average: 100
Electric dark correction enabled: true
Nonlinearity correction enabled: false
Boxcar width: 0
XAxis mode: Wavelengths
Number of Pixels in Spectrum: 2048
>>>>>Begin Spectral Data<<<<<
189.047	-197.79
189.435	-197.79
189.823	-197.79
190.211	11.11
190.599	-49.06
190.987	58.66
191.375	236.71
191.763	91.69
192.151	-63.17
192.538	100.73
192.926	-116.12
193.314	211.9
193.702	-297.65
194.089	-156.56
194.477	3518.92
194.864	-231.18
195.252	89.24
195.639	70.82
196.027	-137.71
196.414	200.22
196.801	667.29
197.189	77.48
197.576	68.8
197.963	213.08
198.351	-67.25
198.738	-43.7
199.125	-6.44
199.512	-5.59
199.899	8.45
200.286	18.19
200.673	-79.43
201.06	-0.99
201.447	4.49
201.833	-3
202.22	45.43
202.607	-1.5
202.994	62.35
203.38	2.68
203.767	31.03
204.154	-1.06
204.54	32.58
204.927	-43.67
205.313	-41.2
205.699	6.83
206.086	15.5
206.472	38.6
206.858	-11.84
207.245	-60.52
207.631	38.53
208.017	-0.28
208.403	-42.28
208.789	24.34
209.175	-0.2
209.561	-17.54
209.947	-5.95
210.333	-30.59
210.719	-1.57
211.105	8.92
211.491	-46.43
211.876	-4.89
212.262	5.99
212.648	-11.33
213.034	4.16
213.419	-5.33
213.805	-10.42
214.19	-19.26
214.576	2.71
214.961	-58.17
215.346	-52.99
215.732	-22.63
216.117	-8.49
216.502	-24.1
216.888	19.2
217.273	30.79
217.658	2.66
218.043	4.36
218.428	-37.48
218.813	-22.65
219.198	-6.67
219.583	4.2
219.968	38.02
220.353	-0.26
220.738	27.11
221.122	11.72
221.507	3.26
221.892	-20.56
222.276	-41.36
222.661	7.77
223.046	13.67
223.43	18.52
223.815	14.65
224.199	0.44
224.583	10.1
224.968	5.41
225.352	16.36
225.736	-10.01
226.121	-9.92
226.505	-2.79
226.889	10.93
227.273	0.67
227.657	5.59
228.041	2.97
228.425	3.27
228.809	5.95
229.193	8.04
229.577	1.04
229.961	4.06
230.344	4.45
230.728	4.87
231.112	5.06
231.495	5.04
231.879	5.02
232.263	6.05
232.646	5.1
233.03	5.97
233.413	2.73
233.797	6.42
234.18	5.61
234.563	5.09
234.946	1.03
235.33	7.22
235.713	4.38
236.096	5.27
236.479	3.88
236.862	4.44
237.245	7.97
237.628	4.35
238.011	5.75
238.394	6.74
238.777	6.11
239.16	2.03
239.543	5.25
239.925	5.7
240.308	4.32
240.691	5.25
241.073	5.27
241.456	5.72
241.838	4.82
242.221	4.56
242.603	5.83
242.986	4.91
243.368	5.21
243.75	5.26
244.133	4.66
244.515	5.11
244.897	5.48
245.279	5.3
245.661	4.53
246.043	4.83
246.425	3.14
246.807	6.77
247.189	5.96
247.571	5.22
247.953	5.25
248.335	5.07
248.717	5.12
249.098	4.8
249.48	5.01
249.862	4.88
250.243	4.92
250.625	5.09
251.006	5.38
251.388	4.2
251.769	4.66
252.151	5.13
252.532	3.66
252.913	4.52
253.295	4.7
253.676	4.68
254.057	5.19
254.438	4.7
254.819	4.5
255.2	5.37
255.581	6.03
255.962	4.24
256.343	4.37
256.724	4.02
257.105	4.58
257.486	4.63
257.867	5.46
258.247	4.73
258.628	5.51
259.009	4.13
259.389	4.96
259.77	4.91
260.15	4.43
260.531	3.52
260.911	5.21
261.292	4.65
261.672	5.04
262.052	4.7
262.432	4.65
262.813	4.57
263.193	4.61
263.573	4.51
263.953	4.04
264.333	5.34
264.713	4.89
265.093	3.53
265.473	4.23
265.853	3.82
266.233	4.89
266.612	3.52
266.992	2.9
267.372	5.55
267.752	4.58
268.131	4.33
268.511	5.14
268.89	4.79
269.27	4.11
269.649	4.1
270.029	3.88
270.408	5.18
270.787	4.55
271.167	5.56
271.546	4.68
271.925	4.16
272.304	4.3
272.683	4.68
273.062	4.59
273.441	4.58
273.82	3.63
274.199	4.81
274.578	4.81
274.957	4.62
275.336	4.45
275.715	3.93
276.093	4.13
276.472	4.84
276.851	4.27
277.229	4.36
277.608	3.59
277.986	4.63
278.365	4.9
278.743	3.98
279.122	4.83
279.5	4.11
279.878	4.87
280.257	4.14
280.635	4.53
281.013	5.22
281.391	4.21
281.769	4.24
282.147	4.55
282.525	4.78
282.903	3.67
283.281	4.46
283.659	4.64
284.037	4.52
284.415	4.2
284.792	4.6
285.17	3.42
285.548	4.11
285.925	3.97
286.303	4.37
286.68	4.58
287.058	4.15
287.435	3.85
287.813	4.5
288.19	4.24
288.567	3.98
288.945	4.48
289.322	4.78
289.699	3.97
290.076	3.95
290.453	4.07
290.83	3.72
291.207	4.23
291.584	4.8
291.961	4.55
292.338	4.3
292.715	4.2
293.092	4.38
293.469	3.94
293.845	4.18
294.222	3.75
294.599	4.57
294.975	4.57
295.352	4.7
295.728	4.28
296.105	4.39
296.481	4.99
296.858	4.24
297.234	3.69
297.61	3.95
297.986	4.64
298.363	4.61
298.739	4.46
299.115	3.88
299.491	3.99
299.867	3.98
300.243	3.99
300.619	3.76
300.995	3.95
301.371	4.72
301.746	3.73
302.122	4.78
302.498	4.21
302.874	4.5
303.249	4.53
303.625	4.48
304	4.12
304.376	4.19
304.751	4.23
305.127	4.77
305.502	4.11
305.878	3.76
306.253	4.1
306.628	4.3
307.003	4.02
307.378	4.85
307.754	4.57
308.129	3.8
308.504	4.68
308.879	4.21
309.254	4.88
309.629	4.49
310.003	4.19
310.378	4.53
310.753	4.46
311.128	4.28
311.502	4.34
311.877	4.5
312.252	3.86
312.626	4.52
313.001	4.24
313.375	4.27
313.75	3.78
314.124	4.64
314.498	4.34
314.873	4.18
315.247	4.4
315.621	4.33
315.995	3.15
316.369	4.31
316.743	4.5
317.117	4.38
317.491	3.83
317.865	4.24
318.239	4.38
318.613	4.64
318.987	4.46
319.361	4.15
319.734	4.59
320.108	4.46
320.482	4.16
320.855	4.71
321.229	4.59
321.602	4.01
321.976	5.22
322.349	4
322.723	4.09
323.096	4.23
323.469	3.76
323.843	4.6
324.216	4.38
324.589	3.94
324.962	3.9
325.335	4.13
325.708	4.43
326.081	4.15
326.454	4.29
326.827	4.17
327.2	4.22
327.573	4.47
327.945	4.31
328.318	3.32
328.691	3.59
329.063	4.15
329.436	4.05
329.809	4.65
330.181	4.07
330.553	4.5
330.926	4.15
331.298	4.09
331.671	4.35
332.043	5.08
332.415	4.15
332.787	4.26
333.159	4.9
333.532	4.13
333.904	4.1
334.276	4.4
334.648	4.25
335.02	4.23
335.391	4.25
335.763	3.72
336.135	4.45
336.507	4.61
336.879	4.22
337.25	4.13
337.622	3.92
337.993	4.8
338.365	4.56
338.736	4.45
339.108	4.4
339.479	4.02
339.851	4.62
340.222	4.05
340.593	4.51
340.964	3.98
341.336	5.18
341.707	4.5
342.078	4.76
342.449	4.4
342.82	4.73
343.191	4.3
343.562	4.13
343.933	4.85
344.303	4.62
344.674	3.99
345.045	4.52
345.416	4.59
345.786	3.66
346.157	4.6
346.527	4.27
346.898	4.01
347.268	4.68
347.639	4.14
348.009	4.5
348.38	4.14
348.75	4.26
349.12	4.24
349.49	5.04
349.861	4.21
350.231	4.46
350.601	4.59
350.971	4.78
351.341	4.65
351.711	4.21
352.081	4.61
352.45	4.28
352.82	4.56
353.19	4.65
353.56	3.96
353.929	4.82
354.299	4.21
354.669	4.1
355.038	4.55
355.408	4.5
355.777	4.65
356.147	4.25
356.516	4.41
356.885	4.23
357.254	4.48
357.624	4.96
357.993	4.61
358.362	4.28
358.731	4.47
359.1	4.37
359.469	4.47
359.838	4.56
360.207	4.3
360.576	4.15
360.945	4.78
361.314	4.75
361.682	4.11
362.051	4.56
362.42	4.45
362.788	4.68
363.157	4.44
363.525	4.88
363.894	4.69
364.262	4.54
364.631	4.37
364.999	4.83
365.367	4.35
365.735	5.08
366.104	4.71
366.472	4.78
366.84	4.42
367.208	4.4
367.576	4.79
367.944	4.85
368.312	4.19
368.68	4.43
369.048	4.78
369.416	4.53
369.783	4.51
370.151	4.9
370.519	4.89
370.886	4.71
371.254	4.5
371.621	4.91
371.989	4.53
372.356	4.17
372.724	4.65
373.091	4.56
373.458	4.26
373.826	4.74
374.193	4.77
374.56	4.61
374.927	4.65
375.294	4.33
375.661	4.47
376.028	4.5
376.395	4.47
376.762	4.74
377.129	4.37
377.496	4.52
377.863	4.49
378.229	4.14
378.596	4.61
378.963	4.56
379.329	4.82
379.696	5.11
380.062	4.55
380.429	4.79
380.795	4.6
381.161	4.35
381.528	4.96
381.894	4.66
382.26	4.5
382.626	4.81
382.993	4.3
383.359	4.86
383.725	4.7
384.091	4.29
384.457	5.07
384.823	4.81
385.188	4.65
385.554	4.41
385.92	4.64
386.286	5.06
386.651	5.05
387.017	4.87
387.383	4.78
387.748	4.45
388.114	5.13
388.479	4.56
388.845	4.85
389.21	4.84
389.575	4.78
389.94	4.69
390.306	4.67
390.671	5.09
391.036	4.14
391.401	4.3
391.766	4.73
392.131	4.54
392.496	5.08
392.861	4.72
393.226	4.89
393.591	4.61
393.956	4.84
394.32	4.82
394.685	4.47
395.05	4.55
395.414	4.87
395.779	4.58
396.143	4.64
396.508	4.88
396.872	4.93
397.236	4.78
397.601	4.33
397.965	4.84
398.329	4.96
398.694	4.76
399.058	4.68
399.422	4.29
399.786	4.78
400.15	4.72
400.514	4.68
400.878	4.78
401.242	5.04
401.605	4.98
401.969	4.81
402.333	4.72
402.697	4.88
403.06	4.74
403.424	4.7
403.787	4.43
404.151	5.02
404.514	4.48
404.878	4.67
405.241	5.21
405.604	4.75
405.968	5.03
406.331	4.87
406.694	4.94
407.057	4.76
407.42	4.92
407.783	4.78
408.146	4.83
408.509	4.76
408.872	4.66
409.235	4.97
409.598	5.15
409.961	4.82
410.323	4.98
410.686	4.57
411.049	4.75
411.411	4.68
411.774	4.73
412.136	4.92
412.499	4.69
412.861	4.86
413.223	4.67
413.586	4.93
413.948	4.9
414.31	4.94
414.672	4.66
415.035	4.63
415.397	4.99
415.759	4.67
416.121	5.02
416.483	4.73
416.845	5.09
417.206	4.87
417.568	5.07
417.93	4.66
418.292	4.99
418.653	4.65
419.015	4.85
419.377	4.87
419.738	4.89
420.1	4.85
420.461	4.93
420.822	4.95
421.184	4.72
421.545	4.77
421.906	4.73
422.267	4.86
422.629	4.8
422.99	4.77
423.351	4.69
423.712	4.72
424.073	4.82
424.434	4.69
424.795	4.74
425.155	4.89
425.516	4.78
425.877	4.78
426.238	4.77
426.598	4.86
426.959	4.73
427.32	4.76
427.68	4.73
428.041	4.76
428.401	4.95
428.761	4.74
429.122	4.8
429.482	4.81
429.842	5.08
430.202	4.94
430.563	4.75
430.923	4.82
431.283	5.02
431.643	4.89
432.003	4.77
432.363	5.12
432.722	4.71
433.082	5.1
433.442	4.92
433.802	4.69
434.161	4.77
434.521	5.17
434.881	5.05
435.24	4.95
435.6	4.79
435.959	4.9
436.319	4.77
436.678	4.94
437.037	4.9
437.396	4.94
437.756	5.02
438.115	4.93
438.474	4.91
438.833	4.83
439.192	5.08
439.551	5.08
439.91	4.94
440.269	4.88
440.628	4.84
440.987	4.9
441.345	4.7
441.704	4.91
442.063	4.82
442.421	4.76
442.78	4.78
443.138	4.89
443.497	4.98
443.855	4.81
444.214	4.85
444.572	4.99
444.93	5
445.288	5.11
445.647	5.01
446.005	4.79
446.363	5
446.721	5
447.079	4.76
447.437	4.87
447.795	4.97
448.153	4.94
448.51	4.99
448.868	4.87
449.226	4.87
449.584	4.78
449.941	5.03
450.299	4.9
450.656	5
451.014	5.06
451.371	4.82
451.729	4.8
452.086	5.12
452.443	4.9
452.801	4.99
453.158	4.91
453.515	4.87
453.872	5.05
454.229	4.84
454.586	5.13
454.943	5.1
455.3	5.16
455.657	5.03
456.014	5.03
456.371	5.04
456.727	5.06
457.084	5.19
457.441	5.03
457.797	4.89
458.154	5.24
458.51	4.99
458.867	5.16
459.223	5.28
459.58	5.05
459.936	5.14
460.292	5.07
460.648	5.07
461.005	5.02
461.361	5.15
461.717	4.92
462.073	4.86
462.429	5.02
462.785	4.88
463.141	4.9
463.496	4.96
463.852	5.09
464.208	5.14
464.564	5.25
464.919	4.9
465.275	5.09
465.631	5.35
465.986	4.99
466.342	5.02
466.697	4.9
467.052	4.97
467.408	5.2
467.763	5.1
468.118	5.12
468.473	5.18
468.829	5.18
469.184	4.99
469.539	5.09
469.894	4.97
470.249	5.24
470.603	5.1
470.958	5.27
471.313	5.02
471.668	5.18
472.023	5.08
472.377	5.07
472.732	5.09
473.086	5.21
473.441	4.97
473.795	5.13
474.15	5.15
474.504	5.15
474.859	5.19
475.213	5.08
475.567	5.12
475.921	5.21
476.275	5.18
476.63	5.16
476.984	5.2
477.338	5.23
477.692	4.88
478.045	5.07
478.399	5.22
478.753	5.29
479.107	5.15
479.461	5.02
479.814	5.17
480.168	5.11
480.521	4.95
480.875	5.15
481.228	5.16
481.582	5.19
481.935	5.22
482.289	5.3
482.642	5.25
482.995	4.99
483.348	5.07
483.701	5.09
484.055	5.07
484.408	5.19
484.761	5.06
485.114	5.15
485.466	4.94
485.819	4.88
486.172	4.87
486.525	4.87
486.878	4.85
487.23	4.91
487.583	5.01
487.936	5.02
488.288	5.05
488.641	5.1
488.993	5.04
489.345	4.92
489.698	5.01
490.05	4.94
490.402	4.96
490.754	5.01
491.107	5.07
491.459	5.08
491.811	5.17
492.163	5.08
492.515	5.17
492.866	5.2
493.218	5.1
493.57	5.04
493.922	5
494.274	5.09
494.625	5.11
494.977	5.18
495.328	5.19
495.68	5.19
496.031	5.41
496.383	5.23
496.734	5.36
497.086	5.36
497.437	5.24
497.788	5.27
498.139	5.28
498.49	5.32
498.842	5.12
499.193	5.27
499.544	5.27
499.894	5.36
500.245	5.31
500.596	5.14
500.947	5.39
501.298	5.19
501.648	5.32
501.999	5.4
502.35	5.31
502.7	5.33
503.051	5.22
503.401	5.26
503.752	5.36
504.102	5.27
504.452	5.39
504.803	5.25
505.153	5.39
505.503	5.36
505.853	5.38
506.203	5.29
506.553	5.33
506.903	5.26
507.253	5.13
507.603	5.31
507.953	5.51
508.303	5.36
508.652	5.27
509.002	5.43
509.352	5.45
509.701	5.45
510.051	5.42
510.4	5.34
510.75	5.35
511.099	5.32
511.449	5.38
511.798	5.36
512.147	5.41
512.496	5.35
512.846	5.37
513.195	5.42
513.544	5.35
513.893	5.45
514.242	5.38
514.591	5.46
514.939	5.43
515.288	5.35
515.637	5.48
515.986	5.47
516.334	5.47
516.683	5.42
517.032	5.46
517.38	5.54
517.729	5.38
518.077	5.34
518.426	5.54
518.774	5.5
519.122	5.48
519.47	5.47
519.819	5.47
520.167	5.52
520.515	5.46
520.863	5.52
521.211	5.48
521.559	5.55
521.907	5.46
522.255	5.57
522.602	5.38
522.95	5.57
523.298	5.58
523.645	5.59
523.993	5.52
524.341	5.68
524.688	5.6
525.036	5.64
525.383	5.65
525.73	5.72
526.078	5.48
526.425	5.52
526.772	5.66
527.119	5.55
527.466	5.58
527.814	5.6
528.161	5.55
528.508	5.72
528.854	5.61
529.201	5.67
529.548	5.55
529.895	5.54
530.242	5.44
530.588	5.47
530.935	5.45
531.282	5.44
531.628	5.45
531.975	5.5
532.321	5.56
532.667	5.6
533.014	5.74
533.36	5.68
533.706	5.67
534.052	5.65
534.399	5.61
534.745	5.63
535.091	5.71
535.437	5.65
535.783	5.66
536.129	5.64
536.474	5.72
536.82	5.74
537.166	5.76
537.512	5.77
537.857	5.76
538.203	5.8
538.549	5.73
538.894	5.7
539.239	5.81
539.585	5.8
539.93	5.69
540.276	5.91
540.621	6.03
540.966	5.99
541.311	5.86
541.656	5.91
542.001	5.94
542.346	6.05
542.691	5.88
543.036	5.83
543.381	5.75
543.726	5.81
544.071	5.82
544.415	5.84
544.76	5.84
545.105	5.91
545.449	5.89
545.794	6.06
546.138	5.93
546.483	6.11
546.827	6.08
547.171	5.97
547.516	6.19
547.86	6.06
548.204	6.06
548.548	6.03
548.892	6.15
549.236	6.05
549.58	6.06
549.924	6.16
550.268	6.17
550.612	6.07
550.956	6.32
551.3	6.28
551.643	6.41
551.987	6.47
552.33	6.21
552.674	6.49
553.017	6.26
553.361	6.12
553.704	6.45
554.048	6.28
554.391	6.44
554.734	6.32
555.077	6.45
555.42	6.28
555.764	6.22
556.107	6.43
556.45	6.27
556.793	6.5
557.135	6.36
557.478	6.68
557.821	6.27
558.164	6.31
558.507	6.46
558.849	6.51
559.192	6.55
559.534	6.62
559.877	6.6
560.219	6.36
560.562	6.85
560.904	6.7
561.246	6.58
561.589	6.66
561.931	6.76
562.273	6.43
562.615	6.63
562.957	6.66
563.299	6.48
563.641	6.77
563.983	6.74
564.325	6.67
564.667	6.73
565.008	6.83
565.35	6.71
565.692	6.62
566.033	6.77
566.375	7.03
566.716	7.01
567.058	6.93
567.399	6.81
567.741	6.65
568.082	6.91
568.423	6.91
568.764	6.78
569.105	7.01
569.447	7.09
569.788	6.92
570.129	6.96
570.47	6.98
570.811	6.97
571.151	7.12
571.492	6.95
571.833	7.01
572.174	6.99
572.514	7.2
572.855	7.12
573.195	7.16
573.536	7.05
573.876	7.12
574.217	7.21
574.557	7.31
574.898	7.23
575.238	7.15
575.578	7.28
575.918	7.39
576.258	7.23
576.598	7.32
576.938	7.29
577.278	7.25
577.618	7.31
577.958	7.34
578.298	7.24
578.638	7.44
578.977	7.32
579.317	7.35
579.657	7.51
579.996	7.53
580.336	7.65
580.675	7.64
581.014	7.69
581.354	7.53
581.693	7.71
582.032	7.58
582.372	7.69
582.711	7.41
583.05	7.5
583.389	7.34
583.728	7.72
584.067	7.71
584.406	7.81
584.745	7.93
585.083	7.94
585.422	8.05
585.761	7.86
586.1	7.85
586.438	7.67
586.777	7.95
587.115	7.99
587.454	8.02
587.792	7.93
588.13	8.12
588.469	7.95
588.807	7.98
589.145	7.8
589.483	7.77
589.821	7.99
590.159	8.21
590.497	8.41
590.835	8.44
591.173	8.14
591.511	8.28
591.849	8.22
592.187	8.21
592.524	8.26
592.862	8.23
593.2	8.43
593.537	8.27
593.875	8.24
594.212	8.3
594.55	8.37
594.887	8.42
595.224	8.19
595.561	8.45
595.899	8.41
596.236	8.55
596.573	8.71
596.91	8.33
597.247	8.25
597.584	8.84
597.921	8.7
598.258	8.62
598.594	8.7
598.931	8.49
599.268	8.72
599.604	8.78
599.941	8.67
600.277	8.74
600.614	8.42
600.95	8.75
601.287	8.91
601.623	8.79
601.959	8.41
602.296	8.9
602.632	8.86
602.968	8.85
603.304	9.01
603.64	9.16
603.976	9.14
604.312	8.72
604.648	9.33
604.984	9.32
605.319	9.22
605.655	9.21
605.991	9.17
606.326	9.33
606.662	9.25
606.998	9.05
607.333	9.18
607.668	8.91
608.004	9.35
608.339	9.57
608.674	9.32
609.01	9
609.345	9.22
609.68	9.51
610.015	9.77
610.35	9.25
610.685	9.24
611.02	9.43
611.355	9.69
611.689	9.46
612.024	9.57
612.359	9.47
612.694	9.6
613.028	9.45
613.363	9.81
613.697	9.96
614.032	9.59
614.366	9.55
614.7	10.14
615.035	10.04
615.369	9.36
615.703	10.18
616.037	9.84
616.371	9.74
616.705	9.75
617.039	9.86
617.373	10.02
617.707	9.98
618.041	10.04
618.375	10.12
618.709	10.05
619.042	9.57
619.376	10.04
619.71	10.44
620.043	10.36
620.377	10.23
620.71	10.36
621.043	10.22
621.377	10.67
621.71	10.56
622.043	10.22
622.376	9.97
622.709	10.61
623.043	10.39
623.376	10.44
623.709	10.42
624.041	10.9
624.374	10.7
624.707	10.5
625.04	10.66
625.373	10.44
625.705	10.64
626.038	10.77
626.37	10.47
626.703	10.59
627.035	11.05
627.368	11.35
627.7	10.59
628.032	11
628.365	11.12
628.697	10.95
629.029	10.91
629.361	10.77
629.693	10.96
630.025	11.02
630.357	11.17
630.689	11.03
631.021	10.69
631.353	11.09
631.684	10.99
632.016	10.83
632.348	11.45
632.679	11.21
633.011	11.42
633.342	11.67
633.674	11.54
634.005	11.61
634.336	11.71
634.668	11.81
634.999	10.93
635.33	11.65
635.661	11.61
635.992	11.49
636.323	11.7
636.654	12.1
636.985	11.87
637.316	11.75
637.647	11.5
637.977	11.71
638.308	12.01
638.639	11.36
638.969	11.81
639.3	11.56
639.63	11.2
639.961	12.09
640.291	12.1
640.622	11.84
640.952	11.8
641.282	12.05
641.612	12.22
641.943	11.93
642.273	12.16
642.603	12.63
642.933	12.43
643.263	12.68
643.592	11.99
643.922	11.86
644.252	12.07
644.582	12.39
644.911	12.11
645.241	12.5
645.571	12.5
645.9	12.06
646.23	12.34
646.559	12.39
646.888	12.29
647.218	12.04
647.547	12.47
647.876	12.08
648.205	12.4
648.534	12.57
648.863	12.27
649.192	12.29
649.521	12.96
649.85	12.1
650.179	12.32
650.508	12.62
650.837	12.39
651.165	12.5
651.494	12.9
651.822	12.84
652.151	12.73
652.479	12.89
652.808	12.42
653.136	13.3
653.465	12.68
653.793	12.75
654.121	13.3
654.449	13.15
654.777	13.3
655.105	13.29
655.433	12.96
655.761	12.79
656.089	13.68
656.417	13.58
656.745	13.61
657.073	13.08
657.4	14.26
657.728	13.81
658.056	13.04
658.383	13.59
658.711	14
659.038	13.72
659.365	14
659.693	13.69
660.02	13.44
660.347	13.68
660.674	13.76
661.001	13.79
661.329	12.9
661.656	13.47
661.982	13.79
662.309	13.97
662.636	13.95
662.963	14.01
663.29	14.01
663.616	14.04
663.943	14.22
664.27	14.26
664.596	14.51
664.923	14.05
665.249	14.6
665.576	14.13
665.902	15.02
666.228	14.52
666.554	14.47
666.881	14.06
667.207	14.49
667.533	14.13
667.859	14.69
668.185	14.81
668.511	14.39
668.837	13.92
669.162	14.14
669.488	13.62
669.814	14.61
670.139	14.53
670.465	14.53
670.791	14.73
671.116	15.69
671.442	14.51
671.767	14.98
672.092	15.15
672.418	15.02
672.743	14.94
673.068	14.22
673.393	15.12
673.718	15.05
674.043	14.67
674.368	15.34
674.693	15.65
675.018	14.91
675.343	14.65
675.667	14.63
675.992	15.5
676.317	15.45
676.641	15.3
676.966	15.52
677.29	16.06
677.615	15.68
677.939	15.48
678.264	14.9
678.588	15.48
678.912	15.87
679.236	16.2
679.56	14.52
679.885	15.58
680.209	15.54
680.532	15.56
680.856	16.45
681.18	15.73
681.504	15.89
681.828	16.44
682.152	15.85
682.475	15.72
682.799	15.67
683.122	15.71
683.446	15.41
683.769	16.51
684.093	15.63
684.416	16.21
684.739	16.63
685.062	16.12
685.386	16.46
685.709	15.9
686.032	15.95
686.355	17.31
686.678	15.88
687.001	16.51
687.324	16.78
