Data from 430_forehead_Reflection__4__138.txt Node

Date: Fri Dec 15 17:53:58 CST 2023
User: ToomeyLab
Spectrometer: FLMS14357
Trigger mode: 0
Integration Time (sec): 1.000000E-2
Scans to average: 100
Electric dark correction enabled: true
Nonlinearity correction enabled: false
Boxcar width: 0
XAxis mode: Wavelengths
Number of Pixels in Spectrum: 2048
>>>>>Begin Spectral Data<<<<<
189.047	-144.01
189.435	-144.01
189.823	-144.01
190.211	-117.26
190.599	-3745.28
190.987	15.73
191.375	393.22
191.763	-124.66
192.151	34.73
192.538	150.23
192.926	-222.15
193.314	146.58
193.702	795.77
194.089	-214.03
194.477	5705.41
194.864	-206.15
195.252	96.98
195.639	37.17
196.027	1027.98
196.414	173.8
196.801	2587.85
197.189	77.97
197.576	91.5
197.963	165.06
198.351	-10.83
198.738	28.57
199.125	15.5
199.512	9.43
199.899	15.45
200.286	30.1
200.673	91
201.06	55.81
201.447	-14.74
201.833	22.36
202.22	53.03
202.607	28.16
202.994	9.46
203.38	39.79
203.767	64.08
204.154	22.32
204.54	47.07
204.927	-46.55
205.313	-36.16
205.699	22.72
206.086	45.21
206.472	77.78
206.858	28.26
207.245	-77.17
207.631	42.04
208.017	31.39
208.403	31.53
208.789	30.7
209.175	43.45
209.561	11.72
209.947	27.06
210.333	11.05
210.719	16.39
211.105	25.73
211.491	44.61
211.876	53.82
212.262	20.86
212.648	-9.32
213.034	52.03
213.419	-20.72
213.805	11.98
214.19	-33.09
214.576	-19.14
214.961	-9.35
215.346	-33.52
215.732	42.87
216.117	-1.2
216.502	15.23
216.888	-2.6
217.273	16.27
217.658	15.83
218.043	27.82
218.428	10.07
218.813	-8.34
219.198	-3.97
219.583	-0.52
219.968	8.85
220.353	9.15
220.738	27.39
221.122	20.6
221.507	-8.01
221.892	-2.91
222.276	15.79
222.661	-0.08
223.046	11.09
223.43	27.67
223.815	17.44
224.199	-5.46
224.583	18.7
224.968	-5.09
225.352	21.37
225.736	6.87
226.121	-5.55
226.505	12.68
226.889	7.37
227.273	9.1
227.657	8.5
228.041	-0.65
228.425	6.22
228.809	7.43
229.193	4.89
229.577	3.79
229.961	5.34
230.344	5.52
230.728	4.42
231.112	4.89
231.495	4.95
231.879	4.17
232.263	4.65
232.646	5.79
233.03	4.59
233.413	3.31
233.797	4.68
234.18	4.93
234.563	4.59
234.946	3.47
235.33	3.16
235.713	3.26
236.096	5.86
236.479	6.75
236.862	2.53
237.245	6.14
237.628	6.27
238.011	6.19
238.394	6.29
238.777	5.2
239.16	4.94
239.543	5.05
239.925	4.83
240.308	3.74
240.691	5.49
241.073	5.42
241.456	4.33
241.838	5.22
242.221	4.89
242.603	5.11
242.986	4.32
243.368	4.73
243.75	5
244.133	4.65
244.515	5.07
244.897	4.76
245.279	4.73
245.661	5.03
246.043	4.34
246.425	3.83
246.807	5.22
247.189	4.94
247.571	5.19
247.953	5.07
248.335	4.42
248.717	4.67
249.098	4.43
249.48	4.47
249.862	4.94
250.243	4.62
250.625	4.76
251.006	5
251.388	3.73
251.769	5.04
252.151	4.25
252.532	4.24
252.913	4.75
253.295	4.72
253.676	5.27
254.057	4.75
254.438	4.2
254.819	4.68
255.2	4.27
255.581	5.06
255.962	4.16
256.343	4.66
256.724	5.02
257.105	6.12
257.486	3.6
257.867	6.03
258.247	5.92
258.628	5.47
259.009	4.72
259.389	5.13
259.77	4.56
260.15	4.83
260.531	4.36
260.911	5.39
261.292	4.63
261.672	4.7
262.052	4.77
262.432	5.14
262.813	4.92
263.193	4.74
263.573	4.47
263.953	4.32
264.333	5.15
264.713	4.74
265.093	4.6
265.473	4.93
265.853	4.32
266.233	5.13
266.612	3.54
266.992	3.91
267.372	4.33
267.752	5.06
268.131	3.97
268.511	5.21
268.89	5.33
269.27	4.89
269.649	4.13
270.029	4.62
270.408	6.01
270.787	5.04
271.167	4.86
271.546	4.28
271.925	4.21
272.304	4.16
272.683	4.48
273.062	4.5
273.441	4.5
273.82	4.2
274.199	4.32
274.578	4.83
274.957	4.32
275.336	4.4
275.715	4.48
276.093	4.25
276.472	4.76
276.851	4.65
277.229	4.62
277.608	4.79
277.986	4.4
278.365	4.62
278.743	4.11
279.122	4.45
279.5	4.21
279.878	4.5
280.257	4.68
280.635	4.81
281.013	4.13
281.391	5.54
281.769	5.05
282.147	4.73
282.525	4.87
282.903	4.44
283.281	4.92
283.659	4.58
284.037	4.54
284.415	4.45
284.792	4.52
285.17	4.13
285.548	4.65
285.925	5.08
286.303	4.69
286.68	4.88
287.058	4.88
287.435	4.91
287.813	4.65
288.19	4.75
288.567	4.47
288.945	5.37
289.322	4.83
289.699	4.46
290.076	4.57
290.453	4.97
290.83	4.67
291.207	4.58
291.584	5.11
291.961	5.24
292.338	4.92
292.715	5.55
293.092	5.06
293.469	4.54
293.845	5.5
294.222	4.48
294.599	5.19
294.975	5.03
295.352	5.19
295.728	5.2
296.105	5.25
296.481	5.45
296.858	5.52
297.234	5.55
297.61	5.25
297.986	5.72
298.363	5.66
298.739	5.87
299.115	5.39
299.491	5.47
299.867	5.61
300.243	5.72
300.619	5.2
300.995	5.75
301.371	5.71
301.746	5.36
302.122	5.7
302.498	5.77
302.874	6.52
303.249	6.23
303.625	5.91
304	6.35
304.376	6.51
304.751	5.8
305.127	6.78
305.502	5.77
305.878	5.66
306.253	5.88
306.628	6.4
307.003	6.23
307.378	6.87
307.754	6.45
308.129	5.95
308.504	6.92
308.879	6.79
309.254	7.65
309.629	7.6
310.003	6.42
310.378	7.2
310.753	7.44
311.128	7.17
311.502	7.32
311.877	7.7
312.252	7
312.626	7.28
313.001	7.14
313.375	7.37
313.75	7.23
314.124	7.68
314.498	7.42
314.873	7.72
315.247	6.99
315.621	7.86
315.995	7.39
316.369	7.75
316.743	7.84
317.117	8.09
317.491	7.79
317.865	8.17
318.239	8.02
318.613	8
318.987	8.78
319.361	8.26
319.734	9.04
320.108	8.39
320.482	8.2
320.855	8.91
321.229	8.41
321.602	8.53
321.976	9.06
322.349	8.36
322.723	9.34
323.096	9.6
323.469	8.34
323.843	8.82
324.216	9.52
324.589	9.28
324.962	9.12
325.335	9.08
325.708	9.66
326.081	9.18
326.454	9.73
326.827	8.88
327.2	9.26
327.573	9.6
327.945	9.64
328.318	9.18
328.691	9.35
329.063	9.65
329.436	9.65
329.809	9.62
330.181	10.06
330.553	9.54
330.926	10.35
331.298	10.24
331.671	9.43
332.043	10.54
332.415	10.3
332.787	10.18
333.159	10.4
333.532	10.01
333.904	10.05
334.276	10.47
334.648	10.96
335.02	10.27
335.391	10.91
335.763	10.48
336.135	10.71
336.507	10.92
336.879	10.42
337.25	10.29
337.622	11.08
337.993	11.02
338.365	11.68
338.736	10.94
339.108	11.03
339.479	10.52
339.851	10.92
340.222	11.23
340.593	10.78
340.964	11.43
341.336	11.79
341.707	10.94
342.078	11.43
342.449	11.58
342.82	11.63
343.191	12.22
343.562	11.83
343.933	11.86
344.303	11.75
344.674	11.72
345.045	11.43
345.416	12.02
345.786	11.41
346.157	11.92
346.527	11.28
346.898	11.47
347.268	12.39
347.639	12.03
348.009	11.86
348.38	12.16
348.75	11.71
349.12	11.97
349.49	12.49
349.861	12.13
350.231	12.58
350.601	12.73
350.971	12.94
351.341	12.64
351.711	12.43
352.081	12.97
352.45	12.34
352.82	12.78
353.19	12.38
353.56	12.57
353.929	12.61
354.299	12.73
354.669	12.91
355.038	13.05
355.408	12.61
355.777	12.71
356.147	12.67
356.516	12.78
356.885	13.37
357.254	12.63
357.624	13.47
357.993	13.29
358.362	13.26
358.731	12.74
359.1	13.66
359.469	13.45
359.838	13.35
360.207	13.41
360.576	13.25
360.945	13.58
361.314	13.69
361.682	13.53
362.051	13.9
362.42	13.79
362.788	13.45
363.157	13.92
363.525	14.28
363.894	13.99
364.262	13.77
364.631	13.89
364.999	13.99
365.367	13.64
365.735	14.51
366.104	14.63
366.472	14.44
366.84	14.37
367.208	14.73
367.576	14.66
367.944	14.38
368.312	14.29
368.68	14.33
369.048	14.6
369.416	14.3
369.783	14.86
370.151	14.88
370.519	14.97
370.886	14.62
371.254	14.67
371.621	15.06
371.989	15.45
372.356	15.06
372.724	15.01
373.091	14.82
373.458	15.19
373.826	15.34
374.193	15.09
374.56	15.66
374.927	15.54
375.294	15.28
375.661	15.32
376.028	15.56
376.395	15.56
376.762	16.08
377.129	15.72
377.496	15.74
377.863	15.43
378.229	15.27
378.596	15.76
378.963	15.94
379.329	15.86
379.696	15.86
380.062	15.97
380.429	15.87
380.795	15.98
381.161	16.67
381.528	16.44
381.894	15.88
382.26	16.1
382.626	16.12
382.993	15.79
383.359	16.61
383.725	16.53
384.091	16.31
384.457	17.05
384.823	16.53
385.188	16.51
385.554	16.58
385.92	16.97
386.286	16.72
386.651	16.7
387.017	16.96
387.383	16.55
387.748	16.87
388.114	17.23
388.479	16.7
388.845	17.17
389.21	17.18
389.575	17.07
389.94	16.67
390.306	16.69
390.671	17.75
391.036	17.18
391.401	17.2
391.766	17.57
392.131	17.24
392.496	17.65
392.861	17.62
393.226	17.63
393.591	17.71
393.956	17.3
394.32	17.47
394.685	17.52
395.05	17.38
395.414	17.56
395.779	17.61
396.143	17.73
396.508	18
396.872	17.75
397.236	18.05
397.601	18.02
397.965	17.92
398.329	18.31
398.694	18.08
399.058	18.08
399.422	17.97
399.786	18.39
400.15	18.65
400.514	18.4
400.878	18.4
401.242	18.65
401.605	18.39
401.969	18.48
402.333	18.55
402.697	18.43
403.06	18.57
403.424	18.83
403.787	18.5
404.151	18.96
404.514	18.83
404.878	18.61
405.241	19.11
405.604	18.65
405.968	18.98
406.331	18.79
406.694	18.99
407.057	18.89
407.42	19.13
407.783	19.04
408.146	19.27
408.509	19.23
408.872	19.08
409.235	19.33
409.598	19.39
409.961	19.47
410.323	19.52
410.686	19.54
411.049	19.34
411.411	19.56
411.774	19.31
412.136	19.51
412.499	19.56
412.861	19.59
413.223	19.74
413.586	19.91
413.948	19.75
414.31	19.65
414.672	19.65
415.035	19.69
415.397	20.05
415.759	19.89
416.121	20.01
416.483	19.92
416.845	20.34
417.206	20.17
417.568	20.02
417.93	20.11
418.292	20.39
418.653	20.38
419.015	19.98
419.377	20.23
419.738	20.29
420.1	20.13
420.461	20.35
420.822	20.31
421.184	20.29
421.545	20.25
421.906	20.19
422.267	20.35
422.629	20.25
422.99	20.16
423.351	20.35
423.712	20.32
424.073	20.48
424.434	20.44
424.795	20.62
425.155	20.73
425.516	20.36
425.877	20.59
426.238	20.46
426.598	20.7
426.959	20.78
427.32	20.8
427.68	20.83
428.041	21.09
428.401	21.12
428.761	21.04
429.122	21.27
429.482	21.12
429.842	21.49
430.202	21.67
430.563	21.41
430.923	21.41
431.283	21.6
431.643	21.67
432.003	21.64
432.363	21.73
432.722	21.53
433.082	21.77
433.442	21.71
433.802	21.79
434.161	21.8
434.521	21.95
434.881	22.14
435.24	21.74
435.6	21.94
435.959	21.84
436.319	21.84
436.678	21.99
437.037	22.08
437.396	21.97
437.756	22.06
438.115	22.17
438.474	22.27
438.833	22.25
439.192	22.4
439.551	22.44
439.91	22.18
440.269	22.48
440.628	22.44
440.987	22.38
441.345	22.37
441.704	22.49
442.063	22.42
442.421	22.35
442.78	22.37
443.138	22.52
443.497	22.55
443.855	22.5
444.214	22.56
444.572	22.92
444.93	22.79
445.288	22.88
445.647	23.01
446.005	22.83
446.363	23.09
446.721	22.91
447.079	22.86
447.437	22.94
447.795	22.9
448.153	22.87
448.51	23.01
448.868	23.01
449.226	23.02
449.584	23.09
449.941	23.2
450.299	23.34
450.656	23.36
451.014	23.31
451.371	23.2
451.729	23.34
452.086	23.67
452.443	23.46
452.801	23.67
453.158	23.71
453.515	23.56
453.872	23.56
454.229	23.73
454.586	23.82
454.943	23.71
455.3	23.81
455.657	23.65
456.014	23.83
456.371	23.81
456.727	24.05
457.084	24.29
457.441	24.02
457.797	24.13
458.154	24.36
458.51	24.43
458.867	24.39
459.223	24.47
459.58	24.4
459.936	24.42
460.292	24.45
460.648	24.48
461.005	24.4
461.361	24.39
461.717	24.33
462.073	24.23
462.429	24.15
462.785	24.49
463.141	24.36
463.496	24.53
463.852	24.73
464.208	24.82
464.564	24.91
464.919	24.95
465.275	24.7
465.631	25.29
465.986	25.18
466.342	25.02
466.697	24.95
467.052	25.34
467.408	24.8
467.763	25.17
468.118	25.08
468.473	25.09
468.829	25.51
469.184	25.05
469.539	25.11
469.894	25.4
470.249	25.59
470.603	25.45
470.958	25.58
471.313	25.75
471.668	25.63
472.023	25.63
472.377	25.82
472.732	25.78
473.086	25.75
473.441	25.67
473.795	25.87
474.15	25.98
474.504	26.13
474.859	25.83
475.213	25.82
475.567	25.71
475.921	25.69
476.275	26.22
476.63	25.87
476.984	26.32
477.338	26.09
477.692	26
478.045	26.13
478.399	26.38
478.753	26.22
479.107	26.15
479.461	26.22
479.814	26.21
480.168	26.46
480.521	26.26
480.875	26.2
481.228	26.14
481.582	26.44
481.935	26.41
482.289	26.52
482.642	26.37
482.995	26.23
483.348	26.27
483.701	26.32
484.055	26.44
484.408	26.37
484.761	26.2
485.114	26.11
485.466	25.68
485.819	25.66
486.172	25.7
486.525	25.61
486.878	25.64
487.23	25.7
487.583	25.95
487.936	26.08
488.288	26.36
488.641	26.36
488.993	26.24
489.345	26.06
489.698	26.1
490.05	26.15
490.402	26.23
490.754	26.29
491.107	26.38
491.459	26.58
491.811	26.85
492.163	26.97
492.515	26.97
492.866	26.88
493.218	26.77
493.57	26.68
493.922	26.55
494.274	26.68
494.625	26.72
494.977	26.89
495.328	27.19
495.68	27.44
496.031	27.6
496.383	27.57
496.734	27.83
497.086	27.93
497.437	27.71
497.788	27.88
498.139	27.65
498.49	27.82
498.842	27.78
499.193	27.84
499.544	27.74
499.894	27.94
500.245	27.94
500.596	27.88
500.947	28.02
501.298	27.93
501.648	27.98
501.999	28.22
502.35	28.12
502.7	28.27
503.051	28.25
503.401	28.31
503.752	28.69
504.102	28.32
504.452	28.51
504.803	28.61
505.153	28.61
505.503	28.68
505.853	28.55
506.203	28.67
506.553	28.62
506.903	28.56
507.253	28.72
507.603	28.73
507.953	28.78
508.303	28.87
508.652	28.73
509.002	29.02
509.352	28.85
509.701	28.95
510.051	28.83
510.4	29.07
510.75	28.94
511.099	28.9
511.449	28.95
511.798	28.88
512.147	28.94
512.496	28.89
512.846	28.84
513.195	29.07
513.544	29.19
513.893	29.29
514.242	29.05
514.591	29.38
514.939	29.19
515.288	29.09
515.637	29.26
515.986	29.47
516.334	29.55
516.683	29.55
517.032	29.47
517.38	29.63
517.729	29.63
518.077	29.61
518.426	29.75
518.774	29.84
519.122	29.67
519.47	29.85
519.819	29.57
520.167	29.6
520.515	29.41
520.863	29.5
521.211	29.47
521.559	29.65
521.907	29.6
522.255	29.63
522.602	29.96
522.95	29.88
523.298	29.89
523.645	29.92
523.993	29.99
524.341	29.97
524.688	30.21
525.036	30.15
525.383	30.27
525.73	30.54
526.078	30.29
526.425	30.25
526.772	30.32
527.119	30.28
527.466	30.28
527.814	30.04
528.161	30.06
528.508	30.12
528.854	30.03
529.201	30.03
529.548	29.94
529.895	29.96
530.242	29.68
530.588	29.78
530.935	29.67
531.282	29.58
531.628	29.56
531.975	29.73
532.321	30.05
532.667	30.28
533.014	30.34
533.36	30.31
533.706	30.68
534.052	30.62
534.399	30.6
534.745	30.4
535.091	30.4
535.437	30.44
535.783	30.47
536.129	30.33
536.474	30.53
536.82	30.6
537.166	30.64
537.512	30.99
537.857	31.14
538.203	31.08
538.549	30.95
538.894	30.86
539.239	30.99
539.585	31.07
539.93	31.1
540.276	31.33
540.621	31.65
540.966	31.48
541.311	31.51
541.656	31.61
542.001	31.48
542.346	31.61
542.691	31.23
543.036	31.08
543.381	30.97
543.726	31
544.071	31.02
544.415	31.04
544.76	31.01
545.105	31.32
545.449	31.39
545.794	31.58
546.138	31.65
546.483	31.81
546.827	31.74
547.171	31.87
547.516	32.16
547.86	31.94
548.204	31.88
548.548	31.93
548.892	32.01
549.236	31.92
549.58	32.03
549.924	32.22
550.268	32.2
550.612	32.43
550.956	32.51
551.3	32.3
551.643	32.65
551.987	32.85
552.33	32.66
552.674	32.79
553.017	32.74
553.361	32.7
553.704	33.4
554.048	32.94
554.391	32.75
554.734	33.09
555.077	33.02
555.42	32.75
555.764	32.72
556.107	32.77
556.45	33.03
556.793	33.16
557.135	33.15
557.478	33.24
557.821	33
558.164	33.34
558.507	33.5
558.849	33.61
559.192	33.49
559.534	33.26
559.877	33.34
560.219	33.61
560.562	33.96
560.904	33.72
561.246	33.83
561.589	33.5
561.931	33.69
562.273	33.68
562.615	33.97
562.957	33.61
563.299	33.67
563.641	33.72
563.983	33.87
564.325	33.49
564.667	33.77
565.008	33.72
565.35	33.99
565.692	33.9
566.033	33.87
566.375	34.13
566.716	34.23
567.058	34.12
567.399	34.05
567.741	33.92
568.082	33.8
568.423	34.12
568.764	33.85
569.105	33.99
569.447	33.94
569.788	34.14
570.129	34.03
570.47	33.96
570.811	34.34
571.151	34.13
571.492	34.4
571.833	34.28
572.174	34.43
572.514	34.54
572.855	34.61
573.195	34.21
573.536	34.22
573.876	34.36
574.217	34.65
574.557	34.28
574.898	34.4
575.238	34.39
575.578	34.42
575.918	34.54
576.258	34.55
576.598	34.58
576.938	34.67
577.278	34.7
577.618	34.75
577.958	34.75
578.298	34.51
578.638	35.25
578.977	34.77
579.317	34.98
579.657	35.07
579.996	34.74
580.336	34.98
580.675	35.06
581.014	35.3
581.354	35.36
581.693	35.38
582.032	35.45
582.372	35.41
582.711	35.59
583.05	35.27
583.389	35.09
583.728	35.36
584.067	35.78
584.406	35.27
584.745	35.29
585.083	35.48
585.422	35.42
585.761	35.59
586.1	35.73
586.438	35.53
586.777	35.66
587.115	35.91
587.454	35.46
587.792	35.6
588.13	35.91
588.469	36.28
588.807	35.73
589.145	35.61
589.483	35.85
589.821	36.09
590.159	36.06
590.497	36.21
590.835	36.07
591.173	36.01
591.511	36.09
591.849	36.19
592.187	36.14
592.524	36.03
592.862	36.33
593.2	36.21
593.537	36.45
593.875	36.13
594.212	35.97
594.55	36.02
594.887	36.49
595.224	36.25
595.561	35.9
595.899	36.17
596.236	36.23
596.573	36.56
596.91	35.98
597.247	36.28
597.584	36.42
597.921	36.34
598.258	36.3
598.594	36.38
598.931	36.32
599.268	36.34
599.604	36.45
599.941	36.09
600.277	36.55
600.614	36.46
600.95	36.25
601.287	36.79
601.623	36.43
601.959	36.71
602.296	36.67
602.632	36.75
602.968	36.99
603.304	36.9
603.64	37.14
603.976	37.06
604.312	36.99
604.648	36.86
604.984	36.77
605.319	37.09
605.655	36.95
605.991	36.66
606.326	36.89
606.662	36.62
606.998	37.07
607.333	36.92
607.668	36.81
608.004	37.09
608.339	37.07
608.674	37.07
609.01	37.08
609.345	37.1
609.68	37.47
610.015	37.46
610.35	37.35
610.685	37.24
611.02	37.52
611.355	37.24
611.689	37.33
612.024	37.27
612.359	37.06
612.694	37.38
613.028	37.45
613.363	37.48
613.697	37.28
614.032	37.98
614.366	37.78
614.7	37.52
615.035	37.49
615.369	37.56
615.703	38.33
616.037	37.66
616.371	37.25
616.705	37.95
617.039	37.77
617.373	37.65
617.707	37.87
618.041	37.98
618.375	38.26
618.709	38.28
619.042	38.16
619.376	38.02
619.71	37.71
620.043	38.2
620.377	37.67
620.71	38.4
621.043	37.74
621.377	38.23
621.71	38.13
622.043	38.08
622.376	38.28
622.709	38.62
623.043	38.68
623.376	38.2
623.709	37.84
624.041	38.27
624.374	38.37
624.707	38.11
625.04	38.74
625.373	38.3
625.705	38.47
626.038	38.47
626.37	38.15
626.703	38.48
627.035	39.07
627.368	38.98
627.7	38.43
628.032	38.57
628.365	38.51
628.697	38.74
629.029	38.68
629.361	38.63
629.693	38.9
630.025	38.33
630.357	38.62
630.689	38.86
631.021	38.18
631.353	38.84
631.684	38.92
632.016	38.55
632.348	39.11
632.679	38.71
633.011	38.79
633.342	39.24
633.674	38.75
634.005	38.81
634.336	39.16
634.668	39.48
634.999	38.58
635.33	39.02
635.661	39.33
635.992	38.96
636.323	39.12
636.654	39.35
636.985	39.43
637.316	39.16
637.647	38.99
637.977	39.4
638.308	39.86
638.639	39.26
638.969	39.39
639.3	39.14
639.63	39.42
639.961	39.34
640.291	39.56
640.622	39.36
640.952	39.36
641.282	40.05
641.612	39.63
641.943	39.79
642.273	39.86
642.603	40.12
642.933	39.49
643.263	39.93
643.592	39.44
643.922	39.56
644.252	40.13
644.582	39.9
644.911	39.82
645.241	39.91
645.571	40
645.9	39.33
646.23	39.63
646.559	40.18
646.888	39.5
647.218	40.13
647.547	40.12
647.876	39.61
648.205	40.18
648.534	40.36
648.863	40.06
649.192	40.55
649.521	39.8
649.85	40.07
650.179	39.9
650.508	39.81
650.837	40.03
651.165	39.88
651.494	40.78
651.822	40.13
652.151	40.01
652.479	40.13
652.808	40.01
653.136	40.06
653.465	39.93
653.793	40.23
654.121	40.46
654.449	40.66
654.777	40.42
655.105	40.91
655.433	40.21
655.761	40.28
656.089	40.33
656.417	40.51
656.745	40.29
657.073	39.78
657.4	40.79
657.728	40.56
658.056	40.77
658.383	40.86
658.711	40.87
659.038	40.87
659.365	40.75
659.693	40.5
660.02	40.22
660.347	40.48
660.674	41.04
661.001	40.91
661.329	40.07
661.656	40.79
661.982	40.87
662.309	40.47
662.636	40.81
662.963	41.14
663.29	41.33
663.616	40.54
663.943	40.67
664.27	41.08
664.596	41.64
664.923	40.8
665.249	41.19
665.576	40.61
665.902	41.22
666.228	41.22
666.554	40.99
666.881	40.71
667.207	41.71
667.533	41.53
667.859	40.83
668.185	41.36
668.511	40.42
668.837	40.7
669.162	41.39
