Data from 430_crown_Reflection__2__131.txt Node

Date: Fri Dec 15 17:51:48 CST 2023
User: ToomeyLab
Spectrometer: FLMS14357
Trigger mode: 0
Integration Time (sec): 1.000000E-2
Scans to average: 100
Electric dark correction enabled: true
Nonlinearity correction enabled: false
Boxcar width: 0
XAxis mode: Wavelengths
Number of Pixels in Spectrum: 2048
>>>>>Begin Spectral Data<<<<<
189.047	74.74
189.435	74.74
189.823	74.74
190.211	-19.12
190.599	-6807.55
190.987	13.98
191.375	158.98
191.763	-298.12
192.151	222.66
192.538	95.01
192.926	-32.5
193.314	154.56
193.702	424.41
194.089	86.48
194.477	5945.95
194.864	-39.58
195.252	54.68
195.639	54.68
196.027	1251.58
196.414	120.58
196.801	1831.78
197.189	70.63
197.576	162.76
197.963	-221.69
198.351	-124.92
198.738	-31.6
199.125	63.08
199.512	24.67
199.899	18.33
200.286	22.89
200.673	-86.44
201.06	12.68
201.447	-27.52
201.833	-4.27
202.22	17.09
202.607	30.33
202.994	8.84
203.38	17.27
203.767	49.52
204.154	15.88
204.54	48.92
204.927	-57.36
205.313	-15.5
205.699	10.65
206.086	27.67
206.472	8.19
206.858	28.66
207.245	-45.67
207.631	26.64
208.017	31.83
208.403	5.64
208.789	18.38
209.175	24.81
209.561	7.05
209.947	-46.76
210.333	-70.93
210.719	10.66
211.105	31.24
211.491	16.02
211.876	1.96
212.262	-29.9
212.648	-8.21
213.034	27.43
213.419	-25.06
213.805	-10.96
214.19	29.75
214.576	19.89
214.961	-26.78
215.346	-63.1
215.732	37.25
216.117	8.93
216.502	-56.5
216.888	12.68
217.273	13.56
217.658	-13.47
218.043	9.96
218.428	-46.84
218.813	-17.41
219.198	-22.23
219.583	12.71
219.968	11.46
220.353	-13.19
220.738	24.44
221.122	4.03
221.507	-23.87
221.892	-10.87
222.276	-35.8
222.661	-1.46
223.046	3.36
223.43	-1.47
223.815	3.07
224.199	-22.33
224.583	-3.73
224.968	-5.59
225.352	11.67
225.736	-0.48
226.121	-4.07
226.505	-8.04
226.889	0.24
227.273	-1.71
227.657	4.61
228.041	-0.96
228.425	-1.77
228.809	7.66
229.193	5.23
229.577	-0.45
229.961	2.6
230.344	2.53
230.728	1.87
231.112	2.54
231.495	2.32
231.879	1.6
232.263	0.7
232.646	3.09
233.03	2.43
233.413	0.26
233.797	1.76
234.18	0.77
234.563	3
234.946	2.31
235.33	2.59
235.713	2.82
236.096	2.52
236.479	2.33
236.862	0.41
237.245	5.3
237.628	0.96
238.011	2.44
238.394	3.3
238.777	2.6
239.16	0.7
239.543	4.1
239.925	2.98
240.308	2.43
240.691	2.8
241.073	3.43
241.456	1.13
241.838	1.84
242.221	0.9
242.603	2.39
242.986	2.33
243.368	2.58
243.75	2.94
244.133	2.58
244.515	2.97
244.897	2.35
245.279	2.27
245.661	2.43
246.043	2.06
246.425	1.09
246.807	2.11
247.189	3.34
247.571	2.29
247.953	2.95
248.335	2.19
248.717	2.84
249.098	2.56
249.48	2.36
249.862	2.79
250.243	2.33
250.625	2.56
251.006	2.78
251.388	1.71
251.769	2.12
252.151	2.72
252.532	2.33
252.913	1.95
253.295	1.76
253.676	2.31
254.057	2.76
254.438	2.41
254.819	2.36
255.2	1.77
255.581	2.06
255.962	1.16
256.343	2.19
256.724	1.22
257.105	2.28
257.486	1.25
257.867	3.72
258.247	1.76
258.628	2.61
259.009	2.21
259.389	1.97
259.77	1.92
260.15	1.41
260.531	1.67
260.911	2.85
261.292	2.44
261.672	2.55
262.052	2.77
262.432	2.67
262.813	2.32
263.193	2.51
263.573	1.95
263.953	1.82
264.333	2.81
264.713	2.94
265.093	1.96
265.473	2.39
265.853	1.51
266.233	2.46
266.612	0.41
266.992	1.06
267.372	2.94
267.752	1.91
268.131	2.45
268.511	2.56
268.89	2.47
269.27	1.72
269.649	2.05
270.029	2.24
270.408	3.75
270.787	2.63
271.167	3.29
271.546	2.41
271.925	1.89
272.304	1.92
272.683	2.79
273.062	2.57
273.441	2.35
273.82	1.83
274.199	2.43
274.578	2.44
274.957	2.92
275.336	2.3
275.715	1.98
276.093	2.22
276.472	2.48
276.851	2.23
277.229	2.26
277.608	2.07
277.986	2.36
278.365	3.19
278.743	2.21
279.122	2.39
279.5	2.5
279.878	2.85
280.257	1.82
280.635	2.03
281.013	2.73
281.391	2.56
281.769	2.41
282.147	3
282.525	2.87
282.903	1.8
283.281	2.02
283.659	2.72
284.037	2.87
284.415	2
284.792	2.42
285.17	1.84
285.548	1.94
285.925	2.25
286.303	2.35
286.68	2.25
287.058	2.27
287.435	2.31
287.813	2.41
288.19	2.05
288.567	2.39
288.945	2.68
289.322	2.18
289.699	2.12
290.076	2.17
290.453	2.27
290.83	2.04
291.207	2.54
291.584	2.94
291.961	2.95
292.338	2.22
292.715	2.61
293.092	2.9
293.469	2.62
293.845	2.8
294.222	2.23
294.599	1.89
294.975	1.66
295.352	2.96
295.728	2.01
296.105	2.28
296.481	2.32
296.858	2.47
297.234	2.49
297.61	2.33
297.986	2.85
298.363	2.68
298.739	2.78
299.115	2.44
299.491	2.32
299.867	2.7
300.243	2.63
300.619	2.51
300.995	2.49
301.371	2.94
301.746	2.33
302.122	2.88
302.498	2.55
302.874	2.65
303.249	2.83
303.625	2.53
304	3.14
304.376	2.65
304.751	2.69
305.127	3.54
305.502	1.96
305.878	2.33
306.253	2.79
306.628	3.12
307.003	2.52
307.378	3.3
307.754	3.04
308.129	1.75
308.504	2.59
308.879	2.95
309.254	3.48
309.629	3.27
310.003	2.74
310.378	2.89
310.753	2.51
311.128	2.74
311.502	2.64
311.877	2.75
312.252	2.6
312.626	3.26
313.001	2.81
313.375	2.91
313.75	2.16
314.124	3.12
314.498	2.37
314.873	2.54
315.247	2.94
315.621	2.48
315.995	1.93
316.369	2.69
316.743	2.51
317.117	2.67
317.491	2.64
317.865	2.2
318.239	2.99
318.613	3.04
318.987	2.84
319.361	2.08
319.734	3.34
320.108	3.07
320.482	2.51
320.855	2.62
321.229	2.27
321.602	2.64
321.976	3
322.349	2.69
322.723	2.65
323.096	3.56
323.469	1.96
323.843	2.45
324.216	2.94
324.589	2.55
324.962	2.54
325.335	2.64
325.708	2.79
326.081	2.93
326.454	2.88
326.827	2.21
327.2	2.76
327.573	2.9
327.945	2.89
328.318	3.05
328.691	2.48
329.063	2.74
329.436	2.91
329.809	2.74
330.181	2.35
330.553	3.05
330.926	3.15
331.298	2.86
331.671	2.58
332.043	3.05
332.415	3.35
332.787	3.29
333.159	3.65
333.532	2.86
333.904	2.59
334.276	2.51
334.648	2.87
335.02	3.03
335.391	3.32
335.763	2.56
336.135	2.85
336.507	3.35
336.879	3.02
337.25	3.27
337.622	2.88
337.993	2.79
338.365	3.56
338.736	3.11
339.108	3.04
339.479	2.92
339.851	2.71
340.222	2.7
340.593	2.42
340.964	3.07
341.336	3.29
341.707	2.47
342.078	3.23
342.449	3.49
342.82	2.86
343.191	2.63
343.562	2.67
343.933	2.78
344.303	3.11
344.674	2.88
345.045	2.82
345.416	3.47
345.786	2.22
346.157	2.81
346.527	2.46
346.898	2.56
347.268	3.09
347.639	2.78
348.009	2.99
348.38	2.98
348.75	2.73
349.12	2.82
349.49	3.29
349.861	3.09
350.231	2.35
350.601	3.71
350.971	2.72
351.341	3.01
351.711	2.66
352.081	3.07
352.45	2.61
352.82	3.21
353.19	3.03
353.56	2.41
353.929	3.5
354.299	2.95
354.669	2.6
355.038	3.39
355.408	2.97
355.777	3.38
356.147	3.1
356.516	2.74
356.885	2.54
357.254	2.82
357.624	2.92
357.993	3.21
358.362	2.65
358.731	2.89
359.1	2.86
359.469	3.24
359.838	3.34
360.207	3.03
360.576	2.7
360.945	3.27
361.314	3.28
361.682	2.79
362.051	2.76
362.42	3.03
362.788	2.91
363.157	3.11
363.525	3.32
363.894	2.91
364.262	3.06
364.631	3.16
364.999	3.2
365.367	2.96
365.735	3.68
366.104	3.12
366.472	3.14
366.84	3.01
367.208	3.06
367.576	3.44
367.944	3.21
368.312	3.06
368.68	2.65
369.048	3.17
369.416	3.34
369.783	3.15
370.151	3.08
370.519	3.54
370.886	3.59
371.254	3.19
371.621	3.33
371.989	3.36
372.356	2.68
372.724	2.97
373.091	3.02
373.458	3.04
373.826	3.07
374.193	2.98
374.56	3.39
374.927	3.17
375.294	3.11
375.661	2.98
376.028	2.91
376.395	2.79
376.762	3.24
377.129	3.04
377.496	3.03
377.863	2.95
378.229	2.89
378.596	3.23
378.963	2.97
379.329	3.2
379.696	3.15
380.062	3.31
380.429	2.77
380.795	2.95
381.161	2.93
381.528	3.5
381.894	2.65
382.26	3.14
382.626	3.22
382.993	2.62
383.359	3.33
383.725	2.86
384.091	3.11
384.457	3.51
384.823	2.98
385.188	3.35
385.554	2.9
385.92	3.58
386.286	3.41
386.651	3.6
387.017	3.39
387.383	3.35
387.748	3.1
388.114	3.1
388.479	2.95
388.845	3.46
389.21	3.25
389.575	3.24
389.94	2.94
390.306	3.31
390.671	3.37
391.036	2.81
391.401	2.89
391.766	2.91
392.131	3.09
392.496	3.11
392.861	3.03
393.226	3.28
393.591	3.46
393.956	3.17
394.32	3.09
394.685	3.09
395.05	2.93
395.414	3.07
395.779	2.85
396.143	3.31
396.508	3.29
396.872	3.2
397.236	3.33
397.601	2.92
397.965	3.38
398.329	3.31
398.694	3.21
399.058	3.2
399.422	3.39
399.786	3.47
400.15	3.15
400.514	3.17
400.878	3.22
401.242	3.48
401.605	3.54
401.969	3.28
402.333	3.06
402.697	3.2
403.06	3.29
403.424	2.99
403.787	3.5
404.151	3.33
404.514	3.45
404.878	3.12
405.241	3.34
405.604	3.27
405.968	3.51
406.331	3.35
406.694	3.6
407.057	3.26
407.42	3.26
407.783	2.99
408.146	3.27
408.509	3.19
408.872	3.09
409.235	3.34
409.598	3.72
409.961	3.41
410.323	3.53
410.686	3.12
411.049	3.34
411.411	3.31
411.774	3.35
412.136	3.16
412.499	3.23
412.861	3.46
413.223	3.41
413.586	3.38
413.948	3.33
414.31	3.38
414.672	3.16
415.035	3.19
415.397	3.65
415.759	3.03
416.121	3.72
416.483	3.33
416.845	3.3
417.206	3.25
417.568	3.33
417.93	3.13
418.292	3.48
418.653	3.53
419.015	3.33
419.377	3.22
419.738	3.44
420.1	3.38
420.461	3.38
420.822	3.49
421.184	3.25
421.545	3.24
421.906	3.2
422.267	3.22
422.629	3.27
422.99	3.32
423.351	3.21
423.712	3.27
424.073	3.3
424.434	3.18
424.795	3.2
425.155	3.33
425.516	3.27
425.877	3.26
426.238	3.16
426.598	3.3
426.959	3.28
427.32	3.23
427.68	3.26
428.041	3.3
428.401	3.34
428.761	3.25
429.122	3.47
429.482	3.24
429.842	3.37
430.202	3.41
430.563	3.35
430.923	3.23
431.283	3.42
431.643	3.58
432.003	3.22
432.363	3.53
432.722	3.33
433.082	3.52
433.442	3.34
433.802	3.35
434.161	3.31
434.521	3.5
434.881	3.42
435.24	3.32
435.6	3.44
435.959	3.28
436.319	3.51
436.678	3.45
437.037	3.27
437.396	3.47
437.756	3.4
438.115	3.33
438.474	3.65
438.833	3.27
439.192	3.41
439.551	3.54
439.91	3.41
440.269	3.25
440.628	3.38
440.987	3.35
441.345	3.26
441.704	3.48
442.063	3.47
442.421	3.35
442.78	3.53
443.138	3.45
443.497	3.56
443.855	3.4
444.214	3.48
444.572	3.57
444.93	3.32
445.288	3.42
445.647	3.55
446.005	3.48
446.363	3.44
446.721	3.6
447.079	3.22
447.437	3.43
447.795	3.42
448.153	3.34
448.51	3.39
448.868	3.53
449.226	3.37
449.584	3.46
449.941	3.54
450.299	3.52
450.656	3.52
451.014	3.6
451.371	3.42
451.729	3.36
452.086	3.69
452.443	3.6
452.801	3.4
453.158	3.45
453.515	3.48
453.872	3.64
454.229	3.5
454.586	3.38
454.943	3.41
455.3	3.45
455.657	3.67
456.014	3.52
456.371	3.52
456.727	3.46
457.084	3.75
457.441	3.55
457.797	3.52
458.154	3.69
458.51	3.66
458.867	3.48
459.223	3.69
459.58	3.49
459.936	3.53
460.292	3.58
460.648	3.54
461.005	3.58
461.361	3.58
461.717	3.63
462.073	3.46
462.429	3.49
462.785	3.54
463.141	3.64
463.496	3.54
463.852	3.55
464.208	3.69
464.564	3.73
464.919	3.76
465.275	3.7
465.631	3.74
465.986	3.74
466.342	3.65
466.697	3.31
467.052	3.58
467.408	3.76
467.763	3.54
468.118	3.69
468.473	3.55
468.829	3.65
469.184	3.57
469.539	3.63
469.894	3.48
470.249	3.64
470.603	3.71
470.958	3.83
471.313	3.9
471.668	3.63
472.023	3.57
472.377	3.53
472.732	3.74
473.086	3.54
473.441	3.72
473.795	3.73
474.15	3.63
474.504	3.61
474.859	3.72
475.213	3.49
475.567	3.63
475.921	3.67
476.275	3.53
476.63	3.75
476.984	3.78
477.338	3.86
477.692	3.58
478.045	3.63
478.399	3.67
478.753	3.66
479.107	3.8
479.461	3.69
479.814	3.69
480.168	3.72
480.521	3.68
480.875	3.48
481.228	3.65
481.582	3.64
481.935	3.66
482.289	3.73
482.642	3.74
482.995	3.47
483.348	3.47
483.701	3.67
484.055	3.72
484.408	3.8
484.761	3.61
485.114	3.56
485.466	3.47
485.819	3.46
486.172	3.48
486.525	3.53
486.878	3.57
487.23	3.57
487.583	3.65
487.936	3.72
488.288	3.63
488.641	3.67
488.993	3.56
489.345	3.54
489.698	3.53
490.05	3.51
490.402	3.58
490.754	3.58
491.107	3.68
491.459	3.64
491.811	3.68
492.163	3.69
492.515	3.62
492.866	3.76
493.218	3.67
493.57	3.67
493.922	3.61
494.274	3.7
494.625	3.75
494.977	3.75
495.328	3.76
495.68	3.79
496.031	3.86
496.383	3.84
496.734	3.86
497.086	3.78
497.437	3.82
497.788	3.77
498.139	3.66
498.49	3.85
498.842	3.66
499.193	3.79
499.544	3.8
499.894	3.76
500.245	3.89
500.596	3.83
500.947	3.85
501.298	3.87
501.648	3.93
501.999	3.84
502.35	3.81
502.7	3.79
503.051	3.62
503.401	3.82
503.752	3.83
504.102	3.79
504.452	3.77
504.803	3.69
505.153	3.86
505.503	3.91
505.853	3.79
506.203	3.96
506.553	3.83
506.903	3.83
507.253	3.81
507.603	3.71
507.953	4.02
508.303	4
508.652	3.76
509.002	4.07
509.352	3.89
509.701	3.8
510.051	3.83
510.4	3.83
510.75	3.85
511.099	3.85
511.449	3.9
511.798	3.89
512.147	3.85
512.496	3.76
512.846	3.85
513.195	3.8
513.544	3.79
513.893	3.92
514.242	3.86
514.591	4
514.939	3.83
515.288	3.8
515.637	3.85
515.986	4
516.334	3.96
516.683	4.01
517.032	3.91
517.38	4.02
517.729	4.08
518.077	3.84
518.426	4.02
518.774	4.09
519.122	3.97
519.47	3.89
519.819	3.73
520.167	3.87
520.515	3.89
520.863	4
521.211	3.92
521.559	3.95
521.907	3.9
522.255	3.94
522.602	3.87
522.95	3.93
523.298	3.85
523.645	3.99
523.993	4
524.341	4.05
524.688	4.12
525.036	3.99
525.383	4.09
525.73	4.11
526.078	4
526.425	4.02
526.772	4.08
527.119	3.93
527.466	3.82
527.814	3.98
528.161	4.03
528.508	4.02
528.854	3.98
529.201	3.97
529.548	3.87
529.895	3.84
530.242	3.77
530.588	3.79
530.935	3.84
531.282	3.85
531.628	3.84
531.975	3.89
532.321	3.98
532.667	4.04
533.014	4.04
533.36	3.94
533.706	4.01
534.052	4.06
534.399	3.96
534.745	3.95
535.091	3.95
535.437	4.03
535.783	4.01
536.129	4.01
536.474	4.1
536.82	4.12
537.166	4.05
537.512	4.08
537.857	4.12
538.203	3.97
538.549	3.92
538.894	4.07
539.239	4.04
539.585	4.11
539.93	4.04
540.276	4.14
540.621	4.2
540.966	4.12
541.311	4.12
541.656	3.96
542.001	4.11
542.346	4.13
542.691	3.98
543.036	4.02
543.381	3.92
543.726	3.94
544.071	4.02
544.415	4.1
544.76	4.03
545.105	4.09
545.449	4.09
545.794	4.15
546.138	4.15
546.483	4.14
546.827	4.25
547.171	4.09
547.516	4.34
547.86	4.14
548.204	4.23
548.548	4
548.892	4.22
549.236	4.09
549.58	4.08
549.924	4.2
550.268	4.22
550.612	4.32
550.956	4.46
551.3	4.26
551.643	4.34
551.987	4.43
552.33	4.28
552.674	4.2
553.017	4.24
553.361	4.3
553.704	4.41
554.048	4.22
554.391	4.25
554.734	4.26
555.077	4.3
555.42	4.23
555.764	4.17
556.107	4.21
556.45	4.02
556.793	4.27
557.135	4.11
557.478	4.48
557.821	4.58
558.164	4.14
558.507	4.33
558.849	4.07
559.192	4.37
559.534	4.16
559.877	4.42
560.219	4.27
560.562	4.54
560.904	4.43
561.246	4.51
561.589	4.4
561.931	4.39
562.273	4.35
562.615	4.38
562.957	4.23
563.299	4.16
563.641	4.32
563.983	4.42
564.325	4.29
564.667	4.38
565.008	4.06
565.35	4.31
565.692	4.01
566.033	4.27
566.375	4.41
566.716	4.5
567.058	4.19
567.399	4.47
567.741	4.44
568.082	4.42
568.423	4.36
568.764	4.25
569.105	4.46
569.447	4.4
569.788	4.34
570.129	4.51
570.47	4.41
570.811	4.63
571.151	4.41
571.492	4.6
571.833	4.42
572.174	4.28
572.514	4.42
572.855	4.47
573.195	4.43
573.536	4.43
573.876	4.46
574.217	4.29
574.557	4.58
574.898	4.57
575.238	4.43
575.578	4.19
575.918	4.65
576.258	4.61
576.598	4.66
576.938	4.45
577.278	4.52
577.618	4.41
577.958	4.38
578.298	4.58
578.638	4.65
578.977	4.61
579.317	4.49
579.657	4.4
579.996	4.42
580.336	4.75
580.675	4.35
581.014	4.39
581.354	4.52
581.693	4.55
582.032	4.48
582.372	4.28
582.711	4.41
583.05	4.37
583.389	4.63
583.728	4.3
584.067	4.59
584.406	4.69
584.745	4.5
585.083	4.63
585.422	4.54
585.761	4.77
586.1	4.8
586.438	4.6
586.777	4.77
587.115	4.53
587.454	4.45
587.792	4.52
588.13	4.77
588.469	4.57
588.807	4.74
589.145	4.5
589.483	4.91
589.821	4.74
590.159	4.76
590.497	4.81
590.835	5.06
591.173	4.65
591.511	4.87
591.849	4.6
592.187	4.88
592.524	4.81
592.862	4.76
593.2	4.7
593.537	4.68
593.875	4.58
594.212	4.55
594.55	4.74
594.887	4.89
595.224	4.49
595.561	4.78
595.899	4.74
596.236	4.79
596.573	4.86
596.91	4.51
597.247	4.54
597.584	4.86
597.921	4.53
598.258	4.46
598.594	4.67
598.931	4.57
599.268	4.6
599.604	4.72
599.941	4.81
600.277	4.74
600.614	4.68
600.95	4.43
601.287	4.95
601.623	4.53
601.959	4.73
602.296	4.94
602.632	4.63
602.968	4.7
603.304	4.77
603.64	4.85
603.976	4.86
604.312	4.73
604.648	4.87
604.984	4.89
605.319	4.73
605.655	4.54
605.991	4.87
606.326	4.85
606.662	4.71
606.998	4.52
607.333	4.75
607.668	4.67
608.004	4.85
608.339	5.02
608.674	5.09
609.01	4.8
609.345	4.57
609.68	5.2
610.015	4.84
610.35	4.56
610.685	4.71
611.02	4.91
611.355	5.11
611.689	4.65
612.024	4.83
612.359	4.86
612.694	4.91
613.028	4.57
613.363	4.93
613.697	4.79
614.032	5
614.366	4.83
614.7	4.94
615.035	4.91
615.369	4.75
615.703	5.07
616.037	5.04
616.371	4.53
616.705	4.81
617.039	4.95
617.373	4.92
617.707	4.69
618.041	5.2
618.375	4.97
618.709	4.94
619.042	4.76
619.376	4.85
619.71	5.19
620.043	5.15
620.377	5.16
620.71	5.05
621.043	4.98
621.377	4.83
621.71	4.97
622.043	4.78
622.376	4.48
622.709	5.02
623.043	5.07
623.376	5.16
623.709	4.87
624.041	5.15
624.374	5.16
624.707	5.19
625.04	5.44
625.373	4.55
625.705	5.18
626.038	5.05
626.37	4.7
626.703	5.19
627.035	4.74
627.368	5.39
627.7	5.07
628.032	4.97
628.365	5.42
628.697	5.19
629.029	4.6
629.361	4.97
629.693	5.16
630.025	4.94
630.357	5.31
630.689	5.26
631.021	4.97
631.353	5.37
631.684	4.85
632.016	4.66
632.348	5.12
632.679	4.91
633.011	5.18
633.342	5.19
633.674	4.96
634.005	5.29
634.336	5.27
634.668	5.72
634.999	5.14
635.33	5.23
635.661	5.26
635.992	5.15
636.323	5.48
636.654	5.13
636.985	5.08
637.316	5.08
637.647	5.12
637.977	5.03
638.308	5.58
638.639	5
638.969	4.81
639.3	4.83
639.63	5.03
639.961	5.5
640.291	5.15
640.622	5.49
640.952	4.95
641.282	5.81
641.612	5.34
641.943	5.35
642.273	5.04
642.603	5.76
642.933	5.46
643.263	5.48
643.592	5.45
643.922	4.96
644.252	5.01
644.582	5.22
644.911	4.66
645.241	5.05
645.571	5.63
645.9	4.79
646.23	5.39
646.559	5.47
646.888	5.05
647.218	4.74
647.547	5.24
647.876	4.86
648.205	5.21
648.534	5.23
648.863	5.04
649.192	5.4
649.521	5.29
649.85	4.79
650.179	5.92
650.508	4.94
650.837	4.87
651.165	5.09
651.494	5.37
651.822	5.1
652.151	5.08
652.479	5.01
652.808	4.7
653.136	5.55
653.465	4.54
653.793	4.93
654.121	4.96
654.449	5.76
654.777	5.24
655.105	5.5
655.433	4.66
655.761	4.9
656.089	5.67
656.417	4.95
656.745	5.04
657.073	5.15
657.4	5.75
657.728	5.6
658.056	5.12
658.383	5.51
658.711	4.86
659.038	5.18
659.365	6.07
659.693	5.27
660.02	5.1
660.347	5.3
660.674	5.12
661.001	5.22
661.329	4.63
661.656	5.45
661.982	5.67
662.309	5.49
662.636	5.21
662.963	5.65
663.29	5.78
663.616	5.58
663.943	4.96
664.27	5.69
664.596	5.72
664.923	5.24
665.249	5.34
665.576	4.95
665.902	5.67
666.228	5.67
666.554	5.76
666.881	5.64
667.207	5.62
667.533	5.34
667.859	5.5
668.185	5.71
668.511	5.48
668.837	4.69
669.162	5.69
669.488	5.23
669.814	5.79
670.139	5.91
670.465	5.52
670.791	5.71
671.116	5.69
671.442	5.49
671.767	6.19
672.092	6.37
672.418	5.77
672.743	5.88
673.068	5.09
673.393	5.76
673.718	5.46
674.043	5.95
674.368	5.16
674.693	6.76
675.018	5.42
675.343	5.67
675.667	5.34
675.992	6.21
676.317	5.11
676.641	5.75
676.966	5.45
677.29	5.95
677.615	5.41
677.939	6.52
678.264	6.38
678.588	5.56
678.912	5.69
679.236	6.01
679.56	5.22
679.885	5.74
680.209	5.49
680.532	6.26
680.856	6.2
681.18	6.11
681.504	5.64
681.828	5.73
682.152	5.9
682.475	6.14
682.799	5.74
683.122	6.19
683.446	5.5
683.769	5.92
684.093	5.8
684.416	6.09
684.739	5.71
685.062	6.02
685.386	6.31
685.709	5.77
686.032	5.05
686.355	6.28
686.678	5.53
687.001	5.76
687.324	6.51
687.646	5.09
687.969	5.25
688.292	5.98
688.614	6.02
688.937	6.65
689.26	5.37
689.582	6.34
689.904	6.19
690.227	6.06
690.549	5.55
690.871	5.67
691.194	6.03
691.516	5.44
691.838	6.05
