Data from 430_crown_Reflection__1__130.txt Node

Date: Fri Dec 15 17:51:38 CST 2023
User: ToomeyLab
Spectrometer: FLMS14357
Trigger mode: 0
Integration Time (sec): 1.000000E-2
Scans to average: 100
Electric dark correction enabled: true
Nonlinearity correction enabled: false
Boxcar width: 0
XAxis mode: Wavelengths
Number of Pixels in Spectrum: 2048
>>>>>Begin Spectral Data<<<<<
189.047	5.74
189.435	5.74
189.823	5.74
190.211	38.34
190.599	5409.43
190.987	82.4
191.375	44.93
191.763	-578.28
192.151	33.83
192.538	122.02
192.926	-388.34
193.314	254.84
193.702	2698.12
194.089	-165.56
194.477	10862.16
194.864	107.5
195.252	132.69
195.639	106.01
196.027	855.72
196.414	49.11
196.801	1462.62
197.189	59.64
197.576	71.96
197.963	-842.17
198.351	-172.04
198.738	-51.61
199.125	-46.49
199.512	-10.67
199.899	19.31
200.286	27.3
200.673	-32.09
201.06	-2.73
201.447	16.42
201.833	5.9
202.22	-2.58
202.607	44.04
202.994	25.92
203.38	-10.88
203.767	-4.85
204.154	6.4
204.54	61.07
204.927	-66.44
205.313	-22.68
205.699	40.48
206.086	38.63
206.472	4.18
206.858	-4.14
207.245	-41.44
207.631	39.96
208.017	-12.7
208.403	-39.79
208.789	30.13
209.175	24.05
209.561	-9.89
209.947	-11.53
210.333	20.61
210.719	7.41
211.105	42.35
211.491	-12.77
211.876	1.63
212.262	0.51
212.648	5.46
213.034	42.07
213.419	-19.03
213.805	6.34
214.19	-29.08
214.576	-35.46
214.961	23.22
215.346	-35.91
215.732	-58.07
216.117	-1.63
216.502	-17.41
216.888	7.57
217.273	-7.68
217.658	-23.49
218.043	2.1
218.428	-64.8
218.813	-25
219.198	-24.05
219.583	-19.88
219.968	-3.82
220.353	-20.19
220.738	20.35
221.122	-16.6
221.507	-25.36
221.892	-9.75
222.276	-33.52
222.661	9.25
223.046	14.16
223.43	8.32
223.815	2.68
224.199	-10.59
224.583	0.09
224.968	2.11
225.352	1.34
225.736	-0.26
226.121	-11.43
226.505	-4.23
226.889	5.44
227.273	-5.7
227.657	7.72
228.041	7.19
228.425	-3.95
228.809	2.29
229.193	0.5
229.577	-0.29
229.961	1.69
230.344	1.55
230.728	1.1
231.112	1.72
231.495	2.11
231.879	1.58
232.263	0.08
232.646	1.28
233.03	0.91
233.413	-1.17
233.797	0.35
234.18	-0.07
234.563	2.03
234.946	-1.06
235.33	3.19
235.713	0.85
236.096	1.49
236.479	3.32
236.862	2.09
237.245	2.06
237.628	1.13
238.011	3.14
238.394	1.1
238.777	1.77
239.16	0.53
239.543	0.27
239.925	1.46
240.308	2.16
240.691	3.37
241.073	2.71
241.456	0.84
241.838	0.93
242.221	0.87
242.603	2.16
242.986	2.1
243.368	2.12
243.75	1.68
244.133	1.61
244.515	2.13
244.897	1.51
245.279	1.3
245.661	1.27
246.043	0.99
246.425	0.5
246.807	2.7
247.189	1.98
247.571	2.3
247.953	1.66
248.335	1.59
248.717	1.83
249.098	1.69
249.48	1.81
249.862	1.95
250.243	1.73
250.625	1.86
251.006	1.97
251.388	0.41
251.769	2.05
252.151	2.75
252.532	2.12
252.913	0.64
253.295	0.88
253.676	1.29
254.057	1.51
254.438	1.8
254.819	1.17
255.2	1.24
255.581	-0.15
255.962	0.35
256.343	1.89
256.724	0.39
257.105	0.26
257.486	0.92
257.867	0.9
258.247	0.17
258.628	0.5
259.009	1.65
259.389	2.31
259.77	1.07
260.15	0.78
260.531	1.13
260.911	1.72
261.292	1.46
261.672	1.74
262.052	1.85
262.432	2.04
262.813	1.94
263.193	1.56
263.573	1.23
263.953	1.55
264.333	1.95
264.713	1.42
265.093	0.87
265.473	1.18
265.853	1.28
266.233	1.79
266.612	-0.88
266.992	0.18
267.372	1.45
267.752	0.95
268.131	1.17
268.511	2.16
268.89	2.19
269.27	1.37
269.649	1.4
270.029	1.67
270.408	2.54
270.787	1.51
271.167	1.89
271.546	1.83
271.925	1.09
272.304	1.53
272.683	1.97
273.062	1.72
273.441	1.48
273.82	1.25
274.199	2.02
274.578	1.62
274.957	1.13
275.336	1.41
275.715	1.22
276.093	1.64
276.472	1.66
276.851	1.2
277.229	0.54
277.608	0.54
277.986	1.27
278.365	1.51
278.743	0.93
279.122	1.37
279.5	1.34
279.878	0.85
280.257	1.29
280.635	0.71
281.013	1.12
281.391	1.54
281.769	1.84
282.147	1.72
282.525	2.12
282.903	1.13
283.281	1.6
283.659	1.78
284.037	1.83
284.415	1.54
284.792	1.8
285.17	1.41
285.548	1.27
285.925	1.68
286.303	1.28
286.68	1.67
287.058	1.62
287.435	1.62
287.813	1.59
288.19	1.61
288.567	1.62
288.945	1.63
289.322	1.48
289.699	1.71
290.076	1.25
290.453	1.47
290.83	1.13
291.207	1.55
291.584	1.7
291.961	1.31
292.338	1.51
292.715	1.71
293.092	2.01
293.469	1.84
293.845	1.63
294.222	1.48
294.599	1.51
294.975	1.59
295.352	1.76
295.728	1.04
296.105	1.31
296.481	2.01
296.858	1.6
297.234	1.58
297.61	1.95
297.986	1.72
298.363	1.57
298.739	2.07
299.115	1.58
299.491	1.39
299.867	1.73
300.243	2.03
300.619	1.37
300.995	1.62
301.371	2.28
301.746	1.58
302.122	1.76
302.498	1.58
302.874	1.71
303.249	2.17
303.625	1.62
304	2.64
304.376	1.63
304.751	1.13
305.127	2.28
305.502	1.45
305.878	0.98
306.253	1.7
306.628	2.53
307.003	2.04
307.378	1.92
307.754	1.48
308.129	0.34
308.504	1.28
308.879	1.63
309.254	2.36
309.629	2.34
310.003	1.59
310.378	2.29
310.753	2.06
311.128	1.63
311.502	1.62
311.877	1.94
312.252	1.63
312.626	1.92
313.001	1.86
313.375	2.33
313.75	1.31
314.124	1.85
314.498	1.37
314.873	2.03
315.247	1.57
315.621	1.47
315.995	1.44
316.369	1.66
316.743	1.74
317.117	1.95
317.491	1.64
317.865	1.98
318.239	1.19
318.613	1.74
318.987	1.99
319.361	1.39
319.734	2.29
320.108	1.94
320.482	2.33
320.855	2.17
321.229	1.69
321.602	1.6
321.976	2.15
322.349	1.58
322.723	1.4
323.096	2.5
323.469	1.17
323.843	1.65
324.216	2.79
324.589	1.28
324.962	2.06
325.335	1.5
325.708	1.48
326.081	2.01
326.454	1.92
326.827	1.62
327.2	1.74
327.573	1.95
327.945	1.81
328.318	1.41
328.691	1.31
329.063	1.87
329.436	1.44
329.809	2.55
330.181	1.69
330.553	1.76
330.926	1.6
331.298	1.81
331.671	2.09
332.043	2.37
332.415	1.99
332.787	1.72
333.159	2.06
333.532	2.07
333.904	1.95
334.276	1.92
334.648	2
335.02	1.9
335.391	1.85
335.763	1.74
336.135	2.04
336.507	2.64
336.879	1.73
337.25	1.72
337.622	2.05
337.993	1.82
338.365	1.95
338.736	1.94
339.108	2.28
339.479	1.94
339.851	1.75
340.222	1.63
340.593	2.22
340.964	1.92
341.336	2.87
341.707	1.42
342.078	2.42
342.449	2.14
342.82	1.93
343.191	1.85
343.562	2.21
343.933	2.05
344.303	1.73
344.674	1.62
345.045	1.98
345.416	2.4
345.786	1.9
346.157	2.15
346.527	1.31
346.898	1.56
347.268	2.25
347.639	1.84
348.009	2.04
348.38	2.59
348.75	1.73
349.12	1.63
349.49	2.33
349.861	1.78
350.231	1.76
350.601	1.88
350.971	2.07
351.341	1.71
351.711	2.19
352.081	2.45
352.45	1.93
352.82	2.08
353.19	1.94
353.56	1.74
353.929	2.19
354.299	1.67
354.669	2.02
355.038	2.11
355.408	1.97
355.777	1.83
356.147	2.06
356.516	1.83
356.885	2.33
357.254	2.38
357.624	2.48
357.993	2.17
358.362	1.79
358.731	1.99
359.1	2.11
359.469	2.25
359.838	1.94
360.207	1.81
360.576	1.73
360.945	1.99
361.314	2.47
361.682	1.8
362.051	1.86
362.42	2.51
362.788	2.04
363.157	2.02
363.525	2.37
363.894	2.29
364.262	2.2
364.631	2.19
364.999	2.29
365.367	1.37
365.735	2.63
366.104	2.3
366.472	2.04
366.84	2.16
367.208	1.85
367.576	2.45
367.944	2.83
368.312	2.09
368.68	1.79
369.048	2.36
369.416	2.2
369.783	1.87
370.151	1.99
370.519	1.93
370.886	2.25
371.254	1.94
371.621	2.32
371.989	2.18
372.356	1.42
372.724	2.31
373.091	2.11
373.458	2.1
373.826	2.02
374.193	2
374.56	2.44
374.927	2.31
375.294	1.99
375.661	1.93
376.028	1.9
376.395	1.88
376.762	2.17
377.129	2.22
377.496	1.94
377.863	1.98
378.229	1.57
378.596	1.95
378.963	1.76
379.329	2.14
379.696	2.14
380.062	2.28
380.429	2.28
380.795	2.18
381.161	2.22
381.528	2.27
381.894	2.44
382.26	2.14
382.626	2.37
382.993	1.77
383.359	2.28
383.725	2.07
384.091	2.1
384.457	2.45
384.823	2.19
385.188	2.27
385.554	2.2
385.92	2.18
386.286	2.53
386.651	2.22
387.017	2.53
387.383	2.53
387.748	2.13
388.114	2.27
388.479	1.8
388.845	2.2
389.21	2.09
389.575	2.28
389.94	2.21
390.306	2.26
390.671	2.36
391.036	1.79
391.401	1.68
391.766	2.41
392.131	2.14
392.496	2.34
392.861	2.18
393.226	2.39
393.591	2.53
393.956	2
394.32	2.28
394.685	1.91
395.05	1.96
395.414	2.03
395.779	1.99
396.143	2.38
396.508	2.07
396.872	2.32
397.236	2.54
397.601	1.99
397.965	2.15
398.329	2.33
398.694	2.2
399.058	2.26
399.422	2.06
399.786	2.27
400.15	2.22
400.514	2.45
400.878	2.34
401.242	2.78
401.605	2.46
401.969	2.15
402.333	2.07
402.697	2.56
403.06	2.38
403.424	2.31
403.787	2.53
404.151	2.52
404.514	2.15
404.878	2.04
405.241	2.46
405.604	2.15
405.968	2.39
406.331	2.39
406.694	2.42
407.057	2.21
407.42	2.54
407.783	2.01
408.146	2.29
408.509	2.26
408.872	2.28
409.235	2.27
409.598	2.68
409.961	2.19
410.323	2.45
410.686	2.57
411.049	2.3
411.411	2.43
411.774	2.43
412.136	2.3
412.499	2.15
412.861	2.22
413.223	2.33
413.586	2.54
413.948	2.31
414.31	2.27
414.672	2.29
415.035	2.2
415.397	2.34
415.759	2.13
416.121	2.38
416.483	2.22
416.845	2.45
417.206	2.24
417.568	2.44
417.93	2.2
418.292	2.23
418.653	2.38
419.015	2.19
419.377	2.19
419.738	2.35
420.1	2.37
420.461	2.3
420.822	2.36
421.184	2.35
421.545	2.46
421.906	2.17
422.267	2.35
422.629	2.32
422.99	2.28
423.351	2.41
423.712	2.33
424.073	2.44
424.434	2.35
424.795	2.39
425.155	2.3
425.516	2.22
425.877	2.37
426.238	2.31
426.598	2.46
426.959	2.39
427.32	2.26
427.68	2.43
428.041	2.37
428.401	2.49
428.761	2.44
429.122	2.61
429.482	2.29
429.842	2.51
430.202	2.47
430.563	2.38
430.923	2.33
431.283	2.38
431.643	2.39
432.003	2.45
432.363	2.43
432.722	2.38
433.082	2.43
433.442	2.53
433.802	2.33
434.161	2.34
434.521	2.51
434.881	2.39
435.24	2.47
435.6	2.5
435.959	2.41
436.319	2.46
436.678	2.39
437.037	2.5
437.396	2.4
437.756	2.42
438.115	2.36
438.474	2.47
438.833	2.39
439.192	2.32
439.551	2.51
439.91	2.4
440.269	2.4
440.628	2.33
440.987	2.39
441.345	2.23
441.704	2.55
442.063	2.42
442.421	2.38
442.78	2.47
443.138	2.57
443.497	2.44
443.855	2.55
444.214	2.51
444.572	2.43
444.93	2.46
445.288	2.48
445.647	2.55
446.005	2.41
446.363	2.49
446.721	2.55
447.079	2.37
447.437	2.44
447.795	2.35
448.153	2.42
448.51	2.46
448.868	2.43
449.226	2.51
449.584	2.47
449.941	2.59
450.299	2.47
450.656	2.61
451.014	2.54
451.371	2.33
451.729	2.58
452.086	2.63
452.443	2.4
452.801	2.78
453.158	2.55
453.515	2.4
453.872	2.65
454.229	2.46
454.586	2.41
454.943	2.6
455.3	2.58
455.657	2.54
456.014	2.41
456.371	2.57
456.727	2.55
457.084	2.9
457.441	2.71
457.797	2.47
458.154	2.75
458.51	2.62
458.867	2.56
459.223	2.76
459.58	2.64
459.936	2.68
460.292	2.57
460.648	2.42
461.005	2.43
461.361	2.49
461.717	2.51
462.073	2.43
462.429	2.45
462.785	2.57
463.141	2.57
463.496	2.56
463.852	2.67
464.208	2.51
464.564	2.64
464.919	2.64
465.275	2.5
465.631	2.72
465.986	2.61
466.342	2.44
466.697	2.46
467.052	2.59
467.408	2.59
467.763	2.5
468.118	2.52
468.473	2.56
468.829	2.61
469.184	2.68
469.539	2.73
469.894	2.54
470.249	2.76
470.603	2.79
470.958	2.7
471.313	2.8
471.668	2.77
472.023	2.73
472.377	2.53
472.732	2.56
473.086	2.43
473.441	2.65
473.795	2.72
474.15	2.49
474.504	2.55
474.859	2.74
475.213	2.53
475.567	2.63
475.921	2.45
476.275	2.69
476.63	2.86
476.984	2.61
477.338	2.77
477.692	2.54
478.045	2.74
478.399	2.74
478.753	2.74
479.107	2.54
479.461	2.6
479.814	2.69
480.168	2.71
480.521	2.61
480.875	2.64
481.228	2.7
481.582	2.76
481.935	2.58
482.289	2.75
482.642	2.72
482.995	2.52
483.348	2.57
483.701	2.56
484.055	2.8
484.408	2.77
484.761	2.65
485.114	2.52
485.466	2.45
485.819	2.48
486.172	2.48
486.525	2.57
486.878	2.65
487.23	2.68
487.583	2.74
487.936	2.7
488.288	2.63
488.641	2.69
488.993	2.52
489.345	2.53
489.698	2.56
490.05	2.56
490.402	2.7
490.754	2.61
491.107	2.73
491.459	2.71
491.811	2.73
492.163	2.78
492.515	2.69
492.866	2.67
493.218	2.67
493.57	2.58
493.922	2.6
494.274	2.74
494.625	2.78
494.977	2.84
495.328	2.85
495.68	2.72
496.031	2.92
496.383	2.71
496.734	2.83
497.086	2.88
497.437	2.84
497.788	2.75
498.139	2.8
498.49	2.91
498.842	2.6
499.193	2.69
499.544	2.79
499.894	2.78
500.245	2.72
500.596	2.75
500.947	2.87
501.298	2.7
501.648	2.86
501.999	2.95
502.35	2.87
502.7	2.86
503.051	2.61
503.401	2.66
503.752	2.96
504.102	2.81
504.452	2.73
504.803	2.9
505.153	2.82
505.503	2.76
505.853	2.72
506.203	2.75
506.553	2.82
506.903	2.74
507.253	2.88
507.603	2.74
507.953	2.93
508.303	2.89
508.652	2.61
509.002	2.92
509.352	2.98
509.701	2.73
510.051	2.79
510.4	2.8
510.75	2.87
511.099	2.8
511.449	2.74
511.798	2.92
512.147	2.82
512.496	2.82
512.846	2.8
513.195	2.9
513.544	2.91
513.893	2.84
514.242	2.8
514.591	3.03
514.939	2.92
515.288	2.77
515.637	3
515.986	3
516.334	2.93
516.683	2.96
517.032	2.88
517.38	2.96
517.729	2.86
518.077	2.86
518.426	3.02
518.774	3.08
519.122	2.97
519.47	2.9
519.819	2.78
520.167	2.79
520.515	2.89
520.863	2.85
521.211	2.92
521.559	2.92
521.907	2.85
522.255	2.86
522.602	2.87
522.95	2.79
523.298	3.03
523.645	3.03
523.993	2.87
524.341	2.95
524.688	3.02
525.036	2.95
525.383	2.88
525.73	3.06
526.078	2.96
526.425	2.85
526.772	2.96
527.119	2.78
527.466	2.86
527.814	2.95
528.161	2.83
528.508	2.93
528.854	3.05
529.201	2.87
529.548	2.87
529.895	2.83
530.242	2.73
530.588	2.72
530.935	2.78
531.282	2.91
531.628	2.89
531.975	2.94
532.321	2.97
532.667	3.02
533.014	3.06
533.36	2.95
533.706	3.01
534.052	2.84
534.399	2.9
534.745	2.85
535.091	2.83
535.437	2.88
535.783	2.96
536.129	3.04
536.474	3.02
536.82	2.95
537.166	3
537.512	2.99
537.857	3.02
538.203	2.98
538.549	2.99
538.894	2.93
539.239	2.99
539.585	3.07
539.93	2.97
540.276	3.05
540.621	3.13
540.966	3
541.311	2.9
541.656	3
542.001	2.94
542.346	3.05
542.691	2.92
543.036	2.91
543.381	2.81
543.726	2.87
544.071	3
544.415	3.08
544.76	2.97
545.105	3.04
545.449	3.03
545.794	3.07
546.138	3.03
546.483	3.11
546.827	3.11
547.171	3.03
547.516	3.18
547.86	2.88
548.204	2.94
548.548	3.02
548.892	3.12
549.236	3.04
549.58	3
549.924	3.16
550.268	3.18
550.612	3.22
550.956	3.29
551.3	3.02
551.643	3.25
551.987	3.38
552.33	3.02
552.674	3.17
553.017	2.97
553.361	3.1
553.704	3.36
554.048	3.08
554.391	2.97
554.734	3.1
555.077	3.26
555.42	3.09
555.764	3.13
556.107	3.08
556.45	3.11
556.793	3.11
557.135	3.27
557.478	3.48
557.821	3.37
558.164	3.22
558.507	3.18
558.849	3.25
559.192	3.36
559.534	3.22
559.877	3.46
560.219	3.12
560.562	3.39
560.904	3.25
561.246	3.29
561.589	3.28
561.931	3.42
562.273	2.96
562.615	3.3
562.957	3.22
563.299	3.14
563.641	3.19
563.983	3.44
564.325	2.95
564.667	3.04
565.008	3.23
565.35	3.31
565.692	2.99
566.033	3.27
566.375	3.22
566.716	3.24
567.058	3.22
567.399	3.07
567.741	3.14
568.082	3.25
568.423	3.21
568.764	3.33
569.105	3.32
569.447	3.5
569.788	3.18
570.129	3.49
570.47	3.24
570.811	3.43
571.151	3.38
571.492	3.3
571.833	3.14
572.174	3.15
572.514	3.28
572.855	3.37
573.195	3.25
573.536	3.33
573.876	3.1
574.217	3.13
574.557	3.29
574.898	3.5
575.238	3.5
575.578	3.19
575.918	3.55
576.258	3.36
576.598	3.57
576.938	3.4
577.278	3.45
577.618	3.37
577.958	3.21
578.298	3.26
578.638	3.31
578.977	3.35
579.317	3.3
579.657	3.33
579.996	3.35
580.336	3.46
580.675	3.13
581.014	3.27
581.354	3.41
581.693	3.5
582.032	3.16
582.372	3.48
582.711	3.44
583.05	3.13
583.389	3.47
583.728	3.21
584.067	3.5
584.406	3.48
584.745	3.31
585.083	3.43
585.422	3.71
585.761	3.55
586.1	3.37
586.438	3.6
586.777	3.49
587.115	3.58
587.454	3.46
587.792	3.47
588.13	3.56
588.469	3.26
588.807	3.44
589.145	3.3
589.483	3.26
589.821	3.38
590.159	3.43
590.497	3.84
590.835	3.79
591.173	3.63
591.511	3.47
591.849	3.66
592.187	3.56
592.524	3.43
592.862	3.4
593.2	3.42
593.537	3.4
593.875	3.4
594.212	3.1
594.55	3.23
594.887	3.76
595.224	3.68
595.561	3.64
595.899	3.39
596.236	3.24
596.573	3.68
596.91	3.08
597.247	3.19
597.584	3.95
597.921	3.33
598.258	3.42
598.594	3.63
598.931	3.53
599.268	3.56
599.604	3.41
599.941	3.5
600.277	3.51
600.614	3.26
600.95	3.18
601.287	3.54
601.623	3.45
601.959	3.32
602.296	3.82
602.632	3.13
602.968	3.46
603.304	3.25
603.64	3.4
603.976	3.6
604.312	3.35
604.648	3.12
604.984	3.72
605.319	3.5
605.655	3.37
605.991	3.5
606.326	3.64
606.662	3.41
606.998	3.29
607.333	3.53
607.668	3.54
608.004	3.66
608.339	3.82
608.674	3.37
609.01	3.32
609.345	3.27
609.68	3.87
610.015	3.54
610.35	3.43
610.685	3.36
611.02	3.31
611.355	3.61
611.689	3.54
612.024	3.57
612.359	3.54
612.694	3.65
613.028	3.3
613.363	3.62
613.697	3.78
614.032	3.58
614.366	3.74
614.7	3.73
615.035	3.92
615.369	3.48
615.703	3.65
616.037	3.39
616.371	3.2
616.705	3.25
617.039	3.75
617.373	3.49
617.707	3.21
618.041	3.49
618.375	3.31
618.709	3.82
619.042	3.4
619.376	3.68
619.71	3.49
620.043	3.7
620.377	3.36
620.71	3.99
621.043	3.51
621.377	3.59
621.71	4.02
622.043	3.14
622.376	2.99
622.709	3.8
623.043	3.73
623.376	3.66
623.709	3.77
624.041	3.83
624.374	3.88
624.707	3.53
625.04	3.9
625.373	3.44
625.705	3.38
626.038	3.58
626.37	3.59
626.703	4.03
627.035	3.72
627.368	3.67
627.7	3.82
628.032	3.54
628.365	3.78
628.697	3.78
629.029	3.59
629.361	3.66
629.693	3.94
630.025	3.67
630.357	4.22
630.689	3.59
631.021	3.65
631.353	3.9
631.684	3.5
632.016	3.46
632.348	3.94
632.679	3.93
633.011	3.97
633.342	4.02
633.674	4.11
634.005	4.13
634.336	3.82
634.668	4.13
634.999	3.25
635.33	3.82
635.661	4.07
635.992	3.58
636.323	3.78
636.654	4.19
636.985	3.7
637.316	3.95
637.647	3.74
637.977	4.04
638.308	4.07
638.639	3.25
638.969	3.58
639.3	3.27
639.63	3.36
639.961	3.46
640.291	3.5
640.622	3.7
640.952	3.65
641.282	4.58
641.612	3.83
641.943	3.77
642.273	3.82
642.603	3.82
642.933	3.96
643.263	3.63
643.592	3.93
643.922	3.76
644.252	3.82
644.582	3.75
644.911	3.65
645.241	3.79
645.571	4.06
645.9	3.55
646.23	3.76
646.559	3.86
646.888	3.68
647.218	3.79
647.547	4.15
647.876	3.7
648.205	3.8
648.534	3.56
648.863	3.65
649.192	4.18
649.521	3.97
649.85	3.72
650.179	4.01
650.508	3.72
650.837	3.86
651.165	3.65
651.494	3.94
651.822	3.76
652.151	3.66
652.479	4.08
652.808	3.94
653.136	3.77
653.465	3.04
653.793	3.58
654.121	3.54
654.449	3.62
654.777	4.09
655.105	3.92
655.433	3.48
655.761	3.77
656.089	4.52
656.417	4.01
656.745	4.16
657.073	3.76
657.4	4.72
657.728	4.07
658.056	4.04
658.383	4.4
658.711	4.3
659.038	4.25
659.365	3.77
659.693	3.86
660.02	3.69
660.347	3.97
660.674	3.76
661.001	4.01
661.329	3.77
661.656	3.64
661.982	3.91
662.309	3.73
662.636	3.47
662.963	4.55
663.29	3.9
663.616	4.04
663.943	3.2
664.27	4.01
664.596	3.95
664.923	4.5
665.249	4.03
665.576	4.2
665.902	4.68
666.228	3.98
666.554	4.04
666.881	3.76
667.207	3.74
667.533	3.9
667.859	3.66
668.185	3.95
668.511	3.35
668.837	3.42
669.162	4.03
669.488	3.76
669.814	4.27
670.139	4.29
670.465	4.34
670.791	4.27
671.116	4.5
671.442	3.77
671.767	4.15
672.092	4.57
672.418	4.59
672.743	4.66
673.068	3.8
673.393	4.62
673.718	4.02
674.043	3.59
674.368	4.3
674.693	4.19
675.018	4.12
675.343	3.81
675.667	3.78
675.992	4.66
676.317	4.69
676.641	4.33
676.966	4.16
677.29	5.14
677.615	4.89
677.939	4.28
678.264	4.77
678.588	4.16
678.912	4.16
679.236	5.02
679.56	3.46
679.885	4.73
680.209	4.02
680.532	3.73
680.856	4.91
681.18	3.85
681.504	3.86
681.828	4.44
682.152	3.8
682.475	4.17
682.799	4.51
683.122	4.44
683.446	3.68
683.769	4.46
684.093	4.35
684.416	5.05
684.739	4.26
685.062	3.73
685.386	4.65
685.709	3.98
686.032	4.41
686.355	4.42
686.678	3.69
687.001	4.06
687.324	4.62
687.646	3.99
687.969	3.31
688.292	4.23
688.614	4.27
688.937	4.87
689.26	4.32
689.582	5.04
689.904	4.06
690.227	3.86
690.549	4.97
690.871	4.89
691.194	4.26
691.516	3.23
691.838	4.82
692.16	3.47
