Data from 430_chest_Reflection__4__128.txt Node

Date: Fri Dec 15 17:31:17 CST 2023
User: ToomeyLab
Spectrometer: FLMS14357
Trigger mode: 0
Integration Time (sec): 1.000000E-2
Scans to average: 100
Electric dark correction enabled: true
Nonlinearity correction enabled: false
Boxcar width: 0
XAxis mode: Wavelengths
Number of Pixels in Spectrum: 2048
>>>>>Begin Spectral Data<<<<<
189.047	317.85
189.435	317.85
189.823	317.85
190.211	5.5
190.599	4801.89
190.987	73.34
191.375	97.13
191.763	1124.13
192.151	44.49
192.538	94.91
192.926	-140.63
193.314	94.52
193.702	909.39
194.089	94.17
194.477	-2116.22
194.864	-585.46
195.252	68.01
195.639	76.45
196.027	1011.92
196.414	224.69
196.801	6159.81
197.189	17.27
197.576	-23.03
197.963	209.47
198.351	-203.95
198.738	-54.79
199.125	87.32
199.512	13.87
199.899	55.36
200.286	50.11
200.673	24.41
201.06	37.3
201.447	11.79
201.833	21.1
202.22	53.36
202.607	35.86
202.994	43.31
203.38	-1.04
203.767	54.51
204.154	20.12
204.54	41.94
204.927	24.03
205.313	-3.35
205.699	35.35
206.086	35.4
206.472	72.94
206.858	31.06
207.245	48.37
207.631	-22.6
208.017	1.58
208.403	19.36
208.789	27.9
209.175	36.11
209.561	-8.65
209.947	8.64
210.333	19.81
210.719	14.58
211.105	6.3
211.491	-43.9
211.876	11.21
212.262	-10.06
212.648	21.22
213.034	10.81
213.419	20.72
213.805	17.45
214.19	-16.04
214.576	1.51
214.961	9.52
215.346	-45.76
215.732	-34.24
216.117	2.85
216.502	-9.16
216.888	18.94
217.273	30.7
217.658	-19.06
218.043	18.58
218.428	-49.88
218.813	-26.56
219.198	-4.62
219.583	12.59
219.968	9.65
220.353	-9.75
220.738	27.47
221.122	10.99
221.507	1.96
221.892	-41.18
222.276	-11.73
222.661	-8.52
223.046	10.32
223.43	2.9
223.815	11.08
224.199	3.18
224.583	-1.76
224.968	-7.05
225.352	17.98
225.736	5.57
226.121	-11.66
226.505	1.89
226.889	7.74
227.273	-0.44
227.657	7.92
228.041	0.19
228.425	3.12
228.809	5.29
229.193	3.28
229.577	-0.29
229.961	2.3
230.344	0.77
230.728	0.92
231.112	1.33
231.495	0.35
231.879	-1.16
232.263	1.8
232.646	2.14
233.03	0.89
233.413	0.29
233.797	0.6
234.18	-0.15
234.563	1.83
234.946	1.46
235.33	3.86
235.713	2.32
236.096	1.2
236.479	2.24
236.862	0.96
237.245	2.31
237.628	2.67
238.011	1.31
238.394	3.07
238.777	2.84
239.16	-0.6
239.543	2.85
239.925	0.78
240.308	2.11
240.691	3.31
241.073	1.26
241.456	-0.55
241.838	0
242.221	1.44
242.603	2.1
242.986	1.4
243.368	1.74
243.75	1.18
244.133	1.36
244.515	2.02
244.897	1.67
245.279	1.75
245.661	1.06
246.043	0.38
246.425	0.82
246.807	3.05
247.189	1.54
247.571	1.73
247.953	1.71
248.335	1.25
248.717	1.41
249.098	1.33
249.48	1.67
249.862	1.31
250.243	1.38
250.625	1.2
251.006	1.56
251.388	0.26
251.769	1.86
252.151	2.35
252.532	1.22
252.913	0.47
253.295	0.87
253.676	1.22
254.057	1.62
254.438	1.56
254.819	1.17
255.2	1.19
255.581	1.94
255.962	1.34
256.343	1.78
256.724	2.05
257.105	1.32
257.486	1.69
257.867	1.68
258.247	0.52
258.628	0.83
259.009	1.25
259.389	1.92
259.77	1.33
260.15	1.01
260.531	0.44
260.911	1.59
261.292	1.29
261.672	1.6
262.052	1.47
262.432	1.87
262.813	1.5
263.193	2.02
263.573	1.76
263.953	1.51
264.333	1.66
264.713	1.06
265.093	0.63
265.473	1.39
265.853	0.55
266.233	1
266.612	0.53
266.992	0.15
267.372	1.83
267.752	1.11
268.131	1.28
268.511	2.29
268.89	1.81
269.27	1.67
269.649	1.23
270.029	1.02
270.408	2.06
270.787	1.39
271.167	1.8
271.546	1.7
271.925	0.68
272.304	1.28
272.683	1.87
273.062	1.26
273.441	1.69
273.82	0.49
274.199	1.57
274.578	1.46
274.957	1.58
275.336	1.23
275.715	1.13
276.093	1.01
276.472	1.61
276.851	0.86
277.229	0.99
277.608	0.9
277.986	1.31
278.365	1.86
278.743	1.39
279.122	1
279.5	1.6
279.878	1.87
280.257	1.03
280.635	1.41
281.013	1.63
281.391	2.17
281.769	1.88
282.147	2.08
282.525	2.13
282.903	1.32
283.281	1.73
283.659	1.83
284.037	2.02
284.415	1.5
284.792	1.78
285.17	0.94
285.548	1.17
285.925	1.67
286.303	1.73
286.68	1.06
287.058	1.47
287.435	1.18
287.813	1.27
288.19	1.47
288.567	1.22
288.945	2.04
289.322	1.37
289.699	1.15
290.076	1.56
290.453	1.33
290.83	1.43
291.207	1.16
291.584	2.14
291.961	1.73
292.338	1.3
292.715	1.99
293.092	1.58
293.469	1.34
293.845	2.35
294.222	1.33
294.599	0.83
294.975	1.82
295.352	2.21
295.728	0.98
296.105	1.45
296.481	1.67
296.858	1.71
297.234	1.47
297.61	1.53
297.986	1.52
298.363	1.98
298.739	1.89
299.115	1.43
299.491	1.55
299.867	1.44
300.243	1.94
300.619	1.33
300.995	1.23
301.371	1.88
301.746	1.61
302.122	2.45
302.498	1.59
302.874	1.67
303.249	1.67
303.625	2.09
304	1.74
304.376	1.45
304.751	1.24
305.127	2.63
305.502	1.36
305.878	0.91
306.253	1.29
306.628	2.47
307.003	1.43
307.378	1.63
307.754	2.03
308.129	1.24
308.504	1.83
308.879	1.59
309.254	2.51
309.629	2.38
310.003	2.01
310.378	1.86
310.753	2.54
311.128	1.95
311.502	2
311.877	2.33
312.252	1.46
312.626	2.08
313.001	1.57
313.375	2.01
313.75	1.6
314.124	1.85
314.498	1.58
314.873	2.15
315.247	1.59
315.621	1.56
315.995	1.06
316.369	1.87
316.743	1.54
317.117	2.39
317.491	1.17
317.865	2.24
318.239	1.81
318.613	1.89
318.987	2.26
319.361	1.59
319.734	2.21
320.108	2.07
320.482	2.93
320.855	2.57
321.229	2.16
321.602	1.74
321.976	2.13
322.349	1.84
322.723	1.84
323.096	2.26
323.469	1.61
323.843	1.47
324.216	2.99
324.589	2.5
324.962	2.41
325.335	1.72
325.708	2.46
326.081	2.1
326.454	2.22
326.827	1.65
327.2	2.24
327.573	2.78
327.945	2.56
328.318	1.97
328.691	1.28
329.063	2.11
329.436	1.52
329.809	2.44
330.181	1.86
330.553	1.56
330.926	1.73
331.298	2.31
331.671	1.82
332.043	2.15
332.415	2.9
332.787	2.49
333.159	2.91
333.532	2.09
333.904	1.9
334.276	2.23
334.648	1.61
335.02	2.39
335.391	1.78
335.763	1.56
336.135	2.04
336.507	2.71
336.879	2.07
337.25	1.72
337.622	1.77
337.993	2.04
338.365	2.46
338.736	2.37
339.108	2.44
339.479	2.15
339.851	2.05
340.222	2.16
340.593	2.31
340.964	2.17
341.336	2.97
341.707	1.92
342.078	2.85
342.449	3.15
342.82	2.24
343.191	2.39
343.562	2.45
343.933	2.28
344.303	2.3
344.674	2.55
345.045	2.33
345.416	2.55
345.786	2.06
346.157	2.58
346.527	1.91
346.898	2.17
347.268	2.39
347.639	2.16
348.009	2.42
348.38	2.31
348.75	1.77
349.12	2.09
349.49	2.57
349.861	2.37
350.231	2.26
350.601	2.84
350.971	2.37
351.341	2.28
351.711	2.73
352.081	2.15
352.45	2.32
352.82	2.99
353.19	1.84
353.56	2.5
353.929	2.24
354.299	2.09
354.669	1.86
355.038	2.66
355.408	2.48
355.777	2.49
356.147	2.1
356.516	2.84
356.885	2.84
357.254	2.43
357.624	2.58
357.993	2.6
358.362	2.5
358.731	2.13
359.1	2.63
359.469	2.4
359.838	2.62
360.207	2.37
360.576	2.26
360.945	2.12
361.314	2.74
361.682	2
362.051	2.36
362.42	2.63
362.788	2.12
363.157	2.38
363.525	2.67
363.894	2.48
364.262	2.41
364.631	2.39
364.999	2.39
365.367	2.05
365.735	3.02
366.104	2.91
366.472	2.92
366.84	2.27
367.208	2.27
367.576	2.55
367.944	2.97
368.312	2.22
368.68	2.22
369.048	2.57
369.416	2.26
369.783	2.69
370.151	2.5
370.519	2.61
370.886	3.1
371.254	2.21
371.621	2.87
371.989	2.71
372.356	2.08
372.724	2.54
373.091	2.32
373.458	2.58
373.826	2.38
374.193	2.25
374.56	2.73
374.927	2.45
375.294	2.7
375.661	2.43
376.028	2.12
376.395	2.55
376.762	2.85
377.129	2.52
377.496	2.5
377.863	2.32
378.229	2.27
378.596	2.56
378.963	2.68
379.329	2.6
379.696	2.79
380.062	2.66
380.429	2.62
380.795	2.39
381.161	2.5
381.528	3.18
381.894	2.88
382.26	2.61
382.626	2.38
382.993	2.36
383.359	3.18
383.725	2.49
384.091	2.49
384.457	2.88
384.823	2.66
385.188	2.54
385.554	2.52
385.92	2.77
386.286	2.83
386.651	2.96
387.017	3.07
387.383	2.52
387.748	2.41
388.114	3.08
388.479	2.85
388.845	3.13
389.21	2.66
389.575	2.8
389.94	2.77
390.306	2.85
390.671	3.07
391.036	2.47
391.401	2.77
391.766	2.71
392.131	2.53
392.496	2.65
392.861	2.63
393.226	3.13
393.591	2.86
393.956	2.59
394.32	2.73
394.685	2.6
395.05	2.63
395.414	3
395.779	2.66
396.143	2.76
396.508	2.88
396.872	2.98
397.236	2.73
397.601	2.89
397.965	2.72
398.329	2.76
398.694	2.88
399.058	2.84
399.422	2.45
399.786	2.89
400.15	2.89
400.514	3.17
400.878	2.88
401.242	3.03
401.605	2.86
401.969	2.85
402.333	2.93
402.697	2.86
403.06	2.73
403.424	2.81
403.787	2.82
404.151	2.84
404.514	2.97
404.878	2.92
405.241	3.22
405.604	2.88
405.968	2.83
406.331	2.77
406.694	3.2
407.057	2.83
407.42	3.13
407.783	2.82
408.146	2.81
408.509	3
408.872	2.75
409.235	2.81
409.598	3.15
409.961	2.83
410.323	3.23
410.686	3.04
411.049	2.83
411.411	3.04
411.774	2.95
412.136	2.9
412.499	2.76
412.861	2.93
413.223	3.06
413.586	2.99
413.948	2.91
414.31	2.97
414.672	2.76
415.035	2.87
415.397	3.33
415.759	2.9
416.121	3.22
416.483	2.67
416.845	3.02
417.206	2.94
417.568	2.98
417.93	2.77
418.292	2.83
418.653	2.88
419.015	2.95
419.377	3
419.738	3.03
420.1	3.09
420.461	2.95
420.822	2.94
421.184	2.81
421.545	2.85
421.906	2.76
422.267	2.94
422.629	2.9
422.99	2.93
423.351	2.78
423.712	2.95
424.073	2.99
424.434	2.83
424.795	2.81
425.155	2.92
425.516	2.76
425.877	2.93
426.238	2.76
426.598	3
426.959	2.94
427.32	2.79
427.68	2.93
428.041	2.89
428.401	3.1
428.761	2.83
429.122	2.98
429.482	2.8
429.842	2.97
430.202	2.83
430.563	3.02
430.923	2.81
431.283	3.16
431.643	2.96
432.003	3.21
432.363	3.24
432.722	2.94
433.082	3.01
433.442	3.04
433.802	2.84
434.161	3.09
434.521	3.15
434.881	3.11
435.24	2.91
435.6	3.03
435.959	3
436.319	2.98
436.678	2.96
437.037	2.93
437.396	3.07
437.756	3.13
438.115	3.1
438.474	3.13
438.833	2.99
439.192	2.97
439.551	3.17
439.91	2.88
440.269	3.11
440.628	2.99
440.987	2.99
441.345	2.91
441.704	2.99
442.063	3.01
442.421	3.07
442.78	3.02
443.138	3.02
443.497	3.13
443.855	2.94
444.214	3.08
444.572	3.16
444.93	2.98
445.288	3.17
445.647	3
446.005	3.01
446.363	3.18
446.721	3.13
447.079	3.02
447.437	3.07
447.795	2.98
448.153	2.96
448.51	2.98
448.868	3.1
449.226	3
449.584	3
449.941	3.07
450.299	3.03
450.656	3.1
451.014	3.11
451.371	3.05
451.729	3.01
452.086	3.23
452.443	3.22
452.801	3.16
453.158	3.13
453.515	3.05
453.872	3.42
454.229	3.19
454.586	3.16
454.943	3.11
455.3	3.19
455.657	3.11
456.014	3.23
456.371	3.25
456.727	3.1
457.084	3.36
457.441	3.28
457.797	3.14
458.154	3.34
458.51	3.31
458.867	3.26
459.223	3.29
459.58	3.29
459.936	3.32
460.292	3.17
460.648	3.23
461.005	3.15
461.361	3.32
461.717	3.2
462.073	3.14
462.429	3.17
462.785	3.2
463.141	3.23
463.496	3.14
463.852	3.24
464.208	3.3
464.564	3.33
464.919	3.3
465.275	3.4
465.631	3.34
465.986	3.25
466.342	3.09
466.697	3.35
467.052	3.31
467.408	3.37
467.763	3.2
468.118	3.37
468.473	3.41
468.829	3.26
469.184	3.13
469.539	3.3
469.894	3.07
470.249	3.41
470.603	3.44
470.958	3.32
471.313	3.44
471.668	3.48
472.023	3.35
472.377	3.39
472.732	3.43
473.086	3.37
473.441	3.33
473.795	3.42
474.15	3.46
474.504	3.36
474.859	3.28
475.213	3.21
475.567	3.36
475.921	3.32
476.275	3.34
476.63	3.36
476.984	3.59
477.338	3.58
477.692	3.26
478.045	3.35
478.399	3.34
478.753	3.43
479.107	3.4
479.461	3.34
479.814	3.33
480.168	3.35
480.521	3.25
480.875	3.4
481.228	3.53
481.582	3.42
481.935	3.43
482.289	3.49
482.642	3.45
482.995	3.32
483.348	3.32
483.701	3.39
484.055	3.41
484.408	3.47
484.761	3.38
485.114	3.32
485.466	3.15
485.819	3.13
486.172	3.14
486.525	3.2
486.878	3.25
487.23	3.29
487.583	3.33
487.936	3.3
488.288	3.28
488.641	3.38
488.993	3.23
489.345	3.23
489.698	3.26
490.05	3.2
490.402	3.28
490.754	3.27
491.107	3.33
491.459	3.38
491.811	3.45
492.163	3.41
492.515	3.4
492.866	3.39
493.218	3.4
493.57	3.3
493.922	3.29
494.274	3.42
494.625	3.43
494.977	3.48
495.328	3.58
495.68	3.52
496.031	3.58
496.383	3.54
496.734	3.76
497.086	3.7
497.437	3.56
497.788	3.62
498.139	3.5
498.49	3.67
498.842	3.44
499.193	3.46
499.544	3.47
499.894	3.55
500.245	3.59
500.596	3.5
500.947	3.59
501.298	3.47
501.648	3.73
501.999	3.59
502.35	3.61
502.7	3.66
503.051	3.58
503.401	3.63
503.752	3.78
504.102	3.52
504.452	3.59
504.803	3.67
505.153	3.7
505.503	3.69
505.853	3.72
506.203	3.56
506.553	3.75
506.903	3.58
507.253	3.61
507.603	3.6
507.953	3.76
508.303	3.84
508.652	3.62
509.002	3.82
509.352	3.77
509.701	3.67
510.051	3.6
510.4	3.62
510.75	3.72
511.099	3.79
511.449	3.74
511.798	3.62
512.147	3.7
512.496	3.77
512.846	3.66
513.195	3.7
513.544	3.58
513.893	3.86
514.242	3.62
514.591	3.86
514.939	3.75
515.288	3.64
515.637	3.81
515.986	3.82
516.334	3.95
516.683	3.86
517.032	3.75
517.38	4.07
517.729	3.93
518.077	3.77
518.426	3.95
518.774	3.94
519.122	3.89
519.47	3.72
519.819	3.63
520.167	3.75
520.515	3.74
520.863	3.85
521.211	3.81
521.559	3.93
521.907	3.76
522.255	3.89
522.602	3.97
522.95	3.89
523.298	3.94
523.645	4.02
523.993	3.86
524.341	4.09
524.688	3.92
525.036	3.97
525.383	4.01
525.73	4.11
526.078	3.88
526.425	3.84
526.772	3.99
527.119	3.91
527.466	3.92
527.814	3.85
528.161	3.89
528.508	3.97
528.854	3.97
529.201	3.9
529.548	3.86
529.895	3.85
530.242	3.76
530.588	3.75
530.935	3.75
531.282	3.82
531.628	3.83
531.975	3.95
532.321	4
532.667	3.94
533.014	4.09
533.36	4.09
533.706	4.11
534.052	4.01
534.399	4.07
534.745	4.02
535.091	3.99
535.437	3.96
535.783	4.03
536.129	4.08
536.474	4.07
536.82	4.17
537.166	4.15
537.512	4.19
537.857	4.05
538.203	4.14
538.549	4.14
538.894	4.1
539.239	4.18
539.585	4.23
539.93	4.13
540.276	4.23
540.621	4.35
540.966	4.37
541.311	4.33
541.656	4.31
542.001	4.26
542.346	4.33
542.691	4.24
543.036	4.16
543.381	4.03
543.726	4.11
544.071	4.19
544.415	4.25
544.76	4.24
545.105	4.32
545.449	4.33
545.794	4.39
546.138	4.31
546.483	4.39
546.827	4.41
547.171	4.35
547.516	4.53
547.86	4.37
548.204	4.54
548.548	4.43
548.892	4.47
549.236	4.38
549.58	4.31
549.924	4.54
550.268	4.66
550.612	4.51
550.956	4.65
551.3	4.64
551.643	4.83
551.987	4.65
552.33	4.83
552.674	4.84
553.017	4.56
553.361	4.57
553.704	4.9
554.048	4.77
554.391	4.65
554.734	4.73
555.077	4.66
555.42	4.7
555.764	4.83
556.107	4.61
556.45	4.68
556.793	4.83
557.135	4.63
557.478	4.98
557.821	4.93
558.164	4.82
558.507	5.02
558.849	4.93
559.192	4.92
559.534	4.88
559.877	4.92
560.219	4.87
560.562	5.16
560.904	4.82
561.246	5.1
561.589	5.03
561.931	4.94
562.273	4.9
562.615	5.15
562.957	5.07
563.299	4.75
563.641	4.93
563.983	5.11
564.325	4.86
564.667	5
565.008	4.94
565.35	5.14
565.692	5.12
566.033	5.3
566.375	5.45
566.716	5.34
567.058	5.11
567.399	5.25
567.741	4.89
568.082	5.06
568.423	5.19
568.764	5.24
569.105	5.19
569.447	5.29
569.788	5.27
570.129	5.24
570.47	5.39
570.811	5.43
571.151	5.32
571.492	5.56
571.833	5.24
572.174	5.29
572.514	5.52
572.855	5.44
573.195	5.2
573.536	5.52
573.876	5.41
574.217	5.51
574.557	5.5
574.898	5.69
575.238	5.55
575.578	5.49
575.918	5.62
576.258	5.55
576.598	5.56
576.938	5.59
577.278	5.51
577.618	5.57
577.958	5.54
578.298	5.57
578.638	5.7
578.977	5.8
579.317	5.67
579.657	5.76
579.996	5.72
580.336	5.89
580.675	5.81
581.014	5.88
581.354	6.01
581.693	6.08
582.032	5.79
582.372	5.68
582.711	6.08
583.05	5.82
583.389	5.83
583.728	5.89
584.067	6.13
584.406	5.92
584.745	6.1
585.083	6.05
585.422	6.21
585.761	6.32
586.1	6.36
586.438	6.06
586.777	6.29
587.115	6.3
587.454	6.09
587.792	6.18
588.13	6.6
588.469	6.19
588.807	6.22
589.145	5.98
589.483	6.31
589.821	6.41
590.159	6.39
590.497	6.52
590.835	6.61
591.173	6.34
591.511	6.91
591.849	6.46
592.187	6.48
592.524	6.52
592.862	6.62
593.2	6.67
593.537	6.68
593.875	6.66
594.212	6.34
594.55	6.52
594.887	6.86
595.224	6.77
595.561	6.75
595.899	6.56
596.236	6.79
596.573	6.99
596.91	6.43
597.247	6.41
597.584	7.1
597.921	6.65
598.258	6.74
598.594	6.69
598.931	6.81
599.268	6.88
599.604	6.84
599.941	6.93
600.277	6.77
600.614	6.91
600.95	6.88
601.287	7.16
601.623	7.09
601.959	6.92
602.296	7.14
602.632	7.09
602.968	7.28
603.304	7.33
603.64	7.17
603.976	7.35
604.312	7.15
604.648	7.22
604.984	7.26
605.319	7.4
605.655	7.24
605.991	7.14
606.326	7.23
606.662	7.25
606.998	7.16
607.333	7.42
607.668	7.43
608.004	7.64
608.339	7.58
608.674	7.57
609.01	7.28
609.345	7.31
609.68	7.86
610.015	7.69
610.35	7.5
610.685	7.5
611.02	7.76
611.355	7.44
611.689	7.53
612.024	7.63
612.359	7.65
612.694	7.72
613.028	7.68
613.363	7.89
613.697	7.93
614.032	8.14
614.366	7.83
614.7	7.93
615.035	7.68
615.369	7.77
615.703	8.02
616.037	8.19
616.371	7.44
616.705	7.99
617.039	7.9
617.373	8.02
617.707	8.11
618.041	8.37
618.375	8.09
618.709	8.27
619.042	7.93
619.376	8.76
619.71	7.93
620.043	8.57
620.377	8.1
620.71	8.36
621.043	8.26
621.377	8.36
621.71	8.41
622.043	8.25
622.376	8.15
622.709	8.67
623.043	8.56
623.376	8.7
623.709	8.74
624.041	9.16
624.374	8.89
624.707	8.53
625.04	8.74
625.373	8.42
625.705	8.65
626.038	8.61
626.37	8.66
626.703	8.78
627.035	8.7
627.368	9
627.7	9.08
628.032	8.8
628.365	9.2
628.697	9.07
629.029	8.75
629.361	9.02
629.693	9.04
630.025	8.91
630.357	9.3
630.689	9.24
631.021	9.22
631.353	9.44
631.684	9.15
632.016	8.92
632.348	9.34
632.679	9.14
633.011	9.27
633.342	9.33
633.674	9.29
634.005	9.43
634.336	9.18
634.668	9.78
634.999	9.23
635.33	10.2
635.661	9.7
635.992	9.38
636.323	9.77
636.654	10.11
636.985	9.74
637.316	9.79
637.647	9.43
637.977	10.06
638.308	10.06
638.639	8.93
638.969	9.6
639.3	9.82
639.63	9.49
639.961	9.59
640.291	9.9
640.622	10.33
640.952	9.8
641.282	10.34
641.612	10.22
641.943	9.79
642.273	10.25
642.603	10.16
642.933	10.63
643.263	10.37
643.592	9.7
643.922	9.95
644.252	9.77
644.582	10.5
644.911	9.74
645.241	10.28
645.571	10.24
645.9	9.86
646.23	10.38
646.559	10.41
646.888	10.7
647.218	10.44
647.547	10.68
647.876	10.18
648.205	10.45
648.534	10.43
648.863	10.28
649.192	10.65
649.521	10.71
649.85	10.56
650.179	10.84
650.508	10.23
650.837	10.59
651.165	10.19
651.494	10.49
651.822	10.91
652.151	11.08
652.479	11.01
652.808	10.39
653.136	11.11
653.465	10.76
653.793	10.48
654.121	10.75
654.449	10.92
654.777	11.57
655.105	11.06
655.433	11.05
655.761	11.18
656.089	11.12
656.417	11.83
656.745	11.34
657.073	11.28
657.4	12.04
657.728	11.45
658.056	11.47
658.383	11.3
658.711	11.49
659.038	11.33
659.365	11.63
659.693	11.58
660.02	11.61
660.347	11.14
660.674	11.67
661.001	11.86
661.329	10.8
661.656	11.66
661.982	11.51
662.309	11.85
662.636	11.69
662.963	11.84
663.29	12.02
663.616	11.85
663.943	10.96
664.27	12.02
664.596	11.69
664.923	11.91
665.249	12.25
665.576	11.67
665.902	12.63
666.228	12.37
666.554	12.47
666.881	11.71
667.207	12.88
667.533	12.52
667.859	13.03
668.185	12.36
668.511	11.94
668.837	11.41
669.162	12.25
669.488	11.43
669.814	13.07
670.139	11.92
670.465	12.35
670.791	12.14
671.116	13.52
671.442	12.27
671.767	12.91
672.092	13.32
672.418	12.18
672.743	12.5
673.068	12.42
673.393	12.94
673.718	12.8
674.043	13.11
674.368	12.48
674.693	13.15
675.018	12.31
675.343	13.1
675.667	12.75
675.992	13.32
676.317	12.93
676.641	12.65
676.966	13.2
677.29	13.37
677.615	13.4
677.939	13.37
678.264	13.26
678.588	12.74
678.912	13.04
679.236	14.36
679.56	12.28
679.885	13.78
680.209	13.54
680.532	12.68
680.856	14.24
681.18	13.47
681.504	13.39
681.828	13.74
682.152	13.52
682.475	13.05
682.799	13.61
683.122	13.97
683.446	13.62
683.769	13.84
684.093	14.11
684.416	14.09
684.739	13.5
685.062	13.87
685.386	13.76
685.709	13.66
686.032	13.66
686.355	14.81
686.678	13.93
687.001	14.86
687.324	14.27
687.646	13.44
687.969	13.97
688.292	13.98
688.614	14.01
688.937	15.19
689.26	14.28
