Data from 430_forehead_Reflection__2__136.txt Node

Date: Fri Dec 15 17:53:39 CST 2023
User: ToomeyLab
Spectrometer: FLMS14357
Trigger mode: 0
Integration Time (sec): 1.000000E-2
Scans to average: 100
Electric dark correction enabled: true
Nonlinearity correction enabled: false
Boxcar width: 0
XAxis mode: Wavelengths
Number of Pixels in Spectrum: 2048
>>>>>Begin Spectral Data<<<<<
189.047	112.39
189.435	112.39
189.823	112.39
190.211	-41.97
190.599	-2279.25
190.987	4.77
191.375	102.79
191.763	671.31
192.151	102.63
192.538	130.24
192.926	-850.33
193.314	103.16
193.702	1032.86
194.089	56.71
194.477	4691.89
194.864	58.77
195.252	127.87
195.639	84.39
196.027	504.14
196.414	84.28
196.801	3730.84
197.189	86.9
197.576	71.8
197.963	-1124.96
198.351	-119.53
198.738	-23.47
199.125	-50.64
199.512	56.79
199.899	22.6
200.286	18.33
200.673	-13.72
201.06	3.3
201.447	-53.1
201.833	-9.27
202.22	0.38
202.607	15.91
202.994	4.74
203.38	37.11
203.767	-19.28
204.154	7.42
204.54	61.89
204.927	-19.84
205.313	-36.24
205.699	22.55
206.086	19.6
206.472	78.42
206.858	52.14
207.245	-35.78
207.631	34.44
208.017	8.46
208.403	-52.15
208.789	19.58
209.175	-0.78
209.561	-0.49
209.947	4.02
210.333	-31.73
210.719	12.8
211.105	8.37
211.491	-59.46
211.876	0.07
212.262	1.03
212.648	-9.76
213.034	-4.05
213.419	-10.15
213.805	-7.14
214.19	-29.18
214.576	-17.34
214.961	-31.12
215.346	-45.27
215.732	-25.39
216.117	30.01
216.502	22.92
216.888	22.6
217.273	19.47
217.658	-5.7
218.043	14.45
218.428	-60.75
218.813	-14.4
219.198	-23.08
219.583	2.51
219.968	-2.02
220.353	19.27
220.738	25.21
221.122	-1.32
221.507	-1.61
221.892	-1.01
222.276	-32.29
222.661	-4.3
223.046	25
223.43	4.03
223.815	17.42
224.199	-12.58
224.583	3.3
224.968	-6.07
225.352	20.45
225.736	-15.73
226.121	-10.93
226.505	6.78
226.889	15.45
227.273	-3.39
227.657	10.79
228.041	4.16
228.425	1.74
228.809	6.36
229.193	4.13
229.577	3.95
229.961	4.08
230.344	2.76
230.728	2.85
231.112	2.8
231.495	2.03
231.879	2.53
232.263	4.49
232.646	4.93
233.03	3.09
233.413	1.05
233.797	0.49
234.18	2.76
234.563	0.11
234.946	0.92
235.33	4.8
235.713	1.48
236.096	2.71
236.479	3.34
236.862	1.19
237.245	3.06
237.628	3.43
238.011	2.8
238.394	2.72
238.777	3.36
239.16	0.91
239.543	2.08
239.925	5.27
240.308	1.36
240.691	4.33
241.073	2.53
241.456	3.36
241.838	2.63
242.221	2.42
242.603	2.34
242.986	2.63
243.368	3.35
243.75	3.93
244.133	2.85
244.515	3.6
244.897	2.91
245.279	2.83
245.661	2.78
246.043	1.36
246.425	1.8
246.807	4.34
247.189	3.38
247.571	3.65
247.953	2.94
248.335	3.19
248.717	3.26
249.098	3.09
249.48	3.22
249.862	3.17
250.243	3.16
250.625	3.51
251.006	3.47
251.388	2.53
251.769	2.95
252.151	3.85
252.532	4.11
252.913	1.74
253.295	2.67
253.676	3
254.057	3.04
254.438	3.37
254.819	3.09
255.2	2.48
255.581	3.31
255.962	2.22
256.343	3.74
256.724	2.16
257.105	3.13
257.486	1.63
257.867	3.7
258.247	2.9
258.628	2.81
259.009	3.23
259.389	2.87
259.77	2.96
260.15	2.65
260.531	2.28
260.911	3.85
261.292	3.26
261.672	3.35
262.052	3.37
262.432	3.63
262.813	3.29
263.193	3.47
263.573	3.32
263.953	2.83
264.333	3.82
264.713	3.39
265.093	2.3
265.473	2.81
265.853	2.04
266.233	4.01
266.612	1.34
266.992	2.03
267.372	3.5
267.752	2.85
268.131	3.55
268.511	4.37
268.89	3.81
269.27	3.18
269.649	2.96
270.029	2.67
270.408	3.73
270.787	3.69
271.167	3.6
271.546	4.14
271.925	2.96
272.304	3.58
272.683	3.44
273.062	2.57
273.441	3.57
273.82	2.89
274.199	3.5
274.578	3.43
274.957	3.33
275.336	2.99
275.715	3.11
276.093	3.3
276.472	3.72
276.851	2.99
277.229	2.77
277.608	2.27
277.986	2.3
278.365	3.41
278.743	2.78
279.122	3.01
279.5	3.15
279.878	3.5
280.257	3.28
280.635	3.38
281.013	2.59
281.391	3.96
281.769	3.51
282.147	3.45
282.525	2.76
282.903	2.75
283.281	2.75
283.659	3.13
284.037	3.51
284.415	3.83
284.792	3.86
285.17	2.32
285.548	2.97
285.925	3
286.303	3.21
286.68	3.29
287.058	3.1
287.435	3.27
287.813	3.19
288.19	3.49
288.567	3.36
288.945	3.76
289.322	3.36
289.699	3.27
290.076	3.2
290.453	2.84
290.83	2.89
291.207	3.31
291.584	3.52
291.961	3.74
292.338	3.4
292.715	4.09
293.092	3.92
293.469	3.66
293.845	4.16
294.222	3.43
294.599	3.93
294.975	3.53
295.352	3.71
295.728	3.57
296.105	4.17
296.481	3.85
296.858	3.95
297.234	3.58
297.61	4.09
297.986	3.51
298.363	4.41
298.739	3.92
299.115	3.7
299.491	3.91
299.867	4.05
300.243	4.16
300.619	3.69
300.995	3.81
301.371	4.43
301.746	4.09
302.122	4.57
302.498	4.66
302.874	4.01
303.249	4.13
303.625	4.63
304	4.62
304.376	4.36
304.751	4.24
305.127	5.19
305.502	4.14
305.878	3.97
306.253	4.46
306.628	5.04
307.003	4.87
307.378	4.61
307.754	4.39
308.129	4.28
308.504	5.01
308.879	4.48
309.254	5.36
309.629	5.2
310.003	4.93
310.378	5.47
310.753	5.14
311.128	5.06
311.502	5.14
311.877	5.4
312.252	4.81
312.626	5.21
313.001	5.3
313.375	5.59
313.75	5.2
314.124	5.66
314.498	5.5
314.873	4.99
315.247	5.49
315.621	5.48
315.995	5.16
316.369	5.81
316.743	5.58
317.117	6.17
317.491	5.98
317.865	6.14
318.239	6.53
318.613	6.54
318.987	6.24
319.361	5.69
319.734	6.43
320.108	6.64
320.482	6.44
320.855	6.77
321.229	6.57
321.602	6.25
321.976	7.21
322.349	6.69
322.723	5.82
323.096	7.09
323.469	6.62
323.843	6.86
324.216	6.96
324.589	6.79
324.962	7.11
325.335	6.22
325.708	7.02
326.081	7.38
326.454	6.79
326.827	7.34
327.2	6.89
327.573	7.16
327.945	6.91
328.318	6.65
328.691	7
329.063	7.44
329.436	7.03
329.809	7.5
330.181	7.16
330.553	7.68
330.926	7.93
331.298	8.58
331.671	7.84
332.043	7.62
332.415	7.94
332.787	7.97
333.159	8.23
333.532	7.39
333.904	7.7
334.276	7.79
334.648	8.44
335.02	8.06
335.391	7.17
335.763	7.99
336.135	7.95
336.507	8.38
336.879	7.84
337.25	8
337.622	8.63
337.993	8.02
338.365	8.53
338.736	8.52
339.108	8.49
339.479	7.8
339.851	8.74
340.222	8.2
340.593	8.68
340.964	8.39
341.336	8.95
341.707	8.63
342.078	8.81
342.449	8.47
342.82	8.71
343.191	9.09
343.562	8.96
343.933	9.06
344.303	9.57
344.674	8.86
345.045	8.85
345.416	9.4
345.786	8.33
346.157	9.27
346.527	8.7
346.898	9.04
347.268	9.83
347.639	9.31
348.009	9.15
348.38	9.5
348.75	9.79
349.12	9.28
349.49	10.18
349.861	9.7
350.231	9.98
350.601	10.11
350.971	9.55
351.341	9.37
351.711	9.76
352.081	9.94
352.45	9.47
352.82	10.01
353.19	9.63
353.56	10.1
353.929	10.22
354.299	9.8
354.669	9.75
355.038	10.36
355.408	10.17
355.777	10.56
356.147	9.89
356.516	10.33
356.885	10.36
357.254	10.56
357.624	10.61
357.993	11.02
358.362	10.64
358.731	10.3
359.1	10.76
359.469	10.73
359.838	11.06
360.207	10.33
360.576	10.65
360.945	11.01
361.314	11.48
361.682	10.45
362.051	10.7
362.42	11.05
362.788	10.81
363.157	10.83
363.525	11.14
363.894	11.18
364.262	11.44
364.631	11.13
364.999	11.39
365.367	11.21
365.735	11.88
366.104	11.63
366.472	11.81
366.84	11.07
367.208	11.61
367.576	11.87
367.944	11.85
368.312	11.58
368.68	11.42
369.048	11.48
369.416	11.78
369.783	11.87
370.151	11.7
370.519	12.4
370.886	12.35
371.254	12.23
371.621	12.46
371.989	12.42
372.356	12.03
372.724	12
373.091	11.77
373.458	12.07
373.826	12.17
374.193	12.26
374.56	11.75
374.927	12.83
375.294	12.44
375.661	13.04
376.028	12.72
376.395	12.18
376.762	12.78
377.129	12.64
377.496	12.75
377.863	12.53
378.229	12.1
378.596	12.98
378.963	12.68
379.329	13.02
379.696	13.47
380.062	12.94
380.429	12.67
380.795	12.98
381.161	12.91
381.528	13.39
381.894	13.24
382.26	13.11
382.626	13.29
382.993	12.77
383.359	13.55
383.725	13.46
384.091	13.55
384.457	13.78
384.823	13.19
385.188	13.64
385.554	13.71
385.92	13.85
386.286	13.84
386.651	13.83
387.017	13.94
387.383	14
387.748	13.72
388.114	14.25
388.479	14.01
388.845	14
389.21	14.07
389.575	14.27
389.94	13.93
390.306	14.71
390.671	14.46
391.036	13.95
391.401	14.08
391.766	14.25
392.131	14.21
392.496	14.32
392.861	14.17
393.226	14.45
393.591	14.65
393.956	14.5
394.32	14.61
394.685	14.5
395.05	14.49
395.414	14.6
395.779	14.68
396.143	14.49
396.508	14.49
396.872	15.1
397.236	14.86
397.601	14.82
397.965	15.01
398.329	15.12
398.694	15.09
399.058	15.58
399.422	15.03
399.786	15.39
400.15	15.49
400.514	15.35
400.878	15.55
401.242	15.42
401.605	15.45
401.969	15.42
402.333	15.23
402.697	15.66
403.06	15.44
403.424	15.36
403.787	15.48
404.151	15.72
404.514	15.59
404.878	15.66
405.241	15.89
405.604	15.7
405.968	15.88
406.331	15.9
406.694	16
407.057	15.74
407.42	15.91
407.783	15.73
408.146	15.95
408.509	15.88
408.872	16.04
409.235	16.4
409.598	16.64
409.961	16.06
410.323	16.07
410.686	16.4
411.049	16.16
411.411	16.06
411.774	16.31
412.136	16.26
412.499	16.46
412.861	16.7
413.223	16.47
413.586	16.55
413.948	16.55
414.31	16.59
414.672	16.58
415.035	16.21
415.397	16.9
415.759	16.82
416.121	16.92
416.483	16.65
416.845	16.83
417.206	16.82
417.568	16.98
417.93	16.83
418.292	17.07
418.653	17
419.015	16.92
419.377	16.74
419.738	16.78
420.1	16.78
420.461	16.96
420.822	17
421.184	16.98
421.545	17.03
421.906	16.84
422.267	16.94
422.629	17.01
422.99	16.84
423.351	17.04
423.712	17.05
424.073	17.17
424.434	17.16
424.795	17.14
425.155	17.34
425.516	17.2
425.877	17.24
426.238	17.1
426.598	17.52
426.959	17.52
427.32	17.46
427.68	17.53
428.041	17.74
428.401	17.82
428.761	17.93
429.122	18.1
429.482	17.9
429.842	18.24
430.202	18.03
430.563	18.1
430.923	18.15
431.283	18.41
431.643	17.95
432.003	18.24
432.363	18.56
432.722	18.18
433.082	18.16
433.442	18.33
433.802	18.34
434.161	18.31
434.521	18.47
434.881	18.53
435.24	18.2
435.6	18.33
435.959	18.47
436.319	18.52
436.678	18.46
437.037	18.64
437.396	18.68
437.756	18.88
438.115	18.87
438.474	18.84
438.833	18.74
439.192	18.79
439.551	18.81
439.91	18.64
440.269	18.92
440.628	18.88
440.987	18.9
441.345	18.56
441.704	18.9
442.063	18.92
442.421	19
442.78	18.92
443.138	19.06
443.497	18.94
443.855	19.23
444.214	19.21
444.572	19.39
444.93	19.34
445.288	19.43
445.647	19.53
446.005	19.32
446.363	19.49
446.721	19.39
447.079	19.28
447.437	19.37
447.795	19.41
448.153	19.28
448.51	19.29
448.868	19.51
449.226	19.41
449.584	19.54
449.941	19.69
450.299	19.58
450.656	19.77
451.014	19.8
451.371	19.98
451.729	19.87
452.086	20.22
452.443	20.09
452.801	20.41
453.158	20.05
453.515	20.08
453.872	20.05
454.229	20.08
454.586	20.13
454.943	20.14
455.3	20.39
455.657	20.28
456.014	20.38
456.371	20.42
456.727	20.29
457.084	20.47
457.441	20.69
457.797	20.37
458.154	20.86
458.51	20.77
458.867	20.67
459.223	20.69
459.58	20.56
459.936	20.64
460.292	20.89
460.648	20.62
461.005	20.64
461.361	20.57
461.717	20.45
462.073	20.46
462.429	20.65
462.785	21.06
463.141	20.87
463.496	21.14
463.852	21.21
464.208	21.12
464.564	21.18
464.919	21.17
465.275	21.31
465.631	21.37
465.986	21.39
466.342	21.51
466.697	21.15
467.052	21.41
467.408	21.5
467.763	21.54
468.118	21.47
468.473	21.35
468.829	21.58
469.184	21.54
469.539	21.76
469.894	21.49
470.249	21.65
470.603	21.75
470.958	21.85
471.313	22.16
471.668	21.72
472.023	21.81
472.377	21.78
472.732	21.94
473.086	22.01
473.441	21.95
473.795	22
474.15	22.17
474.504	22.17
474.859	22.19
475.213	22.05
475.567	22.12
475.921	22.1
476.275	22.22
476.63	22.27
476.984	22.45
477.338	22.68
477.692	22.29
478.045	22.23
478.399	22.38
478.753	22.42
479.107	22.48
479.461	22.47
479.814	22.46
480.168	22.63
480.521	22.55
480.875	22.48
481.228	22.57
481.582	22.7
481.935	22.67
482.289	22.68
482.642	22.69
482.995	22.59
483.348	22.53
483.701	22.61
484.055	22.61
484.408	22.46
484.761	22.21
485.114	21.97
485.466	21.41
485.819	21.48
486.172	21.73
486.525	22.01
486.878	22.11
487.23	22.33
487.583	22.56
487.936	22.66
488.288	22.61
488.641	22.45
488.993	22.22
489.345	22.03
489.698	22.12
490.05	22.13
490.402	22.46
490.754	22.71
491.107	22.91
491.459	22.95
491.811	23.18
492.163	23.26
492.515	23.17
492.866	22.91
493.218	22.73
493.57	22.47
493.922	22.61
494.274	22.98
494.625	23.2
494.977	23.51
495.328	23.75
495.68	23.74
496.031	23.99
496.383	23.77
496.734	23.92
497.086	24.22
497.437	24.09
497.788	23.98
498.139	23.82
498.49	23.89
498.842	23.7
499.193	24
499.544	23.99
499.894	24.25
500.245	24.1
500.596	24.01
500.947	24.18
501.298	24.31
501.648	24.39
501.999	24.59
502.35	24.48
502.7	24.65
503.051	24.58
503.401	24.52
503.752	24.67
504.102	24.59
504.452	24.84
504.803	24.72
505.153	24.62
505.503	24.9
505.853	24.55
506.203	24.56
506.553	24.67
506.903	24.91
507.253	24.88
507.603	24.74
507.953	25.04
508.303	25.08
508.652	24.66
509.002	25.06
509.352	24.93
509.701	24.81
510.051	24.81
510.4	24.73
510.75	24.9
511.099	24.87
511.449	25.05
511.798	24.95
512.147	24.94
512.496	24.97
512.846	25.04
513.195	25.13
513.544	25.21
513.893	25.02
514.242	25.04
514.591	25.35
514.939	25.37
515.288	25.2
515.637	25.37
515.986	25.49
516.334	25.55
516.683	25.56
517.032	25.46
517.38	25.62
517.729	25.68
518.077	25.37
518.426	25.6
518.774	25.71
519.122	25.63
519.47	25.55
519.819	25.36
520.167	25.43
520.515	25.03
520.863	25.32
521.211	25.54
521.559	25.68
521.907	25.74
522.255	25.82
522.602	25.87
522.95	25.93
523.298	25.84
523.645	26.02
523.993	26.06
524.341	26.15
524.688	26.24
525.036	26.09
525.383	26.35
525.73	26.61
526.078	26.15
526.425	26.01
526.772	25.97
527.119	25.95
527.466	25.51
527.814	25.55
528.161	25.79
528.508	25.93
528.854	25.93
529.201	25.84
529.548	25.59
529.895	25.32
530.242	25.03
530.588	25.06
530.935	25.25
531.282	25.49
531.628	25.64
531.975	25.83
532.321	25.95
532.667	26.14
533.014	26.43
533.36	26.34
533.706	26.43
534.052	26.42
534.399	26.26
534.745	26.07
535.091	25.89
535.437	25.95
535.783	26.07
536.129	26.43
536.474	26.53
536.82	26.8
537.166	26.79
537.512	26.91
537.857	26.71
538.203	26.68
538.549	26.5
538.894	26.59
539.239	26.83
539.585	26.95
539.93	27.06
540.276	27.31
540.621	27.36
540.966	27.46
541.311	27.32
541.656	27.15
542.001	27.15
542.346	27.04
542.691	26.54
543.036	26.33
543.381	26.29
543.726	26.49
544.071	26.81
544.415	26.88
544.76	26.9
545.105	27.15
545.449	27.15
545.794	27.36
546.138	27.45
546.483	27.6
546.827	27.78
547.171	27.63
547.516	27.71
547.86	27.64
548.204	27.63
548.548	27.42
548.892	27.61
549.236	27.65
549.58	27.75
549.924	27.92
550.268	27.95
550.612	28.26
550.956	28.3
551.3	28.16
551.643	28.53
551.987	28.41
552.33	28.44
552.674	28.43
553.017	28.5
553.361	28.51
553.704	28.74
554.048	28.34
554.391	28.39
554.734	28.28
555.077	28.38
555.42	28.49
555.764	28.68
556.107	28.44
556.45	28.62
556.793	28.61
557.135	28.77
557.478	29.1
557.821	29.06
558.164	29.04
558.507	29.04
558.849	28.82
559.192	29.26
559.534	29.12
559.877	29.22
560.219	28.99
560.562	29.43
560.904	29.32
561.246	29.42
561.589	29.28
561.931	29.25
562.273	29.27
562.615	29.33
562.957	29.07
563.299	29.23
563.641	29.18
563.983	29.67
564.325	29.17
564.667	29.39
565.008	29.3
565.35	29.5
565.692	29.45
566.033	29.49
566.375	29.57
566.716	29.65
567.058	29.48
567.399	29.39
567.741	29.32
568.082	29.23
568.423	29.28
568.764	29.31
569.105	29.6
569.447	29.52
569.788	29.74
570.129	29.92
570.47	29.84
570.811	29.77
571.151	29.76
571.492	30.09
571.833	29.57
572.174	29.87
572.514	30.34
572.855	30.14
573.195	29.62
573.536	29.65
573.876	29.67
574.217	29.78
574.557	29.79
574.898	30
575.238	29.92
575.578	29.83
575.918	29.91
576.258	30.19
576.598	30.01
576.938	29.91
577.278	30.09
577.618	30.03
577.958	30.1
578.298	30.27
578.638	30.05
578.977	30.18
579.317	30.38
579.657	30.55
579.996	30.41
580.336	30.65
580.675	30.48
581.014	30.62
581.354	30.74
581.693	30.93
582.032	30.77
582.372	30.56
582.711	30.6
583.05	31.07
583.389	30.84
583.728	30.76
584.067	31.03
584.406	30.7
584.745	30.93
585.083	30.99
585.422	30.83
585.761	31.01
586.1	31.25
586.438	30.8
586.777	30.97
587.115	31.44
587.454	30.91
587.792	31.16
588.13	31.14
588.469	31.23
588.807	30.81
589.145	30.92
589.483	31.2
589.821	31.46
590.159	31.12
590.497	31.62
590.835	31.14
591.173	30.61
591.511	31.53
591.849	31.31
592.187	31.32
592.524	31.07
592.862	31.44
593.2	31.27
593.537	31.33
593.875	31.52
594.212	31.58
594.55	31.44
594.887	31.83
595.224	31.36
595.561	31.39
595.899	31.68
596.236	31.42
596.573	31.98
596.91	31.22
597.247	31.53
597.584	31.72
597.921	31.42
598.258	31.35
598.594	31.49
598.931	31.28
599.268	31.6
599.604	31.57
599.941	31.56
600.277	31.72
600.614	31.89
600.95	31.93
601.287	32.02
601.623	32.07
601.959	31.96
602.296	31.83
602.632	31.65
602.968	32.12
603.304	32.1
603.64	32.24
603.976	32.11
604.312	32.34
604.648	32.13
604.984	32.06
605.319	32.04
605.655	31.88
605.991	31.98
606.326	31.99
606.662	31.81
606.998	31.99
607.333	32.29
607.668	32.31
608.004	32.55
608.339	32.79
608.674	32.47
609.01	32.05
609.345	32.23
609.68	32.82
610.015	32.64
610.35	32.34
610.685	32.43
611.02	32.59
611.355	32.18
611.689	32.18
612.024	32.44
612.359	32.54
612.694	32.47
613.028	32.59
613.363	32.4
613.697	32.52
614.032	32.86
614.366	32.45
614.7	32.77
615.035	33.14
615.369	32.67
615.703	33.33
616.037	32.86
616.371	33.03
616.705	32.67
617.039	32.99
617.373	33.14
617.707	33.54
618.041	33.1
618.375	33.19
618.709	33.15
619.042	33.07
619.376	32.68
619.71	33.31
620.043	32.95
620.377	33.31
620.71	33.24
621.043	33.21
621.377	33.24
621.71	33.39
622.043	32.9
622.376	33.12
622.709	34.01
623.043	33.91
623.376	33.71
623.709	33.27
624.041	33.49
624.374	33.49
624.707	33.75
625.04	33.81
625.373	32.79
625.705	33.65
626.038	33.54
626.37	33.37
626.703	33.69
627.035	33.42
627.368	33.61
627.7	33.56
628.032	33.49
628.365	33.65
628.697	33.39
629.029	33.27
629.361	33.59
629.693	33.8
630.025	33.48
630.357	34.14
630.689	33.64
631.021	33.57
631.353	33.9
631.684	34.13
632.016	34.01
632.348	33.97
632.679	33.85
633.011	33.98
633.342	33.93
633.674	33.95
634.005	34.08
634.336	34.01
634.668	34.32
634.999	34.05
635.33	34.19
635.661	34.21
635.992	33.88
636.323	34.23
636.654	34.39
636.985	34.17
637.316	34.36
637.647	34.23
637.977	33.96
638.308	34.55
638.639	34.18
638.969	34.12
639.3	33.78
639.63	34.23
639.961	34.56
640.291	34.07
640.622	34.34
640.952	34.43
641.282	34.7
641.612	34.35
641.943	34.73
642.273	34.6
642.603	34.54
642.933	34.88
643.263	35.2
643.592	34.08
643.922	34.12
644.252	34.69
644.582	34.81
644.911	34.31
645.241	34.95
645.571	34.85
645.9	34.12
646.23	34.82
646.559	35
646.888	34.14
647.218	34.84
647.547	34.58
647.876	34.28
648.205	34.65
648.534	34.56
648.863	35.07
649.192	35.23
649.521	34.82
649.85	34.41
650.179	35.25
650.508	34.7
650.837	35.21
651.165	34.7
651.494	34.75
651.822	34.91
652.151	35.16
652.479	34.82
652.808	35.18
653.136	35.4
653.465	35.2
653.793	34.84
654.121	34.94
654.449	35.48
654.777	35.09
655.105	35.22
655.433	34.93
655.761	35.63
656.089	35.36
656.417	35.61
656.745	35.32
657.073	35.12
657.4	35.9
657.728	35.32
658.056	35.52
658.383	35.28
658.711	35.58
659.038	35.37
659.365	35.31
659.693	35.54
660.02	35.8
660.347	35.18
660.674	35.3
661.001	35.47
661.329	34.54
661.656	35.48
661.982	35.38
662.309	35.32
662.636	35.09
662.963	35.98
663.29	35.85
663.616	35.97
663.943	35.25
664.27	36.01
664.596	36.05
664.923	36.11
665.249	35.69
665.576	35.77
665.902	36.71
666.228	35.52
666.554	36.25
666.881	35.54
667.207	36.38
667.533	36.02
667.859	36.4
668.185	36.19
668.511	35.18
668.837	35.68
669.162	35.88
669.488	35.41
669.814	36.33
670.139	35.69
670.465	36.45
670.791	36.51
