Data from 815658_chest_Reflection__4__76.txt Node

Date: Fri Sep 16 15:10:14 CDT 2022
User: ToomeyLab
Spectrometer: FLMS14357
Trigger mode: 0
Integration Time (sec): 1.000000E-2
Scans to average: 100
Electric dark correction enabled: true
Nonlinearity correction enabled: false
Boxcar width: 0
XAxis mode: Wavelengths
Number of Pixels in Spectrum: 2048
>>>>>Begin Spectral Data<<<<<
189.047	-15.13
189.435	-15.13
189.823	-15.13
190.211	-11.3
190.599	-77.3
190.987	99.88
191.375	97.17
191.763	50.11
192.151	-116.83
192.538	90.87
192.926	7.03
193.314	61.07
193.702	127.09
194.089	10.51
194.477	-3.37
194.864	-153.11
195.252	-105.06
195.639	1263.46
196.027	66.49
196.414	177
196.801	15.54
197.189	98.42
197.576	-162.8
197.963	-49.26
198.351	-60.34
198.738	-1.82
199.125	44.32
199.512	-134.09
199.899	10.55
200.286	-17.48
200.673	19.28
201.06	23.3
201.447	21.63
201.833	-3.4
202.22	13.38
202.607	-40.74
202.994	18
203.38	6.06
203.767	18.77
204.154	18.37
204.54	-18.47
204.927	-45.91
205.313	25.36
205.699	33.53
206.086	32.62
206.472	3.87
206.858	11.39
207.245	-12.44
207.631	20.55
208.017	10.51
208.403	-41.15
208.789	27.67
209.175	19.71
209.561	-1.51
209.947	8.36
210.333	20.21
210.719	-16.73
211.105	5.11
211.491	21.1
211.876	9.65
212.262	20.59
212.648	-46.7
213.034	-4.73
213.419	-5.79
213.805	-4.77
214.19	27.11
214.576	6.47
214.961	-34.43
215.346	-30.75
215.732	-42.87
216.117	23.73
216.502	-3.62
216.888	-22.49
217.273	-6.95
217.658	-12.92
218.043	-46.07
218.428	18.11
218.813	-2.44
219.198	-4.43
219.583	6.17
219.968	14.1
220.353	14.77
220.738	19.34
221.122	-46.21
221.507	23.97
221.892	-14.9
222.276	-6.39
222.661	2.94
223.046	6.37
223.43	13.86
223.815	-5.48
224.199	-1.18
224.583	17.68
224.968	17.09
225.352	7.91
225.736	11.9
226.121	9.15
226.505	9.83
226.889	3.75
227.273	3.04
227.657	6.51
228.041	0.72
228.425	1.07
228.809	5.71
229.193	4.57
229.577	6.1
229.961	3.53
230.344	5.07
230.728	5.23
231.112	5.3
231.495	3.89
231.879	4.64
232.263	3.57
232.646	3.05
233.03	4.47
233.413	4.39
233.797	4.02
234.18	5.5
234.563	2.94
234.946	4.41
235.33	6.19
235.713	4.69
236.096	4.14
236.479	4.73
236.862	6.23
237.245	3.28
237.628	5.7
238.011	4.49
238.394	4.67
238.777	5.35
239.16	3.09
239.543	6.57
239.925	5.43
240.308	3.4
240.691	6.5
241.073	4.08
241.456	5.3
241.838	4.47
242.221	4.87
242.603	4.84
242.986	4.78
243.368	4.28
243.75	4.6
244.133	4.69
244.515	4.7
244.897	4.86
245.279	4.54
245.661	4.69
246.043	4.61
246.425	4.22
246.807	5.04
247.189	4.47
247.571	4.09
247.953	4.49
248.335	4.41
248.717	4.64
249.098	4.55
249.48	4.37
249.862	4.12
250.243	4.9
250.625	4.85
251.006	4.92
251.388	5.05
251.769	3.54
252.151	4.1
252.532	3.77
252.913	4.67
253.295	4.09
253.676	4.94
254.057	4
254.438	3.84
254.819	3.64
255.2	3.49
255.581	4.12
255.962	4.3
256.343	4.46
256.724	3.83
257.105	2.77
257.486	4.27
257.867	3.12
258.247	5.21
258.628	4.57
259.009	4.1
259.389	4.76
259.77	3.49
260.15	4.12
260.531	3.78
260.911	3.89
261.292	3.96
261.672	4.11
262.052	4.02
262.432	4.09
262.813	4.84
263.193	3.86
263.573	4.68
263.953	4.57
264.333	4.16
264.713	3.65
265.093	2.96
265.473	3.96
265.853	4.68
266.233	4.08
266.612	4.83
266.992	3.69
267.372	4.4
267.752	4.13
268.131	4.16
268.511	4.61
268.89	4.54
269.27	3.24
269.649	4.1
270.029	4.15
270.408	4.66
270.787	4.07
271.167	3.93
271.546	4.6
271.925	3.88
272.304	3.56
272.683	3.98
273.062	3.92
273.441	3.95
273.82	3.92
274.199	4.26
274.578	4.13
274.957	4.1
275.336	4.08
275.715	4.86
276.093	4.19
276.472	3.59
276.851	3.39
277.229	4
277.608	4.13
277.986	4.51
278.365	3.84
278.743	4.08
279.122	3.86
279.5	3.93
279.878	3.59
280.257	3.72
280.635	3.86
281.013	4.16
281.391	3.88
281.769	4.09
282.147	4.14
282.525	4.26
282.903	4.13
283.281	3.58
283.659	3.96
284.037	3.99
284.415	3.91
284.792	4.4
285.17	4.52
285.548	3.87
285.925	3.67
286.303	4.3
286.68	3.68
287.058	3.8
287.435	3.96
287.813	4.13
288.19	3.54
288.567	3.45
288.945	3.92
289.322	4.02
289.699	3.77
290.076	3.76
290.453	3.88
290.83	3.62
291.207	3.87
291.584	3.63
291.961	4
292.338	3.99
292.715	3.85
293.092	3.9
293.469	3.93
293.845	3.5
294.222	3.75
294.599	3.53
294.975	3.4
295.352	4
295.728	3.63
296.105	4.32
296.481	3.55
296.858	3.82
297.234	3.74
297.61	4.35
297.986	4.11
298.363	3.64
298.739	3.58
299.115	4.21
299.491	4.02
299.867	3.71
300.243	3.92
300.619	3.83
300.995	3.56
301.371	3.91
301.746	3.66
302.122	3.94
302.498	3.41
302.874	3.8
303.249	3.93
303.625	3.79
304	3.58
304.376	3.4
304.751	3.66
305.127	3.69
305.502	4.06
305.878	3.88
306.253	4.1
306.628	3.95
307.003	4.42
307.378	4.1
307.754	4
308.129	4.65
308.504	3.98
308.879	4.17
309.254	3.71
309.629	3.62
310.003	3.59
310.378	3.31
310.753	3.86
311.128	3.97
311.502	3.71
311.877	3.87
312.252	4.1
312.626	3.89
313.001	3.96
313.375	4.15
313.75	4.1
314.124	3.57
314.498	3.75
314.873	4.15
315.247	3.9
315.621	3.9
315.995	3.64
316.369	4.19
316.743	4.26
317.117	3.75
317.491	4.01
317.865	4.36
318.239	3.72
318.613	3.39
318.987	3.39
319.361	3.4
319.734	4.4
320.108	4.01
320.482	4.6
320.855	3.86
321.229	4.01
321.602	4.1
321.976	3.8
322.349	3.61
322.723	3.49
323.096	3.88
323.469	4.15
323.843	4.41
324.216	4.07
324.589	3.97
324.962	3.38
325.335	4.13
325.708	3.89
326.081	4.3
326.454	3.69
326.827	4.12
327.2	3.77
327.573	3.62
327.945	3.88
328.318	3.71
328.691	4.1
329.063	3.2
329.436	3.75
329.809	3.7
330.181	3.83
330.553	3.81
330.926	3.72
331.298	4.16
331.671	3.4
332.043	3.58
332.415	4.37
332.787	3.79
333.159	3.93
333.532	4.17
333.904	4.15
334.276	4.2
334.648	4.18
335.02	4.11
335.391	4.4
335.763	3.22
336.135	3.08
336.507	4.37
336.879	4.4
337.25	3.44
337.622	4.07
337.993	3.85
338.365	4.16
338.736	4.43
339.108	3.58
339.479	3.83
339.851	3.85
340.222	4.32
340.593	3.97
340.964	4.02
341.336	3.94
341.707	3.92
342.078	4.38
342.449	3.84
342.82	3.78
343.191	4.25
343.562	4.57
343.933	4.19
344.303	4.18
344.674	3.28
345.045	4.3
345.416	3.97
345.786	4.23
346.157	4
346.527	4.04
346.898	3.89
347.268	3.84
347.639	3.37
348.009	4.03
348.38	4.37
348.75	3.9
349.12	4.05
349.49	3.82
349.861	3.75
350.231	3.88
350.601	3.86
350.971	4.2
351.341	4.2
351.711	4.17
352.081	3.68
352.45	4.1
352.82	4.21
353.19	3.86
353.56	4.39
353.929	3.89
354.299	3.97
354.669	4.2
355.038	3.74
355.408	4.16
355.777	4.12
356.147	4.32
356.516	4.15
356.885	3.69
357.254	4.15
357.624	4.05
357.993	4.03
358.362	3.99
358.731	4.34
359.1	4.12
359.469	3.62
359.838	3.94
360.207	4.22
360.576	4.1
360.945	4.23
361.314	3.85
361.682	3.73
362.051	3.97
362.42	4.33
362.788	4.35
363.157	4.03
363.525	3.91
363.894	4.04
364.262	3.76
364.631	3.98
364.999	4.09
365.367	3.93
365.735	4.17
366.104	4.34
366.472	4.35
366.84	4.12
367.208	4.47
367.576	4.04
367.944	4.1
368.312	3.82
368.68	4.25
369.048	4.45
369.416	4.15
369.783	4.21
370.151	4.24
370.519	4.14
370.886	4.05
371.254	3.76
371.621	4.04
371.989	4.04
372.356	4.33
372.724	4.2
373.091	4.16
373.458	4.21
373.826	4.02
374.193	4.49
374.56	4.02
374.927	4.01
375.294	4.09
375.661	4.1
376.028	4.19
376.395	3.65
376.762	4.34
377.129	4.16
377.496	4.25
377.863	4.17
378.229	4.31
378.596	4.1
378.963	3.99
379.329	3.96
379.696	4.47
380.062	4.18
380.429	4.11
380.795	4.25
381.161	4.37
381.528	4.43
381.894	4.18
382.26	4.37
382.626	4.29
382.993	4.26
383.359	4.24
383.725	4.24
384.091	3.92
384.457	3.68
384.823	4.17
385.188	3.94
385.554	4.18
385.92	4.25
386.286	4.14
386.651	4.2
387.017	4.12
387.383	3.88
387.748	3.81
388.114	3.96
388.479	4.05
388.845	4.19
389.21	4.28
389.575	4.05
389.94	4.18
390.306	4.17
390.671	4.28
391.036	4.12
391.401	4.31
391.766	4.06
392.131	4.51
392.496	3.87
392.861	4.18
393.226	4.17
393.591	4.2
393.956	4.41
394.32	4.29
394.685	4.12
395.05	4.6
395.414	3.99
395.779	4.3
396.143	4.41
396.508	3.92
396.872	4.26
397.236	4.24
397.601	4.1
397.965	4.11
398.329	4.25
398.694	4.21
399.058	4.45
399.422	4.21
399.786	4.26
400.15	4.43
400.514	4.21
400.878	4.52
401.242	4.13
401.605	4.06
401.969	4.16
402.333	4.33
402.697	4.13
403.06	4.54
403.424	4.19
403.787	4.25
404.151	4.19
404.514	4.1
404.878	4.33
405.241	4.18
405.604	4.42
405.968	4.3
406.331	4.32
406.694	4.26
407.057	4.19
407.42	4.17
407.783	4.25
408.146	4.6
408.509	4.28
408.872	4.27
409.235	4.29
409.598	4.15
409.961	4.17
410.323	4.48
410.686	4.51
411.049	4.3
411.411	4.19
411.774	4.28
412.136	4.09
412.499	4.2
412.861	4.34
413.223	4.21
413.586	4.23
413.948	4.33
414.31	4.45
414.672	4.16
415.035	4.52
415.397	4.11
415.759	4.43
416.121	4.35
416.483	4.32
416.845	4.52
417.206	4.54
417.568	4.41
417.93	4.48
418.292	4.31
418.653	4.27
419.015	4.25
419.377	4.32
419.738	4.21
420.1	4.34
420.461	4.45
420.822	4.26
421.184	4.34
421.545	4.39
421.906	4.22
422.267	4.27
422.629	4.26
422.99	4.18
423.351	4.29
423.712	4.29
424.073	4.33
424.434	4.32
424.795	4.29
425.155	4.38
425.516	4.32
425.877	4.18
426.238	4.19
426.598	4.33
426.959	4.27
427.32	4.22
427.68	4.3
428.041	4.23
428.401	4.26
428.761	4.56
429.122	4.42
429.482	4.38
429.842	4.3
430.202	4.44
430.563	4.39
430.923	4.43
431.283	4.63
431.643	4.59
432.003	4.53
432.363	4.62
432.722	4.55
433.082	4.54
433.442	4.49
433.802	4.41
434.161	4.35
434.521	4.46
434.881	4.42
435.24	4.43
435.6	4.42
435.959	4.44
436.319	4.33
436.678	4.45
437.037	4.33
437.396	4.41
437.756	4.47
438.115	4.28
438.474	4.49
438.833	4.31
439.192	4.39
439.551	4.47
439.91	4.43
440.269	4.57
440.628	4.48
440.987	4.51
441.345	4.4
441.704	4.45
442.063	4.49
442.421	4.41
442.78	4.35
443.138	4.43
443.497	4.42
443.855	4.49
444.214	4.38
444.572	4.47
444.93	4.48
445.288	4.26
445.647	4.46
446.005	4.36
446.363	4.42
446.721	4.49
447.079	4.35
447.437	4.4
447.795	4.41
448.153	4.43
448.51	4.36
448.868	4.39
449.226	4.45
449.584	4.38
449.941	4.35
450.299	4.43
450.656	4.55
451.014	4.54
451.371	4.5
451.729	4.55
452.086	4.33
452.443	4.41
452.801	4.56
453.158	4.62
453.515	4.43
453.872	4.47
454.229	4.47
454.586	4.42
454.943	4.41
455.3	4.65
455.657	4.46
456.014	4.55
456.371	4.45
456.727	4.67
457.084	4.67
457.441	4.53
457.797	4.55
458.154	4.47
458.51	4.49
458.867	4.45
459.223	4.44
459.58	4.59
459.936	4.51
460.292	4.64
460.648	4.49
461.005	4.48
461.361	4.37
461.717	4.43
462.073	4.45
462.429	4.54
462.785	4.63
463.141	4.48
463.496	4.61
463.852	4.49
464.208	4.55
464.564	4.66
464.919	4.63
465.275	4.75
465.631	4.55
465.986	4.62
466.342	4.75
466.697	4.7
467.052	4.5
467.408	4.53
467.763	4.65
468.118	4.36
468.473	4.55
468.829	4.57
469.184	4.57
469.539	4.52
469.894	4.62
470.249	4.61
470.603	4.74
470.958	4.46
471.313	4.65
471.668	4.71
472.023	4.73
472.377	4.69
472.732	4.75
473.086	4.5
473.441	4.43
473.795	4.56
474.15	4.63
474.504	4.76
474.859	4.61
475.213	4.85
475.567	4.34
475.921	4.76
476.275	4.69
476.63	4.71
476.984	4.59
477.338	4.63
477.692	4.64
478.045	4.72
478.399	4.68
478.753	4.54
479.107	4.69
479.461	4.69
479.814	4.69
480.168	4.58
480.521	4.65
480.875	4.66
481.228	4.55
481.582	4.66
481.935	4.68
482.289	4.81
482.642	4.71
482.995	4.53
483.348	4.67
483.701	4.61
484.055	4.58
484.408	4.73
484.761	4.57
485.114	4.39
485.466	4.36
485.819	4.43
486.172	4.41
486.525	4.5
486.878	4.49
487.23	4.55
487.583	4.56
487.936	4.54
488.288	4.57
488.641	4.51
488.993	4.55
489.345	4.46
489.698	4.5
490.05	4.51
490.402	4.61
490.754	4.63
491.107	4.62
491.459	4.69
491.811	4.69
492.163	4.69
492.515	4.63
492.866	4.64
493.218	4.54
493.57	4.5
493.922	4.61
494.274	4.6
494.625	4.63
494.977	4.73
495.328	4.67
495.68	4.75
496.031	4.71
496.383	4.75
496.734	4.81
497.086	4.73
497.437	4.85
497.788	4.87
498.139	4.72
498.49	4.8
498.842	4.89
499.193	4.76
499.544	4.77
499.894	4.72
500.245	4.75
500.596	4.84
500.947	4.82
501.298	4.79
501.648	4.91
501.999	4.98
502.35	4.78
502.7	4.92
503.051	4.86
503.401	4.81
503.752	4.82
504.102	5.03
504.452	4.78
504.803	4.91
505.153	4.93
505.503	4.79
505.853	4.92
506.203	5.04
506.553	4.9
506.903	4.9
507.253	4.95
507.603	4.93
507.953	5
508.303	4.84
508.652	4.9
509.002	4.96
509.352	4.9
509.701	4.87
510.051	4.92
510.4	4.9
510.75	4.98
511.099	4.93
511.449	4.86
511.798	4.88
512.147	4.87
512.496	4.97
512.846	4.82
513.195	4.94
513.544	5.01
513.893	4.96
514.242	4.9
514.591	4.94
514.939	5.05
515.288	5.06
515.637	5.04
515.986	4.93
516.334	4.96
516.683	5.07
517.032	5.17
517.38	5.18
517.729	5.14
518.077	5.08
518.426	5.12
518.774	5.24
519.122	5.18
519.47	4.96
519.819	5.03
520.167	5.01
520.515	4.89
520.863	5.05
521.211	5.06
521.559	5.05
521.907	5.13
522.255	5.09
522.602	5.1
522.95	5.2
523.298	5.2
523.645	5.21
523.993	5.18
524.341	5.26
524.688	5.21
525.036	5.23
525.383	5.29
525.73	5.26
526.078	5.21
526.425	5.18
526.772	5.14
527.119	5.06
527.466	5.14
527.814	5.23
528.161	5.17
528.508	5.19
528.854	5.19
529.201	5.15
529.548	5.03
529.895	5.08
530.242	5.08
530.588	5.09
530.935	5.08
531.282	5.14
531.628	5.16
531.975	5.12
532.321	5.23
532.667	5.31
533.014	5.47
533.36	5.3
533.706	5.28
534.052	5.36
534.399	5.31
534.745	5.2
535.091	5.17
535.437	5.2
535.783	5.31
536.129	5.32
536.474	5.37
536.82	5.3
537.166	5.41
537.512	5.45
537.857	5.44
538.203	5.26
538.549	5.33
538.894	5.32
539.239	5.48
539.585	5.49
539.93	5.38
540.276	5.62
540.621	5.73
540.966	5.65
541.311	5.59
541.656	5.59
542.001	5.57
542.346	5.52
542.691	5.48
543.036	5.35
543.381	5.38
543.726	5.42
544.071	5.51
544.415	5.49
544.76	5.61
545.105	5.64
545.449	5.61
545.794	5.63
546.138	5.63
546.483	5.75
546.827	5.77
547.171	5.69
547.516	5.68
547.86	5.7
548.204	5.71
548.548	5.68
548.892	5.71
549.236	5.78
549.58	5.85
549.924	5.99
550.268	5.89
550.612	5.94
550.956	5.75
551.3	5.92
551.643	6.03
551.987	6.07
552.33	6
552.674	5.86
553.017	5.96
553.361	6.06
553.704	6.07
554.048	6.03
554.391	6.06
554.734	6.04
555.077	6.07
555.42	6.08
555.764	6.16
556.107	6.18
556.45	6.1
556.793	6.3
557.135	6.31
557.478	6.27
557.821	6.03
558.164	6.37
558.507	6.23
558.849	6.15
559.192	6.24
559.534	6.43
559.877	6.2
560.219	6.15
560.562	6.3
560.904	6.39
561.246	6.39
561.589	6.36
561.931	6.42
562.273	6.54
562.615	6.43
562.957	6.58
563.299	6.59
563.641	6.34
563.983	6.6
564.325	6.38
564.667	6.37
565.008	6.52
565.35	6.54
565.692	6.59
566.033	6.57
566.375	6.53
566.716	6.44
567.058	6.64
567.399	6.66
567.741	6.51
568.082	6.79
568.423	6.56
568.764	6.65
569.105	6.74
569.447	6.73
569.788	6.81
570.129	6.85
570.47	6.86
570.811	6.93
571.151	6.89
571.492	6.84
571.833	6.99
572.174	7.02
572.514	6.91
572.855	6.89
573.195	6.94
573.536	6.83
573.876	6.99
574.217	7
574.557	6.98
574.898	7.02
575.238	6.98
575.578	7.02
575.918	7.2
576.258	7.17
576.598	7.03
576.938	7.15
577.278	7.14
577.618	7.24
577.958	7.29
578.298	7.05
578.638	7.18
578.977	7.38
579.317	7.37
579.657	7.23
579.996	7.31
580.336	7.45
580.675	7.33
581.014	7.54
581.354	7.56
581.693	7.32
582.032	7.53
582.372	7.38
582.711	7.72
583.05	7.61
583.389	7.42
583.728	7.82
584.067	7.71
584.406	7.69
584.745	7.57
585.083	7.45
585.422	7.9
585.761	7.7
586.1	7.51
586.438	7.91
586.777	7.67
587.115	7.75
587.454	7.83
587.792	7.72
588.13	7.89
588.469	7.81
588.807	7.77
589.145	8.02
589.483	8.1
589.821	7.95
590.159	7.99
590.497	7.92
590.835	8.13
591.173	8.13
591.511	8.14
591.849	8.22
592.187	8.14
592.524	7.95
592.862	8.22
593.2	7.99
593.537	8.13
593.875	8.35
594.212	8.35
594.55	8.15
594.887	8.45
595.224	8.41
595.561	8.24
595.899	8.36
596.236	8.58
596.573	8.42
596.91	8.48
597.247	8.46
597.584	8.56
597.921	8.64
598.258	8.4
598.594	8.39
598.931	8.59
599.268	8.61
599.604	8.44
599.941	8.7
600.277	8.76
600.614	8.78
600.95	8.68
601.287	8.78
601.623	8.8
601.959	8.85
602.296	8.74
602.632	8.99
602.968	8.91
603.304	8.94
603.64	8.92
603.976	9.17
604.312	9.14
604.648	9.09
604.984	9.02
605.319	9.21
605.655	9.17
605.991	9.07
606.326	9.22
606.662	9.28
606.998	9.17
607.333	9.07
607.668	9.25
608.004	9.18
608.339	9.21
608.674	9.25
609.01	9.15
609.345	9.4
609.68	9.46
610.015	9.42
610.35	9.59
610.685	9.54
611.02	9.42
611.355	9.58
611.689	9.6
612.024	9.64
612.359	9.53
612.694	9.68
613.028	9.58
613.363	9.7
613.697	9.64
614.032	9.84
614.366	9.55
614.7	9.8
615.035	9.69
615.369	9.61
615.703	9.83
616.037	10.06
616.371	10.03
616.705	10.1
617.039	10.27
617.373	10.2
617.707	10.01
618.041	10.12
618.375	10.2
618.709	9.98
619.042	10.19
619.376	10.23
619.71	10.3
620.043	10.21
620.377	10.45
620.71	10.78
621.043	10.32
621.377	10.39
621.71	10.28
622.043	10.21
622.376	10.41
622.709	10.15
623.043	10.32
623.376	10.42
623.709	10.47
624.041	10.89
624.374	10.87
624.707	10.61
625.04	10.73
625.373	10.6
625.705	10.95
626.038	11.01
626.37	10.79
626.703	10.59
627.035	10.94
627.368	11.07
627.7	10.95
628.032	10.98
628.365	10.95
628.697	10.78
629.029	11.28
629.361	11.07
629.693	11.22
630.025	11.09
630.357	11.35
630.689	11.19
631.021	11.22
631.353	11.37
631.684	11.1
632.016	11.15
632.348	11.43
632.679	11.28
633.011	11.4
633.342	11.23
633.674	11.45
634.005	11.29
634.336	11.5
634.668	11.52
634.999	11.14
635.33	11.3
635.661	11.72
635.992	11.44
636.323	11.44
636.654	11.54
636.985	12.09
637.316	11.7
637.647	11.74
637.977	11.97
638.308	11.97
638.639	12.12
638.969	11.85
639.3	12.01
639.63	11.94
639.961	12.16
640.291	11.99
640.622	11.85
640.952	12.22
641.282	12.39
641.612	11.93
641.943	12.07
642.273	12.1
642.603	12.72
642.933	12.26
643.263	12.26
643.592	12.02
643.922	12.01
644.252	12.19
644.582	12.2
644.911	12.73
645.241	12.33
645.571	12.6
645.9	12.92
646.23	12.53
646.559	12.13
646.888	12.67
647.218	12.86
647.547	12.73
647.876	13.03
648.205	12.45
648.534	12.83
648.863	12.98
649.192	12.84
649.521	12.84
649.85	13.21
650.179	12.68
650.508	13.02
650.837	13.17
651.165	12.97
651.494	13.06
651.822	12.7
652.151	13.03
652.479	13.03
652.808	13.42
653.136	13.2
653.465	13.32
653.793	13.22
654.121	13.19
654.449	13.1
654.777	13.37
655.105	13.66
655.433	13.23
655.761	13.41
656.089	13.47
656.417	13.8
656.745	13.35
657.073	13.57
657.4	13.28
657.728	13.9
658.056	13.14
658.383	13.68
658.711	14.15
659.038	13.85
659.365	13.91
659.693	13.75
660.02	13.72
660.347	13.93
660.674	14.12
661.001	13.98
661.329	13.77
661.656	14
661.982	14.35
662.309	14.21
662.636	14.09
662.963	14.16
663.29	14.46
663.616	14.37
663.943	14.85
664.27	13.96
664.596	14.18
664.923	13.97
665.249	14.59
665.576	15.08
665.902	14.94
666.228	14.12
666.554	15.09
666.881	14.98
667.207	14.99
667.533	14.33
667.859	14.58
668.185	14.93
668.511	14.37
668.837	14.74
669.162	15.02
669.488	15.72
669.814	14.84
670.139	14.78
670.465	15.25
670.791	15.25
671.116	14.73
671.442	15.09
671.767	14.98
672.092	15.28
672.418	15.31
672.743	15.09
673.068	15.73
673.393	14.2
673.718	15.47
674.043	14.81
674.368	15.57
674.693	16.26
675.018	15.58
675.343	15.33
675.667	15.2
675.992	15.35
676.317	16.06
676.641	14.92
676.966	15.7
677.29	15.1
677.615	15.39
677.939	15.54
678.264	15.92
678.588	15.48
678.912	15.28
679.236	15.57
679.56	16.25
679.885	15.42
680.209	15.58
680.532	17.01
680.856	15.77
681.18	16.16
681.504	16.11
681.828	16.12
682.152	15.98
682.475	16.47
682.799	16.29
683.122	16.1
683.446	16.6
683.769	16.23
684.093	16.1
684.416	16.26
684.739	16.25
685.062	16.8
685.386	16.29
685.709	16.41
686.032	16.69
686.355	16.52
686.678	16.83
687.001	16.71
687.324	16.32
687.646	16.88
687.969	16.87
