Data from 815658_forehead_Reflection__5__93.txt Node

Date: Fri Sep 16 15:21:01 CDT 2022
User: ToomeyLab
Spectrometer: FLMS14357
Trigger mode: 0
Integration Time (sec): 1.000000E-2
Scans to average: 100
Electric dark correction enabled: true
Nonlinearity correction enabled: false
Boxcar width: 0
XAxis mode: Wavelengths
Number of Pixels in Spectrum: 2048
>>>>>Begin Spectral Data<<<<<
189.047	-58.7
189.435	-58.7
189.823	-58.7
190.211	29.89
190.599	362.36
190.987	86.75
191.375	102.26
191.763	108.19
192.151	-220.82
192.538	-51.4
192.926	47.85
193.314	108.85
193.702	118.55
194.089	72.65
194.477	106.39
194.864	398.61
195.252	97.01
195.639	1926.28
196.027	114.66
196.414	96.23
196.801	-52.61
197.189	17.58
197.576	108.45
197.963	-25.59
198.351	9.11
198.738	35.46
199.125	93.09
199.512	-16.02
199.899	35.98
200.286	25.75
200.673	21.48
201.06	44.64
201.447	64.54
201.833	-3.61
202.22	40.18
202.607	4.76
202.994	13.28
203.38	28.93
203.767	26.47
204.154	22.8
204.54	11.57
204.927	29.05
205.313	37.92
205.699	58.05
206.086	49.16
206.472	48.83
206.858	12.73
207.245	3.95
207.631	67.61
208.017	50.73
208.403	26.91
208.789	-4.89
209.175	23.58
209.561	41.24
209.947	14.07
210.333	19.61
210.719	21.45
211.105	31.06
211.491	39.85
211.876	34.59
212.262	52.82
212.648	-8.03
213.034	33.2
213.419	46.12
213.805	34.92
214.19	42.45
214.576	31.91
214.961	19.37
215.346	24.04
215.732	-40.24
216.117	45.07
216.502	7.94
216.888	13.59
217.273	35.56
217.658	28.71
218.043	-24.2
218.428	5.94
218.813	23.27
219.198	31.48
219.583	26.2
219.968	13.67
220.353	0.51
220.738	18.46
221.122	20.97
221.507	31.66
221.892	17.2
222.276	25.49
222.661	30.45
223.046	18.13
223.43	16.15
223.815	4.69
224.199	4.96
224.583	13.74
224.968	12.91
225.352	0.36
225.736	12.14
226.121	10.09
226.505	15.18
226.889	11.6
227.273	12.83
227.657	13.29
228.041	8.25
228.425	3.59
228.809	9.2
229.193	8.59
229.577	5.72
229.961	5.68
230.344	5.67
230.728	5.08
231.112	5.14
231.495	5.55
231.879	5.78
232.263	5.89
232.646	4.34
233.03	5.05
233.413	7.61
233.797	5.11
234.18	7.79
234.563	3.31
234.946	7.13
235.33	6.59
235.713	6.2
236.096	5.11
236.479	4.96
236.862	5.49
237.245	5.2
237.628	7.01
238.011	6.93
238.394	5.54
238.777	6.15
239.16	4
239.543	5.17
239.925	5.97
240.308	5.04
240.691	7.28
241.073	6.74
241.456	5.05
241.838	4.58
242.221	4.54
242.603	5.68
242.986	4.35
243.368	4.55
243.75	4.55
244.133	4.71
244.515	4.56
244.897	5.06
245.279	5.25
245.661	4.45
246.043	5.33
246.425	5.28
246.807	5.22
247.189	4.84
247.571	4.14
247.953	4.26
248.335	4.42
248.717	4.48
249.098	4.36
249.48	4.41
249.862	4.49
250.243	4.83
250.625	4.99
251.006	4.67
251.388	5.6
251.769	3.79
252.151	4.23
252.532	3.69
252.913	4.5
253.295	5.05
253.676	5.02
254.057	4.2
254.438	4.35
254.819	4.38
255.2	3.87
255.581	4.66
255.962	4.78
256.343	4.42
256.724	4.58
257.105	4.19
257.486	5.62
257.867	4.58
258.247	6.04
258.628	4.7
259.009	5.22
259.389	4.83
259.77	4.1
260.15	4.78
260.531	4.47
260.911	4.2
261.292	4.13
261.672	4.43
262.052	4.27
262.432	4.63
262.813	5.07
263.193	5.03
263.573	5.18
263.953	5.04
264.333	4.6
264.713	4.73
265.093	4.4
265.473	4.06
265.853	4.49
266.233	4.33
266.612	5.76
266.992	4.22
267.372	4.33
267.752	3.93
268.131	4.94
268.511	5.18
268.89	4.93
269.27	4.61
269.649	4.63
270.029	4.34
270.408	5.13
270.787	4.7
271.167	4.54
271.546	4.91
271.925	4.82
272.304	4.97
272.683	3.88
273.062	4.33
273.441	4.88
273.82	4.58
274.199	4.48
274.578	4.53
274.957	4.83
275.336	4.5
275.715	4.42
276.093	4.3
276.472	4.55
276.851	4.28
277.229	4.49
277.608	4.9
277.986	4.13
278.365	4
278.743	4.35
279.122	4.21
279.5	4.1
279.878	4.71
280.257	4.42
280.635	5.03
281.013	4.71
281.391	5.26
281.769	5.15
282.147	4.58
282.525	4.16
282.903	4.28
283.281	4.46
283.659	4.93
284.037	4.58
284.415	5.03
284.792	4.87
285.17	4.79
285.548	4.17
285.925	4.05
286.303	4.91
286.68	4.39
287.058	4.01
287.435	4.31
287.813	4.54
288.19	4.3
288.567	4.36
288.945	4.68
289.322	4.83
289.699	4.49
290.076	4.36
290.453	5.09
290.83	4.73
291.207	4.67
291.584	4.04
291.961	4.65
292.338	4.51
292.715	4.47
293.092	4.65
293.469	4.59
293.845	4.85
294.222	4.51
294.599	4.88
294.975	4.71
295.352	4.82
295.728	4.55
296.105	4.98
296.481	4.51
296.858	4.91
297.234	4.57
297.61	5.23
297.986	5.16
298.363	4.75
298.739	4.73
299.115	4.9
299.491	5.11
299.867	5.04
300.243	4.95
300.619	4.93
300.995	4.84
301.371	4.95
301.746	4.85
302.122	5.41
302.498	5.12
302.874	5.11
303.249	5.49
303.625	5.01
304	5.25
304.376	4.77
304.751	5.24
305.127	4.85
305.502	5.32
305.878	5.33
306.253	5.51
306.628	5.14
307.003	5.61
307.378	5.91
307.754	5.82
308.129	6.18
308.504	6.14
308.879	6.09
309.254	5.8
309.629	5.28
310.003	5.69
310.378	5.62
310.753	5.6
311.128	5.74
311.502	5.61
311.877	6.05
312.252	5.89
312.626	5.87
313.001	5.38
313.375	5.81
313.75	5.85
314.124	5.7
314.498	5.71
314.873	6.62
315.247	6.14
315.621	6.05
315.995	6.24
316.369	6.26
316.743	6.61
317.117	6.37
317.491	6.15
317.865	6.28
318.239	6.39
318.613	6.09
318.987	5.98
319.361	6.41
319.734	6.43
320.108	6.03
320.482	6.92
320.855	6.75
321.229	6.41
321.602	6.98
321.976	6.54
322.349	6.71
322.723	6.31
323.096	6.74
323.469	6.65
323.843	7.25
324.216	7.08
324.589	7.05
324.962	6.69
325.335	7.35
325.708	7.06
326.081	7.16
326.454	6.81
326.827	6.78
327.2	6.94
327.573	6.7
327.945	7.08
328.318	7.13
328.691	7.53
329.063	7.49
329.436	7.03
329.809	7.21
330.181	7.73
330.553	7.67
330.926	7.71
331.298	7.74
331.671	7.14
332.043	7.68
332.415	7.02
332.787	7.67
333.159	7.51
333.532	7.92
333.904	7.32
334.276	7.71
334.648	7.32
335.02	8.03
335.391	7.66
335.763	7.83
336.135	7.45
336.507	7.99
336.879	8.04
337.25	7.36
337.622	8.24
337.993	8.37
338.365	7.94
338.736	8.45
339.108	8.05
339.479	8.35
339.851	8.29
340.222	8.53
340.593	8.6
340.964	8.58
341.336	8.45
341.707	8.45
342.078	8.6
342.449	8.71
342.82	8.31
343.191	8.4
343.562	8.73
343.933	8.89
344.303	8.7
344.674	8.33
345.045	9.19
345.416	8.49
345.786	9.1
346.157	8.75
346.527	8.83
346.898	8.83
347.268	9.01
347.639	8.81
348.009	8.89
348.38	9.01
348.75	8.8
349.12	9.41
349.49	9.16
349.861	9.19
350.231	9.38
350.601	9.67
350.971	9.21
351.341	9.65
351.711	9.26
352.081	9.38
352.45	9.74
352.82	9.81
353.19	9.62
353.56	10.02
353.929	9.66
354.299	9.89
354.669	9.72
355.038	9.43
355.408	9.93
355.777	9.78
356.147	9.88
356.516	9.78
356.885	10.15
357.254	10.15
357.624	9.88
357.993	10.13
358.362	10.24
358.731	9.9
359.1	10.21
359.469	10.38
359.838	10.23
360.207	10.53
360.576	10.52
360.945	10.34
361.314	10.33
361.682	10.18
362.051	10.36
362.42	10.59
362.788	10.82
363.157	10.5
363.525	10.59
363.894	10.9
364.262	10.81
364.631	10.93
364.999	10.99
365.367	10.71
365.735	10.97
366.104	11.14
366.472	11.36
366.84	11.1
367.208	11.32
367.576	11.36
367.944	11.12
368.312	11.21
368.68	11.38
369.048	11.74
369.416	11.67
369.783	11.43
370.151	11.62
370.519	11.62
370.886	11.62
371.254	11.47
371.621	11.76
371.989	11.72
372.356	12.19
372.724	11.92
373.091	12.1
373.458	11.55
373.826	12.07
374.193	12.49
374.56	12.03
374.927	12.03
375.294	12.18
375.661	12.41
376.028	12.85
376.395	12.14
376.762	12.7
377.129	12.14
377.496	12.44
377.863	12.48
378.229	12.83
378.596	12.73
378.963	12.73
379.329	12.46
379.696	12.86
380.062	12.84
380.429	12.88
380.795	13.19
381.161	13.31
381.528	13.19
381.894	13.33
382.26	13.13
382.626	13.01
382.993	13.4
383.359	13.48
383.725	13.36
384.091	13.57
384.457	13.2
384.823	13.72
385.188	13.43
385.554	13.44
385.92	13.64
386.286	13.75
386.651	13.8
387.017	13.86
387.383	13.65
387.748	13.72
388.114	13.55
388.479	14.03
388.845	13.89
389.21	14.68
389.575	14.18
389.94	14.3
390.306	14.3
390.671	14.36
391.036	14.5
391.401	14.44
391.766	14.34
392.131	14.77
392.496	14.4
392.861	14.71
393.226	14.58
393.591	14.54
393.956	14.72
394.32	15.29
394.685	14.97
395.05	15.27
395.414	14.77
395.779	14.99
396.143	15.11
396.508	15.12
396.872	15.23
397.236	15.2
397.601	15.07
397.965	15.15
398.329	15.48
398.694	15.55
399.058	15.51
399.422	15.73
399.786	15.64
400.15	15.73
400.514	15.44
400.878	15.87
401.242	15.71
401.605	15.71
401.969	15.78
402.333	16.12
402.697	15.95
403.06	16.42
403.424	16.46
403.787	16.05
404.151	16.49
404.514	16.17
404.878	16.32
405.241	16.34
405.604	16.36
405.968	16.6
406.331	16.45
406.694	16.6
407.057	16.8
407.42	16.53
407.783	16.97
408.146	17.14
408.509	16.84
408.872	16.96
409.235	16.98
409.598	17.18
409.961	17.38
410.323	17.5
410.686	17.5
411.049	17.4
411.411	17.15
411.774	17.37
412.136	17.16
412.499	17.6
412.861	17.7
413.223	17.64
413.586	18.01
413.948	17.94
414.31	17.91
414.672	17.9
415.035	18.27
415.397	17.76
415.759	18.17
416.121	18.1
416.483	18.2
416.845	18.36
417.206	18.14
417.568	18.3
417.93	18.4
418.292	18.42
418.653	18.37
419.015	18.28
419.377	18.43
419.738	18.35
420.1	18.55
420.461	18.37
420.822	18.53
421.184	18.49
421.545	18.48
421.906	18.58
422.267	18.58
422.629	18.42
422.99	18.46
423.351	18.58
423.712	18.68
424.073	18.97
424.434	19.15
424.795	19.03
425.155	19.11
425.516	18.97
425.877	18.92
426.238	19.13
426.598	19.1
426.959	19.24
427.32	19.39
427.68	19.51
428.041	19.58
428.401	19.83
428.761	20.03
429.122	19.82
429.482	20.08
429.842	20.08
430.202	20.22
430.563	20.18
430.923	20.51
431.283	20.48
431.643	20.42
432.003	20.48
432.363	20.68
432.722	20.99
433.082	20.65
433.442	20.71
433.802	20.68
434.161	20.79
434.521	20.84
434.881	20.8
435.24	20.89
435.6	20.82
435.959	21.09
436.319	21.14
436.678	21.16
437.037	21.44
437.396	21.48
437.756	21.58
438.115	21.49
438.474	21.54
438.833	21.42
439.192	21.69
439.551	21.55
439.91	21.87
440.269	21.63
440.628	21.64
440.987	21.8
441.345	21.76
441.704	21.79
442.063	21.87
442.421	21.67
442.78	21.82
443.138	22.06
443.497	22.15
443.855	22.13
444.214	22.26
444.572	22.67
444.93	22.52
445.288	22.53
445.647	22.65
446.005	22.64
446.363	22.53
446.721	22.7
447.079	22.57
447.437	22.58
447.795	22.57
448.153	22.58
448.51	22.57
448.868	22.59
449.226	22.83
449.584	22.87
449.941	23.1
450.299	23.2
450.656	23.31
451.014	23.35
451.371	23.51
451.729	23.65
452.086	23.6
452.443	23.8
452.801	23.97
453.158	24.04
453.515	23.88
453.872	23.98
454.229	23.94
454.586	23.99
454.943	24.13
455.3	24.26
455.657	24.06
456.014	24.29
456.371	24.45
456.727	24.49
457.084	24.51
457.441	24.67
457.797	24.58
458.154	24.67
458.51	24.71
458.867	25.1
459.223	24.83
459.58	24.97
459.936	24.83
460.292	24.95
460.648	24.84
461.005	24.71
461.361	24.56
461.717	24.63
462.073	24.92
462.429	24.97
462.785	25.27
463.141	25.4
463.496	25.23
463.852	25.67
464.208	25.73
464.564	25.81
464.919	25.75
465.275	25.99
465.631	26.19
465.986	25.97
466.342	26.09
466.697	26.18
467.052	26.39
467.408	26.39
467.763	26.25
468.118	26.18
468.473	26.31
468.829	26.4
469.184	26.47
469.539	26.55
469.894	26.69
470.249	26.69
470.603	26.67
470.958	26.85
471.313	26.78
471.668	26.79
472.023	26.87
472.377	27.15
472.732	27.15
473.086	27.06
473.441	27.33
473.795	27.28
474.15	27.41
474.504	27.27
474.859	27.5
475.213	27.54
475.567	27.44
475.921	27.71
476.275	27.79
476.63	27.77
476.984	27.89
477.338	28.08
477.692	27.96
478.045	27.81
478.399	27.84
478.753	27.91
479.107	27.88
479.461	27.96
479.814	28.16
480.168	28.18
480.521	28.15
480.875	28.23
481.228	28.29
481.582	28.58
481.935	28.46
482.289	28.52
482.642	28.53
482.995	28.43
483.348	28.37
483.701	28.29
484.055	28.36
484.408	28.22
484.761	27.87
485.114	27.54
485.466	27.4
485.819	27.69
486.172	27.89
486.525	28.13
486.878	28.35
487.23	28.47
487.583	28.6
487.936	28.57
488.288	28.62
488.641	28.35
488.993	28.37
489.345	28.39
489.698	28.45
490.05	28.57
490.402	28.79
490.754	29.25
491.107	29.26
491.459	29.46
491.811	29.68
492.163	29.58
492.515	29.5
492.866	29.18
493.218	28.93
493.57	29.06
493.922	29.46
494.274	29.7
494.625	29.85
494.977	30.01
495.328	30.21
495.68	30.51
496.031	30.62
496.383	30.79
496.734	30.83
497.086	30.91
497.437	30.8
497.788	30.84
498.139	30.81
498.49	30.81
498.842	30.83
499.193	30.99
499.544	30.9
499.894	31.14
500.245	31.29
500.596	31.39
500.947	31.44
501.298	31.5
501.648	31.77
501.999	31.84
502.35	31.92
502.7	32
503.051	32.11
503.401	31.99
503.752	32.12
504.102	32.25
504.452	32.28
504.803	32.35
505.153	32.28
505.503	32.36
505.853	32.18
506.203	32.52
506.553	32.53
506.903	32.7
507.253	32.69
507.603	32.65
507.953	32.77
508.303	32.87
508.652	32.97
509.002	32.89
509.352	32.91
509.701	33.03
510.051	32.91
510.4	32.9
510.75	32.69
511.099	32.81
511.449	32.99
511.798	33.09
512.147	33.21
512.496	33.35
512.846	33.36
513.195	33.27
513.544	33.41
513.893	33.35
514.242	33.45
514.591	33.61
514.939	33.63
515.288	33.92
515.637	33.92
515.986	33.93
516.334	33.98
516.683	34.21
517.032	34.31
517.38	34.4
517.729	34.51
518.077	34.42
518.426	34.46
518.774	34.36
519.122	34.44
519.47	34.28
519.819	34.2
520.167	34.08
520.515	34.13
520.863	34.36
521.211	34.44
521.559	34.37
521.907	34.7
522.255	34.63
522.602	35.05
522.95	35.09
523.298	35.25
523.645	35.22
523.993	35.27
524.341	35.25
524.688	35.38
525.036	35.5
525.383	35.63
525.73	35.64
526.078	35.5
526.425	35.42
526.772	35.4
527.119	35.17
527.466	35.07
527.814	35.32
528.161	35.38
528.508	35.53
528.854	35.46
529.201	35.4
529.548	35.18
529.895	34.99
530.242	34.87
530.588	35.14
530.935	35.21
531.282	35.38
531.628	35.5
531.975	35.68
532.321	35.96
532.667	36.1
533.014	36.28
533.36	36.31
533.706	36.36
534.052	36.31
534.399	36.24
534.745	35.97
535.091	35.91
535.437	36.13
535.783	36.31
536.129	36.62
536.474	36.79
536.82	36.83
537.166	36.94
537.512	37.12
537.857	37.05
538.203	36.96
538.549	36.85
538.894	37.12
539.239	37.38
539.585	37.45
539.93	37.69
540.276	37.9
540.621	37.96
540.966	37.97
541.311	38.13
541.656	37.97
542.001	37.79
542.346	37.51
542.691	37.26
543.036	37.13
543.381	37.1
543.726	37.46
544.071	37.69
544.415	37.62
544.76	37.83
545.105	38.05
545.449	38.28
545.794	38.33
546.138	38.43
546.483	38.69
546.827	38.74
547.171	38.89
547.516	38.75
547.86	38.74
548.204	38.76
548.548	38.6
548.892	38.85
549.236	38.97
549.58	39.36
549.924	39.62
550.268	39.53
550.612	39.68
550.956	39.96
551.3	39.99
551.643	40.09
551.987	40.45
552.33	40.06
552.674	40.18
553.017	40.45
553.361	40.42
553.704	40.29
554.048	40.31
554.391	40.4
554.734	40.12
555.077	40.57
555.42	40.59
555.764	40.48
556.107	40.83
556.45	40.97
556.793	41.18
557.135	41.26
557.478	41.12
557.821	40.99
558.164	41.18
558.507	41.36
558.849	41.29
559.192	41.36
559.534	41.49
559.877	41.57
560.219	41.63
560.562	41.55
560.904	41.75
561.246	41.92
561.589	41.78
561.931	41.7
562.273	41.73
562.615	41.59
562.957	42.05
563.299	42.11
563.641	41.92
563.983	42.03
564.325	42.24
564.667	42.21
565.008	42.28
565.35	42.57
565.692	42.22
566.033	42.57
566.375	42.54
566.716	42.53
567.058	42.54
567.399	42.69
567.741	42.36
568.082	42.59
568.423	42.22
568.764	42.63
569.105	42.79
569.447	42.87
569.788	43
570.129	42.81
570.47	43.11
570.811	43.35
571.151	43.27
571.492	43.19
571.833	43.44
572.174	43.63
572.514	43.45
572.855	43.47
573.195	43.57
573.536	43.3
573.876	43.42
574.217	43.42
574.557	43.62
574.898	43.81
575.238	44.02
575.578	43.7
575.918	43.86
576.258	43.86
576.598	43.97
576.938	43.92
577.278	44.02
577.618	44.13
577.958	44.19
578.298	44.34
578.638	44.33
578.977	44.48
579.317	44.34
579.657	44.4
579.996	44.59
580.336	44.86
580.675	45.08
581.014	45.29
581.354	44.94
581.693	45.16
582.032	45.24
582.372	45.55
582.711	45.63
583.05	45.74
583.389	45.23
583.728	45.47
584.067	45.35
584.406	45.6
584.745	45.88
585.083	46.13
585.422	45.79
585.761	45.77
586.1	45.62
586.438	46.4
586.777	45.96
587.115	46.16
587.454	46.21
587.792	46.15
588.13	46.78
588.469	46.2
588.807	46.49
589.145	46.29
589.483	46.34
589.821	46.65
590.159	46.34
590.497	46.52
590.835	46.66
591.173	46.64
591.511	46.67
591.849	46.65
592.187	46.81
592.524	46.6
592.862	46.75
593.2	46.96
593.537	46.97
593.875	47.09
594.212	47.31
594.55	47.13
594.887	47.24
595.224	47.12
595.561	47.46
595.899	47.19
596.236	47.25
596.573	47.24
596.91	47.2
597.247	47.43
597.584	47.25
597.921	47.72
598.258	46.98
598.594	46.88
598.931	47.31
599.268	47.61
599.604	47.42
599.941	47.71
600.277	47.67
600.614	47.85
600.95	48.07
601.287	47.94
601.623	48
601.959	48.27
602.296	48.14
602.632	48.46
602.968	48.45
603.304	48.45
603.64	48.56
603.976	48.84
604.312	48.68
604.648	48.41
604.984	48.4
605.319	48.58
605.655	48.55
605.991	48.4
606.326	48.39
606.662	48.47
606.998	48.82
607.333	48.35
607.668	48.8
608.004	48.91
608.339	49.42
608.674	49.1
609.01	49.06
609.345	49.21
609.68	49.12
610.015	49.3
610.35	49.75
610.685	49.35
611.02	49.39
611.355	49.42
611.689	49.41
612.024	49.24
612.359	49.58
612.694	49.74
613.028	49.48
613.363	49.89
613.697	50.17
614.032	49.91
614.366	49.72
614.7	50.05
615.035	50.55
615.369	50.42
615.703	50.61
616.037	50.88
616.371	50.56
616.705	50.54
617.039	50.42
617.373	51.02
617.707	50.87
618.041	51.19
618.375	50.99
618.709	51.11
619.042	50.92
619.376	51.36
619.71	50.99
620.043	50.91
620.377	51.37
620.71	51.22
621.043	51.16
621.377	51.2
621.71	51.48
622.043	51.35
622.376	51.36
622.709	51.34
623.043	52.1
623.376	50.75
623.709	51.55
624.041	51.94
624.374	51.78
624.707	51.62
625.04	52.12
625.373	51.86
625.705	52.12
626.038	52.35
626.37	51.92
626.703	51.96
627.035	51.52
627.368	52.26
627.7	52.03
628.032	51.87
628.365	52.16
628.697	52.11
629.029	52.21
629.361	52.21
629.693	52.4
630.025	52.58
630.357	52.31
630.689	52.13
631.021	52.27
631.353	52.67
631.684	52.95
632.016	52.7
632.348	52.61
632.679	52.53
633.011	53
633.342	52.83
633.674	53.43
634.005	52.92
634.336	53.27
634.668	53.17
634.999	53.03
635.33	52.89
635.661	53.41
635.992	52.91
636.323	53.07
636.654	53.59
636.985	53.4
637.316	53.54
637.647	53.62
637.977	53.42
638.308	53.76
638.639	53.65
638.969	53.39
639.3	53.96
639.63	53.79
639.961	53.68
640.291	53.9
640.622	53.84
640.952	53.72
641.282	53.83
641.612	54
641.943	53.8
642.273	54.36
642.603	54.25
642.933	53.98
643.263	54.24
643.592	54.26
643.922	54.3
644.252	54.6
644.582	54.47
644.911	54.24
645.241	54.31
645.571	54.76
645.9	54.69
646.23	53.76
646.559	54.35
646.888	54.59
647.218	55.33
647.547	55.03
647.876	55.07
648.205	55.07
648.534	55.05
648.863	55.38
649.192	54.89
649.521	54.66
649.85	55.61
650.179	54.74
650.508	55.59
650.837	55.94
651.165	55.23
651.494	55.65
651.822	55.18
652.151	55.38
652.479	55.96
652.808	56.41
653.136	55.77
653.465	55.97
653.793	55.64
654.121	55.8
654.449	55.18
654.777	56.02
655.105	55.94
655.433	55.99
655.761	56.26
656.089	55.5
656.417	55.87
656.745	56.3
657.073	55.8
657.4	56.05
657.728	56.43
658.056	56.14
658.383	56.49
658.711	56.47
659.038	56.39
659.365	56.45
659.693	56.72
660.02	56.27
660.347	56.12
660.674	56.49
661.001	55.93
661.329	56.23
661.656	56.52
661.982	56.18
662.309	56.8
662.636	56.47
662.963	56.72
663.29	56.76
663.616	56.62
663.943	57.6
664.27	56.51
664.596	57.36
664.923	56.77
665.249	57.35
665.576	57.56
665.902	57.1
666.228	57.05
666.554	57.62
666.881	57.79
667.207	57.48
667.533	57.33
667.859	57.03
668.185	57.57
668.511	57.44
668.837	57.45
669.162	57.45
669.488	57.58
669.814	58.33
670.139	57.51
670.465	57.98
670.791	58
671.116	57.34
671.442	57.86
