Data from 815658_chest_Reflection__3__75.txt Node

Date: Fri Sep 16 15:10:01 CDT 2022
User: ToomeyLab
Spectrometer: FLMS14357
Trigger mode: 0
Integration Time (sec): 1.000000E-2
Scans to average: 100
Electric dark correction enabled: true
Nonlinearity correction enabled: false
Boxcar width: 0
XAxis mode: Wavelengths
Number of Pixels in Spectrum: 2048
>>>>>Begin Spectral Data<<<<<
189.047	120.18
189.435	120.18
189.823	120.18
190.211	9.37
190.599	-308.91
190.987	91.31
191.375	94.75
191.763	4.36
192.151	180.7
192.538	-85.53
192.926	-19.27
193.314	101.29
193.702	81.95
194.089	39.39
194.477	155.48
194.864	108.48
195.252	122.67
195.639	2346.79
196.027	127.39
196.414	-5.92
196.801	34.8
197.189	-7.28
197.576	98.69
197.963	-23.04
198.351	-27.07
198.738	-9.02
199.125	7.29
199.512	-118.25
199.899	7.58
200.286	33.68
200.673	8.6
201.06	1.23
201.447	17.31
201.833	8.89
202.22	7.38
202.607	-85
202.994	15.62
203.38	3.95
203.767	49.25
204.154	11.39
204.54	4.52
204.927	-27.64
205.313	-4.64
205.699	29.96
206.086	28.36
206.472	23.64
206.858	-32.77
207.245	1.89
207.631	24.19
208.017	2.12
208.403	-39.06
208.789	-0.33
209.175	18.86
209.561	-19.18
209.947	8.7
210.333	-4.4
210.719	38.73
211.105	10.17
211.491	-5.79
211.876	17.36
212.262	3.11
212.648	-15.24
213.034	-20.49
213.419	17.19
213.805	-0.56
214.19	-2.8
214.576	-8.06
214.961	21.54
215.346	-63.97
215.732	-16.39
216.117	42.42
216.502	-18.12
216.888	-29.78
217.273	-0.35
217.658	-15.81
218.043	-33.9
218.428	-30.91
218.813	-8.54
219.198	-1.45
219.583	-3.18
219.968	10
220.353	3.87
220.738	11.97
221.122	-31.12
221.507	13.52
221.892	4.64
222.276	23.45
222.661	13.35
223.046	1.67
223.43	9.97
223.815	-6.09
224.199	7.3
224.583	4.22
224.968	-2.4
225.352	7.12
225.736	6.71
226.121	2.73
226.505	4.92
226.889	2.21
227.273	-1.48
227.657	1.78
228.041	-1.48
228.425	-8.48
228.809	6.01
229.193	0.04
229.577	1.9
229.961	0.19
230.344	1.69
230.728	2.12
231.112	1.74
231.495	0.54
231.879	1.79
232.263	2.25
232.646	1.52
233.03	1.91
233.413	1.95
233.797	1.39
234.18	3.24
234.563	-0.15
234.946	0.99
235.33	1.81
235.713	0.93
236.096	1.84
236.479	1.09
236.862	1.44
237.245	0.01
237.628	3.25
238.011	2.98
238.394	2.11
238.777	2.1
239.16	1.68
239.543	3.81
239.925	1.55
240.308	0.27
240.691	1.83
241.073	1.14
241.456	1.22
241.838	-0.23
242.221	1.08
242.603	2.07
242.986	0.69
243.368	1.22
243.75	1.51
244.133	1.61
244.515	1.23
244.897	1.89
245.279	1.27
245.661	1.36
246.043	1.58
246.425	0.5
246.807	2.02
247.189	1.28
247.571	0.58
247.953	1.08
248.335	1.63
248.717	1.36
249.098	1.37
249.48	1.2
249.862	1.36
250.243	1.61
250.625	1.92
251.006	1.38
251.388	1.32
251.769	-0.18
252.151	0.97
252.532	0.72
252.913	1.34
253.295	1.21
253.676	1.43
254.057	1.45
254.438	0.73
254.819	0.88
255.2	-0.01
255.581	0.68
255.962	1.01
256.343	1.26
256.724	1.46
257.105	0.35
257.486	0.01
257.867	1.11
258.247	1.11
258.628	2.12
259.009	2.1
259.389	1.75
259.77	1.47
260.15	1.52
260.531	1.08
260.911	1.26
261.292	1.25
261.672	1.46
262.052	1.2
262.432	1.22
262.813	2.06
263.193	1.19
263.573	1.24
263.953	1.49
264.333	1.34
264.713	0.85
265.093	0.85
265.473	0.83
265.853	1.35
266.233	0.84
266.612	1.92
266.992	0.73
267.372	1.54
267.752	0.63
268.131	1.2
268.511	1.14
268.89	1.8
269.27	0.82
269.649	0.87
270.029	1.15
270.408	1.28
270.787	0.96
271.167	1.11
271.546	1.71
271.925	1.11
272.304	1.25
272.683	1.1
273.062	1.02
273.441	1.31
273.82	1.44
274.199	1.58
274.578	1.35
274.957	1.51
275.336	1.23
275.715	1.88
276.093	1.15
276.472	1.39
276.851	0.96
277.229	0.85
277.608	1.52
277.986	1.34
278.365	0.31
278.743	1.43
279.122	1.11
279.5	0.9
279.878	1.32
280.257	1.41
280.635	1.29
281.013	1.62
281.391	1.27
281.769	1.62
282.147	1.04
282.525	0.7
282.903	1.36
283.281	0.88
283.659	1.41
284.037	1.3
284.415	1.64
284.792	1.35
285.17	1.18
285.548	1.04
285.925	1.49
286.303	1.52
286.68	0.73
287.058	1.21
287.435	1.47
287.813	1.48
288.19	0.98
288.567	1.08
288.945	1.32
289.322	1.6
289.699	1.55
290.076	0.64
290.453	1.6
290.83	1.54
291.207	1.34
291.584	1.18
291.961	1.18
292.338	1.02
292.715	0.89
293.092	1.28
293.469	1.47
293.845	1.13
294.222	1.25
294.599	1.29
294.975	1.44
295.352	1.49
295.728	1.2
296.105	1.52
296.481	0.98
296.858	1.05
297.234	1.23
297.61	1.59
297.986	1.57
298.363	1.12
298.739	1.11
299.115	1.55
299.491	1.62
299.867	1.24
300.243	1.55
300.619	1.8
300.995	1.26
301.371	1.18
301.746	1.37
302.122	1.64
302.498	1.29
302.874	1.65
303.249	1.76
303.625	1.57
304	1.52
304.376	1.12
304.751	2.02
305.127	1.17
305.502	1.71
305.878	1.32
306.253	1.72
306.628	1.6
307.003	1.78
307.378	1.69
307.754	1.73
308.129	1.99
308.504	1.69
308.879	1.68
309.254	1.52
309.629	1.2
310.003	1.26
310.378	1.21
310.753	1.73
311.128	1.67
311.502	1.27
311.877	1.25
312.252	1.45
312.626	1.52
313.001	2.05
313.375	1.99
313.75	1.77
314.124	1.47
314.498	1.64
314.873	1.83
315.247	1.63
315.621	1.6
315.995	1.36
316.369	1.28
316.743	1.94
317.117	1.44
317.491	1.86
317.865	1.97
318.239	1.78
318.613	1.2
318.987	1.03
319.361	1.29
319.734	1.52
320.108	1.6
320.482	1.78
320.855	1.56
321.229	1.23
321.602	1.86
321.976	1.34
322.349	1.63
322.723	1.77
323.096	1.31
323.469	1.87
323.843	2.52
324.216	1.93
324.589	1.66
324.962	1.15
325.335	2.1
325.708	1.25
326.081	2.07
326.454	1.72
326.827	1.7
327.2	1.58
327.573	1.21
327.945	1.81
328.318	1.53
328.691	1.44
329.063	1.5
329.436	1.38
329.809	1.09
330.181	1.79
330.553	1.8
330.926	1.98
331.298	1.83
331.671	1.75
332.043	1.04
332.415	1.47
332.787	1.94
333.159	1.73
333.532	2.08
333.904	1.68
334.276	1.86
334.648	1.96
335.02	2
335.391	2.3
335.763	1.19
336.135	1.33
336.507	1.6
336.879	1.69
337.25	1.49
337.622	2.06
337.993	1.87
338.365	2.04
338.736	2.3
339.108	1.6
339.479	1.97
339.851	1.72
340.222	1.86
340.593	1.85
340.964	1.74
341.336	1.64
341.707	1.6
342.078	1.96
342.449	1.58
342.82	1.64
343.191	1.53
343.562	1.7
343.933	1.68
344.303	2.17
344.674	1.05
345.045	2.02
345.416	1.28
345.786	2.09
346.157	1.98
346.527	1.59
346.898	1.81
347.268	1.48
347.639	1.63
348.009	1.83
348.38	1.92
348.75	1.38
349.12	1.97
349.49	1.69
349.861	1.82
350.231	1.55
350.601	1.75
350.971	1.79
351.341	2.22
351.711	1.69
352.081	1.44
352.45	2.23
352.82	2.29
353.19	1.62
353.56	1.95
353.929	2.1
354.299	1.94
354.669	1.8
355.038	1.78
355.408	1.7
355.777	1.43
356.147	1.69
356.516	2
356.885	1.62
357.254	1.72
357.624	1.78
357.993	1.78
358.362	1.68
358.731	1.77
359.1	1.73
359.469	1.55
359.838	1.85
360.207	2.28
360.576	1.79
360.945	2.02
361.314	1.8
361.682	1.5
362.051	2.01
362.42	2.09
362.788	1.97
363.157	1.89
363.525	1.83
363.894	1.97
364.262	1.7
364.631	1.86
364.999	1.74
365.367	1.77
365.735	1.95
366.104	2.17
366.472	2.18
366.84	1.94
367.208	2.15
367.576	1.95
367.944	1.81
368.312	1.82
368.68	2.09
369.048	2.12
369.416	1.97
369.783	2.07
370.151	2
370.519	1.89
370.886	1.93
371.254	1.92
371.621	2.43
371.989	1.66
372.356	2.25
372.724	2.08
373.091	1.71
373.458	1.91
373.826	1.88
374.193	2.2
374.56	1.81
374.927	1.79
375.294	1.86
375.661	1.81
376.028	2.32
376.395	2.01
376.762	2.52
377.129	1.93
377.496	1.78
377.863	1.91
378.229	2.1
378.596	1.9
378.963	2.02
379.329	1.93
379.696	2.22
380.062	1.95
380.429	1.96
380.795	2.4
381.161	2.31
381.528	2.29
381.894	2.04
382.26	2.06
382.626	2.02
382.993	1.94
383.359	1.86
383.725	2.04
384.091	2.23
384.457	1.67
384.823	1.79
385.188	1.7
385.554	1.85
385.92	2.02
386.286	2.28
386.651	2.04
387.017	2.22
387.383	1.64
387.748	1.84
388.114	1.68
388.479	2.08
388.845	1.99
389.21	2.17
389.575	2.28
389.94	2.43
390.306	1.8
390.671	1.93
391.036	2.17
391.401	2.02
391.766	2
392.131	2.26
392.496	1.78
392.861	1.98
393.226	1.9
393.591	2.06
393.956	2.06
394.32	2.27
394.685	1.98
395.05	2.32
395.414	1.92
395.779	1.96
396.143	2.18
396.508	2.05
396.872	2.03
397.236	2.16
397.601	2.04
397.965	2.03
398.329	1.91
398.694	2.1
399.058	2.34
399.422	2.23
399.786	2.06
400.15	2.02
400.514	1.96
400.878	2.05
401.242	2.2
401.605	1.83
401.969	1.89
402.333	2.09
402.697	2.07
403.06	2.35
403.424	2.24
403.787	2.13
404.151	2.18
404.514	1.96
404.878	1.95
405.241	2.13
405.604	2.21
405.968	2.09
406.331	2.15
406.694	2.18
407.057	2.13
407.42	2.01
407.783	2.07
408.146	2.33
408.509	2.19
408.872	2.23
409.235	2.27
409.598	2.08
409.961	2.08
410.323	2.4
410.686	2.28
411.049	2.11
411.411	1.87
411.774	2.17
412.136	1.95
412.499	2.2
412.861	2.25
413.223	2.16
413.586	2.3
413.948	2.13
414.31	2.27
414.672	2.07
415.035	2.39
415.397	2.19
415.759	2.27
416.121	2.26
416.483	2.28
416.845	2.42
417.206	2.25
417.568	2.1
417.93	2.28
418.292	2.29
418.653	2.06
419.015	2.21
419.377	2.22
419.738	2.15
420.1	2.17
420.461	2.23
420.822	2.04
421.184	2.24
421.545	2.08
421.906	2.17
422.267	2.16
422.629	2.12
422.99	2.07
423.351	2.17
423.712	2.15
424.073	2.16
424.434	2.18
424.795	2.18
425.155	2.11
425.516	2.23
425.877	2.16
426.238	2.18
426.598	2.16
426.959	2.12
427.32	2.23
427.68	2.27
428.041	2.15
428.401	2.3
428.761	2.4
429.122	2.25
429.482	2.13
429.842	2.23
430.202	2.29
430.563	2.44
430.923	2.32
431.283	2.45
431.643	2.5
432.003	2.31
432.363	2.38
432.722	2.37
433.082	2.35
433.442	2.25
433.802	2.28
434.161	2.3
434.521	2.32
434.881	2.19
435.24	2.08
435.6	2.36
435.959	2.35
436.319	2.24
436.678	2.31
437.037	2.2
437.396	2.36
437.756	2.41
438.115	2.32
438.474	2.35
438.833	2.41
439.192	2.24
439.551	2.35
439.91	2.21
440.269	2.32
440.628	2.28
440.987	2.18
441.345	2.28
441.704	2.36
442.063	2.33
442.421	2.29
442.78	2.21
443.138	2.38
443.497	2.4
443.855	2.21
444.214	2.24
444.572	2.42
444.93	2.37
445.288	2.35
445.647	2.25
446.005	2.24
446.363	2.35
446.721	2.38
447.079	2.38
447.437	2.36
447.795	2.39
448.153	2.37
448.51	2.28
448.868	2.26
449.226	2.38
449.584	2.38
449.941	2.27
450.299	2.38
450.656	2.34
451.014	2.36
451.371	2.49
451.729	2.4
452.086	2.25
452.443	2.27
452.801	2.46
453.158	2.39
453.515	2.34
453.872	2.24
454.229	2.32
454.586	2.35
454.943	2.32
455.3	2.47
455.657	2.35
456.014	2.46
456.371	2.3
456.727	2.39
457.084	2.56
457.441	2.42
457.797	2.43
458.154	2.41
458.51	2.44
458.867	2.34
459.223	2.43
459.58	2.65
459.936	2.42
460.292	2.47
460.648	2.4
461.005	2.5
461.361	2.24
461.717	2.37
462.073	2.39
462.429	2.45
462.785	2.5
463.141	2.49
463.496	2.58
463.852	2.58
464.208	2.41
464.564	2.56
464.919	2.33
465.275	2.6
465.631	2.56
465.986	2.55
466.342	2.52
466.697	2.54
467.052	2.48
467.408	2.63
467.763	2.43
468.118	2.34
468.473	2.51
468.829	2.54
469.184	2.47
469.539	2.54
469.894	2.57
470.249	2.75
470.603	2.74
470.958	2.4
471.313	2.57
471.668	2.42
472.023	2.42
472.377	2.65
472.732	2.49
473.086	2.5
473.441	2.36
473.795	2.52
474.15	2.54
474.504	2.77
474.859	2.55
475.213	2.63
475.567	2.25
475.921	2.64
476.275	2.56
476.63	2.56
476.984	2.62
477.338	2.74
477.692	2.58
478.045	2.61
478.399	2.57
478.753	2.47
479.107	2.52
479.461	2.65
479.814	2.58
480.168	2.48
480.521	2.67
480.875	2.65
481.228	2.61
481.582	2.68
481.935	2.64
482.289	2.7
482.642	2.53
482.995	2.59
483.348	2.58
483.701	2.63
484.055	2.53
484.408	2.56
484.761	2.44
485.114	2.36
485.466	2.31
485.819	2.36
486.172	2.44
486.525	2.52
486.878	2.53
487.23	2.59
487.583	2.56
487.936	2.58
488.288	2.57
488.641	2.47
488.993	2.5
489.345	2.44
489.698	2.48
490.05	2.52
490.402	2.58
490.754	2.66
491.107	2.59
491.459	2.66
491.811	2.64
492.163	2.63
492.515	2.57
492.866	2.51
493.218	2.49
493.57	2.49
493.922	2.54
494.274	2.61
494.625	2.65
494.977	2.66
495.328	2.73
495.68	2.73
496.031	2.78
496.383	2.78
496.734	2.74
497.086	2.58
497.437	2.76
497.788	2.66
498.139	2.66
498.49	2.75
498.842	2.73
499.193	2.8
499.544	2.81
499.894	2.72
500.245	2.82
500.596	2.71
500.947	2.67
501.298	2.8
501.648	2.8
501.999	2.81
502.35	2.87
502.7	2.88
503.051	2.82
503.401	2.76
503.752	2.83
504.102	2.9
504.452	2.78
504.803	2.93
505.153	2.9
505.503	2.86
505.853	2.75
506.203	2.81
506.553	2.74
506.903	2.93
507.253	2.77
507.603	2.87
507.953	2.84
508.303	2.82
508.652	2.84
509.002	2.94
509.352	2.84
509.701	2.92
510.051	2.92
510.4	2.82
510.75	2.88
511.099	2.87
511.449	2.86
511.798	2.82
512.147	2.81
512.496	2.93
512.846	2.88
513.195	2.88
513.544	2.88
513.893	2.94
514.242	2.95
514.591	2.94
514.939	2.96
515.288	3.01
515.637	2.98
515.986	2.88
516.334	2.88
516.683	2.96
517.032	3.01
517.38	3.08
517.729	3.07
518.077	3.03
518.426	3.02
518.774	2.97
519.122	3.05
519.47	2.99
519.819	2.89
520.167	2.92
520.515	2.89
520.863	2.96
521.211	2.97
521.559	3.04
521.907	3.05
522.255	3.02
522.602	3.04
522.95	3.05
523.298	3.14
523.645	3.12
523.993	3.13
524.341	3.13
524.688	3.16
525.036	3.27
525.383	3.23
525.73	3.2
526.078	3.12
526.425	3.04
526.772	3.09
527.119	2.93
527.466	3.02
527.814	3.1
528.161	3.07
528.508	3.14
528.854	3.13
529.201	3.08
529.548	2.98
529.895	2.97
530.242	2.88
530.588	2.95
530.935	3.01
531.282	3.06
531.628	3.11
531.975	3.13
532.321	3.19
532.667	3.21
533.014	3.35
533.36	3.27
533.706	3.2
534.052	3.21
534.399	3.15
534.745	3.16
535.091	3.01
535.437	3.07
535.783	3.22
536.129	3.28
536.474	3.28
536.82	3.28
537.166	3.32
537.512	3.25
537.857	3.21
538.203	3.2
538.549	3.25
538.894	3.19
539.239	3.27
539.585	3.25
539.93	3.32
540.276	3.5
540.621	3.47
540.966	3.35
541.311	3.44
541.656	3.43
542.001	3.3
542.346	3.31
542.691	3.27
543.036	3.15
543.381	3.2
543.726	3.28
544.071	3.29
544.415	3.39
544.76	3.42
545.105	3.43
545.449	3.45
545.794	3.4
546.138	3.45
546.483	3.62
546.827	3.61
547.171	3.55
547.516	3.41
547.86	3.49
548.204	3.5
548.548	3.38
548.892	3.39
549.236	3.58
549.58	3.72
549.924	3.73
550.268	3.7
550.612	3.68
550.956	3.53
551.3	3.76
551.643	3.8
551.987	3.76
552.33	3.7
552.674	3.57
553.017	3.68
553.361	3.77
553.704	3.68
554.048	3.75
554.391	3.71
554.734	3.78
555.077	3.73
555.42	3.77
555.764	3.74
556.107	3.87
556.45	3.75
556.793	3.93
557.135	3.82
557.478	3.79
557.821	3.82
558.164	4.02
558.507	3.77
558.849	3.73
559.192	3.92
559.534	4.19
559.877	3.68
560.219	3.81
560.562	3.93
560.904	4.07
561.246	4.04
561.589	4.19
561.931	4.02
562.273	4.02
562.615	4.01
562.957	4.15
563.299	4.09
563.641	4.1
563.983	4.27
564.325	4
564.667	4.01
565.008	4.27
565.35	4.27
565.692	4.14
566.033	4.14
566.375	4.19
566.716	4.24
567.058	4.22
567.399	4.37
567.741	4.09
568.082	4.2
568.423	4.12
568.764	4.08
569.105	4.21
569.447	4.29
569.788	4.42
570.129	4.28
570.47	4.37
570.811	4.45
571.151	4.45
571.492	4.29
571.833	4.37
572.174	4.38
572.514	4.5
572.855	4.24
573.195	4.37
573.536	4.32
573.876	4.44
574.217	4.26
574.557	4.37
574.898	4.4
575.238	4.45
575.578	4.45
575.918	4.58
576.258	4.5
576.598	4.38
576.938	4.39
577.278	4.39
577.618	4.43
577.958	4.66
578.298	4.55
578.638	4.43
578.977	4.49
579.317	4.59
579.657	4.56
579.996	4.71
580.336	4.67
580.675	4.52
581.014	4.71
581.354	4.62
581.693	4.58
582.032	4.87
582.372	4.8
582.711	4.98
583.05	4.84
583.389	4.93
583.728	4.71
584.067	5.05
584.406	4.99
584.745	5.07
585.083	4.99
585.422	5.02
585.761	5.06
586.1	4.65
586.438	5.02
586.777	4.69
587.115	5.17
587.454	5.25
587.792	5.06
588.13	5.05
588.469	5.11
588.807	4.95
589.145	5.11
589.483	4.9
589.821	5.09
590.159	5.05
590.497	4.85
590.835	5.23
591.173	5.19
591.511	4.99
591.849	5.13
592.187	5.2
592.524	5.17
592.862	5.18
593.2	5.01
593.537	5.23
593.875	5.31
594.212	5.4
594.55	5.23
594.887	5.49
595.224	5.31
595.561	5.38
595.899	5.39
596.236	5.48
596.573	5.3
596.91	5.51
597.247	5.23
597.584	5.6
597.921	5.53
598.258	5.29
598.594	5.16
598.931	5.27
599.268	5.38
599.604	5.28
599.941	5.45
600.277	5.49
600.614	5.61
600.95	5.79
601.287	5.71
601.623	5.42
601.959	5.87
602.296	5.44
602.632	5.69
602.968	5.76
603.304	5.7
603.64	5.45
603.976	5.75
604.312	5.69
604.648	5.71
604.984	5.66
605.319	5.73
605.655	5.88
605.991	5.86
606.326	5.7
606.662	5.72
606.998	5.68
607.333	5.91
607.668	6.08
608.004	5.8
608.339	5.78
608.674	6.04
609.01	5.8
609.345	5.96
609.68	5.95
610.015	5.92
610.35	5.9
610.685	6
611.02	5.93
611.355	6.04
611.689	6.15
612.024	6.09
612.359	6.19
612.694	6.1
613.028	5.83
613.363	6.14
613.697	6.16
614.032	6.26
614.366	6.1
614.7	6.04
615.035	6.12
615.369	6.15
615.703	6.39
616.037	6.19
616.371	6.58
616.705	6.21
617.039	6.73
617.373	6.32
617.707	6.38
618.041	6.68
618.375	6.62
618.709	6.04
619.042	6.34
619.376	6.51
619.71	6.86
620.043	6.51
620.377	6.6
620.71	6.41
621.043	6.82
621.377	6.84
621.71	6.37
622.043	6.34
622.376	6.6
622.709	6.59
623.043	6.77
623.376	6.83
623.709	6.53
624.041	6.9
624.374	6.97
624.707	6.69
625.04	6.6
625.373	6.69
625.705	6.64
626.038	6.75
626.37	7.18
626.703	6.24
627.035	6.41
627.368	7.33
627.7	7.19
628.032	6.73
628.365	6.95
628.697	6.78
629.029	7.01
629.361	6.78
629.693	6.94
630.025	7.01
630.357	7.05
630.689	6.97
631.021	6.83
631.353	7.34
631.684	7
632.016	7.24
632.348	7.16
632.679	7.2
633.011	7.35
633.342	6.89
633.674	7.4
634.005	7.4
634.336	7.41
634.668	6.92
634.999	6.92
635.33	7.11
635.661	7.24
635.992	7.06
636.323	7.29
636.654	7.11
636.985	7.24
637.316	7.27
637.647	7.31
637.977	7.11
638.308	7.45
638.639	7.46
638.969	7.08
639.3	7.59
639.63	7.14
639.961	7.56
640.291	7.69
640.622	7.42
640.952	7.65
641.282	7.93
641.612	7.38
641.943	7.45
642.273	7.86
642.603	7.63
642.933	7.38
643.263	7.64
643.592	7.4
643.922	7.21
644.252	7.84
644.582	7.58
644.911	7.81
645.241	7.99
645.571	7.94
645.9	8.22
646.23	7.39
646.559	7.21
646.888	7.68
647.218	8.19
647.547	7.92
647.876	8.3
648.205	7.82
648.534	7.7
648.863	7.85
649.192	7.91
649.521	8.03
649.85	8.43
650.179	7.82
650.508	8.05
650.837	8.07
651.165	8.03
651.494	8.52
651.822	7.73
652.151	8.27
652.479	8.35
652.808	8.29
653.136	8.11
653.465	8.22
653.793	7.86
654.121	8.3
654.449	8.12
654.777	8.58
655.105	8.19
655.433	8
655.761	8.26
656.089	8.08
656.417	8.28
656.745	8.66
657.073	8.37
657.4	8.25
657.728	8.69
658.056	8.17
658.383	8.29
658.711	7.97
659.038	8.61
659.365	8.55
659.693	8.34
660.02	8.35
660.347	8.68
660.674	8.2
661.001	8.44
661.329	8.03
661.656	8.08
661.982	8.41
662.309	8.42
662.636	8.65
662.963	8.97
663.29	8.72
663.616	8.53
663.943	8.63
664.27	8.4
664.596	8.6
664.923	8.36
665.249	8.56
665.576	9.2
665.902	9.01
666.228	8.4
666.554	8.94
666.881	8.86
667.207	8.74
667.533	8.9
667.859	8.67
668.185	9.22
668.511	9
668.837	8.54
669.162	8.7
669.488	9.51
669.814	9.22
670.139	8.82
670.465	9.26
670.791	9.01
671.116	8.96
671.442	9.26
671.767	9.18
672.092	8.96
672.418	9.13
672.743	9.29
673.068	9.11
673.393	8.81
673.718	9.43
674.043	8.28
674.368	9.37
674.693	9.72
675.018	9.05
675.343	8.67
675.667	9.23
675.992	9.43
676.317	8.94
676.641	8.74
676.966	9.72
677.29	9.92
677.615	9.41
677.939	9.34
678.264	9.77
678.588	9.29
678.912	9.03
679.236	9.22
679.56	9.56
679.885	9.18
680.209	9.13
680.532	10
680.856	8.79
681.18	9.47
681.504	9.63
681.828	9.4
682.152	9.08
682.475	9.77
682.799	9.02
683.122	9.62
683.446	9.7
683.769	9.5
684.093	9.3
684.416	9.21
684.739	9.14
685.062	9.51
685.386	9.69
685.709	9.33
686.032	9.79
686.355	9.3
686.678	10.07
687.001	9.22
687.324	9.52
687.646	10.46
687.969	10
688.292	9.77
688.614	9.37
688.937	9.73
689.26	9.83
689.582	9.1
689.904	10.21
690.227	9.85
690.549	9.84
690.871	10.07
691.194	9.41
691.516	9.82
691.838	9.72
692.16	9.69
692.482	9.48
692.804	10.04
