Data from 815658_crown_Reflection__0__82.txt Node

Date: Fri Sep 16 15:16:26 CDT 2022
User: ToomeyLab
Spectrometer: FLMS14357
Trigger mode: 0
Integration Time (sec): 1.000000E-2
Scans to average: 100
Electric dark correction enabled: true
Nonlinearity correction enabled: false
Boxcar width: 0
XAxis mode: Wavelengths
Number of Pixels in Spectrum: 2048
>>>>>Begin Spectral Data<<<<<
189.047	-81.93
189.435	-81.93
189.823	-81.93
190.211	8.49
190.599	455.46
190.987	67.66
191.375	139.31
191.763	121.89
192.151	-226.52
192.538	291.27
192.926	-29.24
193.314	56.84
193.702	143.36
194.089	39.99
194.477	3.97
194.864	-61.91
195.252	-59.34
195.639	2113.46
196.027	146.36
196.414	127.92
196.801	106.51
197.189	-3.71
197.576	-20.82
197.963	5.67
198.351	-37.26
198.738	15.85
199.125	56.14
199.512	-54.32
199.899	-3.16
200.286	-31.09
200.673	23.1
201.06	-19.87
201.447	-5.58
201.833	21.5
202.22	29.1
202.607	-2.39
202.994	51.19
203.38	0.83
203.767	-4.44
204.154	32.45
204.54	32
204.927	8.72
205.313	23.98
205.699	47.04
206.086	17.81
206.472	40
206.858	-3.52
207.245	25.22
207.631	3.4
208.017	4.41
208.403	1.43
208.789	-11.49
209.175	32.23
209.561	16.56
209.947	-3.33
210.333	2.77
210.719	-1.56
211.105	0.41
211.491	27.35
211.876	22.47
212.262	8.78
212.648	10.67
213.034	-14.97
213.419	-12.04
213.805	14.72
214.19	37
214.576	-21.04
214.961	6.39
215.346	-27.42
215.732	-45.56
216.117	25.44
216.502	14.57
216.888	-7.57
217.273	20.08
217.658	9.55
218.043	-33.34
218.428	-1.46
218.813	25.01
219.198	-3.22
219.583	4.08
219.968	-8.07
220.353	-16.93
220.738	7.02
221.122	-39.32
221.507	34.55
221.892	1.62
222.276	8.97
222.661	17.9
223.046	11.91
223.43	2.27
223.815	-8.51
224.199	1.82
224.583	11.82
224.968	6.04
225.352	4.19
225.736	14.47
226.121	6.31
226.505	8.75
226.889	11.98
227.273	6.82
227.657	9.37
228.041	4.41
228.425	-2.15
228.809	9.91
229.193	2.08
229.577	5.47
229.961	4.42
230.344	6.27
230.728	4.83
231.112	4.84
231.495	4.18
231.879	6.05
232.263	3.61
232.646	3.38
233.03	5.46
233.413	5.52
233.797	5.3
234.18	6.72
234.563	5.36
234.946	3.98
235.33	5.52
235.713	4.86
236.096	5.16
236.479	6.39
236.862	4.1
237.245	3.58
237.628	7.47
238.011	4.74
238.394	5.75
238.777	5.72
239.16	3.99
239.543	6.22
239.925	5.07
240.308	4.48
240.691	3.85
241.073	5.57
241.456	5.53
241.838	4.26
242.221	4.8
242.603	4.77
242.986	4.24
243.368	4.34
243.75	3.98
244.133	4.78
244.515	4.62
244.897	4.93
245.279	4.56
245.661	3.81
246.043	4.96
246.425	3.73
246.807	4.09
247.189	4.29
247.571	3.54
247.953	4.23
248.335	4.49
248.717	4.36
249.098	4.46
249.48	4.32
249.862	4.57
250.243	4.4
250.625	4.53
251.006	4.72
251.388	5.46
251.769	3.72
252.151	4.34
252.532	3.87
252.913	4.43
253.295	4.61
253.676	4.78
254.057	4.15
254.438	3.23
254.819	3.44
255.2	3.14
255.581	4.61
255.962	3.61
256.343	4.41
256.724	3.68
257.105	2.82
257.486	4.71
257.867	4.12
258.247	4.45
258.628	4.14
259.009	3.84
259.389	4.74
259.77	3.9
260.15	4.59
260.531	4.25
260.911	4
261.292	3.49
261.672	4.03
262.052	4.04
262.432	4.18
262.813	4.67
263.193	4.08
263.573	4.01
263.953	4.28
264.333	4.13
264.713	3.72
265.093	4.13
265.473	4.6
265.853	4.39
266.233	3.76
266.612	4.9
266.992	3.4
267.372	3.88
267.752	3.7
268.131	3.98
268.511	4.38
268.89	4.3
269.27	3.51
269.649	3.63
270.029	3.95
270.408	4.43
270.787	3.71
271.167	4.1
271.546	4.46
271.925	4.26
272.304	4
272.683	3.68
273.062	3.91
273.441	4.1
273.82	3.86
274.199	4.07
274.578	3.96
274.957	4.14
275.336	3.99
275.715	4.32
276.093	4.13
276.472	3.34
276.851	3.64
277.229	3.86
277.608	3.93
277.986	4.43
278.365	3.43
278.743	4
279.122	3.69
279.5	3.59
279.878	3.59
280.257	4.19
280.635	3.96
281.013	3.37
281.391	4.25
281.769	4.33
282.147	4.1
282.525	3.55
282.903	4
283.281	3.51
283.659	3.8
284.037	3.93
284.415	4.25
284.792	4.21
285.17	3.98
285.548	3.69
285.925	3.6
286.303	4.01
286.68	3.75
287.058	3.46
287.435	3.82
287.813	3.7
288.19	3.63
288.567	3.69
288.945	3.68
289.322	4.11
289.699	3.94
290.076	3.78
290.453	4.06
290.83	3.63
291.207	3.58
291.584	3.27
291.961	3.56
292.338	3.69
292.715	3.42
293.092	3.57
293.469	3.76
293.845	3.64
294.222	3.95
294.599	3.14
294.975	3.39
295.352	3.6
295.728	3.31
296.105	3.59
296.481	3.24
296.858	3.6
297.234	3.39
297.61	3.92
297.986	3.67
298.363	3.5
298.739	3.35
299.115	3.55
299.491	3.74
299.867	3.34
300.243	3.5
300.619	3.92
300.995	3.54
301.371	3.76
301.746	3.11
302.122	3.8
302.498	3.51
302.874	3.65
303.249	3.57
303.625	3.58
304	3.59
304.376	3.42
304.751	3.56
305.127	3.32
305.502	3.27
305.878	3.23
306.253	3.39
306.628	3.25
307.003	3.65
307.378	3.62
307.754	4.2
308.129	4.41
308.504	3.65
308.879	3.62
309.254	3.48
309.629	3.36
310.003	3.13
310.378	3.31
310.753	3.18
311.128	3.55
311.502	2.86
311.877	3.53
312.252	3.77
312.626	3.53
313.001	3.56
313.375	3.66
313.75	3.65
314.124	3.49
314.498	3.35
314.873	3.99
315.247	3.16
315.621	3.53
315.995	3.44
316.369	3.68
316.743	4.04
317.117	3.24
317.491	3.43
317.865	3.4
318.239	3.5
318.613	3.2
318.987	2.73
319.361	3.17
319.734	3.41
320.108	3.45
320.482	3.87
320.855	3.51
321.229	3.47
321.602	3.84
321.976	3.04
322.349	3.43
322.723	3.22
323.096	3.28
323.469	3.37
323.843	3.89
324.216	4.14
324.589	3.32
324.962	3.16
325.335	3.39
325.708	3.4
326.081	3.51
326.454	3.68
326.827	3.33
327.2	3.39
327.573	3.11
327.945	3.51
328.318	3.69
328.691	3.54
329.063	3.12
329.436	3.15
329.809	3.18
330.181	3.55
330.553	3.28
330.926	3.23
331.298	3.49
331.671	3.27
332.043	3
332.415	3.36
332.787	3.76
333.159	3.32
333.532	3.56
333.904	3.17
334.276	3.75
334.648	3.63
335.02	3.2
335.391	3.85
335.763	3.01
336.135	2.7
336.507	3.65
336.879	3.58
337.25	2.86
337.622	3.46
337.993	3.47
338.365	3.5
338.736	4.33
339.108	3.39
339.479	3.45
339.851	3.11
340.222	3.25
340.593	3.66
340.964	3.52
341.336	3.14
341.707	3.1
342.078	3.58
342.449	3.21
342.82	3.75
343.191	3.47
343.562	3.69
343.933	3.24
344.303	3.97
344.674	2.67
345.045	3.99
345.416	3.82
345.786	3.6
346.157	3.53
346.527	3.5
346.898	3.33
347.268	3.47
347.639	3.18
348.009	3.32
348.38	3.43
348.75	2.75
349.12	3.2
349.49	3.4
349.861	3.79
350.231	3.29
350.601	3.29
350.971	3.5
351.341	3.69
351.711	3.62
352.081	3.23
352.45	3.91
352.82	3.51
353.19	3.26
353.56	3.6
353.929	3.51
354.299	3.55
354.669	3.46
355.038	3.67
355.408	3.8
355.777	3.8
356.147	3.39
356.516	3.67
356.885	3.56
357.254	3.8
357.624	3.39
357.993	3.23
358.362	3.66
358.731	3.65
359.1	3.58
359.469	3.14
359.838	3.51
360.207	3.81
360.576	3.61
360.945	3.5
361.314	3.29
361.682	3.11
362.051	3.29
362.42	3.59
362.788	3.67
363.157	3.35
363.525	3.42
363.894	3.65
364.262	3.29
364.631	3.67
364.999	3.45
365.367	3.84
365.735	3.72
366.104	3.76
366.472	3.55
366.84	3.64
367.208	3.67
367.576	3.53
367.944	3.2
368.312	3.55
368.68	3.57
369.048	3.71
369.416	3.8
369.783	3.52
370.151	3.91
370.519	3.71
370.886	3.54
371.254	3.45
371.621	3.48
371.989	3.51
372.356	3.72
372.724	3.66
373.091	3.49
373.458	3.47
373.826	3.43
374.193	3.92
374.56	3.3
374.927	3.52
375.294	3.47
375.661	3.51
376.028	3.89
376.395	3.45
376.762	4
377.129	3.5
377.496	3.6
377.863	3.73
378.229	3.81
378.596	3.3
378.963	3.75
379.329	3.66
379.696	3.87
380.062	3.67
380.429	3.55
380.795	3.67
381.161	3.88
381.528	3.92
381.894	3.51
382.26	3.72
382.626	3.72
382.993	3.46
383.359	3.7
383.725	3.79
384.091	3.68
384.457	3.36
384.823	3.53
385.188	3.6
385.554	3.55
385.92	3.72
386.286	3.72
386.651	3.59
387.017	3.65
387.383	3.27
387.748	3.25
388.114	3.21
388.479	3.77
388.845	3.75
389.21	3.73
389.575	3.49
389.94	4.04
390.306	3.65
390.671	3.8
391.036	3.37
391.401	3.72
391.766	3.82
392.131	3.49
392.496	3.33
392.861	3.68
393.226	3.8
393.591	3.9
393.956	3.68
394.32	3.78
394.685	3.59
395.05	3.96
395.414	3.51
395.779	3.52
396.143	3.82
396.508	3.51
396.872	3.83
397.236	3.7
397.601	3.38
397.965	3.59
398.329	3.49
398.694	3.74
399.058	4
399.422	3.57
399.786	3.44
400.15	3.72
400.514	3.68
400.878	3.75
401.242	3.73
401.605	3.61
401.969	3.7
402.333	3.6
402.697	3.62
403.06	3.86
403.424	3.69
403.787	3.7
404.151	3.53
404.514	3.65
404.878	3.62
405.241	3.56
405.604	3.72
405.968	3.78
406.331	3.76
406.694	3.66
407.057	3.67
407.42	3.48
407.783	3.76
408.146	4.07
408.509	3.93
408.872	3.61
409.235	3.76
409.598	3.56
409.961	3.9
410.323	3.74
410.686	3.82
411.049	3.62
411.411	3.24
411.774	3.8
412.136	3.59
412.499	3.8
412.861	3.78
413.223	3.67
413.586	3.6
413.948	3.67
414.31	3.82
414.672	3.67
415.035	3.83
415.397	3.58
415.759	3.78
416.121	3.78
416.483	3.73
416.845	3.85
417.206	3.74
417.568	3.85
417.93	3.87
418.292	3.62
418.653	3.63
419.015	3.8
419.377	3.76
419.738	3.49
420.1	3.69
420.461	3.76
420.822	3.6
421.184	3.62
421.545	3.6
421.906	3.57
422.267	3.55
422.629	3.59
422.99	3.54
423.351	3.54
423.712	3.63
424.073	3.77
424.434	3.66
424.795	3.62
425.155	3.69
425.516	3.68
425.877	3.57
426.238	3.55
426.598	3.57
426.959	3.64
427.32	3.68
427.68	3.7
428.041	3.64
428.401	3.62
428.761	3.9
429.122	3.8
429.482	3.62
429.842	3.77
430.202	3.82
430.563	3.87
430.923	3.64
431.283	3.98
431.643	3.91
432.003	3.69
432.363	3.81
432.722	3.84
433.082	3.78
433.442	3.75
433.802	3.83
434.161	3.77
434.521	3.71
434.881	3.65
435.24	3.65
435.6	3.84
435.959	3.76
436.319	3.65
436.678	3.75
437.037	3.85
437.396	3.91
437.756	3.9
438.115	3.79
438.474	3.71
438.833	3.64
439.192	3.64
439.551	3.69
439.91	3.6
440.269	3.81
440.628	3.67
440.987	3.73
441.345	3.59
441.704	3.72
442.063	3.74
442.421	3.61
442.78	3.63
443.138	3.7
443.497	3.78
443.855	3.74
444.214	3.77
444.572	3.84
444.93	3.78
445.288	3.68
445.647	3.71
446.005	3.66
446.363	3.71
446.721	3.63
447.079	3.61
447.437	3.6
447.795	3.65
448.153	3.64
448.51	3.62
448.868	3.71
449.226	3.76
449.584	3.68
449.941	3.8
450.299	3.67
450.656	3.78
451.014	3.75
451.371	3.78
451.729	3.7
452.086	3.71
452.443	3.7
452.801	3.84
453.158	3.75
453.515	3.62
453.872	3.63
454.229	3.63
454.586	3.57
454.943	3.67
455.3	3.73
455.657	3.62
456.014	3.78
456.371	3.69
456.727	3.73
457.084	3.77
457.441	3.62
457.797	3.74
458.154	3.71
458.51	3.7
458.867	3.57
459.223	3.67
459.58	3.82
459.936	3.72
460.292	3.79
460.648	3.69
461.005	3.74
461.361	3.4
461.717	3.6
462.073	3.72
462.429	3.83
462.785	3.72
463.141	3.86
463.496	3.87
463.852	3.74
464.208	3.73
464.564	3.93
464.919	3.91
465.275	3.84
465.631	3.83
465.986	3.67
466.342	3.79
466.697	3.83
467.052	3.7
467.408	3.84
467.763	3.76
468.118	3.76
468.473	3.72
468.829	3.72
469.184	3.77
469.539	3.82
469.894	3.82
470.249	3.99
470.603	3.77
470.958	3.68
471.313	3.81
471.668	3.79
472.023	3.65
472.377	3.88
472.732	3.81
473.086	3.76
473.441	3.64
473.795	3.77
474.15	3.61
474.504	3.93
474.859	3.65
475.213	3.73
475.567	3.68
475.921	3.83
476.275	3.77
476.63	3.85
476.984	3.75
477.338	3.89
477.692	3.67
478.045	3.79
478.399	3.77
478.753	3.8
479.107	3.85
479.461	3.6
479.814	3.64
480.168	3.66
480.521	3.76
480.875	3.84
481.228	3.71
481.582	3.79
481.935	3.79
482.289	3.74
482.642	3.64
482.995	3.63
483.348	3.66
483.701	3.69
484.055	3.67
484.408	3.56
484.761	3.53
485.114	3.33
485.466	3.31
485.819	3.36
486.172	3.52
486.525	3.64
486.878	3.66
487.23	3.73
487.583	3.66
487.936	3.68
488.288	3.62
488.641	3.44
488.993	3.45
489.345	3.45
489.698	3.46
490.05	3.52
490.402	3.57
490.754	3.71
491.107	3.72
491.459	3.73
491.811	3.64
492.163	3.64
492.515	3.53
492.866	3.44
493.218	3.37
493.57	3.41
493.922	3.6
494.274	3.66
494.625	3.7
494.977	3.73
495.328	3.72
495.68	3.76
496.031	3.75
496.383	3.79
496.734	3.61
497.086	3.66
497.437	3.66
497.788	3.72
498.139	3.62
498.49	3.7
498.842	3.67
499.193	3.71
499.544	3.75
499.894	3.61
500.245	3.77
500.596	3.68
500.947	3.71
501.298	3.72
501.648	3.68
501.999	3.64
502.35	3.77
502.7	3.76
503.051	3.81
503.401	3.68
503.752	3.75
504.102	3.77
504.452	3.67
504.803	3.72
505.153	3.66
505.503	3.75
505.853	3.74
506.203	3.63
506.553	3.7
506.903	3.64
507.253	3.71
507.603	3.8
507.953	3.69
508.303	3.74
508.652	3.66
509.002	3.57
509.352	3.67
509.701	3.73
510.051	3.77
510.4	3.59
510.75	3.73
511.099	3.64
511.449	3.57
511.798	3.62
512.147	3.62
512.496	3.68
512.846	3.7
513.195	3.68
513.544	3.66
513.893	3.64
514.242	3.76
514.591	3.71
514.939	3.79
515.288	3.75
515.637	3.79
515.986	3.68
516.334	3.65
516.683	3.72
517.032	3.66
517.38	3.82
517.729	3.77
518.077	3.71
518.426	3.76
518.774	3.73
519.122	3.66
519.47	3.68
519.819	3.58
520.167	3.51
520.515	3.44
520.863	3.64
521.211	3.72
521.559	3.7
521.907	3.66
522.255	3.61
522.602	3.65
522.95	3.76
523.298	3.73
523.645	3.69
523.993	3.77
524.341	3.68
524.688	3.69
525.036	3.72
525.383	3.75
525.73	3.74
526.078	3.73
526.425	3.66
526.772	3.58
527.119	3.41
527.466	3.52
527.814	3.57
528.161	3.63
528.508	3.68
528.854	3.65
529.201	3.58
529.548	3.47
529.895	3.35
530.242	3.33
530.588	3.37
530.935	3.49
531.282	3.57
531.628	3.67
531.975	3.64
532.321	3.64
532.667	3.68
533.014	3.8
533.36	3.66
533.706	3.64
534.052	3.6
534.399	3.58
534.745	3.5
535.091	3.41
535.437	3.46
535.783	3.55
536.129	3.67
536.474	3.66
536.82	3.65
537.166	3.72
537.512	3.71
537.857	3.65
538.203	3.53
538.549	3.56
538.894	3.46
539.239	3.74
539.585	3.64
539.93	3.59
540.276	3.82
540.621	3.77
540.966	3.68
541.311	3.7
541.656	3.66
542.001	3.48
542.346	3.43
542.691	3.47
543.036	3.32
543.381	3.38
543.726	3.5
544.071	3.59
544.415	3.6
544.76	3.56
545.105	3.63
545.449	3.63
545.794	3.71
546.138	3.61
546.483	3.68
546.827	3.66
547.171	3.59
547.516	3.56
547.86	3.53
548.204	3.57
548.548	3.48
548.892	3.5
549.236	3.6
549.58	3.84
549.924	3.75
550.268	3.78
550.612	3.66
550.956	3.66
551.3	3.8
551.643	3.78
551.987	3.85
552.33	3.68
552.674	3.58
553.017	3.63
553.361	3.64
553.704	3.68
554.048	3.6
554.391	3.62
554.734	3.59
555.077	3.76
555.42	3.75
555.764	3.84
556.107	3.83
556.45	3.59
556.793	3.77
557.135	3.67
557.478	3.6
557.821	3.58
558.164	3.7
558.507	3.65
558.849	3.61
559.192	3.69
559.534	3.88
559.877	3.44
560.219	3.73
560.562	3.72
560.904	3.6
561.246	3.72
561.589	3.74
561.931	3.68
562.273	3.74
562.615	3.74
562.957	3.74
563.299	3.73
563.641	3.59
563.983	3.79
564.325	3.67
564.667	3.77
565.008	3.79
565.35	3.65
565.692	3.77
566.033	3.7
566.375	3.64
566.716	3.63
567.058	3.68
567.399	3.7
567.741	3.53
568.082	3.67
568.423	3.53
568.764	3.63
569.105	3.69
569.447	3.79
569.788	3.84
570.129	3.62
570.47	3.68
570.811	3.78
571.151	3.6
571.492	3.69
571.833	3.55
572.174	3.67
572.514	3.69
572.855	3.58
573.195	3.61
573.536	3.58
573.876	3.61
574.217	3.54
574.557	3.57
574.898	3.67
575.238	3.75
575.578	3.62
575.918	3.81
576.258	3.53
576.598	3.44
576.938	3.55
577.278	3.49
577.618	3.72
577.958	3.72
578.298	3.47
578.638	3.67
578.977	3.62
579.317	3.59
579.657	3.71
579.996	3.76
580.336	3.89
580.675	3.58
581.014	3.68
581.354	3.52
581.693	3.55
582.032	3.8
582.372	3.79
582.711	3.76
583.05	3.77
583.389	3.8
583.728	3.76
584.067	3.73
584.406	3.79
584.745	3.77
585.083	3.89
585.422	3.78
585.761	3.93
586.1	3.51
586.438	3.85
586.777	3.52
587.115	3.62
587.454	3.82
587.792	3.62
588.13	3.83
588.469	3.61
588.807	3.65
589.145	3.51
589.483	3.76
589.821	3.88
590.159	3.66
590.497	3.52
590.835	3.72
591.173	3.81
591.511	3.83
591.849	3.73
592.187	3.47
592.524	3.43
592.862	3.76
593.2	3.51
593.537	3.7
593.875	3.67
594.212	3.75
594.55	3.55
594.887	3.7
595.224	3.86
595.561	3.69
595.899	3.64
596.236	3.7
596.573	3.69
596.91	3.59
597.247	3.57
597.584	3.66
597.921	3.69
598.258	3.67
598.594	3.42
598.931	3.63
599.268	3.59
599.604	3.53
599.941	3.71
600.277	3.74
600.614	3.97
600.95	3.67
601.287	3.72
601.623	3.88
601.959	3.83
602.296	3.5
602.632	3.59
602.968	3.56
603.304	3.76
603.64	3.7
603.976	3.79
604.312	3.83
604.648	3.76
604.984	3.74
605.319	3.83
605.655	3.84
605.991	3.55
606.326	3.59
606.662	3.69
606.998	3.63
607.333	3.62
607.668	3.8
608.004	3.74
608.339	3.57
608.674	3.7
609.01	3.73
609.345	4.03
609.68	3.77
610.015	3.62
610.35	3.63
610.685	3.9
611.02	3.71
611.355	3.8
611.689	3.61
612.024	3.55
612.359	3.72
612.694	3.61
613.028	3.76
613.363	3.52
613.697	3.73
614.032	3.71
614.366	3.52
614.7	3.79
615.035	3.79
615.369	3.7
615.703	3.58
616.037	3.65
616.371	3.83
616.705	3.77
617.039	4.11
617.373	3.48
617.707	3.95
618.041	3.87
618.375	3.73
618.709	3.41
619.042	3.76
619.376	3.57
619.71	3.82
620.043	4
620.377	3.97
620.71	3.9
621.043	4.15
621.377	3.94
621.71	4.09
622.043	3.53
622.376	3.57
622.709	3.91
623.043	3.68
623.376	3.44
623.709	3.31
624.041	3.94
624.374	3.67
624.707	3.95
625.04	3.85
625.373	3.54
625.705	3.65
626.038	3.93
626.37	3.85
626.703	3.4
627.035	3.72
627.368	4.3
627.7	3.97
628.032	3.48
628.365	3.72
628.697	3.79
629.029	3.85
629.361	3.59
629.693	3.78
630.025	3.87
630.357	3.68
630.689	3.77
631.021	3.82
631.353	3.84
631.684	3.59
632.016	3.74
632.348	4.07
632.679	3.78
633.011	3.52
633.342	3.6
633.674	3.97
634.005	3.75
634.336	3.61
634.668	3.59
634.999	3.46
635.33	3.89
635.661	3.8
635.992	3.52
636.323	3.75
636.654	3.72
636.985	3.96
637.316	3.71
637.647	3.25
637.977	3.55
638.308	4.1
638.639	4.13
638.969	3.73
639.3	4
639.63	3.7
639.961	3.98
640.291	3.75
640.622	3.82
640.952	3.93
641.282	4.31
641.612	4.02
641.943	3.58
642.273	3.65
642.603	4.17
642.933	3.76
643.263	3.97
643.592	3.73
643.922	3.25
644.252	3.72
644.582	3.87
644.911	3.99
645.241	4.08
645.571	4
645.9	4.03
646.23	3.86
646.559	3.61
646.888	3.63
647.218	4.2
647.547	3.78
647.876	4.02
648.205	4.11
648.534	3.49
648.863	4
649.192	4.13
649.521	3.72
649.85	4.32
650.179	3.97
650.508	4.08
650.837	4.14
651.165	3.67
651.494	3.8
651.822	3.68
652.151	3.69
652.479	3.81
652.808	4.07
653.136	3.67
653.465	3.59
653.793	3.77
654.121	3.94
654.449	3.76
654.777	3.97
655.105	3.89
655.433	3.57
655.761	4.09
656.089	4.03
656.417	3.84
656.745	3.84
657.073	3.9
657.4	3.89
657.728	4.35
658.056	3.59
658.383	3.55
658.711	3.87
659.038	3.69
659.365	4.08
659.693	3.64
660.02	3.74
660.347	3.85
660.674	3.67
661.001	3.45
661.329	3.47
661.656	3.59
661.982	3.65
662.309	4.07
662.636	3.74
662.963	4.44
663.29	4.14
663.616	4
663.943	4.14
664.27	3.41
664.596	3.86
664.923	3.74
665.249	4.19
665.576	3.86
665.902	3.99
666.228	3.59
666.554	4.5
666.881	4.42
667.207	4.24
667.533	4.1
667.859	3.89
668.185	3.89
668.511	4.47
668.837	3.99
669.162	4.54
669.488	4.34
669.814	3.76
670.139	3.9
670.465	4.09
670.791	3.78
671.116	3.87
671.442	4.56
671.767	4.34
672.092	3.67
672.418	3.81
672.743	4.07
673.068	3.8
673.393	3.58
673.718	4.15
674.043	3.68
674.368	4.06
674.693	4.8
675.018	4.16
675.343	3.7
675.667	3.82
675.992	3.88
676.317	3.86
676.641	3.29
676.966	4.12
677.29	4.11
677.615	4.11
677.939	3.54
678.264	3.87
678.588	3.53
678.912	3.6
679.236	3.91
679.56	4.09
679.885	3.94
680.209	3.26
680.532	4.43
680.856	3.58
681.18	4.21
681.504	3.94
681.828	3.62
682.152	3.58
682.475	4.21
682.799	4.03
683.122	3.99
683.446	4.24
683.769	3.97
684.093	3.4
684.416	3.93
684.739	4.05
685.062	4.1
685.386	3.9
685.709	4.09
686.032	4.32
686.355	4.13
686.678	4.75
687.001	4.14
687.324	4.38
687.646	4.77
687.969	4.84
688.292	4.33
688.614	3.87
688.937	3.73
689.26	4.52
689.582	4
689.904	4.11
690.227	3.82
690.549	4.27
690.871	4.36
691.194	4.04
691.516	3.45
691.838	4.33
692.16	4.26
692.482	4.04
692.804	4.01
693.126	4.39
693.448	4.19
