Data from 815658_forehead_Reflection__4__92.txt Node

Date: Fri Sep 16 15:20:47 CDT 2022
User: ToomeyLab
Spectrometer: FLMS14357
Trigger mode: 0
Integration Time (sec): 1.000000E-2
Scans to average: 100
Electric dark correction enabled: true
Nonlinearity correction enabled: false
Boxcar width: 0
XAxis mode: Wavelengths
Number of Pixels in Spectrum: 2048
>>>>>Begin Spectral Data<<<<<
189.047	55.39
189.435	55.39
189.823	55.39
190.211	-10.91
190.599	759.48
190.987	48.33
191.375	113.1
191.763	117.17
192.151	-103.14
192.538	321.27
192.926	-49.43
193.314	185.64
193.702	41.1
194.089	96.09
194.477	220.37
194.864	-166.85
195.252	-4.43
195.639	2853.21
196.027	138.46
196.414	151.15
196.801	0.71
197.189	7.28
197.576	69.95
197.963	-27.17
198.351	-20.89
198.738	31.59
199.125	55.23
199.512	-1.78
199.899	62.53
200.286	-14.22
200.673	24.28
201.06	72.25
201.447	51.12
201.833	9.28
202.22	2.08
202.607	13.91
202.994	47.59
203.38	21.71
203.767	24.71
204.154	49.92
204.54	56.48
204.927	30.79
205.313	31.19
205.699	71.44
206.086	50.51
206.472	48.17
206.858	28.65
207.245	40.45
207.631	-2.81
208.017	23.03
208.403	-13.27
208.789	19.28
209.175	30.33
209.561	45.07
209.947	23.19
210.333	27.55
210.719	36.42
211.105	59.57
211.491	56.89
211.876	19.74
212.262	26.03
212.648	43.78
213.034	15.65
213.419	15.83
213.805	39.38
214.19	27.4
214.576	17.26
214.961	4.23
215.346	2.6
215.732	-23.11
216.117	43.81
216.502	27.33
216.888	-2.07
217.273	12.95
217.658	19.82
218.043	-5.69
218.428	28.87
218.813	-3.84
219.198	25.63
219.583	20.82
219.968	26.79
220.353	6.6
220.738	20.4
221.122	-4.43
221.507	18.59
221.892	12.23
222.276	13.58
222.661	11.86
223.046	20.55
223.43	14.91
223.815	3.11
224.199	14.94
224.583	12.46
224.968	9.15
225.352	5.13
225.736	21.13
226.121	12.31
226.505	11.54
226.889	11.43
227.273	10.75
227.657	5.69
228.041	6.2
228.425	0.72
228.809	9.77
229.193	3.94
229.577	4.93
229.961	3.9
230.344	4.85
230.728	4.52
231.112	4.65
231.495	4
231.879	4.28
232.263	4.49
232.646	3.53
233.03	5.47
233.413	6.48
233.797	3.15
234.18	6.86
234.563	4.3
234.946	4.83
235.33	6.02
235.713	4.72
236.096	4.62
236.479	5.86
236.862	6.06
237.245	4.01
237.628	6.61
238.011	4.28
238.394	5.18
238.777	4.51
239.16	5.12
239.543	5.81
239.925	6.44
240.308	4.8
240.691	6.21
241.073	4.53
241.456	4.18
241.838	3.73
242.221	3.25
242.603	4.24
242.986	3.84
243.368	4.11
243.75	4.01
244.133	4.36
244.515	4.34
244.897	4.57
245.279	4.22
245.661	4.3
246.043	4.25
246.425	5.02
246.807	3.7
247.189	4.38
247.571	3.35
247.953	4
248.335	3.68
248.717	3.65
249.098	4.02
249.48	3.76
249.862	3.64
250.243	4.08
250.625	4.34
251.006	4.52
251.388	3.76
251.769	3.71
252.151	4.12
252.532	4.9
252.913	4.34
253.295	4.32
253.676	4.05
254.057	3.87
254.438	3.45
254.819	3.88
255.2	3.75
255.581	3.93
255.962	3.83
256.343	4.98
256.724	4.86
257.105	4.73
257.486	5.35
257.867	3.98
258.247	5.2
258.628	4.65
259.009	4.8
259.389	3.47
259.77	4.14
260.15	3.74
260.531	3.93
260.911	3.83
261.292	3.63
261.672	3.61
262.052	3.54
262.432	3.74
262.813	4.55
263.193	4.75
263.573	4.33
263.953	4.34
264.333	4.33
264.713	3.15
265.093	3.4
265.473	3.95
265.853	4.97
266.233	4.27
266.612	4.41
266.992	2.94
267.372	4.45
267.752	3.73
268.131	4.39
268.511	4.21
268.89	4.9
269.27	3.76
269.649	3.71
270.029	4.19
270.408	4.35
270.787	3.62
271.167	3.45
271.546	4.34
271.925	4.62
272.304	4.08
272.683	3.57
273.062	3.39
273.441	4.35
273.82	3.94
274.199	4.17
274.578	4.21
274.957	4.21
275.336	4.39
275.715	4.57
276.093	4.37
276.472	3.5
276.851	3.8
277.229	4.43
277.608	4.38
277.986	4.11
278.365	3.39
278.743	3.78
279.122	3.98
279.5	3.53
279.878	4.06
280.257	4.47
280.635	3.97
281.013	3.67
281.391	4.33
281.769	4.28
282.147	4.17
282.525	3.71
282.903	4.46
283.281	3.71
283.659	4.03
284.037	3.79
284.415	4.83
284.792	4.59
285.17	4.19
285.548	4.01
285.925	3.76
286.303	4.16
286.68	3.51
287.058	3.68
287.435	3.6
287.813	4.17
288.19	3.65
288.567	3.77
288.945	4.07
289.322	3.84
289.699	3.89
290.076	3.92
290.453	4.43
290.83	4.19
291.207	4.31
291.584	3.76
291.961	4.26
292.338	4.37
292.715	4.19
293.092	4.34
293.469	4.36
293.845	4.81
294.222	4.78
294.599	4.24
294.975	3.74
295.352	4.94
295.728	4.03
296.105	4.67
296.481	4.01
296.858	4.42
297.234	4.62
297.61	4.72
297.986	4.59
298.363	4.22
298.739	4.12
299.115	4.33
299.491	4.82
299.867	4.49
300.243	4.72
300.619	4.94
300.995	4.57
301.371	4.85
301.746	4.88
302.122	5.19
302.498	4.4
302.874	4.73
303.249	5.16
303.625	4.62
304	4.47
304.376	4.61
304.751	5.21
305.127	4.7
305.502	5.11
305.878	5.42
306.253	5.01
306.628	4.72
307.003	5.5
307.378	5.03
307.754	5.52
308.129	5.95
308.504	5.13
308.879	5.36
309.254	5.26
309.629	4.86
310.003	5.62
310.378	4.99
310.753	4.64
311.128	5.51
311.502	4.63
311.877	5.17
312.252	5.69
312.626	4.99
313.001	5.43
313.375	5.65
313.75	5.5
314.124	5.54
314.498	5.46
314.873	6.2
315.247	5.83
315.621	5.68
315.995	5.79
316.369	5.79
316.743	6.25
317.117	5.79
317.491	5.73
317.865	6.02
318.239	6.31
318.613	5.47
318.987	5.71
319.361	5.77
319.734	5.9
320.108	6.08
320.482	6.78
320.855	6.15
321.229	6.13
321.602	6.61
321.976	6.48
322.349	5.81
322.723	6.02
323.096	6.2
323.469	6.26
323.843	6.65
324.216	6.51
324.589	6.56
324.962	6.44
325.335	6.58
325.708	6.37
326.081	6.22
326.454	6.87
326.827	6.34
327.2	6.36
327.573	6.47
327.945	6.73
328.318	6.71
328.691	7.07
329.063	6.93
329.436	6.78
329.809	6.76
330.181	7.49
330.553	7.01
330.926	6.4
331.298	6.85
331.671	7.17
332.043	6.77
332.415	6.66
332.787	6.87
333.159	7.04
333.532	7.52
333.904	7.95
334.276	7.39
334.648	7.68
335.02	7.64
335.391	8.14
335.763	7.34
336.135	7.45
336.507	7.84
336.879	7.84
337.25	7.1
337.622	7.92
337.993	8.06
338.365	7.77
338.736	8.51
339.108	7.86
339.479	7.75
339.851	7.84
340.222	8
340.593	8.17
340.964	8.23
341.336	8.04
341.707	8.08
342.078	8.38
342.449	8.22
342.82	7.65
343.191	8.08
343.562	8.31
343.933	8.38
344.303	8.69
344.674	8.01
345.045	8.88
345.416	8.54
345.786	8.68
346.157	8.71
346.527	8.45
346.898	8.42
347.268	8.71
347.639	8.58
348.009	8.49
348.38	8.93
348.75	8.64
349.12	8.71
349.49	8.73
349.861	9.08
350.231	8.81
350.601	9.26
350.971	9.24
351.341	9.58
351.711	9.53
352.081	8.98
352.45	9.45
352.82	9.24
353.19	9.4
353.56	9.51
353.929	9.61
354.299	9.39
354.669	9.59
355.038	9.29
355.408	9.63
355.777	9.42
356.147	9.58
356.516	9.85
356.885	9.74
357.254	9.89
357.624	9.63
357.993	9.79
358.362	9.86
358.731	9.96
359.1	9.77
359.469	9.79
359.838	9.9
360.207	10.27
360.576	10.13
360.945	10.1
361.314	9.85
361.682	9.6
362.051	10.08
362.42	10.34
362.788	10.5
363.157	10.49
363.525	10.23
363.894	10.47
364.262	10.35
364.631	10.61
364.999	10.67
365.367	10.71
365.735	10.75
366.104	11
366.472	11.11
366.84	10.96
367.208	10.73
367.576	10.82
367.944	11
368.312	10.77
368.68	11.05
369.048	11.1
369.416	10.96
369.783	11.25
370.151	11.22
370.519	11.35
370.886	11.08
371.254	11.23
371.621	11.74
371.989	11.28
372.356	11.68
372.724	11.56
373.091	11.7
373.458	11.68
373.826	11.54
374.193	12.24
374.56	11.6
374.927	12.06
375.294	11.9
375.661	11.79
376.028	12.06
376.395	11.63
376.762	12.16
377.129	11.96
377.496	12.03
377.863	11.84
378.229	12.42
378.596	12.22
378.963	12.23
379.329	12.23
379.696	12.76
380.062	12.3
380.429	12.42
380.795	12.54
381.161	12.82
381.528	12.67
381.894	12.59
382.26	12.76
382.626	13.04
382.993	12.97
383.359	12.73
383.725	13.07
384.091	12.84
384.457	12.67
384.823	12.88
385.188	13.01
385.554	12.95
385.92	13.22
386.286	13.21
386.651	13.2
387.017	13.44
387.383	13.07
387.748	13.04
388.114	13.12
388.479	13.26
388.845	13.3
389.21	13.75
389.575	13.51
389.94	13.75
390.306	13.66
390.671	13.48
391.036	13.46
391.401	13.99
391.766	13.95
392.131	13.96
392.496	13.8
392.861	14.03
393.226	14.16
393.591	14.25
393.956	14.18
394.32	14.23
394.685	13.86
395.05	14.5
395.414	14.13
395.779	14.43
396.143	14.42
396.508	14.48
396.872	14.52
397.236	14.52
397.601	14.56
397.965	14.39
398.329	14.83
398.694	14.87
399.058	14.96
399.422	14.84
399.786	14.89
400.15	14.95
400.514	14.97
400.878	15.11
401.242	14.98
401.605	14.99
401.969	15.17
402.333	15.56
402.697	15.14
403.06	15.52
403.424	15.23
403.787	15.45
404.151	15.38
404.514	15.39
404.878	15.55
405.241	15.29
405.604	15.74
405.968	15.73
406.331	15.5
406.694	15.59
407.057	15.75
407.42	15.85
407.783	15.87
408.146	16.17
408.509	15.99
408.872	16.1
409.235	16.06
409.598	16.2
409.961	16.54
410.323	16.44
410.686	16.49
411.049	16.32
411.411	16.32
411.774	16.57
412.136	16.36
412.499	16.6
412.861	16.51
413.223	16.71
413.586	16.65
413.948	16.76
414.31	17.13
414.672	16.62
415.035	17.02
415.397	16.66
415.759	17.04
416.121	16.8
416.483	17.05
416.845	17.31
417.206	17.03
417.568	17.31
417.93	17.46
418.292	17.18
418.653	17.23
419.015	17.21
419.377	17.26
419.738	17.07
420.1	17.38
420.461	17.28
420.822	17.31
421.184	17.35
421.545	17.32
421.906	17.39
422.267	17.52
422.629	17.18
422.99	17.23
423.351	17.41
423.712	17.53
424.073	17.68
424.434	17.8
424.795	17.75
425.155	17.82
425.516	17.72
425.877	17.66
426.238	17.84
426.598	17.87
426.959	17.92
427.32	18.14
427.68	18.26
428.041	18.26
428.401	18.38
428.761	18.77
429.122	18.68
429.482	18.68
429.842	18.59
430.202	18.81
430.563	18.84
430.923	18.69
431.283	19.01
431.643	19.05
432.003	19.15
432.363	19.21
432.722	19.06
433.082	19.11
433.442	19.3
433.802	19.26
434.161	19.15
434.521	19.25
434.881	19.18
435.24	19.3
435.6	19.34
435.959	19.44
436.319	19.47
436.678	19.68
437.037	19.63
437.396	19.66
437.756	19.91
438.115	19.69
438.474	19.79
438.833	19.87
439.192	19.72
439.551	19.76
439.91	19.8
440.269	19.99
440.628	20.14
440.987	19.98
441.345	19.94
441.704	20.1
442.063	20.08
442.421	20.03
442.78	20.04
443.138	20.3
443.497	20.35
443.855	20.44
444.214	20.45
444.572	20.61
444.93	20.74
445.288	20.55
445.647	20.75
446.005	20.72
446.363	20.63
446.721	20.61
447.079	20.7
447.437	20.54
447.795	20.55
448.153	20.66
448.51	20.62
448.868	20.64
449.226	20.87
449.584	20.91
449.941	21.2
450.299	21.25
450.656	21.37
451.014	21.42
451.371	21.44
451.729	21.58
452.086	21.54
452.443	21.61
452.801	21.79
453.158	21.93
453.515	21.83
453.872	21.77
454.229	21.86
454.586	21.94
454.943	22.03
455.3	22.06
455.657	22.16
456.014	22.26
456.371	21.97
456.727	22.11
457.084	22.4
457.441	22.32
457.797	22.4
458.154	22.47
458.51	22.77
458.867	22.66
459.223	22.49
459.58	22.72
459.936	22.44
460.292	22.46
460.648	22.51
461.005	22.44
461.361	22.16
461.717	22.19
462.073	22.42
462.429	22.64
462.785	22.87
463.141	23.02
463.496	22.96
463.852	23.13
464.208	23.22
464.564	23.26
464.919	23.45
465.275	23.62
465.631	23.58
465.986	23.53
466.342	23.68
466.697	23.54
467.052	23.64
467.408	23.95
467.763	23.75
468.118	23.73
468.473	23.64
468.829	23.82
469.184	23.7
469.539	23.95
469.894	24.16
470.249	24.2
470.603	24.01
470.958	24.09
471.313	24.21
471.668	24.44
472.023	24.35
472.377	24.51
472.732	24.46
473.086	24.5
473.441	24.43
473.795	24.62
474.15	24.63
474.504	24.78
474.859	24.68
475.213	24.69
475.567	24.57
475.921	24.79
476.275	24.78
476.63	25.06
476.984	25.2
477.338	25.22
477.692	25.04
478.045	24.96
478.399	25.01
478.753	24.98
479.107	24.96
479.461	24.88
479.814	25.07
480.168	25.11
480.521	25.25
480.875	25.37
481.228	25.24
481.582	25.52
481.935	25.37
482.289	25.41
482.642	25.27
482.995	25.29
483.348	25.27
483.701	25.32
484.055	25.11
484.408	25.04
484.761	24.75
485.114	24.35
485.466	24.21
485.819	24.34
486.172	24.75
486.525	25.05
486.878	25.24
487.23	25.33
487.583	25.39
487.936	25.37
488.288	25.25
488.641	25.11
488.993	25.08
489.345	25.03
489.698	25.21
490.05	25.32
490.402	25.55
490.754	25.73
491.107	25.86
491.459	26.12
491.811	26.24
492.163	26.25
492.515	25.99
492.866	25.7
493.218	25.38
493.57	25.54
493.922	25.89
494.274	26.19
494.625	26.56
494.977	26.62
495.328	26.9
495.68	27.07
496.031	27.1
496.383	27.12
496.734	27.27
497.086	27.35
497.437	27.21
497.788	27.25
498.139	26.91
498.49	27.12
498.842	27.08
499.193	27.25
499.544	27.4
499.894	27.45
500.245	27.56
500.596	27.59
500.947	27.67
501.298	27.67
501.648	27.88
501.999	27.83
502.35	27.95
502.7	28.08
503.051	27.94
503.401	28.05
503.752	28.22
504.102	28.26
504.452	28.24
504.803	28.35
505.153	28.15
505.503	28.45
505.853	28.24
506.203	28.4
506.553	28.41
506.903	28.63
507.253	28.71
507.603	28.73
507.953	28.65
508.303	28.6
508.652	28.79
509.002	28.8
509.352	28.64
509.701	28.77
510.051	28.66
510.4	28.74
510.75	28.44
511.099	28.61
511.449	28.7
511.798	28.77
512.147	28.86
512.496	29.07
512.846	29.04
513.195	28.98
513.544	29.03
513.893	28.97
514.242	29.12
514.591	29.31
514.939	29.34
515.288	29.41
515.637	29.61
515.986	29.57
516.334	29.61
516.683	29.73
517.032	29.89
517.38	29.57
517.729	29.9
518.077	29.87
518.426	29.77
518.774	29.74
519.122	29.58
519.47	29.51
519.819	29.57
520.167	29.29
520.515	29.39
520.863	29.54
521.211	29.67
521.559	29.67
521.907	29.85
522.255	29.94
522.602	30.04
522.95	30.19
523.298	30.36
523.645	30.42
523.993	30.42
524.341	30.56
524.688	30.45
525.036	30.62
525.383	30.61
525.73	30.5
526.078	30.48
526.425	30.44
526.772	30.5
527.119	30.15
527.466	30.1
527.814	30.28
528.161	30.32
528.508	30.38
528.854	30.33
529.201	30.39
529.548	30.04
529.895	29.71
530.242	29.55
530.588	29.74
530.935	30.05
531.282	30.31
531.628	30.38
531.975	30.71
532.321	30.75
532.667	30.92
533.014	30.94
533.36	30.94
533.706	31.08
534.052	30.94
534.399	30.8
534.745	30.42
535.091	30.42
535.437	30.76
535.783	30.92
536.129	31.33
536.474	31.49
536.82	31.58
537.166	31.61
537.512	31.7
537.857	31.51
538.203	31.39
538.549	31.19
538.894	31.51
539.239	31.76
539.585	31.91
539.93	31.98
540.276	32.32
540.621	32.39
540.966	32.42
541.311	32.25
541.656	32.36
542.001	32.03
542.346	31.77
542.691	31.39
543.036	31.17
543.381	31.38
543.726	31.62
544.071	31.98
544.415	31.93
544.76	32.11
545.105	32.15
545.449	32.24
545.794	32.61
546.138	32.6
546.483	32.87
546.827	32.86
547.171	32.84
547.516	32.82
547.86	32.69
548.204	32.64
548.548	32.75
548.892	32.78
549.236	32.85
549.58	33.38
549.924	33.56
550.268	33.3
550.612	33.75
550.956	33.74
551.3	33.78
551.643	33.74
551.987	33.86
552.33	33.89
552.674	34
553.017	34.15
553.361	34.02
553.704	33.9
554.048	34.05
554.391	33.85
554.734	33.88
555.077	33.94
555.42	34.41
555.764	34.28
556.107	34.19
556.45	34.18
556.793	34.72
557.135	34.64
557.478	34.6
557.821	34.52
558.164	34.62
558.507	34.76
558.849	34.54
559.192	34.93
559.534	34.91
559.877	34.77
560.219	34.87
560.562	35.07
560.904	35.14
561.246	35.1
561.589	35.15
561.931	35.05
562.273	35.28
562.615	35.01
562.957	35.02
563.299	35.16
563.641	35.09
563.983	35.31
564.325	35.14
564.667	35.31
565.008	35.52
565.35	35.5
565.692	35.51
566.033	35.65
566.375	35.37
566.716	35.63
567.058	35.49
567.399	35.58
567.741	35.25
568.082	35.33
568.423	35.11
568.764	35.58
569.105	35.52
569.447	35.7
569.788	35.65
570.129	35.83
570.47	35.87
570.811	36.08
571.151	36.11
571.492	35.95
571.833	36.13
572.174	36.25
572.514	36.16
572.855	36.1
573.195	35.99
573.536	35.88
573.876	35.99
574.217	35.86
574.557	36.23
574.898	36.45
575.238	36.46
575.578	36.37
575.918	36.25
576.258	36.26
576.598	36.15
576.938	36.33
577.278	36.2
577.618	36.49
577.958	36.69
578.298	36.56
578.638	36.73
578.977	36.68
579.317	36.83
579.657	37.07
579.996	36.73
580.336	37.11
580.675	37.05
581.014	37.36
581.354	37.44
581.693	37.17
582.032	37.43
582.372	37.58
582.711	37.55
583.05	37.62
583.389	37.58
583.728	37.54
584.067	37.58
584.406	37.54
584.745	37.89
585.083	37.83
585.422	37.84
585.761	37.78
586.1	37.59
586.438	38.29
586.777	37.52
587.115	38.1
587.454	38.06
587.792	38.35
588.13	38.21
588.469	38.31
588.807	38.21
589.145	38.17
589.483	38.17
589.821	38.42
590.159	38.47
590.497	38.08
590.835	38.26
591.173	38.44
591.511	38.16
591.849	38.11
592.187	38.28
592.524	38.18
592.862	38.78
593.2	38.42
593.537	38.5
593.875	38.68
594.212	38.98
594.55	38.62
594.887	38.66
595.224	38.38
595.561	38.6
595.899	38.61
596.236	38.57
596.573	38.55
596.91	38.78
597.247	38.7
597.584	38.47
597.921	38.81
598.258	38.45
598.594	38.42
598.931	38.47
599.268	38.5
599.604	38.8
599.941	39.02
600.277	38.76
600.614	39.2
600.95	39.09
601.287	39.28
601.623	39.28
601.959	39.75
602.296	39.25
602.632	39.75
602.968	39.3
603.304	39.73
603.64	39.81
603.976	39.51
604.312	39.79
604.648	39.52
604.984	39.19
605.319	39.81
605.655	39.57
605.991	39.32
606.326	39.25
606.662	39.42
606.998	39.31
607.333	39.35
607.668	39.69
608.004	39.74
608.339	40.02
608.674	40.15
609.01	40.19
609.345	40.25
609.68	40.57
610.015	40.33
610.35	40.55
610.685	40.28
611.02	39.81
611.355	39.89
611.689	39.88
612.024	40.08
612.359	40.24
612.694	40.18
613.028	40.39
613.363	40.48
613.697	40.74
614.032	40.94
614.366	40.65
614.7	40.63
615.035	40.67
615.369	40.68
615.703	40.5
616.037	40.94
616.371	41.14
616.705	41.12
617.039	40.79
617.373	40.97
617.707	40.85
618.041	40.83
618.375	41.53
618.709	40.92
619.042	41.03
619.376	41.05
619.71	41.42
620.043	41.26
620.377	41.26
620.71	40.93
621.043	41.33
621.377	41.47
621.71	41.53
622.043	41.54
622.376	41.28
622.709	41.04
623.043	41.71
623.376	41.36
623.709	41.59
624.041	41.51
624.374	41.72
624.707	41.38
625.04	41.37
625.373	41.75
625.705	41.94
626.038	42
626.37	42.07
626.703	42.02
627.035	41.62
627.368	42.16
627.7	41.63
628.032	41.7
628.365	41.9
628.697	41.52
629.029	42.08
629.361	41.77
629.693	41.54
630.025	42.04
630.357	42.18
630.689	42.52
631.021	42.15
631.353	42.28
631.684	42.19
632.016	41.98
632.348	42.3
632.679	42.51
633.011	42.53
633.342	42.42
633.674	42.71
634.005	42.47
634.336	42.78
634.668	42.61
634.999	42.27
635.33	42.95
635.661	42.53
635.992	42.13
636.323	42.26
636.654	42.83
636.985	42.77
637.316	43
637.647	42.65
637.977	42.68
638.308	43.05
638.639	42.91
638.969	42.86
639.3	42.5
639.63	42.41
639.961	43.16
640.291	42.96
640.622	43.15
640.952	43.1
641.282	43.15
641.612	43.31
641.943	43.16
642.273	42.6
642.603	43.31
642.933	43.35
643.263	43.42
643.592	43.32
643.922	42.94
644.252	43.58
644.582	43.21
644.911	43.41
645.241	43.52
645.571	43.69
645.9	43.34
646.23	42.89
646.559	43.49
646.888	43.49
647.218	44.04
647.547	43.53
647.876	43.93
648.205	43.4
648.534	43.45
648.863	43.43
649.192	43.4
649.521	43.19
649.85	43.73
650.179	43.85
650.508	43.86
650.837	44.01
651.165	44.1
651.494	43.5
651.822	43.44
652.151	43.81
652.479	43.9
652.808	44.25
653.136	43.89
653.465	44.4
653.793	43.91
654.121	44.13
654.449	43.77
654.777	44.25
655.105	44.57
655.433	43.9
655.761	45.41
656.089	44.2
656.417	45.08
656.745	44.32
657.073	44.44
657.4	44.45
657.728	44.62
658.056	44.23
658.383	44.8
658.711	44.23
659.038	44.21
659.365	44.48
659.693	44.62
660.02	44.56
660.347	44.55
660.674	44.34
661.001	44.3
661.329	44.2
661.656	44.6
661.982	44.4
662.309	44.53
662.636	44.97
662.963	44.94
663.29	44.7
663.616	44.52
663.943	44.77
664.27	45.22
664.596	44.89
664.923	44.97
665.249	45.33
665.576	45.22
665.902	44.89
666.228	45.05
666.554	45.45
666.881	45.42
667.207	45.6
667.533	45.13
667.859	45.11
668.185	45.49
668.511	45.26
668.837	44.66
669.162	44.92
669.488	45.47
669.814	45.65
670.139	44.85
670.465	44.94
670.791	45.39
671.116	44.94
671.442	45.31
