Data from 815658_forehead_Reflection__2__90.txt Node

Date: Fri Sep 16 15:20:15 CDT 2022
User: ToomeyLab
Spectrometer: FLMS14357
Trigger mode: 0
Integration Time (sec): 1.000000E-2
Scans to average: 100
Electric dark correction enabled: true
Nonlinearity correction enabled: false
Boxcar width: 0
XAxis mode: Wavelengths
Number of Pixels in Spectrum: 2048
>>>>>Begin Spectral Data<<<<<
189.047	-18.43
189.435	-18.43
189.823	-18.43
190.211	176.89
190.599	-192.24
190.987	29.62
191.375	63.47
191.763	75.3
192.151	-302.38
192.538	275.4
192.926	24.8
193.314	102.49
193.702	64.03
194.089	45.12
194.477	234.86
194.864	-278.43
195.252	56.95
195.639	1191.67
196.027	84.61
196.414	217.62
196.801	-67.59
197.189	162.4
197.576	-146.08
197.963	-0.88
198.351	41.02
198.738	28.99
199.125	56.83
199.512	12.64
199.899	20.31
200.286	24.48
200.673	-24.14
201.06	15
201.447	43.6
201.833	-10.87
202.22	39.39
202.607	-29.95
202.994	58.76
203.38	29.25
203.767	27.25
204.154	21.95
204.54	38.45
204.927	6.7
205.313	53.71
205.699	65.84
206.086	38.44
206.472	39.66
206.858	22.08
207.245	37.57
207.631	24.51
208.017	30.13
208.403	7.02
208.789	26.53
209.175	44.13
209.561	44.13
209.947	27.73
210.333	15.07
210.719	10.5
211.105	23.3
211.491	24.58
211.876	24.6
212.262	19.98
212.648	44.25
213.034	33.14
213.419	4
213.805	23.58
214.19	61.8
214.576	23.54
214.961	34.6
215.346	-15.16
215.732	16.39
216.117	41.16
216.502	57.15
216.888	32.63
217.273	31.2
217.658	16.35
218.043	6.93
218.428	18.68
218.813	26.58
219.198	22.76
219.583	-0.48
219.968	25.05
220.353	-0.25
220.738	31.32
221.122	-7.64
221.507	34.34
221.892	11.96
222.276	23.12
222.661	19.89
223.046	18.27
223.43	19.34
223.815	-1.67
224.199	18.47
224.583	17.62
224.968	20.89
225.352	8.47
225.736	15.4
226.121	11.02
226.505	10.75
226.889	9.79
227.273	10.14
227.657	12.08
228.041	4.9
228.425	3.01
228.809	11
229.193	4.48
229.577	4.25
229.961	3.66
230.344	5.86
230.728	4.54
231.112	4.2
231.495	3.41
231.879	5.37
232.263	3.61
232.646	4.22
233.03	4.36
233.413	5.29
233.797	4.73
234.18	5.4
234.563	5.22
234.946	5.75
235.33	5.41
235.713	3.28
236.096	4.59
236.479	5.26
236.862	4.59
237.245	4.17
237.628	5.3
238.011	5.46
238.394	3.64
238.777	4.97
239.16	6.96
239.543	6.74
239.925	5.79
240.308	3.52
240.691	5.77
241.073	5.17
241.456	4.33
241.838	4.88
242.221	4.18
242.603	4.49
242.986	4.07
243.368	4.08
243.75	3.73
244.133	4.16
244.515	4.12
244.897	4.59
245.279	4.1
245.661	4.27
246.043	4.09
246.425	5.22
246.807	4.65
247.189	4.71
247.571	3.82
247.953	3.91
248.335	4.05
248.717	3.93
249.098	4.06
249.48	3.9
249.862	4
250.243	4.13
250.625	4.38
251.006	4.4
251.388	5.58
251.769	4.03
252.151	5.22
252.532	4.33
252.913	4.89
253.295	4.76
253.676	4.39
254.057	4.27
254.438	3.36
254.819	3.65
255.2	4.1
255.581	5.17
255.962	4.13
256.343	5.01
256.724	3.24
257.105	3.52
257.486	4.5
257.867	4.3
258.247	4.89
258.628	4.17
259.009	4.79
259.389	4.87
259.77	4.12
260.15	4.29
260.531	4.14
260.911	4.21
261.292	3.93
261.672	3.89
262.052	3.99
262.432	4.04
262.813	4.58
263.193	4.35
263.573	4.05
263.953	4.4
264.333	3.82
264.713	3.98
265.093	3.67
265.473	3.83
265.853	5.14
266.233	4.59
266.612	5.57
266.992	3.23
267.372	4.7
267.752	4.32
268.131	4.23
268.511	4.49
268.89	4.64
269.27	3.84
269.649	4.02
270.029	4.28
270.408	4.7
270.787	4.13
271.167	3.8
271.546	4.56
271.925	4.52
272.304	3.85
272.683	4.24
273.062	4.14
273.441	4.19
273.82	3.73
274.199	4.32
274.578	4.31
274.957	4.21
275.336	4.59
275.715	5.02
276.093	3.94
276.472	3.85
276.851	4.02
277.229	4.22
277.608	4.17
277.986	4.29
278.365	3.57
278.743	4.23
279.122	4.4
279.5	4.4
279.878	4.36
280.257	4.44
280.635	4.59
281.013	3.99
281.391	4.76
281.769	4.71
282.147	4.33
282.525	3.93
282.903	4.27
283.281	3.79
283.659	4.47
284.037	4.32
284.415	4.43
284.792	4.76
285.17	4.62
285.548	4.02
285.925	3.76
286.303	3.98
286.68	4.12
287.058	3.92
287.435	4.12
287.813	4.31
288.19	3.65
288.567	4.09
288.945	4.18
289.322	4.41
289.699	4.22
290.076	4.06
290.453	4.43
290.83	4.42
291.207	4.12
291.584	3.92
291.961	4.39
292.338	4.58
292.715	4.38
293.092	4.73
293.469	4.92
293.845	4.63
294.222	4.62
294.599	4.99
294.975	4.97
295.352	5.13
295.728	4.61
296.105	4.86
296.481	4.66
296.858	4.16
297.234	4.86
297.61	5.11
297.986	5.15
298.363	4.81
298.739	4.53
299.115	5.23
299.491	5.05
299.867	4.84
300.243	5.44
300.619	5.15
300.995	5.24
301.371	5.26
301.746	5.15
302.122	5.27
302.498	5.15
302.874	5.3
303.249	5.42
303.625	5.56
304	5.28
304.376	4.94
304.751	5.63
305.127	5.33
305.502	5.32
305.878	5.49
306.253	5.62
306.628	5.5
307.003	5.97
307.378	6.42
307.754	6.23
308.129	6.37
308.504	6.08
308.879	6.3
309.254	6.25
309.629	5.78
310.003	6.12
310.378	5.63
310.753	5.82
311.128	6.16
311.502	5.87
311.877	6.27
312.252	6.45
312.626	6.25
313.001	6.15
313.375	6.39
313.75	6.12
314.124	6.23
314.498	6.22
314.873	6.9
315.247	6.15
315.621	6.5
315.995	6.65
316.369	6.28
316.743	7.44
317.117	6.69
317.491	6.88
317.865	6.97
318.239	6.8
318.613	6.66
318.987	6.89
319.361	7.04
319.734	7.01
320.108	7.01
320.482	7.06
320.855	6.75
321.229	7.43
321.602	7.54
321.976	7.8
322.349	7.69
322.723	6.99
323.096	7.46
323.469	7.53
323.843	7.44
324.216	7.92
324.589	7.52
324.962	7.7
325.335	8.67
325.708	7.37
326.081	8
326.454	7.96
326.827	7.93
327.2	8.09
327.573	8.06
327.945	8.06
328.318	7.84
328.691	8.14
329.063	7.89
329.436	7.77
329.809	7.82
330.181	8.45
330.553	8.4
330.926	8.36
331.298	8.6
331.671	8.5
332.043	8.44
332.415	8.44
332.787	8.49
333.159	8.54
333.532	9.31
333.904	8.87
334.276	8.99
334.648	8.6
335.02	8.65
335.391	8.79
335.763	8.85
336.135	8.91
336.507	8.82
336.879	9.37
337.25	8.62
337.622	9.39
337.993	9.64
338.365	9.31
338.736	9.84
339.108	9.38
339.479	9.55
339.851	9.43
340.222	9.3
340.593	9.52
340.964	9.53
341.336	9.37
341.707	9.7
342.078	9.95
342.449	9.65
342.82	9.51
343.191	9.8
343.562	10.03
343.933	9.84
344.303	10.15
344.674	9.5
345.045	10.39
345.416	9.86
345.786	10.11
346.157	10.35
346.527	10.09
346.898	10.33
347.268	10.41
347.639	10.16
348.009	10.2
348.38	10.8
348.75	10.18
349.12	10.48
349.49	10.88
349.861	10.66
350.231	10.69
350.601	10.62
350.971	10.39
351.341	11.19
351.711	10.84
352.081	10.33
352.45	11.12
352.82	11.4
353.19	10.54
353.56	10.88
353.929	11.11
354.299	11.17
354.669	10.92
355.038	10.83
355.408	11.4
355.777	11.26
356.147	11.32
356.516	11.21
356.885	11.3
357.254	11.32
357.624	11.75
357.993	11.1
358.362	11.33
358.731	11.72
359.1	11.51
359.469	11.61
359.838	11.66
360.207	12.01
360.576	12.09
360.945	11.78
361.314	11.98
361.682	11.94
362.051	11.88
362.42	12.34
362.788	12.34
363.157	12.1
363.525	12.02
363.894	12.33
364.262	12.13
364.631	12.3
364.999	12.28
365.367	12.42
365.735	12.81
366.104	12.54
366.472	13.1
366.84	12.84
367.208	13
367.576	12.79
367.944	12.79
368.312	12.64
368.68	13.08
369.048	13.41
369.416	13.05
369.783	13.24
370.151	13.48
370.519	12.96
370.886	13.23
371.254	13.12
371.621	13.4
371.989	13.13
372.356	13.55
372.724	13.66
373.091	13.37
373.458	13.6
373.826	13.66
374.193	13.96
374.56	13.56
374.927	13.98
375.294	13.97
375.661	13.64
376.028	13.97
376.395	13.94
376.762	14.14
377.129	13.87
377.496	14.07
377.863	14.23
378.229	14.23
378.596	14.34
378.963	14.33
379.329	14.1
379.696	14.46
380.062	14.42
380.429	14.81
380.795	14.75
381.161	14.79
381.528	14.85
381.894	14.76
382.26	15.2
382.626	14.65
382.993	14.9
383.359	14.96
383.725	15.11
384.091	14.96
384.457	14.79
384.823	15.07
385.188	15.1
385.554	15.08
385.92	15.65
386.286	15.38
386.651	15.45
387.017	15.31
387.383	15.14
387.748	15.29
388.114	15.08
388.479	15.63
388.845	15.96
389.21	15.93
389.575	15.66
389.94	16.08
390.306	15.77
390.671	15.92
391.036	15.84
391.401	16.03
391.766	16.2
392.131	16.26
392.496	16.05
392.861	16.16
393.226	16.28
393.591	16.27
393.956	16.19
394.32	16.5
394.685	16.63
395.05	16.71
395.414	16.42
395.779	16.57
396.143	16.69
396.508	16.56
396.872	16.7
397.236	16.89
397.601	16.83
397.965	16.95
398.329	16.96
398.694	17.1
399.058	17.22
399.422	17.03
399.786	17.24
400.15	17.27
400.514	17.38
400.878	17.62
401.242	17.54
401.605	17.59
401.969	17.67
402.333	17.64
402.697	17.73
403.06	17.86
403.424	18.03
403.787	17.74
404.151	17.85
404.514	18.05
404.878	18.11
405.241	17.93
405.604	18.2
405.968	18.29
406.331	18.03
406.694	18.33
407.057	18.28
407.42	18.3
407.783	18.39
408.146	18.79
408.509	18.61
408.872	18.63
409.235	18.67
409.598	18.84
409.961	19.09
410.323	19.18
410.686	19.18
411.049	19.19
411.411	18.71
411.774	19.04
412.136	19.19
412.499	19.42
412.861	19.02
413.223	19.32
413.586	19.38
413.948	19.46
414.31	19.7
414.672	19.63
415.035	20.13
415.397	19.65
415.759	19.93
416.121	19.6
416.483	19.82
416.845	19.97
417.206	19.88
417.568	19.85
417.93	19.94
418.292	19.96
418.653	19.83
419.015	19.94
419.377	19.95
419.738	19.82
420.1	20.12
420.461	20.1
420.822	20
421.184	20.14
421.545	20.1
421.906	20.3
422.267	20.29
422.629	20.05
422.99	20.18
423.351	20.34
423.712	20.37
424.073	20.49
424.434	20.56
424.795	20.7
425.155	20.6
425.516	20.65
425.877	20.55
426.238	20.6
426.598	20.72
426.959	20.83
427.32	20.9
427.68	21.12
428.041	21.22
428.401	21.35
428.761	21.68
429.122	21.72
429.482	21.68
429.842	21.57
430.202	21.72
430.563	21.85
430.923	21.85
431.283	22.07
431.643	21.95
432.003	22.09
432.363	22.27
432.722	22.31
433.082	22.27
433.442	22.42
433.802	22.31
434.161	22.2
434.521	22.51
434.881	22.38
435.24	22.44
435.6	22.52
435.959	22.53
436.319	22.44
436.678	22.61
437.037	22.57
437.396	22.74
437.756	22.89
438.115	23.02
438.474	22.93
438.833	22.82
439.192	23
439.551	23.06
439.91	23.08
440.269	23.3
440.628	23.1
440.987	23.17
441.345	23.13
441.704	23.25
442.063	23.21
442.421	23.11
442.78	23.32
443.138	23.46
443.497	23.58
443.855	23.46
444.214	23.75
444.572	23.83
444.93	23.86
445.288	23.92
445.647	23.85
446.005	24.02
446.363	23.84
446.721	24.05
447.079	23.99
447.437	24.03
447.795	23.86
448.153	23.92
448.51	23.85
448.868	24.08
449.226	24.21
449.584	24.26
449.941	24.37
450.299	24.57
450.656	24.5
451.014	24.63
451.371	24.67
451.729	24.9
452.086	24.7
452.443	25.15
452.801	25.23
453.158	25.11
453.515	25.29
453.872	24.89
454.229	25.08
454.586	25.16
454.943	25.31
455.3	25.47
455.657	25.54
456.014	25.56
456.371	25.44
456.727	25.55
457.084	25.71
457.441	25.81
457.797	25.84
458.154	25.83
458.51	25.95
458.867	26.12
459.223	26.07
459.58	26.2
459.936	26.03
460.292	25.94
460.648	26.03
461.005	25.98
461.361	25.9
461.717	25.67
462.073	25.78
462.429	25.93
462.785	26.09
463.141	26.23
463.496	26.37
463.852	26.47
464.208	26.69
464.564	26.72
464.919	27.1
465.275	26.94
465.631	27.06
465.986	27.04
466.342	27.16
466.697	27.18
467.052	27
467.408	27.36
467.763	27.33
468.118	27.18
468.473	27.21
468.829	27.52
469.184	27.56
469.539	27.41
469.894	27.65
470.249	27.64
470.603	27.67
470.958	27.45
471.313	27.71
471.668	27.6
472.023	27.76
472.377	27.89
472.732	27.76
473.086	28.04
473.441	27.94
473.795	28.1
474.15	28.1
474.504	28.44
474.859	27.96
475.213	28.13
475.567	28.17
475.921	28.61
476.275	28.62
476.63	28.45
476.984	28.73
477.338	28.87
477.692	28.79
478.045	28.72
478.399	28.66
478.753	28.64
479.107	28.81
479.461	28.76
479.814	28.9
480.168	28.97
480.521	28.76
480.875	28.92
481.228	28.97
481.582	29.18
481.935	29.11
482.289	29.18
482.642	29.17
482.995	29.18
483.348	29.04
483.701	29.03
484.055	29.04
484.408	28.9
484.761	28.71
485.114	28.41
485.466	28.35
485.819	28.56
486.172	28.61
486.525	28.79
486.878	28.9
487.23	28.99
487.583	29.2
487.936	29.23
488.288	29.27
488.641	29.1
488.993	29.16
489.345	29.04
489.698	29.1
490.05	29.25
490.402	29.31
490.754	29.57
491.107	29.69
491.459	29.96
491.811	30.1
492.163	30.05
492.515	30.08
492.866	29.79
493.218	29.55
493.57	29.75
493.922	29.84
494.274	29.95
494.625	30.31
494.977	30.44
495.328	30.67
495.68	30.87
496.031	31.07
496.383	31.38
496.734	31.08
497.086	31.31
497.437	31.11
497.788	31.28
498.139	31.34
498.49	31.29
498.842	31.29
499.193	31.38
499.544	31.45
499.894	31.5
500.245	31.78
500.596	31.62
500.947	31.73
501.298	31.68
501.648	31.88
501.999	31.92
502.35	32.09
502.7	32.12
503.051	32.13
503.401	32.31
503.752	32.16
504.102	32.38
504.452	32.39
504.803	32.44
505.153	32.42
505.503	32.51
505.853	32.48
506.203	32.64
506.553	32.54
506.903	32.75
507.253	32.66
507.603	32.86
507.953	32.86
508.303	33.09
508.652	33.03
509.002	32.91
509.352	32.87
509.701	33.06
510.051	33.2
510.4	33.03
510.75	32.99
511.099	32.96
511.449	32.9
511.798	33.15
512.147	33.08
512.496	33.37
512.846	33.3
513.195	33.36
513.544	33.33
513.893	33.43
514.242	33.51
514.591	33.62
514.939	33.67
515.288	33.86
515.637	33.72
515.986	33.85
516.334	33.73
516.683	34.05
517.032	34.21
517.38	34.3
517.729	34.28
518.077	34.4
518.426	34.31
518.774	34.2
519.122	34.36
519.47	34.09
519.819	33.98
520.167	33.98
520.515	34.09
520.863	34.11
521.211	34.28
521.559	34.29
521.907	34.46
522.255	34.43
522.602	34.78
522.95	34.97
523.298	35.09
523.645	35.07
523.993	35.06
524.341	35.01
524.688	35.25
525.036	35.18
525.383	35.36
525.73	35.33
526.078	35.31
526.425	35.3
526.772	35.08
527.119	35.07
527.466	34.96
527.814	34.96
528.161	34.99
528.508	35.25
528.854	35.19
529.201	35.12
529.548	34.95
529.895	34.72
530.242	34.74
530.588	34.9
530.935	34.94
531.282	35.02
531.628	35.02
531.975	35.15
532.321	35.44
532.667	35.75
533.014	35.78
533.36	35.75
533.706	36.02
534.052	35.92
534.399	35.91
534.745	35.82
535.091	35.6
535.437	35.9
535.783	35.78
536.129	36.01
536.474	36.29
536.82	36.27
537.166	36.56
537.512	36.51
537.857	36.62
538.203	36.59
538.549	36.39
538.894	36.46
539.239	36.71
539.585	36.73
539.93	36.87
540.276	37.19
540.621	37.16
540.966	37.35
541.311	37.56
541.656	37.37
542.001	37.24
542.346	37.1
542.691	36.82
543.036	36.59
543.381	36.68
543.726	36.89
544.071	36.93
544.415	36.93
544.76	37.2
545.105	37.32
545.449	37.39
545.794	37.61
546.138	37.51
546.483	37.92
546.827	37.99
547.171	38.08
547.516	38.08
547.86	37.89
548.204	38.01
548.548	37.98
548.892	38.03
549.236	38.25
549.58	38.39
549.924	38.58
550.268	38.43
550.612	38.67
550.956	38.84
551.3	39.34
551.643	39
551.987	39.23
552.33	38.93
552.674	39.37
553.017	39.18
553.361	39.18
553.704	39.27
554.048	39.33
554.391	39.57
554.734	39.32
555.077	39.54
555.42	39.61
555.764	39.55
556.107	39.9
556.45	39.67
556.793	40.05
557.135	40.03
557.478	40.08
557.821	39.9
558.164	39.88
558.507	40.05
558.849	40.02
559.192	40.06
559.534	40.43
559.877	40.11
560.219	40.47
560.562	40.37
560.904	40.57
561.246	40.42
561.589	40.64
561.931	40.78
562.273	40.7
562.615	40.62
562.957	40.64
563.299	40.61
563.641	40.78
563.983	40.92
564.325	40.76
564.667	40.93
565.008	40.94
565.35	41.1
565.692	41.23
566.033	41.39
566.375	41.03
566.716	41.22
567.058	41
567.399	41.28
567.741	40.93
568.082	41.18
568.423	40.84
568.764	41.34
569.105	41.58
569.447	41.44
569.788	41.53
570.129	41.43
570.47	41.6
570.811	41.7
571.151	41.71
571.492	41.53
571.833	41.75
572.174	41.95
572.514	41.8
572.855	41.88
573.195	41.86
573.536	41.91
573.876	41.94
574.217	42
574.557	41.87
574.898	42.1
575.238	42.22
575.578	42.1
575.918	42.43
576.258	42.17
576.598	42.24
576.938	42.35
577.278	42.48
577.618	42.55
577.958	42.82
578.298	42.65
578.638	42.44
578.977	42.77
579.317	42.53
579.657	43.07
579.996	42.83
580.336	43.23
580.675	43.14
581.014	43.33
581.354	43.26
581.693	43.31
582.032	43.38
582.372	43.62
582.711	43.78
583.05	43.79
583.389	43.24
583.728	43.65
584.067	43.7
584.406	43.59
584.745	43.94
585.083	44.02
585.422	43.88
585.761	43.74
586.1	43.65
586.438	44.2
586.777	43.82
587.115	44.26
587.454	44
587.792	44.28
588.13	44.06
588.469	44.46
588.807	44.25
589.145	44.29
589.483	44.3
589.821	44.63
590.159	44.71
590.497	44.07
590.835	44.71
591.173	44.69
591.511	44.45
591.849	44.62
592.187	44.77
592.524	44.41
592.862	44.91
593.2	44.65
593.537	44.87
593.875	44.8
594.212	45.02
594.55	44.74
594.887	45.15
595.224	44.7
595.561	45.25
595.899	45
596.236	45.1
596.573	45.09
596.91	45.09
597.247	45.32
597.584	45.25
597.921	45.46
598.258	44.98
598.594	44.92
598.931	45.02
599.268	45.26
599.604	45.15
599.941	45.18
600.277	45.26
600.614	45.84
600.95	45.53
601.287	45.7
601.623	45.52
601.959	46.04
602.296	45.89
602.632	45.98
602.968	46.13
603.304	46.15
603.64	46.16
603.976	45.92
604.312	46.52
604.648	46.02
604.984	46.01
605.319	45.98
605.655	46.18
605.991	46.18
606.326	45.88
606.662	46.16
606.998	46.19
607.333	45.95
607.668	46.49
608.004	46.19
608.339	46.47
608.674	46.87
609.01	46.58
609.345	46.72
609.68	46.88
610.015	47.13
610.35	46.96
610.685	46.88
611.02	46.85
611.355	46.9
611.689	46.86
612.024	46.96
612.359	46.88
612.694	47
613.028	47.25
613.363	47.01
613.697	47.38
614.032	47.32
614.366	47.11
614.7	47.36
615.035	47.68
615.369	47.73
615.703	47.76
616.037	47.82
616.371	48
616.705	47.52
617.039	47.72
617.373	47.6
617.707	48.35
618.041	48.16
618.375	48.4
618.709	47.81
619.042	47.8
619.376	48.4
619.71	48.41
620.043	48.1
620.377	47.93
620.71	47.96
621.043	48.46
621.377	48.24
621.71	48.19
622.043	48.44
622.376	48.26
622.709	48.55
623.043	48.77
623.376	47.9
623.709	48.97
624.041	48.95
624.374	48.8
624.707	48.75
625.04	48.39
625.373	48.89
625.705	49.19
626.038	49.36
626.37	48.81
626.703	48.67
627.035	48.73
627.368	49.12
627.7	48.95
628.032	48.85
628.365	49.1
628.697	48.72
629.029	48.94
629.361	49.05
629.693	48.73
630.025	49.45
630.357	49.2
630.689	48.94
631.021	49.35
631.353	49.38
631.684	49.25
632.016	49.59
632.348	49.56
632.679	49.68
633.011	49.84
633.342	49.95
633.674	49.71
634.005	49.85
634.336	49.4
634.668	49.96
634.999	49.61
635.33	49.5
635.661	50.08
635.992	49.58
636.323	49.62
636.654	50.06
636.985	50.48
637.316	50.04
637.647	50.12
637.977	49.9
638.308	50.8
638.639	49.92
638.969	50.06
639.3	50.34
639.63	50.1
639.961	50.69
640.291	50.04
640.622	50.51
640.952	50.44
641.282	50.3
641.612	50.82
641.943	50.4
642.273	50.93
642.603	50.63
642.933	50.74
643.263	50.84
643.592	50.76
643.922	50.9
644.252	50.89
644.582	51.14
644.911	50.54
645.241	51.29
645.571	50.98
645.9	51.29
646.23	50.71
646.559	51.01
646.888	51.21
647.218	51.67
647.547	51.51
647.876	51.36
648.205	51.09
648.534	51.62
648.863	51.47
649.192	51.13
649.521	50.91
649.85	51.86
650.179	50.7
650.508	51.65
650.837	51.9
651.165	52.06
651.494	51.82
651.822	51.04
652.151	52.27
652.479	51.6
652.808	51.63
653.136	51.13
653.465	52.51
653.793	51.93
654.121	52.42
654.449	51.98
654.777	52.06
655.105	52.39
655.433	51.78
655.761	52.51
656.089	52.13
656.417	52.24
656.745	52
657.073	51.68
657.4	51.94
657.728	52.76
658.056	52.05
658.383	52.48
658.711	52.54
659.038	52.05
659.365	52.81
659.693	52.33
660.02	52.53
660.347	52.49
660.674	52.4
661.001	52.4
661.329	52.39
661.656	52.06
661.982	52.8
662.309	52.37
662.636	52.76
662.963	52.76
663.29	52.76
663.616	52.28
663.943	53.1
664.27	52.79
664.596	52.92
664.923	53.16
665.249	53.17
665.576	53.57
665.902	52.54
666.228	52.59
666.554	53.18
666.881	53.78
667.207	53.41
667.533	53.11
667.859	53.12
668.185	53.62
668.511	52.89
668.837	53.23
669.162	53.54
669.488	53.83
669.814	53.68
670.139	53.02
670.465	52.7
670.791	53.77
671.116	52.92
671.442	53.33
