Data from 815658_chest_Reflection__2__74.txt Node

Date: Fri Sep 16 15:09:46 CDT 2022
User: ToomeyLab
Spectrometer: FLMS14357
Trigger mode: 0
Integration Time (sec): 1.000000E-2
Scans to average: 100
Electric dark correction enabled: true
Nonlinearity correction enabled: false
Boxcar width: 0
XAxis mode: Wavelengths
Number of Pixels in Spectrum: 2048
>>>>>Begin Spectral Data<<<<<
189.047	15.08
189.435	15.08
189.823	15.08
190.211	59.27
190.599	349.14
190.987	104.39
191.375	54.43
191.763	59.89
192.151	-444.2
192.538	-39.53
192.926	-47.75
193.314	93.69
193.702	99.64
194.089	56.59
194.477	83.75
194.864	-197.32
195.252	67.89
195.639	-1087.82
196.027	134.67
196.414	297.92
196.801	-45.63
197.189	31.33
197.576	253.57
197.963	41.07
198.351	3.26
198.738	-23.01
199.125	62.51
199.512	12.57
199.899	18.25
200.286	-23.49
200.673	17.44
201.06	40
201.447	63.41
201.833	26.89
202.22	31.96
202.607	-35.3
202.994	54.8
203.38	-22.1
203.767	31.99
204.154	38.48
204.54	-5.03
204.927	-7.24
205.313	22.17
205.699	52.98
206.086	6.52
206.472	36.13
206.858	10.29
207.245	17.53
207.631	18.17
208.017	77.58
208.403	28.23
208.789	3.31
209.175	0.45
209.561	-15.85
209.947	10.28
210.333	16.47
210.719	4.05
211.105	2.49
211.491	-0.8
211.876	30.96
212.262	34.48
212.648	-27.76
213.034	-14.8
213.419	-25.93
213.805	5.14
214.19	25.07
214.576	-0.45
214.961	-14.68
215.346	-9.09
215.732	-41.21
216.117	34.07
216.502	18.77
216.888	-1.32
217.273	1.74
217.658	16.68
218.043	-29.23
218.428	-4.65
218.813	-0.82
219.198	19.15
219.583	-6.5
219.968	19.56
220.353	-5.34
220.738	12.37
221.122	-21.66
221.507	11.02
221.892	14.1
222.276	10.24
222.661	5.19
223.046	14.01
223.43	13.46
223.815	-10.52
224.199	13.67
224.583	12.12
224.968	12.23
225.352	-1.27
225.736	8.11
226.121	5.94
226.505	3.28
226.889	3.59
227.273	7.63
227.657	4.45
228.041	4.47
228.425	-2.87
228.809	10.04
229.193	4.42
229.577	3.82
229.961	2.85
230.344	4.01
230.728	3.4
231.112	3.24
231.495	2
231.879	4.41
232.263	3.22
232.646	2.62
233.03	3.25
233.413	5.26
233.797	2.64
234.18	5.69
234.563	4.31
234.946	4.48
235.33	3.96
235.713	1.78
236.096	2.22
236.479	3.3
236.862	3.56
237.245	3.28
237.628	4.73
238.011	3.67
238.394	3.03
238.777	4.62
239.16	3.97
239.543	4.54
239.925	4.04
240.308	1.59
240.691	2.78
241.073	3.98
241.456	2.71
241.838	3.3
242.221	3.22
242.603	3.67
242.986	3.05
243.368	2.87
243.75	2.9
244.133	3.4
244.515	2.98
244.897	3.25
245.279	2.96
245.661	2.91
246.043	2.4
246.425	2.2
246.807	3.55
247.189	3.6
247.571	2.47
247.953	3.21
248.335	3.18
248.717	3.21
249.098	3.23
249.48	3.21
249.862	2.94
250.243	3.31
250.625	3.19
251.006	3.51
251.388	4.02
251.769	2.58
252.151	3.32
252.532	3.04
252.913	3.15
253.295	3.71
253.676	3.41
254.057	2.92
254.438	2.42
254.819	2.22
255.2	3.02
255.581	3.33
255.962	2.68
256.343	4.19
256.724	2.55
257.105	2.78
257.486	2.38
257.867	2.29
258.247	3.55
258.628	4.11
259.009	2.84
259.389	3.2
259.77	2.88
260.15	3.35
260.531	3.06
260.911	2.95
261.292	2.88
261.672	2.95
262.052	2.78
262.432	2.91
262.813	3.49
263.193	3.12
263.573	2.83
263.953	2.92
264.333	3.16
264.713	3.46
265.093	2.74
265.473	3.08
265.853	2.99
266.233	2.92
266.612	3.32
266.992	2.01
267.372	2.69
267.752	2.67
268.131	3.12
268.511	3.22
268.89	3.54
269.27	2.58
269.649	3.07
270.029	2.75
270.408	3.41
270.787	3.02
271.167	2.71
271.546	3.82
271.925	3.33
272.304	3.19
272.683	2.34
273.062	2.83
273.441	2.88
273.82	2.45
274.199	3.23
274.578	3.26
274.957	2.88
275.336	2.82
275.715	3.41
276.093	3.09
276.472	2.54
276.851	2.46
277.229	2.65
277.608	3
277.986	3.45
278.365	2.41
278.743	3.32
279.122	2.47
279.5	2.68
279.878	2.97
280.257	2.98
280.635	3.24
281.013	2.72
281.391	2.78
281.769	3.6
282.147	3.27
282.525	2.48
282.903	2.82
283.281	2.29
283.659	2.55
284.037	3.16
284.415	3.17
284.792	3.33
285.17	2.95
285.548	2.73
285.925	2.58
286.303	3.11
286.68	2.44
287.058	2.33
287.435	2.8
287.813	3.07
288.19	2.51
288.567	2.53
288.945	2.7
289.322	2.87
289.699	2.8
290.076	2.47
290.453	2.82
290.83	3
291.207	2.84
291.584	2.14
291.961	2.85
292.338	2.96
292.715	2.65
293.092	2.72
293.469	2.85
293.845	2.33
294.222	2.89
294.599	2.75
294.975	2.83
295.352	3.3
295.728	2.58
296.105	2.91
296.481	2.77
296.858	2.86
297.234	2.62
297.61	2.97
297.986	2.86
298.363	2.46
298.739	2.5
299.115	3.06
299.491	2.84
299.867	2.58
300.243	2.88
300.619	3.04
300.995	2.87
301.371	2.88
301.746	2.17
302.122	2.87
302.498	2.92
302.874	3.22
303.249	2.95
303.625	2.88
304	2.83
304.376	2.59
304.751	2.83
305.127	2.65
305.502	2.62
305.878	2.97
306.253	3.04
306.628	2.78
307.003	3.26
307.378	2.82
307.754	3.66
308.129	3.21
308.504	3.21
308.879	3.1
309.254	2.75
309.629	3.02
310.003	2.86
310.378	2.59
310.753	2.9
311.128	2.96
311.502	2.58
311.877	3.16
312.252	3.08
312.626	2.95
313.001	2.76
313.375	3.29
313.75	2.79
314.124	2.64
314.498	2.76
314.873	3.29
315.247	3.11
315.621	3.13
315.995	2.6
316.369	2.86
316.743	3.37
317.117	3.01
317.491	2.75
317.865	3.55
318.239	2.98
318.613	2.52
318.987	2.69
319.361	2.99
319.734	3.18
320.108	2.55
320.482	3.14
320.855	2.42
321.229	2.34
321.602	3.69
321.976	3.01
322.349	2.94
322.723	2.53
323.096	2.86
323.469	3.37
323.843	3.22
324.216	3.52
324.589	2.65
324.962	2.4
325.335	3.32
325.708	3.2
326.081	3
326.454	3.3
326.827	2.84
327.2	3.15
327.573	2.6
327.945	3.22
328.318	2.87
328.691	2.69
329.063	3
329.436	2.65
329.809	2.68
330.181	2.76
330.553	3.45
330.926	2.91
331.298	3.21
331.671	2.84
332.043	2.69
332.415	2.99
332.787	3.17
333.159	3.11
333.532	3.26
333.904	2.72
334.276	2.84
334.648	2.76
335.02	3
335.391	3.63
335.763	2.65
336.135	2.61
336.507	2.56
336.879	3.31
337.25	2.36
337.622	2.94
337.993	3.38
338.365	3.09
338.736	3.65
339.108	3.01
339.479	2.9
339.851	2.92
340.222	2.97
340.593	3.16
340.964	3.03
341.336	3.15
341.707	2.9
342.078	3.26
342.449	3.32
342.82	3
343.191	3.03
343.562	2.9
343.933	2.95
344.303	3.16
344.674	2.65
345.045	3.47
345.416	3.02
345.786	2.83
346.157	3.24
346.527	3.04
346.898	2.78
347.268	3.08
347.639	2.73
348.009	3.09
348.38	3.27
348.75	2.93
349.12	3.26
349.49	3.1
349.861	3.2
350.231	2.85
350.601	3.23
350.971	2.92
351.341	3.29
351.711	3.11
352.081	2.72
352.45	3.77
352.82	3.01
353.19	2.99
353.56	3.28
353.929	3.27
354.299	3.17
354.669	2.79
355.038	2.94
355.408	2.83
355.777	3.04
356.147	3
356.516	2.96
356.885	2.87
357.254	3.21
357.624	2.71
357.993	3.19
358.362	2.93
358.731	3.16
359.1	3.08
359.469	3.21
359.838	2.88
360.207	3.34
360.576	3.05
360.945	3
361.314	2.82
361.682	2.72
362.051	3.11
362.42	3.3
362.788	3.24
363.157	3.13
363.525	2.99
363.894	3.33
364.262	3.16
364.631	3.07
364.999	3.01
365.367	2.94
365.735	3.23
366.104	3.42
366.472	3.55
366.84	3.49
367.208	3.35
367.576	3.2
367.944	3.01
368.312	2.68
368.68	3.27
369.048	3.53
369.416	3.15
369.783	3.24
370.151	3.14
370.519	3.14
370.886	3.14
371.254	2.91
371.621	3.19
371.989	3.12
372.356	3.47
372.724	3.29
373.091	3.32
373.458	3.12
373.826	2.97
374.193	3.49
374.56	2.94
374.927	2.83
375.294	3.37
375.661	3.07
376.028	3.47
376.395	3.09
376.762	3.45
377.129	2.98
377.496	3.43
377.863	3.02
378.229	3.13
378.596	3.17
378.963	3.3
379.329	3.15
379.696	3.42
380.062	3.22
380.429	3.05
380.795	3.31
381.161	3.14
381.528	3.5
381.894	3.32
382.26	3.27
382.626	3.34
382.993	3.24
383.359	3.27
383.725	3.1
384.091	3.3
384.457	3.03
384.823	3.09
385.188	2.97
385.554	3.18
385.92	3.08
386.286	3.13
386.651	3.24
387.017	3.14
387.383	2.71
387.748	3.1
388.114	2.81
388.479	3.03
388.845	3.14
389.21	3.39
389.575	3.34
389.94	3.63
390.306	3.1
390.671	3.21
391.036	3.33
391.401	3.24
391.766	3.16
392.131	3.43
392.496	3.1
392.861	3.09
393.226	3.32
393.591	3.18
393.956	3.44
394.32	3.48
394.685	3.1
395.05	3.51
395.414	2.9
395.779	3.15
396.143	3.16
396.508	3.08
396.872	3.09
397.236	3.38
397.601	2.83
397.965	2.98
398.329	3.15
398.694	3.19
399.058	3.43
399.422	3.19
399.786	3.52
400.15	3.42
400.514	3.19
400.878	3.37
401.242	3.32
401.605	3.13
401.969	3.18
402.333	3.23
402.697	3.15
403.06	3.53
403.424	3.21
403.787	3.22
404.151	3.11
404.514	3.19
404.878	3.3
405.241	3.11
405.604	3.35
405.968	3.39
406.331	3.15
406.694	3.18
407.057	3.22
407.42	3.15
407.783	3.45
408.146	3.51
408.509	3.39
408.872	3.43
409.235	3.47
409.598	3.28
409.961	3.24
410.323	3.15
410.686	3.54
411.049	3.11
411.411	3.16
411.774	3.24
412.136	3.24
412.499	3.31
412.861	3.25
413.223	3.46
413.586	3.23
413.948	3.35
414.31	3.49
414.672	3.18
415.035	3.48
415.397	3.23
415.759	3.43
416.121	3.53
416.483	3.39
416.845	3.56
417.206	3.4
417.568	3.38
417.93	3.47
418.292	3.37
418.653	3.16
419.015	3.28
419.377	3.43
419.738	3.17
420.1	3.32
420.461	3.41
420.822	3.09
421.184	3.27
421.545	3.3
421.906	3.33
422.267	3.24
422.629	3.17
422.99	3.22
423.351	3.2
423.712	3.22
424.073	3.38
424.434	3.31
424.795	3.3
425.155	3.35
425.516	3.28
425.877	3.25
426.238	3.21
426.598	3.21
426.959	3.34
427.32	3.2
427.68	3.37
428.041	3.29
428.401	3.28
428.761	3.63
429.122	3.48
429.482	3.24
429.842	3.5
430.202	3.58
430.563	3.43
430.923	3.3
431.283	3.6
431.643	3.57
432.003	3.44
432.363	3.49
432.722	3.52
433.082	3.33
433.442	3.41
433.802	3.46
434.161	3.33
434.521	3.52
434.881	3.41
435.24	3.34
435.6	3.37
435.959	3.48
436.319	3.43
436.678	3.49
437.037	3.28
437.396	3.38
437.756	3.64
438.115	3.47
438.474	3.38
438.833	3.56
439.192	3.39
439.551	3.27
439.91	3.28
440.269	3.4
440.628	3.41
440.987	3.41
441.345	3.42
441.704	3.51
442.063	3.56
442.421	3.33
442.78	3.39
443.138	3.45
443.497	3.44
443.855	3.42
444.214	3.44
444.572	3.6
444.93	3.47
445.288	3.54
445.647	3.49
446.005	3.45
446.363	3.41
446.721	3.51
447.079	3.43
447.437	3.39
447.795	3.33
448.153	3.47
448.51	3.41
448.868	3.48
449.226	3.5
449.584	3.43
449.941	3.45
450.299	3.42
450.656	3.43
451.014	3.52
451.371	3.55
451.729	3.44
452.086	3.4
452.443	3.33
452.801	3.53
453.158	3.48
453.515	3.42
453.872	3.43
454.229	3.44
454.586	3.51
454.943	3.5
455.3	3.59
455.657	3.47
456.014	3.54
456.371	3.45
456.727	3.61
457.084	3.72
457.441	3.56
457.797	3.58
458.154	3.53
458.51	3.68
458.867	3.51
459.223	3.53
459.58	3.57
459.936	3.63
460.292	3.55
460.648	3.44
461.005	3.53
461.361	3.42
461.717	3.43
462.073	3.44
462.429	3.53
462.785	3.63
463.141	3.58
463.496	3.59
463.852	3.6
464.208	3.6
464.564	3.57
464.919	3.61
465.275	3.71
465.631	3.72
465.986	3.71
466.342	3.82
466.697	3.8
467.052	3.63
467.408	3.76
467.763	3.65
468.118	3.51
468.473	3.66
468.829	3.8
469.184	3.63
469.539	3.74
469.894	3.66
470.249	3.71
470.603	3.69
470.958	3.61
471.313	3.59
471.668	3.61
472.023	3.61
472.377	3.72
472.732	3.66
473.086	3.64
473.441	3.56
473.795	3.86
474.15	3.66
474.504	3.73
474.859	3.73
475.213	3.82
475.567	3.5
475.921	3.74
476.275	3.82
476.63	3.79
476.984	3.74
477.338	3.7
477.692	3.66
478.045	3.65
478.399	3.71
478.753	3.6
479.107	3.57
479.461	3.66
479.814	3.75
480.168	3.65
480.521	3.68
480.875	3.69
481.228	3.73
481.582	3.69
481.935	3.77
482.289	3.71
482.642	3.8
482.995	3.74
483.348	3.76
483.701	3.67
484.055	3.62
484.408	3.72
484.761	3.58
485.114	3.48
485.466	3.41
485.819	3.45
486.172	3.48
486.525	3.56
486.878	3.61
487.23	3.66
487.583	3.63
487.936	3.6
488.288	3.65
488.641	3.54
488.993	3.63
489.345	3.56
489.698	3.57
490.05	3.59
490.402	3.63
490.754	3.69
491.107	3.71
491.459	3.77
491.811	3.63
492.163	3.76
492.515	3.66
492.866	3.62
493.218	3.56
493.57	3.57
493.922	3.66
494.274	3.76
494.625	3.68
494.977	3.77
495.328	3.8
495.68	3.78
496.031	3.81
496.383	3.83
496.734	3.84
497.086	3.91
497.437	3.86
497.788	3.86
498.139	3.76
498.49	3.98
498.842	3.88
499.193	3.83
499.544	3.93
499.894	3.71
500.245	3.97
500.596	3.94
500.947	3.9
501.298	3.93
501.648	3.98
501.999	3.93
502.35	3.93
502.7	3.87
503.051	3.96
503.401	3.83
503.752	4.07
504.102	4.06
504.452	3.88
504.803	4.04
505.153	4.06
505.503	4.05
505.853	3.97
506.203	3.9
506.553	3.97
506.903	3.99
507.253	3.92
507.603	4.11
507.953	4.09
508.303	4.01
508.652	4.03
509.002	4.03
509.352	4.02
509.701	3.96
510.051	4.01
510.4	4.04
510.75	3.96
511.099	3.88
511.449	4
511.798	3.98
512.147	3.96
512.496	4.07
512.846	4.05
513.195	4.09
513.544	4
513.893	4.07
514.242	4.08
514.591	4.21
514.939	4.12
515.288	4.26
515.637	4.02
515.986	4.15
516.334	3.99
516.683	4.11
517.032	4.26
517.38	4.27
517.729	4.28
518.077	4.18
518.426	4.18
518.774	4.2
519.122	4.17
519.47	4.16
519.819	4.07
520.167	4.16
520.515	4.11
520.863	4.16
521.211	4.18
521.559	4.23
521.907	4.25
522.255	4.19
522.602	4.19
522.95	4.25
523.298	4.26
523.645	4.36
523.993	4.29
524.341	4.37
524.688	4.32
525.036	4.37
525.383	4.29
525.73	4.32
526.078	4.33
526.425	4.32
526.772	4.32
527.119	4.18
527.466	4.3
527.814	4.26
528.161	4.32
528.508	4.29
528.854	4.31
529.201	4.33
529.548	4.23
529.895	4.18
530.242	4.15
530.588	4.19
530.935	4.18
531.282	4.22
531.628	4.28
531.975	4.33
532.321	4.4
532.667	4.41
533.014	4.55
533.36	4.45
533.706	4.42
534.052	4.41
534.399	4.48
534.745	4.4
535.091	4.32
535.437	4.37
535.783	4.49
536.129	4.49
536.474	4.49
536.82	4.51
537.166	4.6
537.512	4.59
537.857	4.53
538.203	4.51
538.549	4.52
538.894	4.49
539.239	4.61
539.585	4.62
539.93	4.54
540.276	4.87
540.621	4.82
540.966	4.68
541.311	4.72
541.656	4.71
542.001	4.7
542.346	4.69
542.691	4.59
543.036	4.54
543.381	4.52
543.726	4.61
544.071	4.64
544.415	4.64
544.76	4.69
545.105	4.74
545.449	4.82
545.794	4.76
546.138	4.86
546.483	4.95
546.827	5
547.171	4.98
547.516	4.85
547.86	4.97
548.204	4.95
548.548	4.9
548.892	4.95
549.236	4.99
549.58	5.08
549.924	5.08
550.268	5.06
550.612	5.21
550.956	5.01
551.3	5.13
551.643	5.35
551.987	5.18
552.33	5.01
552.674	5.11
553.017	5.09
553.361	5.27
553.704	5.37
554.048	5.37
554.391	5.44
554.734	5.3
555.077	5.39
555.42	5.38
555.764	5.39
556.107	5.45
556.45	5.24
556.793	5.64
557.135	5.58
557.478	5.34
557.821	5.32
558.164	5.66
558.507	5.6
558.849	5.4
559.192	5.59
559.534	5.6
559.877	5.41
560.219	5.45
560.562	5.57
560.904	5.54
561.246	5.55
561.589	5.84
561.931	5.61
562.273	5.7
562.615	5.61
562.957	5.72
563.299	5.64
563.641	5.55
563.983	5.74
564.325	5.75
564.667	5.78
565.008	5.85
565.35	5.73
565.692	5.96
566.033	5.77
566.375	5.92
566.716	5.97
567.058	5.92
567.399	5.96
567.741	5.93
568.082	5.99
568.423	5.85
568.764	5.74
569.105	6.12
569.447	6.16
569.788	6.09
570.129	6.09
570.47	6.16
570.811	6.17
571.151	6.09
571.492	6.11
571.833	6.14
572.174	6.22
572.514	6.19
572.855	6.21
573.195	6.15
573.536	6.1
573.876	6.2
574.217	6.12
574.557	6.26
574.898	6.26
575.238	6.42
575.578	6.29
575.918	6.48
576.258	6.44
576.598	6.3
576.938	6.37
577.278	6.45
577.618	6.34
577.958	6.53
578.298	6.38
578.638	6.62
578.977	6.63
579.317	6.58
579.657	6.62
579.996	6.82
580.336	6.69
580.675	6.78
581.014	6.82
581.354	6.74
581.693	6.63
582.032	6.85
582.372	6.98
582.711	7.07
583.05	7.17
583.389	7
583.728	7.06
584.067	7.03
584.406	7.1
584.745	6.97
585.083	7.07
585.422	7.2
585.761	6.97
586.1	6.87
586.438	7.36
586.777	6.8
587.115	7.4
587.454	7.35
587.792	7.25
588.13	7.16
588.469	7.24
588.807	7.35
589.145	7.31
589.483	7.35
589.821	7.38
590.159	7.31
590.497	7.33
590.835	7.61
591.173	7.65
591.511	7.5
591.849	7.39
592.187	7.54
592.524	7.34
592.862	7.58
593.2	7.67
593.537	7.78
593.875	7.95
594.212	7.89
594.55	7.86
594.887	7.79
595.224	7.62
595.561	7.73
595.899	7.86
596.236	8.04
596.573	7.69
596.91	7.98
597.247	7.9
597.584	8.02
597.921	7.99
598.258	7.96
598.594	7.62
598.931	7.95
599.268	8.01
599.604	7.94
599.941	7.88
600.277	7.94
600.614	8.18
600.95	7.93
601.287	8.17
601.623	8.16
601.959	8.21
602.296	8.42
602.632	8.3
602.968	8.37
603.304	8.36
603.64	8.46
603.976	8.39
604.312	8.56
604.648	8.67
604.984	8.56
605.319	8.84
605.655	8.7
605.991	8.66
606.326	8.47
606.662	8.62
606.998	8.43
607.333	8.6
607.668	8.59
608.004	8.66
608.339	8.77
608.674	8.97
609.01	8.79
609.345	9.06
609.68	8.92
610.015	8.99
610.35	9.01
610.685	9.26
611.02	8.98
611.355	9.02
611.689	9.17
612.024	9.09
612.359	9.26
612.694	9.24
613.028	9.06
613.363	9.28
613.697	9.18
614.032	9.4
614.366	9.07
614.7	9.41
615.035	9.38
615.369	9.19
615.703	9.44
616.037	9.58
616.371	9.68
616.705	9.49
617.039	9.78
617.373	9.4
617.707	9.62
618.041	9.57
618.375	9.74
618.709	9.53
619.042	9.6
619.376	9.57
619.71	9.9
620.043	9.71
620.377	9.94
620.71	10.05
621.043	9.94
621.377	10.15
621.71	9.85
622.043	9.74
622.376	9.78
622.709	10.15
623.043	10.09
623.376	9.91
623.709	9.94
624.041	10.44
624.374	10.46
624.707	10.27
625.04	10.39
625.373	10.21
625.705	10.6
626.038	10.74
626.37	10.7
626.703	10.25
627.035	10.34
627.368	10.65
627.7	10.51
628.032	10.46
628.365	10.85
628.697	10.77
629.029	10.58
629.361	10.69
629.693	10.83
630.025	10.72
630.357	10.79
630.689	10.84
631.021	10.89
631.353	10.64
631.684	10.82
632.016	10.75
632.348	11.06
632.679	10.73
633.011	10.99
633.342	10.72
633.674	11.57
634.005	11.37
634.336	11.19
634.668	11.26
634.999	10.96
635.33	11.19
635.661	11.4
635.992	11.1
636.323	11.11
636.654	11.24
636.985	11.73
637.316	11.72
637.647	11.19
637.977	11.29
638.308	11.65
638.639	11.53
638.969	11.44
639.3	11.75
639.63	11.41
639.961	12.1
640.291	11.65
640.622	12.22
640.952	11.84
641.282	11.83
641.612	11.86
641.943	11.91
642.273	11.75
642.603	11.8
642.933	12.24
643.263	12.09
643.592	11.79
643.922	11.68
644.252	11.9
644.582	12.15
644.911	12.04
645.241	12.1
645.571	12.76
645.9	12.46
646.23	12.42
646.559	12.21
646.888	11.95
647.218	12.73
647.547	12.7
647.876	12.78
648.205	12.85
648.534	13.05
648.863	12.63
649.192	12.52
649.521	12.14
649.85	12.92
650.179	12.57
650.508	13.02
650.837	12.73
651.165	12.41
651.494	13
651.822	12.86
652.151	12.86
652.479	12.7
652.808	13.33
653.136	13
653.465	13.09
653.793	12.81
654.121	13.12
654.449	12.84
654.777	13.56
655.105	13.42
655.433	12.93
655.761	13.46
656.089	13.07
656.417	13.69
656.745	13.31
657.073	13.45
657.4	13.37
657.728	13.81
658.056	13.02
658.383	13.66
658.711	13.6
659.038	13.5
659.365	13.96
659.693	13.94
660.02	13.74
660.347	13.62
660.674	13.49
661.001	13.83
661.329	13.5
661.656	13.36
661.982	13.79
662.309	13.96
662.636	13.75
662.963	13.94
663.29	14.05
663.616	14.1
663.943	14.55
664.27	13.96
664.596	14.39
664.923	14.23
665.249	14.93
665.576	14.22
665.902	14.33
666.228	13.74
666.554	14.64
666.881	14.8
667.207	14.53
667.533	14.26
667.859	14.67
668.185	14.64
668.511	14.39
668.837	14.72
669.162	14.87
669.488	14.43
669.814	14.81
670.139	14.26
670.465	14.91
670.791	14.89
671.116	15.03
671.442	14.9
671.767	14.76
672.092	14.82
672.418	14.73
672.743	15.15
673.068	15.47
673.393	14.39
673.718	15.52
674.043	14.95
674.368	15.38
674.693	15.91
675.018	15.35
675.343	15.59
675.667	15.7
675.992	15.24
676.317	15.61
676.641	14.87
676.966	15.24
677.29	15.78
677.615	15.76
677.939	15.47
678.264	15.98
678.588	15.4
678.912	15.81
679.236	15.65
679.56	15.64
679.885	15.94
680.209	15.12
680.532	16.01
680.856	15.23
681.18	15.89
681.504	15.69
681.828	15.89
682.152	16.21
682.475	15.95
682.799	15.59
683.122	15.92
683.446	16.58
683.769	15.99
684.093	16.29
684.416	15.97
684.739	16.14
685.062	16.47
685.386	16.59
685.709	16.55
686.032	16.78
686.355	16.62
686.678	16.54
687.001	16.49
687.324	16.37
687.646	17.44
687.969	16.55
