Data from 815658_forehead_Reflection__1__89.txt Node

Date: Fri Sep 16 15:20:03 CDT 2022
User: ToomeyLab
Spectrometer: FLMS14357
Trigger mode: 0
Integration Time (sec): 1.000000E-2
Scans to average: 100
Electric dark correction enabled: true
Nonlinearity correction enabled: false
Boxcar width: 0
XAxis mode: Wavelengths
Number of Pixels in Spectrum: 2048
>>>>>Begin Spectral Data<<<<<
189.047	65.63
189.435	65.63
189.823	65.63
190.211	33.95
190.599	-279.02
190.987	81.42
191.375	43.87
191.763	96.11
192.151	96.29
192.538	23.8
192.926	-24.21
193.314	16.66
193.702	39.39
194.089	63.4
194.477	181.64
194.864	511.05
195.252	10.72
195.639	1090.38
196.027	118.33
196.414	210.08
196.801	30.32
197.189	99.28
197.576	-281.1
197.963	-53.43
198.351	-4.95
198.738	11.53
199.125	54.98
199.512	-121.47
199.899	36.55
200.286	4.82
200.673	45.15
201.06	42.32
201.447	90.28
201.833	12.35
202.22	21.21
202.607	31.57
202.994	27.91
203.38	36.82
203.767	14.44
204.154	26.78
204.54	27.49
204.927	31.74
205.313	23.75
205.699	39.05
206.086	30.17
206.472	33.38
206.858	22.19
207.245	8.68
207.631	24.42
208.017	48.08
208.403	-5.78
208.789	29.44
209.175	32.25
209.561	13.63
209.947	10.13
210.333	30.32
210.719	37.09
211.105	29.51
211.491	23.1
211.876	19.98
212.262	11.22
212.648	48.34
213.034	0.77
213.419	4.98
213.805	27.56
214.19	72.57
214.576	4.27
214.961	32.7
215.346	-6.25
215.732	-37.77
216.117	19.6
216.502	56.59
216.888	-20.28
217.273	16.61
217.658	2.7
218.043	-41.54
218.428	9.97
218.813	25.93
219.198	3.54
219.583	28.4
219.968	23.46
220.353	3.78
220.738	-0.97
221.122	-12.92
221.507	18.81
221.892	21.75
222.276	15.5
222.661	7.66
223.046	13.38
223.43	20.12
223.815	-3.17
224.199	13.75
224.583	11.23
224.968	17.98
225.352	1.88
225.736	10.39
226.121	14.42
226.505	15.42
226.889	9.01
227.273	10.47
227.657	10.12
228.041	7.35
228.425	4.07
228.809	9.82
229.193	6.47
229.577	5.16
229.961	7.05
230.344	6.98
230.728	6.57
231.112	5.92
231.495	6.11
231.879	6.43
232.263	5.96
232.646	5.74
233.03	7.51
233.413	7.02
233.797	7.08
234.18	6.77
234.563	8.39
234.946	6.58
235.33	6.66
235.713	5.85
236.096	5.62
236.479	7.16
236.862	6.72
237.245	5.88
237.628	8.29
238.011	6.03
238.394	8.6
238.777	7.97
239.16	6.92
239.543	8.46
239.925	6.58
240.308	7.22
240.691	8.31
241.073	5.34
241.456	6.05
241.838	5.92
242.221	6.1
242.603	6.72
242.986	5.74
243.368	6.34
243.75	5.7
244.133	6.28
244.515	5.8
244.897	5.94
245.279	5.69
245.661	5.92
246.043	5.63
246.425	5.73
246.807	6.57
247.189	6.45
247.571	5.77
247.953	6.1
248.335	6.15
248.717	5.88
249.098	5.82
249.48	5.65
249.862	5.82
250.243	6.04
250.625	5.95
251.006	5.79
251.388	6.5
251.769	5.05
252.151	5.31
252.532	4.45
252.913	5.7
253.295	6.47
253.676	6.68
254.057	5.54
254.438	5.2
254.819	4.22
255.2	5.93
255.581	6.69
255.962	5.43
256.343	6.01
256.724	5.43
257.105	5.09
257.486	6.9
257.867	5.04
258.247	6.18
258.628	7.33
259.009	6.69
259.389	6.27
259.77	4.99
260.15	5.65
260.531	6.18
260.911	5.46
261.292	5.63
261.672	5.74
262.052	5.23
262.432	5.53
262.813	5.94
263.193	5.68
263.573	5.64
263.953	5.68
264.333	5.62
264.713	5.4
265.093	5.58
265.473	5.25
265.853	6.49
266.233	6.24
266.612	6.72
266.992	5.07
267.372	5.84
267.752	5.62
268.131	6.04
268.511	6.06
268.89	6.19
269.27	5.59
269.649	5.65
270.029	5.78
270.408	6.08
270.787	5.33
271.167	5.34
271.546	5.8
271.925	6.35
272.304	5.96
272.683	5.75
273.062	5.67
273.441	5.68
273.82	5.34
274.199	5.7
274.578	5.59
274.957	6.08
275.336	6.01
275.715	6.23
276.093	5.67
276.472	5.57
276.851	5.47
277.229	5.75
277.608	6.23
277.986	5.73
278.365	5.04
278.743	5.53
279.122	5.93
279.5	5.28
279.878	5.63
280.257	5.99
280.635	5.95
281.013	5.62
281.391	5.65
281.769	6.08
282.147	5.76
282.525	5.3
282.903	5.54
283.281	5.8
283.659	5.98
284.037	5.93
284.415	5.92
284.792	5.93
285.17	6.14
285.548	5.42
285.925	5.32
286.303	6.08
286.68	5.93
287.058	5.72
287.435	5.65
287.813	6.14
288.19	5.32
288.567	5.51
288.945	5.63
289.322	5.95
289.699	5.7
290.076	5.67
290.453	6.07
290.83	5.93
291.207	5.8
291.584	5.27
291.961	5.77
292.338	6.04
292.715	5.61
293.092	5.64
293.469	6.1
293.845	5.3
294.222	5.84
294.599	6.05
294.975	6
295.352	6.56
295.728	5.54
296.105	6.36
296.481	5.58
296.858	6.07
297.234	6.19
297.61	6.22
297.986	6.03
298.363	5.89
298.739	5.67
299.115	6.37
299.491	6.23
299.867	6.01
300.243	6.27
300.619	6.13
300.995	5.81
301.371	6.56
301.746	6.45
302.122	6.58
302.498	6.14
302.874	6.78
303.249	6.72
303.625	6.66
304	6.22
304.376	6.34
304.751	6.33
305.127	6.31
305.502	6.36
305.878	6.23
306.253	6.8
306.628	6.26
307.003	6.52
307.378	6.71
307.754	6.68
308.129	7.03
308.504	6.63
308.879	7.24
309.254	6.74
309.629	6.61
310.003	6.77
310.378	6.32
310.753	6.67
311.128	7.05
311.502	6.64
311.877	7.04
312.252	6.91
312.626	7.27
313.001	7.22
313.375	7.12
313.75	7.05
314.124	6.83
314.498	7.3
314.873	7.64
315.247	7.11
315.621	7.24
315.995	7.28
316.369	7.33
316.743	7.52
317.117	6.89
317.491	7.07
317.865	7.91
318.239	7.34
318.613	7.18
318.987	6.88
319.361	6.94
319.734	7.69
320.108	7.63
320.482	7.69
320.855	7.14
321.229	7.66
321.602	8.2
321.976	8
322.349	7.87
322.723	7.54
323.096	7.76
323.469	8.13
323.843	8.38
324.216	8.24
324.589	7.69
324.962	8.31
325.335	7.89
325.708	8.32
326.081	8.13
326.454	7.94
326.827	8.3
327.2	8.33
327.573	7.84
327.945	8.28
328.318	8.59
328.691	8.34
329.063	8.39
329.436	8.38
329.809	8.1
330.181	8.77
330.553	8.9
330.926	8.79
331.298	8.77
331.671	8.76
332.043	8.8
332.415	8.52
332.787	8.54
333.159	8.66
333.532	8.94
333.904	8.9
334.276	8.56
334.648	8.65
335.02	8.91
335.391	9
335.763	8.75
336.135	8.71
336.507	9.06
336.879	9.45
337.25	8.63
337.622	9.74
337.993	9.58
338.365	8.99
338.736	9.94
339.108	9.26
339.479	10
339.851	9.48
340.222	9.1
340.593	9.35
340.964	9.77
341.336	9.52
341.707	9.37
342.078	10.12
342.449	9.88
342.82	9.79
343.191	9.6
343.562	9.88
343.933	9.84
344.303	10.38
344.674	9.55
345.045	10.23
345.416	9.64
345.786	10.62
346.157	10.25
346.527	10.08
346.898	9.97
347.268	10.45
347.639	10.03
348.009	10.46
348.38	10.87
348.75	10.12
349.12	10.24
349.49	10.39
349.861	10.44
350.231	10.73
350.601	10.88
350.971	10.94
351.341	10.76
351.711	10.61
352.081	10.3
352.45	11.15
352.82	11.08
353.19	10.58
353.56	10.89
353.929	11.52
354.299	11.18
354.669	11.08
355.038	11.02
355.408	11.2
355.777	11.3
356.147	11.17
356.516	11.09
356.885	11.48
357.254	11.41
357.624	11.41
357.993	11.39
358.362	11.27
358.731	11.85
359.1	11.62
359.469	11.52
359.838	11.53
360.207	11.66
360.576	11.55
360.945	11.64
361.314	11.65
361.682	11.57
362.051	12.01
362.42	12.1
362.788	12.01
363.157	11.81
363.525	11.93
363.894	12.27
364.262	12.29
364.631	12.22
364.999	12.08
365.367	12.4
365.735	12.65
366.104	12.52
366.472	12.56
366.84	12.62
367.208	12.9
367.576	12.77
367.944	12.9
368.312	12.73
368.68	12.68
369.048	12.9
369.416	13.05
369.783	12.98
370.151	13.09
370.519	12.81
370.886	12.72
371.254	13.27
371.621	13.37
371.989	13.3
372.356	13.46
372.724	13.46
373.091	13.12
373.458	13.27
373.826	13.37
374.193	13.55
374.56	13.15
374.927	13.75
375.294	13.45
375.661	13.38
376.028	13.68
376.395	13.42
376.762	14.06
377.129	13.45
377.496	13.91
377.863	13.77
378.229	14.13
378.596	13.86
378.963	14.09
379.329	14
379.696	14.27
380.062	14
380.429	14.17
380.795	14.35
381.161	14.6
381.528	14.51
381.894	14.41
382.26	14.75
382.626	14.3
382.993	14.38
383.359	14.58
383.725	14.64
384.091	14.66
384.457	14.53
384.823	14.63
385.188	14.84
385.554	14.8
385.92	14.65
386.286	15.01
386.651	14.74
387.017	15.15
387.383	14.68
387.748	14.79
388.114	14.79
388.479	15.28
388.845	15.39
389.21	15.91
389.575	15.43
389.94	15.43
390.306	15.66
390.671	15.44
391.036	15.44
391.401	15.78
391.766	15.66
392.131	15.78
392.496	15.63
392.861	15.91
393.226	15.96
393.591	16.02
393.956	16.07
394.32	16.36
394.685	16.03
395.05	16.22
395.414	16.01
395.779	16.41
396.143	16.47
396.508	16.3
396.872	16.55
397.236	16.36
397.601	16.19
397.965	16.36
398.329	16.41
398.694	16.55
399.058	16.78
399.422	16.57
399.786	16.92
400.15	16.85
400.514	16.77
400.878	16.97
401.242	16.82
401.605	16.82
401.969	16.95
402.333	16.98
402.697	17.31
403.06	17.29
403.424	17.22
403.787	17.36
404.151	17.1
404.514	17.5
404.878	17.1
405.241	17.29
405.604	17.61
405.968	17.87
406.331	17.7
406.694	17.75
407.057	17.82
407.42	17.73
407.783	18.06
408.146	17.95
408.509	18.07
408.872	18.03
409.235	18
409.598	18.18
409.961	18.38
410.323	18.28
410.686	18.42
411.049	18.34
411.411	18.03
411.774	18.31
412.136	18.52
412.499	18.53
412.861	18.62
413.223	18.65
413.586	18.84
413.948	18.73
414.31	18.99
414.672	18.88
415.035	19.1
415.397	18.71
415.759	19.02
416.121	19.01
416.483	19.17
416.845	19.11
417.206	19.03
417.568	19.37
417.93	19.26
418.292	19.33
418.653	19.24
419.015	19.47
419.377	19.54
419.738	19.39
420.1	19.67
420.461	19.59
420.822	19.46
421.184	19.54
421.545	19.54
421.906	19.69
422.267	19.67
422.629	19.55
422.99	19.61
423.351	19.64
423.712	19.58
424.073	19.81
424.434	19.89
424.795	19.84
425.155	20.01
425.516	20.13
425.877	20.04
426.238	20
426.598	19.95
426.959	20.11
427.32	20.19
427.68	20.38
428.041	20.32
428.401	20.48
428.761	20.82
429.122	20.89
429.482	20.82
429.842	20.75
430.202	21.06
430.563	20.99
430.923	21.03
431.283	21.36
431.643	21.45
432.003	21.45
432.363	21.29
432.722	21.57
433.082	21.41
433.442	21.76
433.802	21.56
434.161	21.66
434.521	21.65
434.881	21.68
435.24	21.73
435.6	21.8
435.959	21.8
436.319	21.63
436.678	22.08
437.037	22
437.396	22
437.756	22.08
438.115	22.21
438.474	22.15
438.833	22.36
439.192	22.35
439.551	22.36
439.91	22.43
440.269	22.41
440.628	22.51
440.987	22.41
441.345	22.51
441.704	22.62
442.063	22.47
442.421	22.66
442.78	22.63
443.138	22.81
443.497	22.79
443.855	22.71
444.214	22.91
444.572	22.94
444.93	23.02
445.288	22.96
445.647	23.2
446.005	23.2
446.363	23.16
446.721	23.29
447.079	23.23
447.437	23.23
447.795	23.22
448.153	23.24
448.51	23.12
448.868	23.17
449.226	23.36
449.584	23.37
449.941	23.41
450.299	23.75
450.656	23.71
451.014	23.84
451.371	23.86
451.729	23.95
452.086	23.87
452.443	24.16
452.801	24.43
453.158	24.3
453.515	24.37
453.872	24.37
454.229	24.53
454.586	24.35
454.943	24.31
455.3	24.55
455.657	24.67
456.014	24.63
456.371	24.69
456.727	25.05
457.084	24.89
457.441	25
457.797	24.99
458.154	24.89
458.51	25.06
458.867	25.26
459.223	25.28
459.58	25.49
459.936	25.25
460.292	25.37
460.648	25.17
461.005	25.4
461.361	25.05
461.717	25.01
462.073	25.11
462.429	25.26
462.785	25.34
463.141	25.41
463.496	25.68
463.852	25.76
464.208	25.81
464.564	26.01
464.919	26.02
465.275	26.21
465.631	26.26
465.986	26.3
466.342	26.4
466.697	26.37
467.052	26.37
467.408	26.41
467.763	26.45
468.118	26.6
468.473	26.47
468.829	26.55
469.184	26.72
469.539	26.6
469.894	26.63
470.249	27
470.603	26.78
470.958	26.88
471.313	27.11
471.668	27.08
472.023	26.93
472.377	27.27
472.732	27.14
473.086	27.35
473.441	27.29
473.795	27.38
474.15	27.43
474.504	27.34
474.859	27.34
475.213	27.6
475.567	27.55
475.921	27.75
476.275	27.69
476.63	27.68
476.984	27.9
477.338	27.87
477.692	28.08
478.045	28.03
478.399	28.03
478.753	27.77
479.107	27.95
479.461	28.11
479.814	28.2
480.168	28.13
480.521	28.26
480.875	28.33
481.228	28.27
481.582	28.3
481.935	28.32
482.289	28.35
482.642	28.53
482.995	28.48
483.348	28.42
483.701	28.45
484.055	28.45
484.408	28.48
484.761	28.17
485.114	28.07
485.466	28.08
485.819	28.05
486.172	27.92
486.525	27.9
486.878	28.09
487.23	28.18
487.583	28.46
487.936	28.52
488.288	28.63
488.641	28.65
488.993	28.63
489.345	28.62
489.698	28.62
490.05	28.57
490.402	28.69
490.754	28.9
491.107	28.88
491.459	29.11
491.811	29.37
492.163	29.36
492.515	29.49
492.866	29.36
493.218	29.22
493.57	29.19
493.922	29.2
494.274	29.25
494.625	29.38
494.977	29.69
495.328	29.8
495.68	30.13
496.031	30.29
496.383	30.42
496.734	30.47
497.086	30.54
497.437	30.75
497.788	30.69
498.139	30.7
498.49	30.67
498.842	30.71
499.193	30.62
499.544	30.78
499.894	30.66
500.245	31.09
500.596	31.01
500.947	31.08
501.298	31.02
501.648	31.33
501.999	31.32
502.35	31.38
502.7	31.56
503.051	31.52
503.401	31.5
503.752	31.61
504.102	31.67
504.452	31.66
504.803	31.95
505.153	31.93
505.503	32
505.853	31.8
506.203	31.87
506.553	31.75
506.903	32.01
507.253	32.12
507.603	32.09
507.953	32.11
508.303	32.18
508.652	32.32
509.002	32.29
509.352	32.23
509.701	32.53
510.051	32.51
510.4	32.3
510.75	32.3
511.099	32.24
511.449	32.38
511.798	32.7
512.147	32.42
512.496	32.79
512.846	32.71
513.195	32.7
513.544	32.86
513.893	32.86
514.242	33.03
514.591	33.1
514.939	33.05
515.288	33.21
515.637	33.2
515.986	33.42
516.334	33.26
516.683	33.32
517.032	33.59
517.38	33.82
517.729	33.76
518.077	33.75
518.426	33.58
518.774	33.78
519.122	33.76
519.47	33.69
519.819	33.57
520.167	33.62
520.515	33.47
520.863	33.63
521.211	33.54
521.559	33.61
521.907	33.69
522.255	33.9
522.602	34
522.95	34.23
523.298	34.34
523.645	34.34
523.993	34.51
524.341	34.58
524.688	34.47
525.036	34.57
525.383	34.81
525.73	34.88
526.078	34.81
526.425	34.65
526.772	34.75
527.119	34.58
527.466	34.51
527.814	34.66
528.161	34.58
528.508	34.64
528.854	34.56
529.201	34.78
529.548	34.68
529.895	34.59
530.242	34.64
530.588	34.69
530.935	34.57
531.282	34.52
531.628	34.46
531.975	34.58
532.321	34.95
532.667	35.04
533.014	35.23
533.36	35.32
533.706	35.48
534.052	35.55
534.399	35.53
534.745	35.45
535.091	35.28
535.437	35.38
535.783	35.36
536.129	35.4
536.474	35.53
536.82	35.6
537.166	36.02
537.512	35.97
537.857	36.12
538.203	36.28
538.549	36.04
538.894	35.92
539.239	36.3
539.585	36.04
539.93	36.4
540.276	36.67
540.621	36.68
540.966	36.83
541.311	37.07
541.656	37
542.001	37.02
542.346	36.89
542.691	36.64
543.036	36.56
543.381	36.52
543.726	36.4
544.071	36.42
544.415	36.42
544.76	36.75
545.105	36.96
545.449	36.97
545.794	37.08
546.138	37.11
546.483	37.43
546.827	37.44
547.171	37.67
547.516	37.62
547.86	37.6
548.204	37.63
548.548	37.56
548.892	37.76
549.236	37.85
549.58	38.09
549.924	38.25
550.268	38
550.612	38.21
550.956	38.25
551.3	38.67
551.643	38.65
551.987	38.78
552.33	38.82
552.674	38.72
553.017	39.15
553.361	39
553.704	38.94
554.048	39.02
554.391	39.05
554.734	38.87
555.077	39.1
555.42	39.31
555.764	39.11
556.107	39.31
556.45	39.35
556.793	39.71
557.135	39.58
557.478	39.52
557.821	39.63
558.164	39.63
558.507	39.87
558.849	39.93
559.192	39.8
559.534	39.97
559.877	40.15
560.219	40.35
560.562	40.14
560.904	40.25
561.246	40.24
561.589	40.12
561.931	40.33
562.273	40.42
562.615	40.09
562.957	40.47
563.299	40.39
563.641	40.5
563.983	40.52
564.325	40.46
564.667	40.71
565.008	40.78
565.35	40.73
565.692	40.86
566.033	40.93
566.375	40.77
566.716	40.88
567.058	41.03
567.399	41.23
567.741	41.06
568.082	41.31
568.423	40.71
568.764	41.11
569.105	40.95
569.447	41.13
569.788	41.36
570.129	41.24
570.47	41.47
570.811	41.67
571.151	41.59
571.492	41.79
571.833	41.67
572.174	41.79
572.514	41.77
572.855	41.83
573.195	41.88
573.536	41.87
573.876	41.89
574.217	41.94
574.557	42.09
574.898	42.2
575.238	42.01
575.578	42.07
575.918	42.15
576.258	42.01
576.598	42.4
576.938	42.43
577.278	42.35
577.618	42.57
577.958	42.43
578.298	42.23
578.638	42.58
578.977	42.75
579.317	42.57
579.657	42.69
579.996	42.77
580.336	43.1
580.675	42.94
581.014	43.12
581.354	43.17
581.693	43.18
582.032	43.43
582.372	43.38
582.711	43.58
583.05	43.93
583.389	43.27
583.728	43.53
584.067	43.66
584.406	43.85
584.745	44
585.083	43.92
585.422	43.73
585.761	43.91
586.1	43.79
586.438	44.09
586.777	44.06
587.115	43.94
587.454	44.28
587.792	44.29
588.13	44.5
588.469	44.43
588.807	44.34
589.145	44.81
589.483	44.47
589.821	44.77
590.159	44.57
590.497	44.51
590.835	44.71
591.173	45.07
591.511	44.63
591.849	44.86
592.187	44.73
592.524	44.66
592.862	45.09
593.2	45.13
593.537	45.56
593.875	44.86
594.212	45.04
594.55	45.05
594.887	45.37
595.224	45.04
595.561	45.5
595.899	45.47
596.236	45.35
596.573	45.37
596.91	45.21
597.247	45.43
597.584	45.34
597.921	45.7
598.258	45.44
598.594	45.51
598.931	45.79
599.268	45.72
599.604	45.57
599.941	45.55
600.277	45.44
600.614	45.74
600.95	45.63
601.287	45.78
601.623	46.16
601.959	46.44
602.296	45.79
602.632	46.38
602.968	46.09
603.304	46.45
603.64	46.38
603.976	46.32
604.312	46.64
604.648	46.56
604.984	46.75
605.319	46.73
605.655	46.72
605.991	46.47
606.326	46.56
606.662	46.65
606.998	46.51
607.333	46.31
607.668	46.75
608.004	46.51
608.339	47.12
608.674	47.12
609.01	46.8
609.345	47.21
609.68	47.49
610.015	47.1
610.35	47.47
610.685	47.67
611.02	47.42
611.355	47.47
611.689	47.45
612.024	47.35
612.359	47.31
612.694	47.24
613.028	47.16
613.363	47.51
613.697	47.63
614.032	47.83
614.366	47.75
614.7	47.88
615.035	48.26
615.369	48.17
615.703	48.37
616.037	48.48
616.371	48.36
616.705	48.42
617.039	48.41
617.373	48.4
617.707	48.93
618.041	48.81
618.375	48.4
618.709	48.63
619.042	48.54
619.376	48.88
619.71	48.83
620.043	48.42
620.377	48.99
620.71	48.84
621.043	49.24
621.377	48.86
621.71	49.11
622.043	49.03
622.376	48.75
622.709	48.38
623.043	49.23
623.376	48.96
623.709	48.98
624.041	49.16
624.374	49.16
624.707	49.17
625.04	49.9
625.373	49.35
625.705	49.66
626.038	49.62
626.37	49.8
626.703	49.63
627.035	49.73
627.368	50.23
627.7	50.18
628.032	50.27
628.365	49.83
628.697	49.67
629.029	50.12
629.361	50.09
629.693	49.83
630.025	50.1
630.357	50.08
630.689	49.95
631.021	50.02
631.353	50.19
631.684	50.22
632.016	50.33
632.348	50.14
632.679	50.53
633.011	50.59
633.342	50.34
633.674	50.57
634.005	50.53
634.336	50.6
634.668	50.65
634.999	50.52
635.33	50.4
635.661	51.01
635.992	50.49
636.323	50.64
636.654	51.16
636.985	51.39
637.316	51.04
637.647	51.27
637.977	51.18
638.308	51.24
638.639	51.21
638.969	50.94
639.3	51.35
639.63	51.51
639.961	51.52
640.291	51.26
640.622	51.29
640.952	51.72
641.282	51.79
641.612	51.66
641.943	51.01
642.273	51.44
642.603	52.25
642.933	51.55
643.263	51.94
643.592	52.16
643.922	51.92
644.252	52.17
644.582	51.56
644.911	51.71
645.241	52.19
645.571	51.96
645.9	51.98
646.23	51.59
646.559	51.95
646.888	52.24
647.218	52.8
647.547	52.16
647.876	52.72
648.205	52.37
648.534	52.93
648.863	52.08
649.192	52.47
649.521	51.61
649.85	53.2
650.179	52.44
650.508	52.95
650.837	52.84
651.165	52.49
651.494	52.69
651.822	52.25
652.151	52.75
652.479	52.97
652.808	52.93
653.136	52.47
653.465	52.84
653.793	53.24
654.121	52.84
654.449	52.43
654.777	53.06
655.105	53.34
655.433	53.28
655.761	53.58
656.089	53.23
656.417	53.26
656.745	53.33
657.073	52.98
657.4	53.7
657.728	53.89
658.056	53.16
658.383	53.35
658.711	53.62
659.038	53.41
659.365	53.72
659.693	54.11
660.02	53.77
660.347	54.19
660.674	53.79
661.001	53.98
661.329	54.15
661.656	53.91
661.982	53.84
662.309	54.09
662.636	53.71
662.963	54.01
663.29	53.96
663.616	54.02
663.943	54.76
664.27	54.21
664.596	53.85
664.923	54.27
665.249	54.66
665.576	54.69
665.902	54.18
666.228	54.32
666.554	55
666.881	54.48
667.207	54.25
667.533	54.56
667.859	54.68
668.185	54.2
668.511	54.23
668.837	54.15
669.162	54.76
669.488	55
669.814	55.14
670.139	54.48
670.465	54.49
670.791	54.87
671.116	54.72
