Data from 815658_crown_Reflection__2__84.txt Node

Date: Fri Sep 16 15:16:53 CDT 2022
User: ToomeyLab
Spectrometer: FLMS14357
Trigger mode: 0
Integration Time (sec): 1.000000E-2
Scans to average: 100
Electric dark correction enabled: true
Nonlinearity correction enabled: false
Boxcar width: 0
XAxis mode: Wavelengths
Number of Pixels in Spectrum: 2048
>>>>>Begin Spectral Data<<<<<
189.047	151.26
189.435	151.26
189.823	151.26
190.211	35.94
190.599	-54.31
190.987	97.05
191.375	46.63
191.763	93.68
192.151	-357.13
192.538	-33.93
192.926	-10.34
193.314	87.7
193.702	61.38
194.089	40.56
194.477	37.68
194.864	169.64
195.252	18.71
195.639	1099.36
196.027	133.57
196.414	195.46
196.801	-51.98
197.189	45.94
197.576	102
197.963	-95.99
198.351	-84.54
198.738	-2.15
199.125	48.18
199.512	-118.44
199.899	-10.75
200.286	-7.37
200.673	8.53
201.06	0.02
201.447	69.43
201.833	23.31
202.22	20.37
202.607	-56.16
202.994	25.03
203.38	3.46
203.767	-17.89
204.154	21.17
204.54	-16.12
204.927	-36.46
205.313	32.99
205.699	36.72
206.086	34.47
206.472	20.77
206.858	-3.41
207.245	30.17
207.631	31.38
208.017	0.36
208.403	-26.32
208.789	-11.68
209.175	16.45
209.561	1.2
209.947	7.71
210.333	12.4
210.719	2.25
211.105	25.1
211.491	-21.76
211.876	1.99
212.262	38.54
212.648	22.77
213.034	13.14
213.419	-36.01
213.805	8.59
214.19	23.46
214.576	7.53
214.961	-8.4
215.346	-44.56
215.732	-66.57
216.117	22.45
216.502	9.92
216.888	-26.88
217.273	11.71
217.658	7.24
218.043	-58.56
218.428	-6.75
218.813	12.8
219.198	11.21
219.583	2.1
219.968	17.51
220.353	-1.96
220.738	0.01
221.122	-18.04
221.507	18.05
221.892	-7.55
222.276	10.78
222.661	-1.12
223.046	9.85
223.43	5.72
223.815	-4.64
224.199	4.41
224.583	8.83
224.968	14.96
225.352	0.81
225.736	20.88
226.121	9.6
226.505	8.75
226.889	8.7
227.273	7.53
227.657	14.36
228.041	5.57
228.425	1.6
228.809	8.36
229.193	5.73
229.577	8.92
229.961	6.29
230.344	9.02
230.728	7.28
231.112	8.39
231.495	7.01
231.879	8.78
232.263	6.45
232.646	7.28
233.03	7.26
233.413	7.44
233.797	5.79
234.18	9.74
234.563	6.06
234.946	7.05
235.33	8.15
235.713	6.9
236.096	8.02
236.479	7.43
236.862	7.18
237.245	7.07
237.628	9.42
238.011	8.83
238.394	6.68
238.777	9.65
239.16	6.62
239.543	7.38
239.925	10.14
240.308	6.08
240.691	9.02
241.073	6.25
241.456	6.61
241.838	6.05
242.221	7.36
242.603	6.84
242.986	6.22
243.368	7.36
243.75	6.94
244.133	7.05
244.515	7.17
244.897	7.88
245.279	6.97
245.661	7.43
246.043	6.96
246.425	6.41
246.807	7.78
247.189	6.61
247.571	6.65
247.953	6.64
248.335	6.82
248.717	7.24
249.098	6.95
249.48	6.93
249.862	7
250.243	7.1
250.625	6.97
251.006	7.37
251.388	7.59
251.769	6.49
252.151	6.94
252.532	6.26
252.913	6.67
253.295	6.37
253.676	6.58
254.057	6.25
254.438	5.95
254.819	6.24
255.2	6.74
255.581	6.65
255.962	6.49
256.343	7.95
256.724	5.87
257.105	5.87
257.486	6.86
257.867	6.23
258.247	6.75
258.628	6.72
259.009	6.47
259.389	6.13
259.77	6.33
260.15	6.44
260.531	6.12
260.911	6.06
261.292	6.15
261.672	6.2
262.052	6.27
262.432	6.26
262.813	6.65
263.193	6.36
263.573	6.2
263.953	5.78
264.333	6.27
264.713	5.54
265.093	5.6
265.473	6.08
265.853	6.49
266.233	6.02
266.612	6.49
266.992	5.34
267.372	6.51
267.752	5.21
268.131	6.36
268.511	6.22
268.89	6.6
269.27	5.66
269.649	5.97
270.029	6.24
270.408	5.98
270.787	5.97
271.167	5.29
271.546	6.32
271.925	5.75
272.304	5.81
272.683	5.36
273.062	5.49
273.441	5.96
273.82	5.32
274.199	5.63
274.578	5.69
274.957	6.03
275.336	5.84
275.715	6.4
276.093	5.87
276.472	5.14
276.851	5.66
277.229	5.52
277.608	6.16
277.986	6.33
278.365	4.56
278.743	5.72
279.122	5.5
279.5	5.08
279.878	4.92
280.257	5.85
280.635	5.67
281.013	5.51
281.391	6.13
281.769	5.5
282.147	5.73
282.525	5.05
282.903	5.69
283.281	5.27
283.659	5.28
284.037	5.43
284.415	6.09
284.792	5.73
285.17	5.58
285.548	5.3
285.925	5.02
286.303	5.46
286.68	5.04
287.058	4.93
287.435	5.33
287.813	5.47
288.19	4.92
288.567	5.24
288.945	5.25
289.322	5.32
289.699	5.21
290.076	4.92
290.453	5.57
290.83	5.41
291.207	4.92
291.584	4.35
291.961	5.28
292.338	5.28
292.715	4.98
293.092	5.32
293.469	5.15
293.845	4.89
294.222	4.94
294.599	4.79
294.975	4.47
295.352	4.96
295.728	4.64
296.105	5
296.481	5.01
296.858	4.87
297.234	5
297.61	5.14
297.986	5.07
298.363	4.77
298.739	4.54
299.115	4.9
299.491	5.01
299.867	4.73
300.243	4.89
300.619	4.87
300.995	4.65
301.371	4.65
301.746	4.9
302.122	5.02
302.498	4.43
302.874	5.09
303.249	4.89
303.625	4.62
304	5.06
304.376	4.9
304.751	4.78
305.127	4.46
305.502	4.7
305.878	4.65
306.253	4.5
306.628	4.52
307.003	4.88
307.378	4.93
307.754	4.96
308.129	5.38
308.504	4.72
308.879	4.67
309.254	4.55
309.629	4.32
310.003	4.38
310.378	4.46
310.753	4.32
311.128	4.44
311.502	4.5
311.877	4.7
312.252	4.59
312.626	4.54
313.001	4.61
313.375	4.82
313.75	4.58
314.124	4.65
314.498	4.2
314.873	4.74
315.247	4.34
315.621	4.89
315.995	4.24
316.369	4.74
316.743	4.57
317.117	4.77
317.491	4.52
317.865	5.09
318.239	4.42
318.613	4.08
318.987	4.49
319.361	3.93
319.734	5.03
320.108	4.52
320.482	4.64
320.855	4.56
321.229	4.21
321.602	4.92
321.976	4.64
322.349	4.68
322.723	4.19
323.096	4.16
323.469	4.67
323.843	4.95
324.216	4.59
324.589	4.32
324.962	4.31
325.335	4.9
325.708	4.65
326.081	4.93
326.454	4.56
326.827	4.02
327.2	4.17
327.573	4.16
327.945	4.64
328.318	4.54
328.691	4.34
329.063	4.22
329.436	4.15
329.809	4.24
330.181	4.84
330.553	4.59
330.926	4.02
331.298	4.51
331.671	4.72
332.043	4.44
332.415	4.29
332.787	4.27
333.159	4.55
333.532	4.6
333.904	4.41
334.276	4.61
334.648	4.42
335.02	4.81
335.391	4.56
335.763	3.99
336.135	4.15
336.507	4.84
336.879	4.5
337.25	3.97
337.622	4.71
337.993	4.41
338.365	4.69
338.736	5.18
339.108	4.28
339.479	4.93
339.851	4.41
340.222	4.8
340.593	4.63
340.964	5.18
341.336	4.45
341.707	4.48
342.078	5.01
342.449	4.56
342.82	4.36
343.191	4.77
343.562	4.97
343.933	4.91
344.303	5.04
344.674	4.08
345.045	5.02
345.416	4.66
345.786	4.93
346.157	4.98
346.527	4.69
346.898	4.58
347.268	4.94
347.639	4.48
348.009	4.85
348.38	5.25
348.75	4.64
349.12	4.69
349.49	5
349.861	5.24
350.231	4.57
350.601	4.96
350.971	5
351.341	5.01
351.711	4.71
352.081	4.51
352.45	4.81
352.82	4.89
353.19	4.7
353.56	5.26
353.929	5.16
354.299	4.83
354.669	4.87
355.038	5.05
355.408	5
355.777	5.09
356.147	4.81
356.516	4.89
356.885	4.78
357.254	4.88
357.624	4.89
357.993	4.7
358.362	4.77
358.731	4.98
359.1	5.02
359.469	4.96
359.838	4.97
360.207	5.27
360.576	4.97
360.945	4.68
361.314	4.9
361.682	4.7
362.051	5.02
362.42	5.24
362.788	5.33
363.157	4.98
363.525	5
363.894	5.15
364.262	5.08
364.631	5.2
364.999	4.97
365.367	5.27
365.735	5.37
366.104	5.4
366.472	5.08
366.84	5.1
367.208	5.32
367.576	4.9
367.944	4.9
368.312	4.86
368.68	5.28
369.048	5.63
369.416	5.42
369.783	5.22
370.151	5.36
370.519	5.29
370.886	5.26
371.254	4.94
371.621	5.47
371.989	5.19
372.356	5.37
372.724	5.44
373.091	5.13
373.458	5.23
373.826	5.18
374.193	5.58
374.56	5.03
374.927	5.27
375.294	5.24
375.661	5.31
376.028	5.76
376.395	5.23
376.762	5.7
377.129	4.96
377.496	5.41
377.863	5.4
378.229	5.51
378.596	5.28
378.963	5.29
379.329	5.28
379.696	5.49
380.062	5.31
380.429	5.34
380.795	5.4
381.161	5.65
381.528	5.52
381.894	5.48
382.26	5.42
382.626	5.43
382.993	5.3
383.359	5.31
383.725	5.57
384.091	5.66
384.457	4.93
384.823	5.3
385.188	5.5
385.554	5.07
385.92	5.51
386.286	5.4
386.651	5.38
387.017	5.65
387.383	5.1
387.748	5.18
388.114	5.25
388.479	5.63
388.845	5.49
389.21	5.76
389.575	5.59
389.94	5.73
390.306	5.5
390.671	5.5
391.036	5.25
391.401	5.5
391.766	5.57
392.131	5.65
392.496	5.29
392.861	5.59
393.226	5.77
393.591	5.44
393.956	5.54
394.32	6.02
394.685	5.73
395.05	6
395.414	5.46
395.779	5.71
396.143	5.64
396.508	5.51
396.872	5.74
397.236	5.71
397.601	5.62
397.965	5.2
398.329	5.49
398.694	5.54
399.058	5.88
399.422	5.36
399.786	5.66
400.15	5.69
400.514	5.53
400.878	5.81
401.242	5.62
401.605	5.5
401.969	5.66
402.333	5.72
402.697	5.82
403.06	6.07
403.424	5.63
403.787	5.54
404.151	5.79
404.514	5.9
404.878	5.62
405.241	5.62
405.604	5.7
405.968	5.74
406.331	5.82
406.694	5.61
407.057	5.63
407.42	5.63
407.783	5.75
408.146	6.07
408.509	5.86
408.872	5.87
409.235	5.85
409.598	5.59
409.961	5.7
410.323	5.89
410.686	5.75
411.049	5.77
411.411	5.62
411.774	5.75
412.136	5.6
412.499	5.81
412.861	5.88
413.223	5.79
413.586	5.9
413.948	5.72
414.31	5.88
414.672	5.82
415.035	6
415.397	5.73
415.759	5.79
416.121	5.7
416.483	5.77
416.845	5.88
417.206	6.06
417.568	5.99
417.93	6.03
418.292	5.81
418.653	5.62
419.015	5.7
419.377	5.94
419.738	5.74
420.1	5.89
420.461	5.89
420.822	5.8
421.184	5.76
421.545	5.8
421.906	5.91
422.267	5.79
422.629	5.62
422.99	5.7
423.351	5.89
423.712	5.74
424.073	5.86
424.434	5.91
424.795	5.88
425.155	5.85
425.516	5.8
425.877	5.69
426.238	5.71
426.598	5.79
426.959	5.75
427.32	5.79
427.68	5.86
428.041	5.84
428.401	5.84
428.761	6.07
429.122	6
429.482	5.8
429.842	5.84
430.202	6.09
430.563	5.91
430.923	5.95
431.283	6.06
431.643	5.98
432.003	6.06
432.363	5.93
432.722	6.07
433.082	5.86
433.442	6.07
433.802	6.04
434.161	5.98
434.521	6.01
434.881	5.9
435.24	5.94
435.6	6
435.959	6.05
436.319	5.96
436.678	6.02
437.037	5.93
437.396	6
437.756	6.06
438.115	5.91
438.474	6.11
438.833	5.83
439.192	5.96
439.551	5.99
439.91	5.88
440.269	6.08
440.628	6.03
440.987	5.87
441.345	5.89
441.704	5.96
442.063	5.95
442.421	5.96
442.78	5.93
443.138	6
443.497	6.05
443.855	6
444.214	5.96
444.572	6.04
444.93	5.91
445.288	6.01
445.647	5.86
446.005	5.93
446.363	6.01
446.721	5.9
447.079	5.99
447.437	5.95
447.795	5.87
448.153	5.91
448.51	5.87
448.868	5.93
449.226	5.91
449.584	6.04
449.941	6.07
450.299	5.98
450.656	5.96
451.014	6
451.371	6.09
451.729	6.09
452.086	6.04
452.443	5.98
452.801	6.21
453.158	5.98
453.515	6.03
453.872	5.94
454.229	5.95
454.586	5.96
454.943	5.95
455.3	6.16
455.657	5.94
456.014	6.12
456.371	5.98
456.727	6.09
457.084	6.32
457.441	6.04
457.797	6.01
458.154	6.08
458.51	6.07
458.867	5.93
459.223	6.04
459.58	6.1
459.936	5.97
460.292	5.97
460.648	5.93
461.005	6.02
461.361	5.8
461.717	5.91
462.073	5.92
462.429	6.05
462.785	6.17
463.141	6.05
463.496	6.07
463.852	6.01
464.208	6.14
464.564	6.11
464.919	6.1
465.275	6.28
465.631	6.08
465.986	5.99
466.342	6.1
466.697	6.17
467.052	6.02
467.408	6
467.763	6.02
468.118	6.02
468.473	5.96
468.829	6.03
469.184	6.03
469.539	6.17
469.894	6.15
470.249	6.35
470.603	6.1
470.958	6
471.313	6.03
471.668	5.88
472.023	6.02
472.377	5.85
472.732	6.03
473.086	6.02
473.441	6.03
473.795	6.06
474.15	5.96
474.504	6.11
474.859	6.05
475.213	6.06
475.567	5.84
475.921	6.02
476.275	6.04
476.63	6.24
476.984	6.07
477.338	6.12
477.692	5.98
478.045	5.95
478.399	5.98
478.753	5.99
479.107	5.9
479.461	6.01
479.814	5.97
480.168	6
480.521	5.9
480.875	6
481.228	6.04
481.582	6.02
481.935	6.03
482.289	6.02
482.642	5.93
482.995	5.92
483.348	5.87
483.701	5.87
484.055	5.82
484.408	5.88
484.761	5.71
485.114	5.59
485.466	5.51
485.819	5.57
486.172	5.69
486.525	5.76
486.878	5.82
487.23	5.9
487.583	5.9
487.936	5.82
488.288	5.75
488.641	5.7
488.993	5.68
489.345	5.64
489.698	5.63
490.05	5.71
490.402	5.75
490.754	5.87
491.107	5.82
491.459	6
491.811	5.87
492.163	5.86
492.515	5.78
492.866	5.63
493.218	5.57
493.57	5.66
493.922	5.79
494.274	5.82
494.625	5.85
494.977	5.87
495.328	5.88
495.68	5.94
496.031	5.91
496.383	5.98
496.734	5.94
497.086	5.95
497.437	5.9
497.788	5.99
498.139	5.86
498.49	5.95
498.842	5.95
499.193	5.86
499.544	5.94
499.894	5.8
500.245	5.86
500.596	5.9
500.947	5.97
501.298	5.9
501.648	5.89
501.999	5.86
502.35	5.93
502.7	5.96
503.051	6.07
503.401	5.81
503.752	6.02
504.102	5.88
504.452	5.87
504.803	5.96
505.153	5.95
505.503	5.9
505.853	5.78
506.203	5.86
506.553	5.9
506.903	5.85
507.253	5.83
507.603	5.97
507.953	5.9
508.303	5.9
508.652	5.88
509.002	5.99
509.352	5.91
509.701	5.82
510.051	5.95
510.4	5.76
510.75	5.92
511.099	5.72
511.449	5.71
511.798	5.83
512.147	5.69
512.496	5.94
512.846	5.83
513.195	5.8
513.544	5.78
513.893	5.82
514.242	5.75
514.591	5.75
514.939	5.88
515.288	5.88
515.637	5.92
515.986	5.78
516.334	5.63
516.683	5.91
517.032	5.9
517.38	6
517.729	5.92
518.077	5.9
518.426	5.77
518.774	5.87
519.122	5.91
519.47	5.75
519.819	5.8
520.167	5.63
520.515	5.63
520.863	5.76
521.211	5.8
521.559	5.79
521.907	5.83
522.255	5.62
522.602	5.7
522.95	5.8
523.298	5.75
523.645	5.88
523.993	5.82
524.341	5.83
524.688	5.83
525.036	5.87
525.383	5.77
525.73	5.73
526.078	5.71
526.425	5.73
526.772	5.67
527.119	5.64
527.466	5.68
527.814	5.73
528.161	5.7
528.508	5.66
528.854	5.74
529.201	5.69
529.548	5.49
529.895	5.4
530.242	5.41
530.588	5.47
530.935	5.52
531.282	5.55
531.628	5.59
531.975	5.61
532.321	5.67
532.667	5.66
533.014	5.7
533.36	5.63
533.706	5.64
534.052	5.68
534.399	5.54
534.745	5.55
535.091	5.43
535.437	5.5
535.783	5.56
536.129	5.68
536.474	5.64
536.82	5.69
537.166	5.67
537.512	5.69
537.857	5.59
538.203	5.54
538.549	5.54
538.894	5.44
539.239	5.7
539.585	5.58
539.93	5.6
540.276	5.78
540.621	5.77
540.966	5.77
541.311	5.64
541.656	5.66
542.001	5.49
542.346	5.51
542.691	5.4
543.036	5.27
543.381	5.29
543.726	5.41
544.071	5.49
544.415	5.52
544.76	5.51
545.105	5.55
545.449	5.49
545.794	5.53
546.138	5.49
546.483	5.7
546.827	5.66
547.171	5.65
547.516	5.5
547.86	5.38
548.204	5.54
548.548	5.53
548.892	5.44
549.236	5.48
549.58	5.65
549.924	5.66
550.268	5.69
550.612	5.68
550.956	5.48
551.3	5.5
551.643	5.75
551.987	5.72
552.33	5.47
552.674	5.6
553.017	5.58
553.361	5.54
553.704	5.65
554.048	5.41
554.391	5.51
554.734	5.6
555.077	5.52
555.42	5.65
555.764	5.68
556.107	5.67
556.45	5.3
556.793	5.5
557.135	5.52
557.478	5.59
557.821	5.34
558.164	5.64
558.507	5.63
558.849	5.31
559.192	5.49
559.534	5.47
559.877	5.3
560.219	5.45
560.562	5.56
560.904	5.6
561.246	5.5
561.589	5.62
561.931	5.51
562.273	5.47
562.615	5.45
562.957	5.33
563.299	5.42
563.641	5.49
563.983	5.75
564.325	5.38
564.667	5.22
565.008	5.5
565.35	5.42
565.692	5.56
566.033	5.39
566.375	5.39
566.716	5.41
567.058	5.52
567.399	5.45
567.741	5.29
568.082	5.43
568.423	5.11
568.764	5.29
569.105	5.3
569.447	5.43
569.788	5.38
570.129	5.38
570.47	5.38
570.811	5.33
571.151	5.36
571.492	5.27
571.833	5.44
572.174	5.51
572.514	5.41
572.855	5.29
573.195	5.35
573.536	5.38
573.876	5.27
574.217	5.23
574.557	5.38
574.898	5.35
575.238	5.42
575.578	5.25
575.918	5.39
576.258	5.25
576.598	5.13
576.938	5.23
577.278	5.3
577.618	5.32
577.958	5.4
578.298	5.36
578.638	5.17
578.977	5.18
579.317	5.39
579.657	5.24
579.996	5.31
580.336	5.54
580.675	5.28
581.014	5.52
581.354	5.44
581.693	5.36
582.032	5.44
582.372	5.38
582.711	5.37
583.05	5.37
583.389	5.4
583.728	5.44
584.067	5.34
584.406	5.38
584.745	5.48
585.083	5.27
585.422	5.44
585.761	5.31
586.1	4.96
586.438	5.29
586.777	5.04
587.115	5.22
587.454	5.39
587.792	5.13
588.13	5.32
588.469	5
588.807	5.26
589.145	5.15
589.483	5.31
589.821	5.24
590.159	5.17
590.497	5.56
590.835	5.35
591.173	5.17
591.511	5.17
591.849	5.24
592.187	5.24
592.524	4.93
592.862	5.03
593.2	5.01
593.537	5.11
593.875	5.08
594.212	5.14
594.55	4.86
594.887	5.24
595.224	5.01
595.561	5.17
595.899	5.23
596.236	4.98
596.573	4.99
596.91	5.4
597.247	5.03
597.584	5.12
597.921	5.18
598.258	4.92
598.594	4.93
598.931	5.06
599.268	5.03
599.604	5.03
599.941	5.04
600.277	4.92
600.614	5.08
600.95	5.04
601.287	5.04
601.623	5.12
601.959	5.2
602.296	5.06
602.632	4.95
602.968	5.06
603.304	4.87
603.64	4.98
603.976	5.13
604.312	5.19
604.648	5.23
604.984	5.03
605.319	5.12
605.655	5.13
605.991	5.14
606.326	4.94
606.662	4.7
606.998	4.91
607.333	5.05
607.668	5.11
608.004	5.13
608.339	5.22
608.674	5.15
609.01	5.02
609.345	5.3
609.68	4.94
610.015	4.96
610.35	5
610.685	5.27
611.02	4.9
611.355	4.93
611.689	5.17
612.024	5.08
612.359	5.05
612.694	4.86
613.028	4.95
613.363	4.97
613.697	4.87
614.032	5.08
614.366	5.02
614.7	5.17
615.035	5.13
615.369	4.88
615.703	5.06
616.037	4.92
616.371	4.98
616.705	5.22
617.039	5
617.373	4.85
617.707	5.04
618.041	4.96
618.375	5.04
618.709	4.79
619.042	5.03
619.376	4.83
619.71	4.98
620.043	4.86
620.377	5.01
620.71	4.95
621.043	5.23
621.377	5.05
621.71	4.95
622.043	4.69
622.376	4.93
622.709	5.17
623.043	4.87
623.376	4.58
623.709	4.51
624.041	5.11
624.374	5.02
624.707	4.84
625.04	4.84
625.373	4.8
625.705	4.77
626.038	5.25
626.37	5.1
626.703	4.81
627.035	4.79
627.368	5.03
627.7	5.39
628.032	4.75
628.365	4.81
628.697	4.72
629.029	5
629.361	4.86
629.693	4.88
630.025	5.1
630.357	5.05
630.689	4.88
631.021	5.02
631.353	4.85
631.684	4.42
632.016	4.7
632.348	5.02
632.679	4.71
633.011	4.56
633.342	4.6
633.674	5.28
634.005	5.06
634.336	4.5
634.668	4.99
634.999	4.6
635.33	4.83
635.661	4.64
635.992	4.79
636.323	4.68
636.654	4.62
636.985	5.05
637.316	5.14
637.647	4.88
637.977	4.53
638.308	4.89
638.639	4.91
638.969	4.83
639.3	4.95
639.63	4.73
639.961	5.12
640.291	5.01
640.622	4.58
640.952	4.99
641.282	4.92
641.612	5.01
641.943	4.74
642.273	4.82
642.603	5.43
642.933	4.79
643.263	4.52
643.592	4.75
643.922	4.56
644.252	4.85
644.582	4.45
644.911	4.61
645.241	4.97
645.571	5.12
645.9	5.13
646.23	4.83
646.559	4.17
646.888	4.32
647.218	4.82
647.547	4.8
647.876	4.96
648.205	4.9
648.534	4.78
648.863	5.19
649.192	4.75
649.521	5.08
649.85	5
650.179	4.3
650.508	4.78
650.837	5.06
651.165	4.59
651.494	4.84
651.822	4.53
652.151	4.61
652.479	5
652.808	5.44
653.136	4.94
653.465	4.87
653.793	4.85
654.121	5.05
654.449	4.89
654.777	5.31
655.105	4.71
655.433	4.33
655.761	4.97
656.089	4.41
656.417	4.46
656.745	4.73
657.073	5.14
657.4	4.48
657.728	5.55
658.056	4.48
658.383	5.08
658.711	4.29
659.038	4.73
659.365	4.85
659.693	4.62
660.02	4.65
660.347	4.53
660.674	4.66
661.001	4.75
661.329	4.41
661.656	4.81
661.982	5.01
662.309	5.01
662.636	4.81
662.963	4.61
663.29	5.09
663.616	4.9
663.943	5.17
664.27	4.85
664.596	4.85
664.923	4.62
665.249	5.17
665.576	4.76
665.902	5.17
666.228	4.02
666.554	5.05
666.881	5.46
667.207	4.82
667.533	4.95
667.859	5.18
668.185	4.85
668.511	4.77
668.837	4.65
669.162	5.2
669.488	4.9
669.814	4.84
670.139	4.38
670.465	4.66
670.791	5
671.116	4.73
671.442	5.13
671.767	4.62
672.092	5.26
672.418	4.8
672.743	4.88
673.068	5.17
673.393	4.43
673.718	4.71
674.043	4.44
674.368	5.19
674.693	6.12
675.018	5.05
675.343	5.14
675.667	4.82
675.992	4.85
676.317	4.75
676.641	4.28
676.966	5
677.29	4.54
677.615	4.52
677.939	4.69
678.264	4.58
678.588	4.46
678.912	4.46
679.236	4.72
679.56	5.31
679.885	4.77
680.209	4.5
680.532	5.37
680.856	4.92
681.18	4.69
681.504	4.67
681.828	4.47
682.152	4.83
682.475	4.75
682.799	4.58
683.122	4.65
683.446	4.87
683.769	4.9
684.093	4.75
684.416	4.72
684.739	4.39
685.062	5.01
685.386	4.64
685.709	4.73
686.032	4.76
686.355	4.99
686.678	4.81
687.001	4.87
687.324	4.44
687.646	4.93
687.969	5.13
688.292	4.66
688.614	4.2
688.937	5.15
689.26	5.35
689.582	4.36
689.904	5.42
690.227	5.05
690.549	4.86
690.871	4.92
691.194	4.38
691.516	4.68
691.838	4.92
692.16	5.53
692.482	4.3
692.804	4.75
693.126	5.07
693.448	4.38
693.769	5.05
694.091	4.41
694.413	5.4
