Data from 815658_chest_Reflection__1__73.txt Node

Date: Fri Sep 16 15:09:34 CDT 2022
User: ToomeyLab
Spectrometer: FLMS14357
Trigger mode: 0
Integration Time (sec): 1.000000E-2
Scans to average: 100
Electric dark correction enabled: true
Nonlinearity correction enabled: false
Boxcar width: 0
XAxis mode: Wavelengths
Number of Pixels in Spectrum: 2048
>>>>>Begin Spectral Data<<<<<
189.047	36.96
189.435	36.96
189.823	36.96
190.211	71.1
190.599	38.51
190.987	89.7
191.375	62.98
191.763	29.74
192.151	-265.59
192.538	-75.33
192.926	96.99
193.314	83.36
193.702	129.38
194.089	39.81
194.477	99.5
194.864	47.42
195.252	120.94
195.639	4721.79
196.027	74.24
196.414	139.85
196.801	79.85
197.189	-8
197.576	63.24
197.963	-14.17
198.351	-43.95
198.738	23.15
199.125	12.29
199.512	-49.31
199.899	-6.42
200.286	-20.07
200.673	-4.96
201.06	29.99
201.447	31.11
201.833	15.23
202.22	7.03
202.607	-85.25
202.994	19.62
203.38	46.57
203.767	17.63
204.154	23.76
204.54	20.76
204.927	-32.91
205.313	39.68
205.699	30.62
206.086	10.7
206.472	43.3
206.858	-4.38
207.245	-19.68
207.631	12.28
208.017	23.16
208.403	-14.67
208.789	17.95
209.175	42.69
209.561	15.06
209.947	-10.35
210.333	-6.63
210.719	11.57
211.105	21.32
211.491	-9.21
211.876	21.66
212.262	37.55
212.648	19.82
213.034	-21.27
213.419	-27.49
213.805	20.16
214.19	6.28
214.576	-15.09
214.961	-17.81
215.346	-44.52
215.732	-50.88
216.117	12.96
216.502	26.9
216.888	-25.65
217.273	16.7
217.658	-2.38
218.043	-72.62
218.428	-10.81
218.813	6.92
219.198	1.68
219.583	-17.03
219.968	22.93
220.353	-4.65
220.738	22.46
221.122	-6.68
221.507	-5.63
221.892	19.6
222.276	9.51
222.661	23.16
223.046	8.14
223.43	18.29
223.815	-3.46
224.199	16.66
224.583	9.1
224.968	10.83
225.352	-0.82
225.736	15.62
226.121	6.92
226.505	9.88
226.889	4.87
227.273	11.77
227.657	10.91
228.041	4.35
228.425	-3.01
228.809	7.68
229.193	3.09
229.577	5.02
229.961	5.53
230.344	6.33
230.728	5.77
231.112	5.21
231.495	4.75
231.879	5.98
232.263	4.36
232.646	4.83
233.03	5.63
233.413	7.2
233.797	3.41
234.18	5
234.563	4.74
234.946	5.67
235.33	4.82
235.713	5.88
236.096	5.26
236.479	5.12
236.862	5.17
237.245	5.68
237.628	6.4
238.011	5.75
238.394	4.68
238.777	8.07
239.16	5.69
239.543	6.96
239.925	5.69
240.308	4.2
240.691	5.59
241.073	4.59
241.456	5.4
241.838	4.28
242.221	4.79
242.603	5.32
242.986	4.82
243.368	4.93
243.75	4.49
244.133	5.33
244.515	5.19
244.897	5.37
245.279	5.41
245.661	4.88
246.043	6.08
246.425	4.57
246.807	6.03
247.189	5.02
247.571	4.78
247.953	4.9
248.335	5.17
248.717	5.19
249.098	4.93
249.48	4.81
249.862	5.31
250.243	5.23
250.625	5.26
251.006	5.13
251.388	5.79
251.769	4.06
252.151	5.09
252.532	4.57
252.913	5.29
253.295	5.39
253.676	5.36
254.057	4.77
254.438	4.2
254.819	4.62
255.2	4.05
255.581	4.45
255.962	3.87
256.343	5.25
256.724	4.27
257.105	4.42
257.486	5.2
257.867	4
258.247	4.65
258.628	4.51
259.009	4.7
259.389	4.75
259.77	4.72
260.15	4.94
260.531	4.59
260.911	4.68
261.292	4.23
261.672	4.62
262.052	4.62
262.432	4.49
262.813	5.18
263.193	4.13
263.573	4.43
263.953	4.61
264.333	4.86
264.713	4.51
265.093	4.58
265.473	4.27
265.853	4.87
266.233	4.17
266.612	5.04
266.992	3.77
267.372	4.84
267.752	3.91
268.131	4.39
268.511	4.93
268.89	4.93
269.27	4.18
269.649	4.6
270.029	4.59
270.408	5.06
270.787	4.58
271.167	4.43
271.546	4.37
271.925	4.26
272.304	4.75
272.683	4.65
273.062	4.26
273.441	4.67
273.82	4.46
274.199	4.41
274.578	4.35
274.957	4.94
275.336	4.78
275.715	5.46
276.093	4.03
276.472	4.28
276.851	4.53
277.229	4.1
277.608	4.89
277.986	4.41
278.365	3.95
278.743	5.29
279.122	3.94
279.5	4.16
279.878	5.06
280.257	4.77
280.635	5.28
281.013	4.62
281.391	4.91
281.769	4.56
282.147	4.91
282.525	3.75
282.903	4.63
283.281	4.34
283.659	4.78
284.037	4.89
284.415	4.57
284.792	4.72
285.17	4.5
285.548	4.36
285.925	4.14
286.303	4.6
286.68	4.32
287.058	4.03
287.435	4.47
287.813	4.63
288.19	4.04
288.567	4.09
288.945	4.29
289.322	4.54
289.699	4.22
290.076	4.02
290.453	4.38
290.83	4.74
291.207	4.39
291.584	4.01
291.961	4.3
292.338	4.32
292.715	3.96
293.092	4.19
293.469	4.49
293.845	4.31
294.222	4.58
294.599	3.99
294.975	4.42
295.352	4.48
295.728	4.05
296.105	4.42
296.481	3.96
296.858	4.09
297.234	4.12
297.61	4.34
297.986	4.05
298.363	3.82
298.739	3.9
299.115	4.43
299.491	4.25
299.867	3.97
300.243	3.95
300.619	4.65
300.995	4.09
301.371	4.26
301.746	3.93
302.122	4.49
302.498	4.52
302.874	4.58
303.249	4.23
303.625	4
304	3.91
304.376	3.79
304.751	4.19
305.127	4.19
305.502	4.28
305.878	4.12
306.253	4.18
306.628	3.86
307.003	4.25
307.378	4.46
307.754	4.41
308.129	4.27
308.504	4.52
308.879	4.11
309.254	4.22
309.629	4.24
310.003	3.91
310.378	3.73
310.753	4
311.128	4.27
311.502	3.92
311.877	4.28
312.252	4.44
312.626	4.34
313.001	3.85
313.375	4.58
313.75	4.26
314.124	3.95
314.498	3.92
314.873	4.13
315.247	4.34
315.621	3.99
315.995	4.16
316.369	4.27
316.743	4.19
317.117	4
317.491	3.83
317.865	4.49
318.239	4.54
318.613	3.84
318.987	3.54
319.361	3.81
319.734	4
320.108	4.3
320.482	4.88
320.855	3.94
321.229	4.04
321.602	4.63
321.976	3.91
322.349	3.74
322.723	4.14
323.096	3.94
323.469	3.58
323.843	4.31
324.216	4.94
324.589	4.32
324.962	3.83
325.335	4.19
325.708	4.28
326.081	4.11
326.454	4.24
326.827	4.14
327.2	4.27
327.573	3.59
327.945	3.86
328.318	4.41
328.691	3.76
329.063	3.9
329.436	3.61
329.809	3.58
330.181	4.24
330.553	4.22
330.926	3.91
331.298	4.66
331.671	3.93
332.043	3.69
332.415	4.3
332.787	3.62
333.159	3.83
333.532	4.75
333.904	3.96
334.276	4.23
334.648	4.01
335.02	4.21
335.391	4.44
335.763	4.11
336.135	3.54
336.507	3.99
336.879	4.62
337.25	3.35
337.622	4.25
337.993	4.51
338.365	3.88
338.736	4.54
339.108	3.74
339.479	4.44
339.851	3.98
340.222	4.38
340.593	4.13
340.964	4.01
341.336	3.77
341.707	4.08
342.078	4.81
342.449	4.05
342.82	3.97
343.191	4.25
343.562	4.46
343.933	3.88
344.303	4.2
344.674	3.93
345.045	4.33
345.416	4.03
345.786	4.31
346.157	4.41
346.527	4.39
346.898	3.7
347.268	3.86
347.639	3.77
348.009	3.91
348.38	3.79
348.75	3.65
349.12	4.05
349.49	4.33
349.861	4.4
350.231	3.92
350.601	4.37
350.971	4.34
351.341	4.27
351.711	4.29
352.081	3.6
352.45	4.45
352.82	4.52
353.19	4.03
353.56	4.6
353.929	4.23
354.299	4.01
354.669	4.23
355.038	4.23
355.408	4.18
355.777	4.02
356.147	4.22
356.516	4.32
356.885	4.32
357.254	4.21
357.624	4.13
357.993	4.04
358.362	3.89
358.731	4.3
359.1	4.31
359.469	4.18
359.838	4.27
360.207	4.4
360.576	4.22
360.945	3.99
361.314	4.12
361.682	4.08
362.051	3.94
362.42	4.23
362.788	4.53
363.157	4.22
363.525	4.03
363.894	4.19
364.262	4.08
364.631	4.29
364.999	4.11
365.367	4.05
365.735	4.08
366.104	4.2
366.472	4.43
366.84	4.41
367.208	4.5
367.576	4.42
367.944	4.17
368.312	4
368.68	4.25
369.048	4.54
369.416	4.29
369.783	4.29
370.151	4.4
370.519	4.48
370.886	4.17
371.254	3.94
371.621	4.49
371.989	4.19
372.356	4.54
372.724	4.46
373.091	4.24
373.458	4.26
373.826	4.36
374.193	4.51
374.56	4.25
374.927	4.15
375.294	4.76
375.661	4.31
376.028	4.67
376.395	4.01
376.762	4.68
377.129	3.87
377.496	4.5
377.863	4.2
378.229	4.52
378.596	4.01
378.963	4.33
379.329	4.11
379.696	4.54
380.062	4.24
380.429	4.28
380.795	4.42
381.161	4.51
381.528	4.43
381.894	4.46
382.26	4.33
382.626	4.24
382.993	4.1
383.359	4.42
383.725	4.18
384.091	4.46
384.457	4.25
384.823	4.11
385.188	3.98
385.554	4.14
385.92	4.43
386.286	4.22
386.651	4.4
387.017	4.18
387.383	4.09
387.748	4.02
388.114	4.08
388.479	4.29
388.845	4.44
389.21	4.51
389.575	4.36
389.94	4.61
390.306	4.24
390.671	4.4
391.036	4.17
391.401	4.22
391.766	4.46
392.131	4.49
392.496	3.99
392.861	4.44
393.226	4.49
393.591	4.18
393.956	4.39
394.32	4.61
394.685	4.21
395.05	4.7
395.414	3.99
395.779	4.38
396.143	4.44
396.508	4.21
396.872	4.45
397.236	4.27
397.601	4.2
397.965	4.42
398.329	4.43
398.694	4.16
399.058	4.67
399.422	4.25
399.786	4.5
400.15	4.73
400.514	4.43
400.878	4.54
401.242	4.4
401.605	4.39
401.969	4.27
402.333	4.5
402.697	4.14
403.06	4.61
403.424	4.49
403.787	4.53
404.151	4.31
404.514	4.44
404.878	4.41
405.241	4.4
405.604	4.56
405.968	4.55
406.331	4.54
406.694	4.38
407.057	4.43
407.42	4.22
407.783	4.49
408.146	4.71
408.509	4.45
408.872	4.48
409.235	4.43
409.598	4.32
409.961	4.44
410.323	4.46
410.686	4.74
411.049	4.5
411.411	4.23
411.774	4.4
412.136	4.35
412.499	4.35
412.861	4.63
413.223	4.54
413.586	4.57
413.948	4.42
414.31	4.68
414.672	4.48
415.035	4.5
415.397	4.27
415.759	4.68
416.121	4.59
416.483	4.3
416.845	4.52
417.206	4.76
417.568	4.62
417.93	4.46
418.292	4.43
418.653	4.33
419.015	4.42
419.377	4.46
419.738	4.31
420.1	4.49
420.461	4.49
420.822	4.45
421.184	4.33
421.545	4.35
421.906	4.43
422.267	4.44
422.629	4.31
422.99	4.33
423.351	4.45
423.712	4.35
424.073	4.53
424.434	4.41
424.795	4.44
425.155	4.48
425.516	4.39
425.877	4.34
426.238	4.4
426.598	4.38
426.959	4.5
427.32	4.46
427.68	4.54
428.041	4.41
428.401	4.58
428.761	4.66
429.122	4.56
429.482	4.5
429.842	4.52
430.202	4.47
430.563	4.53
430.923	4.62
431.283	4.69
431.643	4.84
432.003	4.52
432.363	4.64
432.722	4.66
433.082	4.56
433.442	4.66
433.802	4.44
434.161	4.48
434.521	4.59
434.881	4.45
435.24	4.52
435.6	4.68
435.959	4.55
436.319	4.47
436.678	4.6
437.037	4.43
437.396	4.58
437.756	4.75
438.115	4.59
438.474	4.49
438.833	4.68
439.192	4.42
439.551	4.44
439.91	4.49
440.269	4.62
440.628	4.5
440.987	4.56
441.345	4.53
441.704	4.51
442.063	4.54
442.421	4.51
442.78	4.53
443.138	4.55
443.497	4.66
443.855	4.48
444.214	4.54
444.572	4.67
444.93	4.74
445.288	4.54
445.647	4.65
446.005	4.52
446.363	4.63
446.721	4.6
447.079	4.44
447.437	4.53
447.795	4.57
448.153	4.55
448.51	4.44
448.868	4.52
449.226	4.54
449.584	4.58
449.941	4.55
450.299	4.55
450.656	4.6
451.014	4.75
451.371	4.62
451.729	4.64
452.086	4.63
452.443	4.64
452.801	4.77
453.158	4.66
453.515	4.63
453.872	4.6
454.229	4.58
454.586	4.53
454.943	4.51
455.3	4.7
455.657	4.64
456.014	4.62
456.371	4.65
456.727	4.69
457.084	4.74
457.441	4.61
457.797	4.66
458.154	4.65
458.51	4.82
458.867	4.62
459.223	4.73
459.58	4.76
459.936	4.74
460.292	4.67
460.648	4.54
461.005	4.62
461.361	4.5
461.717	4.52
462.073	4.63
462.429	4.68
462.785	4.8
463.141	4.66
463.496	4.71
463.852	4.67
464.208	4.68
464.564	4.76
464.919	4.69
465.275	4.88
465.631	4.85
465.986	4.68
466.342	4.74
466.697	4.79
467.052	4.74
467.408	4.79
467.763	4.85
468.118	4.7
468.473	4.73
468.829	4.73
469.184	4.66
469.539	4.73
469.894	4.81
470.249	4.86
470.603	4.85
470.958	4.66
471.313	4.83
471.668	4.75
472.023	4.81
472.377	4.86
472.732	4.75
473.086	4.69
473.441	4.63
473.795	4.78
474.15	4.75
474.504	4.76
474.859	4.76
475.213	4.83
475.567	4.55
475.921	4.83
476.275	5.02
476.63	4.82
476.984	4.69
477.338	4.85
477.692	4.62
478.045	4.77
478.399	4.81
478.753	4.78
479.107	4.85
479.461	4.81
479.814	4.81
480.168	4.81
480.521	4.69
480.875	4.81
481.228	4.81
481.582	4.92
481.935	4.86
482.289	4.88
482.642	4.83
482.995	4.86
483.348	4.76
483.701	4.77
484.055	4.68
484.408	4.76
484.761	4.57
485.114	4.42
485.466	4.43
485.819	4.43
486.172	4.52
486.525	4.63
486.878	4.69
487.23	4.81
487.583	4.77
487.936	4.76
488.288	4.73
488.641	4.59
488.993	4.61
489.345	4.52
489.698	4.52
490.05	4.63
490.402	4.63
490.754	4.82
491.107	4.71
491.459	4.86
491.811	4.81
492.163	4.8
492.515	4.72
492.866	4.64
493.218	4.56
493.57	4.57
493.922	4.68
494.274	4.8
494.625	4.85
494.977	4.84
495.328	4.86
495.68	4.79
496.031	4.91
496.383	4.82
496.734	4.95
497.086	4.93
497.437	4.76
497.788	4.91
498.139	4.82
498.49	4.84
498.842	4.94
499.193	4.87
499.544	4.91
499.894	4.9
500.245	4.87
500.596	4.86
500.947	4.97
501.298	4.88
501.648	4.97
501.999	4.95
502.35	4.93
502.7	4.97
503.051	5.05
503.401	4.87
503.752	4.99
504.102	5.14
504.452	5.03
504.803	5.06
505.153	5.06
505.503	5.04
505.853	4.99
506.203	5.15
506.553	4.87
506.903	4.96
507.253	4.9
507.603	5.07
507.953	5.14
508.303	5.1
508.652	4.97
509.002	5
509.352	5.03
509.701	5
510.051	5.01
510.4	4.99
510.75	5
511.099	5.03
511.449	4.9
511.798	5.05
512.147	4.96
512.496	5.14
512.846	5.03
513.195	5.02
513.544	5
513.893	5.08
514.242	5.08
514.591	5.15
514.939	5.2
515.288	5.16
515.637	5.13
515.986	5.2
516.334	5.2
516.683	5.17
517.032	5.17
517.38	5.23
517.729	5.17
518.077	5.25
518.426	5.13
518.774	5.15
519.122	5.18
519.47	5.15
519.819	5.01
520.167	5.06
520.515	4.98
520.863	5.1
521.211	5.15
521.559	5.17
521.907	5.16
522.255	5.08
522.602	5.18
522.95	5.25
523.298	5.26
523.645	5.3
523.993	5.36
524.341	5.18
524.688	5.32
525.036	5.35
525.383	5.36
525.73	5.32
526.078	5.27
526.425	5.19
526.772	5.24
527.119	5.15
527.466	5.27
527.814	5.22
528.161	5.24
528.508	5.25
528.854	5.25
529.201	5.22
529.548	5.14
529.895	5.06
530.242	5.04
530.588	5.05
530.935	5.11
531.282	5.22
531.628	5.24
531.975	5.36
532.321	5.3
532.667	5.42
533.014	5.39
533.36	5.36
533.706	5.34
534.052	5.37
534.399	5.25
534.745	5.26
535.091	5.22
535.437	5.26
535.783	5.35
536.129	5.43
536.474	5.39
536.82	5.44
537.166	5.53
537.512	5.52
537.857	5.47
538.203	5.48
538.549	5.41
538.894	5.35
539.239	5.56
539.585	5.55
539.93	5.45
540.276	5.7
540.621	5.71
540.966	5.63
541.311	5.59
541.656	5.69
542.001	5.49
542.346	5.48
542.691	5.38
543.036	5.37
543.381	5.35
543.726	5.49
544.071	5.53
544.415	5.56
544.76	5.61
545.105	5.66
545.449	5.64
545.794	5.66
546.138	5.66
546.483	5.82
546.827	5.83
547.171	5.87
547.516	5.71
547.86	5.69
548.204	5.78
548.548	5.71
548.892	5.64
549.236	5.86
549.58	5.94
549.924	5.99
550.268	5.97
550.612	5.99
550.956	5.86
551.3	6
551.643	6.01
551.987	6.19
552.33	5.89
552.674	5.89
553.017	6.11
553.361	6.03
553.704	6.15
554.048	6.06
554.391	6.18
554.734	5.97
555.077	6.08
555.42	6.27
555.764	6.16
556.107	6.27
556.45	6.21
556.793	6.41
557.135	6.15
557.478	6.2
557.821	6.31
558.164	6.36
558.507	6.23
558.849	6.09
559.192	6.33
559.534	6.44
559.877	6.24
560.219	6.36
560.562	6.5
560.904	6.27
561.246	6.38
561.589	6.41
561.931	6.62
562.273	6.44
562.615	6.48
562.957	6.5
563.299	6.53
563.641	6.48
563.983	6.69
564.325	6.45
564.667	6.37
565.008	6.65
565.35	6.53
565.692	6.55
566.033	6.58
566.375	6.47
566.716	6.5
567.058	6.59
567.399	6.79
567.741	6.57
568.082	6.74
568.423	6.48
568.764	6.64
569.105	6.85
569.447	6.72
569.788	6.91
570.129	6.9
570.47	6.82
570.811	7.05
571.151	6.91
571.492	6.82
571.833	6.95
572.174	6.97
572.514	6.95
572.855	6.9
573.195	7
573.536	7
573.876	6.98
574.217	7.12
574.557	6.98
574.898	7.03
575.238	7.2
575.578	7.05
575.918	7.07
576.258	7.18
576.598	6.83
576.938	7.14
577.278	7.05
577.618	7.26
577.958	7.37
578.298	7.1
578.638	7.1
578.977	7.27
579.317	7.34
579.657	7.39
579.996	7.23
580.336	7.48
580.675	7.4
581.014	7.54
581.354	7.52
581.693	7.46
582.032	7.3
582.372	7.49
582.711	7.91
583.05	7.6
583.389	7.51
583.728	7.77
584.067	7.73
584.406	7.98
584.745	7.69
585.083	7.69
585.422	7.85
585.761	7.83
586.1	7.55
586.438	7.95
586.777	7.45
587.115	7.65
587.454	8.07
587.792	7.84
588.13	8.13
588.469	7.91
588.807	7.94
589.145	8.08
589.483	7.99
589.821	8.23
590.159	8.22
590.497	8.21
590.835	8.02
591.173	8.1
591.511	8.33
591.849	8.26
592.187	8.09
592.524	8
592.862	8.32
593.2	8
593.537	8.21
593.875	8.31
594.212	8.51
594.55	8.19
594.887	8.57
595.224	8.35
595.561	8.44
595.899	8.46
596.236	8.53
596.573	8.31
596.91	8.46
597.247	8.45
597.584	8.58
597.921	8.71
598.258	8.35
598.594	8.27
598.931	8.38
599.268	8.57
599.604	8.45
599.941	8.55
600.277	8.63
600.614	8.89
600.95	8.81
601.287	8.86
601.623	8.66
601.959	8.84
602.296	8.87
602.632	8.82
602.968	8.84
603.304	9.11
603.64	8.96
603.976	9.06
604.312	9.22
604.648	9.13
604.984	9.07
605.319	9.22
605.655	9.18
605.991	9.12
606.326	9.15
606.662	9.26
606.998	9.01
607.333	9.27
607.668	9.4
608.004	9.22
608.339	9.18
608.674	9.39
609.01	9.59
609.345	9.53
609.68	9.59
610.015	9.68
610.35	9.4
610.685	9.56
611.02	9.58
611.355	9.63
611.689	9.7
612.024	9.65
612.359	9.55
612.694	9.6
613.028	9.56
613.363	9.81
613.697	9.73
614.032	9.92
614.366	9.82
614.7	9.92
615.035	9.88
615.369	9.75
615.703	9.89
616.037	10.03
616.371	10.05
616.705	9.83
617.039	10.29
617.373	9.97
617.707	10.59
618.041	10.25
618.375	10.18
618.709	9.92
619.042	10.29
619.376	10.06
619.71	10.49
620.043	10.05
620.377	10.23
620.71	10.64
621.043	10.26
621.377	10.66
621.71	10.2
622.043	10.1
622.376	10.49
622.709	10.56
623.043	10.53
623.376	10.31
623.709	10.13
624.041	10.68
624.374	10.41
624.707	10.5
625.04	10.78
625.373	10.85
625.705	10.81
626.038	10.98
626.37	10.99
626.703	10.71
627.035	10.69
627.368	11
627.7	11.12
628.032	10.76
628.365	10.83
628.697	10.92
629.029	10.81
629.361	10.54
629.693	11.1
630.025	11.35
630.357	10.99
630.689	11.26
631.021	11.22
631.353	11.08
631.684	11.01
632.016	11.52
632.348	11.67
632.679	11.1
633.011	11.01
633.342	11.08
633.674	11.73
634.005	11.17
634.336	11.21
634.668	11.7
634.999	11.34
635.33	11.41
635.661	11.41
635.992	11.53
636.323	11.76
636.654	11.42
636.985	11.97
637.316	11.79
637.647	11.78
637.977	11.85
638.308	12.14
638.639	11.74
638.969	11.55
639.3	12.03
639.63	11.74
639.961	12.1
640.291	11.82
640.622	12.18
640.952	12.18
641.282	12.15
641.612	12.04
641.943	12.07
642.273	12.2
642.603	12.54
642.933	12.07
643.263	12.27
643.592	11.5
643.922	12.19
644.252	12.28
644.582	12.29
644.911	12.36
645.241	12.58
645.571	12.93
645.9	12.65
646.23	12.36
646.559	11.92
646.888	12.35
647.218	13.02
647.547	12.93
647.876	13.03
648.205	12.89
648.534	12.58
648.863	12.87
649.192	12.72
649.521	12.75
649.85	13.31
650.179	12.7
650.508	13.13
650.837	13.22
651.165	12.78
651.494	12.98
651.822	12.42
652.151	12.86
652.479	13.31
652.808	13.07
653.136	13.16
653.465	13.08
653.793	12.92
654.121	13.18
654.449	13.19
654.777	13.18
655.105	13.59
655.433	13.1
655.761	13.56
656.089	13.46
656.417	13.23
656.745	13.75
657.073	13.52
657.4	13.42
657.728	13.69
658.056	13.1
658.383	13.72
658.711	13.71
659.038	13.35
659.365	13.69
659.693	13.2
660.02	13.66
660.347	13.53
660.674	13.7
661.001	13.87
661.329	13.33
661.656	13.6
661.982	14.09
662.309	13.89
662.636	13.75
662.963	13.9
663.29	14.08
663.616	14.09
663.943	14.37
664.27	13.74
664.596	13.68
664.923	13.9
665.249	14.28
665.576	14.49
665.902	14.44
666.228	14.09
666.554	14.97
666.881	14.39
667.207	14.97
667.533	14.17
667.859	14.47
668.185	14.68
668.511	14.27
668.837	14.2
669.162	14.87
669.488	14.69
669.814	14.5
670.139	14.1
670.465	14.29
670.791	14.54
671.116	14.41
671.442	15.2
671.767	14.9
672.092	14.75
672.418	15.12
672.743	14.92
673.068	15.07
673.393	14.81
673.718	14.89
674.043	15.09
674.368	15.09
674.693	15.68
675.018	15.05
675.343	15.27
675.667	15.18
675.992	15.22
676.317	14.69
676.641	14.37
676.966	15.08
677.29	15.04
677.615	15.19
677.939	14.82
678.264	15.58
678.588	14.97
678.912	14.94
679.236	15.46
679.56	15.46
679.885	15.13
680.209	14.94
680.532	16
680.856	15.35
681.18	15.34
681.504	15.36
681.828	15.29
682.152	15.21
682.475	15.42
682.799	15.28
683.122	15.64
683.446	16.03
683.769	16.09
684.093	15.41
684.416	15.44
684.739	15.63
685.062	16.02
685.386	15.71
685.709	16.04
686.032	16.03
686.355	15.79
686.678	16.39
687.001	16.48
687.324	16.4
687.646	16.23
687.969	16.95
