Data from 815658_chest_Reflection__0__72.txt Node

Date: Fri Sep 16 15:09:22 CDT 2022
User: ToomeyLab
Spectrometer: FLMS14357
Trigger mode: 0
Integration Time (sec): 1.000000E-2
Scans to average: 100
Electric dark correction enabled: true
Nonlinearity correction enabled: false
Boxcar width: 0
XAxis mode: Wavelengths
Number of Pixels in Spectrum: 2048
>>>>>Begin Spectral Data<<<<<
189.047	-54.22
189.435	-54.22
189.823	-54.22
190.211	47
190.599	-61.49
190.987	78.22
191.375	88.65
191.763	50.6
192.151	145.44
192.538	45.47
192.926	-14.46
193.314	-25.84
193.702	-8.54
194.089	77.7
194.477	61.47
194.864	198.07
195.252	39.56
195.639	2180.77
196.027	148.53
196.414	223.23
196.801	100.44
197.189	37.92
197.576	12.02
197.963	17.09
198.351	-26.46
198.738	14.71
199.125	-0.98
199.512	-98.04
199.899	29.75
200.286	9.85
200.673	25.18
201.06	44.87
201.447	-18.77
201.833	-3.81
202.22	14.87
202.607	-50.77
202.994	11.03
203.38	47.29
203.767	-7.03
204.154	11.37
204.54	2.29
204.927	-53.98
205.313	16.5
205.699	50.11
206.086	30.9
206.472	1.59
206.858	-0.23
207.245	0.22
207.631	11.83
208.017	9.77
208.403	9.21
208.789	35.27
209.175	4.41
209.561	-4.89
209.947	3.4
210.333	11.78
210.719	-17.46
211.105	23.94
211.491	20.74
211.876	21.9
212.262	13.78
212.648	-17.15
213.034	11.78
213.419	-21.98
213.805	3.22
214.19	37.63
214.576	4.3
214.961	-25.06
215.346	3.28
215.732	-57.9
216.117	-5.67
216.502	17.25
216.888	-31.55
217.273	21.03
217.658	-21.72
218.043	-15.73
218.428	12.6
218.813	-3.47
219.198	12.82
219.583	-3.86
219.968	7.72
220.353	-1.01
220.738	-7.57
221.122	-30.19
221.507	34.91
221.892	-14.87
222.276	4.64
222.661	16.23
223.046	0.59
223.43	0.96
223.815	4.51
224.199	4.46
224.583	9.64
224.968	4.18
225.352	-2.76
225.736	11.41
226.121	7.04
226.505	4.2
226.889	-0.1
227.273	8.05
227.657	11.2
228.041	-0.17
228.425	-3.19
228.809	4.95
229.193	1.38
229.577	2.44
229.961	0.93
230.344	2.19
230.728	1.1
231.112	1.11
231.495	0.38
231.879	2.48
232.263	-0.29
232.646	1.35
233.03	2.46
233.413	2.9
233.797	1.38
234.18	1.62
234.563	2.59
234.946	2.37
235.33	1.2
235.713	1.13
236.096	0.88
236.479	2.26
236.862	0.31
237.245	1.75
237.628	3
238.011	0.92
238.394	1.2
238.777	1.48
239.16	2.34
239.543	5.2
239.925	2.33
240.308	0.24
240.691	0.94
241.073	0.76
241.456	0.71
241.838	1.64
242.221	1.27
242.603	1.03
242.986	0.69
243.368	1.2
243.75	1.02
244.133	1.3
244.515	1.08
244.897	1.73
245.279	1.4
245.661	1.29
246.043	1.12
246.425	0.86
246.807	1.79
247.189	1.29
247.571	0.92
247.953	1.35
248.335	1.19
248.717	1.24
249.098	1.14
249.48	1.29
249.862	1.34
250.243	1.35
250.625	1.44
251.006	1.15
251.388	1.42
251.769	0.97
252.151	2
252.532	0.48
252.913	0.92
253.295	0.87
253.676	1.11
254.057	1.03
254.438	0.67
254.819	0.62
255.2	1.15
255.581	0.61
255.962	1.32
256.343	2.36
256.724	1.06
257.105	0.07
257.486	1.15
257.867	0.91
258.247	1.55
258.628	1.65
259.009	1.1
259.389	1.08
259.77	0.64
260.15	1.5
260.531	0.89
260.911	1.12
261.292	0.89
261.672	1.29
262.052	0.94
262.432	1.07
262.813	1.47
263.193	1.47
263.573	1.1
263.953	1.27
264.333	1.17
264.713	0.87
265.093	0.53
265.473	0.83
265.853	1.44
266.233	1.14
266.612	1.98
266.992	0.71
267.372	1.03
267.752	0.69
268.131	1.17
268.511	0.97
268.89	1.25
269.27	0.6
269.649	1.11
270.029	1.14
270.408	0.91
270.787	0.82
271.167	0.62
271.546	1.38
271.925	1.07
272.304	1.63
272.683	0.88
273.062	0.84
273.441	1.44
273.82	1.06
274.199	1.13
274.578	1.3
274.957	1.44
275.336	1.01
275.715	1.24
276.093	1.2
276.472	0.89
276.851	0.93
277.229	0.96
277.608	1.22
277.986	1.77
278.365	0.47
278.743	1
279.122	1.07
279.5	0.81
279.878	1.31
280.257	1.26
280.635	1.03
281.013	0.35
281.391	1.21
281.769	1.13
282.147	0.76
282.525	0.44
282.903	1.2
283.281	0.8
283.659	1.15
284.037	1.25
284.415	1.29
284.792	1.41
285.17	1.53
285.548	0.87
285.925	0.75
286.303	1.26
286.68	0.75
287.058	0.92
287.435	1.01
287.813	1.59
288.19	0.8
288.567	0.78
288.945	0.79
289.322	0.82
289.699	0.83
290.076	1.05
290.453	1.36
290.83	1.35
291.207	1
291.584	0.35
291.961	1
292.338	1.3
292.715	0.66
293.092	0.9
293.469	1.15
293.845	0.8
294.222	0.84
294.599	0.74
294.975	0.58
295.352	1.12
295.728	0.51
296.105	1.47
296.481	0.65
296.858	1.21
297.234	1.03
297.61	1.26
297.986	1.13
298.363	0.98
298.739	0.84
299.115	1.14
299.491	1.11
299.867	0.94
300.243	1.07
300.619	1.53
300.995	0.85
301.371	0.96
301.746	0.71
302.122	1.36
302.498	0.99
302.874	1.23
303.249	1.32
303.625	1.07
304	1.33
304.376	0.68
304.751	1.35
305.127	0.55
305.502	1.09
305.878	0.95
306.253	0.91
306.628	0.7
307.003	1.36
307.378	1.5
307.754	1.43
308.129	1.83
308.504	1.43
308.879	1.36
309.254	0.9
309.629	0.65
310.003	1.03
310.378	0.9
310.753	1.1
311.128	1.48
311.502	0.83
311.877	0.85
312.252	1.13
312.626	1
313.001	1.06
313.375	1.54
313.75	1.13
314.124	1.1
314.498	0.89
314.873	1.46
315.247	0.99
315.621	1.15
315.995	0.82
316.369	1.22
316.743	1.27
317.117	1.07
317.491	1.15
317.865	1.45
318.239	1.36
318.613	0.68
318.987	0.44
319.361	0.98
319.734	1.16
320.108	1.2
320.482	1.21
320.855	0.88
321.229	1.12
321.602	1.75
321.976	1.09
322.349	1.21
322.723	0.79
323.096	0.79
323.469	1.2
323.843	1.06
324.216	1.3
324.589	1.56
324.962	1.01
325.335	1.49
325.708	1.36
326.081	1.55
326.454	1.71
326.827	1
327.2	1.04
327.573	0.84
327.945	1.47
328.318	1.05
328.691	1.15
329.063	1.04
329.436	0.76
329.809	0.72
330.181	1.33
330.553	1.04
330.926	1.53
331.298	1.16
331.671	0.64
332.043	1.42
332.415	0.99
332.787	0.95
333.159	0.73
333.532	1.4
333.904	1.18
334.276	0.84
334.648	0.93
335.02	1.32
335.391	1.74
335.763	0.78
336.135	0.88
336.507	1.33
336.879	1.18
337.25	0.67
337.622	1.5
337.993	1.45
338.365	1.07
338.736	1.86
339.108	1.35
339.479	1.51
339.851	1.16
340.222	0.73
340.593	1.24
340.964	1.38
341.336	0.92
341.707	1.3
342.078	1.36
342.449	1.32
342.82	1.17
343.191	1.04
343.562	1.62
343.933	1.06
344.303	1.61
344.674	1.09
345.045	1.33
345.416	0.96
345.786	1.4
346.157	1.32
346.527	1.33
346.898	0.96
347.268	1.34
347.639	0.97
348.009	1.39
348.38	1.05
348.75	0.79
349.12	1.41
349.49	1.39
349.861	1.46
350.231	1.05
350.601	1.23
350.971	1.07
351.341	1.32
351.711	1.09
352.081	0.97
352.45	1.69
352.82	1.25
353.19	1.12
353.56	0.89
353.929	1.09
354.299	1.24
354.669	1.32
355.038	0.97
355.408	1.28
355.777	0.93
356.147	1.39
356.516	1.35
356.885	1.4
357.254	1.3
357.624	0.89
357.993	1.11
358.362	1.19
358.731	1.29
359.1	1.08
359.469	1.24
359.838	0.92
360.207	1.41
360.576	1.13
360.945	1.25
361.314	1.16
361.682	0.85
362.051	1.38
362.42	1.7
362.788	1.47
363.157	1.02
363.525	0.96
363.894	1.33
364.262	1.18
364.631	1.21
364.999	1.15
365.367	1.38
365.735	1.37
366.104	1.21
366.472	1.28
366.84	1.19
367.208	1.32
367.576	1.12
367.944	1.07
368.312	1.37
368.68	1.49
369.048	1.39
369.416	1.15
369.783	1.38
370.151	1.69
370.519	1.33
370.886	1.49
371.254	1.45
371.621	1.4
371.989	1.12
372.356	1.21
372.724	1.36
373.091	1.24
373.458	1.4
373.826	1.14
374.193	1.62
374.56	0.91
374.927	1.06
375.294	1.53
375.661	1.46
376.028	1.62
376.395	1.01
376.762	1.76
377.129	1.41
377.496	1.47
377.863	1.41
378.229	1.52
378.596	0.98
378.963	1.5
379.329	1.29
379.696	1.4
380.062	1.36
380.429	1.24
380.795	1.16
381.161	1.67
381.528	1.46
381.894	1.23
382.26	1.3
382.626	1.44
382.993	1.17
383.359	1.3
383.725	1.24
384.091	1.57
384.457	0.91
384.823	1.31
385.188	1.19
385.554	0.99
385.92	1.27
386.286	1.44
386.651	1.4
387.017	1.18
387.383	1.03
387.748	0.98
388.114	0.84
388.479	1.36
388.845	1.34
389.21	1.56
389.575	1.28
389.94	1.38
390.306	1.41
390.671	1.45
391.036	1.28
391.401	1.28
391.766	1.27
392.131	1.39
392.496	1.28
392.861	1.29
393.226	1.27
393.591	1.32
393.956	1.33
394.32	1.56
394.685	1.28
395.05	1.38
395.414	1.14
395.779	1.13
396.143	1.53
396.508	1.07
396.872	1.31
397.236	1.41
397.601	1.19
397.965	1.05
398.329	1.32
398.694	1.35
399.058	1.56
399.422	1.42
399.786	1.49
400.15	1.36
400.514	1.24
400.878	1.42
401.242	1.36
401.605	1.3
401.969	1.06
402.333	1.38
402.697	1.28
403.06	1.56
403.424	1.38
403.787	1.33
404.151	1.38
404.514	1.26
404.878	1.23
405.241	1.31
405.604	1.62
405.968	1.46
406.331	1.28
406.694	1.3
407.057	1.43
407.42	1.19
407.783	1.4
408.146	1.6
408.509	1.27
408.872	1.51
409.235	1.44
409.598	1.27
409.961	1.48
410.323	1.35
410.686	1.71
411.049	1.32
411.411	1.2
411.774	1.51
412.136	1.32
412.499	1.26
412.861	1.48
413.223	1.32
413.586	1.6
413.948	1.61
414.31	1.48
414.672	1.35
415.035	1.4
415.397	1.13
415.759	1.47
416.121	1.6
416.483	1.36
416.845	1.52
417.206	1.49
417.568	1.52
417.93	1.77
418.292	1.44
418.653	1.32
419.015	1.4
419.377	1.47
419.738	1.31
420.1	1.38
420.461	1.51
420.822	1.35
421.184	1.33
421.545	1.29
421.906	1.43
422.267	1.42
422.629	1.31
422.99	1.37
423.351	1.48
423.712	1.32
424.073	1.49
424.434	1.48
424.795	1.44
425.155	1.4
425.516	1.46
425.877	1.33
426.238	1.43
426.598	1.4
426.959	1.44
427.32	1.33
427.68	1.49
428.041	1.29
428.401	1.4
428.761	1.47
429.122	1.46
429.482	1.27
429.842	1.4
430.202	1.61
430.563	1.56
430.923	1.59
431.283	1.5
431.643	1.52
432.003	1.47
432.363	1.48
432.722	1.58
433.082	1.45
433.442	1.49
433.802	1.44
434.161	1.53
434.521	1.51
434.881	1.41
435.24	1.45
435.6	1.52
435.959	1.66
436.319	1.57
436.678	1.59
437.037	1.34
437.396	1.51
437.756	1.61
438.115	1.54
438.474	1.43
438.833	1.38
439.192	1.39
439.551	1.54
439.91	1.42
440.269	1.6
440.628	1.48
440.987	1.4
441.345	1.45
441.704	1.52
442.063	1.63
442.421	1.42
442.78	1.45
443.138	1.61
443.497	1.48
443.855	1.5
444.214	1.53
444.572	1.66
444.93	1.47
445.288	1.43
445.647	1.52
446.005	1.43
446.363	1.55
446.721	1.54
447.079	1.44
447.437	1.46
447.795	1.5
448.153	1.62
448.51	1.53
448.868	1.46
449.226	1.51
449.584	1.58
449.941	1.51
450.299	1.46
450.656	1.57
451.014	1.58
451.371	1.55
451.729	1.53
452.086	1.47
452.443	1.63
452.801	1.54
453.158	1.55
453.515	1.46
453.872	1.49
454.229	1.41
454.586	1.43
454.943	1.4
455.3	1.59
455.657	1.38
456.014	1.46
456.371	1.6
456.727	1.48
457.084	1.77
457.441	1.55
457.797	1.54
458.154	1.57
458.51	1.59
458.867	1.46
459.223	1.47
459.58	1.4
459.936	1.6
460.292	1.52
460.648	1.45
461.005	1.65
461.361	1.48
461.717	1.61
462.073	1.52
462.429	1.53
462.785	1.6
463.141	1.58
463.496	1.6
463.852	1.57
464.208	1.44
464.564	1.53
464.919	1.71
465.275	1.66
465.631	1.7
465.986	1.51
466.342	1.59
466.697	1.58
467.052	1.54
467.408	1.55
467.763	1.61
468.118	1.49
468.473	1.65
468.829	1.58
469.184	1.64
469.539	1.67
469.894	1.61
470.249	1.66
470.603	1.65
470.958	1.51
471.313	1.72
471.668	1.65
472.023	1.53
472.377	1.67
472.732	1.6
473.086	1.49
473.441	1.39
473.795	1.62
474.15	1.36
474.504	1.69
474.859	1.59
475.213	1.6
475.567	1.41
475.921	1.7
476.275	1.61
476.63	1.69
476.984	1.75
477.338	1.61
477.692	1.49
478.045	1.61
478.399	1.6
478.753	1.49
479.107	1.58
479.461	1.71
479.814	1.54
480.168	1.63
480.521	1.63
480.875	1.62
481.228	1.57
481.582	1.64
481.935	1.69
482.289	1.71
482.642	1.69
482.995	1.51
483.348	1.61
483.701	1.62
484.055	1.5
484.408	1.62
484.761	1.55
485.114	1.5
485.466	1.47
485.819	1.5
486.172	1.51
486.525	1.56
486.878	1.57
487.23	1.65
487.583	1.59
487.936	1.64
488.288	1.56
488.641	1.53
488.993	1.57
489.345	1.54
489.698	1.54
490.05	1.57
490.402	1.56
490.754	1.66
491.107	1.6
491.459	1.67
491.811	1.61
492.163	1.66
492.515	1.64
492.866	1.52
493.218	1.52
493.57	1.57
493.922	1.59
494.274	1.6
494.625	1.62
494.977	1.62
495.328	1.6
495.68	1.69
496.031	1.77
496.383	1.64
496.734	1.73
497.086	1.69
497.437	1.64
497.788	1.69
498.139	1.73
498.49	1.74
498.842	1.67
499.193	1.71
499.544	1.73
499.894	1.64
500.245	1.7
500.596	1.63
500.947	1.74
501.298	1.74
501.648	1.73
501.999	1.66
502.35	1.75
502.7	1.73
503.051	1.81
503.401	1.49
503.752	1.78
504.102	1.76
504.452	1.65
504.803	1.84
505.153	1.76
505.503	1.84
505.853	1.66
506.203	1.78
506.553	1.74
506.903	1.66
507.253	1.7
507.603	1.78
507.953	1.71
508.303	1.73
508.652	1.72
509.002	1.74
509.352	1.78
509.701	1.77
510.051	1.8
510.4	1.77
510.75	1.77
511.099	1.81
511.449	1.72
511.798	1.72
512.147	1.78
512.496	1.85
512.846	1.71
513.195	1.72
513.544	1.8
513.893	1.7
514.242	1.77
514.591	1.87
514.939	1.87
515.288	1.86
515.637	1.89
515.986	1.79
516.334	1.73
516.683	1.89
517.032	1.92
517.38	1.95
517.729	1.94
518.077	1.74
518.426	1.96
518.774	1.83
519.122	1.83
519.47	1.79
519.819	1.73
520.167	1.79
520.515	1.72
520.863	1.77
521.211	1.84
521.559	1.8
521.907	1.82
522.255	1.69
522.602	1.7
522.95	1.92
523.298	1.9
523.645	1.95
523.993	1.81
524.341	1.99
524.688	1.92
525.036	1.93
525.383	1.83
525.73	1.91
526.078	1.89
526.425	1.81
526.772	1.89
527.119	1.73
527.466	1.85
527.814	1.86
528.161	1.88
528.508	1.89
528.854	1.89
529.201	1.79
529.548	1.75
529.895	1.81
530.242	1.78
530.588	1.79
530.935	1.84
531.282	1.84
531.628	1.89
531.975	1.91
532.321	1.9
532.667	2
533.014	1.96
533.36	1.83
533.706	1.86
534.052	1.95
534.399	1.94
534.745	1.93
535.091	1.84
535.437	1.91
535.783	1.92
536.129	1.96
536.474	1.94
536.82	1.97
537.166	2.06
537.512	2
537.857	1.93
538.203	1.91
538.549	1.93
538.894	1.84
539.239	2.02
539.585	2
539.93	1.98
540.276	2.19
540.621	2.14
540.966	2.07
541.311	2.04
541.656	2.12
542.001	1.93
542.346	2
542.691	1.95
543.036	1.92
543.381	1.89
543.726	1.97
544.071	2
544.415	2
544.76	1.99
545.105	2.09
545.449	2.04
545.794	2.15
546.138	2.08
546.483	2.22
546.827	2.24
547.171	2.2
547.516	1.92
547.86	2.07
548.204	2.1
548.548	2.17
548.892	1.99
549.236	2.01
549.58	2.17
549.924	2.32
550.268	2.2
550.612	2.21
550.956	2.16
551.3	2.37
551.643	2.3
551.987	2.27
552.33	2.11
552.674	2.11
553.017	2.22
553.361	2.22
553.704	2.35
554.048	2.19
554.391	2.29
554.734	2.28
555.077	2.17
555.42	2.33
555.764	2.28
556.107	2.39
556.45	2.38
556.793	2.48
557.135	2.35
557.478	2.34
557.821	2.29
558.164	2.47
558.507	2.28
558.849	2.25
559.192	2.44
559.534	2.51
559.877	2.31
560.219	2.33
560.562	2.46
560.904	2.42
561.246	2.37
561.589	2.43
561.931	2.5
562.273	2.36
562.615	2.44
562.957	2.49
563.299	2.46
563.641	2.67
563.983	2.66
564.325	2.54
564.667	2.35
565.008	2.63
565.35	2.38
565.692	2.56
566.033	2.53
566.375	2.39
566.716	2.35
567.058	2.57
567.399	2.67
567.741	2.5
568.082	2.56
568.423	2.54
568.764	2.39
569.105	2.58
569.447	2.66
569.788	2.65
570.129	2.62
570.47	2.69
570.811	2.57
571.151	2.53
571.492	2.76
571.833	2.74
572.174	2.68
572.514	2.73
572.855	2.64
573.195	2.66
573.536	2.58
573.876	2.72
574.217	2.65
574.557	2.74
574.898	2.78
575.238	2.74
575.578	2.67
575.918	2.88
576.258	2.63
576.598	2.7
576.938	2.85
577.278	2.76
577.618	2.76
577.958	2.87
578.298	2.65
578.638	2.8
578.977	2.77
579.317	2.98
579.657	2.83
579.996	2.82
580.336	2.95
580.675	2.84
581.014	2.95
581.354	2.93
581.693	2.89
582.032	2.84
582.372	2.84
582.711	3.24
583.05	3.02
583.389	3.02
583.728	2.95
584.067	2.93
584.406	3.19
584.745	3.15
585.083	3.04
585.422	3.08
585.761	3.08
586.1	2.74
586.438	3.29
586.777	2.78
587.115	3.06
587.454	3.17
587.792	2.93
588.13	3.29
588.469	3
588.807	2.93
589.145	3.03
589.483	3.17
589.821	3.28
590.159	3.09
590.497	3.22
590.835	3.17
591.173	3.35
591.511	3.09
591.849	3.14
592.187	3.16
592.524	3.2
592.862	3.17
593.2	3.03
593.537	3.13
593.875	3.3
594.212	3.31
594.55	3.24
594.887	3.44
595.224	3.18
595.561	3.28
595.899	3.39
596.236	3.5
596.573	3.44
596.91	3.43
597.247	3.31
597.584	3.48
597.921	3.57
598.258	3.09
598.594	3.19
598.931	3.31
599.268	3.4
599.604	3.27
599.941	3.4
600.277	3.62
600.614	3.65
600.95	3.42
601.287	3.42
601.623	3.59
601.959	3.71
602.296	3.36
602.632	3.45
602.968	3.65
603.304	3.56
603.64	3.61
603.976	3.68
604.312	3.82
604.648	3.72
604.984	3.65
605.319	3.86
605.655	3.86
605.991	3.58
606.326	3.6
606.662	3.71
606.998	3.64
607.333	3.69
607.668	3.81
608.004	3.75
608.339	3.75
608.674	3.81
609.01	3.93
609.345	4.16
609.68	3.83
610.015	3.91
610.35	3.93
610.685	4.1
611.02	3.97
611.355	3.99
611.689	3.93
612.024	4.03
612.359	4.04
612.694	3.96
613.028	3.93
613.363	4.01
613.697	4.02
614.032	3.99
614.366	3.76
614.7	4.04
615.035	3.97
615.369	4
615.703	4.37
616.037	4.29
616.371	4.13
616.705	4.17
617.039	4.41
617.373	4.34
617.707	4.55
618.041	4.35
618.375	4.2
618.709	4.25
619.042	3.89
619.376	4.04
619.71	4.53
620.043	4.2
620.377	4.45
620.71	4.71
621.043	4.67
621.377	4.66
621.71	4.13
622.043	4.28
622.376	4.38
622.709	4.48
623.043	4.38
623.376	4.25
623.709	3.9
624.041	4.89
624.374	4.56
624.707	4.6
625.04	4.71
625.373	4.36
625.705	4.77
626.038	5.16
626.37	4.89
626.703	4.54
627.035	4.44
627.368	5.12
627.7	4.72
628.032	4.49
628.365	4.48
628.697	4.8
629.029	4.64
629.361	4.63
629.693	4.73
630.025	4.99
630.357	4.65
630.689	4.66
631.021	4.89
631.353	4.59
631.684	4.79
632.016	4.96
632.348	5.09
632.679	4.5
633.011	4.49
633.342	4.49
633.674	4.97
634.005	5.15
634.336	4.87
634.668	4.81
634.999	4.7
635.33	5.12
635.661	5.05
635.992	4.91
636.323	5
636.654	4.96
636.985	5.28
637.316	5.31
637.647	4.84
637.977	4.74
638.308	5.14
638.639	5.46
638.969	5.15
639.3	5.25
639.63	5.08
639.961	5.5
640.291	5.11
640.622	5.34
640.952	5.36
641.282	5.12
641.612	5.1
641.943	5.12
642.273	5.18
642.603	5.56
642.933	5.23
643.263	5.08
643.592	5.13
643.922	4.75
644.252	5.44
644.582	5.15
644.911	5.15
645.241	5.26
645.571	5.87
645.9	5.46
646.23	5.48
646.559	5.51
646.888	5.34
647.218	6.03
647.547	5.47
647.876	5.79
648.205	5.8
648.534	5.44
648.863	5.73
649.192	5.88
649.521	5.8
649.85	5.69
650.179	5.15
650.508	5.65
650.837	5.78
651.165	5.57
651.494	5.74
651.822	5.48
652.151	5.98
652.479	5.82
652.808	6.38
653.136	5.64
653.465	5.83
653.793	5.8
654.121	5.98
654.449	5.63
654.777	5.93
655.105	6.29
655.433	5.91
655.761	6.27
656.089	5.85
656.417	5.71
656.745	5.93
657.073	6.19
657.4	5.77
657.728	6.54
658.056	5.29
658.383	6.04
658.711	5.71
659.038	6.06
659.365	6.25
659.693	6.19
660.02	6.56
660.347	6.07
660.674	6.31
661.001	6.22
661.329	5.87
661.656	5.95
661.982	6.19
662.309	6.58
662.636	6.1
662.963	6.34
663.29	6.39
663.616	6.45
663.943	6.25
664.27	6.33
664.596	6.85
664.923	6.57
665.249	6.52
665.576	6.61
665.902	6.62
666.228	6.01
666.554	6.97
666.881	6.63
667.207	6.4
667.533	6.68
667.859	7.02
668.185	7.03
668.511	6.95
668.837	6.74
669.162	7.15
669.488	7.67
669.814	6.74
670.139	6.46
670.465	6.8
670.791	6.58
671.116	6.6
671.442	6.83
671.767	7.07
672.092	6.55
672.418	6.91
672.743	6.87
673.068	7.1
673.393	6.01
673.718	7.19
674.043	6.98
674.368	6.92
674.693	7.97
675.018	6.95
675.343	6.81
675.667	7.03
675.992	7.5
676.317	7.14
676.641	6.37
676.966	6.99
677.29	7.85
677.615	7.43
677.939	6.68
678.264	7.42
678.588	7.13
678.912	6.82
679.236	7.03
679.56	7.42
679.885	7.27
680.209	6.68
680.532	7.41
680.856	6.93
681.18	7.25
681.504	7.01
681.828	6.93
682.152	7.26
682.475	7.05
682.799	7.13
683.122	6.93
683.446	7.72
683.769	7.7
684.093	7.11
684.416	7.16
684.739	7.04
685.062	7.68
685.386	7.41
685.709	6.9
686.032	8.2
686.355	7.88
686.678	7.2
687.001	7.4
687.324	7.83
687.646	7.9
687.969	8.17
688.292	7.72
688.614	7.71
688.937	8.01
689.26	7.84
689.582	7.4
689.904	8.04
690.227	8.2
690.549	8.05
690.871	7.75
691.194	8.01
691.516	7.43
691.838	8.49
692.16	7.72
692.482	7.07
692.804	8.18
693.126	8.16
693.448	7.92
