Data from 23-3_chest_Reflection__2__17.txt Node

Date: Thu Feb 29 22:00:18 CST 2024
User: ToomeyLab
Spectrometer: FLMS14357
Trigger mode: 0
Integration Time (sec): 1.000000E-2
Scans to average: 100
Electric dark correction enabled: true
Nonlinearity correction enabled: false
Boxcar width: 0
XAxis mode: Wavelengths
Number of Pixels in Spectrum: 2048
>>>>>Begin Spectral Data<<<<<
189.047	8.9
189.435	8.9
189.823	8.9
190.211	137.96
190.599	-144.85
190.987	38.75
191.375	1.2
191.763	-112.4
192.151	164.73
192.538	36.06
192.926	71.73
193.314	-176.98
193.702	32.12
194.089	-1237.84
194.477	-149.86
194.864	128.79
195.252	447.88
195.639	-1021.73
196.027	70.34
196.414	169.42
196.801	536.15
197.189	23.55
197.576	-146.65
197.963	42.73
198.351	-27.35
198.738	3.4
199.125	49.14
199.512	-0.11
199.899	-54.91
200.286	-47.09
200.673	44.01
201.06	15.11
201.447	-67.76
201.833	-1.22
202.22	22.55
202.607	-58.77
202.994	-84.85
203.38	-19.9
203.767	-14.58
204.154	4.13
204.54	19.61
204.927	30.95
205.313	34.44
205.699	-24.95
206.086	44.53
206.472	29.52
206.858	14.6
207.245	8.8
207.631	38.07
208.017	3.29
208.403	77.09
208.789	31.03
209.175	-36.74
209.561	57.3
209.947	4.78
210.333	5.35
210.719	33.64
211.105	16.97
211.491	-12.39
211.876	6.48
212.262	47.48
212.648	-5.48
213.034	20.18
213.419	10.17
213.805	6.58
214.19	13.27
214.576	18.73
214.961	5
215.346	4.79
215.732	12.88
216.117	-54.75
216.502	-4.45
216.888	-35.21
217.273	20.12
217.658	10.16
218.043	-5.57
218.428	20.8
218.813	11.3
219.198	0.51
219.583	7.52
219.968	15.47
220.353	-1
220.738	19.28
221.122	-14.66
221.507	23.85
221.892	6.6
222.276	13.37
222.661	15.51
223.046	13.17
223.43	-7.66
223.815	3.21
224.199	11.28
224.583	7.79
224.968	-1.97
225.352	-2.99
225.736	2.31
226.121	2.25
226.505	12.3
226.889	2.85
227.273	-1.91
227.657	0.5
228.041	5.85
228.425	3.89
228.809	10.31
229.193	2.34
229.577	6.47
229.961	2.16
230.344	3.69
230.728	4.39
231.112	5.25
231.495	3.91
231.879	4.12
232.263	2.92
232.646	4.57
233.03	4.76
233.413	4.24
233.797	4.08
234.18	5.08
234.563	3.51
234.946	0.25
235.33	3.82
235.713	3.86
236.096	5.81
236.479	4.7
236.862	4.57
237.245	3.32
237.628	3.56
238.011	5.44
238.394	0.99
238.777	4.36
239.16	3.62
239.543	1.89
239.925	4.2
240.308	3.49
240.691	5.59
241.073	3.76
241.456	4.67
241.838	5.85
242.221	4.28
242.603	5.37
242.986	4.92
243.368	3.82
243.75	4.88
244.133	3.73
244.515	4.31
244.897	4.79
245.279	4.74
245.661	4.25
246.043	3.2
246.425	5.99
246.807	4.83
247.189	4.24
247.571	4.43
247.953	3.81
248.335	4.14
248.717	4.31
249.098	4.11
249.48	4.08
249.862	4.32
250.243	4.08
250.625	4.53
251.006	4.74
251.388	4.61
251.769	4.35
252.151	4.79
252.532	4.85
252.913	2.85
253.295	4.3
253.676	4.43
254.057	3.72
254.438	4.68
254.819	4.65
255.2	2.65
255.581	4.1
255.962	4.91
256.343	5.13
256.724	5.06
257.105	5.33
257.486	4.19
257.867	4.5
258.247	3.57
258.628	4.09
259.009	4.46
259.389	3.33
259.77	4.23
260.15	4.94
260.531	4.14
260.911	4.1
261.292	3.72
261.672	4.1
262.052	3.77
262.432	4.3
262.813	3.78
263.193	3.79
263.573	4.2
263.953	3.91
264.333	3.53
264.713	4.5
265.093	3.72
265.473	3.93
265.853	4.76
266.233	3.24
266.612	5.01
266.992	3.96
267.372	4.09
267.752	4.24
268.131	4.59
268.511	3.86
268.89	4.45
269.27	3.63
269.649	3.83
270.029	3.64
270.408	4.32
270.787	4.16
271.167	3.58
271.546	4.21
271.925	4.15
272.304	4.33
272.683	4.26
273.062	3.71
273.441	3.99
273.82	3.76
274.199	3.93
274.578	3.68
274.957	3.73
275.336	4.4
275.715	4.27
276.093	3.39
276.472	5.03
276.851	3.66
277.229	3.74
277.608	4.3
277.986	3.95
278.365	3.91
278.743	3.91
279.122	3.66
279.5	3.51
279.878	3.87
280.257	4.67
280.635	4.41
281.013	4.21
281.391	3.67
281.769	3.51
282.147	3.86
282.525	4.26
282.903	3.38
283.281	3.74
283.659	4.34
284.037	3.8
284.415	3.61
284.792	3.67
285.17	3.84
285.548	3.82
285.925	4.26
286.303	4
286.68	3.57
287.058	4.21
287.435	4.1
287.813	4.01
288.19	3.84
288.567	4.26
288.945	4.01
289.322	4.55
289.699	4.26
290.076	4.46
290.453	3.64
290.83	3.94
291.207	4.31
291.584	3.69
291.961	3.93
292.338	4.61
292.715	4.22
293.092	4.18
293.469	4.81
293.845	4.45
294.222	3.49
294.599	3.72
294.975	4.79
295.352	4.64
295.728	4.43
296.105	4.63
296.481	3.94
296.858	4.54
297.234	3.94
297.61	4.4
297.986	4.22
298.363	3.56
298.739	4.04
299.115	4.43
299.491	4.03
299.867	4.35
300.243	4
300.619	4.25
300.995	3.98
301.371	4.22
301.746	3.76
302.122	4.53
302.498	4.27
302.874	4.47
303.249	4.27
303.625	3.77
304	3.99
304.376	4.43
304.751	3.99
305.127	4.1
305.502	3.65
305.878	4.6
306.253	3.52
306.628	4.07
307.003	3.97
307.378	4.67
307.754	4.05
308.129	4.55
308.504	4.46
308.879	4.31
309.254	3.32
309.629	4.2
310.003	4.29
310.378	4.23
310.753	4.03
311.128	4.14
311.502	4.77
311.877	4.42
312.252	4.5
312.626	4.02
313.001	4.59
313.375	4.78
313.75	4.25
314.124	4.56
314.498	4.56
314.873	3.83
315.247	3.91
315.621	4.8
315.995	5.02
316.369	5.06
316.743	3.87
317.117	4.31
317.491	4.12
317.865	4.75
318.239	4.55
318.613	4.84
318.987	4.79
319.361	4.51
319.734	4.46
320.108	4.67
320.482	4.82
320.855	4.56
321.229	4.92
321.602	4.49
321.976	4.51
322.349	3.79
322.723	4.77
323.096	4.47
323.469	3.99
323.843	4.5
324.216	4.35
324.589	4.01
324.962	4.28
325.335	4.7
325.708	4.69
326.081	3.81
326.454	4.53
326.827	4.02
327.2	4.49
327.573	4.48
327.945	4.65
328.318	4.52
328.691	4.45
329.063	4.5
329.436	4.44
329.809	4.65
330.181	4.83
330.553	4.71
330.926	4.55
331.298	4.21
331.671	3.79
332.043	3.5
332.415	4.5
332.787	4.3
333.159	5.13
333.532	4.8
333.904	4.13
334.276	5
334.648	4.21
335.02	3.9
335.391	4.27
335.763	4.48
336.135	4.29
336.507	4.42
336.879	4.56
337.25	4.34
337.622	4.45
337.993	4.66
338.365	4.03
338.736	4.33
339.108	4.48
339.479	4.85
339.851	4.6
340.222	4.69
340.593	4.38
340.964	4.74
341.336	4.78
341.707	4.69
342.078	4.51
342.449	4.38
342.82	4.71
343.191	4.66
343.562	4.67
343.933	4.37
344.303	4.65
344.674	4.71
345.045	4.98
345.416	4.27
345.786	4.24
346.157	4.2
346.527	4.52
346.898	5.06
347.268	4.35
347.639	4.81
348.009	4.51
348.38	4.49
348.75	4.92
349.12	5.07
349.49	4.5
349.861	4.74
350.231	4.58
350.601	4.63
350.971	4.67
351.341	4.77
351.711	5.31
352.081	5.12
352.45	4.44
352.82	4
353.19	5.45
353.56	4.25
353.929	4.45
354.299	4.47
354.669	4.62
355.038	4.59
355.408	4.44
355.777	4.71
356.147	4.36
356.516	4.71
356.885	4.73
357.254	4.39
357.624	4.52
357.993	4.82
358.362	4.6
358.731	5.17
359.1	5.29
359.469	4.81
359.838	4.52
360.207	4.69
360.576	5.01
360.945	4.46
361.314	5.16
361.682	4.55
362.051	4.92
362.42	4.91
362.788	4.79
363.157	4.34
363.525	4.85
363.894	4.84
364.262	4.66
364.631	4.7
364.999	4.49
365.367	4.34
365.735	4.88
366.104	5.15
366.472	4.5
366.84	4.86
367.208	4.77
367.576	4.97
367.944	4.56
368.312	5.03
368.68	4.48
369.048	4.55
369.416	4.94
369.783	4.97
370.151	5.01
370.519	4.67
370.886	5.1
371.254	4.98
371.621	5.07
371.989	4.9
372.356	4.83
372.724	5.36
373.091	4.7
373.458	5.12
373.826	5.03
374.193	4.84
374.56	4.89
374.927	5.2
375.294	4.6
375.661	5.06
376.028	5.02
376.395	4.94
376.762	5.42
377.129	4.9
377.496	4.93
377.863	4.64
378.229	4.65
378.596	4.93
378.963	4.72
379.329	4.67
379.696	4.98
380.062	5.1
380.429	5.08
380.795	5.38
381.161	5.25
381.528	5.06
381.894	4.98
382.26	4.73
382.626	5.14
382.993	4.8
383.359	5.15
383.725	4.84
384.091	5.31
384.457	4.82
384.823	4.98
385.188	5.03
385.554	5.26
385.92	5.08
386.286	4.8
386.651	4.89
387.017	4.96
387.383	4.99
387.748	4.71
388.114	5.27
388.479	5.01
388.845	5.17
389.21	5.03
389.575	4.94
389.94	5.01
390.306	5.15
390.671	5.22
391.036	5.21
391.401	4.97
391.766	4.94
392.131	4.83
392.496	5.13
392.861	5.12
393.226	5.32
393.591	5.28
393.956	5.13
394.32	4.92
394.685	5.31
395.05	5.23
395.414	5.25
395.779	5.17
396.143	5.54
396.508	5.07
396.872	5.25
397.236	4.94
397.601	5.15
397.965	5.14
398.329	5.06
398.694	5
399.058	5.05
399.422	4.96
399.786	5.32
400.15	4.88
400.514	5.24
400.878	5.05
401.242	4.87
401.605	5.15
401.969	5.5
402.333	4.8
402.697	5.1
403.06	5.6
403.424	5.29
403.787	4.76
404.151	5.47
404.514	5.14
404.878	5.35
405.241	5.49
405.604	5.04
405.968	5.23
406.331	5.31
406.694	5.12
407.057	5.2
407.42	5.12
407.783	5.28
408.146	5.39
408.509	5.09
408.872	5.42
409.235	5.31
409.598	5.64
409.961	5.28
410.323	5.66
410.686	5.3
411.049	5.02
411.411	5.22
411.774	5.25
412.136	5.36
412.499	5.33
412.861	5.28
413.223	5.19
413.586	5.2
413.948	5.19
414.31	5.24
414.672	5.3
415.035	5.47
415.397	5.2
415.759	5.3
416.121	5.48
416.483	5.46
416.845	5.36
417.206	5.45
417.568	5.27
417.93	5.29
418.292	5.33
418.653	5.3
419.015	5.32
419.377	5.23
419.738	5.16
420.1	5.3
420.461	5.25
420.822	5.2
421.184	5.19
421.545	5.27
421.906	5.34
422.267	5.33
422.629	5.29
422.99	5.24
423.351	5.34
423.712	5.22
424.073	5.17
424.434	5.36
424.795	5.3
425.155	5.41
425.516	5.22
425.877	5.34
426.238	5.31
426.598	5.32
426.959	5.44
427.32	5.46
427.68	5.4
428.041	5.42
428.401	5.37
428.761	5.55
429.122	5.44
429.482	5.48
429.842	5.47
430.202	5.36
430.563	5.54
430.923	5.57
431.283	5.52
431.643	5.53
432.003	5.71
432.363	5.52
432.722	5.57
433.082	5.43
433.442	5.59
433.802	5.6
434.161	5.73
434.521	5.32
434.881	5.49
435.24	5.64
435.6	5.32
435.959	5.4
436.319	5.42
436.678	5.53
437.037	5.57
437.396	5.48
437.756	5.6
438.115	5.51
438.474	5.53
438.833	5.79
439.192	5.41
439.551	5.64
439.91	5.64
440.269	5.53
440.628	5.57
440.987	5.62
441.345	5.6
441.704	5.64
442.063	5.74
442.421	5.77
442.78	5.5
443.138	5.49
443.497	5.58
443.855	5.73
444.214	5.8
444.572	5.68
444.93	5.7
445.288	5.92
445.647	5.67
446.005	5.74
446.363	5.61
446.721	5.65
447.079	5.57
447.437	5.54
447.795	5.7
448.153	5.65
448.51	5.67
448.868	5.56
449.226	5.73
449.584	5.6
449.941	5.83
450.299	5.82
450.656	5.69
451.014	5.64
451.371	5.81
451.729	6.02
452.086	5.73
452.443	5.7
452.801	5.79
453.158	5.82
453.515	5.87
453.872	5.84
454.229	5.73
454.586	5.86
454.943	5.96
455.3	5.74
455.657	6
456.014	5.96
456.371	5.94
456.727	5.93
457.084	5.82
457.441	6.02
457.797	5.74
458.154	6.06
458.51	5.97
458.867	5.91
459.223	6
459.58	5.96
459.936	6.05
460.292	5.88
460.648	5.87
461.005	5.84
461.361	5.85
461.717	5.91
462.073	5.75
462.429	5.86
462.785	5.89
463.141	5.95
463.496	5.99
463.852	6.03
464.208	5.92
464.564	6.07
464.919	6.06
465.275	6.07
465.631	6.08
465.986	6.23
466.342	5.95
466.697	5.91
467.052	5.83
467.408	6.12
467.763	6.14
468.118	6.13
468.473	6.16
468.829	6.05
469.184	5.96
469.539	6.21
469.894	6.22
470.249	6.08
470.603	6
470.958	6.21
471.313	6.04
471.668	5.97
472.023	6.01
472.377	6.17
472.732	6.31
473.086	6.29
473.441	6.21
473.795	6.2
474.15	5.9
474.504	6.23
474.859	6.09
475.213	6.03
475.567	6.25
475.921	6.28
476.275	6.18
476.63	6.3
476.984	6.29
477.338	6.27
477.692	6.35
478.045	6.17
478.399	6.26
478.753	6.25
479.107	6.41
479.461	6.31
479.814	6.21
480.168	6.29
480.521	6.13
480.875	6.29
481.228	6.24
481.582	6.4
481.935	6.38
482.289	6.39
482.642	6.31
482.995	6.24
483.348	6.21
483.701	6.23
484.055	6.11
484.408	6.23
484.761	6.27
485.114	6.12
485.466	5.95
485.819	5.97
486.172	5.95
486.525	6.08
486.878	6.15
487.23	6.15
487.583	6.24
487.936	6.33
488.288	6.3
488.641	6.23
488.993	6.22
489.345	6.17
489.698	6.13
490.05	6.18
490.402	6.25
490.754	6.29
491.107	6.26
491.459	6.43
491.811	6.49
492.163	6.44
492.515	6.41
492.866	6.39
493.218	6.32
493.57	6.3
493.922	6.34
494.274	6.34
494.625	6.44
494.977	6.56
495.328	6.51
495.68	6.64
496.031	6.73
496.383	6.63
496.734	6.59
497.086	6.68
497.437	6.79
497.788	6.63
498.139	6.81
498.49	6.61
498.842	6.59
499.193	6.71
499.544	6.66
499.894	6.58
500.245	6.73
500.596	6.61
500.947	6.75
501.298	6.82
501.648	6.72
501.999	6.84
502.35	6.81
502.7	6.94
503.051	6.85
503.401	6.83
503.752	6.87
504.102	6.74
504.452	6.82
504.803	6.99
505.153	6.83
505.503	6.95
505.853	7
506.203	6.88
506.553	6.92
506.903	6.69
507.253	6.94
507.603	7.01
507.953	6.98
508.303	6.93
508.652	7.05
509.002	6.9
509.352	6.98
509.701	6.85
510.051	6.84
510.4	7.03
510.75	6.94
511.099	6.89
511.449	6.87
511.798	7.06
512.147	7.05
512.496	7.15
512.846	7.03
513.195	7.14
513.544	7.14
513.893	7.08
514.242	7.16
514.591	7.06
514.939	7.12
515.288	7.2
515.637	7.21
515.986	7.15
516.334	7.1
516.683	7.36
517.032	7.35
517.38	7.42
517.729	7.25
518.077	7.39
518.426	7.17
518.774	7.19
519.122	7.18
519.47	7.27
519.819	7.24
520.167	7.14
520.515	7.12
520.863	7.21
521.211	7.24
521.559	7.38
521.907	7.45
522.255	7.23
522.602	7.32
522.95	7.37
523.298	7.45
523.645	7.42
523.993	7.57
524.341	7.59
524.688	7.55
525.036	7.57
525.383	7.55
525.73	7.54
526.078	7.57
526.425	7.65
526.772	7.55
527.119	7.42
527.466	7.51
527.814	7.38
528.161	7.6
528.508	7.6
528.854	7.58
529.201	7.62
529.548	7.45
529.895	7.44
530.242	7.25
530.588	7.36
530.935	7.34
531.282	7.43
531.628	7.4
531.975	7.51
532.321	7.62
532.667	7.77
533.014	7.85
533.36	7.73
533.706	7.77
534.052	7.71
534.399	7.84
534.745	7.79
535.091	7.6
535.437	7.71
535.783	7.69
536.129	7.78
536.474	7.85
536.82	7.9
537.166	7.94
537.512	8.1
537.857	7.99
538.203	7.95
538.549	7.88
538.894	8.08
539.239	7.97
539.585	8.08
539.93	8.11
540.276	8.18
540.621	8
540.966	8.23
541.311	8.1
541.656	8.3
542.001	8.13
542.346	8.17
542.691	8
543.036	7.99
543.381	7.98
543.726	8.07
544.071	8.04
544.415	8.17
544.76	8.22
545.105	8.2
545.449	8.29
545.794	8.32
546.138	8.37
546.483	8.33
546.827	8.53
547.171	8.41
547.516	8.52
547.86	8.45
548.204	8.38
548.548	8.41
548.892	8.52
549.236	8.54
549.58	8.54
549.924	8.69
550.268	8.68
550.612	8.82
550.956	8.67
551.3	8.8
551.643	8.79
551.987	8.88
552.33	8.87
552.674	9.06
553.017	8.69
553.361	8.73
553.704	8.87
554.048	8.78
554.391	8.85
554.734	8.79
555.077	8.95
555.42	8.91
555.764	8.83
556.107	9.37
556.45	8.96
556.793	9.07
557.135	8.92
557.478	8.99
557.821	9.05
558.164	9.29
558.507	9.31
558.849	9.09
559.192	9.05
559.534	9.21
559.877	9.5
560.219	9.28
560.562	9.24
560.904	9.25
561.246	9.26
561.589	9.32
561.931	9.47
562.273	9.35
562.615	9.31
562.957	9.44
563.299	9.53
563.641	9.25
563.983	9.61
564.325	9.65
564.667	9.71
565.008	9.85
565.35	9.72
565.692	9.72
566.033	9.67
566.375	9.47
566.716	9.7
567.058	9.84
567.399	10.17
567.741	9.77
568.082	9.75
568.423	9.74
568.764	9.92
569.105	9.75
569.447	9.94
569.788	9.99
570.129	9.99
570.47	9.94
570.811	10.11
571.151	10.06
571.492	10.17
571.833	10.23
572.174	10.1
572.514	10.18
572.855	10.39
573.195	10.41
573.536	10.25
573.876	10.52
574.217	10.34
574.557	10.19
574.898	10.38
575.238	10.32
575.578	10.54
575.918	10.54
576.258	10.53
576.598	10.46
576.938	10.55
577.278	10.5
577.618	10.59
577.958	10.74
578.298	10.7
578.638	10.58
578.977	10.64
579.317	10.82
579.657	10.84
579.996	10.99
580.336	10.98
580.675	10.82
581.014	11.04
581.354	10.57
581.693	11.14
582.032	11.03
582.372	11.16
582.711	10.92
583.05	11.11
583.389	10.98
583.728	10.95
584.067	11.1
584.406	11.33
584.745	11.34
585.083	10.98
585.422	11.35
585.761	11.52
586.1	11.25
586.438	11.47
586.777	11.36
587.115	11.15
587.454	11.22
587.792	11.66
588.13	11.58
588.469	11.49
588.807	11.55
589.145	11.54
589.483	11.82
589.821	11.64
590.159	11.57
590.497	11.44
590.835	11.9
591.173	11.93
591.511	11.66
591.849	11.58
592.187	11.81
592.524	11.93
592.862	12.1
593.2	12.04
593.537	11.92
593.875	12.08
594.212	11.98
594.55	11.89
594.887	12.17
595.224	12.27
595.561	12.18
595.899	12.42
596.236	12.12
596.573	12.42
596.91	12.59
597.247	12.38
597.584	12.38
597.921	12.33
598.258	12.46
598.594	12.46
598.931	12.47
599.268	12.54
599.604	12.56
599.941	12.42
600.277	12.6
600.614	12.27
600.95	12.66
601.287	13.07
601.623	12.76
601.959	12.53
602.296	12.37
602.632	12.88
602.968	12.76
603.304	12.76
603.64	13.1
603.976	12.93
604.312	12.96
604.648	12.83
604.984	12.96
605.319	13.3
605.655	13.27
605.991	13.08
606.326	13.05
606.662	13.31
606.998	13.1
607.333	13.32
607.668	13.33
608.004	13.13
608.339	13.28
608.674	13.22
609.01	13.41
609.345	13.54
609.68	13.29
610.015	13.74
610.35	13.57
610.685	13.7
611.02	13.41
611.355	13.64
611.689	13.76
612.024	13.62
612.359	13.64
612.694	13.88
613.028	13.55
613.363	13.97
613.697	13.91
614.032	13.76
614.366	14.1
614.7	13.61
615.035	13.67
615.369	14.06
615.703	14.04
616.037	14.37
616.371	14.1
616.705	14.4
617.039	14.46
617.373	14.35
617.707	14.01
618.041	14.03
618.375	14.49
618.709	14.53
619.042	14.26
619.376	14.74
619.71	14.77
620.043	14.38
620.377	14.87
620.71	14.62
621.043	14.6
621.377	14.68
621.71	14.82
622.043	14.92
622.376	14.95
622.709	15.15
623.043	15.37
623.376	15.27
623.709	14.72
624.041	15.03
624.374	14.85
624.707	14.91
625.04	15.16
625.373	15.06
625.705	15.2
626.038	15.32
626.37	14.88
626.703	15.24
627.035	15.65
627.368	15.45
627.7	15.38
628.032	15.57
628.365	15.81
628.697	15.4
629.029	15.56
629.361	15.78
629.693	15.38
630.025	15.5
630.357	15.38
630.689	15.56
631.021	16.11
631.353	15.47
631.684	15.42
632.016	15.72
632.348	15.99
632.679	16.13
633.011	16.33
633.342	15.5
633.674	15.72
634.005	16.34
634.336	16.24
634.668	16.41
634.999	16.32
635.33	16.2
635.661	15.89
635.992	16.19
636.323	16.4
636.654	16.57
636.985	16.59
637.316	16.44
637.647	16.26
637.977	16.07
638.308	16.81
638.639	16.83
638.969	16.28
639.3	16.67
639.63	16.35
639.961	16.87
640.291	16.69
640.622	16.58
640.952	16.32
641.282	17.33
641.612	16.99
641.943	17.11
642.273	16.7
642.603	16.82
642.933	17.04
643.263	17.11
643.592	17.23
643.922	16.96
644.252	16.84
644.582	17.47
644.911	17.24
645.241	17.21
645.571	17.08
645.9	17.14
646.23	17.69
646.559	17.36
646.888	18.02
647.218	17.16
647.547	16.77
647.876	18.06
648.205	17.3
648.534	17.17
648.863	18.19
649.192	18.39
649.521	17.66
649.85	17.84
650.179	18.06
650.508	18.17
650.837	18.1
651.165	17.56
651.494	18.05
651.822	18.43
652.151	18.3
652.479	18.24
652.808	18.04
653.136	17.92
653.465	18.26
653.793	17.96
654.121	18.44
654.449	18.38
654.777	18.58
655.105	18.62
655.433	18.45
655.761	18.9
656.089	18.18
656.417	17.86
656.745	18.75
657.073	18.31
657.4	18.72
657.728	19.02
658.056	19.16
658.383	18.63
658.711	18.89
659.038	18.24
659.365	18.84
659.693	18.9
660.02	18.85
660.347	19.44
660.674	18.75
661.001	18.77
661.329	19.08
661.656	19.19
661.982	19.63
662.309	19.55
662.636	19.56
662.963	18.96
663.29	19.41
663.616	19.8
663.943	19.3
664.27	19.78
664.596	20.13
664.923	19.3
665.249	18.89
665.576	20.16
665.902	19.86
666.228	19.53
666.554	19.85
666.881	19.67
667.207	20.05
667.533	19.8
667.859	19.66
668.185	19.82
668.511	20.05
668.837	20.55
669.162	19.81
669.488	19.79
669.814	20.6
670.139	20.39
670.465	20.35
670.791	20.58
671.116	20.16
671.442	20.59
671.767	19.77
672.092	20.61
672.418	19.69
672.743	19.85
673.068	20.77
673.393	20.06
673.718	20.37
674.043	21.3
674.368	21.26
674.693	21.29
675.018	21.08
675.343	21.15
675.667	21.14
675.992	21
676.317	20.05
676.641	20.56
676.966	21.02
677.29	21.15
677.615	20.99
677.939	20.99
678.264	21.89
678.588	21.13
678.912	21.15
679.236	21.31
679.56	22.16
679.885	22.06
680.209	21.46
680.532	21.43
680.856	21.61
681.18	21.14
681.504	21.46
681.828	21.77
682.152	21.7
682.475	22.19
682.799	21.94
683.122	22.02
683.446	22.19
683.769	22.03
684.093	22.62
684.416	22.84
684.739	21.97
685.062	21.76
