Data from 23-3_crown_Reflection__3__23.txt Node

Date: Thu Feb 29 22:02:46 CST 2024
User: ToomeyLab
Spectrometer: FLMS14357
Trigger mode: 0
Integration Time (sec): 1.000000E-2
Scans to average: 100
Electric dark correction enabled: true
Nonlinearity correction enabled: false
Boxcar width: 0
XAxis mode: Wavelengths
Number of Pixels in Spectrum: 2048
>>>>>Begin Spectral Data<<<<<
189.047	105.7
189.435	105.7
189.823	105.7
190.211	-33.3
190.599	-35.56
190.987	-76.11
191.375	-143.58
191.763	-39.16
192.151	56.34
192.538	104.28
192.926	123.96
193.314	-3520.86
193.702	243.85
194.089	-10383.78
194.477	25.18
194.864	53.99
195.252	532.15
195.639	-403.46
196.027	-277.17
196.414	105.21
196.801	757.75
197.189	100.82
197.576	-44.03
197.963	-34.82
198.351	13.94
198.738	-14.69
199.125	20.79
199.512	0.15
199.899	-71.81
200.286	-48.54
200.673	50.57
201.06	-3.23
201.447	-24.05
201.833	29.7
202.22	-20.9
202.607	-50.31
202.994	-108.46
203.38	13.45
203.767	37.25
204.154	17.48
204.54	55.35
204.927	12.34
205.313	3.03
205.699	16.74
206.086	-13.49
206.472	50.08
206.858	-30.78
207.245	16.61
207.631	15.75
208.017	9.28
208.403	-53.43
208.789	35.24
209.175	-37.48
209.561	13.49
209.947	21.6
210.333	2.86
210.719	18.24
211.105	36.36
211.491	0.13
211.876	-21.5
212.262	24.36
212.648	-19.51
213.034	20.13
213.419	16.09
213.805	6.39
214.19	6.66
214.576	-27.36
214.961	-4.28
215.346	24.37
215.732	-5.39
216.117	-73.04
216.502	-7.28
216.888	-13.22
217.273	35.35
217.658	37.82
218.043	0.19
218.428	12.55
218.813	-5.52
219.198	12.52
219.583	-22.64
219.968	-5.68
220.353	-14.77
220.738	12.11
221.122	0.55
221.507	10.07
221.892	4.36
222.276	17.13
222.661	-6.25
223.046	2.47
223.43	3.81
223.815	-1.29
224.199	-1.5
224.583	6.74
224.968	1.78
225.352	0.29
225.736	4.61
226.121	8.5
226.505	19.64
226.889	4.77
227.273	-0.44
227.657	1.63
228.041	7.66
228.425	8.53
228.809	10.84
229.193	3.74
229.577	7.73
229.961	3.05
230.344	5.91
230.728	5.72
231.112	5.5
231.495	4.76
231.879	5.59
232.263	3.41
232.646	6.66
233.03	5.49
233.413	1.27
233.797	6.69
234.18	2.01
234.563	0.87
234.946	3.73
235.33	6.9
235.713	4.77
236.096	6.54
236.479	6.27
236.862	6.18
237.245	2.7
237.628	4.39
238.011	7.25
238.394	3.79
238.777	4.6
239.16	5.62
239.543	3.39
239.925	3.58
240.308	4.85
240.691	6.98
241.073	4.43
241.456	6.76
241.838	6.14
242.221	6.35
242.603	5.43
242.986	5.26
243.368	4.61
243.75	5.79
244.133	5.63
244.515	5.59
244.897	6.54
245.279	5.75
245.661	4.49
246.043	4.99
246.425	6.56
246.807	6.05
247.189	4
247.571	5.43
247.953	5.53
248.335	5.02
248.717	5.54
249.098	5.3
249.48	5.76
249.862	5.53
250.243	5.64
250.625	5.36
251.006	5.99
251.388	4.9
251.769	4.98
252.151	6.31
252.532	4.31
252.913	4.58
253.295	5.41
253.676	5.21
254.057	5.59
254.438	5.8
254.819	6.05
255.2	4.77
255.581	5.62
255.962	5.64
256.343	6.62
256.724	6.02
257.105	5.08
257.486	5.98
257.867	5.73
258.247	6.72
258.628	4.64
259.009	5.31
259.389	4.29
259.77	5.4
260.15	5.82
260.531	5.85
260.911	5.27
261.292	4.98
261.672	5.31
262.052	4.9
262.432	5.22
262.813	4.51
263.193	4.27
263.573	5.03
263.953	5.48
264.333	5.18
264.713	5.41
265.093	5.23
265.473	5.88
265.853	5.89
266.233	5.08
266.612	4.28
266.992	4.53
267.372	5.13
267.752	4.11
268.131	5.63
268.511	5.1
268.89	5.05
269.27	5.24
269.649	4.53
270.029	5.34
270.408	4.84
270.787	4.98
271.167	5.12
271.546	4.88
271.925	4.75
272.304	4.75
272.683	5.26
273.062	4.76
273.441	4.96
273.82	4.93
274.199	4.86
274.578	4.71
274.957	5.47
275.336	5.51
275.715	5
276.093	4.59
276.472	5.59
276.851	4.01
277.229	5.14
277.608	5.62
277.986	4.65
278.365	5.3
278.743	4.83
279.122	4.12
279.5	4.78
279.878	4.69
280.257	4.98
280.635	4.58
281.013	5.35
281.391	3.96
281.769	4.89
282.147	4.66
282.525	5.16
282.903	4.52
283.281	5.13
283.659	4.99
284.037	5.18
284.415	3.84
284.792	4.8
285.17	4.34
285.548	5.27
285.925	4.22
286.303	5
286.68	4.21
287.058	4.39
287.435	4.92
287.813	4.32
288.19	4.56
288.567	4.78
288.945	4.98
289.322	4.54
289.699	4.81
290.076	5.16
290.453	4.54
290.83	3.92
291.207	4.92
291.584	4.82
291.961	4.77
292.338	5.06
292.715	4.8
293.092	4.71
293.469	5.11
293.845	4.67
294.222	4.95
294.599	3.67
294.975	4.9
295.352	5.04
295.728	5.11
296.105	4.89
296.481	4.76
296.858	4.6
297.234	4.89
297.61	4.6
297.986	5.17
298.363	4.94
298.739	4.68
299.115	5.1
299.491	4.97
299.867	5.11
300.243	4.32
300.619	4.99
300.995	5.33
301.371	5.05
301.746	4.15
302.122	5.25
302.498	4.71
302.874	5.17
303.249	4.8
303.625	5.49
304	5.3
304.376	5.36
304.751	4.52
305.127	4.43
305.502	4.57
305.878	4.99
306.253	3.9
306.628	4.57
307.003	5.25
307.378	4.63
307.754	5.33
308.129	4.86
308.504	4.94
308.879	4.54
309.254	4.71
309.629	5.38
310.003	4.95
310.378	4.5
310.753	4.77
311.128	4.86
311.502	4.7
311.877	4.56
312.252	5.01
312.626	5.15
313.001	5.19
313.375	4.71
313.75	5.29
314.124	5.38
314.498	5.06
314.873	4.75
315.247	4.31
315.621	5.48
315.995	4.82
316.369	4.94
316.743	4.5
317.117	5.1
317.491	4.25
317.865	4.52
318.239	5.04
318.613	5.54
318.987	5.56
319.361	4.57
319.734	4.88
320.108	4.78
320.482	5.25
320.855	4.96
321.229	4.33
321.602	5.1
321.976	4.54
322.349	4.69
322.723	4.9
323.096	5.2
323.469	4.27
323.843	4.22
324.216	4.6
324.589	5.39
324.962	4.48
325.335	4.7
325.708	5.51
326.081	4.02
326.454	4.84
326.827	4.91
327.2	5.38
327.573	5.27
327.945	4.67
328.318	4.16
328.691	4.8
329.063	4.63
329.436	4.91
329.809	4.53
330.181	5.26
330.553	5
330.926	4.49
331.298	4.91
331.671	4.88
332.043	4.53
332.415	4.73
332.787	4.74
333.159	5.17
333.532	4.26
333.904	4.52
334.276	4.91
334.648	4.55
335.02	4.37
335.391	4.23
335.763	4.28
336.135	4.06
336.507	3.97
336.879	5.28
337.25	5.24
337.622	5.1
337.993	5.1
338.365	4.23
338.736	4.72
339.108	5.38
339.479	4.95
339.851	4.89
340.222	5.29
340.593	5.11
340.964	5.21
341.336	4.85
341.707	4.61
342.078	4.61
342.449	4.82
342.82	5.37
343.191	4.75
343.562	5.21
343.933	4.57
344.303	4.83
344.674	5.04
345.045	5.17
345.416	5.14
345.786	5.1
346.157	4.71
346.527	4.78
346.898	4.88
347.268	4.72
347.639	4.81
348.009	4.88
348.38	5.1
348.75	4.79
349.12	5.17
349.49	4.62
349.861	5.06
350.231	4.96
350.601	4.74
350.971	4.99
351.341	4.79
351.711	5.24
352.081	4.93
352.45	5.01
352.82	4.49
353.19	5.1
353.56	5.11
353.929	5.12
354.299	4.56
354.669	4.33
355.038	4.81
355.408	5.14
355.777	4.92
356.147	4.98
356.516	5.02
356.885	4.53
357.254	4.61
357.624	4.83
357.993	4.83
358.362	4.96
358.731	5.09
359.1	5.63
359.469	5.33
359.838	4.83
360.207	4.67
360.576	5.08
360.945	4.5
361.314	5.51
361.682	4.72
362.051	4.76
362.42	5.18
362.788	4.93
363.157	4.84
363.525	5.16
363.894	5.02
364.262	4.87
364.631	5.16
364.999	4.7
365.367	4.98
365.735	4.81
366.104	5.24
366.472	4.59
366.84	5.33
367.208	5.08
367.576	5.01
367.944	4.88
368.312	4.79
368.68	4.89
369.048	4.86
369.416	5.14
369.783	5.13
370.151	5.28
370.519	4.98
370.886	5
371.254	5.34
371.621	5.15
371.989	5.13
372.356	5.02
372.724	5.23
373.091	4.99
373.458	5.07
373.826	5.29
374.193	4.67
374.56	4.99
374.927	5.32
375.294	4.71
375.661	5.18
376.028	5.34
376.395	5.55
376.762	5.85
377.129	4.95
377.496	5.53
377.863	5.12
378.229	4.86
378.596	4.75
378.963	5.07
379.329	5.36
379.696	5.01
380.062	5.23
380.429	5.46
380.795	5.26
381.161	5.39
381.528	5.07
381.894	5.09
382.26	4.9
382.626	5.14
382.993	5.15
383.359	5.28
383.725	5.17
384.091	5.28
384.457	4.97
384.823	4.8
385.188	4.93
385.554	5
385.92	5.47
386.286	5.02
386.651	5.05
387.017	5.32
387.383	5.55
387.748	5.28
388.114	5.08
388.479	5.31
388.845	5.31
389.21	5.21
389.575	5.04
389.94	5.22
390.306	4.95
390.671	5.14
391.036	5.44
391.401	5.11
391.766	5.27
392.131	4.97
392.496	5.05
392.861	5.17
393.226	5.43
393.591	5.37
393.956	5.36
394.32	5.27
394.685	5.63
395.05	5.35
395.414	5.39
395.779	5.16
396.143	5.42
396.508	5.45
396.872	5.43
397.236	5.34
397.601	5.51
397.965	5.59
398.329	5.28
398.694	5.02
399.058	5.38
399.422	5.18
399.786	5.67
400.15	5.06
400.514	5.3
400.878	5.47
401.242	4.95
401.605	5.32
401.969	5.83
402.333	5.45
402.697	5.38
403.06	5.27
403.424	5.57
403.787	5.28
404.151	5.47
404.514	5.58
404.878	5.69
405.241	5.53
405.604	5.23
405.968	5.37
406.331	5.31
406.694	5.49
407.057	5.29
407.42	5.48
407.783	5.57
408.146	5.67
408.509	5.26
408.872	5.5
409.235	5.65
409.598	5.55
409.961	5.39
410.323	5.89
410.686	5.67
411.049	5.43
411.411	5.31
411.774	5.59
412.136	5.41
412.499	5.45
412.861	5.36
413.223	5.47
413.586	5.51
413.948	5.82
414.31	5.64
414.672	5.6
415.035	5.61
415.397	5.29
415.759	5.57
416.121	5.71
416.483	5.63
416.845	5.53
417.206	5.57
417.568	5.43
417.93	5.59
418.292	5.66
418.653	5.54
419.015	5.55
419.377	5.6
419.738	5.45
420.1	5.55
420.461	5.61
420.822	5.41
421.184	5.46
421.545	5.58
421.906	5.55
422.267	5.45
422.629	5.58
422.99	5.49
423.351	5.67
423.712	5.58
424.073	5.52
424.434	5.45
424.795	5.51
425.155	5.59
425.516	5.5
425.877	5.49
426.238	5.56
426.598	5.55
426.959	5.54
427.32	5.69
427.68	5.53
428.041	5.5
428.401	5.56
428.761	5.71
429.122	5.55
429.482	5.87
429.842	5.9
430.202	5.63
430.563	5.87
430.923	5.62
431.283	5.67
431.643	5.63
432.003	5.8
432.363	5.7
432.722	5.81
433.082	5.56
433.442	5.84
433.802	5.7
434.161	5.78
434.521	5.69
434.881	5.53
435.24	5.73
435.6	5.46
435.959	5.57
436.319	5.69
436.678	5.53
437.037	5.57
437.396	5.83
437.756	5.77
438.115	5.75
438.474	5.5
438.833	5.96
439.192	5.85
439.551	5.71
439.91	5.76
440.269	5.79
440.628	5.66
440.987	5.71
441.345	5.75
441.704	5.86
442.063	5.79
442.421	5.68
442.78	5.71
443.138	5.57
443.497	5.66
443.855	5.87
444.214	5.86
444.572	5.99
444.93	5.86
445.288	5.83
445.647	5.69
446.005	6.01
446.363	5.83
446.721	5.65
447.079	5.68
447.437	5.86
447.795	5.8
448.153	5.69
448.51	5.76
448.868	5.79
449.226	5.77
449.584	5.76
449.941	5.79
450.299	5.79
450.656	5.8
451.014	5.88
451.371	5.91
451.729	6.2
452.086	5.9
452.443	5.95
452.801	5.96
453.158	5.97
453.515	5.98
453.872	6.03
454.229	5.99
454.586	5.88
454.943	6.09
455.3	5.94
455.657	6.01
456.014	6.09
456.371	5.99
456.727	5.71
457.084	5.99
457.441	6.26
457.797	5.95
458.154	6.08
458.51	6.1
458.867	6.19
459.223	5.92
459.58	6.01
459.936	5.99
460.292	5.91
460.648	5.89
461.005	5.99
461.361	5.93
461.717	5.84
462.073	5.77
462.429	5.83
462.785	5.85
463.141	6.12
463.496	6.19
463.852	6.06
464.208	5.9
464.564	6.17
464.919	6.02
465.275	6.02
465.631	6.14
465.986	6.26
466.342	5.92
466.697	5.97
467.052	5.92
467.408	5.99
467.763	6
468.118	6.05
468.473	6.04
468.829	6.07
469.184	6.01
469.539	6.18
469.894	5.84
470.249	5.96
470.603	5.99
470.958	6.28
471.313	5.88
471.668	6
472.023	6.05
472.377	6.02
472.732	6.18
473.086	6.22
473.441	6.12
473.795	6.03
474.15	6.03
474.504	6.14
474.859	5.99
475.213	6.13
475.567	6.38
475.921	6.26
476.275	6.03
476.63	6.26
476.984	6.1
477.338	6.25
477.692	6.13
478.045	6.11
478.399	5.95
478.753	6.28
479.107	6.22
479.461	6.04
479.814	6.22
480.168	6.22
480.521	6.14
480.875	6.16
481.228	6.08
481.582	6.19
481.935	6.21
482.289	6.22
482.642	6.08
482.995	6.12
483.348	6.22
483.701	6.14
484.055	6.09
484.408	6.21
484.761	6.09
485.114	5.92
485.466	5.85
485.819	5.86
486.172	5.82
486.525	5.88
486.878	5.94
487.23	6.06
487.583	6.12
487.936	6.14
488.288	6.09
488.641	5.98
488.993	6.07
489.345	5.94
489.698	5.92
490.05	5.9
490.402	6.02
490.754	6.05
491.107	6.2
491.459	6.17
491.811	6.24
492.163	6.26
492.515	6.14
492.866	6.15
493.218	6.03
493.57	6.01
493.922	6.09
494.274	6.01
494.625	6.05
494.977	6.27
495.328	6.22
495.68	6.4
496.031	6.26
496.383	6.16
496.734	6.28
497.086	6.19
497.437	6.37
497.788	6.33
498.139	6.42
498.49	6.35
498.842	6.29
499.193	6.32
499.544	6.4
499.894	6.28
500.245	6.36
500.596	6.33
500.947	6.22
501.298	6.29
501.648	6.31
501.999	6.5
502.35	6.33
502.7	6.4
503.051	6.37
503.401	6.3
503.752	6.31
504.102	6.45
504.452	6.52
504.803	6.36
505.153	6.26
505.503	6.52
505.853	6.38
506.203	6.3
506.553	6.39
506.903	6.23
507.253	6.51
507.603	6.39
507.953	6.3
508.303	6.48
508.652	6.56
509.002	6.36
509.352	6.45
509.701	6.42
510.051	6.28
510.4	6.45
510.75	6.42
511.099	6.33
511.449	6.39
511.798	6.38
512.147	6.4
512.496	6.49
512.846	6.36
513.195	6.51
513.544	6.49
513.893	6.34
514.242	6.38
514.591	6.34
514.939	6.42
515.288	6.48
515.637	6.44
515.986	6.51
516.334	6.44
516.683	6.56
517.032	6.53
517.38	6.38
517.729	6.49
518.077	6.66
518.426	6.45
518.774	6.48
519.122	6.62
519.47	6.49
519.819	6.6
520.167	6.33
520.515	6.44
520.863	6.45
521.211	6.31
521.559	6.49
521.907	6.56
522.255	6.47
522.602	6.44
522.95	6.54
523.298	6.41
523.645	6.47
523.993	6.61
524.341	6.46
524.688	6.56
525.036	6.58
525.383	6.57
525.73	6.6
526.078	6.59
526.425	6.41
526.772	6.48
527.119	6.51
527.466	6.46
527.814	6.5
528.161	6.57
528.508	6.36
528.854	6.47
529.201	6.49
529.548	6.41
529.895	6.36
530.242	6.24
530.588	6.27
530.935	6.28
531.282	6.29
531.628	6.3
531.975	6.33
532.321	6.36
532.667	6.48
533.014	6.58
533.36	6.45
533.706	6.62
534.052	6.54
534.399	6.56
534.745	6.43
535.091	6.29
535.437	6.4
535.783	6.38
536.129	6.42
536.474	6.48
536.82	6.47
537.166	6.57
537.512	6.59
537.857	6.68
538.203	6.64
538.549	6.5
538.894	6.49
539.239	6.54
539.585	6.57
539.93	6.51
540.276	6.71
540.621	6.57
540.966	6.73
541.311	6.52
541.656	6.59
542.001	6.63
542.346	6.61
542.691	6.45
543.036	6.48
543.381	6.38
543.726	6.4
544.071	6.42
544.415	6.5
544.76	6.52
545.105	6.46
545.449	6.49
545.794	6.6
546.138	6.64
546.483	6.5
546.827	6.65
547.171	6.7
547.516	6.8
547.86	6.67
548.204	6.58
548.548	6.57
548.892	6.66
549.236	6.67
549.58	6.77
549.924	6.64
550.268	6.66
550.612	6.67
550.956	6.67
551.3	6.61
551.643	6.64
551.987	6.79
552.33	6.64
552.674	6.79
553.017	6.59
553.361	6.69
553.704	6.71
554.048	6.57
554.391	6.64
554.734	6.76
555.077	6.8
555.42	6.62
555.764	6.71
556.107	6.92
556.45	6.67
556.793	6.63
557.135	6.65
557.478	6.57
557.821	6.66
558.164	6.69
558.507	6.72
558.849	6.93
559.192	6.64
559.534	6.7
559.877	6.56
560.219	6.73
560.562	6.62
560.904	6.77
561.246	6.59
561.589	6.77
561.931	6.7
562.273	6.84
562.615	6.61
562.957	6.75
563.299	6.92
563.641	6.76
563.983	6.79
564.325	6.68
564.667	6.82
565.008	6.86
565.35	6.81
565.692	6.89
566.033	6.69
566.375	6.68
566.716	6.66
567.058	6.6
567.399	6.93
567.741	6.68
568.082	6.89
568.423	6.76
568.764	6.8
569.105	6.5
569.447	6.8
569.788	6.78
570.129	6.74
570.47	6.8
570.811	6.86
571.151	6.82
571.492	6.93
571.833	6.92
572.174	6.79
572.514	6.79
572.855	6.93
573.195	6.74
573.536	6.82
573.876	6.68
574.217	6.72
574.557	6.67
574.898	6.98
575.238	6.78
575.578	7.04
575.918	6.93
576.258	6.68
576.598	6.96
576.938	6.92
577.278	6.84
577.618	6.81
577.958	6.92
578.298	6.9
578.638	6.65
578.977	6.76
579.317	6.98
579.657	7.08
579.996	6.97
580.336	7.22
580.675	6.97
581.014	6.78
581.354	6.61
581.693	6.92
582.032	7.08
582.372	6.85
582.711	6.95
583.05	6.91
583.389	6.98
583.728	6.69
584.067	6.86
584.406	6.63
584.745	6.91
585.083	6.79
585.422	7.17
585.761	6.9
586.1	6.98
586.438	6.91
586.777	7.1
587.115	6.7
587.454	6.79
587.792	6.9
588.13	7.01
588.469	6.7
588.807	6.95
589.145	6.89
589.483	6.84
589.821	6.67
590.159	7.02
590.497	6.82
590.835	7.04
591.173	7.02
591.511	6.94
591.849	6.89
592.187	6.88
592.524	6.84
592.862	6.74
593.2	7
593.537	6.67
593.875	7.07
594.212	6.96
594.55	6.97
594.887	6.98
595.224	7.12
595.561	7.09
595.899	7.16
596.236	6.88
596.573	6.96
596.91	6.82
597.247	7.03
597.584	7.07
597.921	6.83
598.258	6.95
598.594	6.92
598.931	6.83
599.268	6.9
599.604	7.07
599.941	6.76
600.277	7.08
600.614	7.1
600.95	7.27
601.287	7.35
601.623	7.22
601.959	7.09
602.296	6.76
602.632	7.18
602.968	6.73
603.304	6.65
603.64	7.06
603.976	7.05
604.312	7.28
604.648	6.96
604.984	6.92
605.319	7.19
605.655	6.9
605.991	6.84
606.326	6.93
606.662	7.18
606.998	6.88
607.333	6.78
607.668	7.02
608.004	6.97
608.339	6.75
608.674	6.83
609.01	7.08
609.345	7.15
609.68	7.03
610.015	6.96
610.35	7.06
610.685	6.97
611.02	6.89
611.355	7.11
611.689	6.87
612.024	7.19
612.359	7.05
612.694	7.32
613.028	6.74
613.363	7.2
613.697	7.16
614.032	7.19
614.366	6.7
614.7	6.93
615.035	6.89
615.369	6.82
615.703	7.14
616.037	7.39
616.371	7.34
616.705	7.31
617.039	7.3
617.373	7.44
617.707	6.98
618.041	7.1
618.375	7.29
618.709	6.74
619.042	7.06
619.376	6.83
619.71	6.88
620.043	6.79
620.377	7.32
620.71	7.29
621.043	7.47
621.377	7.01
621.71	7.48
622.043	7.26
622.376	7.25
622.709	7.33
623.043	7.51
623.376	7.33
623.709	6.82
624.041	7.08
624.374	6.95
624.707	7.19
625.04	7.53
625.373	7.28
625.705	6.99
626.038	7.12
626.37	6.82
626.703	7.67
627.035	7.32
627.368	7.2
627.7	7.26
628.032	7.37
628.365	7.51
628.697	7.04
629.029	7.32
629.361	7.12
629.693	7.34
630.025	7.18
630.357	7.1
630.689	7.19
631.021	7.39
631.353	7.36
631.684	7.23
632.016	6.87
632.348	7.53
632.679	7.49
633.011	7.75
633.342	6.95
633.674	7.1
634.005	7.21
634.336	6.99
634.668	7.56
634.999	7.44
635.33	7.3
635.661	7.21
635.992	6.77
636.323	7.61
636.654	7.7
636.985	7.34
637.316	6.96
637.647	7.36
637.977	6.82
638.308	7.33
638.639	7.48
638.969	7.18
639.3	7.21
639.63	7.22
639.961	7.73
640.291	7.34
640.622	7.29
640.952	6.53
641.282	7.19
641.612	7.39
641.943	7.3
642.273	7.71
642.603	7.1
642.933	7.16
643.263	7.51
643.592	7.53
643.922	7.65
644.252	7.29
644.582	7.38
644.911	7.27
645.241	7.21
645.571	7.41
645.9	7.13
646.23	7.47
646.559	7.13
646.888	7.69
647.218	7.5
647.547	7.29
647.876	7.4
648.205	7.46
648.534	6.76
648.863	7.7
649.192	7.79
649.521	7.64
649.85	7.44
650.179	6.99
650.508	7.15
650.837	7.29
651.165	7.87
651.494	8.03
651.822	7.4
652.151	7.65
652.479	7.18
652.808	7.5
653.136	6.97
653.465	7.39
653.793	7.79
654.121	7.59
654.449	7.72
654.777	7.77
655.105	7.08
655.433	7.34
655.761	7.95
656.089	6.52
656.417	7.29
656.745	7.79
657.073	7.38
657.4	7.64
657.728	7.93
658.056	7.56
658.383	7.77
658.711	7.72
659.038	7.67
659.365	7.62
659.693	7.29
660.02	7.06
660.347	7.64
660.674	7.47
661.001	7.5
661.329	7.77
661.656	7.84
661.982	7.46
662.309	7.78
662.636	7.41
662.963	7.54
663.29	7.39
663.616	7.99
663.943	7.62
664.27	7.7
664.596	7.85
664.923	7.56
665.249	6.68
665.576	7.22
665.902	7.84
666.228	8.06
666.554	7.39
666.881	7.77
667.207	7.54
667.533	7.32
667.859	7.91
668.185	7.59
668.511	7.41
668.837	7.91
669.162	7.37
669.488	7.79
669.814	7.88
670.139	7.21
670.465	7.57
670.791	7.68
671.116	7.31
671.442	7.91
671.767	7.27
672.092	7.73
672.418	7.53
672.743	7.17
673.068	7.2
673.393	8.46
673.718	8.91
674.043	7.88
674.368	7.78
674.693	7.94
675.018	7.51
675.343	8.14
675.667	7.2
675.992	7.83
676.317	7.3
676.641	6.95
676.966	7.65
677.29	7.24
677.615	8.45
677.939	7.79
678.264	8.16
678.588	8.17
678.912	7.39
679.236	7.14
679.56	7.52
679.885	7.65
680.209	7.32
680.532	8.27
680.856	7.8
681.18	7.61
681.504	7.78
681.828	7.82
682.152	7.65
682.475	8.02
682.799	7.96
683.122	8.04
683.446	8.3
683.769	7.8
684.093	7.88
684.416	7.91
684.739	8.15
685.062	7.61
685.386	7.94
685.709	7.59
686.032	8.13
686.355	8.07
686.678	7.84
687.001	7.96
687.324	7.29
687.646	8.4
687.969	7.33
688.292	7.93
688.614	7.23
688.937	7.53
689.26	8.68
689.582	7.77
689.904	7.9
690.227	8.64
690.549	7.22
690.871	8.21
691.194	6.91
691.516	8.14
691.838	8.03
692.16	7.67
