Data from 23-3_crown_Reflection__4__24.txt Node

Date: Thu Feb 29 22:02:54 CST 2024
User: ToomeyLab
Spectrometer: FLMS14357
Trigger mode: 0
Integration Time (sec): 1.000000E-2
Scans to average: 100
Electric dark correction enabled: true
Nonlinearity correction enabled: false
Boxcar width: 0
XAxis mode: Wavelengths
Number of Pixels in Spectrum: 2048
>>>>>Begin Spectral Data<<<<<
189.047	50.48
189.435	50.48
189.823	50.48
190.211	-27.21
190.599	33.04
190.987	-30.97
191.375	-16.73
191.763	42.14
192.151	45.71
192.538	60.53
192.926	85.88
193.314	-1402.88
193.702	117.46
194.089	-1216.22
194.477	-38.79
194.864	75.12
195.252	304.51
195.639	70.62
196.027	-279.09
196.414	-4.34
196.801	945.54
197.189	-12.81
197.576	-137.67
197.963	-62.55
198.351	-27.43
198.738	31.66
199.125	-10.29
199.512	38.53
199.899	-18.73
200.286	-38.59
200.673	1.47
201.06	23.32
201.447	-65.04
201.833	33.38
202.22	-23.3
202.607	-49.46
202.994	-143.55
203.38	-27.28
203.767	-6.14
204.154	18.27
204.54	38.72
204.927	-17.01
205.313	4.33
205.699	-34.76
206.086	9.77
206.472	25.27
206.858	81.33
207.245	5.64
207.631	14.09
208.017	36.93
208.403	12.08
208.789	11.55
209.175	-16.71
209.561	-22.27
209.947	1.8
210.333	-2.42
210.719	15.18
211.105	-8.71
211.491	-11.6
211.876	15.16
212.262	57.91
212.648	-14.74
213.034	3.31
213.419	0.9
213.805	-16.04
214.19	20.84
214.576	31.84
214.961	4.25
215.346	24.26
215.732	-2.87
216.117	-63.66
216.502	19.82
216.888	-32.54
217.273	32.46
217.658	8.5
218.043	16.29
218.428	11.61
218.813	23.46
219.198	15.04
219.583	-11.05
219.968	16.37
220.353	-1.91
220.738	2.56
221.122	-19.15
221.507	9.32
221.892	23.12
222.276	13.14
222.661	7.41
223.046	2.2
223.43	-14.76
223.815	-4.28
224.199	5.59
224.583	10.18
224.968	6.91
225.352	9.16
225.736	7.16
226.121	5.47
226.505	11.02
226.889	8.49
227.273	4.19
227.657	0.55
228.041	10.52
228.425	7.78
228.809	12.82
229.193	3.58
229.577	8.52
229.961	4.48
230.344	6.85
230.728	7.22
231.112	8.53
231.495	6.83
231.879	6.57
232.263	3.87
232.646	8.45
233.03	7.3
233.413	6.62
233.797	6.21
234.18	6.02
234.563	5.61
234.946	2.58
235.33	7.24
235.713	6.51
236.096	7.49
236.479	7.32
236.862	6.67
237.245	5.61
237.628	5.98
238.011	6.85
238.394	6.16
238.777	5.38
239.16	5.87
239.543	6.98
239.925	6.57
240.308	8.41
240.691	8.11
241.073	6.19
241.456	7.79
241.838	6.92
242.221	7.5
242.603	7.42
242.986	7.2
243.368	6.73
243.75	6.86
244.133	6.7
244.515	6.19
244.897	7.1
245.279	7.74
245.661	6.16
246.043	6.29
246.425	7.9
246.807	7.13
247.189	6.49
247.571	6.87
247.953	7.27
248.335	6.46
248.717	6.33
249.098	6.74
249.48	6.77
249.862	6.86
250.243	6.41
250.625	6.39
251.006	6.67
251.388	6.29
251.769	6.63
252.151	6.53
252.532	6.18
252.913	5.63
253.295	6.61
253.676	6.22
254.057	6.13
254.438	6.33
254.819	6.02
255.2	5.13
255.581	5.56
255.962	6.7
256.343	6.62
256.724	6.66
257.105	5.34
257.486	6.02
257.867	6.28
258.247	6.77
258.628	6.03
259.009	7.08
259.389	5.81
259.77	6.52
260.15	6.78
260.531	6.99
260.911	6.07
261.292	6.29
261.672	6.31
262.052	6.25
262.432	6.38
262.813	6.04
263.193	5.32
263.573	5.95
263.953	6.07
264.333	5.9
264.713	6.04
265.093	6.51
265.473	5.61
265.853	5.55
266.233	5.16
266.612	6.15
266.992	6.15
267.372	6.05
267.752	5.44
268.131	6.8
268.511	6.35
268.89	6.18
269.27	6.29
269.649	6.28
270.029	5.06
270.408	5.61
270.787	5.68
271.167	5.85
271.546	6.46
271.925	5.73
272.304	6.25
272.683	6.18
273.062	5.67
273.441	5.97
273.82	5.29
274.199	6.06
274.578	5.46
274.957	6.46
275.336	6.32
275.715	5.94
276.093	5.95
276.472	6.81
276.851	5.69
277.229	5.43
277.608	5.67
277.986	6.03
278.365	6.37
278.743	5.5
279.122	5.27
279.5	5.16
279.878	5.22
280.257	7
280.635	4.97
281.013	6.14
281.391	5.19
281.769	6.15
282.147	5.59
282.525	5.95
282.903	5.44
283.281	5.21
283.659	6.35
284.037	5.66
284.415	5.22
284.792	5.15
285.17	5.06
285.548	6.56
285.925	6.01
286.303	5.31
286.68	5.45
287.058	6.18
287.435	5.72
287.813	5.37
288.19	5.73
288.567	6.01
288.945	5.44
289.322	6.01
289.699	5.41
290.076	5.85
290.453	5.28
290.83	5.04
291.207	5.39
291.584	4.93
291.961	5.26
292.338	5.79
292.715	5.61
293.092	5.15
293.469	5.8
293.845	5.55
294.222	4.91
294.599	5.05
294.975	5.68
295.352	6.05
295.728	6.07
296.105	5.25
296.481	5.2
296.858	6.22
297.234	5.44
297.61	5.5
297.986	6.26
298.363	5.46
298.739	5.42
299.115	6.06
299.491	5.57
299.867	5.55
300.243	5.41
300.619	5.27
300.995	6.16
301.371	5.73
301.746	5.94
302.122	5.95
302.498	5.45
302.874	6.01
303.249	5.11
303.625	5.47
304	5.65
304.376	5.56
304.751	5.07
305.127	5.14
305.502	5.57
305.878	5.97
306.253	5.34
306.628	4.9
307.003	5.43
307.378	4.97
307.754	5.69
308.129	5.8
308.504	5.9
308.879	5.17
309.254	5.79
309.629	5.36
310.003	5.41
310.378	4.78
310.753	4.85
311.128	5.44
311.502	5.68
311.877	5.06
312.252	5.9
312.626	4.95
313.001	5
313.375	5.71
313.75	5.34
314.124	5.56
314.498	5.2
314.873	4.82
315.247	4.13
315.621	6.08
315.995	5.6
316.369	4.96
316.743	5.03
317.117	5.48
317.491	5.59
317.865	5.31
318.239	5.67
318.613	6.03
318.987	6.15
319.361	4.71
319.734	5.53
320.108	5.89
320.482	5.7
320.855	5.1
321.229	5.9
321.602	5.15
321.976	4.48
322.349	4.63
322.723	5.26
323.096	5.5
323.469	5.23
323.843	5.03
324.216	5.51
324.589	5.77
324.962	4.87
325.335	4.55
325.708	5.59
326.081	4.63
326.454	5.05
326.827	5.56
327.2	5.5
327.573	4.78
327.945	5.45
328.318	5.09
328.691	5.33
329.063	5.11
329.436	4.98
329.809	5.53
330.181	6.11
330.553	5.26
330.926	5.46
331.298	4.99
331.671	4.99
332.043	5.48
332.415	5.02
332.787	4.56
333.159	5.41
333.532	4.93
333.904	5.37
334.276	5.11
334.648	5
335.02	5.19
335.391	5.04
335.763	4.89
336.135	4.93
336.507	4.68
336.879	4.92
337.25	5.5
337.622	4.87
337.993	5.63
338.365	4.92
338.736	5.51
339.108	5.26
339.479	5.62
339.851	5.33
340.222	5.32
340.593	5.38
340.964	4.89
341.336	5.89
341.707	5.14
342.078	5.38
342.449	5.4
342.82	5.33
343.191	5.6
343.562	5.46
343.933	5.34
344.303	5.54
344.674	5.54
345.045	5.14
345.416	5.13
345.786	5.19
346.157	5.21
346.527	5.25
346.898	5.87
347.268	5.57
347.639	5.15
348.009	5.66
348.38	5.64
348.75	5.26
349.12	5.46
349.49	5.31
349.861	5.57
350.231	5.21
350.601	5.17
350.971	5.17
351.341	5.54
351.711	5.86
352.081	5.78
352.45	5.1
352.82	4.64
353.19	6.09
353.56	5.45
353.929	5.59
354.299	5.11
354.669	5.35
355.038	5.79
355.408	5.44
355.777	5.32
356.147	5.06
356.516	5.39
356.885	5.28
357.254	5.16
357.624	5.17
357.993	5.45
358.362	5.67
358.731	5.22
359.1	5.72
359.469	5.57
359.838	5.1
360.207	5.03
360.576	5.63
360.945	5.42
361.314	5.53
361.682	5.48
362.051	5.54
362.42	5.73
362.788	5.4
363.157	5.25
363.525	5.32
363.894	5.64
364.262	5.31
364.631	5.3
364.999	5.07
365.367	5.69
365.735	5.27
366.104	5.29
366.472	5.02
366.84	5.47
367.208	5.57
367.576	5.24
367.944	5.37
368.312	5.64
368.68	5.45
369.048	5.31
369.416	5.63
369.783	5.72
370.151	5.98
370.519	5.29
370.886	5.32
371.254	5.7
371.621	5.64
371.989	5.41
372.356	5.44
372.724	5.8
373.091	5.25
373.458	5.64
373.826	5.78
374.193	5.37
374.56	5.37
374.927	5.64
375.294	5.21
375.661	5.73
376.028	5.59
376.395	5.95
376.762	6.06
377.129	5.28
377.496	5.82
377.863	5.51
378.229	5.2
378.596	5.44
378.963	5.83
379.329	5.78
379.696	5.65
380.062	5.87
380.429	5.89
380.795	6.27
381.161	6.14
381.528	6
381.894	5.53
382.26	5.75
382.626	5.47
382.993	5.56
383.359	5.69
383.725	5.66
384.091	5.77
384.457	5.44
384.823	5.74
385.188	5.39
385.554	5.52
385.92	5.79
386.286	5.49
386.651	5.78
387.017	5.58
387.383	5.83
387.748	5.6
388.114	5.82
388.479	5.74
388.845	5.46
389.21	5.97
389.575	5.75
389.94	5.71
390.306	5.53
390.671	5.72
391.036	5.55
391.401	5.69
391.766	5.69
392.131	5.19
392.496	5.6
392.861	5.67
393.226	6.12
393.591	5.93
393.956	5.69
394.32	5.79
394.685	6.09
395.05	5.91
395.414	6.06
395.779	5.57
396.143	5.91
396.508	5.97
396.872	5.72
397.236	6.05
397.601	5.64
397.965	6.14
398.329	5.84
398.694	5.59
399.058	6.01
399.422	5.37
399.786	5.79
400.15	5.27
400.514	5.55
400.878	5.62
401.242	5.66
401.605	5.83
401.969	6.3
402.333	5.83
402.697	5.52
403.06	6.04
403.424	6
403.787	5.93
404.151	6.01
404.514	5.97
404.878	5.79
405.241	6.28
405.604	5.75
405.968	5.98
406.331	5.63
406.694	6.25
407.057	5.79
407.42	5.9
407.783	5.91
408.146	6.04
408.509	6.07
408.872	5.99
409.235	6.16
409.598	6.39
409.961	5.57
410.323	5.99
410.686	5.86
411.049	5.89
411.411	5.75
411.774	5.95
412.136	5.78
412.499	6.09
412.861	5.98
413.223	5.69
413.586	6.14
413.948	6.02
414.31	6.4
414.672	5.93
415.035	6.13
415.397	5.71
415.759	6.05
416.121	6.42
416.483	6.11
416.845	5.98
417.206	5.91
417.568	5.99
417.93	6.19
418.292	6.08
418.653	6.13
419.015	6.24
419.377	6.01
419.738	5.72
420.1	6.03
420.461	5.89
420.822	5.91
421.184	5.97
421.545	5.89
421.906	5.92
422.267	6.05
422.629	6
422.99	5.92
423.351	6.08
423.712	5.78
424.073	5.8
424.434	5.88
424.795	6.1
425.155	6.02
425.516	6.03
425.877	5.87
426.238	5.96
426.598	5.91
426.959	5.98
427.32	5.99
427.68	6.03
428.041	5.96
428.401	6.12
428.761	6.24
429.122	6.13
429.482	6.16
429.842	6.05
430.202	6.13
430.563	6.3
430.923	6.3
431.283	6.15
431.643	5.95
432.003	6.4
432.363	5.96
432.722	6.45
433.082	5.88
433.442	6.19
433.802	6.16
434.161	6.4
434.521	6.04
434.881	6.16
435.24	6.16
435.6	5.96
435.959	6.24
436.319	6.16
436.678	6.04
437.037	6.14
437.396	6.06
437.756	6.22
438.115	6.13
438.474	6.16
438.833	6.24
439.192	6.26
439.551	6.19
439.91	6.27
440.269	6.16
440.628	6.25
440.987	6.04
441.345	6.08
441.704	6
442.063	6.22
442.421	6.21
442.78	6.2
443.138	6
443.497	6.04
443.855	6.2
444.214	6.27
444.572	6.2
444.93	6.24
445.288	6.33
445.647	6.16
446.005	6.17
446.363	6.14
446.721	6.12
447.079	6.12
447.437	6.16
447.795	6.13
448.153	6.1
448.51	6.19
448.868	6.02
449.226	6.06
449.584	6.13
449.941	6.31
450.299	6.28
450.656	5.95
451.014	6.16
451.371	6.27
451.729	6.35
452.086	6.13
452.443	6.19
452.801	6.39
453.158	6.32
453.515	6.43
453.872	6.36
454.229	6.31
454.586	6.25
454.943	6.3
455.3	6.42
455.657	6.16
456.014	6.24
456.371	6.35
456.727	6.23
457.084	6.16
457.441	6.46
457.797	6.29
458.154	6.49
458.51	6.35
458.867	6.61
459.223	6.23
459.58	6.32
459.936	6.41
460.292	5.94
460.648	6.19
461.005	6.34
461.361	6.3
461.717	6.29
462.073	6.22
462.429	6.3
462.785	6.28
463.141	6.36
463.496	6.21
463.852	6.32
464.208	6.15
464.564	6.47
464.919	6.31
465.275	6.21
465.631	6.25
465.986	6.5
466.342	6.34
466.697	6.41
467.052	6.19
467.408	6.4
467.763	6.48
468.118	6.48
468.473	6.51
468.829	6.46
469.184	6.33
469.539	6.41
469.894	6.42
470.249	6.35
470.603	6.37
470.958	6.46
471.313	6.13
471.668	6.3
472.023	6.38
472.377	6.48
472.732	6.52
473.086	6.39
473.441	6.4
473.795	6.37
474.15	6.27
474.504	6.47
474.859	6.24
475.213	6.32
475.567	6.59
475.921	6.46
476.275	6.42
476.63	6.25
476.984	6.51
477.338	6.54
477.692	6.43
478.045	6.48
478.399	6.43
478.753	6.53
479.107	6.5
479.461	6.35
479.814	6.41
480.168	6.53
480.521	6.46
480.875	6.38
481.228	6.37
481.582	6.47
481.935	6.62
482.289	6.62
482.642	6.54
482.995	6.33
483.348	6.35
483.701	6.42
484.055	6.39
484.408	6.45
484.761	6.4
485.114	6.23
485.466	6.18
485.819	6.1
486.172	6.07
486.525	6.09
486.878	6.15
487.23	6.26
487.583	6.34
487.936	6.39
488.288	6.37
488.641	6.3
488.993	6.29
489.345	6.24
489.698	6.21
490.05	6.19
490.402	6.21
490.754	6.26
491.107	6.43
491.459	6.4
491.811	6.51
492.163	6.51
492.515	6.38
492.866	6.41
493.218	6.32
493.57	6.27
493.922	6.28
494.274	6.25
494.625	6.35
494.977	6.35
495.328	6.44
495.68	6.59
496.031	6.52
496.383	6.45
496.734	6.48
497.086	6.5
497.437	6.64
497.788	6.55
498.139	6.58
498.49	6.53
498.842	6.51
499.193	6.5
499.544	6.49
499.894	6.37
500.245	6.41
500.596	6.45
500.947	6.54
501.298	6.6
501.648	6.47
501.999	6.61
502.35	6.57
502.7	6.59
503.051	6.69
503.401	6.44
503.752	6.57
504.102	6.59
504.452	6.64
504.803	6.6
505.153	6.42
505.503	6.6
505.853	6.64
506.203	6.66
506.553	6.43
506.903	6.48
507.253	6.59
507.603	6.68
507.953	6.63
508.303	6.45
508.652	6.44
509.002	6.63
509.352	6.53
509.701	6.6
510.051	6.55
510.4	6.59
510.75	6.43
511.099	6.42
511.449	6.5
511.798	6.37
512.147	6.51
512.496	6.62
512.846	6.47
513.195	6.62
513.544	6.61
513.893	6.64
514.242	6.73
514.591	6.5
514.939	6.63
515.288	6.75
515.637	6.65
515.986	6.74
516.334	6.45
516.683	6.59
517.032	6.75
517.38	6.67
517.729	6.59
518.077	6.7
518.426	6.62
518.774	6.69
519.122	6.73
519.47	6.69
519.819	6.59
520.167	6.52
520.515	6.58
520.863	6.52
521.211	6.5
521.559	6.71
521.907	6.64
522.255	6.57
522.602	6.49
522.95	6.57
523.298	6.6
523.645	6.61
523.993	6.69
524.341	6.59
524.688	6.69
525.036	6.66
525.383	6.63
525.73	6.62
526.078	6.72
526.425	6.62
526.772	6.52
527.119	6.63
527.466	6.58
527.814	6.54
528.161	6.56
528.508	6.58
528.854	6.59
529.201	6.56
529.548	6.48
529.895	6.46
530.242	6.4
530.588	6.35
530.935	6.29
531.282	6.34
531.628	6.35
531.975	6.42
532.321	6.55
532.667	6.58
533.014	6.6
533.36	6.55
533.706	6.68
534.052	6.58
534.399	6.63
534.745	6.53
535.091	6.43
535.437	6.46
535.783	6.47
536.129	6.48
536.474	6.5
536.82	6.5
537.166	6.58
537.512	6.65
537.857	6.71
538.203	6.68
538.549	6.6
538.894	6.57
539.239	6.59
539.585	6.59
539.93	6.58
540.276	6.78
540.621	6.52
540.966	6.63
541.311	6.55
541.656	6.69
542.001	6.75
542.346	6.78
542.691	6.47
543.036	6.48
543.381	6.41
543.726	6.49
544.071	6.39
544.415	6.48
544.76	6.53
545.105	6.57
545.449	6.57
545.794	6.58
546.138	6.6
546.483	6.56
546.827	6.67
547.171	6.61
547.516	6.69
547.86	6.52
548.204	6.51
548.548	6.52
548.892	6.47
549.236	6.62
549.58	6.71
549.924	6.73
550.268	6.68
550.612	6.83
550.956	6.62
551.3	6.74
551.643	6.67
551.987	6.64
552.33	6.75
552.674	6.77
553.017	6.49
553.361	6.59
553.704	6.61
554.048	6.55
554.391	6.81
554.734	6.65
555.077	6.63
555.42	6.52
555.764	6.73
556.107	6.93
556.45	6.5
556.793	6.71
557.135	6.67
557.478	6.58
557.821	6.73
558.164	6.72
558.507	6.6
558.849	6.75
559.192	6.7
559.534	6.55
559.877	6.62
560.219	6.6
560.562	6.48
560.904	6.88
561.246	6.72
561.589	6.77
561.931	6.55
562.273	6.82
562.615	6.67
562.957	6.91
563.299	6.85
563.641	6.49
563.983	6.75
564.325	6.49
564.667	6.65
565.008	6.69
565.35	6.78
565.692	6.74
566.033	6.69
566.375	6.6
566.716	6.72
567.058	6.59
567.399	6.81
567.741	6.55
568.082	6.73
568.423	6.54
568.764	6.57
569.105	6.52
569.447	6.62
569.788	6.67
570.129	6.67
570.47	6.79
570.811	6.66
571.151	6.58
571.492	6.68
571.833	6.75
572.174	6.64
572.514	6.56
572.855	6.79
573.195	6.8
573.536	6.92
573.876	6.91
574.217	6.77
574.557	6.66
574.898	6.78
575.238	6.64
575.578	6.63
575.918	6.66
576.258	6.49
576.598	6.75
576.938	6.77
577.278	6.58
577.618	6.44
577.958	6.62
578.298	6.68
578.638	6.78
578.977	6.49
579.317	6.8
579.657	6.64
579.996	6.74
580.336	6.87
580.675	6.92
581.014	6.61
581.354	6.44
581.693	6.72
582.032	6.68
582.372	6.83
582.711	6.86
583.05	6.58
583.389	6.53
583.728	6.26
584.067	6.57
584.406	6.58
584.745	6.54
585.083	6.75
585.422	6.63
585.761	6.86
586.1	6.69
586.438	6.54
586.777	6.67
587.115	6.66
587.454	6.51
587.792	7
588.13	6.48
588.469	6.33
588.807	6.61
589.145	6.63
589.483	6.82
589.821	6.27
590.159	6.61
590.497	6.37
590.835	6.51
591.173	6.73
591.511	6.66
591.849	6.7
592.187	6.53
592.524	6.47
592.862	6.72
593.2	6.63
593.537	6.48
593.875	6.85
594.212	6.66
594.55	6.63
594.887	6.8
595.224	6.7
595.561	6.71
595.899	7.05
596.236	6.38
596.573	6.53
596.91	6.72
597.247	6.84
597.584	6.87
597.921	6.68
598.258	6.54
598.594	6.78
598.931	6.66
599.268	6.63
599.604	6.84
599.941	6.53
600.277	6.67
600.614	6.68
600.95	6.82
601.287	6.61
601.623	6.8
601.959	6.61
602.296	6.5
602.632	6.77
602.968	6.45
603.304	6.64
603.64	6.65
603.976	6.81
604.312	6.9
604.648	6.46
604.984	6.69
605.319	6.96
605.655	6.57
605.991	6.7
606.326	6.58
606.662	6.74
606.998	6.44
607.333	6.64
607.668	6.79
608.004	6.77
608.339	6.56
608.674	6.46
609.01	6.67
609.345	6.78
609.68	6.33
610.015	6.7
610.35	6.65
610.685	6.87
611.02	6.62
611.355	6.72
611.689	6.69
612.024	6.61
612.359	6.76
612.694	6.62
613.028	6.5
613.363	6.91
613.697	6.83
614.032	6.66
614.366	6.6
614.7	6.75
615.035	6.4
615.369	6.16
615.703	6.6
616.037	6.97
616.371	6.71
616.705	6.78
617.039	6.71
617.373	6.89
617.707	7.03
618.041	6.49
618.375	6.84
618.709	6.48
619.042	6.57
619.376	6.31
619.71	6.55
620.043	6.39
620.377	6.91
620.71	6.61
621.043	6.93
621.377	6.57
621.71	6.67
622.043	6.78
622.376	6.37
622.709	7.07
623.043	6.56
623.376	6.72
623.709	6.47
624.041	6.66
624.374	6.24
624.707	6.57
625.04	6.82
625.373	6.66
625.705	6.34
626.038	6.5
626.37	6.48
626.703	7
627.035	6.75
627.368	6.8
627.7	7.07
628.032	6.52
628.365	6.88
628.697	6.51
629.029	6.67
629.361	6.65
629.693	6.59
630.025	6.63
630.357	6.63
630.689	6.55
631.021	6.8
631.353	6.47
631.684	6.73
632.016	6.31
632.348	6.82
632.679	6.63
633.011	6.96
633.342	6.3
633.674	6.41
634.005	6.66
634.336	6.6
634.668	6.88
634.999	6.91
635.33	6.68
635.661	6.87
635.992	6.58
636.323	7.1
636.654	6.61
636.985	6.81
637.316	6.53
637.647	6.6
637.977	6.46
638.308	6.7
638.639	6.79
638.969	6.58
639.3	7.06
639.63	6.54
639.961	6.9
640.291	6.13
640.622	6.6
640.952	6.18
641.282	6.95
641.612	6.68
641.943	7.41
642.273	6.6
642.603	6.45
642.933	6.45
643.263	6.72
643.592	6.73
643.922	6.8
644.252	6.39
644.582	6.49
644.911	6.93
645.241	6.63
645.571	6.98
645.9	6.17
646.23	7.16
646.559	6.42
646.888	6.92
647.218	6.44
647.547	6.46
647.876	6.63
648.205	6.05
648.534	6.5
648.863	7.18
649.192	7.07
649.521	7
649.85	6.83
650.179	6.66
650.508	6.35
650.837	6.52
651.165	6.79
651.494	7.02
651.822	6.14
652.151	6.66
652.479	6.55
652.808	6.69
653.136	6.46
653.465	6.44
653.793	6.66
654.121	6.75
654.449	6.64
654.777	6.74
655.105	6.15
655.433	6.14
655.761	6.95
656.089	6.38
656.417	6.86
656.745	6.92
657.073	6.45
657.4	6.7
657.728	7.06
658.056	7.17
658.383	6.49
658.711	6.46
659.038	6.53
659.365	6.74
659.693	6.57
660.02	6.48
660.347	7.28
660.674	6.92
661.001	6.08
661.329	6.51
661.656	6.55
661.982	6.76
662.309	6.96
662.636	6.56
662.963	6.76
663.29	6.6
663.616	7.02
663.943	7.4
664.27	6.52
664.596	6.67
664.923	6.8
665.249	6.32
665.576	6.56
665.902	6.81
666.228	6.75
666.554	6.29
666.881	6.77
667.207	7.2
667.533	6.15
667.859	7.02
668.185	6.68
668.511	6.06
668.837	7.01
669.162	6.67
669.488	6.46
669.814	7.14
670.139	6.48
670.465	6.28
670.791	6.49
671.116	6.47
671.442	6.85
671.767	6.77
672.092	7.29
672.418	6.32
672.743	6.51
673.068	6.16
673.393	6.5
673.718	7.05
674.043	6.47
674.368	8.27
674.693	6.8
675.018	7.21
675.343	7.23
675.667	6.73
675.992	7.32
676.317	6.82
676.641	6.75
676.966	6.54
677.29	6.46
677.615	6.8
677.939	6.6
678.264	6.73
678.588	7.1
678.912	6.49
679.236	6.45
679.56	6.35
679.885	6.71
680.209	6.92
680.532	6.36
680.856	6.79
681.18	6.57
681.504	7.19
681.828	7.06
682.152	6.56
682.475	7.22
682.799	6.09
683.122	7.14
683.446	7.04
683.769	7.33
684.093	7.54
684.416	6.89
684.739	6.91
685.062	6.76
685.386	7.31
685.709	6.67
686.032	7.31
686.355	6.81
686.678	7.34
687.001	7.17
687.324	6.52
687.646	6.63
687.969	6.91
688.292	7.49
688.614	6.25
688.937	6.51
689.26	6.63
689.582	7.21
689.904	7.6
690.227	7.17
690.549	5.92
690.871	6.64
691.194	6.27
691.516	6.22
691.838	6.52
692.16	6.07
692.482	6.63
