Data from 23-3_forehead_Reflection__4__29.txt Node

Date: Thu Feb 29 22:04:42 CST 2024
User: ToomeyLab
Spectrometer: FLMS14357
Trigger mode: 0
Integration Time (sec): 1.000000E-2
Scans to average: 100
Electric dark correction enabled: true
Nonlinearity correction enabled: false
Boxcar width: 0
XAxis mode: Wavelengths
Number of Pixels in Spectrum: 2048
>>>>>Begin Spectral Data<<<<<
189.047	74.72
189.435	74.72
189.823	74.72
190.211	-320.17
190.599	-216.1
190.987	116.05
191.375	13.4
191.763	-89.93
192.151	59.96
192.538	52.79
192.926	51.62
193.314	-671.22
193.702	147.84
194.089	-12656.76
194.477	174.34
194.864	210.72
195.252	415.18
195.639	404.2
196.027	-75.43
196.414	90.87
196.801	813.62
197.189	33.71
197.576	-151.51
197.963	-82.83
198.351	5.5
198.738	-26.34
199.125	3.34
199.512	29.71
199.899	-30.17
200.286	5.93
200.673	64.56
201.06	3.44
201.447	6.18
201.833	45.99
202.22	31.97
202.607	-59.85
202.994	-19.2
203.38	-2.22
203.767	58.28
204.154	18.06
204.54	39.31
204.927	16.73
205.313	28.91
205.699	-10.32
206.086	33.08
206.472	40.35
206.858	72.45
207.245	13.33
207.631	-12.31
208.017	-16.42
208.403	-57.54
208.789	-5.1
209.175	-18.92
209.561	52.91
209.947	-14.71
210.333	56.59
210.719	52.02
211.105	31.6
211.491	0.19
211.876	33.23
212.262	38.68
212.648	22.89
213.034	32.92
213.419	32.95
213.805	19.39
214.19	2.18
214.576	-7.86
214.961	30.67
215.346	11.29
215.732	23.2
216.117	-10.54
216.502	-5.98
216.888	-21.25
217.273	33.14
217.658	62.64
218.043	35.49
218.428	-10.76
218.813	3.58
219.198	6.65
219.583	-9.04
219.968	-0.62
220.353	7.72
220.738	19.56
221.122	-12.76
221.507	22.1
221.892	9.52
222.276	16.22
222.661	19.13
223.046	7.54
223.43	-0.59
223.815	1.13
224.199	11.4
224.583	10.81
224.968	2.72
225.352	5.91
225.736	-7.32
226.121	6.84
226.505	19.68
226.889	17.97
227.273	-1.5
227.657	-4.51
228.041	6.78
228.425	5.22
228.809	8.07
229.193	1.24
229.577	3.26
229.961	1.94
230.344	2.58
230.728	2.71
231.112	3.93
231.495	2.44
231.879	2.13
232.263	1.42
232.646	3.43
233.03	2.25
233.413	3.84
233.797	3.17
234.18	-0.7
234.563	0.1
234.946	1.38
235.33	2.87
235.713	3.93
236.096	3.8
236.479	3.86
236.862	4.79
237.245	3
237.628	2.86
238.011	3.83
238.394	2.18
238.777	3.25
239.16	3.2
239.543	3.01
239.925	3.17
240.308	4.05
240.691	5.4
241.073	3.39
241.456	2.07
241.838	1.52
242.221	2.94
242.603	2.68
242.986	3.85
243.368	2.79
243.75	3.2
244.133	2.79
244.515	2.32
244.897	2.91
245.279	2.9
245.661	2.04
246.043	1.51
246.425	4.25
246.807	3.39
247.189	1.94
247.571	3.19
247.953	2.98
248.335	2.98
248.717	2.72
249.098	3.11
249.48	2.6
249.862	2.74
250.243	2.49
250.625	2.81
251.006	3.28
251.388	3.07
251.769	2.88
252.151	3.98
252.532	4.22
252.913	2.38
253.295	3.08
253.676	3.07
254.057	3.22
254.438	3.24
254.819	3.69
255.2	1.75
255.581	3.71
255.962	3.8
256.343	4.82
256.724	4.27
257.105	3.2
257.486	4.21
257.867	4.18
258.247	2.81
258.628	3.02
259.009	2.61
259.389	2.38
259.77	3.28
260.15	4.23
260.531	3.91
260.911	2.87
261.292	3.02
261.672	2.83
262.052	2.79
262.432	2.74
262.813	2.56
263.193	2.98
263.573	2.75
263.953	2.87
264.333	2.52
264.713	3.2
265.093	2.69
265.473	3.48
265.853	3.66
266.233	3.08
266.612	2.89
266.992	3.1
267.372	2.37
267.752	3.27
268.131	3.04
268.511	3.54
268.89	3.52
269.27	3.01
269.649	2.55
270.029	2.45
270.408	3.48
270.787	3.44
271.167	3.03
271.546	3.25
271.925	3.21
272.304	2.97
272.683	3.41
273.062	2.34
273.441	2.7
273.82	2.7
274.199	2.96
274.578	2.91
274.957	2.78
275.336	3.06
275.715	3.58
276.093	3.46
276.472	3.22
276.851	2.57
277.229	2.97
277.608	2.94
277.986	2.77
278.365	2.94
278.743	2.64
279.122	2.66
279.5	2.37
279.878	2.6
280.257	3.45
280.635	2.49
281.013	3.5
281.391	3.02
281.769	2.84
282.147	2.63
282.525	3.38
282.903	2.4
283.281	2.83
283.659	3.21
284.037	2.91
284.415	2.38
284.792	2.54
285.17	2.58
285.548	2.97
285.925	2.86
286.303	3.18
286.68	2.59
287.058	2.79
287.435	2.85
287.813	2.93
288.19	2.42
288.567	2.92
288.945	3.27
289.322	2.62
289.699	3.27
290.076	3.41
290.453	2.54
290.83	3.11
291.207	2.87
291.584	3.03
291.961	3.12
292.338	3.23
292.715	3.19
293.092	2.99
293.469	3.35
293.845	3.47
294.222	2.67
294.599	2.31
294.975	3.15
295.352	3.45
295.728	3.38
296.105	3.26
296.481	3.05
296.858	3.4
297.234	3.28
297.61	3.79
297.986	3.46
298.363	3.43
298.739	3.12
299.115	3.61
299.491	3.49
299.867	3.59
300.243	3.73
300.619	3.6
300.995	3.96
301.371	3.79
301.746	3.52
302.122	4.6
302.498	3.77
302.874	4.36
303.249	3.81
303.625	3.78
304	4.19
304.376	3.7
304.751	3.79
305.127	4.15
305.502	4.12
305.878	4.59
306.253	3.33
306.628	3.18
307.003	3.82
307.378	4.44
307.754	4.61
308.129	4.38
308.504	4.61
308.879	4.36
309.254	4.49
309.629	4.27
310.003	4.16
310.378	4.27
310.753	4.19
311.128	4.58
311.502	4.65
311.877	4.59
312.252	4.91
312.626	4.59
313.001	4.76
313.375	4.87
313.75	4.77
314.124	5.09
314.498	4.62
314.873	4.71
315.247	4.67
315.621	5.72
315.995	5.37
316.369	5.17
316.743	4.73
317.117	5.04
317.491	4.99
317.865	5.04
318.239	5.36
318.613	6.55
318.987	5.96
319.361	5.31
319.734	5.73
320.108	6.21
320.482	5.95
320.855	5.58
321.229	6.51
321.602	6.38
321.976	6.16
322.349	6
322.723	6.34
323.096	6.45
323.469	6.22
323.843	6.32
324.216	6.83
324.589	6.18
324.962	6.24
325.335	6.54
325.708	6.9
326.081	6.09
326.454	6.63
326.827	6.66
327.2	6.67
327.573	7.07
327.945	6.84
328.318	6.99
328.691	7.1
329.063	6.76
329.436	7.14
329.809	7.66
330.181	7.73
330.553	7.82
330.926	7.27
331.298	8.04
331.671	7.87
332.043	7.72
332.415	7.86
332.787	7.84
333.159	8.29
333.532	7.48
333.904	7.77
334.276	8.56
334.648	8.48
335.02	7.42
335.391	7.81
335.763	7.3
336.135	7.57
336.507	7.8
336.879	8.46
337.25	8.69
337.622	8.47
337.993	8.26
338.365	7.86
338.736	8.21
339.108	7.87
339.479	8.42
339.851	8.59
340.222	8.49
340.593	8.33
340.964	9.25
341.336	8.73
341.707	8.67
342.078	8.38
342.449	8.81
342.82	9.1
343.191	8.65
343.562	8.74
343.933	9.25
344.303	9.48
344.674	8.9
345.045	9.26
345.416	9.26
345.786	9.01
346.157	8.98
346.527	9.3
346.898	10
347.268	9.63
347.639	9.34
348.009	9.65
348.38	9.79
348.75	9.44
349.12	9.65
349.49	9.32
349.861	9.54
350.231	9.21
350.601	10.17
350.971	10.37
351.341	9.79
351.711	10.14
352.081	10.05
352.45	9.85
352.82	9.93
353.19	10.51
353.56	10
353.929	10.46
354.299	9.93
354.669	10.01
355.038	10
355.408	10.4
355.777	10.61
356.147	10.25
356.516	10.25
356.885	10.16
357.254	10.25
357.624	10.64
357.993	10.69
358.362	10.64
358.731	10.84
359.1	10.99
359.469	10.7
359.838	10.71
360.207	10.28
360.576	10.89
360.945	10.49
361.314	10.88
361.682	10.68
362.051	10.93
362.42	10.89
362.788	10.86
363.157	10.96
363.525	10.87
363.894	10.9
364.262	10.84
364.631	10.84
364.999	10.52
365.367	10.69
365.735	11.07
366.104	11.27
366.472	10.7
366.84	11.67
367.208	11.11
367.576	11.15
367.944	11.04
368.312	11.38
368.68	11.76
369.048	11.61
369.416	11.69
369.783	11.55
370.151	12.13
370.519	11.59
370.886	11.62
371.254	11.88
371.621	12.01
371.989	11.55
372.356	11.79
372.724	12.03
373.091	11.51
373.458	12.26
373.826	12.41
374.193	12.16
374.56	12
374.927	12.5
375.294	12.1
375.661	12.59
376.028	12.47
376.395	12.17
376.762	12.7
377.129	12.24
377.496	12.71
377.863	12.31
378.229	12.14
378.596	12.43
378.963	12.45
379.329	12.49
379.696	12.66
380.062	12.77
380.429	12.76
380.795	13.06
381.161	12.93
381.528	12.76
381.894	12.62
382.26	12.82
382.626	13.1
382.993	12.73
383.359	13.45
383.725	12.89
384.091	13.33
384.457	13.14
384.823	13.26
385.188	13
385.554	13.41
385.92	13.47
386.286	13.43
386.651	13.16
387.017	13.29
387.383	13.52
387.748	13.51
388.114	13.64
388.479	13.83
388.845	13.58
389.21	13.68
389.575	13.6
389.94	13.88
390.306	13.68
390.671	13.97
391.036	13.9
391.401	13.91
391.766	13.91
392.131	13.8
392.496	13.87
392.861	14.01
393.226	14.08
393.591	14.05
393.956	14.03
394.32	14.46
394.685	14.38
395.05	14.55
395.414	14.43
395.779	14.45
396.143	14.73
396.508	14.44
396.872	14.31
397.236	14.43
397.601	14.37
397.965	14.58
398.329	14.72
398.694	14.7
399.058	15.01
399.422	14.65
399.786	14.68
400.15	14.47
400.514	15
400.878	14.69
401.242	14.64
401.605	14.91
401.969	15.27
402.333	15.23
402.697	14.99
403.06	15.1
403.424	15.27
403.787	14.83
404.151	15.48
404.514	15.47
404.878	15.4
405.241	15.43
405.604	15.32
405.968	15.31
406.331	15.27
406.694	15.29
407.057	15.28
407.42	15.43
407.783	15.42
408.146	15.47
408.509	15.48
408.872	15.89
409.235	15.91
409.598	15.89
409.961	15.8
410.323	15.87
410.686	15.98
411.049	15.77
411.411	15.72
411.774	16.03
412.136	16.01
412.499	16.21
412.861	15.96
413.223	15.95
413.586	16.11
413.948	16.14
414.31	16.37
414.672	16.17
415.035	16.53
415.397	16.33
415.759	16.4
416.121	16.62
416.483	16.63
416.845	16.28
417.206	16.54
417.568	16.62
417.93	16.76
418.292	16.59
418.653	16.32
419.015	16.46
419.377	16.65
419.738	16.54
420.1	16.39
420.461	16.47
420.822	16.69
421.184	16.47
421.545	16.6
421.906	16.81
422.267	16.65
422.629	16.66
422.99	16.64
423.351	16.63
423.712	16.68
424.073	16.82
424.434	16.97
424.795	17.14
425.155	17.07
425.516	16.87
425.877	16.92
426.238	17.04
426.598	17.08
426.959	17.05
427.32	17.24
427.68	17.43
428.041	17.31
428.401	17.73
428.761	17.79
429.122	17.83
429.482	17.83
429.842	17.9
430.202	17.88
430.563	18.09
430.923	17.97
431.283	18
431.643	18.07
432.003	18.42
432.363	18.08
432.722	18.24
433.082	17.96
433.442	18.25
433.802	18.4
434.161	18.46
434.521	18.01
434.881	18.09
435.24	18.04
435.6	18.36
435.959	18.25
436.319	18.45
436.678	18.27
437.037	18.43
437.396	18.59
437.756	18.66
438.115	18.66
438.474	18.7
438.833	18.79
439.192	18.83
439.551	18.57
439.91	18.83
440.269	18.74
440.628	18.75
440.987	18.87
441.345	18.86
441.704	18.77
442.063	18.82
442.421	18.81
442.78	18.74
443.138	18.87
443.497	19.16
443.855	19.16
444.214	19.56
444.572	19.53
444.93	19.33
445.288	19.35
445.647	19.38
446.005	19.47
446.363	19.3
446.721	19.37
447.079	19.35
447.437	19.37
447.795	19.24
448.153	19.28
448.51	19.29
448.868	19.26
449.226	19.53
449.584	19.56
449.941	19.74
450.299	20.08
450.656	20.01
451.014	19.97
451.371	20.03
451.729	20.29
452.086	20.26
452.443	20.22
452.801	20.26
453.158	20.48
453.515	20.32
453.872	20.38
454.229	20.11
454.586	20.26
454.943	20.36
455.3	20.58
455.657	20.35
456.014	20.56
456.371	20.59
456.727	20.44
457.084	20.64
457.441	20.65
457.797	20.66
458.154	21.03
458.51	20.93
458.867	21.03
459.223	20.84
459.58	20.74
459.936	20.9
460.292	20.71
460.648	20.76
461.005	20.81
461.361	20.54
461.717	20.6
462.073	20.75
462.429	20.78
462.785	20.7
463.141	21.15
463.496	21.32
463.852	21.29
464.208	21.38
464.564	21.45
464.919	21.42
465.275	21.47
465.631	21.57
465.986	21.64
466.342	21.55
466.697	21.45
467.052	21.52
467.408	21.64
467.763	21.93
468.118	21.71
468.473	21.8
468.829	21.9
469.184	21.68
469.539	21.86
469.894	21.97
470.249	21.68
470.603	22
470.958	22.18
471.313	21.82
471.668	22.05
472.023	22.14
472.377	22.03
472.732	22.15
473.086	22.41
473.441	22.39
473.795	22.28
474.15	22.33
474.504	22.24
474.859	22.33
475.213	22.32
475.567	22.63
475.921	22.65
476.275	22.47
476.63	22.78
476.984	22.76
477.338	22.63
477.692	22.83
478.045	22.64
478.399	22.81
478.753	22.69
479.107	22.81
479.461	22.73
479.814	22.8
480.168	22.97
480.521	22.82
480.875	22.89
481.228	23
481.582	23.04
481.935	22.87
482.289	23.1
482.642	22.87
482.995	23
483.348	22.93
483.701	23.03
484.055	22.99
484.408	22.92
484.761	22.82
485.114	22.43
485.466	22.01
485.819	22.1
486.172	22.08
486.525	22.29
486.878	22.46
487.23	22.75
487.583	23.02
487.936	23.1
488.288	23.07
488.641	23
488.993	22.74
489.345	22.68
489.698	22.59
490.05	22.71
490.402	22.93
490.754	22.96
491.107	23.22
491.459	23.53
491.811	23.74
492.163	23.76
492.515	23.77
492.866	23.58
493.218	23.21
493.57	23.08
493.922	23.2
494.274	23.25
494.625	23.78
494.977	23.83
495.328	23.97
495.68	24.16
496.031	24.29
496.383	24.27
496.734	24.37
497.086	24.35
497.437	24.45
497.788	24.38
498.139	24.34
498.49	24.38
498.842	24.3
499.193	24.34
499.544	24.47
499.894	24.51
500.245	24.5
500.596	24.65
500.947	24.68
501.298	24.75
501.648	24.76
501.999	24.86
502.35	24.92
502.7	24.93
503.051	24.91
503.401	24.83
503.752	24.99
504.102	25.23
504.452	25.26
504.803	25.19
505.153	25.22
505.503	25.27
505.853	25.32
506.203	25.38
506.553	25.06
506.903	25.11
507.253	25.19
507.603	25.26
507.953	25.44
508.303	25.37
508.652	25.43
509.002	25.41
509.352	25.31
509.701	25.4
510.051	25.32
510.4	25.49
510.75	25.18
511.099	25.3
511.449	25.37
511.798	25.56
512.147	25.59
512.496	25.79
512.846	25.46
513.195	25.81
513.544	25.81
513.893	25.63
514.242	25.75
514.591	25.69
514.939	25.84
515.288	25.93
515.637	26.14
515.986	26.06
516.334	26.06
516.683	26.14
517.032	26.07
517.38	26.07
517.729	26.24
518.077	26.44
518.426	26.4
518.774	26.24
519.122	26.39
519.47	26.12
519.819	26.2
520.167	26.07
520.515	25.99
520.863	25.92
521.211	25.97
521.559	26.09
521.907	26.37
522.255	26.37
522.602	26.45
522.95	26.46
523.298	26.79
523.645	26.83
523.993	26.77
524.341	26.97
524.688	27.01
525.036	26.92
525.383	26.99
525.73	26.97
526.078	26.96
526.425	27.05
526.772	27
527.119	26.82
527.466	26.69
527.814	26.56
528.161	26.71
528.508	26.73
528.854	26.97
529.201	27.04
529.548	26.86
529.895	26.67
530.242	26.16
530.588	26.15
530.935	26.23
531.282	26.18
531.628	26.42
531.975	26.62
532.321	26.98
532.667	27.03
533.014	27.2
533.36	27.2
533.706	27.41
534.052	27.48
534.399	27.15
534.745	27.21
535.091	26.84
535.437	26.87
535.783	26.94
536.129	27.16
536.474	27.36
536.82	27.69
537.166	27.77
537.512	27.96
537.857	27.86
538.203	27.6
538.549	27.52
538.894	27.67
539.239	27.48
539.585	27.84
539.93	27.88
540.276	28.25
540.621	28.13
540.966	28.32
541.311	28.52
541.656	28.48
542.001	28.41
542.346	28.23
542.691	27.79
543.036	27.46
543.381	27.29
543.726	27.4
544.071	27.5
544.415	27.73
544.76	28.06
545.105	27.95
545.449	28.06
545.794	28.23
546.138	28.4
546.483	28.51
546.827	28.73
547.171	28.66
547.516	28.58
547.86	28.56
548.204	28.58
548.548	28.58
548.892	28.66
549.236	28.67
549.58	28.74
549.924	28.89
550.268	28.95
550.612	29.13
550.956	29.18
551.3	29.32
551.643	29.27
551.987	29.24
552.33	29.14
552.674	29.37
553.017	29.19
553.361	29.29
553.704	29.39
554.048	29.31
554.391	29.19
554.734	29.31
555.077	29.51
555.42	29.27
555.764	29.55
556.107	29.58
556.45	29.7
556.793	29.77
557.135	29.58
557.478	29.85
557.821	29.66
558.164	29.73
558.507	29.88
558.849	30.07
559.192	30.04
559.534	29.94
559.877	30.02
560.219	30.3
560.562	29.86
560.904	30.17
561.246	30.07
561.589	30.16
561.931	29.95
562.273	30.33
562.615	30.29
562.957	30.22
563.299	30.32
563.641	30.24
563.983	30.54
564.325	30.16
564.667	30.45
565.008	30.19
565.35	30.45
565.692	30.71
566.033	30.51
566.375	30.55
566.716	30.57
567.058	30.64
567.399	30.42
567.741	30.4
568.082	30.38
568.423	30.44
568.764	30.41
569.105	30.38
569.447	30.63
569.788	30.7
570.129	30.82
570.47	30.91
570.811	30.88
571.151	31.14
571.492	30.75
571.833	30.96
572.174	31.03
572.514	30.97
572.855	30.95
573.195	30.98
573.536	30.87
573.876	30.94
574.217	30.8
574.557	30.75
574.898	31.14
575.238	30.93
575.578	31.33
575.918	31.13
576.258	31.36
576.598	31.48
576.938	31.25
577.278	31.2
577.618	31.47
577.958	31.44
578.298	31.48
578.638	31.56
578.977	31.71
579.317	31.78
579.657	31.57
579.996	31.91
580.336	31.95
580.675	31.94
581.014	31.9
581.354	31.62
581.693	31.89
582.032	31.96
582.372	31.91
582.711	32
583.05	32.2
583.389	31.9
583.728	32.03
584.067	31.98
584.406	32.08
584.745	32.21
585.083	32.31
585.422	32.28
585.761	32.25
586.1	32.3
586.438	32.71
586.777	32.48
587.115	32.4
587.454	32.32
587.792	32.39
588.13	32.31
588.469	32.18
588.807	32.54
589.145	32.17
589.483	33.05
589.821	32.4
590.159	32.77
590.497	32.26
590.835	32.84
591.173	32.73
591.511	32.69
591.849	32.35
592.187	32.56
592.524	32.37
592.862	32.2
593.2	32.79
593.537	32.66
593.875	32.88
594.212	32.78
594.55	33.22
594.887	32.93
595.224	33.07
595.561	33.29
595.899	33.19
596.236	32.93
596.573	33.21
596.91	33.54
597.247	33.29
597.584	33.12
597.921	33.19
598.258	32.93
598.594	33.21
598.931	32.93
599.268	32.85
599.604	33.19
599.941	32.87
600.277	33.06
600.614	33.43
600.95	33.47
601.287	33.54
601.623	33.98
601.959	33.74
602.296	33.28
602.632	33.56
602.968	33.23
603.304	33.51
603.64	33.85
603.976	33.56
604.312	33.54
604.648	33.54
604.984	33.53
605.319	33.87
605.655	33.58
605.991	33.51
606.326	33.36
606.662	33.57
606.998	33.51
607.333	33.23
607.668	33.52
608.004	33.92
608.339	33.75
608.674	33.73
609.01	33.99
609.345	33.97
609.68	34.09
610.015	34.39
610.35	33.88
610.685	34.03
611.02	33.9
611.355	34.12
611.689	34.39
612.024	34.17
612.359	34.13
612.694	34.45
613.028	34.31
613.363	34.41
613.697	34.24
614.032	34.44
614.366	34.56
614.7	34.51
615.035	33.95
615.369	34.55
615.703	34.87
616.037	34.64
616.371	34.58
616.705	34.33
617.039	34.5
617.373	34.66
617.707	34.7
618.041	34.44
618.375	34.76
618.709	34.46
619.042	34.84
619.376	34.39
619.71	34.63
620.043	34.54
620.377	35
620.71	35.08
621.043	34.78
621.377	34.52
621.71	34.95
622.043	35.24
622.376	34.85
622.709	35.4
623.043	35.16
623.376	35.09
623.709	34.92
624.041	35.05
624.374	34.85
624.707	35.46
625.04	35.46
625.373	35.2
625.705	35.24
626.038	35.35
626.37	35.31
626.703	35.3
627.035	35.78
627.368	35.52
627.7	35.5
628.032	35.37
628.365	35.5
628.697	35.56
629.029	35.66
629.361	34.9
629.693	35.27
630.025	35.33
630.357	35.86
630.689	35.33
631.021	35.72
631.353	35.98
631.684	35.26
632.016	35.73
632.348	36.02
632.679	35.68
633.011	36.07
633.342	35.35
633.674	35.6
634.005	35.76
634.336	35.52
634.668	35.7
634.999	35.86
635.33	36.08
635.661	35.52
635.992	35.98
636.323	36.1
636.654	35.85
636.985	36.06
637.316	36.03
637.647	36.02
637.977	35.8
638.308	35.68
638.639	36.45
638.969	36.42
639.3	36.3
639.63	36.51
639.961	36.37
640.291	36.42
640.622	36.51
640.952	35.73
641.282	36.44
641.612	36.74
641.943	36.34
642.273	36.14
642.603	36.52
642.933	36.65
643.263	36.76
643.592	36.63
643.922	37.01
644.252	36.51
644.582	35.9
644.911	36.18
645.241	36.62
645.571	37.11
645.9	36.08
646.23	36.7
646.559	36.66
646.888	36.8
647.218	36.84
647.547	36.93
647.876	36.72
648.205	36.55
648.534	36.32
648.863	36.98
649.192	37.18
649.521	36.53
649.85	36.98
650.179	36.6
650.508	37.12
650.837	37.02
651.165	36.78
651.494	37.26
651.822	37.25
652.151	36.75
652.479	36.83
652.808	36.82
653.136	37.75
653.465	37.19
653.793	37.1
654.121	37.42
654.449	37.52
654.777	37.6
655.105	36.9
655.433	37.05
655.761	37.54
656.089	37.29
656.417	37.67
656.745	37.85
657.073	37.72
657.4	38.25
657.728	37.92
658.056	37.88
658.383	37.63
658.711	37.77
659.038	37.67
659.365	37.44
659.693	37.68
660.02	37.95
660.347	38.24
660.674	37.9
661.001	37.31
661.329	38.07
661.656	37.71
661.982	37.84
662.309	37.81
662.636	38.63
662.963	38.31
663.29	38.37
663.616	38.06
663.943	38.04
664.27	38.56
664.596	38.8
664.923	38.93
665.249	37.76
665.576	38.06
665.902	37.88
666.228	38.81
666.554	38.52
666.881	38.64
667.207	38.31
667.533	37.81
667.859	38.31
668.185	38.26
668.511	38.04
668.837	38.87
669.162	38.1
669.488	38.72
669.814	38.86
670.139	38.66
670.465	38.27
670.791	38.57
671.116	38.73
671.442	38.7
