Data from 23-3_forehead_Reflection__1__26.txt Node

Date: Thu Feb 29 22:04:13 CST 2024
User: ToomeyLab
Spectrometer: FLMS14357
Trigger mode: 0
Integration Time (sec): 1.000000E-2
Scans to average: 100
Electric dark correction enabled: true
Nonlinearity correction enabled: false
Boxcar width: 0
XAxis mode: Wavelengths
Number of Pixels in Spectrum: 2048
>>>>>Begin Spectral Data<<<<<
189.047	169.06
189.435	169.06
189.823	169.06
190.211	-333.59
190.599	-200.5
190.987	13.92
191.375	172.44
191.763	58.78
192.151	19.98
192.538	-23.68
192.926	181.22
193.314	1506.47
193.702	218.01
194.089	-9681.08
194.477	38.79
194.864	42.37
195.252	448.43
195.639	-228.64
196.027	-68.9
196.414	-99.73
196.801	376.53
197.189	76.05
197.576	-89.35
197.963	-46.53
198.351	-8.66
198.738	-7.21
199.125	47.46
199.512	6.82
199.899	20.43
200.286	-40.56
200.673	37.62
201.06	-8.43
201.447	-59.52
201.833	25.7
202.22	-57.37
202.607	-26.94
202.994	-55.72
203.38	-21.56
203.767	16.15
204.154	20.93
204.54	43.57
204.927	51.46
205.313	46.15
205.699	-27.61
206.086	4.07
206.472	30.31
206.858	31.2
207.245	-8.52
207.631	13.9
208.017	-2.67
208.403	-66.45
208.789	12.24
209.175	-40.06
209.561	33.72
209.947	9.3
210.333	56.88
210.719	-23.97
211.105	-9.36
211.491	23.9
211.876	13.52
212.262	45.05
212.648	2.07
213.034	23.39
213.419	-4.44
213.805	13.98
214.19	-20.6
214.576	7.16
214.961	33.41
215.346	-14.44
215.732	4.44
216.117	-29.73
216.502	-11.66
216.888	-5.44
217.273	31.03
217.658	34.91
218.043	5.01
218.428	-8.71
218.813	-8.12
219.198	27.64
219.583	-8.78
219.968	15.52
220.353	-18.16
220.738	1.36
221.122	4.77
221.507	22.03
221.892	21.7
222.276	6.11
222.661	5.02
223.046	-6.08
223.43	6.16
223.815	-5.14
224.199	7.71
224.583	8.35
224.968	-3.14
225.352	0.3
225.736	3.64
226.121	9.89
226.505	8.34
226.889	0.52
227.273	-2.34
227.657	-4.19
228.041	4.96
228.425	3.08
228.809	9.34
229.193	-0.4
229.577	2.54
229.961	1.11
230.344	2.28
230.728	1.74
231.112	2.68
231.495	1.55
231.879	1.28
232.263	1.28
232.646	2.96
233.03	1.28
233.413	1.16
233.797	1.21
234.18	0.08
234.563	-2.01
234.946	3.23
235.33	2.46
235.713	1.93
236.096	1.04
236.479	1.04
236.862	4.83
237.245	1.98
237.628	1.74
238.011	2.03
238.394	-1.58
238.777	3.91
239.16	2.35
239.543	0.16
239.925	0.99
240.308	1.86
240.691	4.5
241.073	1.53
241.456	2.1
241.838	3.29
242.221	2.38
242.603	2.74
242.986	2.5
243.368	1.62
243.75	2.28
244.133	1.23
244.515	1.96
244.897	2.4
245.279	1.82
245.661	1.04
246.043	1.95
246.425	3.39
246.807	2.85
247.189	2.54
247.571	2.22
247.953	2.04
248.335	1.65
248.717	1.79
249.098	1.75
249.48	1.85
249.862	1.62
250.243	1.29
250.625	2.07
251.006	1.99
251.388	2.19
251.769	1.19
252.151	2.13
252.532	1.57
252.913	2.31
253.295	2.51
253.676	2.83
254.057	2.09
254.438	2.34
254.819	1.96
255.2	-0.32
255.581	1.01
255.962	2.53
256.343	2.83
256.724	2.31
257.105	2.72
257.486	1.65
257.867	3.03
258.247	2.87
258.628	1.31
259.009	1.95
259.389	1.07
259.77	2.43
260.15	2.53
260.531	2.17
260.911	2.15
261.292	2.01
261.672	2.01
262.052	1.82
262.432	1.78
262.813	1.52
263.193	1.84
263.573	2.21
263.953	2.36
264.333	1.93
264.713	2.61
265.093	2.12
265.473	2.59
265.853	2.72
266.233	1.58
266.612	2.34
266.992	1.71
267.372	0.57
267.752	2.03
268.131	2.1
268.511	2.12
268.89	2.01
269.27	1.91
269.649	2.35
270.029	1.46
270.408	2.37
270.787	1.96
271.167	2.36
271.546	2.75
271.925	2.45
272.304	1.83
272.683	2.25
273.062	1.96
273.441	1.95
273.82	1.75
274.199	1.76
274.578	1.8
274.957	2.49
275.336	3.01
275.715	2.54
276.093	1.84
276.472	2.68
276.851	1.49
277.229	1.81
277.608	2.33
277.986	1.81
278.365	2.27
278.743	1.7
279.122	1.24
279.5	2.21
279.878	1.71
280.257	2.81
280.635	1.28
281.013	1.91
281.391	1.39
281.769	1.72
282.147	1.94
282.525	2.2
282.903	1.59
283.281	1.51
283.659	2.12
284.037	2.02
284.415	1.32
284.792	1.39
285.17	1.23
285.548	1.97
285.925	1.86
286.303	2.09
286.68	1.24
287.058	1.64
287.435	1.8
287.813	1.87
288.19	1.97
288.567	2.16
288.945	2.06
289.322	1.85
289.699	2.19
290.076	2.28
290.453	1.58
290.83	1.9
291.207	2.04
291.584	1.99
291.961	1.77
292.338	2.49
292.715	2.28
293.092	1.94
293.469	2.85
293.845	2.18
294.222	1.86
294.599	1.61
294.975	2.29
295.352	2.28
295.728	2.61
296.105	2.52
296.481	1.93
296.858	2.31
297.234	2.25
297.61	1.92
297.986	2.49
298.363	2.18
298.739	2.04
299.115	2.47
299.491	2.23
299.867	2.32
300.243	1.96
300.619	1.99
300.995	2.61
301.371	2.52
301.746	2.41
302.122	3.5
302.498	3.09
302.874	2.82
303.249	2.27
303.625	2.7
304	2.54
304.376	2.65
304.751	2.4
305.127	2.85
305.502	2.41
305.878	2.93
306.253	1.95
306.628	2.34
307.003	2.21
307.378	2.94
307.754	2.95
308.129	2.47
308.504	3.02
308.879	3.09
309.254	2.92
309.629	3.15
310.003	3
310.378	2.82
310.753	2.87
311.128	2.91
311.502	2.9
311.877	2.84
312.252	3.57
312.626	3.2
313.001	2.99
313.375	3.58
313.75	3.29
314.124	3.4
314.498	3.23
314.873	3.22
315.247	2.95
315.621	3.56
315.995	4.06
316.369	3.88
316.743	3.1
317.117	3.8
317.491	3.9
317.865	3.78
318.239	3.8
318.613	4.65
318.987	4.12
319.361	3.62
319.734	4.13
320.108	4.08
320.482	4.02
320.855	3.58
321.229	4.15
321.602	3.66
321.976	3.71
322.349	3.7
322.723	4.36
323.096	3.87
323.469	3.63
323.843	3.75
324.216	4.74
324.589	3.99
324.962	4
325.335	4.23
325.708	4.46
326.081	4.32
326.454	4.2
326.827	4.47
327.2	4.59
327.573	4.84
327.945	4.89
328.318	4.22
328.691	4.45
329.063	4.01
329.436	4.59
329.809	4.99
330.181	4.69
330.553	4.68
330.926	4.71
331.298	4.42
331.671	5.27
332.043	5.36
332.415	5.14
332.787	4.46
333.159	5.2
333.532	4.5
333.904	4.39
334.276	4.92
334.648	4.89
335.02	4.95
335.391	5.16
335.763	5.06
336.135	4.68
336.507	4.49
336.879	5.57
337.25	5.75
337.622	5.04
337.993	5.07
338.365	5.3
338.736	4.62
339.108	5.73
339.479	5.78
339.851	5.14
340.222	5.43
340.593	5.62
340.964	5.67
341.336	5.46
341.707	6
342.078	5.53
342.449	6.08
342.82	5.61
343.191	5.04
343.562	5.47
343.933	5.48
344.303	5.67
344.674	5.75
345.045	5.92
345.416	5.55
345.786	6.32
346.157	5.75
346.527	5.93
346.898	6.06
347.268	5.73
347.639	5.69
348.009	5.63
348.38	6.24
348.75	6.39
349.12	6
349.49	5.92
349.861	5.72
350.231	6.41
350.601	6.12
350.971	5.91
351.341	5.98
351.711	6.3
352.081	6.16
352.45	6.09
352.82	5.7
353.19	6.43
353.56	6.42
353.929	6.33
354.299	5.91
354.669	6.36
355.038	6.61
355.408	6.61
355.777	6.13
356.147	6.63
356.516	6.86
356.885	6.64
357.254	6.68
357.624	6.62
357.993	6.55
358.362	6.71
358.731	6.67
359.1	6.74
359.469	6.8
359.838	6.81
360.207	6.4
360.576	6.25
360.945	6.43
361.314	7.01
361.682	6.47
362.051	6.76
362.42	6.62
362.788	6.4
363.157	6.57
363.525	6.31
363.894	6.74
364.262	6.6
364.631	6.66
364.999	6.38
365.367	6.48
365.735	6.95
366.104	7.06
366.472	6.83
366.84	7.13
367.208	6.75
367.576	6.73
367.944	7.14
368.312	6.94
368.68	7.07
369.048	6.81
369.416	6.91
369.783	6.93
370.151	7.45
370.519	7.07
370.886	7.36
371.254	7.54
371.621	7.16
371.989	7.08
372.356	7.2
372.724	7.28
373.091	7.27
373.458	7.43
373.826	7.54
374.193	7.4
374.56	7.12
374.927	7.33
375.294	6.96
375.661	7.17
376.028	7.44
376.395	7.43
376.762	7.93
377.129	7.17
377.496	7.83
377.863	7.24
378.229	7.21
378.596	7.43
378.963	8.05
379.329	7.68
379.696	7.41
380.062	7.89
380.429	8.02
380.795	7.78
381.161	8.25
381.528	8.01
381.894	7.36
382.26	7.09
382.626	7.97
382.993	7.91
383.359	8.09
383.725	7.63
384.091	7.92
384.457	7.76
384.823	8.13
385.188	8
385.554	7.77
385.92	8
386.286	7.67
386.651	7.93
387.017	8.13
387.383	8.05
387.748	8.38
388.114	8.03
388.479	8.15
388.845	7.96
389.21	8.24
389.575	8.19
389.94	8.24
390.306	8.09
390.671	8.13
391.036	8.54
391.401	8.57
391.766	8.08
392.131	8.38
392.496	8.33
392.861	8.24
393.226	8.76
393.591	8.57
393.956	8.44
394.32	8.54
394.685	9.08
395.05	8.56
395.414	8.96
395.779	8.71
396.143	8.6
396.508	8.7
396.872	8.82
397.236	8.67
397.601	8.83
397.965	9.07
398.329	8.77
398.694	8.46
399.058	8.82
399.422	8.65
399.786	8.8
400.15	8.63
400.514	8.97
400.878	8.73
401.242	9.01
401.605	9.07
401.969	9.39
402.333	9.27
402.697	9.27
403.06	9.37
403.424	8.98
403.787	8.87
404.151	9.44
404.514	9.25
404.878	9.33
405.241	9.08
405.604	9.01
405.968	9
406.331	9.02
406.694	9.04
407.057	9.37
407.42	9.23
407.783	9.22
408.146	9.31
408.509	9.3
408.872	9.45
409.235	9.28
409.598	9.72
409.961	9.3
410.323	9.84
410.686	9.32
411.049	9.35
411.411	9.33
411.774	9.46
412.136	9.7
412.499	9.63
412.861	9.7
413.223	9.63
413.586	9.79
413.948	9.38
414.31	9.74
414.672	9.98
415.035	9.86
415.397	9.73
415.759	9.73
416.121	9.77
416.483	10.07
416.845	9.9
417.206	9.69
417.568	9.78
417.93	10.06
418.292	10
418.653	9.64
419.015	9.68
419.377	9.69
419.738	9.7
420.1	9.68
420.461	9.75
420.822	9.77
421.184	9.73
421.545	9.89
421.906	9.99
422.267	10.05
422.629	9.9
422.99	9.92
423.351	9.94
423.712	10.03
424.073	9.91
424.434	10.07
424.795	10.29
425.155	10.24
425.516	10.05
425.877	10.08
426.238	10.04
426.598	10.2
426.959	10.28
427.32	10.27
427.68	10.53
428.041	10.46
428.401	10.52
428.761	10.66
429.122	10.8
429.482	10.82
429.842	10.89
430.202	10.94
430.563	10.86
430.923	10.83
431.283	10.82
431.643	10.92
432.003	11.12
432.363	10.78
432.722	11.06
433.082	10.84
433.442	11.22
433.802	10.98
434.161	11.07
434.521	10.88
434.881	10.93
435.24	10.96
435.6	10.88
435.959	10.76
436.319	11.01
436.678	10.97
437.037	11
437.396	11.13
437.756	11.37
438.115	11.09
438.474	11.08
438.833	11.4
439.192	11.25
439.551	11.3
439.91	11.37
440.269	11.3
440.628	11.18
440.987	11.24
441.345	11.18
441.704	11.31
442.063	11.44
442.421	11.3
442.78	11.32
443.138	11.4
443.497	11.53
443.855	11.62
444.214	11.64
444.572	11.87
444.93	11.71
445.288	11.84
445.647	11.76
446.005	11.78
446.363	11.53
446.721	11.61
447.079	11.49
447.437	11.64
447.795	11.56
448.153	11.6
448.51	11.46
448.868	11.61
449.226	11.8
449.584	11.74
449.941	11.9
450.299	11.99
450.656	11.91
451.014	11.96
451.371	12.12
451.729	12.28
452.086	12.26
452.443	12.09
452.801	12.23
453.158	12.32
453.515	12.35
453.872	12.29
454.229	12.15
454.586	12.18
454.943	12.25
455.3	12.39
455.657	12.3
456.014	12.3
456.371	12.27
456.727	12.47
457.084	12.43
457.441	12.65
457.797	12.49
458.154	13.11
458.51	12.75
458.867	12.6
459.223	12.76
459.58	12.61
459.936	12.73
460.292	12.35
460.648	12.53
461.005	12.47
461.361	12.3
461.717	12.34
462.073	12.4
462.429	12.78
462.785	12.86
463.141	12.85
463.496	13
463.852	12.98
464.208	12.78
464.564	13.1
464.919	13.13
465.275	13.19
465.631	13.05
465.986	13.19
466.342	12.96
466.697	13.21
467.052	13.21
467.408	13.31
467.763	13.3
468.118	13.24
468.473	13.27
468.829	13.14
469.184	13.12
469.539	13.45
469.894	13.15
470.249	13.21
470.603	13.41
470.958	13.38
471.313	13.18
471.668	13.56
472.023	13.43
472.377	13.42
472.732	13.6
473.086	13.61
473.441	13.58
473.795	13.61
474.15	13.28
474.504	13.61
474.859	13.56
475.213	13.54
475.567	13.54
475.921	13.83
476.275	13.75
476.63	13.94
476.984	13.72
477.338	13.84
477.692	13.67
478.045	13.76
478.399	13.65
478.753	13.95
479.107	13.99
479.461	13.89
479.814	13.77
480.168	13.72
480.521	13.91
480.875	13.86
481.228	14.12
481.582	14.1
481.935	14.06
482.289	14.09
482.642	13.92
482.995	14.03
483.348	13.97
483.701	14.02
484.055	14.03
484.408	13.98
484.761	13.87
485.114	13.58
485.466	13.15
485.819	13.17
486.172	13.32
486.525	13.54
486.878	13.74
487.23	13.9
487.583	14
487.936	14.11
488.288	14
488.641	13.87
488.993	13.67
489.345	13.75
489.698	13.67
490.05	13.82
490.402	13.97
490.754	14.16
491.107	14.34
491.459	14.38
491.811	14.51
492.163	14.72
492.515	14.46
492.866	14.28
493.218	13.98
493.57	13.95
493.922	14.12
494.274	14.29
494.625	14.4
494.977	14.61
495.328	14.64
495.68	14.91
496.031	15.01
496.383	14.86
496.734	15.02
497.086	14.9
497.437	14.99
497.788	14.98
498.139	15
498.49	14.94
498.842	14.83
499.193	15.12
499.544	14.99
499.894	15.09
500.245	14.99
500.596	15
500.947	15.13
501.298	15.24
501.648	15.35
501.999	15.38
502.35	15.43
502.7	15.43
503.051	15.38
503.401	15.32
503.752	15.38
504.102	15.61
504.452	15.59
504.803	15.53
505.153	15.51
505.503	15.55
505.853	15.39
506.203	15.64
506.553	15.66
506.903	15.6
507.253	15.73
507.603	15.49
507.953	15.74
508.303	15.66
508.652	15.83
509.002	15.75
509.352	15.62
509.701	15.69
510.051	15.65
510.4	15.63
510.75	15.52
511.099	15.53
511.449	15.8
511.798	15.73
512.147	15.85
512.496	15.97
512.846	15.8
513.195	15.83
513.544	15.89
513.893	16.01
514.242	16.03
514.591	15.83
514.939	16.05
515.288	16.12
515.637	16.07
515.986	16.1
516.334	16.07
516.683	16.18
517.032	16.22
517.38	16.12
517.729	16.15
518.077	16.08
518.426	16.31
518.774	16.27
519.122	16.17
519.47	16.13
519.819	16.14
520.167	15.98
520.515	15.97
520.863	16.17
521.211	16.1
521.559	16.18
521.907	16.26
522.255	16.38
522.602	16.43
522.95	16.34
523.298	16.65
523.645	16.53
523.993	16.67
524.341	16.66
524.688	16.68
525.036	16.72
525.383	16.61
525.73	16.77
526.078	16.73
526.425	16.67
526.772	16.63
527.119	16.58
527.466	16.41
527.814	16.43
528.161	16.53
528.508	16.53
528.854	16.65
529.201	16.61
529.548	16.49
529.895	16.13
530.242	15.77
530.588	15.82
530.935	16
531.282	16.12
531.628	16.24
531.975	16.47
532.321	16.63
532.667	16.75
533.014	16.88
533.36	16.91
533.706	16.83
534.052	16.96
534.399	16.71
534.745	16.61
535.091	16.34
535.437	16.43
535.783	16.65
536.129	16.93
536.474	17.07
536.82	17.06
537.166	17.29
537.512	17.18
537.857	17.21
538.203	16.94
538.549	16.98
538.894	17
539.239	17.16
539.585	17.39
539.93	17.4
540.276	17.47
540.621	17.61
540.966	17.64
541.311	17.62
541.656	17.54
542.001	17.6
542.346	17.37
542.691	16.9
543.036	16.69
543.381	16.8
543.726	16.84
544.071	17.14
544.415	17.21
544.76	17.42
545.105	17.23
545.449	17.4
545.794	17.56
546.138	17.58
546.483	17.59
546.827	17.91
547.171	17.68
547.516	17.91
547.86	17.76
548.204	17.68
548.548	17.65
548.892	17.57
549.236	17.9
549.58	18.02
549.924	18.04
550.268	17.95
550.612	18.25
550.956	18.08
551.3	18.2
551.643	18.13
551.987	18.35
552.33	18.17
552.674	18.3
553.017	18.22
553.361	18.09
553.704	18.39
554.048	18.13
554.391	18.18
554.734	18.16
555.077	18.31
555.42	18.48
555.764	18.41
556.107	18.74
556.45	18.42
556.793	18.62
557.135	18.49
557.478	18.58
557.821	18.5
558.164	18.53
558.507	18.6
558.849	18.76
559.192	18.53
559.534	18.6
559.877	18.76
560.219	18.73
560.562	18.61
560.904	18.65
561.246	18.7
561.589	18.73
561.931	18.82
562.273	18.82
562.615	18.68
562.957	18.91
563.299	19
563.641	18.88
563.983	18.87
564.325	18.79
564.667	18.82
565.008	19.04
565.35	18.89
565.692	19.07
566.033	19.22
566.375	18.82
566.716	19.04
567.058	19
567.399	19.29
567.741	18.94
568.082	18.9
568.423	19.01
568.764	19.12
569.105	19.03
569.447	19.3
569.788	19.41
570.129	19.23
570.47	19.4
570.811	19.24
571.151	19.29
571.492	19.37
571.833	19.39
572.174	19.45
572.514	19.47
572.855	19.48
573.195	19.48
573.536	19.49
573.876	19.27
574.217	19.24
574.557	19.24
574.898	19.52
575.238	19.39
575.578	19.45
575.918	19.45
576.258	19.46
576.598	19.51
576.938	19.54
577.278	19.46
577.618	19.48
577.958	19.81
578.298	19.73
578.638	19.75
578.977	19.78
579.317	19.89
579.657	19.74
579.996	19.77
580.336	20.03
580.675	20
581.014	20.01
581.354	19.69
581.693	20.06
582.032	20.12
582.372	20
582.711	20.07
583.05	20.25
583.389	20.29
583.728	19.95
584.067	20.24
584.406	20.32
584.745	20
585.083	20.12
585.422	20.38
585.761	20.42
586.1	20.37
586.438	20.26
586.777	20.33
587.115	19.95
587.454	20.23
587.792	20.29
588.13	20.52
588.469	20.36
588.807	20.25
589.145	20.42
589.483	20.61
589.821	20.33
590.159	20.32
590.497	20.34
590.835	20.4
591.173	20.69
591.511	20.36
591.849	20.52
592.187	20.44
592.524	20.54
592.862	20.48
593.2	20.67
593.537	20.59
593.875	20.73
594.212	20.57
594.55	20.77
594.887	20.64
595.224	20.8
595.561	20.86
595.899	20.9
596.236	20.47
596.573	21.04
596.91	20.96
597.247	21.2
597.584	21.04
597.921	20.92
598.258	20.8
598.594	20.66
598.931	20.53
599.268	20.61
599.604	20.77
599.941	20.74
600.277	20.98
600.614	21.27
600.95	21.2
601.287	21.36
601.623	21.49
601.959	21.12
602.296	21.09
602.632	20.77
602.968	21.16
603.304	21.05
603.64	21.32
603.976	21.61
604.312	21.38
604.648	21.07
604.984	21.04
605.319	21.27
605.655	21.23
605.991	20.86
606.326	21.18
606.662	21.14
606.998	21.09
607.333	21.34
607.668	21.63
608.004	21.61
608.339	21.3
608.674	21.62
609.01	21.44
609.345	21.56
609.68	21.48
610.015	21.58
610.35	21.41
610.685	21.73
611.02	21.27
611.355	21.51
611.689	21.49
612.024	21.52
612.359	21.81
612.694	21.95
613.028	21.49
613.363	21.86
613.697	21.79
614.032	22.02
614.366	21.76
614.7	22.01
615.035	21.6
615.369	22
615.703	22.38
616.037	22.05
616.371	22.33
616.705	21.96
617.039	22.02
617.373	21.97
617.707	22.06
618.041	21.94
618.375	22.37
618.709	22.46
619.042	21.91
619.376	21.94
619.71	22.02
620.043	22.08
620.377	22.35
620.71	22.32
621.043	22.11
621.377	22.12
621.71	22.17
622.043	21.97
622.376	22.01
622.709	22.63
623.043	22.27
623.376	22.75
623.709	22.38
624.041	22.5
624.374	22.49
624.707	22.41
625.04	22.46
625.373	22.62
625.705	22.38
626.038	22.85
626.37	22.89
626.703	22.77
627.035	22.9
627.368	22.37
627.7	22.66
628.032	22.18
628.365	22.16
628.697	22.15
629.029	22.77
629.361	22.35
629.693	22.43
630.025	22.7
630.357	22.75
630.689	22.82
631.021	22.85
631.353	22.54
631.684	22.88
632.016	22.55
632.348	23.19
632.679	22.71
633.011	23.33
633.342	22.46
633.674	22.52
634.005	23.15
634.336	22.71
634.668	23.19
634.999	22.87
635.33	22.95
635.661	22.96
635.992	22.26
636.323	23.01
636.654	23.31
636.985	23.28
637.316	22.71
637.647	23.48
637.977	23.21
638.308	22.9
638.639	23.42
638.969	22.97
639.3	23.34
639.63	23.31
639.961	23.65
640.291	23.08
640.622	23.52
640.952	22.79
641.282	24.03
641.612	23.3
641.943	23.49
642.273	23.22
642.603	23.43
642.933	23.54
643.263	23.25
643.592	23.52
643.922	23.44
644.252	23.78
644.582	23.58
644.911	23.62
645.241	23.27
645.571	23.89
645.9	23.27
646.23	24.13
646.559	23.79
646.888	24.12
647.218	23.68
647.547	23.98
647.876	23.34
648.205	23.41
648.534	23.38
648.863	24.28
649.192	24.19
649.521	23.61
649.85	23.67
650.179	23.56
650.508	23.55
650.837	23.47
651.165	24.14
651.494	24.18
651.822	24
652.151	23.62
652.479	23.64
652.808	23.73
653.136	23.69
653.465	24.32
653.793	23.68
654.121	24.75
654.449	24.45
654.777	24.28
655.105	24.03
655.433	24.45
655.761	24.35
656.089	24.17
656.417	24.31
656.745	24.86
657.073	24.12
657.4	24.33
657.728	24.78
658.056	24.6
658.383	24.37
658.711	25.03
659.038	24.98
659.365	24.54
659.693	24.04
660.02	24.4
660.347	25.27
660.674	24.23
661.001	24.1
661.329	24.47
661.656	24.3
661.982	24.56
662.309	24.9
662.636	24.67
662.963	25.28
663.29	25.17
663.616	24.99
663.943	24.92
664.27	25.09
664.596	25.42
664.923	25.16
665.249	24.5
665.576	24.92
665.902	24.77
666.228	25.68
666.554	24.41
666.881	25.45
667.207	24.98
667.533	24.7
667.859	25.53
668.185	25.24
668.511	25.41
668.837	24.92
669.162	24.9
669.488	24.58
669.814	25.53
670.139	25.09
670.465	25.29
670.791	24.99
671.116	25.28
671.442	24.74
671.767	24.55
672.092	25.21
672.418	24.86
672.743	25.66
673.068	24.85
673.393	25.51
673.718	25.28
674.043	26.52
674.368	25.99
674.693	25.94
675.018	25.73
675.343	25.6
675.667	25.52
675.992	25.97
