Data from 23-3_forehead_Reflection__2__27.txt Node

Date: Thu Feb 29 22:04:23 CST 2024
User: ToomeyLab
Spectrometer: FLMS14357
Trigger mode: 0
Integration Time (sec): 1.000000E-2
Scans to average: 100
Electric dark correction enabled: true
Nonlinearity correction enabled: false
Boxcar width: 0
XAxis mode: Wavelengths
Number of Pixels in Spectrum: 2048
>>>>>Begin Spectral Data<<<<<
189.047	81.33
189.435	81.33
189.823	81.33
190.211	-175.45
190.599	70.45
190.987	-68.46
191.375	-68.02
191.763	-45.73
192.151	80.31
192.538	-5.33
192.926	67.55
193.314	3507.91
193.702	92.88
194.089	-1891.89
194.477	-24.42
194.864	-36.98
195.252	132.97
195.639	1225.68
196.027	-97.54
196.414	27.54
196.801	557.75
197.189	1.27
197.576	120.18
197.963	-82.33
198.351	-5.07
198.738	1.61
199.125	18.04
199.512	34.75
199.899	-10.91
200.286	-161.1
200.673	35.74
201.06	-27.69
201.447	-57.23
201.833	5.67
202.22	-101.69
202.607	2.19
202.994	-144.73
203.38	5.56
203.767	29.34
204.154	9.11
204.54	25.24
204.927	-10.93
205.313	21.94
205.699	4.55
206.086	19.87
206.472	13.78
206.858	44.68
207.245	-5.96
207.631	11.05
208.017	6.3
208.403	-114.23
208.789	18.58
209.175	-32.35
209.561	-9.36
209.947	7.4
210.333	66.35
210.719	20.29
211.105	19.01
211.491	6.04
211.876	3.89
212.262	-2.67
212.648	-9.5
213.034	0.76
213.419	2.25
213.805	12.98
214.19	-2.95
214.576	-24.43
214.961	4.17
215.346	-2.95
215.732	9.22
216.117	-46.73
216.502	-3.03
216.888	-20.05
217.273	42.21
217.658	26.79
218.043	22.14
218.428	-23.64
218.813	17.9
219.198	-0.6
219.583	12.18
219.968	-24.9
220.353	14.22
220.738	14.71
221.122	-8.79
221.507	5.43
221.892	2.05
222.276	7.1
222.661	4.7
223.046	15.33
223.43	-10.77
223.815	0.55
224.199	2.66
224.583	1.62
224.968	4.18
225.352	5
225.736	8.13
226.121	2.19
226.505	6.85
226.889	-2.44
227.273	-1.64
227.657	-0.89
228.041	3.34
228.425	2.92
228.809	3.6
229.193	0.58
229.577	2.98
229.961	1.69
230.344	1.63
230.728	1.38
231.112	3.04
231.495	1.73
231.879	1.75
232.263	-0.64
232.646	5.28
233.03	3.56
233.413	0.64
233.797	0.32
234.18	-0.2
234.563	1
234.946	-1.3
235.33	2.05
235.713	0.82
236.096	2.67
236.479	3.57
236.862	1.69
237.245	-1.2
237.628	2.43
238.011	1.97
238.394	0.95
238.777	0.33
239.16	3.19
239.543	0.05
239.925	1.39
240.308	2.83
240.691	2.41
241.073	1.36
241.456	3.01
241.838	2.71
242.221	1.38
242.603	2.32
242.986	2.5
243.368	1.15
243.75	2.22
244.133	2.35
244.515	1.74
244.897	2.76
245.279	1.61
245.661	0.84
246.043	1.01
246.425	3.54
246.807	2.25
247.189	2.46
247.571	2.44
247.953	2.39
248.335	1.77
248.717	2.04
249.098	2.21
249.48	2.04
249.862	2.11
250.243	2.15
250.625	1.36
251.006	2.75
251.388	2.98
251.769	2.19
252.151	3.54
252.532	1.92
252.913	2.04
253.295	1.76
253.676	2.37
254.057	2.25
254.438	2.86
254.819	2.62
255.2	1.42
255.581	2.66
255.962	2.95
256.343	2.52
256.724	1.46
257.105	2.75
257.486	3.04
257.867	1.82
258.247	3.56
258.628	2.31
259.009	2.44
259.389	1.1
259.77	2.59
260.15	3.05
260.531	2.33
260.911	2.07
261.292	2.2
261.672	2.25
262.052	2.18
262.432	2.14
262.813	2.23
263.193	2.2
263.573	2.3
263.953	2.14
264.333	1.7
264.713	2.6
265.093	3.21
265.473	2.38
265.853	2.33
266.233	2.8
266.612	3.17
266.992	1.76
267.372	1.79
267.752	2.08
268.131	2.89
268.511	2.14
268.89	2.24
269.27	2.07
269.649	2.05
270.029	2.48
270.408	2.07
270.787	1.8
271.167	2.97
271.546	2.57
271.925	2.59
272.304	1.54
272.683	1.85
273.062	1.73
273.441	1.99
273.82	1.95
274.199	2.49
274.578	1.65
274.957	2.81
275.336	2.71
275.715	2.42
276.093	2.29
276.472	2.7
276.851	1.75
277.229	2.01
277.608	2.63
277.986	2.06
278.365	2.89
278.743	2.15
279.122	1.95
279.5	1.85
279.878	1.08
280.257	2.24
280.635	1.89
281.013	2.84
281.391	2.14
281.769	2.03
282.147	2.23
282.525	2.41
282.903	1.95
283.281	2.08
283.659	2.78
284.037	2.28
284.415	1.44
284.792	1.87
285.17	1.45
285.548	2.43
285.925	2.03
286.303	2.36
286.68	1.48
287.058	2.49
287.435	2.16
287.813	2.04
288.19	2.16
288.567	2.24
288.945	2.24
289.322	1.9
289.699	2.4
290.076	1.8
290.453	1.66
290.83	2.07
291.207	2.15
291.584	2.06
291.961	2.28
292.338	2.76
292.715	2.2
293.092	2.01
293.469	2.41
293.845	2.1
294.222	2.07
294.599	1.99
294.975	2.36
295.352	2.39
295.728	2.57
296.105	2.49
296.481	2.04
296.858	2.49
297.234	2.27
297.61	2.67
297.986	2.33
298.363	2.38
298.739	1.83
299.115	2.85
299.491	2.11
299.867	2.42
300.243	2.36
300.619	2.54
300.995	3.28
301.371	2.87
301.746	2.48
302.122	3.03
302.498	2.73
302.874	3.27
303.249	2.63
303.625	3.28
304	3.2
304.376	2.85
304.751	2.66
305.127	3.1
305.502	2.71
305.878	3.1
306.253	2.09
306.628	3.06
307.003	3.34
307.378	3.47
307.754	3.33
308.129	2.9
308.504	3.49
308.879	3.15
309.254	3.09
309.629	3.08
310.003	3.1
310.378	2.79
310.753	3.19
311.128	3.51
311.502	3.51
311.877	3.34
312.252	3.82
312.626	3.14
313.001	3.16
313.375	3.52
313.75	3.59
314.124	3.86
314.498	3.9
314.873	3.33
315.247	2.87
315.621	3.75
315.995	3.83
316.369	4.15
316.743	3.87
317.117	4.24
317.491	3.84
317.865	4.03
318.239	4.29
318.613	4.55
318.987	4.5
319.361	3.37
319.734	4.94
320.108	5.16
320.482	3.84
320.855	4.23
321.229	5.15
321.602	3.88
321.976	4.75
322.349	4.52
322.723	4.73
323.096	4.78
323.469	4.46
323.843	4.43
324.216	4.79
324.589	4.84
324.962	4.37
325.335	4.45
325.708	5.1
326.081	5.18
326.454	4.47
326.827	5.1
327.2	5.18
327.573	4.87
327.945	5.43
328.318	4.77
328.691	5.07
329.063	5.11
329.436	4.57
329.809	4.95
330.181	5.45
330.553	4.84
330.926	5.36
331.298	5.61
331.671	4.82
332.043	5.15
332.415	5.41
332.787	5.51
333.159	5.72
333.532	5.45
333.904	5.52
334.276	5.39
334.648	5.77
335.02	5.48
335.391	4.8
335.763	4.88
336.135	5.55
336.507	5.69
336.879	5.03
337.25	5.75
337.622	5.54
337.993	5.74
338.365	5.38
338.736	5.96
339.108	5.58
339.479	6
339.851	5.52
340.222	5.97
340.593	5.65
340.964	5.95
341.336	5.75
341.707	5.94
342.078	5.57
342.449	6.43
342.82	6.25
343.191	5.71
343.562	6.31
343.933	5.92
344.303	6.16
344.674	6.18
345.045	6.07
345.416	5.95
345.786	5.9
346.157	6.48
346.527	5.99
346.898	6.57
347.268	6.37
347.639	6.22
348.009	6.33
348.38	6.29
348.75	6.46
349.12	6.59
349.49	6.18
349.861	6.45
350.231	6.51
350.601	6.57
350.971	6.2
351.341	6.53
351.711	7.04
352.081	6.87
352.45	6.42
352.82	6.09
353.19	6.9
353.56	6.78
353.929	7.03
354.299	6.09
354.669	6.34
355.038	6.59
355.408	6.65
355.777	7.04
356.147	6.25
356.516	7.04
356.885	6.71
357.254	6.81
357.624	6.75
357.993	6.76
358.362	7.01
358.731	7.18
359.1	7.16
359.469	7.1
359.838	6.73
360.207	7.13
360.576	6.86
360.945	6.81
361.314	7.41
361.682	6.75
362.051	7.3
362.42	6.94
362.788	6.91
363.157	6.92
363.525	6.99
363.894	7.2
364.262	7.15
364.631	7.04
364.999	7
365.367	6.94
365.735	7.2
366.104	7.34
366.472	6.75
366.84	7.47
367.208	7.42
367.576	7.22
367.944	7.22
368.312	7.31
368.68	7.1
369.048	7.12
369.416	7.33
369.783	7.4
370.151	8.09
370.519	7.46
370.886	7.58
371.254	7.63
371.621	8
371.989	7.92
372.356	7.77
372.724	7.68
373.091	7.7
373.458	7.83
373.826	7.95
374.193	8.04
374.56	7.59
374.927	8.02
375.294	7.94
375.661	7.93
376.028	8.26
376.395	7.88
376.762	8.64
377.129	7.73
377.496	8.11
377.863	7.76
378.229	7.88
378.596	7.84
378.963	7.93
379.329	8.33
379.696	7.77
380.062	7.93
380.429	8.53
380.795	8.29
381.161	8.45
381.528	8.27
381.894	7.71
382.26	8.01
382.626	8.8
382.993	8.15
383.359	8.46
383.725	8.28
384.091	8.75
384.457	8.28
384.823	8.74
385.188	8.47
385.554	8.4
385.92	8.2
386.286	8.22
386.651	8.42
387.017	8.44
387.383	8.82
387.748	8.67
388.114	8.45
388.479	8.56
388.845	8.7
389.21	8.98
389.575	8.58
389.94	8.6
390.306	8.73
390.671	8.9
391.036	8.92
391.401	8.82
391.766	8.78
392.131	8.63
392.496	8.82
392.861	8.81
393.226	9.06
393.591	9.14
393.956	9.06
394.32	8.84
394.685	9.21
395.05	9.19
395.414	9.24
395.779	9.1
396.143	9.22
396.508	9.41
396.872	9.12
397.236	9.11
397.601	9.28
397.965	9.39
398.329	9.46
398.694	9.26
399.058	9.58
399.422	9.21
399.786	9.35
400.15	9.19
400.514	9.41
400.878	9.2
401.242	9.51
401.605	9.39
401.969	9.83
402.333	9.6
402.697	9.33
403.06	9.87
403.424	9.87
403.787	9.64
404.151	9.79
404.514	9.83
404.878	9.81
405.241	9.9
405.604	9.59
405.968	9.76
406.331	9.53
406.694	9.89
407.057	9.47
407.42	9.76
407.783	10
408.146	9.98
408.509	9.85
408.872	10.09
409.235	10.08
409.598	10.17
409.961	10.1
410.323	10.3
410.686	10.01
411.049	10.02
411.411	10.19
411.774	10.22
412.136	10.06
412.499	10.18
412.861	10.32
413.223	10.22
413.586	10.24
413.948	10.16
414.31	10.53
414.672	10.43
415.035	10.59
415.397	10.31
415.759	10.88
416.121	10.64
416.483	10.67
416.845	10.41
417.206	10.61
417.568	10.39
417.93	10.47
418.292	10.6
418.653	10.6
419.015	10.62
419.377	10.56
419.738	10.45
420.1	10.62
420.461	10.57
420.822	10.63
421.184	10.5
421.545	10.58
421.906	10.62
422.267	10.61
422.629	10.57
422.99	10.69
423.351	10.73
423.712	10.7
424.073	10.66
424.434	10.74
424.795	11
425.155	10.74
425.516	10.8
425.877	10.64
426.238	10.78
426.598	10.89
426.959	10.88
427.32	10.99
427.68	11.04
428.041	10.92
428.401	11.13
428.761	11.27
429.122	11.26
429.482	11.31
429.842	11.37
430.202	11.4
430.563	11.52
430.923	11.41
431.283	11.49
431.643	11.54
432.003	11.68
432.363	11.45
432.722	11.86
433.082	11.49
433.442	11.64
433.802	11.72
434.161	12.02
434.521	11.52
434.881	11.56
435.24	11.57
435.6	11.57
435.959	11.64
436.319	11.71
436.678	11.55
437.037	11.62
437.396	11.69
437.756	12.02
438.115	12.05
438.474	11.82
438.833	11.99
439.192	11.78
439.551	11.92
439.91	12
440.269	12
440.628	11.97
440.987	11.85
441.345	12
441.704	11.93
442.063	11.99
442.421	12.11
442.78	12.02
443.138	11.99
443.497	12.15
443.855	12.17
444.214	12.41
444.572	12.5
444.93	12.35
445.288	12.42
445.647	12.39
446.005	12.3
446.363	12.33
446.721	12.32
447.079	12.14
447.437	12.2
447.795	12.15
448.153	12.27
448.51	12.23
448.868	12.16
449.226	12.3
449.584	12.38
449.941	12.42
450.299	12.59
450.656	12.62
451.014	12.52
451.371	12.7
451.729	12.92
452.086	12.56
452.443	12.74
452.801	12.86
453.158	12.94
453.515	12.84
453.872	12.82
454.229	12.77
454.586	12.8
454.943	12.93
455.3	13.08
455.657	13.07
456.014	13.04
456.371	13.08
456.727	13.04
457.084	12.99
457.441	13.2
457.797	13.06
458.154	13.38
458.51	13.22
458.867	13.27
459.223	13.1
459.58	13.16
459.936	13.22
460.292	13.02
460.648	13.14
461.005	13.19
461.361	12.94
461.717	13.01
462.073	13.07
462.429	13.11
462.785	13.25
463.141	13.24
463.496	13.47
463.852	13.55
464.208	13.44
464.564	13.57
464.919	13.54
465.275	13.67
465.631	13.55
465.986	13.7
466.342	13.56
466.697	13.65
467.052	13.67
467.408	13.48
467.763	13.87
468.118	13.83
468.473	13.65
468.829	13.64
469.184	13.74
469.539	13.9
469.894	13.7
470.249	13.82
470.603	13.78
470.958	14.07
471.313	13.55
471.668	14.02
472.023	13.73
472.377	13.94
472.732	14.15
473.086	13.9
473.441	14.11
473.795	14.08
474.15	14.01
474.504	14.06
474.859	14.04
475.213	14.08
475.567	14.09
475.921	14.34
476.275	14.25
476.63	14.34
476.984	14.5
477.338	14.38
477.692	14.23
478.045	14.32
478.399	14.13
478.753	14.32
479.107	14.39
479.461	14.26
479.814	14.25
480.168	14.35
480.521	14.43
480.875	14.47
481.228	14.45
481.582	14.52
481.935	14.45
482.289	14.4
482.642	14.48
482.995	14.45
483.348	14.49
483.701	14.52
484.055	14.41
484.408	14.5
484.761	14.43
485.114	14.1
485.466	13.82
485.819	13.74
486.172	13.75
486.525	13.91
486.878	14.06
487.23	14.27
487.583	14.37
487.936	14.57
488.288	14.47
488.641	14.41
488.993	14.3
489.345	14.21
489.698	14.26
490.05	14.29
490.402	14.39
490.754	14.48
491.107	14.63
491.459	14.73
491.811	14.93
492.163	15
492.515	14.85
492.866	14.68
493.218	14.57
493.57	14.55
493.922	14.51
494.274	14.6
494.625	14.79
494.977	14.9
495.328	15.06
495.68	15.34
496.031	15.44
496.383	15.23
496.734	15.46
497.086	15.46
497.437	15.43
497.788	15.45
498.139	15.47
498.49	15.38
498.842	15.31
499.193	15.47
499.544	15.34
499.894	15.3
500.245	15.45
500.596	15.32
500.947	15.33
501.298	15.51
501.648	15.66
501.999	15.58
502.35	15.65
502.7	15.8
503.051	15.7
503.401	15.77
503.752	15.72
504.102	15.94
504.452	15.78
504.803	15.99
505.153	15.81
505.503	15.93
505.853	15.95
506.203	15.9
506.553	15.86
506.903	15.84
507.253	15.84
507.603	15.98
507.953	16.03
508.303	15.98
508.652	16.04
509.002	15.97
509.352	16.08
509.701	16.05
510.051	15.93
510.4	16
510.75	15.89
511.099	15.82
511.449	16.09
511.798	16.13
512.147	16.09
512.496	16.09
512.846	16.15
513.195	16.2
513.544	16.28
513.893	16.08
514.242	16.27
514.591	16.18
514.939	16.16
515.288	16.32
515.637	16.41
515.986	16.18
516.334	16.42
516.683	16.63
517.032	16.62
517.38	16.55
517.729	16.49
518.077	16.6
518.426	16.56
518.774	16.4
519.122	16.55
519.47	16.43
519.819	16.52
520.167	16.43
520.515	16.28
520.863	16.38
521.211	16.47
521.559	16.38
521.907	16.51
522.255	16.6
522.602	16.66
522.95	16.73
523.298	16.91
523.645	16.81
523.993	16.84
524.341	16.88
524.688	16.94
525.036	17
525.383	16.94
525.73	16.99
526.078	17.03
526.425	17.04
526.772	16.96
527.119	16.86
527.466	16.74
527.814	16.69
528.161	16.76
528.508	16.85
528.854	16.91
529.201	16.97
529.548	16.82
529.895	16.6
530.242	16.31
530.588	16.22
530.935	16.3
531.282	16.32
531.628	16.57
531.975	16.67
532.321	16.74
532.667	16.98
533.014	17.07
533.36	17.08
533.706	17.25
534.052	17.17
534.399	17.06
534.745	16.98
535.091	16.77
535.437	16.84
535.783	16.86
536.129	16.97
536.474	17.26
536.82	17.3
537.166	17.53
537.512	17.54
537.857	17.5
538.203	17.38
538.549	17.23
538.894	17.32
539.239	17.31
539.585	17.55
539.93	17.63
540.276	17.86
540.621	17.7
540.966	17.74
541.311	17.81
541.656	17.8
542.001	17.87
542.346	17.69
542.691	17.37
543.036	17.15
543.381	17.1
543.726	17.09
544.071	17.21
544.415	17.37
544.76	17.54
545.105	17.49
545.449	17.7
545.794	17.67
546.138	17.79
546.483	17.84
546.827	17.9
547.171	17.99
547.516	17.93
547.86	17.93
548.204	17.91
548.548	17.87
548.892	17.86
549.236	18.11
549.58	18.07
549.924	18.23
550.268	18.34
550.612	18.56
550.956	18.27
551.3	18.42
551.643	18.24
551.987	18.32
552.33	18.3
552.674	18.45
553.017	18.37
553.361	18.17
553.704	18.52
554.048	18.3
554.391	18.26
554.734	18.46
555.077	18.44
555.42	18.54
555.764	18.51
556.107	18.64
556.45	18.57
556.793	18.73
557.135	18.59
557.478	18.59
557.821	18.83
558.164	18.5
558.507	18.51
558.849	18.9
559.192	18.7
559.534	18.78
559.877	18.78
560.219	18.91
560.562	18.86
560.904	18.93
561.246	18.88
561.589	19.08
561.931	18.85
562.273	19.03
562.615	18.91
562.957	19
563.299	18.9
563.641	18.73
563.983	19.03
564.325	18.88
564.667	19.16
565.008	19.16
565.35	19.3
565.692	19.22
566.033	19.04
566.375	19.06
566.716	19.08
567.058	19.01
567.399	19.13
567.741	18.91
568.082	19.24
568.423	18.97
568.764	19.12
569.105	19.12
569.447	19.2
569.788	19.38
570.129	19.12
570.47	19.31
570.811	19.38
571.151	19.42
571.492	19.42
571.833	19.39
572.174	19.5
572.514	19.36
572.855	19.51
573.195	19.37
573.536	19.53
573.876	19.21
574.217	19.4
574.557	19.39
574.898	19.72
575.238	19.45
575.578	19.46
575.918	19.35
576.258	19.58
576.598	19.57
576.938	19.57
577.278	19.55
577.618	19.49
577.958	19.69
578.298	19.66
578.638	19.69
578.977	19.62
579.317	19.83
579.657	19.71
579.996	19.98
580.336	20.04
580.675	20.09
581.014	19.9
581.354	19.73
581.693	20.02
582.032	19.92
582.372	20.09
582.711	19.95
583.05	19.93
583.389	20.18
583.728	19.89
584.067	20.27
584.406	20.19
584.745	20.01
585.083	19.83
585.422	20.08
585.761	20.27
586.1	20.43
586.438	20.44
586.777	20.42
587.115	20.08
587.454	20.16
587.792	20.55
588.13	20.37
588.469	20.08
588.807	20.4
589.145	20.6
589.483	20.44
589.821	20.42
590.159	20.32
590.497	20.19
590.835	20.59
591.173	20.6
591.511	20.25
591.849	20.21
592.187	20.26
592.524	20.21
592.862	20.29
593.2	20.41
593.537	20.45
593.875	20.49
594.212	20.64
594.55	20.7
594.887	20.55
595.224	20.61
595.561	20.95
595.899	20.8
596.236	20.15
596.573	21.03
596.91	20.8
597.247	20.94
597.584	20.89
597.921	20.83
598.258	20.82
598.594	20.52
598.931	20.56
599.268	20.56
599.604	20.68
599.941	20.52
600.277	21.17
600.614	21.01
600.95	21.17
601.287	20.84
601.623	21
601.959	21.08
602.296	20.63
602.632	21.02
602.968	21.09
603.304	21.14
603.64	21.05
603.976	20.96
604.312	21.61
604.648	20.81
604.984	20.95
605.319	21.22
605.655	21.07
605.991	20.84
606.326	21.11
606.662	21.06
606.998	20.94
607.333	20.75
607.668	21.31
608.004	21.39
608.339	21.36
608.674	21.06
609.01	21.18
609.345	21.35
609.68	21.31
610.015	21.27
610.35	21.26
610.685	21.26
611.02	21.03
611.355	21.17
611.689	21.31
612.024	21.3
612.359	21.54
612.694	21.48
613.028	21.28
613.363	21.48
613.697	21.36
614.032	21.94
614.366	21.67
614.7	21.52
615.035	21.46
615.369	21.47
615.703	21.77
616.037	22.13
616.371	21.75
616.705	21.68
617.039	21.65
617.373	21.76
617.707	21.68
618.041	21.81
618.375	21.78
618.709	21.48
619.042	21.64
619.376	21.58
619.71	21.42
620.043	21.25
620.377	22.16
620.71	21.59
621.043	21.71
621.377	21.95
621.71	22.17
622.043	21.73
622.376	22.2
622.709	22
623.043	21.85
623.376	21.77
623.709	21.87
624.041	21.98
624.374	22.07
624.707	22.01
625.04	22.31
625.373	22.23
625.705	22.14
626.038	22.4
626.37	21.97
626.703	22.41
627.035	22.28
627.368	21.65
627.7	22.3
628.032	22.24
628.365	22.46
628.697	22.21
629.029	22.14
629.361	21.98
629.693	21.94
630.025	22.44
630.357	22.52
630.689	22.52
631.021	22.39
631.353	22.23
631.684	22.23
632.016	22.35
632.348	22.28
632.679	22.51
633.011	22.72
633.342	21.74
633.674	22.34
634.005	23.22
634.336	22.39
634.668	22.96
634.999	22.78
635.33	23
635.661	22.76
635.992	22.15
636.323	22.67
636.654	22.95
636.985	22.72
637.316	22.23
637.647	22.78
637.977	22.32
638.308	22.27
638.639	22.83
638.969	23.11
639.3	22.82
639.63	22.54
639.961	22.48
640.291	22.61
640.622	22.48
640.952	22.14
641.282	23.32
641.612	23.09
641.943	23.27
642.273	22.68
642.603	23.15
642.933	22.27
643.263	22.9
643.592	23.01
643.922	23.22
644.252	23.02
644.582	22.88
644.911	23.19
645.241	23.14
645.571	23.07
645.9	22.49
646.23	23.63
646.559	23.11
646.888	23.22
647.218	22.14
647.547	23.52
647.876	23.45
648.205	23.08
648.534	22.7
648.863	23.7
649.192	23.16
649.521	23.19
649.85	23.47
650.179	22.73
650.508	23.21
650.837	23.47
651.165	23.82
651.494	23.53
651.822	23.5
652.151	23.64
652.479	23.5
652.808	23.63
653.136	23.25
653.465	23.07
653.793	23.03
654.121	23.71
654.449	23.99
654.777	23.94
655.105	23.27
655.433	23.38
655.761	23.74
656.089	22.97
656.417	23.71
656.745	24.15
657.073	24.18
657.4	23.83
657.728	24.59
658.056	23.73
658.383	23.43
658.711	23.48
659.038	23.82
659.365	23.36
659.693	23.77
660.02	24.02
660.347	24.24
660.674	23.26
661.001	23.27
661.329	23.36
661.656	23.33
661.982	24.13
662.309	24.19
662.636	24.08
662.963	23.87
663.29	24.43
663.616	24.53
663.943	23.94
664.27	24.8
664.596	24.19
664.923	23.82
665.249	23.82
665.576	24.03
665.902	23.87
666.228	24.4
666.554	24.31
666.881	24.63
667.207	24.39
667.533	24.09
667.859	24.06
668.185	23.86
668.511	24.33
668.837	24.27
669.162	24.27
669.488	23.93
669.814	24.94
670.139	24.37
670.465	24.23
670.791	24.49
671.116	24.63
671.442	24
671.767	24.11
672.092	24.74
672.418	23.63
672.743	24.81
673.068	23.89
673.393	24.88
673.718	23.98
674.043	24.52
674.368	25.08
674.693	24.51
675.018	24.5
