Data from 23-3_chest_Reflection__1__16.txt Node

Date: Thu Feb 29 22:00:05 CST 2024
User: ToomeyLab
Spectrometer: FLMS14357
Trigger mode: 0
Integration Time (sec): 1.000000E-2
Scans to average: 100
Electric dark correction enabled: true
Nonlinearity correction enabled: false
Boxcar width: 0
XAxis mode: Wavelengths
Number of Pixels in Spectrum: 2048
>>>>>Begin Spectral Data<<<<<
189.047	117.51
189.435	117.51
189.823	117.51
190.211	-16.18
190.599	-24.63
190.987	-41.76
191.375	149.26
191.763	109.59
192.151	68
192.538	206.91
192.926	111.48
193.314	1719.42
193.702	198.23
194.089	-11648.65
194.477	30.58
194.864	30.96
195.252	-16.69
195.639	-293.83
196.027	-161.41
196.414	363.71
196.801	177.46
197.189	85.69
197.576	31.78
197.963	9.58
198.351	-44.5
198.738	-28.24
199.125	-7.53
199.512	27.67
199.899	-2.72
200.286	-32.89
200.673	54.19
201.06	-40.99
201.447	-125.32
201.833	19.54
202.22	-16.33
202.607	-98.09
202.994	-182.79
203.38	-15.8
203.767	22.37
204.154	30.07
204.54	39.54
204.927	25.59
205.313	32.73
205.699	-56.55
206.086	14.73
206.472	20.58
206.858	10.6
207.245	-11.57
207.631	39.64
208.017	13.17
208.403	-0.12
208.789	12.62
209.175	-27.54
209.561	7.93
209.947	18.34
210.333	21.56
210.719	22.21
211.105	-2.67
211.491	-21.79
211.876	25.42
212.262	15.04
212.648	10.03
213.034	-1.51
213.419	-18.57
213.805	10.59
214.19	37.84
214.576	-29.9
214.961	12.97
215.346	-24.43
215.732	-8.88
216.117	-57.26
216.502	-8.83
216.888	1.49
217.273	-12.89
217.658	10.37
218.043	21.36
218.428	6.19
218.813	5.98
219.198	12.08
219.583	-26.69
219.968	-6.13
220.353	-10.27
220.738	-1.88
221.122	-1.54
221.507	5.8
221.892	18.26
222.276	14.27
222.661	-0.69
223.046	-1.68
223.43	-23.02
223.815	-15.01
224.199	-3.58
224.583	-6.45
224.968	2.73
225.352	3.9
225.736	-3.93
226.121	-1.34
226.505	4.23
226.889	-0.58
227.273	-2.86
227.657	-6.16
228.041	2.05
228.425	4.8
228.809	5.45
229.193	1.1
229.577	3.42
229.961	-2.15
230.344	0.74
230.728	1.95
231.112	2.07
231.495	0.96
231.879	1.54
232.263	-0.77
232.646	1.94
233.03	2.36
233.413	0.66
233.797	-0.33
234.18	-0.07
234.563	-1.99
234.946	-0.9
235.33	-0.26
235.713	1.69
236.096	2.34
236.479	1.92
236.862	2.55
237.245	0.74
237.628	0.98
238.011	2.42
238.394	-1.16
238.777	0.91
239.16	2.25
239.543	0.38
239.925	-0.29
240.308	0.6
240.691	2.91
241.073	2.35
241.456	1.67
241.838	0.99
242.221	1.99
242.603	2.23
242.986	2.22
243.368	2.63
243.75	2.31
244.133	1.53
244.515	1.29
244.897	1.45
245.279	1.91
245.661	0.86
246.043	0.9
246.425	3.15
246.807	2.84
247.189	1.27
247.571	2.21
247.953	2.33
248.335	1.44
248.717	1.8
249.098	1.85
249.48	1.74
249.862	1.63
250.243	1.94
250.625	1.81
251.006	2.18
251.388	2.13
251.769	2.24
252.151	2.24
252.532	1.74
252.913	1.3
253.295	1.91
253.676	2.03
254.057	1.14
254.438	2.2
254.819	1.47
255.2	-0.2
255.581	0.68
255.962	1.94
256.343	1.93
256.724	1.04
257.105	2.1
257.486	2.19
257.867	3.21
258.247	2.99
258.628	1.34
259.009	0.76
259.389	1.75
259.77	2.33
260.15	2.77
260.531	2.25
260.911	1.18
261.292	1.39
261.672	1.82
262.052	1.75
262.432	1.35
262.813	1.13
263.193	1.26
263.573	2.05
263.953	0.85
264.333	1.49
264.713	1.72
265.093	2.68
265.473	2.57
265.853	2.96
266.233	1.34
266.612	1.02
266.992	1.78
267.372	0.79
267.752	1.23
268.131	1.92
268.511	1.97
268.89	2.03
269.27	1.06
269.649	2.15
270.029	1.89
270.408	1.46
270.787	1.12
271.167	2.22
271.546	2.56
271.925	1.56
272.304	1.59
272.683	1.87
273.062	1.33
273.441	1.69
273.82	2.26
274.199	1.99
274.578	1.61
274.957	2.07
275.336	2.17
275.715	1.9
276.093	1.72
276.472	2.86
276.851	1.9
277.229	2.04
277.608	1.67
277.986	1.41
278.365	2.67
278.743	1.5
279.122	1.64
279.5	1.07
279.878	1.86
280.257	2.13
280.635	1.76
281.013	1.86
281.391	1.61
281.769	2.19
282.147	1.28
282.525	1.84
282.903	1.62
283.281	1.92
283.659	1.91
284.037	1.8
284.415	0.89
284.792	1.33
285.17	1.2
285.548	1.56
285.925	1.66
286.303	1.36
286.68	1.23
287.058	1.34
287.435	1.79
287.813	1.78
288.19	1.44
288.567	1.27
288.945	1.74
289.322	2.5
289.699	1.49
290.076	1.92
290.453	1.21
290.83	1.63
291.207	1.78
291.584	1.7
291.961	1.61
292.338	2.16
292.715	1.76
293.092	1.83
293.469	2.19
293.845	1.84
294.222	2.06
294.599	0.97
294.975	1.92
295.352	2.19
295.728	2.15
296.105	2.25
296.481	1.79
296.858	1.92
297.234	1.81
297.61	1.68
297.986	2.42
298.363	1.85
298.739	1.97
299.115	2.32
299.491	1.63
299.867	2.23
300.243	1.85
300.619	2.05
300.995	2.36
301.371	2.32
301.746	1.75
302.122	2.38
302.498	2.19
302.874	2.27
303.249	1.67
303.625	2.32
304	2.44
304.376	2.39
304.751	1.88
305.127	2.29
305.502	2.2
305.878	2.65
306.253	1.83
306.628	1.82
307.003	1.92
307.378	2.32
307.754	2.07
308.129	1.73
308.504	2.34
308.879	1.37
309.254	2.22
309.629	2.01
310.003	2.29
310.378	1.93
310.753	2.12
311.128	2.69
311.502	1.99
311.877	1.98
312.252	2.33
312.626	2.08
313.001	2.59
313.375	2.45
313.75	2.35
314.124	2.51
314.498	2.17
314.873	2.46
315.247	1.65
315.621	2.5
315.995	2.16
316.369	2.6
316.743	2.08
317.117	2.46
317.491	1.81
317.865	1.58
318.239	2.39
318.613	2.77
318.987	3
319.361	1.92
319.734	2.66
320.108	2.68
320.482	2.99
320.855	2.07
321.229	2.22
321.602	2.47
321.976	2.39
322.349	2.37
322.723	2.34
323.096	2.59
323.469	2.18
323.843	2.63
324.216	2.83
324.589	2.42
324.962	2.08
325.335	1.99
325.708	2.96
326.081	2.28
326.454	2.19
326.827	2.02
327.2	2.3
327.573	3.1
327.945	2.91
328.318	2.25
328.691	2.73
329.063	2.1
329.436	2.06
329.809	2.2
330.181	2.92
330.553	3.19
330.926	2.76
331.298	2.43
331.671	2.15
332.043	2.64
332.415	2.51
332.787	2.05
333.159	1.92
333.532	2.29
333.904	3.18
334.276	2.96
334.648	2.89
335.02	2.32
335.391	2.04
335.763	1.92
336.135	2.42
336.507	2.3
336.879	2.56
337.25	2.64
337.622	2.32
337.993	2.69
338.365	2.22
338.736	2.34
339.108	2.86
339.479	2.82
339.851	2.24
340.222	3.32
340.593	2.83
340.964	2.68
341.336	2.56
341.707	2.26
342.078	2.54
342.449	2.81
342.82	2.75
343.191	2.37
343.562	2.61
343.933	2.65
344.303	2.8
344.674	2.83
345.045	2.83
345.416	2.54
345.786	2.52
346.157	2.36
346.527	2.82
346.898	2.92
347.268	2.55
347.639	2.9
348.009	2.72
348.38	2.81
348.75	3.25
349.12	3.16
349.49	2.66
349.861	2.59
350.231	2.79
350.601	2.55
350.971	2.47
351.341	2.81
351.711	3.08
352.081	2.86
352.45	2.35
352.82	2.37
353.19	3.05
353.56	2.77
353.929	2.42
354.299	2.13
354.669	2.18
355.038	2.53
355.408	3.41
355.777	2.8
356.147	2.76
356.516	2.9
356.885	2.4
357.254	2.96
357.624	2.73
357.993	2.78
358.362	3.11
358.731	2.76
359.1	3.16
359.469	2.73
359.838	2.55
360.207	2.46
360.576	2.48
360.945	2.53
361.314	3.23
361.682	2.33
362.051	3.08
362.42	3.3
362.788	2.78
363.157	2.65
363.525	2.74
363.894	2.9
364.262	2.56
364.631	2.95
364.999	2.42
365.367	2.67
365.735	2.46
366.104	2.95
366.472	2.49
366.84	2.89
367.208	2.78
367.576	2.62
367.944	2.75
368.312	3.18
368.68	3
369.048	2.88
369.416	3.14
369.783	2.57
370.151	3
370.519	3.26
370.886	2.79
371.254	3.21
371.621	2.89
371.989	2.73
372.356	2.62
372.724	2.55
373.091	2.96
373.458	3.06
373.826	3.29
374.193	2.83
374.56	2.82
374.927	3.26
375.294	2.57
375.661	2.94
376.028	3.15
376.395	2.93
376.762	3.06
377.129	2.63
377.496	3.13
377.863	2.71
378.229	2.64
378.596	2.65
378.963	3
379.329	3.08
379.696	2.97
380.062	3.15
380.429	3.34
380.795	3.12
381.161	3.22
381.528	2.95
381.894	2.9
382.26	2.61
382.626	2.76
382.993	2.8
383.359	2.97
383.725	2.99
384.091	2.74
384.457	2.95
384.823	3.02
385.188	2.94
385.554	2.98
385.92	3.03
386.286	3.07
386.651	3.06
387.017	2.9
387.383	3.24
387.748	2.96
388.114	2.79
388.479	3.19
388.845	3.05
389.21	3.05
389.575	2.92
389.94	3.29
390.306	2.86
390.671	2.87
391.036	3.35
391.401	3.16
391.766	3.14
392.131	2.81
392.496	2.99
392.861	3.16
393.226	3.01
393.591	3.07
393.956	3.22
394.32	3.09
394.685	2.97
395.05	2.99
395.414	3.17
395.779	2.92
396.143	3.15
396.508	3.14
396.872	3.03
397.236	3
397.601	3.02
397.965	3.16
398.329	3.04
398.694	2.84
399.058	3.28
399.422	2.91
399.786	3.22
400.15	2.92
400.514	3.07
400.878	3.17
401.242	3.05
401.605	2.94
401.969	3.32
402.333	3.05
402.697	2.66
403.06	3.23
403.424	3.42
403.787	2.97
404.151	3.24
404.514	3.25
404.878	3.16
405.241	3.15
405.604	3.15
405.968	3.14
406.331	2.99
406.694	3.22
407.057	3.08
407.42	3.08
407.783	3.19
408.146	3.42
408.509	3.09
408.872	3.03
409.235	3.18
409.598	3.31
409.961	3.21
410.323	3.23
410.686	3.14
411.049	3.03
411.411	3.04
411.774	3.22
412.136	3.17
412.499	3
412.861	3.09
413.223	3.05
413.586	3.24
413.948	3.07
414.31	3.42
414.672	2.97
415.035	3.45
415.397	3.21
415.759	3.19
416.121	3.44
416.483	3.48
416.845	3.39
417.206	3.1
417.568	3.13
417.93	3.3
418.292	3.43
418.653	3.09
419.015	3.12
419.377	3.24
419.738	3.13
420.1	3.01
420.461	3.15
420.822	3.23
421.184	3.31
421.545	3.17
421.906	3.21
422.267	3.11
422.629	3.17
422.99	3.18
423.351	3.21
423.712	3.11
424.073	3.01
424.434	3.03
424.795	3.26
425.155	3.22
425.516	3.1
425.877	3.17
426.238	3.14
426.598	3.26
426.959	3.2
427.32	3.34
427.68	3.19
428.041	3.14
428.401	3.35
428.761	3.46
429.122	3.39
429.482	3.25
429.842	3.35
430.202	3.33
430.563	3.63
430.923	3.26
431.283	3.22
431.643	3.41
432.003	3.65
432.363	3.21
432.722	3.37
433.082	3.25
433.442	3.32
433.802	3.46
434.161	3.48
434.521	3.19
434.881	3.21
435.24	3.35
435.6	3.12
435.959	3.28
436.319	3.37
436.678	3.26
437.037	3.24
437.396	3.29
437.756	3.38
438.115	3.32
438.474	3.2
438.833	3.51
439.192	3.36
439.551	3.29
439.91	3.36
440.269	3.23
440.628	3.38
440.987	3.33
441.345	3.4
441.704	3.43
442.063	3.38
442.421	3.38
442.78	3.3
443.138	3.2
443.497	3.32
443.855	3.36
444.214	3.42
444.572	3.53
444.93	3.37
445.288	3.31
445.647	3.39
446.005	3.52
446.363	3.48
446.721	3.39
447.079	3.37
447.437	3.29
447.795	3.43
448.153	3.32
448.51	3.4
448.868	3.36
449.226	3.43
449.584	3.41
449.941	3.49
450.299	3.53
450.656	3.35
451.014	3.35
451.371	3.47
451.729	3.63
452.086	3.3
452.443	3.39
452.801	3.65
453.158	3.55
453.515	3.35
453.872	3.46
454.229	3.46
454.586	3.37
454.943	3.46
455.3	3.53
455.657	3.47
456.014	3.53
456.371	3.32
456.727	3.36
457.084	3.38
457.441	3.6
457.797	3.44
458.154	3.67
458.51	3.53
458.867	3.71
459.223	3.44
459.58	3.66
459.936	3.71
460.292	3.28
460.648	3.42
461.005	3.53
461.361	3.54
461.717	3.39
462.073	3.45
462.429	3.55
462.785	3.56
463.141	3.59
463.496	3.72
463.852	3.51
464.208	3.5
464.564	3.73
464.919	3.59
465.275	3.69
465.631	3.68
465.986	3.71
466.342	3.53
466.697	3.59
467.052	3.51
467.408	3.55
467.763	3.65
468.118	3.59
468.473	3.71
468.829	3.45
469.184	3.5
469.539	3.76
469.894	3.58
470.249	3.52
470.603	3.64
470.958	3.9
471.313	3.52
471.668	3.75
472.023	3.65
472.377	3.6
472.732	3.86
473.086	3.57
473.441	3.68
473.795	3.67
474.15	3.58
474.504	3.8
474.859	3.73
475.213	3.78
475.567	3.85
475.921	3.94
476.275	3.6
476.63	3.62
476.984	3.75
477.338	3.66
477.692	3.74
478.045	3.69
478.399	3.69
478.753	3.78
479.107	3.8
479.461	3.64
479.814	3.79
480.168	3.7
480.521	3.74
480.875	3.71
481.228	3.63
481.582	3.85
481.935	3.82
482.289	3.87
482.642	3.71
482.995	3.7
483.348	3.71
483.701	3.74
484.055	3.63
484.408	3.78
484.761	3.74
485.114	3.43
485.466	3.44
485.819	3.5
486.172	3.55
486.525	3.56
486.878	3.63
487.23	3.66
487.583	3.73
487.936	3.73
488.288	3.69
488.641	3.61
488.993	3.65
489.345	3.57
489.698	3.62
490.05	3.57
490.402	3.69
490.754	3.76
491.107	3.78
491.459	3.75
491.811	3.89
492.163	3.86
492.515	3.82
492.866	3.7
493.218	3.66
493.57	3.65
493.922	3.69
494.274	3.72
494.625	3.85
494.977	3.92
495.328	3.88
495.68	3.91
496.031	3.89
496.383	3.83
496.734	3.99
497.086	3.78
497.437	3.93
497.788	3.83
498.139	3.98
498.49	3.99
498.842	3.91
499.193	3.95
499.544	4.1
499.894	3.79
500.245	3.92
500.596	3.87
500.947	3.94
501.298	4.14
501.648	3.98
501.999	4.09
502.35	4.04
502.7	4.01
503.051	3.93
503.401	3.89
503.752	4.04
504.102	4.1
504.452	4.11
504.803	3.92
505.153	3.97
505.503	4.29
505.853	4.12
506.203	4.09
506.553	4.04
506.903	4.03
507.253	4.11
507.603	4.15
507.953	4.02
508.303	3.98
508.652	4.1
509.002	4.17
509.352	3.96
509.701	4.2
510.051	4.11
510.4	4.12
510.75	3.96
511.099	4.04
511.449	4.09
511.798	4.03
512.147	4.19
512.496	4.08
512.846	4.08
513.195	4.1
513.544	4.27
513.893	4.14
514.242	4.24
514.591	4.18
514.939	4.22
515.288	4.29
515.637	4.23
515.986	4.2
516.334	4.2
516.683	4.19
517.032	4.33
517.38	4.22
517.729	4.19
518.077	4.35
518.426	4.29
518.774	4.18
519.122	4.28
519.47	4.18
519.819	4.3
520.167	4.14
520.515	4.13
520.863	4.21
521.211	4.16
521.559	4.39
521.907	4.29
522.255	4.28
522.602	4.24
522.95	4.26
523.298	4.21
523.645	4.29
523.993	4.39
524.341	4.35
524.688	4.43
525.036	4.39
525.383	4.51
525.73	4.48
526.078	4.57
526.425	4.35
526.772	4.24
527.119	4.37
527.466	4.34
527.814	4.21
528.161	4.4
528.508	4.43
528.854	4.39
529.201	4.32
529.548	4.26
529.895	4.18
530.242	4.1
530.588	4.14
530.935	4.23
531.282	4.21
531.628	4.28
531.975	4.33
532.321	4.4
532.667	4.46
533.014	4.52
533.36	4.37
533.706	4.57
534.052	4.41
534.399	4.54
534.745	4.41
535.091	4.26
535.437	4.37
535.783	4.44
536.129	4.45
536.474	4.55
536.82	4.55
537.166	4.58
537.512	4.68
537.857	4.69
538.203	4.56
538.549	4.54
538.894	4.61
539.239	4.56
539.585	4.6
539.93	4.59
540.276	4.79
540.621	4.57
540.966	4.62
541.311	4.73
541.656	4.65
542.001	4.62
542.346	4.67
542.691	4.58
543.036	4.53
543.381	4.44
543.726	4.54
544.071	4.59
544.415	4.65
544.76	4.69
545.105	4.62
545.449	4.6
545.794	4.73
546.138	4.79
546.483	4.8
546.827	4.93
547.171	4.79
547.516	4.95
547.86	4.85
548.204	4.83
548.548	4.81
548.892	4.91
549.236	4.84
549.58	5.01
549.924	4.94
550.268	5
550.612	4.99
550.956	4.78
551.3	4.98
551.643	4.94
551.987	5.13
552.33	4.95
552.674	5.12
553.017	4.89
553.361	5.04
553.704	5.07
554.048	5.13
554.391	5
554.734	5.17
555.077	5.04
555.42	5.13
555.764	5.06
556.107	5.27
556.45	5.22
556.793	5.25
557.135	5.16
557.478	5.23
557.821	5.24
558.164	5.26
558.507	5.29
558.849	5.43
559.192	5.18
559.534	5.15
559.877	5.15
560.219	5.15
560.562	5.34
560.904	5.44
561.246	5.13
561.589	5.27
561.931	5.31
562.273	5.51
562.615	5.3
562.957	5.51
563.299	5.39
563.641	5.43
563.983	5.44
564.325	5.34
564.667	5.47
565.008	5.38
565.35	5.7
565.692	5.41
566.033	5.61
566.375	5.37
566.716	5.46
567.058	5.53
567.399	5.64
567.741	5.45
568.082	5.64
568.423	5.39
568.764	5.58
569.105	5.42
569.447	5.66
569.788	5.85
570.129	5.59
570.47	5.64
570.811	5.57
571.151	5.98
571.492	5.84
571.833	5.82
572.174	5.91
572.514	5.69
572.855	5.78
573.195	5.77
573.536	5.74
573.876	5.75
574.217	5.79
574.557	5.63
574.898	5.86
575.238	5.96
575.578	5.97
575.918	5.99
576.258	6
576.598	5.9
576.938	5.95
577.278	5.92
577.618	5.72
577.958	5.88
578.298	6.14
578.638	6.08
578.977	6.02
579.317	6.27
579.657	6.01
579.996	6.12
580.336	6.16
580.675	6.23
581.014	6.16
581.354	5.94
581.693	6.1
582.032	6.38
582.372	6.39
582.711	6.45
583.05	6.21
583.389	6.45
583.728	6.1
584.067	6.1
584.406	6.3
584.745	6.41
585.083	6.13
585.422	6.74
585.761	6.47
586.1	6.32
586.438	6.33
586.777	6.36
587.115	6.3
587.454	6.32
587.792	6.72
588.13	6.55
588.469	6.18
588.807	6.57
589.145	6.46
589.483	6.72
589.821	6.18
590.159	6.59
590.497	6.57
590.835	6.71
591.173	6.99
591.511	6.53
591.849	6.61
592.187	6.51
592.524	6.57
592.862	6.69
593.2	6.53
593.537	6.8
593.875	6.93
594.212	6.68
594.55	6.77
594.887	6.82
595.224	6.81
595.561	6.75
595.899	7.03
596.236	6.69
596.573	7.14
596.91	6.97
597.247	7.13
597.584	6.8
597.921	6.6
598.258	6.79
598.594	7.04
598.931	7.01
599.268	6.85
599.604	7.02
599.941	6.94
600.277	6.81
600.614	7.09
600.95	6.88
601.287	7.28
601.623	7.19
601.959	6.9
602.296	7.1
602.632	7.39
602.968	7.31
603.304	7.2
603.64	7.34
603.976	7.51
604.312	7.48
604.648	7.28
604.984	7.37
605.319	7.53
605.655	7.32
605.991	7.18
606.326	7.37
606.662	7.46
606.998	7.36
607.333	7.3
607.668	7.36
608.004	7.35
608.339	7.43
608.674	7.31
609.01	7.53
609.345	7.78
609.68	7.4
610.015	7.55
610.35	7.91
610.685	7.91
611.02	7.62
611.355	7.67
611.689	7.73
612.024	7.64
612.359	7.73
612.694	8.02
613.028	7.52
613.363	8.13
613.697	7.95
614.032	8
614.366	7.74
614.7	7.44
615.035	7.66
615.369	7.77
615.703	8.1
616.037	8.14
616.371	7.92
616.705	7.84
617.039	7.97
617.373	8.3
617.707	7.89
618.041	7.87
618.375	8.83
618.709	8.01
619.042	8.17
619.376	7.85
619.71	8.08
620.043	8.08
620.377	8.44
620.71	8.21
621.043	8.41
621.377	8.19
621.71	8.45
622.043	8.62
622.376	8.49
622.709	8.84
623.043	8.69
623.376	8.49
623.709	7.71
624.041	8.37
624.374	8.32
624.707	8.29
625.04	8.3
625.373	8.61
625.705	8.66
626.038	8.44
626.37	8.63
626.703	8.88
627.035	8.76
627.368	8.54
627.7	8.87
628.032	8.52
628.365	8.96
628.697	8.29
629.029	8.85
629.361	8.72
629.693	8.78
630.025	8.66
630.357	8.81
630.689	9
631.021	8.96
631.353	8.69
631.684	8.63
632.016	8.55
632.348	9.28
632.679	8.89
633.011	9.15
633.342	8.55
633.674	8.44
634.005	9.43
634.336	8.93
634.668	9.45
634.999	9.25
635.33	9.08
635.661	8.7
635.992	9.13
636.323	9.04
636.654	9.23
636.985	9.23
637.316	9.2
637.647	9.32
637.977	9.13
638.308	9.28
638.639	9.72
638.969	9.38
639.3	9.55
639.63	9.4
639.961	9.55
640.291	9.17
640.622	9.74
640.952	9.23
641.282	9.82
641.612	9.75
641.943	9.52
642.273	9.65
642.603	9.64
642.933	9.9
643.263	10.02
643.592	9.64
643.922	9.62
644.252	9.57
644.582	9.61
644.911	9.55
645.241	9.5
645.571	10.06
645.9	9.39
646.23	10.25
646.559	9.93
646.888	10.23
647.218	9.71
647.547	10.08
647.876	10.21
648.205	9.72
648.534	9.45
648.863	10.5
649.192	10.48
649.521	10.22
649.85	9.88
650.179	9.66
650.508	9.75
650.837	10.28
651.165	10.36
651.494	10.53
651.822	9.71
652.151	10.33
652.479	9.85
652.808	9.98
653.136	10.19
653.465	10.14
653.793	9.9
654.121	10.61
654.449	10.84
654.777	10.76
655.105	10.05
655.433	10.29
655.761	10.65
656.089	9.76
656.417	9.78
656.745	10.87
657.073	10.67
657.4	10.97
657.728	10.87
658.056	10.86
658.383	10.7
658.711	10.97
659.038	10.71
659.365	10.99
659.693	11.27
660.02	10.99
660.347	11.21
660.674	10.5
661.001	10.8
661.329	10.57
661.656	11.01
661.982	10.64
662.309	10.85
662.636	10.83
662.963	10.65
663.29	11.31
663.616	11.19
663.943	10.5
664.27	11.33
664.596	11.22
664.923	11.41
665.249	10.96
665.576	11.64
665.902	11.39
666.228	11.41
666.554	10.87
666.881	11.65
667.207	11.06
667.533	11.2
667.859	11.21
668.185	11.64
668.511	11.44
668.837	11.83
669.162	11.5
669.488	11.7
669.814	11.68
670.139	10.99
670.465	11.44
670.791	11.56
671.116	12.04
671.442	11.6
671.767	11.16
672.092	11.73
672.418	11.74
672.743	11.9
673.068	11.46
673.393	11.33
673.718	11.51
674.043	12.05
674.368	12.41
674.693	12.23
675.018	12.02
675.343	11.84
675.667	11.88
675.992	11.8
676.317	12.12
676.641	11.76
676.966	12.35
677.29	11.86
677.615	12.42
677.939	11.97
678.264	13
678.588	12.27
678.912	11.86
679.236	11.87
679.56	13
679.885	12.27
680.209	12.49
680.532	12.86
680.856	12.49
681.18	11.81
681.504	12.35
681.828	11.73
682.152	12.28
682.475	12.51
682.799	12.31
683.122	12.48
683.446	13
683.769	12.59
684.093	13.43
684.416	12.93
684.739	12.45
685.062	12.72
685.386	13.6
685.709	12.18
686.032	12.73
686.355	13.51
686.678	12.74
687.001	12.29
687.324	12.87
687.646	12.78
687.969	12.9
688.292	14.41
688.614	12.47
688.937	12.55
