Data from 23-3_crown_Reflection__1__21.txt Node

Date: Thu Feb 29 22:02:29 CST 2024
User: ToomeyLab
Spectrometer: FLMS14357
Trigger mode: 0
Integration Time (sec): 1.000000E-2
Scans to average: 100
Electric dark correction enabled: true
Nonlinearity correction enabled: false
Boxcar width: 0
XAxis mode: Wavelengths
Number of Pixels in Spectrum: 2048
>>>>>Begin Spectral Data<<<<<
189.047	53.72
189.435	53.72
189.823	53.72
190.211	-371.08
190.599	-9.25
190.987	-299.69
191.375	-79.83
191.763	121.42
192.151	108.62
192.538	76.14
192.926	-56.74
193.314	48.92
193.702	83.72
194.089	854.05
194.477	-35.22
194.864	75.86
195.252	315.73
195.639	243.95
196.027	203
196.414	141.65
196.801	-707.98
197.189	10.57
197.576	-47.23
197.963	-34.07
198.351	-14.52
198.738	-15.89
199.125	-21.22
199.512	9.55
199.899	-1.37
200.286	-75.11
200.673	55.15
201.06	-20.84
201.447	-42.03
201.833	-10.74
202.22	-24.13
202.607	-34.72
202.994	-42.85
203.38	-60.4
203.767	-21.18
204.154	10.09
204.54	26.02
204.927	13.4
205.313	-9.9
205.699	-65.5
206.086	5.7
206.472	-0.5
206.858	-21.83
207.245	-2.47
207.631	-8.96
208.017	27.06
208.403	-115.37
208.789	-11.81
209.175	-52.22
209.561	-13.93
209.947	20.57
210.333	0.12
210.719	-7.1
211.105	9.92
211.491	1.11
211.876	3.06
212.262	8.96
212.648	-24.29
213.034	-9.08
213.419	3.11
213.805	5.99
214.19	-12.06
214.576	1.85
214.961	29.91
215.346	-14.48
215.732	12.13
216.117	-23.21
216.502	-8.82
216.888	-34.73
217.273	9.7
217.658	7.64
218.043	2.83
218.428	7.66
218.813	-6.63
219.198	10
219.583	-29.67
219.968	-6.27
220.353	-14.7
220.738	0.62
221.122	-15.9
221.507	25.62
221.892	4.95
222.276	16.68
222.661	-0.74
223.046	0.98
223.43	-6.27
223.815	2.9
224.199	6.66
224.583	-2.27
224.968	-3.35
225.352	7.03
225.736	2.09
226.121	2.14
226.505	18.31
226.889	5.81
227.273	-5.96
227.657	-5.3
228.041	1.89
228.425	6.72
228.809	8.28
229.193	3.08
229.577	4.62
229.961	3.13
230.344	4.21
230.728	3
231.112	4.79
231.495	3.69
231.879	3.83
232.263	2.31
232.646	5.1
233.03	4.42
233.413	3.31
233.797	2.54
234.18	1.65
234.563	1.95
234.946	0.52
235.33	5.67
235.713	3.69
236.096	3.63
236.479	4.24
236.862	4.62
237.245	3.42
237.628	3.33
238.011	5.44
238.394	3.42
238.777	1.96
239.16	3.68
239.543	1.72
239.925	2.99
240.308	6.13
240.691	4.27
241.073	3.25
241.456	3.64
241.838	4.3
242.221	4.1
242.603	3.52
242.986	3.84
243.368	3.92
243.75	4.32
244.133	3.85
244.515	3.64
244.897	4.68
245.279	4.18
245.661	2.95
246.043	2.47
246.425	4.71
246.807	3.95
247.189	3.12
247.571	3.35
247.953	4.18
248.335	3.47
248.717	3.69
249.098	3.9
249.48	3.78
249.862	4.03
250.243	4.32
250.625	4.04
251.006	4.4
251.388	3.64
251.769	3.86
252.151	4.4
252.532	4.5
252.913	3.46
253.295	3.6
253.676	3.38
254.057	4.19
254.438	3.97
254.819	3.57
255.2	1.73
255.581	2.06
255.962	3.29
256.343	4.07
256.724	3.23
257.105	3.82
257.486	2.98
257.867	4.52
258.247	3.69
258.628	3.04
259.009	3.79
259.389	3.47
259.77	4.9
260.15	4.77
260.531	4.18
260.911	3.77
261.292	3.54
261.672	3.89
262.052	3.81
262.432	3.84
262.813	3.47
263.193	3.68
263.573	3.49
263.953	4.44
264.333	4.17
264.713	4.07
265.093	4.47
265.473	4.63
265.853	3.69
266.233	3.69
266.612	3.53
266.992	3.67
267.372	2.43
267.752	3.18
268.131	3.82
268.511	3.85
268.89	3.63
269.27	3.51
269.649	3.64
270.029	3.55
270.408	3.43
270.787	3.32
271.167	4.14
271.546	3.99
271.925	3.35
272.304	3.96
272.683	4.16
273.062	3.58
273.441	3.44
273.82	3.38
274.199	3.88
274.578	3.59
274.957	4.09
275.336	4.39
275.715	4.26
276.093	3.74
276.472	4.07
276.851	3.17
277.229	3.34
277.608	3.9
277.986	3.26
278.365	4.39
278.743	3.22
279.122	2.89
279.5	2.94
279.878	3.88
280.257	3.87
280.635	3.42
281.013	3.92
281.391	2.36
281.769	3.58
282.147	2.89
282.525	3.81
282.903	3.15
283.281	3.66
283.659	3.87
284.037	3.58
284.415	3
284.792	3.21
285.17	3
285.548	3.62
285.925	3.06
286.303	3.75
286.68	3.2
287.058	3.84
287.435	3.48
287.813	3.78
288.19	3.27
288.567	3.43
288.945	3.74
289.322	3.26
289.699	3.82
290.076	3.85
290.453	3.15
290.83	3.31
291.207	3.2
291.584	3.68
291.961	3.85
292.338	3.72
292.715	3.61
293.092	3.39
293.469	3.63
293.845	3.97
294.222	3.18
294.599	2.54
294.975	3.24
295.352	4.2
295.728	3.98
296.105	3.95
296.481	3.07
296.858	3.55
297.234	2.98
297.61	3.51
297.986	4.06
298.363	3.39
298.739	3.24
299.115	3.73
299.491	3.69
299.867	3.74
300.243	3.84
300.619	3.56
300.995	4.23
301.371	3.92
301.746	3.3
302.122	3.64
302.498	4.12
302.874	3.6
303.249	3.09
303.625	4.11
304	3.98
304.376	3.77
304.751	3.24
305.127	3.36
305.502	3.28
305.878	4.09
306.253	3.32
306.628	2.8
307.003	3.88
307.378	3.79
307.754	4.21
308.129	3.8
308.504	4.15
308.879	3.25
309.254	3.49
309.629	3.18
310.003	3.54
310.378	2.91
310.753	3.61
311.128	3.59
311.502	3.95
311.877	3.39
312.252	3.87
312.626	3.8
313.001	3.48
313.375	3.68
313.75	4.01
314.124	4.18
314.498	3.6
314.873	3.21
315.247	2.44
315.621	3.93
315.995	4.03
316.369	3.38
316.743	3.16
317.117	3.64
317.491	2.75
317.865	3.47
318.239	3.29
318.613	3.84
318.987	4.1
319.361	3.81
319.734	3.84
320.108	3.73
320.482	3.99
320.855	3.6
321.229	3.91
321.602	4.03
321.976	2.87
322.349	3.49
322.723	3.73
323.096	4.08
323.469	3.19
323.843	3.09
324.216	3.04
324.589	3.46
324.962	3.62
325.335	3.73
325.708	4.21
326.081	3.02
326.454	3.41
326.827	3.58
327.2	3.9
327.573	3.95
327.945	4.08
328.318	3.48
328.691	3.99
329.063	3.2
329.436	3.53
329.809	3.62
330.181	3.48
330.553	4.19
330.926	3.56
331.298	3.69
331.671	3.18
332.043	3.91
332.415	3.73
332.787	2.91
333.159	3.89
333.532	4.08
333.904	3.91
334.276	3.62
334.648	3.42
335.02	3.5
335.391	3.04
335.763	2.59
336.135	3.38
336.507	3.02
336.879	3.64
337.25	4.01
337.622	3.62
337.993	3.71
338.365	3.45
338.736	3.66
339.108	4.29
339.479	3.76
339.851	3.64
340.222	3.98
340.593	3.3
340.964	3.99
341.336	3.43
341.707	3.41
342.078	3.43
342.449	3.78
342.82	3.73
343.191	3.21
343.562	3.51
343.933	3.55
344.303	4.11
344.674	3.79
345.045	3.79
345.416	3.39
345.786	3.41
346.157	3.61
346.527	3.72
346.898	4.06
347.268	3.69
347.639	3.85
348.009	3.62
348.38	3.97
348.75	3.75
349.12	3.62
349.49	3.45
349.861	3.5
350.231	3.38
350.601	3.93
350.971	3.57
351.341	3.49
351.711	4.07
352.081	4.08
352.45	3.57
352.82	4.03
353.19	4.28
353.56	3.54
353.929	4.34
354.299	3.24
354.669	3.7
355.038	3.88
355.408	4.15
355.777	3.86
356.147	3.26
356.516	3.75
356.885	3.88
357.254	3.87
357.624	3.95
357.993	3.91
358.362	3.8
358.731	3.83
359.1	4.29
359.469	3.96
359.838	3.76
360.207	3.96
360.576	4.04
360.945	3.71
361.314	3.78
361.682	3.58
362.051	3.89
362.42	4.05
362.788	4.07
363.157	3.57
363.525	3.67
363.894	3.88
364.262	3.69
364.631	3.81
364.999	3.51
365.367	3.73
365.735	4.05
366.104	4.07
366.472	3.15
366.84	3.77
367.208	3.9
367.576	4.16
367.944	3.35
368.312	3.9
368.68	3.53
369.048	3.86
369.416	3.85
369.783	3.42
370.151	4
370.519	3.87
370.886	3.81
371.254	3.97
371.621	3.98
371.989	3.6
372.356	3.67
372.724	4.09
373.091	3.92
373.458	3.98
373.826	4.06
374.193	3.79
374.56	3.75
374.927	4.08
375.294	3.75
375.661	3.88
376.028	4.16
376.395	3.88
376.762	4.26
377.129	3.82
377.496	4.04
377.863	3.85
378.229	3.81
378.596	3.56
378.963	4
379.329	3.91
379.696	3.75
380.062	3.88
380.429	3.62
380.795	4.26
381.161	3.94
381.528	3.83
381.894	3.81
382.26	3.76
382.626	4.06
382.993	3.64
383.359	3.96
383.725	4.05
384.091	4.1
384.457	3.78
384.823	4.18
385.188	3.86
385.554	3.74
385.92	3.99
386.286	3.66
386.651	3.8
387.017	3.92
387.383	3.87
387.748	3.91
388.114	3.93
388.479	4.05
388.845	3.77
389.21	3.97
389.575	4.04
389.94	3.78
390.306	3.84
390.671	3.76
391.036	4.05
391.401	4.03
391.766	3.67
392.131	3.78
392.496	3.98
392.861	4.08
393.226	4.12
393.591	4.39
393.956	4.08
394.32	4.12
394.685	4.03
395.05	3.94
395.414	4.1
395.779	4.05
396.143	4.13
396.508	4.12
396.872	4.11
397.236	4.02
397.601	4.05
397.965	4.3
398.329	3.88
398.694	3.93
399.058	3.95
399.422	3.75
399.786	3.96
400.15	3.84
400.514	3.8
400.878	3.93
401.242	3.83
401.605	4.1
401.969	4.4
402.333	3.91
402.697	4.06
403.06	4.46
403.424	4.22
403.787	3.94
404.151	4.06
404.514	4.29
404.878	4.09
405.241	4.18
405.604	4.08
405.968	4.06
406.331	3.84
406.694	4.21
407.057	4.03
407.42	4.14
407.783	3.85
408.146	4.16
408.509	3.87
408.872	4.4
409.235	3.97
409.598	4.28
409.961	4.12
410.323	4.34
410.686	4.07
411.049	4.08
411.411	3.94
411.774	4.06
412.136	3.93
412.499	4.05
412.861	4.06
413.223	4.01
413.586	4.26
413.948	3.92
414.31	4.35
414.672	4.18
415.035	4.18
415.397	3.95
415.759	4.25
416.121	4.27
416.483	4.09
416.845	4.28
417.206	4.09
417.568	4.11
417.93	4.35
418.292	4.35
418.653	4.22
419.015	4.11
419.377	4.05
419.738	4.06
420.1	4.13
420.461	4.07
420.822	4.04
421.184	4.03
421.545	4.12
421.906	4.14
422.267	4.19
422.629	4.08
422.99	4.04
423.351	4.15
423.712	4.04
424.073	3.97
424.434	3.97
424.795	4.08
425.155	4.12
425.516	4.1
425.877	4.12
426.238	4.09
426.598	4.15
426.959	4.05
427.32	4.22
427.68	4.15
428.041	4.11
428.401	4.13
428.761	4.21
429.122	4.37
429.482	4.15
429.842	4.2
430.202	4.29
430.563	4.28
430.923	4.27
431.283	4.17
431.643	4.27
432.003	4.35
432.363	4.16
432.722	4.26
433.082	4.01
433.442	4.45
433.802	4.44
434.161	4.4
434.521	4.2
434.881	4.13
435.24	4.41
435.6	4.06
435.959	4.32
436.319	4.17
436.678	3.96
437.037	4.11
437.396	4.17
437.756	4.15
438.115	4.04
438.474	4.13
438.833	4.43
439.192	4.21
439.551	4.28
439.91	4.27
440.269	4.15
440.628	4.29
440.987	4.2
441.345	4.3
441.704	4.25
442.063	4.25
442.421	4.22
442.78	4.19
443.138	4.2
443.497	4.21
443.855	4.21
444.214	4.44
444.572	4.39
444.93	4.25
445.288	4.24
445.647	4.1
446.005	4.47
446.363	4.22
446.721	4.24
447.079	4.13
447.437	4.17
447.795	4.26
448.153	4.31
448.51	4.29
448.868	4.2
449.226	4.3
449.584	4.21
449.941	4.3
450.299	4.25
450.656	4.2
451.014	4.32
451.371	4.29
451.729	4.44
452.086	4.24
452.443	4.19
452.801	4.49
453.158	4.45
453.515	4.38
453.872	4.41
454.229	4.31
454.586	4.31
454.943	4.51
455.3	4.33
455.657	4.46
456.014	4.42
456.371	4.37
456.727	4.41
457.084	4.27
457.441	4.72
457.797	4.28
458.154	4.54
458.51	4.37
458.867	4.44
459.223	4.2
459.58	4.4
459.936	4.39
460.292	4.32
460.648	4.32
461.005	4.32
461.361	4.32
461.717	4.34
462.073	4.27
462.429	4.3
462.785	4.35
463.141	4.3
463.496	4.58
463.852	4.53
464.208	4.27
464.564	4.44
464.919	4.43
465.275	4.46
465.631	4.37
465.986	4.59
466.342	4.19
466.697	4.27
467.052	4.41
467.408	4.34
467.763	4.3
468.118	4.49
468.473	4.48
468.829	4.5
469.184	4.27
469.539	4.58
469.894	4.31
470.249	4.45
470.603	4.33
470.958	4.57
471.313	4.35
471.668	4.29
472.023	4.42
472.377	4.41
472.732	4.66
473.086	4.53
473.441	4.52
473.795	4.46
474.15	4.27
474.504	4.66
474.859	4.47
475.213	4.5
475.567	4.49
475.921	4.6
476.275	4.44
476.63	4.45
476.984	4.6
477.338	4.48
477.692	4.54
478.045	4.3
478.399	4.52
478.753	4.47
479.107	4.58
479.461	4.36
479.814	4.52
480.168	4.48
480.521	4.48
480.875	4.47
481.228	4.39
481.582	4.52
481.935	4.55
482.289	4.63
482.642	4.55
482.995	4.45
483.348	4.39
483.701	4.47
484.055	4.46
484.408	4.46
484.761	4.35
485.114	4.26
485.466	4.19
485.819	4.17
486.172	4.28
486.525	4.32
486.878	4.41
487.23	4.39
487.583	4.46
487.936	4.55
488.288	4.42
488.641	4.37
488.993	4.27
489.345	4.32
489.698	4.29
490.05	4.31
490.402	4.43
490.754	4.44
491.107	4.44
491.459	4.48
491.811	4.56
492.163	4.46
492.515	4.59
492.866	4.41
493.218	4.34
493.57	4.34
493.922	4.43
494.274	4.42
494.625	4.46
494.977	4.55
495.328	4.58
495.68	4.63
496.031	4.61
496.383	4.36
496.734	4.5
497.086	4.46
497.437	4.8
497.788	4.65
498.139	4.64
498.49	4.66
498.842	4.49
499.193	4.57
499.544	4.52
499.894	4.59
500.245	4.65
500.596	4.55
500.947	4.5
501.298	4.69
501.648	4.42
501.999	4.67
502.35	4.58
502.7	4.74
503.051	4.7
503.401	4.64
503.752	4.63
504.102	4.79
504.452	4.79
504.803	4.63
505.153	4.67
505.503	4.75
505.853	4.73
506.203	4.67
506.553	4.57
506.903	4.54
507.253	4.82
507.603	4.76
507.953	4.69
508.303	4.74
508.652	4.67
509.002	4.8
509.352	4.6
509.701	4.7
510.051	4.51
510.4	4.66
510.75	4.59
511.099	4.62
511.449	4.65
511.798	4.65
512.147	4.7
512.496	4.78
512.846	4.69
513.195	4.65
513.544	4.66
513.893	4.66
514.242	4.7
514.591	4.62
514.939	4.72
515.288	4.76
515.637	4.64
515.986	4.62
516.334	4.69
516.683	4.75
517.032	4.78
517.38	4.73
517.729	4.81
518.077	4.83
518.426	4.79
518.774	4.71
519.122	4.85
519.47	4.68
519.819	4.75
520.167	4.66
520.515	4.64
520.863	4.62
521.211	4.68
521.559	4.69
521.907	4.8
522.255	4.71
522.602	4.69
522.95	4.6
523.298	4.6
523.645	4.84
523.993	4.8
524.341	4.71
524.688	4.83
525.036	4.81
525.383	4.85
525.73	4.96
526.078	4.89
526.425	4.76
526.772	4.74
527.119	4.79
527.466	4.76
527.814	4.7
528.161	4.8
528.508	4.79
528.854	4.71
529.201	4.69
529.548	4.55
529.895	4.54
530.242	4.49
530.588	4.49
530.935	4.56
531.282	4.58
531.628	4.61
531.975	4.68
532.321	4.65
532.667	4.7
533.014	4.92
533.36	4.67
533.706	4.88
534.052	4.77
534.399	4.78
534.745	4.69
535.091	4.58
535.437	4.6
535.783	4.67
536.129	4.75
536.474	4.74
536.82	4.7
537.166	4.72
537.512	4.88
537.857	4.88
538.203	4.73
538.549	4.77
538.894	4.88
539.239	4.82
539.585	4.71
539.93	4.8
540.276	4.93
540.621	4.85
540.966	4.81
541.311	4.83
541.656	4.91
542.001	4.92
542.346	4.82
542.691	4.6
543.036	4.66
543.381	4.59
543.726	4.71
544.071	4.67
544.415	4.78
544.76	4.79
545.105	4.68
545.449	4.85
545.794	4.81
546.138	4.9
546.483	4.78
546.827	4.91
547.171	4.95
547.516	4.98
547.86	4.83
548.204	4.7
548.548	4.64
548.892	4.82
549.236	4.9
549.58	4.84
549.924	4.9
550.268	4.9
550.612	4.95
550.956	4.85
551.3	4.88
551.643	4.85
551.987	4.94
552.33	4.93
552.674	4.96
553.017	4.68
553.361	4.76
553.704	4.85
554.048	4.74
554.391	4.92
554.734	4.81
555.077	5.06
555.42	4.99
555.764	4.91
556.107	4.99
556.45	4.96
556.793	4.9
557.135	4.91
557.478	4.72
557.821	4.96
558.164	4.91
558.507	5.02
558.849	4.92
559.192	4.73
559.534	5.08
559.877	4.86
560.219	5.01
560.562	4.84
560.904	4.96
561.246	4.78
561.589	5.03
561.931	4.75
562.273	4.94
562.615	4.9
562.957	4.96
563.299	5.01
563.641	4.82
563.983	5.05
564.325	4.97
564.667	5
565.008	5.03
565.35	4.94
565.692	4.83
566.033	5.06
566.375	4.84
566.716	4.93
567.058	4.95
567.399	5.16
567.741	4.95
568.082	4.89
568.423	4.71
568.764	5
569.105	4.85
569.447	5.01
569.788	5.13
570.129	5.05
570.47	5.02
570.811	4.88
571.151	5.03
571.492	4.93
571.833	5.1
572.174	4.94
572.514	4.95
572.855	4.89
573.195	5.12
573.536	4.98
573.876	5.11
574.217	5.01
574.557	5.03
574.898	5.24
575.238	5.01
575.578	5.06
575.918	4.93
576.258	4.76
576.598	5.05
576.938	5.29
577.278	4.87
577.618	5.04
577.958	5.03
578.298	5.03
578.638	5.02
578.977	4.93
579.317	5.04
579.657	5.04
579.996	5.01
580.336	5.29
580.675	5.32
581.014	5.17
581.354	4.84
581.693	5.22
582.032	5.39
582.372	5.2
582.711	5.17
583.05	5.29
583.389	5.11
583.728	4.89
584.067	5.04
584.406	5.04
584.745	5.02
585.083	4.98
585.422	5.28
585.761	5.32
586.1	4.95
586.438	5.19
586.777	5.18
587.115	4.88
587.454	4.83
587.792	4.91
588.13	5.23
588.469	4.88
588.807	4.88
589.145	5.22
589.483	5.15
589.821	4.94
590.159	5.08
590.497	4.7
590.835	5.14
591.173	5.37
591.511	5.23
591.849	5.06
592.187	4.87
592.524	4.97
592.862	5.21
593.2	5.12
593.537	4.92
593.875	5.15
594.212	4.96
594.55	5.14
594.887	5.31
595.224	5.23
595.561	5.29
595.899	5.46
596.236	4.88
596.573	5.24
596.91	5.06
597.247	5.26
597.584	5.03
597.921	4.91
598.258	5.14
598.594	5.06
598.931	5.18
599.268	5.18
599.604	5.24
599.941	5.01
600.277	5.24
600.614	5.2
600.95	5.42
601.287	5.27
601.623	5.24
601.959	5.28
602.296	4.95
602.632	5.32
602.968	5.07
603.304	4.95
603.64	5.38
603.976	5.13
604.312	5.27
604.648	5.15
604.984	4.97
605.319	5.47
605.655	5.31
605.991	5.07
606.326	5.15
606.662	5.17
606.998	4.95
607.333	5.09
607.668	5.27
608.004	5.38
608.339	5.2
608.674	5.11
609.01	4.96
609.345	5.31
609.68	4.9
610.015	4.87
610.35	5.09
610.685	5.51
611.02	5.19
611.355	5.21
611.689	5.37
612.024	4.97
612.359	5.44
612.694	5.34
613.028	5.07
613.363	5.42
613.697	4.95
614.032	4.96
614.366	5.44
614.7	5.22
615.035	4.97
615.369	5.08
615.703	5.2
616.037	5.58
616.371	5.5
616.705	5.24
617.039	5.32
617.373	5.39
617.707	5.38
618.041	5.3
618.375	5.67
618.709	5.02
619.042	5.13
619.376	5.01
619.71	5.41
620.043	5.2
620.377	5.57
620.71	5.2
621.043	5.49
621.377	5.16
621.71	5.56
622.043	5.26
622.376	5.04
622.709	5.58
623.043	5.51
623.376	5.48
623.709	5.45
624.041	5.17
624.374	5.43
624.707	5.15
625.04	5.68
625.373	5.17
625.705	5.53
626.038	5.54
626.37	5.18
626.703	5.85
627.035	5.56
627.368	5.19
627.7	5.41
628.032	5.36
628.365	5.3
628.697	5.2
629.029	5.57
629.361	5.3
629.693	5.05
630.025	5.52
630.357	5.48
630.689	5.25
631.021	5.67
631.353	5.11
631.684	5.16
632.016	5.29
632.348	5.7
632.679	5.46
633.011	5.79
633.342	5.05
633.674	4.98
634.005	5.68
634.336	5.31
634.668	5.63
634.999	5.37
635.33	5.77
635.661	5.46
635.992	4.97
636.323	5.36
636.654	5.42
636.985	5.6
637.316	5.09
637.647	5.37
637.977	5.05
638.308	5.56
638.639	5.86
638.969	5.56
639.3	5.45
639.63	5.3
639.961	5.53
640.291	4.84
640.622	5.31
640.952	4.69
641.282	5.74
641.612	5.73
641.943	5.79
642.273	5.77
642.603	5.17
642.933	5.4
643.263	5.58
643.592	5.69
643.922	5.87
644.252	5.54
644.582	5.94
644.911	5.59
645.241	5.25
645.571	5.48
645.9	4.92
646.23	5.92
646.559	4.75
646.888	5.68
647.218	5.67
647.547	5.8
647.876	5.35
648.205	5.13
648.534	4.99
648.863	5.84
649.192	5.39
649.521	5.73
649.85	5.94
650.179	5.09
650.508	5.46
650.837	4.96
651.165	5.42
651.494	6.06
651.822	4.99
652.151	5.94
652.479	4.75
652.808	5.25
653.136	5.08
653.465	5.26
653.793	5.38
654.121	5.37
654.449	5.86
654.777	5.81
655.105	5.18
655.433	5.22
655.761	5.33
656.089	5.5
656.417	5.72
656.745	5.85
657.073	5.6
657.4	6.13
657.728	5.71
658.056	5.65
658.383	5.67
658.711	5.81
659.038	5.34
659.365	5.4
659.693	5.36
660.02	5.39
660.347	5.36
660.674	5.47
661.001	5.06
661.329	5.39
661.656	5.75
661.982	5.88
662.309	5.95
662.636	5.55
662.963	5.63
663.29	5.8
663.616	5.97
663.943	5.28
664.27	5.41
664.596	5.79
664.923	6.01
665.249	5.16
665.576	5.71
665.902	5.35
666.228	5.82
666.554	5.62
666.881	6.04
667.207	5.46
667.533	5.97
667.859	4.91
668.185	5.32
668.511	5.83
668.837	5.84
669.162	5.18
669.488	5.16
669.814	5.32
670.139	5.09
670.465	5.14
670.791	5.14
671.116	5.33
671.442	5.16
671.767	4.77
672.092	5.89
672.418	6.14
672.743	5.47
673.068	5.7
673.393	5.65
673.718	5.87
674.043	5.82
674.368	6.39
674.693	6.01
675.018	5.43
675.343	6.15
675.667	5.92
675.992	5.41
676.317	5.22
676.641	5.43
676.966	5.93
677.29	5.25
677.615	5.68
677.939	5.1
678.264	5.69
678.588	5.26
678.912	5.56
679.236	5.73
679.56	6.03
679.885	5.97
680.209	5.89
680.532	5.86
680.856	6.22
681.18	5.31
681.504	5.74
681.828	5.74
682.152	5.64
682.475	5.57
682.799	5.44
683.122	5.72
683.446	5.81
683.769	6.09
684.093	5.87
684.416	5.49
684.739	6.25
685.062	5.22
685.386	5.88
685.709	5.08
686.032	6.12
686.355	5.59
686.678	5.42
687.001	5.52
687.324	5.64
687.646	5.59
687.969	5.92
688.292	6.5
688.614	5.46
688.937	5.97
689.26	5.59
689.582	5.68
689.904	6.32
690.227	6.33
690.549	5.31
690.871	5.75
691.194	5.95
691.516	5.87
691.838	5.14
692.16	5.74
692.482	4.73
