Data from 23-3_crown_Reflection__0__20.txt Node

Date: Thu Feb 29 22:02:20 CST 2024
User: ToomeyLab
Spectrometer: FLMS14357
Trigger mode: 0
Integration Time (sec): 1.000000E-2
Scans to average: 100
Electric dark correction enabled: true
Nonlinearity correction enabled: false
Boxcar width: 0
XAxis mode: Wavelengths
Number of Pixels in Spectrum: 2048
>>>>>Begin Spectral Data<<<<<
189.047	33.35
189.435	33.35
189.823	33.35
190.211	-351.86
190.599	-166.2
190.987	-57.3
191.375	111.21
191.763	81.21
192.151	-5.36
192.538	137.53
192.926	-3.54
193.314	3164.03
193.702	136.51
194.089	-1378.38
194.477	13.72
194.864	240.15
195.252	735.16
195.639	-758.02
196.027	17.38
196.414	248.99
196.801	511.74
197.189	97.36
197.576	-73.02
197.963	-74.25
198.351	-23.14
198.738	15.87
199.125	-20.53
199.512	47.64
199.899	-10.93
200.286	7.1
200.673	15.98
201.06	31.81
201.447	-16.93
201.833	13.37
202.22	-10.81
202.607	-87.07
202.994	-14.79
203.38	-36.49
203.767	27.47
204.154	14.48
204.54	24.71
204.927	48.68
205.313	49.63
205.699	-9.89
206.086	0.47
206.472	11.2
206.858	22.23
207.245	-30.91
207.631	-4.84
208.017	17.81
208.403	-162.74
208.789	16.49
209.175	-70.48
209.561	-5.64
209.947	-10.69
210.333	42.31
210.719	62.12
211.105	-2.5
211.491	13.03
211.876	-13.49
212.262	40.06
212.648	-45.58
213.034	-3.59
213.419	9.43
213.805	5.4
214.19	16.93
214.576	15.07
214.961	4.85
215.346	1.78
215.732	1.57
216.117	-26.51
216.502	11.23
216.888	-22.03
217.273	1.22
217.658	8.52
218.043	16.01
218.428	3.85
218.813	12.46
219.198	4.31
219.583	-6.53
219.968	6.54
220.353	-5.31
220.738	3.79
221.122	-1.74
221.507	18.77
221.892	5.63
222.276	18.48
222.661	0.17
223.046	6.54
223.43	5.91
223.815	-9.3
224.199	8.37
224.583	-1.45
224.968	1.23
225.352	2.09
225.736	4.05
226.121	2.45
226.505	17.27
226.889	7.09
227.273	2.67
227.657	-6.07
228.041	6.39
228.425	4.25
228.809	10.99
229.193	4.39
229.577	5.55
229.961	1.97
230.344	4.03
230.728	4.03
231.112	5.82
231.495	4.39
231.879	5.29
232.263	2.32
232.646	3.83
233.03	5.52
233.413	2.33
233.797	1.98
234.18	1.52
234.563	0.08
234.946	2.72
235.33	5.09
235.713	4.47
236.096	4.68
236.479	4.54
236.862	6.49
237.245	3.82
237.628	4.31
238.011	5.17
238.394	4.65
238.777	3.76
239.16	2.81
239.543	3.58
239.925	5.14
240.308	4.29
240.691	5.47
241.073	3.31
241.456	4.88
241.838	4.23
242.221	4.74
242.603	4.78
242.986	4.52
243.368	3.94
243.75	4.29
244.133	4.27
244.515	4.24
244.897	4.72
245.279	4.69
245.661	5.13
246.043	2.25
246.425	6.17
246.807	5
247.189	3.95
247.571	4.07
247.953	3.92
248.335	3.98
248.717	4.23
249.098	4.37
249.48	4.37
249.862	4.18
250.243	3.87
250.625	4.23
251.006	4.99
251.388	4.78
251.769	4.65
252.151	5.37
252.532	3.31
252.913	3.48
253.295	4.48
253.676	4.09
254.057	4.4
254.438	5.42
254.819	4.94
255.2	1.69
255.581	4.63
255.962	4
256.343	5.15
256.724	3.45
257.105	4.15
257.486	4.82
257.867	5.27
258.247	5.36
258.628	2.52
259.009	3.49
259.389	3.27
259.77	4.72
260.15	4.36
260.531	4.32
260.911	4.11
261.292	3.97
261.672	4.15
262.052	3.94
262.432	4.11
262.813	3.19
263.193	4.13
263.573	3.49
263.953	3.6
264.333	3.7
264.713	3.94
265.093	4.75
265.473	4.07
265.853	4.8
266.233	3.72
266.612	3.48
266.992	3.52
267.372	2.75
267.752	3.13
268.131	4.12
268.511	3.64
268.89	3.75
269.27	4.14
269.649	4.35
270.029	3.35
270.408	4.08
270.787	3.78
271.167	3.86
271.546	3.95
271.925	3.38
272.304	3.85
272.683	4.03
273.062	3.6
273.441	3.91
273.82	3.67
274.199	4.22
274.578	3.65
274.957	3.65
275.336	4.49
275.715	4.05
276.093	4.19
276.472	4.71
276.851	3.46
277.229	3.06
277.608	4.16
277.986	3.35
278.365	4.54
278.743	2.94
279.122	3.19
279.5	3.33
279.878	3.18
280.257	3.67
280.635	2.98
281.013	3.71
281.391	3.73
281.769	4.46
282.147	3.39
282.525	4.3
282.903	3.49
283.281	3.71
283.659	3.9
284.037	3.59
284.415	3.07
284.792	3.42
285.17	2.67
285.548	3.65
285.925	3.82
286.303	3.67
286.68	3.65
287.058	4.19
287.435	3.37
287.813	3.35
288.19	3.34
288.567	4.08
288.945	3.52
289.322	3.48
289.699	3.99
290.076	3.97
290.453	3.62
290.83	2.91
291.207	3.52
291.584	3.74
291.961	3.63
292.338	4.17
292.715	3.71
293.092	3.86
293.469	3.76
293.845	3.78
294.222	3.13
294.599	3.01
294.975	3.71
295.352	4.13
295.728	3.6
296.105	3.97
296.481	3.28
296.858	3.9
297.234	3.37
297.61	3.98
297.986	3.92
298.363	3.62
298.739	4.15
299.115	3.91
299.491	3.53
299.867	3.71
300.243	3.67
300.619	3.53
300.995	3.7
301.371	3.45
301.746	3.62
302.122	3.97
302.498	3.76
302.874	4.04
303.249	3.54
303.625	4.4
304	3.93
304.376	4.1
304.751	3.41
305.127	3.74
305.502	3.73
305.878	4.19
306.253	3.08
306.628	3.32
307.003	3.99
307.378	4.21
307.754	4.13
308.129	3.57
308.504	3.71
308.879	3.16
309.254	3.6
309.629	3.12
310.003	3.91
310.378	3.9
310.753	3.24
311.128	4.09
311.502	4.29
311.877	3.61
312.252	4.04
312.626	3.92
313.001	3.92
313.375	4.31
313.75	3.99
314.124	4.53
314.498	3.65
314.873	3.07
315.247	3.48
315.621	4.33
315.995	3.57
316.369	3.96
316.743	3.39
317.117	4.22
317.491	2.96
317.865	2.99
318.239	3.6
318.613	4
318.987	4.09
319.361	3.33
319.734	4.2
320.108	3.97
320.482	3.78
320.855	3.79
321.229	4.49
321.602	3.5
321.976	4.16
322.349	3.94
322.723	4.45
323.096	3.13
323.469	4.04
323.843	2.84
324.216	3.93
324.589	3.55
324.962	3.48
325.335	4.16
325.708	3.92
326.081	3.51
326.454	3.49
326.827	3.6
327.2	4.17
327.573	3.96
327.945	3.96
328.318	3.54
328.691	3.99
329.063	3.66
329.436	3.72
329.809	3.46
330.181	3.95
330.553	4.01
330.926	3.52
331.298	3.66
331.671	3.25
332.043	3.95
332.415	3.83
332.787	3.81
333.159	3.81
333.532	3.45
333.904	3.69
334.276	3.97
334.648	4.33
335.02	3.56
335.391	4.11
335.763	3.99
336.135	3.11
336.507	3.22
336.879	4.39
337.25	4.34
337.622	3.89
337.993	4.16
338.365	3.43
338.736	3.88
339.108	4.14
339.479	3.89
339.851	4.04
340.222	4.64
340.593	4.14
340.964	3.57
341.336	3.68
341.707	4.2
342.078	3.68
342.449	3.7
342.82	4.29
343.191	4.31
343.562	4.33
343.933	3.43
344.303	3.75
344.674	3.84
345.045	4.27
345.416	3.55
345.786	3.86
346.157	4.17
346.527	3.92
346.898	4.16
347.268	4.35
347.639	4.29
348.009	4.07
348.38	3.97
348.75	4.17
349.12	3.77
349.49	4.23
349.861	3.86
350.231	4.38
350.601	4.08
350.971	4.28
351.341	4.2
351.711	4.4
352.081	3.97
352.45	3.37
352.82	3.68
353.19	4.37
353.56	4.19
353.929	4.06
354.299	3.4
354.669	3.83
355.038	3.95
355.408	4.23
355.777	4.15
356.147	4
356.516	4.01
356.885	4.31
357.254	4.33
357.624	3.78
357.993	3.54
358.362	4.49
358.731	4.26
359.1	4.39
359.469	3.8
359.838	4.1
360.207	3.82
360.576	4.18
360.945	3.51
361.314	4.43
361.682	3.98
362.051	3.81
362.42	4.32
362.788	4.06
363.157	3.9
363.525	4.02
363.894	4.36
364.262	3.86
364.631	4.1
364.999	3.71
365.367	3.97
365.735	4.26
366.104	4.58
366.472	3.59
366.84	3.92
367.208	4.1
367.576	4.11
367.944	3.87
368.312	4.17
368.68	3.86
369.048	4.13
369.416	4.23
369.783	3.98
370.151	4.37
370.519	4.16
370.886	4.37
371.254	4.43
371.621	4.3
371.989	4.13
372.356	4.19
372.724	4.04
373.091	4.24
373.458	4.07
373.826	4.07
374.193	4.05
374.56	4.08
374.927	4.77
375.294	4.19
375.661	4.15
376.028	4.52
376.395	4.4
376.762	4.89
377.129	4.09
377.496	4.29
377.863	4.55
378.229	3.85
378.596	4.17
378.963	4.22
379.329	4.18
379.696	4.04
380.062	4.1
380.429	4.21
380.795	4.7
381.161	4.28
381.528	4.13
381.894	3.97
382.26	4
382.626	3.94
382.993	3.99
383.359	4.33
383.725	4.48
384.091	4.49
384.457	4.18
384.823	4.42
385.188	4.18
385.554	4.06
385.92	4.31
386.286	3.89
386.651	4.35
387.017	4.33
387.383	4.08
387.748	4.35
388.114	4.39
388.479	4.4
388.845	4.15
389.21	4.49
389.575	4.18
389.94	4.27
390.306	4.06
390.671	4.61
391.036	4.46
391.401	4.4
391.766	4.33
392.131	4.14
392.496	4.35
392.861	4.41
393.226	4.5
393.591	4.49
393.956	4.46
394.32	4.38
394.685	4.03
395.05	4.21
395.414	4.35
395.779	4.12
396.143	4.56
396.508	4.55
396.872	4.29
397.236	4.28
397.601	4.24
397.965	4.54
398.329	3.87
398.694	4.01
399.058	4.57
399.422	4.19
399.786	4.59
400.15	4.28
400.514	4.39
400.878	3.89
401.242	4.31
401.605	4.41
401.969	4.74
402.333	4.28
402.697	4.23
403.06	4.52
403.424	4.75
403.787	4.09
404.151	4.38
404.514	4.3
404.878	4.41
405.241	4.57
405.604	4.02
405.968	4.32
406.331	4.14
406.694	4.51
407.057	4.33
407.42	4.3
407.783	4.27
408.146	4.68
408.509	4.29
408.872	4.4
409.235	4.48
409.598	4.41
409.961	4.25
410.323	4.61
410.686	4.53
411.049	4.09
411.411	4.24
411.774	4.3
412.136	4.25
412.499	4.47
412.861	4.12
413.223	4.42
413.586	3.98
413.948	4.28
414.31	4.35
414.672	4.35
415.035	4.67
415.397	4.36
415.759	4.73
416.121	4.68
416.483	4.45
416.845	4.33
417.206	4.36
417.568	4.26
417.93	4.35
418.292	4.43
418.653	4.23
419.015	4.4
419.377	4.51
419.738	4.12
420.1	4.36
420.461	4.28
420.822	4.24
421.184	4.31
421.545	4.28
421.906	4.32
422.267	4.26
422.629	4.36
422.99	4.27
423.351	4.35
423.712	4.34
424.073	4.22
424.434	4.28
424.795	4.43
425.155	4.44
425.516	4.25
425.877	4.31
426.238	4.25
426.598	4.44
426.959	4.43
427.32	4.43
427.68	4.44
428.041	4.31
428.401	4.46
428.761	4.6
429.122	4.44
429.482	4.35
429.842	4.65
430.202	4.41
430.563	4.49
430.923	4.57
431.283	4.3
431.643	4.46
432.003	4.67
432.363	4.34
432.722	4.66
433.082	4.17
433.442	4.55
433.802	4.39
434.161	4.53
434.521	4.19
434.881	4.4
435.24	4.55
435.6	4.3
435.959	4.44
436.319	4.4
436.678	4.41
437.037	4.26
437.396	4.37
437.756	4.37
438.115	4.46
438.474	4.41
438.833	4.65
439.192	4.45
439.551	4.49
439.91	4.63
440.269	4.35
440.628	4.32
440.987	4.39
441.345	4.51
441.704	4.37
442.063	4.5
442.421	4.39
442.78	4.29
443.138	4.22
443.497	4.47
443.855	4.41
444.214	4.51
444.572	4.56
444.93	4.33
445.288	4.4
445.647	4.34
446.005	4.45
446.363	4.33
446.721	4.38
447.079	4.31
447.437	4.33
447.795	4.37
448.153	4.4
448.51	4.45
448.868	4.29
449.226	4.46
449.584	4.38
449.941	4.44
450.299	4.36
450.656	4.36
451.014	4.39
451.371	4.52
451.729	4.57
452.086	4.65
452.443	4.43
452.801	4.4
453.158	4.58
453.515	4.56
453.872	4.48
454.229	4.4
454.586	4.49
454.943	4.36
455.3	4.61
455.657	4.35
456.014	4.6
456.371	4.27
456.727	4.44
457.084	4.63
457.441	4.69
457.797	4.55
458.154	4.46
458.51	4.37
458.867	4.63
459.223	4.51
459.58	4.43
459.936	4.45
460.292	4.19
460.648	4.42
461.005	4.37
461.361	4.32
461.717	4.37
462.073	4.26
462.429	4.55
462.785	4.51
463.141	4.52
463.496	4.3
463.852	4.59
464.208	4.45
464.564	4.67
464.919	4.56
465.275	4.36
465.631	4.31
465.986	4.55
466.342	4.13
466.697	4.53
467.052	4.41
467.408	4.45
467.763	4.53
468.118	4.39
468.473	4.39
468.829	4.51
469.184	4.48
469.539	4.56
469.894	4.45
470.249	4.28
470.603	4.25
470.958	4.68
471.313	4.4
471.668	4.52
472.023	4.59
472.377	4.48
472.732	4.55
473.086	4.4
473.441	4.39
473.795	4.54
474.15	4.25
474.504	4.49
474.859	4.4
475.213	4.47
475.567	4.45
475.921	4.52
476.275	4.47
476.63	4.39
476.984	4.35
477.338	4.46
477.692	4.54
478.045	4.48
478.399	4.44
478.753	4.57
479.107	4.68
479.461	4.48
479.814	4.47
480.168	4.48
480.521	4.51
480.875	4.54
481.228	4.46
481.582	4.6
481.935	4.48
482.289	4.53
482.642	4.41
482.995	4.42
483.348	4.38
483.701	4.39
484.055	4.35
484.408	4.46
484.761	4.41
485.114	4.15
485.466	3.99
485.819	4.08
486.172	4.2
486.525	4.32
486.878	4.4
487.23	4.33
487.583	4.41
487.936	4.44
488.288	4.4
488.641	4.19
488.993	4.26
489.345	4.22
489.698	4.2
490.05	4.3
490.402	4.37
490.754	4.37
491.107	4.48
491.459	4.46
491.811	4.52
492.163	4.49
492.515	4.35
492.866	4.34
493.218	4.21
493.57	4.2
493.922	4.35
494.274	4.36
494.625	4.41
494.977	4.43
495.328	4.48
495.68	4.54
496.031	4.55
496.383	4.45
496.734	4.56
497.086	4.41
497.437	4.5
497.788	4.25
498.139	4.34
498.49	4.45
498.842	4.4
499.193	4.63
499.544	4.51
499.894	4.32
500.245	4.49
500.596	4.4
500.947	4.36
501.298	4.44
501.648	4.42
501.999	4.59
502.35	4.58
502.7	4.5
503.051	4.51
503.401	4.49
503.752	4.4
504.102	4.66
504.452	4.56
504.803	4.53
505.153	4.48
505.503	4.58
505.853	4.49
506.203	4.53
506.553	4.46
506.903	4.44
507.253	4.53
507.603	4.49
507.953	4.47
508.303	4.48
508.652	4.51
509.002	4.54
509.352	4.4
509.701	4.51
510.051	4.47
510.4	4.42
510.75	4.41
511.099	4.47
511.449	4.4
511.798	4.49
512.147	4.52
512.496	4.32
512.846	4.4
513.195	4.47
513.544	4.48
513.893	4.39
514.242	4.42
514.591	4.3
514.939	4.51
515.288	4.57
515.637	4.59
515.986	4.56
516.334	4.3
516.683	4.56
517.032	4.64
517.38	4.46
517.729	4.55
518.077	4.59
518.426	4.49
518.774	4.52
519.122	4.47
519.47	4.37
519.819	4.43
520.167	4.23
520.515	4.3
520.863	4.28
521.211	4.39
521.559	4.49
521.907	4.36
522.255	4.39
522.602	4.46
522.95	4.46
523.298	4.34
523.645	4.45
523.993	4.61
524.341	4.34
524.688	4.4
525.036	4.68
525.383	4.49
525.73	4.55
526.078	4.5
526.425	4.44
526.772	4.34
527.119	4.28
527.466	4.4
527.814	4.29
528.161	4.5
528.508	4.48
528.854	4.42
529.201	4.4
529.548	4.3
529.895	4.16
530.242	4.04
530.588	4.15
530.935	4.19
531.282	4.25
531.628	4.35
531.975	4.36
532.321	4.34
532.667	4.42
533.014	4.44
533.36	4.33
533.706	4.47
534.052	4.38
534.399	4.29
534.745	4.26
535.091	4.13
535.437	4.32
535.783	4.32
536.129	4.37
536.474	4.43
536.82	4.24
537.166	4.4
537.512	4.46
537.857	4.49
538.203	4.34
538.549	4.26
538.894	4.39
539.239	4.39
539.585	4.41
539.93	4.4
540.276	4.55
540.621	4.43
540.966	4.52
541.311	4.3
541.656	4.32
542.001	4.47
542.346	4.32
542.691	4.13
543.036	4.13
543.381	4.11
543.726	4.24
544.071	4.28
544.415	4.33
544.76	4.34
545.105	4.24
545.449	4.29
545.794	4.27
546.138	4.37
546.483	4.36
546.827	4.45
547.171	4.4
547.516	4.39
547.86	4.36
548.204	4.24
548.548	4.16
548.892	4.33
549.236	4.48
549.58	4.46
549.924	4.55
550.268	4.44
550.612	4.57
550.956	4.35
551.3	4.46
551.643	4.42
551.987	4.42
552.33	4.55
552.674	4.54
553.017	4.4
553.361	4.34
553.704	4.44
554.048	4.53
554.391	4.32
554.734	4.45
555.077	4.36
555.42	4.39
555.764	4.33
556.107	4.8
556.45	4.5
556.793	4.41
557.135	4.34
557.478	4.31
557.821	4.26
558.164	4.6
558.507	4.44
558.849	4.49
559.192	4.24
559.534	4.5
559.877	4.38
560.219	4.49
560.562	4.31
560.904	4.5
561.246	4.18
561.589	4.37
561.931	4.46
562.273	4.53
562.615	4.16
562.957	4.4
563.299	4.53
563.641	4.21
563.983	4.51
564.325	4.46
564.667	4.5
565.008	4.3
565.35	4.47
565.692	4.38
566.033	4.54
566.375	4.33
566.716	4.4
567.058	4.37
567.399	4.53
567.741	4.25
568.082	4.41
568.423	4.41
568.764	4.4
569.105	4.22
569.447	4.35
569.788	4.28
570.129	4.45
570.47	4.4
570.811	4.4
571.151	4.55
571.492	4.41
571.833	4.64
572.174	4.41
572.514	4.27
572.855	4.29
573.195	4.43
573.536	4.42
573.876	4.38
574.217	4.31
574.557	4.48
574.898	4.59
575.238	4.2
575.578	4.46
575.918	4.34
576.258	4.41
576.598	4.3
576.938	4.39
577.278	4.27
577.618	4.46
577.958	4.27
578.298	4.42
578.638	4.45
578.977	4.47
579.317	4.59
579.657	4.41
579.996	4.43
580.336	4.62
580.675	4.52
581.014	4.5
581.354	4.1
581.693	4.52
582.032	4.57
582.372	4.63
582.711	4.44
583.05	4.31
583.389	4.55
583.728	4.16
584.067	4.32
584.406	4.23
584.745	4.36
585.083	4.14
585.422	4.57
585.761	4.38
586.1	4.44
586.438	4.49
586.777	4.59
587.115	4.29
587.454	4.26
587.792	4.36
588.13	4.71
588.469	4.04
588.807	4.43
589.145	4.62
589.483	4.57
589.821	4.2
590.159	4.49
590.497	4.12
590.835	4.37
591.173	4.4
591.511	4.2
591.849	4.59
592.187	4.35
592.524	4.27
592.862	4.39
593.2	4.13
593.537	4.45
593.875	4.54
594.212	4.32
594.55	4.6
594.887	4.71
595.224	4.5
595.561	4.42
595.899	4.52
596.236	4.3
596.573	4.37
596.91	4.45
597.247	4.49
597.584	4.53
597.921	4.38
598.258	4.16
598.594	4.03
598.931	4.26
599.268	4.34
599.604	4.23
599.941	4.22
600.277	4.46
600.614	4.55
600.95	4.5
601.287	4.37
601.623	4.42
601.959	4.42
602.296	4.29
602.632	4.72
602.968	4.33
603.304	4.31
603.64	4.32
603.976	4.64
604.312	4.48
604.648	4.48
604.984	4.39
605.319	4.43
605.655	4.23
605.991	4.11
606.326	4.26
606.662	4.47
606.998	4.37
607.333	4.43
607.668	4.63
608.004	4.44
608.339	4.47
608.674	4.4
609.01	4.58
609.345	4.71
609.68	4.24
610.015	4.28
610.35	4.46
610.685	4.5
611.02	4.44
611.355	4.54
611.689	4.51
612.024	4.48
612.359	4.67
612.694	4.69
613.028	4.54
613.363	4.62
613.697	4.47
614.032	4.68
614.366	4.25
614.7	4
615.035	4.24
615.369	4.25
615.703	4.49
616.037	4.34
616.371	4.29
616.705	4.58
617.039	4.45
617.373	4.56
617.707	4.41
618.041	4.45
618.375	5.13
618.709	4.27
619.042	4.58
619.376	4.21
619.71	4.37
620.043	4.41
620.377	4.99
620.71	4.47
621.043	4.38
621.377	4.6
621.71	4.6
622.043	4.7
622.376	4.73
622.709	5.11
623.043	4.79
623.376	4.49
623.709	4.16
624.041	4.31
624.374	4.08
624.707	4.38
625.04	4.63
625.373	4.6
625.705	4.34
626.038	4.66
626.37	4.28
626.703	4.39
627.035	4.44
627.368	4.16
627.7	4.51
628.032	4.36
628.365	4.77
628.697	4.44
629.029	4.63
629.361	4.26
629.693	4.36
630.025	4.36
630.357	4.54
630.689	4.61
631.021	4.81
631.353	4.5
631.684	4.4
632.016	4.16
632.348	4.15
632.679	4.46
633.011	4.76
633.342	4.38
633.674	4.17
634.005	4.65
634.336	4.34
634.668	4.62
634.999	4.23
635.33	4.38
635.661	4.71
635.992	4.42
636.323	4.46
636.654	4.46
636.985	4.59
637.316	4.47
637.647	4.92
637.977	4.27
638.308	4.98
638.639	4.34
638.969	4.88
639.3	4.52
639.63	4.3
639.961	4.5
640.291	4.3
640.622	4.49
640.952	3.72
641.282	4.8
641.612	4.84
641.943	4.92
642.273	4.87
642.603	4.49
642.933	4.12
643.263	4.91
643.592	4.62
643.922	4.77
644.252	4.87
644.582	4.51
644.911	4.76
645.241	4.39
645.571	4.84
645.9	4.56
646.23	4.71
646.559	4.12
646.888	4.81
647.218	4.26
647.547	4.58
647.876	4.65
648.205	4.75
648.534	4.01
648.863	4.7
649.192	4.66
649.521	4.86
649.85	5.04
650.179	4.36
650.508	4.98
650.837	4.54
651.165	4.72
651.494	5.21
651.822	3.88
652.151	4.56
652.479	4.56
652.808	4.3
653.136	3.7
653.465	4.59
653.793	4.07
654.121	4.97
654.449	4.57
654.777	4.77
655.105	4.25
655.433	4.45
655.761	4.31
656.089	4.34
656.417	4
656.745	4.93
657.073	4.35
657.4	4.92
657.728	4.59
658.056	4.43
658.383	4.13
658.711	4.56
659.038	4.88
659.365	4.39
659.693	4.37
660.02	4.25
660.347	4.14
660.674	4.3
661.001	4.28
661.329	4.76
661.656	4.5
661.982	4.83
662.309	4.82
662.636	4.73
662.963	4.32
663.29	4.64
663.616	4.99
663.943	4.38
664.27	5.05
664.596	5.1
664.923	4.45
665.249	4.13
665.576	4.51
665.902	4.25
666.228	4.3
666.554	4.46
666.881	4.66
667.207	4.34
667.533	4.39
667.859	4.84
668.185	4.48
668.511	4.5
668.837	4.98
669.162	4.14
669.488	4.61
669.814	4.73
670.139	4.43
670.465	4.61
670.791	3.75
671.116	4.38
671.442	4.61
671.767	3.85
672.092	4.6
672.418	4.61
672.743	4.66
673.068	4.72
673.393	4.9
673.718	4.82
674.043	5.01
674.368	5.16
674.693	4.25
675.018	5
675.343	5.14
675.667	3.96
675.992	4.61
676.317	4.4
676.641	3.5
676.966	4.55
677.29	4.6
677.615	4.97
677.939	5.14
678.264	5.09
678.588	4.44
678.912	4.87
679.236	4.11
679.56	4.75
679.885	5.34
680.209	4.32
680.532	4.72
680.856	4.74
681.18	4.75
681.504	4.49
681.828	4.81
682.152	4.09
682.475	5.01
682.799	4.56
683.122	4.94
683.446	5.27
683.769	4.99
684.093	5.15
684.416	4.98
684.739	4.68
685.062	4.39
685.386	5.34
685.709	5.04
686.032	4.83
686.355	5.01
686.678	4.78
687.001	4.51
687.324	4.12
687.646	5.16
687.969	4.67
688.292	5.26
688.614	4.35
688.937	4.43
689.26	5.43
689.582	4.55
689.904	5.11
690.227	4.94
690.549	4.43
690.871	4.67
691.194	4.01
691.516	4.34
691.838	4.54
692.16	5.27
692.482	4.13
692.804	4.09
