Data from 23-3_crown_Reflection__2__22.txt Node

Date: Thu Feb 29 22:02:38 CST 2024
User: ToomeyLab
Spectrometer: FLMS14357
Trigger mode: 0
Integration Time (sec): 1.000000E-2
Scans to average: 100
Electric dark correction enabled: true
Nonlinearity correction enabled: false
Boxcar width: 0
XAxis mode: Wavelengths
Number of Pixels in Spectrum: 2048
>>>>>Begin Spectral Data<<<<<
189.047	196.42
189.435	196.42
189.823	196.42
190.211	-56.71
190.599	-35.14
190.987	135.17
191.375	-148.5
191.763	208.67
192.151	1.8
192.538	43.61
192.926	176.13
193.314	1608.63
193.702	185.6
194.089	-5697.3
194.477	141.55
194.864	136.29
195.252	-350.75
195.639	-34.57
196.027	41.46
196.414	89.01
196.801	-298.59
197.189	65.86
197.576	-1.22
197.963	-49.37
198.351	-48.99
198.738	-32.42
199.125	-33.08
199.512	36.67
199.899	-57.2
200.286	-77.8
200.673	27.22
201.06	-34.8
201.447	-140.16
201.833	-24.39
202.22	-79.82
202.607	-44.88
202.994	-75.46
203.38	-65.67
203.767	-31.85
204.154	-20.09
204.54	2.79
204.927	5.6
205.313	2.5
205.699	5.26
206.086	23.65
206.472	9.47
206.858	25.46
207.245	-22.58
207.631	19.87
208.017	35.4
208.403	-135.84
208.789	-8.81
209.175	-64.25
209.561	-11.67
209.947	-5.83
210.333	-10.05
210.719	31.75
211.105	-24.91
211.491	-11.4
211.876	-21.97
212.262	32.38
212.648	-21.74
213.034	1.22
213.419	14.61
213.805	-10.22
214.19	-24.51
214.576	-27.31
214.961	25.13
215.346	-18.62
215.732	-2.23
216.117	-55.04
216.502	18.42
216.888	-30.86
217.273	-7.45
217.658	-8.02
218.043	-14.04
218.428	-9.21
218.813	-2.86
219.198	4.5
219.583	-20.74
219.968	2.1
220.353	-12.44
220.738	1.02
221.122	6.61
221.507	19.13
221.892	6.35
222.276	20.35
222.661	-20.77
223.046	5.15
223.43	-23.49
223.815	-11.08
224.199	-11.5
224.583	2.27
224.968	-0.92
225.352	-4.39
225.736	4.53
226.121	-4.05
226.505	8.51
226.889	7.83
227.273	-6.18
227.657	-1.9
228.041	-1.92
228.425	6.41
228.809	10.36
229.193	0.89
229.577	5.44
229.961	1.74
230.344	3.56
230.728	4.06
231.112	4.27
231.495	3.31
231.879	4.25
232.263	-0.37
232.646	3.2
233.03	3.12
233.413	1.58
233.797	2.04
234.18	-0.44
234.563	0.89
234.946	-0.14
235.33	3.15
235.713	2.5
236.096	3.56
236.479	5.02
236.862	4.02
237.245	3.35
237.628	5.08
238.011	6.01
238.394	1.08
238.777	2.11
239.16	3.43
239.543	3.25
239.925	2.71
240.308	2.81
240.691	2.56
241.073	2.31
241.456	3.51
241.838	3.38
242.221	3.8
242.603	2.8
242.986	4.19
243.368	4.19
243.75	3.89
244.133	3.82
244.515	3.69
244.897	4.3
245.279	4.39
245.661	3.81
246.043	2.94
246.425	5.59
246.807	3.64
247.189	3.95
247.571	4.14
247.953	4.18
248.335	4.21
248.717	4.4
249.098	4.02
249.48	4.24
249.862	4.52
250.243	4.19
250.625	4.03
251.006	4.8
251.388	5.23
251.769	4.3
252.151	4.81
252.532	3.67
252.913	3.81
253.295	3.81
253.676	4.16
254.057	3.98
254.438	4.5
254.819	4.11
255.2	4.06
255.581	3.61
255.962	4.51
256.343	5.32
256.724	5.2
257.105	3.98
257.486	3.29
257.867	4
258.247	4.8
258.628	3.23
259.009	3.81
259.389	3.59
259.77	5.33
260.15	4.65
260.531	4.21
260.911	4.26
261.292	4
261.672	4.19
262.052	4.2
262.432	4.11
262.813	4.16
263.193	4.72
263.573	4.09
263.953	3.93
264.333	3.75
264.713	4.06
265.093	4.37
265.473	3.87
265.853	3.8
266.233	3.3
266.612	3.37
266.992	4.08
267.372	3.54
267.752	3.8
268.131	4.38
268.511	4.17
268.89	4.04
269.27	4.28
269.649	3.75
270.029	3.5
270.408	4.27
270.787	3.62
271.167	4.16
271.546	4.04
271.925	3.37
272.304	3.91
272.683	4.04
273.062	3.67
273.441	3.51
273.82	3.44
274.199	4.18
274.578	3.49
274.957	4.15
275.336	4.53
275.715	4.25
276.093	3.39
276.472	4.98
276.851	3.86
277.229	3.73
277.608	3.96
277.986	3.76
278.365	4.57
278.743	3.7
279.122	3.71
279.5	3.6
279.878	3.42
280.257	3.89
280.635	4.08
281.013	3.91
281.391	3.46
281.769	3.92
282.147	4.13
282.525	4.36
282.903	3.62
283.281	3.88
283.659	4.24
284.037	3.74
284.415	3.34
284.792	3.38
285.17	2.73
285.548	4.01
285.925	3.96
286.303	3.65
286.68	3.62
287.058	3.92
287.435	3.62
287.813	3.63
288.19	3.83
288.567	4.01
288.945	3.56
289.322	4.35
289.699	4.04
290.076	3.93
290.453	3.2
290.83	3.65
291.207	3.3
291.584	4.04
291.961	4.01
292.338	4.47
292.715	4.12
293.092	3.93
293.469	4.42
293.845	3.52
294.222	3.99
294.599	3.47
294.975	3.53
295.352	4.29
295.728	4.73
296.105	4.47
296.481	3.48
296.858	4.02
297.234	4.25
297.61	4.35
297.986	4.67
298.363	4.14
298.739	4.33
299.115	4.11
299.491	4.23
299.867	4.17
300.243	4.34
300.619	4.13
300.995	4.52
301.371	4.23
301.746	4.17
302.122	4.71
302.498	4.53
302.874	4.68
303.249	3.73
303.625	4.67
304	4.74
304.376	4.08
304.751	3.85
305.127	4.47
305.502	4.32
305.878	4.85
306.253	3.05
306.628	4.01
307.003	4.16
307.378	4.11
307.754	4.68
308.129	4.48
308.504	4.58
308.879	4.01
309.254	4.03
309.629	4.08
310.003	3.78
310.378	3.86
310.753	4.14
311.128	4.42
311.502	4.3
311.877	4.13
312.252	4.99
312.626	4.58
313.001	4.13
313.375	4.06
313.75	3.97
314.124	4.6
314.498	4.08
314.873	3.82
315.247	4.44
315.621	4.85
315.995	4.76
316.369	4.45
316.743	4.24
317.117	4.19
317.491	3.86
317.865	4.2
318.239	4.52
318.613	4.67
318.987	5.39
319.361	4.32
319.734	4.38
320.108	4.57
320.482	4.57
320.855	4.26
321.229	4.52
321.602	5.01
321.976	4.53
322.349	4.25
322.723	4.29
323.096	3.94
323.469	4.44
323.843	4.18
324.216	4.61
324.589	4.23
324.962	4.24
325.335	3.74
325.708	4.64
326.081	3.7
326.454	4.43
326.827	3.92
327.2	4.7
327.573	4.47
327.945	4.83
328.318	4.32
328.691	4.91
329.063	3.98
329.436	4.32
329.809	4.53
330.181	4.73
330.553	4.28
330.926	4.46
331.298	4.28
331.671	4.28
332.043	4.31
332.415	3.97
332.787	4.34
333.159	4.26
333.532	4.27
333.904	3.97
334.276	4.83
334.648	4.65
335.02	4.04
335.391	3.91
335.763	4.3
336.135	4.33
336.507	4.32
336.879	4.9
337.25	4.89
337.622	4.42
337.993	4.44
338.365	4.02
338.736	4.35
339.108	4.55
339.479	4.69
339.851	4.42
340.222	4.42
340.593	4.34
340.964	4.56
341.336	4.37
341.707	4.26
342.078	4.08
342.449	4.19
342.82	4.31
343.191	4.5
343.562	4.26
343.933	4.35
344.303	4.45
344.674	4.4
345.045	4.29
345.416	4.58
345.786	4.51
346.157	4.55
346.527	4.13
346.898	4.84
347.268	4.34
347.639	4.62
348.009	4.27
348.38	4.97
348.75	4.52
349.12	4.47
349.49	4.5
349.861	4.4
350.231	4.26
350.601	4.3
350.971	4.18
351.341	4.83
351.711	4.91
352.081	4.5
352.45	4.56
352.82	3.9
353.19	4.88
353.56	4.49
353.929	4.66
354.299	4.17
354.669	4.49
355.038	4.73
355.408	4.9
355.777	4.15
356.147	4.61
356.516	4.95
356.885	4.5
357.254	4.66
357.624	4.71
357.993	4.76
358.362	4.59
358.731	4.95
359.1	4.89
359.469	4.62
359.838	4.89
360.207	4.63
360.576	4.83
360.945	4.58
361.314	4.94
361.682	4.14
362.051	4.46
362.42	4.99
362.788	4.72
363.157	4.58
363.525	4.52
363.894	4.71
364.262	4.47
364.631	4.63
364.999	4.33
365.367	4.46
365.735	4.57
366.104	4.86
366.472	3.97
366.84	4.74
367.208	4.48
367.576	4.52
367.944	4.57
368.312	4.68
368.68	4.93
369.048	4.59
369.416	4.72
369.783	4.58
370.151	4.56
370.519	4.75
370.886	4.56
371.254	4.79
371.621	4.82
371.989	4.89
372.356	5.16
372.724	4.8
373.091	4.54
373.458	5.03
373.826	4.8
374.193	4.67
374.56	4.83
374.927	4.88
375.294	4.47
375.661	5.24
376.028	5.27
376.395	4.57
376.762	4.94
377.129	4.49
377.496	4.97
377.863	4.91
378.229	4.35
378.596	4.54
378.963	4.67
379.329	5.05
379.696	4.52
380.062	4.54
380.429	4.93
380.795	4.84
381.161	5.24
381.528	4.77
381.894	4.4
382.26	4.62
382.626	4.76
382.993	4.6
383.359	4.55
383.725	4.78
384.091	4.85
384.457	4.73
384.823	4.85
385.188	4.86
385.554	4.87
385.92	5.04
386.286	4.71
386.651	4.7
387.017	4.77
387.383	5.01
387.748	4.73
388.114	4.64
388.479	5.19
388.845	4.64
389.21	4.75
389.575	4.71
389.94	4.69
390.306	4.52
390.671	4.48
391.036	4.71
391.401	4.8
391.766	4.61
392.131	4.98
392.496	4.64
392.861	4.8
393.226	5.17
393.591	4.87
393.956	4.79
394.32	4.99
394.685	5.17
395.05	4.71
395.414	4.95
395.779	4.72
396.143	4.89
396.508	4.8
396.872	5.05
397.236	4.75
397.601	4.98
397.965	5.27
398.329	4.76
398.694	5.05
399.058	4.83
399.422	4.92
399.786	4.93
400.15	4.8
400.514	4.72
400.878	4.87
401.242	4.8
401.605	5.09
401.969	5.2
402.333	4.8
402.697	4.77
403.06	5.07
403.424	5.02
403.787	5.01
404.151	4.92
404.514	5.14
404.878	5.07
405.241	5.26
405.604	4.97
405.968	5.04
406.331	4.76
406.694	5.01
407.057	4.94
407.42	5.08
407.783	5.29
408.146	5.2
408.509	5.06
408.872	5.29
409.235	5.11
409.598	5.18
409.961	4.97
410.323	5.54
410.686	5.02
411.049	4.78
411.411	4.71
411.774	5.15
412.136	5.32
412.499	5.03
412.861	5.12
413.223	4.92
413.586	5.09
413.948	4.87
414.31	5.13
414.672	4.94
415.035	4.89
415.397	4.88
415.759	5.27
416.121	5.41
416.483	5.2
416.845	5.12
417.206	5.15
417.568	5
417.93	5.14
418.292	5.27
418.653	5.2
419.015	5.15
419.377	5.16
419.738	4.88
420.1	5.03
420.461	5.06
420.822	5.07
421.184	5.15
421.545	5.03
421.906	5.05
422.267	5.01
422.629	5.16
422.99	5
423.351	5.13
423.712	5.09
424.073	5
424.434	5
424.795	5.13
425.155	5.04
425.516	5
425.877	5.11
426.238	5.13
426.598	5.09
426.959	5.08
427.32	5.2
427.68	5.25
428.041	5.03
428.401	5.3
428.761	5.38
429.122	5.28
429.482	5.3
429.842	5.47
430.202	5.24
430.563	5.27
430.923	5.36
431.283	5.34
431.643	5.35
432.003	5.54
432.363	5.1
432.722	5.48
433.082	5.14
433.442	5.16
433.802	5.21
434.161	5.55
434.521	5.03
434.881	5.19
435.24	5.35
435.6	5.28
435.959	5.31
436.319	5.26
436.678	5.22
437.037	5.17
437.396	5.35
437.756	5.41
438.115	5.21
438.474	5.27
438.833	5.46
439.192	5.35
439.551	5.43
439.91	5.44
440.269	5.17
440.628	5.34
440.987	5.17
441.345	5.36
441.704	5.29
442.063	5.26
442.421	5.23
442.78	5.26
443.138	5.17
443.497	5.23
443.855	5.37
444.214	5.48
444.572	5.44
444.93	5.4
445.288	5.26
445.647	5.25
446.005	5.33
446.363	5.26
446.721	5.34
447.079	5.27
447.437	5.34
447.795	5.29
448.153	5.22
448.51	5.28
448.868	5.22
449.226	5.37
449.584	5.32
449.941	5.43
450.299	5.41
450.656	5.33
451.014	5.31
451.371	5.44
451.729	5.51
452.086	5.47
452.443	5.31
452.801	5.62
453.158	5.57
453.515	5.48
453.872	5.44
454.229	5.53
454.586	5.5
454.943	5.44
455.3	5.45
455.657	5.37
456.014	5.55
456.371	5.44
456.727	5.52
457.084	5.56
457.441	5.69
457.797	5.42
458.154	5.6
458.51	5.43
458.867	5.74
459.223	5.54
459.58	5.42
459.936	5.55
460.292	5.39
460.648	5.47
461.005	5.49
461.361	5.46
461.717	5.41
462.073	5.4
462.429	5.69
462.785	5.56
463.141	5.57
463.496	5.6
463.852	5.61
464.208	5.35
464.564	5.88
464.919	5.6
465.275	5.55
465.631	5.8
465.986	5.58
466.342	5.38
466.697	5.71
467.052	5.49
467.408	5.63
467.763	5.74
468.118	5.84
468.473	5.53
468.829	5.62
469.184	5.56
469.539	5.87
469.894	5.58
470.249	5.55
470.603	5.5
470.958	5.9
471.313	5.52
471.668	5.67
472.023	5.59
472.377	5.53
472.732	5.77
473.086	5.75
473.441	5.54
473.795	5.8
474.15	5.53
474.504	5.69
474.859	5.61
475.213	5.8
475.567	5.75
475.921	5.72
476.275	5.69
476.63	5.72
476.984	5.61
477.338	5.66
477.692	5.63
478.045	5.55
478.399	5.71
478.753	5.8
479.107	5.72
479.461	5.75
479.814	5.75
480.168	5.68
480.521	5.68
480.875	5.79
481.228	5.76
481.582	5.71
481.935	5.84
482.289	5.79
482.642	5.69
482.995	5.74
483.348	5.71
483.701	5.83
484.055	5.66
484.408	5.77
484.761	5.65
485.114	5.5
485.466	5.29
485.819	5.38
486.172	5.45
486.525	5.61
486.878	5.64
487.23	5.67
487.583	5.73
487.936	5.81
488.288	5.74
488.641	5.66
488.993	5.55
489.345	5.63
489.698	5.54
490.05	5.55
490.402	5.71
490.754	5.73
491.107	5.81
491.459	5.84
491.811	5.92
492.163	5.79
492.515	5.81
492.866	5.74
493.218	5.68
493.57	5.58
493.922	5.72
494.274	5.82
494.625	5.75
494.977	5.92
495.328	6.03
495.68	6.07
496.031	6.02
496.383	5.84
496.734	5.92
497.086	5.76
497.437	6.13
497.788	5.84
498.139	6
498.49	6.01
498.842	5.91
499.193	5.91
499.544	5.98
499.894	5.92
500.245	5.89
500.596	5.85
500.947	5.85
501.298	6.03
501.648	5.93
501.999	6.12
502.35	6.07
502.7	6.13
503.051	5.98
503.401	6.04
503.752	6.04
504.102	6.19
504.452	6.06
504.803	6.04
505.153	5.84
505.503	6.12
505.853	6.13
506.203	6.1
506.553	6.13
506.903	6.02
507.253	6.02
507.603	6.19
507.953	6.1
508.303	6.1
508.652	6
509.002	6.18
509.352	5.97
509.701	6.1
510.051	6.1
510.4	6.1
510.75	5.89
511.099	6.09
511.449	5.89
511.798	5.97
512.147	6.14
512.496	6.14
512.846	6.1
513.195	6.13
513.544	6.1
513.893	6.06
514.242	6.11
514.591	5.93
514.939	6.09
515.288	6.18
515.637	6.28
515.986	6.22
516.334	6.2
516.683	6.2
517.032	6.2
517.38	6.16
517.729	6.19
518.077	6.13
518.426	6.19
518.774	6.09
519.122	6.08
519.47	6.19
519.819	6.13
520.167	5.99
520.515	6
520.863	5.99
521.211	6.17
521.559	6.12
521.907	6.24
522.255	6.19
522.602	6.12
522.95	6.15
523.298	6.18
523.645	6.19
523.993	6.36
524.341	6.18
524.688	6.19
525.036	6.24
525.383	6.3
525.73	6.41
526.078	6.19
526.425	6.3
526.772	6.28
527.119	6.26
527.466	6.25
527.814	6.16
528.161	6.36
528.508	6.2
528.854	6.25
529.201	6.25
529.548	6.05
529.895	6.09
530.242	5.92
530.588	5.93
530.935	6.05
531.282	6.07
531.628	6.15
531.975	6.21
532.321	6.25
532.667	6.27
533.014	6.33
533.36	6.31
533.706	6.37
534.052	6.31
534.399	6.26
534.745	6.22
535.091	6.06
535.437	6.14
535.783	6.22
536.129	6.31
536.474	6.39
536.82	6.38
537.166	6.37
537.512	6.46
537.857	6.35
538.203	6.33
538.549	6.18
538.894	6.39
539.239	6.43
539.585	6.34
539.93	6.37
540.276	6.59
540.621	6.38
540.966	6.63
541.311	6.49
541.656	6.53
542.001	6.38
542.346	6.37
542.691	6.22
543.036	6.21
543.381	6.17
543.726	6.25
544.071	6.27
544.415	6.28
544.76	6.46
545.105	6.23
545.449	6.38
545.794	6.33
546.138	6.52
546.483	6.26
546.827	6.54
547.171	6.51
547.516	6.59
547.86	6.46
548.204	6.45
548.548	6.37
548.892	6.44
549.236	6.53
549.58	6.52
549.924	6.45
550.268	6.5
550.612	6.65
550.956	6.6
551.3	6.7
551.643	6.61
551.987	6.58
552.33	6.65
552.674	6.68
553.017	6.48
553.361	6.57
553.704	6.65
554.048	6.44
554.391	6.5
554.734	6.57
555.077	6.69
555.42	6.54
555.764	6.62
556.107	6.63
556.45	6.65
556.793	6.42
557.135	6.58
557.478	6.54
557.821	6.79
558.164	6.67
558.507	6.76
558.849	6.75
559.192	6.52
559.534	6.6
559.877	6.5
560.219	6.59
560.562	6.71
560.904	6.85
561.246	6.68
561.589	6.71
561.931	6.62
562.273	6.64
562.615	6.53
562.957	6.61
563.299	6.89
563.641	6.51
563.983	6.6
564.325	6.52
564.667	6.74
565.008	6.88
565.35	6.96
565.692	6.81
566.033	6.96
566.375	6.86
566.716	6.81
567.058	6.7
567.399	6.85
567.741	6.57
568.082	6.71
568.423	6.71
568.764	6.83
569.105	6.79
569.447	6.61
569.788	6.76
570.129	6.61
570.47	6.68
570.811	6.8
571.151	6.85
571.492	6.87
571.833	6.9
572.174	6.85
572.514	6.77
572.855	6.65
573.195	7.11
573.536	7.04
573.876	6.85
574.217	6.77
574.557	6.9
574.898	6.96
575.238	6.79
575.578	6.83
575.918	6.64
576.258	6.86
576.598	6.77
576.938	7.05
577.278	6.63
577.618	6.76
577.958	6.92
578.298	7.07
578.638	6.84
578.977	7
579.317	6.96
579.657	6.85
579.996	6.84
580.336	7.16
580.675	7.25
581.014	7.01
581.354	6.4
581.693	6.94
582.032	7.14
582.372	7.27
582.711	7.08
583.05	6.99
583.389	6.95
583.728	6.66
584.067	6.72
584.406	6.83
584.745	7.08
585.083	6.88
585.422	7
585.761	7.19
586.1	6.96
586.438	7.2
586.777	7.01
587.115	6.88
587.454	6.95
587.792	7.16
588.13	7.09
588.469	6.74
588.807	6.91
589.145	7.11
589.483	7.02
589.821	7.01
590.159	6.9
590.497	6.88
590.835	7.09
591.173	6.94
591.511	7.04
591.849	7.1
592.187	6.97
592.524	7.13
592.862	6.92
593.2	6.92
593.537	6.98
593.875	7.05
594.212	7.12
594.55	6.86
594.887	6.95
595.224	6.95
595.561	7.37
595.899	7.35
596.236	6.9
596.573	7.24
596.91	7.32
597.247	7.03
597.584	7.2
597.921	7.11
598.258	7.06
598.594	7.21
598.931	7.24
599.268	7.09
599.604	7.37
599.941	6.96
600.277	7.27
600.614	7.25
600.95	7.21
601.287	7.23
601.623	7.47
601.959	7.32
602.296	6.91
602.632	7.38
602.968	7.02
603.304	7.22
603.64	7.43
603.976	7.21
604.312	7.39
604.648	7.21
604.984	7.02
605.319	7.56
605.655	7.21
605.991	6.94
606.326	7.38
606.662	7.12
606.998	7.16
607.333	7.26
607.668	7.2
608.004	7.37
608.339	7.34
608.674	7.14
609.01	7.12
609.345	7.49
609.68	7.11
610.015	7.42
610.35	7.14
610.685	7.74
611.02	7.26
611.355	7.45
611.689	7.3
612.024	7.09
612.359	7.43
612.694	7.55
613.028	7.37
613.363	7.81
613.697	7.49
614.032	7.18
614.366	7.44
614.7	7.07
615.035	7.02
615.369	7.12
615.703	7.48
616.037	7.51
616.371	7.51
616.705	7.46
617.039	7.45
617.373	7.44
617.707	7.56
618.041	7.22
618.375	7.64
618.709	7.27
619.042	7.34
619.376	7.14
619.71	7.18
620.043	7.13
620.377	7.58
620.71	7.72
621.043	7.28
621.377	7.18
621.71	7.59
622.043	7.38
622.376	7.45
622.709	8.24
623.043	7.78
623.376	7.63
623.709	7.33
624.041	7.88
624.374	7.31
624.707	7.82
625.04	7.44
625.373	7.58
625.705	7.25
626.038	7.37
626.37	7.21
626.703	7.7
627.035	7.66
627.368	7.42
627.7	7.3
628.032	7.48
628.365	7.49
628.697	7.33
629.029	7.73
629.361	7.84
629.693	7.51
630.025	7.79
630.357	7.52
630.689	7.78
631.021	7.58
631.353	7.37
631.684	7.55
632.016	7.44
632.348	7.71
632.679	7.65
633.011	8.13
633.342	7.14
633.674	7.56
634.005	7.92
634.336	7.54
634.668	7.88
634.999	7.68
635.33	7.7
635.661	7.6
635.992	7.27
636.323	7.93
636.654	7.82
636.985	7.61
637.316	7.41
637.647	7.53
637.977	7.39
638.308	7.76
638.639	8.01
638.969	8.15
639.3	7.86
639.63	7.75
639.961	8.34
640.291	7.61
640.622	7.29
640.952	7.26
641.282	8.15
641.612	8.07
641.943	7.93
642.273	7.6
642.603	7.86
642.933	7.74
643.263	8.2
643.592	7.86
643.922	8.07
644.252	7.92
644.582	7.65
644.911	8.21
645.241	7.75
645.571	7.89
645.9	7.53
646.23	8.1
646.559	7.79
646.888	7.83
647.218	7.92
647.547	8.09
647.876	7.76
648.205	7.52
648.534	8
648.863	7.56
649.192	7.97
649.521	7.85
649.85	7.92
650.179	7.43
650.508	7.94
650.837	7.59
651.165	7.84
651.494	7.81
651.822	7.89
652.151	7.9
652.479	7.6
652.808	7.48
653.136	7.57
653.465	7.31
653.793	7.46
654.121	8.18
654.449	8.23
654.777	8.39
655.105	7.53
655.433	7.27
655.761	8.14
656.089	7.6
656.417	7.85
656.745	8.56
657.073	8.24
657.4	8.34
657.728	8.91
658.056	7.93
658.383	7.9
658.711	7.92
659.038	8.31
659.365	7.95
659.693	7.85
660.02	7.92
660.347	8.34
660.674	7.91
661.001	7.99
661.329	7.89
661.656	8.03
661.982	8.5
662.309	8.22
662.636	8.44
662.963	7.95
663.29	8.22
663.616	8.48
663.943	8.25
664.27	8.5
664.596	8.09
664.923	7.83
665.249	7.56
665.576	8.8
665.902	7.86
666.228	8.1
666.554	7.95
666.881	8.24
667.207	8.59
667.533	7.64
667.859	8.75
668.185	7.98
668.511	8.19
668.837	8.38
669.162	7.58
669.488	7.94
669.814	8.68
670.139	8.4
670.465	7.92
670.791	8.13
671.116	7.84
671.442	7.96
671.767	8.43
672.092	8.1
672.418	7.72
672.743	8.32
673.068	7.78
673.393	7.9
673.718	8.09
674.043	8.83
674.368	8.46
674.693	8.6
675.018	8.28
675.343	8.5
675.667	7.35
675.992	8.01
676.317	8.41
676.641	7.42
676.966	8.43
677.29	8.05
677.615	8.79
677.939	8.57
678.264	8.67
678.588	8.3
678.912	8.28
679.236	8.24
679.56	8.86
679.885	8.76
680.209	8.12
680.532	8.78
680.856	8.28
681.18	8.66
681.504	8.3
681.828	8.02
682.152	7.97
682.475	9.31
682.799	8.38
683.122	8.58
683.446	8.77
683.769	9.07
684.093	8.46
684.416	8.13
684.739	8.95
685.062	8.45
685.386	9.64
685.709	8.22
686.032	8.71
686.355	8.19
686.678	9.15
687.001	7.87
687.324	7.87
687.646	8.91
687.969	9.03
688.292	9.33
688.614	8.14
688.937	8.83
689.26	8.68
689.582	8.35
689.904	9.04
690.227	8.87
690.549	8
690.871	8.56
691.194	8.04
691.516	7.92
691.838	7.91
692.16	8.89
692.482	8.39
