Data from 20-9_forehead_Reflection__1__147.txt Node

Date: Fri Nov 11 21:13:15 CST 2022
User: ToomeyLab
Spectrometer: FLMS14357
Trigger mode: 0
Integration Time (sec): 1.000000E-2
Scans to average: 100
Electric dark correction enabled: true
Nonlinearity correction enabled: false
Boxcar width: 0
XAxis mode: Wavelengths
Number of Pixels in Spectrum: 2048
>>>>>Begin Spectral Data<<<<<
189.047	171.4
189.435	171.4
189.823	171.4
190.211	-104.38
190.599	327.58
190.987	65.02
191.375	23.25
191.763	20.35
192.151	251.07
192.538	405.4
192.926	-81.94
193.314	58.48
193.702	148.82
194.089	126.09
194.477	75.64
194.864	27.88
195.252	87.31
195.639	-24.75
196.027	1856.62
196.414	42.86
196.801	87.3
197.189	29.51
197.576	-18.1
197.963	234.41
198.351	-20.83
198.738	12.62
199.125	3.07
199.512	55.21
199.899	-984.96
200.286	30.89
200.673	2.89
201.06	30.64
201.447	47.11
201.833	24.29
202.22	-21.27
202.607	54.12
202.994	48.95
203.38	34.48
203.767	64.25
204.154	60.41
204.54	33.65
204.927	88.06
205.313	4.06
205.699	-42.54
206.086	77.13
206.472	34.8
206.858	26.59
207.245	89.73
207.631	35.19
208.017	25.81
208.403	26.18
208.789	46.99
209.175	43.05
209.561	46.03
209.947	-11.52
210.333	-5.33
210.719	42.57
211.105	38.21
211.491	13.37
211.876	7.24
212.262	68.96
212.648	15.84
213.034	41.1
213.419	17.03
213.805	14.2
214.19	12.68
214.576	8.51
214.961	-27.69
215.346	-27.75
215.732	6.78
216.117	37.02
216.502	0.51
216.888	-9.58
217.273	0.82
217.658	-52.73
218.043	1.47
218.428	-8.88
218.813	20.32
219.198	8.07
219.583	40.87
219.968	12.62
220.353	-15.86
220.738	3.56
221.122	9.87
221.507	-15.68
221.892	10.55
222.276	21.97
222.661	15.82
223.046	-22.58
223.43	-6.97
223.815	14.25
224.199	18.66
224.583	3.93
224.968	1.57
225.352	10.15
225.736	6.85
226.121	16.62
226.505	4.99
226.889	-4.67
227.273	3.46
227.657	-2.88
228.041	3.3
228.425	0.32
228.809	2.13
229.193	6.11
229.577	4.02
229.961	4.09
230.344	2.94
230.728	1.83
231.112	1.83
231.495	2.74
231.879	2.52
232.263	2.2
232.646	0.99
233.03	3
233.413	2.21
233.797	2.08
234.18	0.83
234.563	4.85
234.946	2.4
235.33	2.73
235.713	0.71
236.096	2.9
236.479	2.64
236.862	3.69
237.245	2.31
237.628	3.61
238.011	3.4
238.394	2.26
238.777	4.58
239.16	4.49
239.543	0.01
239.925	3.14
240.308	3.91
240.691	3.06
241.073	2.02
241.456	1.8
241.838	3.4
242.221	2.27
242.603	3.01
242.986	2.04
243.368	2.55
243.75	2.88
244.133	2.63
244.515	2.42
244.897	2.91
245.279	2.33
245.661	3.12
246.043	2.34
246.425	3.42
246.807	2.63
247.189	2.41
247.571	2.85
247.953	2.58
248.335	2.61
248.717	2.62
249.098	2.67
249.48	2.22
249.862	2.56
250.243	2.4
250.625	2.48
251.006	3.19
251.388	2.63
251.769	3.36
252.151	3.05
252.532	3.29
252.913	3.6
253.295	2.69
253.676	1.94
254.057	2.18
254.438	2.48
254.819	3.01
255.2	2.79
255.581	3.36
255.962	2.05
256.343	2.15
256.724	3.1
257.105	2.66
257.486	2.68
257.867	3.23
258.247	2.54
258.628	2.1
259.009	2.39
259.389	2.06
259.77	3.17
260.15	2.94
260.531	2.69
260.911	2.63
261.292	2.69
261.672	2.32
262.052	2.64
262.432	2.69
262.813	2.33
263.193	2.31
263.573	2.87
263.953	3.17
264.333	2.46
264.713	2.38
265.093	2.96
265.473	1.87
265.853	2.13
266.233	2.82
266.612	2.47
266.992	2.5
267.372	2.8
267.752	2.09
268.131	2.58
268.511	2.65
268.89	2.31
269.27	2.6
269.649	1.85
270.029	3.01
270.408	2.69
270.787	2.61
271.167	1.76
271.546	2.32
271.925	2.4
272.304	2.5
272.683	2.1
273.062	2.37
273.441	2.46
273.82	2.31
274.199	2.52
274.578	1.7
274.957	2.26
275.336	2.46
275.715	1.92
276.093	2.09
276.472	2.34
276.851	2.39
277.229	2.71
277.608	2.6
277.986	2.67
278.365	2.14
278.743	1.93
279.122	2.8
279.5	2.13
279.878	2.42
280.257	2.23
280.635	2.45
281.013	2.28
281.391	2.16
281.769	2.34
282.147	2.46
282.525	1.69
282.903	2.51
283.281	2.29
283.659	2.55
284.037	2.46
284.415	2.34
284.792	2.7
285.17	2.71
285.548	2.03
285.925	2.34
286.303	2.06
286.68	2.52
287.058	2.44
287.435	2.48
287.813	2.4
288.19	2.54
288.567	2.38
288.945	2.52
289.322	2.76
289.699	1.97
290.076	3.04
290.453	2.46
290.83	2.64
291.207	2.86
291.584	2.8
291.961	2.44
292.338	2.56
292.715	2.75
293.092	2.51
293.469	2.52
293.845	2.9
294.222	2.32
294.599	2.54
294.975	2.46
295.352	2.64
295.728	2.51
296.105	2.68
296.481	2.25
296.858	2.71
297.234	2.89
297.61	2.29
297.986	3.05
298.363	2.87
298.739	2.92
299.115	2.99
299.491	2.9
299.867	3.07
300.243	2.7
300.619	2.95
300.995	3.36
301.371	3.71
301.746	3.34
302.122	3.46
302.498	3.38
302.874	3.06
303.249	2.92
303.625	3.29
304	2.91
304.376	3.22
304.751	2.98
305.127	3.12
305.502	3.43
305.878	3.46
306.253	3.44
306.628	3.39
307.003	3.98
307.378	3.48
307.754	3.71
308.129	3.84
308.504	3.86
308.879	3.73
309.254	4.11
309.629	3.77
310.003	3.65
310.378	4
310.753	4.2
311.128	4.2
311.502	4.1
311.877	3.93
312.252	4.19
312.626	4.03
313.001	3.96
313.375	3.95
313.75	4.27
314.124	3.79
314.498	4.23
314.873	4.06
315.247	4.54
315.621	4.5
315.995	4.71
316.369	4.51
316.743	4.49
317.117	4.98
317.491	4.5
317.865	4.47
318.239	4.84
318.613	4.79
318.987	5.07
319.361	4.59
319.734	5.3
320.108	4.59
320.482	5.35
320.855	4.53
321.229	5.07
321.602	4.6
321.976	5.19
322.349	5.5
322.723	5.5
323.096	5.53
323.469	5.33
323.843	5.55
324.216	5.72
324.589	5.47
324.962	5.81
325.335	5.4
325.708	5.32
326.081	5.69
326.454	5.6
326.827	5.77
327.2	6.09
327.573	6.15
327.945	6.08
328.318	5.62
328.691	6.21
329.063	6.14
329.436	5.8
329.809	6.04
330.181	5.84
330.553	5.61
330.926	6.36
331.298	6.16
331.671	5.83
332.043	5.68
332.415	6.26
332.787	6.62
333.159	5.87
333.532	6.46
333.904	6.55
334.276	6.35
334.648	6.46
335.02	6.25
335.391	6.71
335.763	6.34
336.135	6.3
336.507	6.75
336.879	6.52
337.25	6.1
337.622	7.03
337.993	6.87
338.365	6.5
338.736	7.12
339.108	6.93
339.479	6.51
339.851	6.64
340.222	6.76
340.593	6.91
340.964	7.12
341.336	7.28
341.707	7.24
342.078	6.35
342.449	6.91
342.82	7.41
343.191	7.33
343.562	7.24
343.933	7.17
344.303	7.23
344.674	7.19
345.045	7.19
345.416	7.29
345.786	7.05
346.157	7.01
346.527	7.7
346.898	6.71
347.268	7.08
347.639	7.49
348.009	7.45
348.38	7.48
348.75	7.63
349.12	7.94
349.49	7.67
349.861	7.65
350.231	8.13
350.601	7.69
350.971	7.89
351.341	7.79
351.711	8.08
352.081	7.81
352.45	7.87
352.82	7.92
353.19	8.05
353.56	7.85
353.929	8.11
354.299	7.95
354.669	7.94
355.038	7.86
355.408	8.31
355.777	8.62
356.147	8.34
356.516	8.1
356.885	8.4
357.254	8.01
357.624	8.03
357.993	8.6
358.362	8.6
358.731	8.02
359.1	8.48
359.469	8.07
359.838	8.14
360.207	8.58
360.576	8.34
360.945	8.79
361.314	8.49
361.682	8.55
362.051	8.64
362.42	8.74
362.788	8.84
363.157	8.79
363.525	8.52
363.894	8.73
364.262	8.86
364.631	9.07
364.999	8.73
365.367	8.98
365.735	9.04
366.104	9.03
366.472	9.04
366.84	8.85
367.208	9.13
367.576	9.52
367.944	9.61
368.312	9.3
368.68	9.38
369.048	9.43
369.416	9.63
369.783	9.53
370.151	9.77
370.519	9.24
370.886	9.89
371.254	9.93
371.621	9.61
371.989	9.61
372.356	9.8
372.724	10.01
373.091	9.81
373.458	9.69
373.826	9.67
374.193	9.61
374.56	9.76
374.927	10.05
375.294	10.29
375.661	10.26
376.028	9.64
376.395	10.33
376.762	10.29
377.129	10.01
377.496	10.19
377.863	10.35
378.229	10.18
378.596	9.89
378.963	10.23
379.329	10.44
379.696	10.19
380.062	10.35
380.429	10.4
380.795	10.61
381.161	10.18
381.528	10.36
381.894	10.52
382.26	10.57
382.626	10.72
382.993	10.8
383.359	10.79
383.725	10.76
384.091	11.06
384.457	10.99
384.823	10.57
385.188	10.88
385.554	10.87
385.92	10.6
386.286	10.87
386.651	10.95
387.017	10.84
387.383	11.02
387.748	10.86
388.114	10.97
388.479	11.01
388.845	10.9
389.21	11.07
389.575	11.05
389.94	11.01
390.306	11.06
390.671	11.26
391.036	11.31
391.401	11.34
391.766	11.33
392.131	11.3
392.496	11.33
392.861	11.14
393.226	11.16
393.591	11.29
393.956	11.34
394.32	11.38
394.685	11.51
395.05	11.4
395.414	11.42
395.779	11.52
396.143	11.51
396.508	11.53
396.872	11.65
397.236	11.48
397.601	11.47
397.965	11.39
398.329	11.63
398.694	11.65
399.058	11.45
399.422	11.76
399.786	11.52
400.15	11.66
400.514	11.69
400.878	11.79
401.242	11.68
401.605	11.87
401.969	12.02
402.333	11.66
402.697	11.89
403.06	11.97
403.424	11.57
403.787	11.83
404.151	11.73
404.514	11.76
404.878	11.72
405.241	11.78
405.604	11.66
405.968	11.92
406.331	11.51
406.694	11.69
407.057	11.83
407.42	11.87
407.783	11.99
408.146	12.1
408.509	11.86
408.872	12.07
409.235	12.04
409.598	11.97
409.961	12.24
410.323	11.96
410.686	11.98
411.049	11.75
411.411	11.7
411.774	12.06
412.136	12.02
412.499	12.13
412.861	12.11
413.223	12.05
413.586	12.14
413.948	12.34
414.31	12.17
414.672	12.14
415.035	12.19
415.397	12.2
415.759	11.97
416.121	12.34
416.483	12.29
416.845	12.28
417.206	12.25
417.568	12.16
417.93	12.39
418.292	12.29
418.653	12.47
419.015	12.43
419.377	12.44
419.738	12.52
420.1	12.45
420.461	12.55
420.822	12.39
421.184	12.5
421.545	12.51
421.906	12.55
422.267	12.62
422.629	12.48
422.99	12.63
423.351	12.59
423.712	12.75
424.073	12.85
424.434	13.06
424.795	13.09
425.155	13.08
425.516	13.03
425.877	13.07
426.238	13.19
426.598	13.21
426.959	13.34
427.32	13.45
427.68	13.54
428.041	13.56
428.401	13.5
428.761	13.84
429.122	13.87
429.482	13.99
429.842	14
430.202	14.25
430.563	14.16
430.923	14.14
431.283	14.14
431.643	14.4
432.003	14.42
432.363	14.41
432.722	14.75
433.082	14.7
433.442	14.54
433.802	14.7
434.161	14.78
434.521	14.77
434.881	14.91
435.24	14.7
435.6	14.91
435.959	14.89
436.319	14.95
436.678	14.96
437.037	15.26
437.396	15.21
437.756	15.3
438.115	15.12
438.474	15.14
438.833	15.4
439.192	15.46
439.551	15.37
439.91	15.47
440.269	15.55
440.628	15.69
440.987	15.71
441.345	15.53
441.704	15.6
442.063	15.59
442.421	15.58
442.78	15.64
443.138	15.88
443.497	15.7
443.855	15.8
444.214	15.98
444.572	16.08
444.93	16.1
445.288	16.26
445.647	16.24
446.005	16.35
446.363	16.32
446.721	16.35
447.079	16.31
447.437	16.14
447.795	16.19
448.153	16.17
448.51	16.3
448.868	16.32
449.226	16.37
449.584	16.33
449.941	16.64
450.299	16.64
450.656	16.64
451.014	16.86
451.371	16.85
451.729	16.89
452.086	16.97
452.443	17.01
452.801	17.27
453.158	17.14
453.515	17.05
453.872	16.92
454.229	17.29
454.586	17.18
454.943	17.45
455.3	17.37
455.657	17.63
456.014	17.51
456.371	17.56
456.727	17.81
457.084	17.68
457.441	17.85
457.797	17.62
458.154	17.93
458.51	17.94
458.867	17.87
459.223	17.99
459.58	17.91
459.936	17.85
460.292	18.09
460.648	17.93
461.005	17.78
461.361	17.61
461.717	17.65
462.073	17.91
462.429	17.93
462.785	18
463.141	18.17
463.496	18.25
463.852	18.52
464.208	18.43
464.564	18.49
464.919	18.58
465.275	18.75
465.631	18.81
465.986	19.09
466.342	18.81
466.697	18.8
467.052	19.02
467.408	18.9
467.763	19
468.118	18.96
468.473	18.98
468.829	19.18
469.184	19.12
469.539	19.23
469.894	19.25
470.249	19.3
470.603	19.28
470.958	19.47
471.313	19.46
471.668	19.65
472.023	19.31
472.377	19.64
472.732	19.65
473.086	19.51
473.441	19.67
473.795	19.56
474.15	19.76
474.504	19.95
474.859	19.98
475.213	19.79
475.567	19.97
475.921	20.09
476.275	20.07
476.63	20.06
476.984	20.13
477.338	20.21
477.692	19.96
478.045	19.9
478.399	20.09
478.753	20.18
479.107	20.24
479.461	20.19
479.814	20.1
480.168	20.32
480.521	20.36
480.875	20.39
481.228	20.43
481.582	20.29
481.935	20.34
482.289	20.52
482.642	20.49
482.995	20.27
483.348	20.31
483.701	20.38
484.055	20.28
484.408	20.14
484.761	19.86
485.114	19.62
485.466	19.57
485.819	19.65
486.172	19.79
486.525	19.93
486.878	20.05
487.23	20.14
487.583	20.34
487.936	20.45
488.288	20.27
488.641	20.2
488.993	20.09
489.345	20.02
489.698	20.24
490.05	20.27
490.402	20.43
490.754	20.55
491.107	20.72
491.459	20.86
491.811	20.96
492.163	21.09
492.515	20.99
492.866	20.69
493.218	20.55
493.57	20.55
493.922	20.69
494.274	20.95
494.625	21.09
494.977	21.33
495.328	21.6
495.68	21.69
496.031	21.75
496.383	22.09
496.734	21.77
497.086	22.04
497.437	21.99
497.788	21.88
498.139	21.84
498.49	21.81
498.842	21.92
499.193	22.08
499.544	21.92
499.894	21.88
500.245	21.99
500.596	22.24
500.947	22.22
501.298	22.4
501.648	22.45
501.999	22.44
502.35	22.59
502.7	22.5
503.051	22.52
503.401	22.63
503.752	22.67
504.102	22.6
504.452	22.67
504.803	22.66
505.153	22.84
505.503	22.82
505.853	22.68
506.203	22.86
506.553	22.79
506.903	22.73
507.253	22.88
507.603	22.94
507.953	23.12
508.303	22.97
508.652	23.14
509.002	23.16
509.352	23.18
509.701	23.18
510.051	23.07
510.4	23.03
510.75	23.14
511.099	22.98
511.449	23.14
511.798	23.08
512.147	23.23
512.496	23.23
512.846	23.48
513.195	23.32
513.544	23.24
513.893	23.22
514.242	23.37
514.591	23.4
514.939	23.4
515.288	23.52
515.637	23.65
515.986	23.53
516.334	23.8
516.683	23.8
517.032	23.77
517.38	23.71
517.729	23.95
518.077	23.96
518.426	23.88
518.774	23.89
519.122	23.79
519.47	23.64
519.819	23.58
520.167	23.57
520.515	23.56
520.863	23.63
521.211	23.71
521.559	23.65
521.907	23.87
522.255	23.9
522.602	24.19
522.95	24.22
523.298	24.16
523.645	24.23
523.993	24.3
524.341	24.35
524.688	24.5
525.036	24.45
525.383	24.49
525.73	24.43
526.078	24.23
526.425	24.29
526.772	24.27
527.119	24.03
527.466	23.9
527.814	24.12
528.161	24.14
528.508	24.23
528.854	24
529.201	24
529.548	23.82
529.895	23.63
530.242	23.56
530.588	23.62
530.935	23.83
531.282	23.92
531.628	24.05
531.975	24.2
532.321	24.3
532.667	24.47
533.014	24.55
533.36	24.7
533.706	24.8
534.052	24.56
534.399	24.44
534.745	24.3
535.091	24.18
535.437	24.33
535.783	24.55
536.129	24.69
536.474	24.85
536.82	24.91
537.166	25.09
537.512	25.07
537.857	24.86
538.203	24.85
538.549	24.99
538.894	25.11
539.239	25.17
539.585	25.2
539.93	25.33
540.276	25.59
540.621	25.64
540.966	25.73
541.311	25.63
541.656	25.59
542.001	25.46
542.346	25.34
542.691	25.01
543.036	24.82
543.381	24.93
543.726	24.98
544.071	25.23
544.415	25.36
544.76	25.36
545.105	25.47
545.449	25.49
545.794	25.74
546.138	25.85
546.483	25.94
546.827	26.06
547.171	26.17
547.516	26.02
547.86	26.04
548.204	25.96
548.548	26.03
548.892	26.06
549.236	26.32
549.58	26.41
549.924	26.25
550.268	26.46
550.612	26.75
550.956	26.79
551.3	26.89
551.643	26.84
551.987	27.07
552.33	27.09
552.674	26.98
553.017	27.07
553.361	27.12
553.704	27.14
554.048	26.86
554.391	26.85
554.734	26.88
555.077	27.13
555.42	27.01
555.764	27.18
556.107	27.3
556.45	27.28
556.793	27.3
557.135	27.34
557.478	27.66
557.821	27.43
558.164	27.68
558.507	27.57
558.849	27.78
559.192	27.52
559.534	27.79
559.877	27.84
560.219	27.9
560.562	27.71
560.904	27.89
561.246	27.88
561.589	27.89
561.931	27.79
562.273	28
562.615	27.85
562.957	28.04
563.299	28
563.641	27.86
563.983	27.81
564.325	27.98
564.667	28.08
565.008	28.34
565.35	28.16
565.692	27.92
566.033	28.06
566.375	28.34
566.716	28.04
567.058	28.12
567.399	28.2
567.741	28.22
568.082	28.07
568.423	28.14
568.764	28.21
569.105	28.24
569.447	28.27
569.788	28.27
570.129	28.44
570.47	28.52
570.811	28.4
571.151	28.68
571.492	28.53
571.833	28.55
572.174	28.81
572.514	28.83
572.855	28.78
573.195	28.4
573.536	28.66
573.876	28.45
574.217	28.49
574.557	28.62
574.898	28.67
575.238	28.83
575.578	28.83
575.918	28.86
576.258	28.93
576.598	28.95
576.938	29.02
577.278	29.02
577.618	29.11
577.958	29.16
578.298	29.04
578.638	28.93
578.977	29.08
579.317	29.36
579.657	29.44
579.996	29.35
580.336	29.71
580.675	29.55
581.014	29.78
581.354	29.67
581.693	29.85
582.032	29.62
582.372	29.59
582.711	29.91
583.05	29.66
583.389	29.88
583.728	29.85
584.067	30.31
584.406	30.27
584.745	30.34
585.083	30.06
585.422	30.35
585.761	30.16
586.1	30.01
586.438	30.07
586.777	29.95
587.115	30.09
587.454	30.25
587.792	30.18
588.13	30.18
588.469	30.29
588.807	30.17
589.145	30.54
589.483	30.28
589.821	30.35
590.159	30.72
590.497	30.44
590.835	30.56
591.173	30.84
591.511	30.29
591.849	30.38
592.187	30.28
592.524	30.59
592.862	30.53
593.2	30.75
593.537	30.92
593.875	31.15
594.212	30.69
594.55	30.74
594.887	30.98
595.224	30.85
595.561	30.74
595.899	30.42
596.236	30.79
596.573	30.77
596.91	31.21
597.247	30.92
597.584	30.91
597.921	31.04
598.258	30.62
598.594	30.74
598.931	30.67
599.268	30.96
599.604	30.93
599.941	31.37
600.277	31.07
600.614	31.23
600.95	31.12
601.287	31.5
601.623	31.65
601.959	31.63
602.296	31.7
602.632	31.59
602.968	31.3
603.304	31.6
603.64	31.63
603.976	31.82
604.312	31.59
604.648	31.47
604.984	31.54
605.319	31.44
605.655	31.52
605.991	31.53
606.326	31.42
606.662	31.41
606.998	31.53
607.333	31.76
607.668	31.76
608.004	31.64
608.339	31.83
608.674	31.8
609.01	32.23
609.345	32.13
609.68	31.79
610.015	32.09
610.35	32
610.685	32.23
611.02	31.78
611.355	31.85
611.689	31.98
612.024	32.03
612.359	32.18
612.694	32.04
613.028	32.35
613.363	32.23
613.697	32.43
614.032	32.6
614.366	32.62
614.7	32.52
615.035	32.42
615.369	32.41
615.703	32.71
616.037	32.44
616.371	32.72
616.705	32.47
617.039	32.95
617.373	32.59
617.707	32.61
618.041	33.14
618.375	32.84
618.709	33.21
619.042	33.24
619.376	33.08
619.71	33.18
620.043	32.72
620.377	32.71
620.71	33.01
621.043	33.13
621.377	33.2
621.71	33.06
622.043	33.27
622.376	33.3
622.709	33.2
623.043	33.24
623.376	33.41
623.709	33.29
624.041	33.77
624.374	32.93
624.707	33.46
625.04	33.05
625.373	33.28
625.705	33.3
626.038	33.7
626.37	33.44
626.703	33.22
627.035	33.34
627.368	33.21
627.7	33.55
628.032	33.13
628.365	33.36
628.697	33.25
629.029	33.45
629.361	33.61
629.693	34.01
630.025	33.37
630.357	34.03
630.689	33.72
631.021	33.68
631.353	33.96
631.684	33.76
632.016	33.96
632.348	34.04
632.679	33.89
633.011	34.03
633.342	33.79
633.674	33.8
634.005	33.57
634.336	34.1
634.668	34.05
634.999	34.09
635.33	34.6
635.661	33.92
635.992	34.17
636.323	34.18
636.654	34.21
636.985	34.48
637.316	34.71
637.647	34.37
637.977	34.47
638.308	34.74
638.639	34.28
638.969	34.45
639.3	34.55
639.63	34.39
639.961	34.6
640.291	34.72
640.622	34.69
640.952	34.63
641.282	34.38
641.612	34.26
641.943	34.83
642.273	34.85
642.603	34.81
642.933	34.76
643.263	34.7
643.592	35.02
643.922	35.04
644.252	34.8
644.582	35.31
644.911	34.94
645.241	34.73
645.571	35.32
645.9	35.59
646.23	35.3
646.559	35.37
646.888	35.31
647.218	35.32
647.547	35.12
647.876	35.1
648.205	35.14
648.534	35.37
648.863	35.31
649.192	35.11
649.521	35.58
649.85	35.66
650.179	35.26
650.508	35.69
650.837	35.71
651.165	35.26
651.494	35.46
651.822	36.08
652.151	35.29
652.479	34.8
652.808	35.34
653.136	35.06
653.465	35.67
653.793	35.48
654.121	35.64
654.449	35.69
654.777	36.05
655.105	35.95
655.433	35.49
655.761	35.71
656.089	35.47
656.417	35.26
656.745	35.84
657.073	36
657.4	36.21
657.728	36.01
658.056	35.95
658.383	36.48
658.711	36.09
659.038	36.84
659.365	35.27
659.693	35.88
660.02	36.04
660.347	36.13
660.674	36.4
661.001	35.94
661.329	35.57
661.656	36.25
661.982	36.2
662.309	35.83
662.636	36.74
662.963	36.33
663.29	36.02
663.616	35.93
663.943	36.17
664.27	36.7
664.596	36.34
664.923	36.36
665.249	36.83
665.576	36.61
665.902	36.97
666.228	36.85
666.554	36.47
666.881	36.38
667.207	37.36
667.533	36.73
667.859	37.07
668.185	36.68
668.511	37.04
668.837	36.58
669.162	36.82
669.488	37.01
669.814	36.5
670.139	36.96
670.465	36.86
670.791	36.67
671.116	36.82
671.442	37.06
671.767	36.48
672.092	37.15
672.418	37.07
672.743	36.41
