Data from 20-9_forehead_Reflection__2__148.txt Node

Date: Fri Nov 11 21:13:27 CST 2022
User: ToomeyLab
Spectrometer: FLMS14357
Trigger mode: 0
Integration Time (sec): 1.000000E-2
Scans to average: 100
Electric dark correction enabled: true
Nonlinearity correction enabled: false
Boxcar width: 0
XAxis mode: Wavelengths
Number of Pixels in Spectrum: 2048
>>>>>Begin Spectral Data<<<<<
189.047	-67.93
189.435	-67.93
189.823	-67.93
190.211	-321.27
190.599	221.23
190.987	144.87
191.375	-8.94
191.763	-29.11
192.151	-111.79
192.538	-109.41
192.926	279.78
193.314	123.99
193.702	52.59
194.089	116.35
194.477	542.06
194.864	154.4
195.252	88.96
195.639	35.47
196.027	1768.38
196.414	68.41
196.801	55.04
197.189	42.59
197.576	-3.01
197.963	64.29
198.351	-59.52
198.738	44.74
199.125	37.47
199.512	57.47
199.899	-580.62
200.286	-18.6
200.673	13.53
201.06	36.74
201.447	43.83
201.833	13.41
202.22	4.38
202.607	53.53
202.994	46.01
203.38	34.54
203.767	45.11
204.154	20.33
204.54	5.54
204.927	2.1
205.313	22.03
205.699	-43.83
206.086	35.87
206.472	34.86
206.858	76.04
207.245	50.59
207.631	34.12
208.017	29.07
208.403	-22.55
208.789	33.71
209.175	28.69
209.561	41.22
209.947	7.51
210.333	-5.98
210.719	32.33
211.105	48.66
211.491	31.6
211.876	7.94
212.262	57.29
212.648	25.68
213.034	15.42
213.419	-15.02
213.805	29.69
214.19	40.87
214.576	38.26
214.961	-29.45
215.346	-13.86
215.732	25.85
216.117	32.59
216.502	26.29
216.888	16.25
217.273	17.88
217.658	1.46
218.043	15.02
218.428	18.72
218.813	4.91
219.198	26.82
219.583	26.34
219.968	-13.81
220.353	-3.7
220.738	7.93
221.122	4.62
221.507	-4.52
221.892	23.61
222.276	20.98
222.661	19.15
223.046	-10.67
223.43	6.54
223.815	7.05
224.199	13.51
224.583	7.98
224.968	3.11
225.352	8.34
225.736	-3.47
226.121	6.25
226.505	4.04
226.889	-3.6
227.273	7.48
227.657	1.04
228.041	1.56
228.425	4.76
228.809	8.18
229.193	8.64
229.577	7.14
229.961	4.95
230.344	5.07
230.728	3.7
231.112	3.89
231.495	5.5
231.879	4.15
232.263	3.22
232.646	3.74
233.03	4.3
233.413	4.51
233.797	4.2
234.18	2.51
234.563	6.53
234.946	4.98
235.33	5.6
235.713	4.1
236.096	3.54
236.479	5.97
236.862	4.46
237.245	5.63
237.628	6.09
238.011	4.48
238.394	7.2
238.777	5.64
239.16	5.72
239.543	5.09
239.925	5.57
240.308	5.18
240.691	5.28
241.073	3.85
241.456	4.14
241.838	4.41
242.221	5.38
242.603	5.17
242.986	4.07
243.368	4.52
243.75	4.74
244.133	4.64
244.515	4.28
244.897	4.94
245.279	4.36
245.661	4.8
246.043	4.32
246.425	5.55
246.807	5.12
247.189	4.68
247.571	4.59
247.953	4.85
248.335	4.64
248.717	4.8
249.098	4.66
249.48	4.49
249.862	4.65
250.243	4.44
250.625	4.41
251.006	4.73
251.388	5.35
251.769	5.49
252.151	4.69
252.532	5.13
252.913	5.24
253.295	4.94
253.676	3.92
254.057	4.36
254.438	4.41
254.819	4.84
255.2	4.97
255.581	4.8
255.962	4.14
256.343	3.74
256.724	5.31
257.105	4.8
257.486	4.6
257.867	5.23
258.247	3.75
258.628	4.68
259.009	4.85
259.389	4.35
259.77	5.41
260.15	4.53
260.531	4.07
260.911	4.45
261.292	4.57
261.672	4.17
262.052	4.4
262.432	4.31
262.813	4.69
263.193	4.42
263.573	4.29
263.953	5.27
264.333	4.02
264.713	4.52
265.093	4.31
265.473	4.15
265.853	4.78
266.233	4.41
266.612	4.91
266.992	4.51
267.372	5.09
267.752	4.41
268.131	4.53
268.511	4.13
268.89	4.14
269.27	4.21
269.649	3.67
270.029	4.6
270.408	4.14
270.787	4.09
271.167	4.06
271.546	4.19
271.925	4.3
272.304	4.47
272.683	4.21
273.062	3.98
273.441	4.23
273.82	4.03
274.199	3.93
274.578	3.65
274.957	4.35
275.336	4.59
275.715	4.55
276.093	4.26
276.472	4.15
276.851	4.33
277.229	4.09
277.608	4.29
277.986	3.96
278.365	3.32
278.743	4.37
279.122	4.1
279.5	4.16
279.878	4.37
280.257	4.41
280.635	4.61
281.013	4.85
281.391	3.85
281.769	4.05
282.147	3.99
282.525	3.59
282.903	4.25
283.281	4.35
283.659	4.3
284.037	4.62
284.415	3.99
284.792	4.38
285.17	4.25
285.548	3.85
285.925	4
286.303	4.16
286.68	4.25
287.058	4.27
287.435	3.83
287.813	4
288.19	4.04
288.567	4.41
288.945	4.44
289.322	4.85
289.699	3.59
290.076	4.5
290.453	4.1
290.83	4.18
291.207	4.32
291.584	4.69
291.961	4.25
292.338	4.46
292.715	4.25
293.092	5.26
293.469	4.63
293.845	5.08
294.222	4.46
294.599	4.82
294.975	4.41
295.352	4.94
295.728	4.77
296.105	4.54
296.481	4.09
296.858	4.52
297.234	4.73
297.61	4.41
297.986	5.08
298.363	5.03
298.739	5.03
299.115	5.04
299.491	5.01
299.867	4.9
300.243	4.92
300.619	4.98
300.995	5.34
301.371	5.81
301.746	5.6
302.122	5.16
302.498	5.71
302.874	5.52
303.249	5.3
303.625	5.16
304	5.17
304.376	5.45
304.751	5.28
305.127	5.7
305.502	5.87
305.878	6.37
306.253	5.89
306.628	5.62
307.003	6.03
307.378	5.26
307.754	6.16
308.129	6.14
308.504	5.84
308.879	5.88
309.254	6.49
309.629	5.99
310.003	6.19
310.378	6.51
310.753	6.61
311.128	6.58
311.502	6.52
311.877	6.31
312.252	6.73
312.626	6.42
313.001	6.17
313.375	6.84
313.75	6.72
314.124	6.61
314.498	6.67
314.873	7.09
315.247	6.77
315.621	7.09
315.995	7.75
316.369	7.56
316.743	7.39
317.117	7.66
317.491	7.04
317.865	7.08
318.239	7.25
318.613	7.7
318.987	7.76
319.361	7.28
319.734	7.66
320.108	7.78
320.482	8.28
320.855	8.22
321.229	7.96
321.602	8.11
321.976	7.82
322.349	8.45
322.723	8.89
323.096	8.42
323.469	8.49
323.843	8.55
324.216	8.17
324.589	8.27
324.962	8.63
325.335	8.48
325.708	8.86
326.081	9.03
326.454	8.15
326.827	8.25
327.2	8.87
327.573	9.74
327.945	8.71
328.318	8.62
328.691	8.9
329.063	9.1
329.436	9.02
329.809	9.16
330.181	9.01
330.553	8.35
330.926	9.43
331.298	9.22
331.671	9.14
332.043	9.08
332.415	8.94
332.787	9.68
333.159	9.28
333.532	9.49
333.904	9.46
334.276	9.17
334.648	9.35
335.02	9.8
335.391	9.91
335.763	9.77
336.135	9.71
336.507	9.64
336.879	9.38
337.25	9.23
337.622	10.31
337.993	10.03
338.365	10.1
338.736	9.88
339.108	9.95
339.479	9.93
339.851	9.77
340.222	9.74
340.593	10.57
340.964	10.32
341.336	10.45
341.707	9.96
342.078	9.9
342.449	10.45
342.82	10.44
343.191	10.5
343.562	10.3
343.933	10.46
344.303	9.89
344.674	10
345.045	10.32
345.416	10.54
345.786	10.37
346.157	10.3
346.527	10.49
346.898	10.28
347.268	10.51
347.639	10.91
348.009	10.62
348.38	10.79
348.75	10.89
349.12	11.65
349.49	11.22
349.861	11.13
350.231	10.86
350.601	10.95
350.971	11.29
351.341	11.58
351.711	11.15
352.081	11.09
352.45	11.18
352.82	11.19
353.19	11.45
353.56	11.22
353.929	11.78
354.299	11.39
354.669	11.44
355.038	11.22
355.408	11.53
355.777	11.68
356.147	11.72
356.516	11.83
356.885	11.78
357.254	11.4
357.624	11.67
357.993	11.81
358.362	11.91
358.731	11.48
359.1	11.57
359.469	11.5
359.838	11.91
360.207	12.11
360.576	12.04
360.945	12.08
361.314	12.28
361.682	12.02
362.051	12.33
362.42	12.35
362.788	12.38
363.157	12.17
363.525	12.22
363.894	12.03
364.262	12.19
364.631	12.47
364.999	12.47
365.367	12.66
365.735	12.4
366.104	12.47
366.472	12.53
366.84	12.16
367.208	12.45
367.576	12.92
367.944	13.05
368.312	12.82
368.68	12.6
369.048	12.76
369.416	12.83
369.783	12.78
370.151	13.2
370.519	13.15
370.886	12.96
371.254	13.15
371.621	12.95
371.989	12.93
372.356	13.45
372.724	13.53
373.091	13.49
373.458	13.52
373.826	13.47
374.193	13.24
374.56	13.39
374.927	13.6
375.294	13.79
375.661	13.81
376.028	13.31
376.395	13.75
376.762	13.88
377.129	13.71
377.496	13.81
377.863	13.89
378.229	13.82
378.596	13.68
378.963	13.63
379.329	13.8
379.696	14.04
380.062	14.04
380.429	14.02
380.795	14.34
381.161	13.94
381.528	13.94
381.894	13.98
382.26	14.39
382.626	14.3
382.993	14.31
383.359	14.49
383.725	14.15
384.091	14.42
384.457	14.46
384.823	14.35
385.188	14.53
385.554	14.57
385.92	14.13
386.286	14.61
386.651	14.49
387.017	14.37
387.383	14.76
387.748	14.44
388.114	14.41
388.479	14.59
388.845	14.84
389.21	14.54
389.575	14.88
389.94	14.64
390.306	14.66
390.671	14.89
391.036	14.83
391.401	14.88
391.766	14.76
392.131	14.89
392.496	14.81
392.861	14.96
393.226	14.77
393.591	14.74
393.956	14.91
394.32	14.92
394.685	14.97
395.05	15
395.414	14.85
395.779	14.99
396.143	14.89
396.508	14.96
396.872	15.07
397.236	14.85
397.601	15.02
397.965	15.01
398.329	15.14
398.694	15.18
399.058	15.16
399.422	15.11
399.786	15.03
400.15	15.08
400.514	15.31
400.878	15.18
401.242	15.05
401.605	15.21
401.969	15.12
402.333	14.96
402.697	15.19
403.06	15.36
403.424	15.12
403.787	15.43
404.151	15.2
404.514	15.25
404.878	15.2
405.241	15.01
405.604	15.1
405.968	14.96
406.331	14.96
406.694	15.03
407.057	15.22
407.42	15.39
407.783	15.15
408.146	15.28
408.509	15.44
408.872	15.42
409.235	15.36
409.598	15.29
409.961	15.3
410.323	15.33
410.686	15.37
411.049	15.44
411.411	15.31
411.774	15.56
412.136	15.29
412.499	15.32
412.861	15.31
413.223	15.37
413.586	15.37
413.948	15.81
414.31	15.65
414.672	15.39
415.035	15.72
415.397	15.6
415.759	15.36
416.121	15.61
416.483	15.76
416.845	15.73
417.206	15.64
417.568	15.48
417.93	15.78
418.292	15.69
418.653	15.83
419.015	15.77
419.377	15.89
419.738	15.7
420.1	15.95
420.461	15.98
420.822	15.92
421.184	15.97
421.545	16.02
421.906	16.06
422.267	16.07
422.629	16.03
422.99	16.16
423.351	16.17
423.712	16.32
424.073	16.36
424.434	16.5
424.795	16.72
425.155	16.72
425.516	16.56
425.877	16.65
426.238	16.72
426.598	16.66
426.959	16.81
427.32	17.15
427.68	17.18
428.041	17.33
428.401	17.33
428.761	17.47
429.122	17.53
429.482	17.82
429.842	17.55
430.202	17.69
430.563	18.03
430.923	18.05
431.283	17.82
431.643	17.88
432.003	18.05
432.363	18.2
432.722	18.52
433.082	18.49
433.442	18.55
433.802	18.48
434.161	18.61
434.521	18.63
434.881	18.72
435.24	18.82
435.6	18.55
435.959	18.69
436.319	18.7
436.678	18.93
437.037	19
437.396	19.22
437.756	19.02
438.115	19.25
438.474	19.08
438.833	19.39
439.192	19.48
439.551	19.39
439.91	19.26
440.269	19.52
440.628	19.55
440.987	19.52
441.345	19.47
441.704	19.54
442.063	19.49
442.421	19.69
442.78	19.61
443.138	19.89
443.497	19.61
443.855	19.91
444.214	20.01
444.572	20.01
444.93	20.22
445.288	20.23
445.647	20.31
446.005	20.35
446.363	20.51
446.721	20.36
447.079	20.26
447.437	20.31
447.795	20.26
448.153	20.29
448.51	20.3
448.868	20.43
449.226	20.54
449.584	20.59
449.941	20.8
450.299	20.64
450.656	20.98
451.014	20.9
451.371	21.06
451.729	21.12
452.086	21.08
452.443	21.34
452.801	21.32
453.158	21.44
453.515	21.43
453.872	21.25
454.229	21.4
454.586	21.62
454.943	21.53
455.3	21.6
455.657	21.79
456.014	21.7
456.371	21.85
456.727	21.98
457.084	21.77
457.441	22.01
457.797	22.11
458.154	22.18
458.51	22.04
458.867	22.04
459.223	22.3
459.58	22.34
459.936	22.3
460.292	22.17
460.648	22.31
461.005	22.11
461.361	21.94
461.717	22.1
462.073	22.09
462.429	22.06
462.785	22.27
463.141	22.46
463.496	22.7
463.852	22.69
464.208	22.92
464.564	23.04
464.919	23.07
465.275	22.97
465.631	23.05
465.986	23.33
466.342	23.28
466.697	23.22
467.052	23.13
467.408	23.53
467.763	23.46
468.118	23.55
468.473	23.52
468.829	23.35
469.184	23.56
469.539	23.6
469.894	23.73
470.249	23.75
470.603	23.64
470.958	23.84
471.313	23.74
471.668	24.05
472.023	23.81
472.377	23.98
472.732	24.08
473.086	24.18
473.441	24.15
473.795	24.25
474.15	24.15
474.504	24.32
474.859	24.44
475.213	24.25
475.567	24.41
475.921	24.32
476.275	24.33
476.63	24.62
476.984	24.6
477.338	24.67
477.692	24.48
478.045	24.49
478.399	24.68
478.753	24.53
479.107	24.73
479.461	24.7
479.814	24.53
480.168	24.72
480.521	24.96
480.875	24.84
481.228	24.93
481.582	25.09
481.935	24.9
482.289	24.84
482.642	24.86
482.995	25.05
483.348	24.93
483.701	24.88
484.055	24.77
484.408	24.72
484.761	24.41
485.114	24.34
485.466	24.32
485.819	24.4
486.172	24.36
486.525	24.46
486.878	24.61
487.23	24.75
487.583	24.9
487.936	25.05
488.288	25
488.641	24.99
488.993	25.01
489.345	24.83
489.698	24.97
490.05	25.08
490.402	25.13
490.754	25.16
491.107	25.33
491.459	25.46
491.811	25.73
492.163	25.72
492.515	25.69
492.866	25.5
493.218	25.49
493.57	25.44
493.922	25.51
494.274	25.52
494.625	25.72
494.977	25.98
495.328	26.22
495.68	26.39
496.031	26.51
496.383	26.6
496.734	26.79
497.086	26.84
497.437	26.66
497.788	26.45
498.139	26.76
498.49	26.52
498.842	26.54
499.193	26.66
499.544	26.73
499.894	26.83
500.245	26.78
500.596	27.1
500.947	27.12
501.298	27.21
501.648	27.35
501.999	27.25
502.35	27.29
502.7	27.27
503.051	27.36
503.401	27.44
503.752	27.54
504.102	27.38
504.452	27.68
504.803	27.71
505.153	27.54
505.503	27.69
505.853	27.64
506.203	27.78
506.553	27.69
506.903	27.82
507.253	27.84
507.603	27.98
507.953	27.98
508.303	27.91
508.652	28.16
509.002	27.94
509.352	28.21
509.701	28.13
510.051	28.04
510.4	27.97
510.75	28.11
511.099	28.04
511.449	28.17
511.798	28.06
512.147	28.12
512.496	28.19
512.846	28.48
513.195	28.28
513.544	28.32
513.893	28.19
514.242	28.41
514.591	28.4
514.939	28.5
515.288	28.48
515.637	28.55
515.986	28.54
516.334	28.68
516.683	28.78
517.032	28.7
517.38	28.74
517.729	28.91
518.077	28.74
518.426	28.88
518.774	28.88
519.122	28.77
519.47	28.84
519.819	28.75
520.167	28.54
520.515	28.69
520.863	28.69
521.211	28.84
521.559	28.77
521.907	28.95
522.255	28.94
522.602	29.01
522.95	29.13
523.298	29.42
523.645	29.41
523.993	29.42
524.341	29.31
524.688	29.52
525.036	29.56
525.383	29.5
525.73	29.43
526.078	29.45
526.425	29.53
526.772	29.45
527.119	29.15
527.466	29.23
527.814	29.25
528.161	29.27
528.508	29.3
528.854	29.36
529.201	29.4
529.548	29.21
529.895	28.92
530.242	29.1
530.588	29.05
530.935	29.19
531.282	29.15
531.628	29.22
531.975	29.34
532.321	29.44
532.667	29.58
533.014	29.67
533.36	29.98
533.706	29.95
534.052	29.8
534.399	29.71
534.745	29.64
535.091	29.7
535.437	29.68
535.783	29.78
536.129	29.79
536.474	30.03
536.82	30.21
537.166	30.26
537.512	30.4
537.857	30.35
538.203	30.3
538.549	30.29
538.894	30.51
539.239	30.3
539.585	30.46
539.93	30.56
540.276	30.84
540.621	30.77
540.966	31.04
541.311	30.88
541.656	30.98
542.001	30.8
542.346	30.73
542.691	30.49
543.036	30.46
543.381	30.53
543.726	30.44
544.071	30.62
544.415	30.7
544.76	30.8
545.105	30.93
545.449	31.03
545.794	31.07
546.138	31.13
546.483	31.47
546.827	31.55
547.171	31.64
547.516	31.53
547.86	31.4
548.204	31.25
548.548	31.42
548.892	31.63
549.236	31.53
549.58	31.7
549.924	31.9
550.268	31.94
550.612	32.21
550.956	32.41
551.3	32.27
551.643	32.29
551.987	32.3
552.33	32.38
552.674	32.55
553.017	32.48
553.361	32.8
553.704	32.63
554.048	32.46
554.391	32.56
554.734	32.53
555.077	32.81
555.42	32.74
555.764	32.62
556.107	32.84
556.45	33.06
556.793	32.98
557.135	32.97
557.478	33.09
557.821	33.14
558.164	33.14
558.507	33.35
558.849	33.44
559.192	33.38
559.534	33.35
559.877	33.4
560.219	33.56
560.562	33.43
560.904	33.43
561.246	33.24
561.589	33.6
561.931	33.79
562.273	33.76
562.615	33.58
562.957	33.65
563.299	33.83
563.641	33.69
563.983	33.8
564.325	33.62
564.667	33.97
565.008	33.94
565.35	33.98
565.692	33.79
566.033	33.98
566.375	34.01
566.716	34.06
567.058	33.97
567.399	34.18
567.741	33.96
568.082	33.92
568.423	34.08
568.764	34.12
569.105	34.01
569.447	34.23
569.788	34.15
570.129	34.22
570.47	34.41
570.811	34.32
571.151	34.47
571.492	34.56
571.833	34.4
572.174	34.49
572.514	34.64
572.855	34.73
573.195	34.54
573.536	34.63
573.876	34.65
574.217	34.48
574.557	34.75
574.898	34.75
575.238	34.65
575.578	34.74
575.918	34.62
576.258	35.05
576.598	35.06
576.938	35.1
577.278	35.21
577.618	35.09
577.958	35.17
578.298	35.05
578.638	35.16
578.977	35.22
579.317	35.36
579.657	35.42
579.996	35.48
580.336	35.48
580.675	35.7
581.014	35.65
581.354	35.62
581.693	35.56
582.032	35.75
582.372	35.69
582.711	36.06
583.05	35.74
583.389	36.07
583.728	36.25
584.067	36.21
584.406	36.16
584.745	36.37
585.083	36.42
585.422	36.39
585.761	36.42
586.1	36.34
586.438	36.5
586.777	36.44
587.115	36.37
587.454	36.55
587.792	36.37
588.13	36.56
588.469	36.73
588.807	36.42
589.145	36.8
589.483	36.73
589.821	36.85
590.159	36.66
590.497	36.99
590.835	36.7
591.173	36.95
591.511	36.74
591.849	36.79
592.187	36.62
592.524	36.81
592.862	36.99
593.2	37.39
593.537	37.28
593.875	37.2
594.212	37.15
594.55	37.26
594.887	37.52
595.224	37
595.561	37.07
595.899	37.13
596.236	37.12
596.573	37.39
596.91	37.44
597.247	37.56
597.584	37.31
597.921	37.65
598.258	37.2
598.594	37.24
598.931	37.29
599.268	37.36
599.604	37.49
599.941	37.53
600.277	37.72
600.614	37.82
600.95	37.81
601.287	37.98
601.623	38.15
601.959	38.57
602.296	38.56
602.632	38.08
602.968	38.06
603.304	38.3
603.64	38.19
603.976	37.99
604.312	38.47
604.648	38.07
604.984	38.19
605.319	38.33
605.655	38.16
605.991	38.28
606.326	38.33
606.662	38.37
606.998	38.47
607.333	38.52
607.668	38.51
608.004	38.54
608.339	38.63
608.674	38.77
609.01	38.91
609.345	38.83
609.68	38.84
610.015	38.81
610.35	39.17
610.685	39.17
611.02	38.86
611.355	38.64
611.689	38.73
612.024	38.94
612.359	38.93
612.694	38.87
613.028	39.07
613.363	38.98
613.697	39.51
614.032	39.45
614.366	39.41
614.7	39.27
615.035	39.53
615.369	39.32
615.703	39.79
616.037	39.71
616.371	39.53
616.705	39.8
617.039	39.68
617.373	39.72
617.707	39.95
618.041	39.95
618.375	39.72
618.709	40.32
619.042	40.08
619.376	40.05
619.71	39.75
620.043	40.15
620.377	39.92
620.71	40
621.043	40.28
621.377	40.35
621.71	40.08
622.043	40.26
622.376	40.18
622.709	39.98
623.043	40.57
623.376	40.26
623.709	40.25
624.041	40.55
624.374	40.46
624.707	40.61
625.04	40.27
625.373	40.07
625.705	40.06
626.038	40.41
626.37	40.74
626.703	40.51
627.035	40.65
627.368	40.75
627.7	41.01
628.032	40.62
628.365	40.96
628.697	40.66
629.029	40.82
629.361	41.09
629.693	40.8
630.025	41
630.357	41.1
630.689	41.11
631.021	41.37
631.353	41.32
631.684	40.91
632.016	40.99
632.348	41.42
632.679	40.75
633.011	41.28
633.342	41.38
633.674	41.26
634.005	41.4
634.336	40.92
634.668	41.25
634.999	41.7
635.33	41.26
635.661	41.76
635.992	41.62
636.323	41.29
636.654	41.94
636.985	41.83
637.316	42.13
637.647	41.79
637.977	41.19
638.308	41.75
638.639	42.09
638.969	41.95
639.3	41.96
639.63	42.14
639.961	42.31
640.291	42.32
640.622	42.05
640.952	42.22
641.282	41.99
641.612	42.05
641.943	42.59
642.273	42.42
642.603	42.18
642.933	42.49
643.263	42.16
643.592	42.23
643.922	42.83
644.252	42.28
644.582	42.8
644.911	42.53
645.241	42.43
645.571	42.86
645.9	42.39
646.23	42.47
646.559	43.09
646.888	43.59
647.218	42.55
647.547	42.79
647.876	43.1
648.205	43.03
648.534	42.85
648.863	43.13
649.192	42.95
649.521	43.55
649.85	42.78
650.179	42.88
650.508	43.53
650.837	43.27
651.165	43.16
651.494	43.42
651.822	43.13
652.151	42.93
652.479	42.82
652.808	43.03
653.136	43.43
653.465	43.51
653.793	43.26
654.121	43.04
654.449	43.25
654.777	43.48
655.105	43.36
655.433	43.93
655.761	43.72
656.089	43.43
656.417	43.51
656.745	43.94
657.073	43.78
657.4	43.59
657.728	43.94
658.056	43.74
658.383	43.82
658.711	43.89
659.038	44.11
659.365	43.7
659.693	43.88
660.02	43.86
660.347	43.49
660.674	44.31
661.001	44.47
661.329	43.85
661.656	44.04
661.982	44.35
662.309	43.7
662.636	44.41
662.963	43.99
663.29	43.9
663.616	44.2
663.943	44.01
664.27	44.34
664.596	44.52
664.923	44.48
665.249	44.39
665.576	44.76
665.902	44.75
666.228	44.89
666.554	44.33
666.881	44.36
667.207	44.96
667.533	45.05
667.859	45.15
668.185	44.65
668.511	44.8
668.837	45.26
669.162	44.8
669.488	45.21
669.814	44.91
670.139	45.04
670.465	45.23
