Data from 20-9_forehead_Reflection__4__150.txt Node

Date: Fri Nov 11 21:13:56 CST 2022
User: ToomeyLab
Spectrometer: FLMS14357
Trigger mode: 0
Integration Time (sec): 1.000000E-2
Scans to average: 100
Electric dark correction enabled: true
Nonlinearity correction enabled: false
Boxcar width: 0
XAxis mode: Wavelengths
Number of Pixels in Spectrum: 2048
>>>>>Begin Spectral Data<<<<<
189.047	17.51
189.435	17.51
189.823	17.51
190.211	-321.1
190.599	325.79
190.987	221.04
191.375	-76.14
191.763	-62.36
192.151	-96.43
192.538	-240.43
192.926	-28.7
193.314	77.64
193.702	94.81
194.089	101.67
194.477	196.17
194.864	52.58
195.252	61.36
195.639	0.77
196.027	2051.47
196.414	97.34
196.801	6.96
197.189	42.03
197.576	50.79
197.963	-40.94
198.351	-62.75
198.738	-0.64
199.125	25.4
199.512	35.33
199.899	-893.84
200.286	18.63
200.673	-7.75
201.06	16.8
201.447	47.04
201.833	-1.12
202.22	32.87
202.607	26.02
202.994	16.34
203.38	24.23
203.767	29.02
204.154	45.42
204.54	-49.56
204.927	21.74
205.313	27.28
205.699	2.51
206.086	47.86
206.472	16.1
206.858	12.3
207.245	98.42
207.631	-3.21
208.017	10.01
208.403	6.77
208.789	61.8
209.175	-6.65
209.561	59.79
209.947	-11.32
210.333	-1.79
210.719	40.42
211.105	37.22
211.491	-11.6
211.876	21.07
212.262	57.46
212.648	5.49
213.034	-19.73
213.419	-76.19
213.805	16.33
214.19	-15.18
214.576	-4.15
214.961	-53.28
215.346	-24.65
215.732	-33.43
216.117	24.2
216.502	39.44
216.888	-7.34
217.273	5.31
217.658	-14.42
218.043	8.44
218.428	-5.82
218.813	-1.69
219.198	8.17
219.583	18.89
219.968	2.59
220.353	-7.98
220.738	-3.36
221.122	9.26
221.507	-18.76
221.892	-5.9
222.276	16.82
222.661	14.72
223.046	-6.95
223.43	-18.88
223.815	11.87
224.199	6.63
224.583	-3.09
224.968	-12.75
225.352	4.65
225.736	-4.68
226.121	1.67
226.505	6.51
226.889	-7.55
227.273	0.3
227.657	-0.41
228.041	1.85
228.425	2.66
228.809	3.39
229.193	4.15
229.577	4.64
229.961	1.3
230.344	2.04
230.728	1.21
231.112	0.41
231.495	1.93
231.879	0.54
232.263	1.37
232.646	0.99
233.03	-0.41
233.413	1.74
233.797	1.5
234.18	1.25
234.563	2.29
234.946	1.67
235.33	2.21
235.713	1.22
236.096	2.28
236.479	1.69
236.862	4.07
237.245	1.36
237.628	2.75
238.011	1.3
238.394	2.59
238.777	2.17
239.16	1.61
239.543	0.57
239.925	3.77
240.308	0.12
240.691	2.56
241.073	0.59
241.456	1.11
241.838	2.92
242.221	1.85
242.603	2.25
242.986	1.14
243.368	1.48
243.75	1.74
244.133	1.67
244.515	1
244.897	2.09
245.279	1.18
245.661	2.01
246.043	2.23
246.425	1.58
246.807	1.11
247.189	0.89
247.571	1.44
247.953	1.46
248.335	1.63
248.717	1.77
249.098	2.02
249.48	1.58
249.862	2.11
250.243	1.58
250.625	1.84
251.006	2.47
251.388	1.46
251.769	2.26
252.151	2.35
252.532	2.02
252.913	2.08
253.295	2.07
253.676	1.44
254.057	1.34
254.438	1.54
254.819	1.04
255.2	2.37
255.581	1.14
255.962	3.04
256.343	1.72
256.724	1.85
257.105	2.13
257.486	1.39
257.867	1.98
258.247	0.13
258.628	1.48
259.009	0.86
259.389	1.15
259.77	2.15
260.15	1.89
260.531	1.49
260.911	1.59
261.292	1.86
261.672	1.59
262.052	1.82
262.432	2.19
262.813	2.12
263.193	1.95
263.573	1.54
263.953	1.99
264.333	1.74
264.713	1.35
265.093	1.27
265.473	0.8
265.853	1.08
266.233	1.52
266.612	2.06
266.992	1.8
267.372	2.2
267.752	1.11
268.131	1.23
268.511	1.66
268.89	1.46
269.27	1.88
269.649	1.3
270.029	1.66
270.408	2.1
270.787	1.72
271.167	1.04
271.546	1.47
271.925	1.71
272.304	1.99
272.683	1.7
273.062	1.2
273.441	1.48
273.82	1.22
274.199	1.5
274.578	1.38
274.957	1.94
275.336	1.63
275.715	1.48
276.093	0.86
276.472	1.8
276.851	1.51
277.229	1.48
277.608	1.58
277.986	1.92
278.365	1.63
278.743	1.13
279.122	2.09
279.5	1.4
279.878	1.66
280.257	1.8
280.635	1.6
281.013	1.84
281.391	1.53
281.769	1.35
282.147	1.74
282.525	1.16
282.903	1.65
283.281	1.29
283.659	1.85
284.037	1.81
284.415	1.58
284.792	1.69
285.17	1.86
285.548	1.55
285.925	1.23
286.303	1.71
286.68	1.77
287.058	1.76
287.435	1.71
287.813	1.62
288.19	1.31
288.567	1.44
288.945	1.55
289.322	2.18
289.699	1.41
290.076	1.83
290.453	1.64
290.83	1.88
291.207	1.72
291.584	1.9
291.961	1.83
292.338	1.91
292.715	2.18
293.092	1.95
293.469	1.53
293.845	2.07
294.222	1.33
294.599	2.58
294.975	2.17
295.352	2.09
295.728	1.9
296.105	1.7
296.481	1.37
296.858	1.41
297.234	1.97
297.61	1.78
297.986	2.07
298.363	2.13
298.739	2.16
299.115	2.28
299.491	2.2
299.867	2.22
300.243	2.25
300.619	2.04
300.995	2.63
301.371	2.81
301.746	2.36
302.122	2.25
302.498	2.46
302.874	2.2
303.249	2.22
303.625	2.17
304	2.11
304.376	2.8
304.751	2.31
305.127	2.6
305.502	2.2
305.878	2.7
306.253	2.38
306.628	2.36
307.003	2.58
307.378	2.34
307.754	2.77
308.129	2.61
308.504	2.98
308.879	3.16
309.254	3.22
309.629	2.65
310.003	2.62
310.378	2.88
310.753	2.97
311.128	3.12
311.502	2.89
311.877	2.73
312.252	3.08
312.626	2.96
313.001	3.01
313.375	3.13
313.75	2.96
314.124	2.66
314.498	3.02
314.873	2.9
315.247	3.19
315.621	3.29
315.995	3.45
316.369	3.36
316.743	2.95
317.117	3.51
317.491	3.58
317.865	3.03
318.239	4.29
318.613	3.75
318.987	3.62
319.361	3.44
319.734	3.45
320.108	3.31
320.482	3.84
320.855	3.3
321.229	4.03
321.602	3.35
321.976	3.68
322.349	4.18
322.723	4.33
323.096	3.69
323.469	3.76
323.843	4.06
324.216	3.59
324.589	4.47
324.962	3.93
325.335	3.69
325.708	4.24
326.081	3.91
326.454	3.73
326.827	3.99
327.2	4.3
327.573	4.75
327.945	3.92
328.318	3.75
328.691	4.42
329.063	4.41
329.436	4.06
329.809	4.03
330.181	3.67
330.553	3.79
330.926	4.04
331.298	4.23
331.671	4.22
332.043	4.12
332.415	4.49
332.787	4.23
333.159	4.05
333.532	4.57
333.904	4.6
334.276	4.26
334.648	4.22
335.02	4.41
335.391	4.77
335.763	4.41
336.135	4.8
336.507	4.58
336.879	4.59
337.25	4.37
337.622	5.26
337.993	4.72
338.365	4.75
338.736	4.69
339.108	4.87
339.479	4.69
339.851	4.78
340.222	4.65
340.593	4.87
340.964	5.11
341.336	5.18
341.707	5.31
342.078	4.63
342.449	4.67
342.82	5.3
343.191	5.14
343.562	4.69
343.933	4.67
344.303	4.68
344.674	5.01
345.045	4.8
345.416	5.39
345.786	4.71
346.157	4.71
346.527	5.11
346.898	4.75
347.268	5.16
347.639	5.37
348.009	5.22
348.38	5.13
348.75	5.27
349.12	5.77
349.49	5.89
349.861	5.34
350.231	5.54
350.601	5.37
350.971	5.2
351.341	5.75
351.711	5.53
352.081	5.37
352.45	5.61
352.82	5.17
353.19	5.64
353.56	5.57
353.929	5.68
354.299	5.47
354.669	5.61
355.038	5.45
355.408	6.17
355.777	5.54
356.147	5.68
356.516	5.52
356.885	5.81
357.254	5.81
357.624	5.64
357.993	5.83
358.362	5.89
358.731	5.41
359.1	5.64
359.469	5.42
359.838	5.85
360.207	6.15
360.576	5.81
360.945	5.9
361.314	5.63
361.682	5.79
362.051	6.03
362.42	6.14
362.788	6.02
363.157	5.93
363.525	5.82
363.894	5.74
364.262	6.11
364.631	6.26
364.999	6.03
365.367	5.88
365.735	5.97
366.104	5.99
366.472	6.07
366.84	5.61
367.208	6.13
367.576	6.34
367.944	6.47
368.312	6.15
368.68	6.41
369.048	6.3
369.416	6.44
369.783	6.68
370.151	6.44
370.519	6.52
370.886	6.23
371.254	6.65
371.621	6.55
371.989	6.31
372.356	6.57
372.724	6.86
373.091	6.61
373.458	6.6
373.826	6.48
374.193	6.53
374.56	6.57
374.927	6.59
375.294	7.02
375.661	7.05
376.028	6.56
376.395	6.67
376.762	6.95
377.129	6.77
377.496	6.8
377.863	6.78
378.229	7.03
378.596	6.82
378.963	6.82
379.329	6.95
379.696	6.89
380.062	6.98
380.429	7.15
380.795	7.39
381.161	7.17
381.528	6.94
381.894	6.98
382.26	7.55
382.626	7.08
382.993	6.95
383.359	7.18
383.725	6.93
384.091	7.32
384.457	7
384.823	7.15
385.188	7.3
385.554	7.23
385.92	7.13
386.286	7.07
386.651	7.47
387.017	7.27
387.383	7.34
387.748	7.22
388.114	7.35
388.479	7.15
388.845	7.43
389.21	7.29
389.575	7.58
389.94	7.43
390.306	7.3
390.671	7.46
391.036	7.66
391.401	7.51
391.766	7.45
392.131	7.36
392.496	7.35
392.861	7.65
393.226	7.46
393.591	7.5
393.956	7.45
394.32	7.64
394.685	7.58
395.05	7.82
395.414	7.73
395.779	7.4
396.143	7.61
396.508	7.75
396.872	7.67
397.236	7.44
397.601	7.68
397.965	7.73
398.329	7.81
398.694	7.81
399.058	7.98
399.422	7.78
399.786	7.81
400.15	7.8
400.514	7.84
400.878	7.81
401.242	7.63
401.605	7.88
401.969	7.88
402.333	7.43
402.697	7.71
403.06	8.18
403.424	7.62
403.787	7.85
404.151	7.82
404.514	7.81
404.878	7.77
405.241	7.86
405.604	7.79
405.968	7.82
406.331	7.55
406.694	7.73
407.057	7.86
407.42	7.98
407.783	8.02
408.146	7.98
408.509	7.87
408.872	8.02
409.235	8.03
409.598	7.78
409.961	7.93
410.323	7.92
410.686	8.08
411.049	7.83
411.411	8.23
411.774	7.85
412.136	7.82
412.499	7.96
412.861	8.07
413.223	7.94
413.586	8.06
413.948	8.2
414.31	8.04
414.672	8.2
415.035	8.11
415.397	8.04
415.759	7.75
416.121	8.28
416.483	8.15
416.845	8.29
417.206	8.07
417.568	8.04
417.93	8.26
418.292	8.05
418.653	8.2
419.015	8.18
419.377	8.23
419.738	8.26
420.1	8.25
420.461	8.31
420.822	8.26
421.184	8.32
421.545	8.29
421.906	8.25
422.267	8.34
422.629	8.2
422.99	8.34
423.351	8.3
423.712	8.3
424.073	8.51
424.434	8.54
424.795	8.61
425.155	8.48
425.516	8.52
425.877	8.61
426.238	8.58
426.598	8.57
426.959	8.71
427.32	8.85
427.68	8.89
428.041	8.78
428.401	8.77
428.761	9.24
429.122	8.96
429.482	9.21
429.842	9.19
430.202	9.21
430.563	9.37
430.923	9.36
431.283	9.3
431.643	9.44
432.003	9.52
432.363	9.37
432.722	9.58
433.082	9.57
433.442	9.43
433.802	9.67
434.161	9.61
434.521	9.5
434.881	9.84
435.24	9.69
435.6	9.63
435.959	9.66
436.319	9.65
436.678	9.79
437.037	9.8
437.396	9.86
437.756	9.79
438.115	9.86
438.474	9.99
438.833	10
439.192	10.09
439.551	9.98
439.91	9.96
440.269	10.04
440.628	10.07
440.987	10.1
441.345	10.05
441.704	10.05
442.063	10
442.421	10
442.78	10.11
443.138	10.17
443.497	10.17
443.855	10.24
444.214	10.3
444.572	10.44
444.93	10.39
445.288	10.47
445.647	10.59
446.005	10.67
446.363	10.57
446.721	10.54
447.079	10.56
447.437	10.34
447.795	10.46
448.153	10.46
448.51	10.46
448.868	10.51
449.226	10.56
449.584	10.5
449.941	10.56
450.299	10.7
450.656	10.79
451.014	10.76
451.371	10.94
451.729	10.99
452.086	10.87
452.443	11.12
452.801	11.18
453.158	11.01
453.515	11.04
453.872	11.12
454.229	11.19
454.586	10.99
454.943	11.26
455.3	11.19
455.657	11.24
456.014	11.41
456.371	11.28
456.727	11.46
457.084	11.27
457.441	11.47
457.797	11.48
458.154	11.47
458.51	11.48
458.867	11.35
459.223	11.79
459.58	11.5
459.936	11.54
460.292	11.56
460.648	11.59
461.005	11.49
461.361	11.47
461.717	11.43
462.073	11.46
462.429	11.52
462.785	11.57
463.141	11.7
463.496	11.68
463.852	11.78
464.208	11.86
464.564	11.94
464.919	11.94
465.275	11.96
465.631	11.99
465.986	12.15
466.342	12.14
466.697	12.04
467.052	12.08
467.408	12.2
467.763	12.2
468.118	12.38
468.473	12.34
468.829	12.34
469.184	12.26
469.539	12.34
469.894	12.32
470.249	12.42
470.603	12.44
470.958	12.52
471.313	12.48
471.668	12.63
472.023	12.29
472.377	12.83
472.732	12.56
473.086	12.38
473.441	12.48
473.795	12.52
474.15	12.64
474.504	12.91
474.859	12.76
475.213	12.78
475.567	12.8
475.921	12.8
476.275	12.91
476.63	12.81
476.984	13.04
477.338	12.97
477.692	12.76
478.045	12.8
478.399	12.81
478.753	12.75
479.107	13.01
479.461	13.04
479.814	12.9
480.168	12.96
480.521	13.08
480.875	13.14
481.228	13.04
481.582	13.11
481.935	12.99
482.289	13.1
482.642	13.2
482.995	13.06
483.348	13.01
483.701	13.07
484.055	12.98
484.408	12.88
484.761	12.74
485.114	12.55
485.466	12.52
485.819	12.5
486.172	12.6
486.525	12.7
486.878	12.81
487.23	12.92
487.583	13.09
487.936	13.21
488.288	13.14
488.641	13.04
488.993	12.96
489.345	12.85
489.698	12.92
490.05	12.98
490.402	13.15
490.754	13.3
491.107	13.19
491.459	13.52
491.811	13.54
492.163	13.58
492.515	13.47
492.866	13.31
493.218	13.18
493.57	13.25
493.922	13.29
494.274	13.5
494.625	13.67
494.977	13.92
495.328	13.89
495.68	14
496.031	14.08
496.383	14.25
496.734	14.18
497.086	14.16
497.437	14.24
497.788	14.05
498.139	14.03
498.49	14.12
498.842	14.05
499.193	14.2
499.544	14.32
499.894	14.24
500.245	14.36
500.596	14.38
500.947	14.46
501.298	14.52
501.648	14.54
501.999	14.47
502.35	14.7
502.7	14.57
503.051	14.64
503.401	14.7
503.752	14.66
504.102	14.7
504.452	14.66
504.803	14.74
505.153	14.71
505.503	14.75
505.853	14.75
506.203	14.96
506.553	14.76
506.903	14.85
507.253	14.82
507.603	14.9
507.953	14.92
508.303	14.82
508.652	14.94
509.002	14.98
509.352	14.95
509.701	14.97
510.051	14.87
510.4	14.86
510.75	14.98
511.099	15
511.449	15
511.798	15.02
512.147	14.9
512.496	15
512.846	15.22
513.195	15.25
513.544	15.12
513.893	15.15
514.242	15.05
514.591	15.19
514.939	15.28
515.288	15.28
515.637	15.35
515.986	15.23
516.334	15.36
516.683	15.52
517.032	15.51
517.38	15.5
517.729	15.6
518.077	15.61
518.426	15.65
518.774	15.59
519.122	15.55
519.47	15.47
519.819	15.33
520.167	15.3
520.515	15.41
520.863	15.33
521.211	15.39
521.559	15.42
521.907	15.51
522.255	15.6
522.602	15.65
522.95	15.73
523.298	15.91
523.645	15.83
523.993	16.01
524.341	15.9
524.688	16.01
525.036	15.88
525.383	16.03
525.73	15.85
526.078	16.01
526.425	15.94
526.772	15.84
527.119	15.59
527.466	15.71
527.814	15.83
528.161	15.82
528.508	15.86
528.854	15.72
529.201	15.8
529.548	15.56
529.895	15.41
530.242	15.35
530.588	15.41
530.935	15.5
531.282	15.56
531.628	15.61
531.975	15.82
532.321	15.89
532.667	16.01
533.014	16.09
533.36	16.2
533.706	16.18
534.052	16.08
534.399	15.93
534.745	15.87
535.091	15.86
535.437	15.88
535.783	16.08
536.129	16.22
536.474	16.36
536.82	16.28
537.166	16.53
537.512	16.46
537.857	16.34
538.203	16.32
538.549	16.48
538.894	16.5
539.239	16.49
539.585	16.72
539.93	16.66
540.276	16.83
540.621	16.98
540.966	17.06
541.311	16.84
541.656	16.85
542.001	16.82
542.346	16.76
542.691	16.53
543.036	16.34
543.381	16.38
543.726	16.48
544.071	16.59
544.415	16.65
544.76	16.68
545.105	16.76
545.449	16.86
545.794	16.93
546.138	17.01
546.483	17.13
546.827	17.25
547.171	17.19
547.516	17.2
547.86	17.21
548.204	17.33
548.548	17.22
548.892	17.37
549.236	17.34
549.58	17.44
549.924	17.51
550.268	17.69
550.612	17.76
550.956	17.87
551.3	17.92
551.643	17.8
551.987	18.04
552.33	18.03
552.674	17.86
553.017	18.05
553.361	18.14
553.704	17.96
554.048	17.92
554.391	17.87
554.734	17.99
555.077	18.23
555.42	18.02
555.764	18.33
556.107	18.28
556.45	18.31
556.793	18.1
557.135	18.14
557.478	18.43
557.821	18.28
558.164	18.4
558.507	18.47
558.849	18.46
559.192	18.43
559.534	18.59
559.877	18.73
560.219	18.29
560.562	18.49
560.904	18.81
561.246	18.34
561.589	18.57
561.931	18.43
562.273	18.7
562.615	18.58
562.957	18.51
563.299	18.67
563.641	18.76
563.983	18.72
564.325	18.59
564.667	18.78
565.008	18.97
565.35	18.7
565.692	18.73
566.033	18.86
566.375	19.1
566.716	19.15
567.058	19.07
567.399	19.04
567.741	18.92
568.082	18.82
568.423	18.86
568.764	19.06
569.105	18.97
569.447	19.02
569.788	19.26
570.129	19.14
570.47	19.32
570.811	19.24
571.151	19.33
571.492	19.21
571.833	19.11
572.174	19.26
572.514	19.46
572.855	19.46
573.195	19.2
573.536	19.34
573.876	19.23
574.217	19.36
574.557	19.48
574.898	19.36
575.238	19.51
575.578	19.57
575.918	19.55
576.258	19.55
576.598	19.58
576.938	19.71
577.278	19.48
577.618	19.41
577.958	19.71
578.298	19.78
578.638	19.81
578.977	19.87
579.317	19.74
579.657	19.78
579.996	19.76
580.336	20.06
580.675	19.96
581.014	20.1
581.354	19.9
581.693	20.06
582.032	20.15
582.372	19.92
582.711	20.16
583.05	20.17
583.389	20.2
583.728	20.31
584.067	20.23
584.406	20.39
584.745	20.46
585.083	20.37
585.422	20.04
585.761	20.51
586.1	20.54
586.438	20.54
586.777	20.38
587.115	20.41
587.454	20.65
587.792	20.51
588.13	20.64
588.469	20.65
588.807	20.32
589.145	20.84
589.483	20.74
589.821	20.75
590.159	20.77
590.497	21.1
590.835	20.71
591.173	21.01
591.511	20.73
591.849	20.87
592.187	20.75
592.524	20.77
592.862	20.79
593.2	21.02
593.537	21.04
593.875	21.35
594.212	20.89
594.55	21
594.887	21.16
595.224	20.88
595.561	20.95
595.899	20.91
596.236	21.13
596.573	21.22
596.91	21.17
597.247	21.26
597.584	21.06
597.921	21.24
598.258	20.9
598.594	21.24
598.931	20.92
599.268	21.02
599.604	21.26
599.941	21.14
600.277	21.42
600.614	21.58
600.95	21.39
601.287	21.37
601.623	21.87
601.959	21.8
602.296	21.42
602.632	21.69
602.968	21.69
603.304	21.52
603.64	21.63
603.976	21.71
604.312	21.64
604.648	21.51
604.984	21.65
605.319	21.82
605.655	21.51
605.991	21.63
606.326	21.85
606.662	21.57
606.998	21.83
607.333	21.78
607.668	21.9
608.004	21.78
608.339	22.03
608.674	22.04
609.01	22.29
609.345	22
609.68	21.78
610.015	22.24
610.35	21.96
610.685	22.19
611.02	21.9
611.355	21.93
611.689	21.93
612.024	22.17
612.359	22.14
612.694	22.14
613.028	22.15
613.363	22.51
613.697	22.43
614.032	22.37
614.366	22.43
614.7	22.39
615.035	22.28
615.369	22.42
615.703	22.59
616.037	22.34
616.371	22.79
616.705	22.47
617.039	22.62
617.373	22.75
617.707	22.8
618.041	22.85
618.375	22.61
618.709	23.41
619.042	23
619.376	22.78
619.71	23.08
620.043	22.97
620.377	23.12
620.71	22.74
621.043	23.06
621.377	22.81
621.71	23.01
622.043	23.33
622.376	23.31
622.709	22.86
623.043	23.23
623.376	23.3
623.709	23.24
624.041	23.29
624.374	22.91
624.707	23.08
625.04	23.24
625.373	23.17
625.705	23.01
626.038	23.16
626.37	23.51
626.703	23.18
627.035	23.25
627.368	22.92
627.7	22.96
628.032	23.45
628.365	23.56
628.697	23.14
629.029	23.58
629.361	23.4
629.693	23.38
630.025	23.3
630.357	23.36
630.689	23.54
631.021	23.58
631.353	23.87
631.684	23.41
632.016	23.28
632.348	23.48
632.679	23.3
633.011	23.94
633.342	23.71
633.674	23.5
634.005	23.84
634.336	23.6
634.668	23.63
634.999	23.71
635.33	23.93
635.661	24.23
635.992	23.99
636.323	23.55
636.654	23.95
636.985	23.64
637.316	24.03
637.647	24.36
637.977	23.97
638.308	24.1
638.639	24.07
638.969	23.99
639.3	24.38
639.63	24.26
639.961	24.17
640.291	24.03
640.622	24.61
640.952	24.36
641.282	24.65
641.612	24
641.943	24.68
642.273	24.24
642.603	24.67
642.933	24.21
643.263	24.6
643.592	24.4
643.922	24.41
644.252	24.39
644.582	24.84
644.911	24.88
645.241	24.83
645.571	24.87
645.9	24.9
646.23	24.58
646.559	24.91
646.888	24.75
647.218	24.69
647.547	24.41
647.876	25.09
648.205	24.51
648.534	25.04
648.863	24.84
649.192	25.06
649.521	25.23
649.85	25.31
650.179	25.08
650.508	25.11
650.837	25.16
651.165	24.94
651.494	25.27
651.822	24.68
652.151	24.49
652.479	24.89
652.808	25.28
653.136	24.66
653.465	25.09
653.793	25.24
654.121	24.94
654.449	25.21
654.777	25.15
655.105	25.44
655.433	25.25
655.761	24.93
656.089	25.35
656.417	25.05
656.745	25.4
657.073	25.21
657.4	25.6
657.728	25.73
658.056	25.34
658.383	25.59
658.711	25.29
659.038	25.29
659.365	25.59
659.693	25.26
660.02	25.41
660.347	25.81
660.674	25.78
661.001	25.1
661.329	25.41
661.656	25.34
661.982	26.07
662.309	25.38
662.636	25.93
662.963	25.67
663.29	25.77
663.616	25.77
663.943	25.57
664.27	25.98
664.596	26.17
664.923	25.71
665.249	26.07
665.576	25.92
665.902	26.18
666.228	26
666.554	25.98
666.881	26.02
667.207	26.6
667.533	26.7
667.859	26.24
668.185	26.61
668.511	26.31
668.837	26.66
669.162	26.12
669.488	26.28
669.814	26.07
670.139	26.15
670.465	25.82
670.791	26.09
671.116	26.09
671.442	26.4
671.767	26.63
672.092	25.99
672.418	26.17
672.743	25.66
673.068	26.15
673.393	26.44
673.718	25.86
674.043	26.47
674.368	26
674.693	25.67
675.018	25.95
675.343	26.07
675.667	26.9
675.992	26.81
676.317	26.3
676.641	26.1
