Data from 20-9_chest_Reflection__0__136.txt Node

Date: Fri Nov 11 21:10:12 CST 2022
User: ToomeyLab
Spectrometer: FLMS14357
Trigger mode: 0
Integration Time (sec): 1.000000E-2
Scans to average: 100
Electric dark correction enabled: true
Nonlinearity correction enabled: false
Boxcar width: 0
XAxis mode: Wavelengths
Number of Pixels in Spectrum: 2048
>>>>>Begin Spectral Data<<<<<
189.047	101.78
189.435	101.78
189.823	101.78
190.211	-356.17
190.599	-94.84
190.987	253.42
191.375	101.92
191.763	-15.07
192.151	-23.1
192.538	57.1
192.926	155.25
193.314	149.32
193.702	64.25
194.089	49.87
194.477	233.39
194.864	139.81
195.252	82.5
195.639	170.8
196.027	3139.71
196.414	46.68
196.801	111.77
197.189	38
197.576	90.47
197.963	-175.2
198.351	-92.87
198.738	-13.7
199.125	-25.3
199.512	26.52
199.899	-767.75
200.286	-5.6
200.673	-39.48
201.06	18.67
201.447	36.33
201.833	-11.53
202.22	-31.94
202.607	33.81
202.994	18.83
203.38	0.37
203.767	14.66
204.154	4.28
204.54	-21.83
204.927	24.46
205.313	7.91
205.699	-46.16
206.086	36.55
206.472	26.36
206.858	30.47
207.245	49.72
207.631	9.12
208.017	-28.57
208.403	1.74
208.789	-9.92
209.175	35.21
209.561	25.04
209.947	5.72
210.333	-44.73
210.719	23.44
211.105	26.16
211.491	2.37
211.876	8.9
212.262	53.27
212.648	-16.8
213.034	3.51
213.419	-75.85
213.805	-49.81
214.19	17.6
214.576	-10.02
214.961	-11.14
215.346	-31.03
215.732	-57.78
216.117	18.12
216.502	-11.2
216.888	-25.88
217.273	30.75
217.658	-63.32
218.043	-12.93
218.428	-22.71
218.813	-22.66
219.198	-8.04
219.583	-6.77
219.968	7.88
220.353	-10.27
220.738	-1.98
221.122	16.43
221.507	-26.61
221.892	-7.84
222.276	29.31
222.661	17.88
223.046	20.44
223.43	-6.97
223.815	-5.32
224.199	17.78
224.583	-8.47
224.968	-25.77
225.352	-1.54
225.736	2.45
226.121	-4.87
226.505	-0.57
226.889	-8.36
227.273	7.13
227.657	-4.64
228.041	-0.86
228.425	7.65
228.809	3.4
229.193	7.57
229.577	4.42
229.961	4.75
230.344	4.92
230.728	3.97
231.112	3.88
231.495	4.4
231.879	3.67
232.263	2.88
232.646	3.62
233.03	3.87
233.413	5.88
233.797	4.89
234.18	-0.6
234.563	4.33
234.946	3.27
235.33	3.65
235.713	3.91
236.096	2.73
236.479	3.73
236.862	4.38
237.245	4.31
237.628	4.51
238.011	5.38
238.394	5.17
238.777	4.35
239.16	3.59
239.543	3.09
239.925	5.01
240.308	4.22
240.691	4.36
241.073	4.15
241.456	3
241.838	4.95
242.221	3.38
242.603	3.89
242.986	4.06
243.368	4.94
243.75	4.37
244.133	4.44
244.515	4.25
244.897	4.45
245.279	3.89
245.661	3.86
246.043	3.63
246.425	4.63
246.807	3.65
247.189	3.54
247.571	4.47
247.953	4.32
248.335	4.41
248.717	4.44
249.098	4.63
249.48	4.35
249.862	4.55
250.243	4.09
250.625	4.2
251.006	5.19
251.388	4.96
251.769	4.31
252.151	4.27
252.532	3.79
252.913	4.51
253.295	4.39
253.676	3.88
254.057	4.24
254.438	4.39
254.819	3.55
255.2	5.1
255.581	4.18
255.962	3.6
256.343	3.76
256.724	4.02
257.105	3.48
257.486	2.82
257.867	4.47
258.247	3.87
258.628	3.85
259.009	4.35
259.389	3.78
259.77	4.55
260.15	3.61
260.531	4.27
260.911	4.23
261.292	4.45
261.672	3.86
262.052	4.03
262.432	4.38
262.813	3.85
263.193	3.6
263.573	3.86
263.953	4.61
264.333	3.82
264.713	3.5
265.093	4.14
265.473	3.4
265.853	3.44
266.233	4.3
266.612	3.37
266.992	3.73
267.372	4.67
267.752	3.81
268.131	3.06
268.511	3.8
268.89	3.59
269.27	3.9
269.649	3.66
270.029	4.11
270.408	3.99
270.787	4.02
271.167	3.18
271.546	3.8
271.925	4.07
272.304	4.11
272.683	4.1
273.062	3.86
273.441	4.04
273.82	3.8
274.199	3.53
274.578	3.79
274.957	3.93
275.336	4.27
275.715	3.93
276.093	3.65
276.472	3.71
276.851	3.67
277.229	3.68
277.608	4.05
277.986	4.15
278.365	3.04
278.743	3.81
279.122	3.87
279.5	3.88
279.878	3.62
280.257	3.81
280.635	3.64
281.013	3.6
281.391	3.85
281.769	3.45
282.147	4.03
282.525	3.14
282.903	3.44
283.281	3.58
283.659	3.81
284.037	4.03
284.415	3.5
284.792	3.71
285.17	3.66
285.548	3.18
285.925	3.08
286.303	3.44
286.68	4.01
287.058	3.77
287.435	3.71
287.813	3.85
288.19	3.54
288.567	3.83
288.945	3.7
289.322	3.98
289.699	2.81
290.076	3.58
290.453	4.01
290.83	3.67
291.207	3.92
291.584	3.92
291.961	3.9
292.338	3.55
292.715	4.05
293.092	3.95
293.469	3.56
293.845	3.71
294.222	3.67
294.599	3.84
294.975	3.72
295.352	3.84
295.728	3.75
296.105	3.72
296.481	3.31
296.858	3.58
297.234	3.91
297.61	3.34
297.986	3.66
298.363	3.96
298.739	3.98
299.115	3.85
299.491	3.96
299.867	4.02
300.243	3.64
300.619	3.59
300.995	3.94
301.371	4.12
301.746	4.21
302.122	3.89
302.498	3.8
302.874	4.04
303.249	3.7
303.625	3.7
304	3.72
304.376	3.41
304.751	3.71
305.127	3.72
305.502	4.5
305.878	4.2
306.253	4.2
306.628	3.66
307.003	3.95
307.378	3.6
307.754	4.21
308.129	3.82
308.504	4.04
308.879	3.83
309.254	4.29
309.629	3.43
310.003	3.87
310.378	3.96
310.753	4.18
311.128	4.57
311.502	4.09
311.877	3.92
312.252	4.42
312.626	4.02
313.001	3.92
313.375	3.82
313.75	3.84
314.124	3.81
314.498	4
314.873	3.92
315.247	3.92
315.621	4.06
315.995	4.29
316.369	3.82
316.743	3.92
317.117	4.23
317.491	4.03
317.865	4.01
318.239	4.02
318.613	3.95
318.987	4.16
319.361	3.58
319.734	4
320.108	3.86
320.482	4.71
320.855	3.81
321.229	3.61
321.602	4.14
321.976	3.88
322.349	3.96
322.723	4.33
323.096	3.63
323.469	4.23
323.843	4.03
324.216	3.97
324.589	4.24
324.962	4.45
325.335	4.13
325.708	4.15
326.081	4.33
326.454	3.66
326.827	3.64
327.2	4.47
327.573	4.4
327.945	3.88
328.318	4.36
328.691	4.44
329.063	4.04
329.436	3.64
329.809	3.82
330.181	3.92
330.553	3.97
330.926	3.98
331.298	3.93
331.671	3.64
332.043	3.96
332.415	3.66
332.787	4.98
333.159	4.05
333.532	4.32
333.904	4.82
334.276	3.97
334.648	3.81
335.02	3.9
335.391	4.82
335.763	4.22
336.135	3.81
336.507	4.03
336.879	3.98
337.25	4.21
337.622	4.66
337.993	3.98
338.365	4.2
338.736	4.35
339.108	4.39
339.479	3.66
339.851	4.42
340.222	4.18
340.593	4.81
340.964	4.54
341.336	4.26
341.707	4.06
342.078	3.9
342.449	4.26
342.82	4.38
343.191	4.27
343.562	4.28
343.933	3.92
344.303	4.1
344.674	4.31
345.045	4.05
345.416	4.08
345.786	3.86
346.157	4.05
346.527	4.32
346.898	3.72
347.268	4.29
347.639	4.01
348.009	4.27
348.38	4.3
348.75	4.51
349.12	4.7
349.49	4.49
349.861	4.12
350.231	4.27
350.601	4.41
350.971	4.45
351.341	4.7
351.711	4.44
352.081	4.6
352.45	4.45
352.82	4.47
353.19	4.53
353.56	4.39
353.929	4.34
354.299	4.5
354.669	4.48
355.038	4.06
355.408	4.46
355.777	4.48
356.147	4.4
356.516	4.41
356.885	4.66
357.254	4.17
357.624	4.13
357.993	4.5
358.362	4.62
358.731	4.27
359.1	4.12
359.469	3.9
359.838	4.44
360.207	4.53
360.576	4.51
360.945	4.45
361.314	4.31
361.682	4.38
362.051	4.28
362.42	4.47
362.788	4.57
363.157	4.66
363.525	4.22
363.894	4.17
364.262	4.37
364.631	4.7
364.999	4.37
365.367	4.49
365.735	4.29
366.104	4.38
366.472	4.25
366.84	4.14
367.208	4.39
367.576	4.53
367.944	4.74
368.312	4.48
368.68	4.29
369.048	4.52
369.416	4.26
369.783	4.47
370.151	4.55
370.519	4.71
370.886	4.29
371.254	4.49
371.621	4.21
371.989	4.48
372.356	4.93
372.724	4.7
373.091	4.62
373.458	4.62
373.826	4.46
374.193	4.32
374.56	4.38
374.927	4.55
375.294	4.7
375.661	4.82
376.028	4.55
376.395	4.62
376.762	4.44
377.129	4.63
377.496	4.74
377.863	4.85
378.229	4.61
378.596	4.71
378.963	4.76
379.329	4.65
379.696	4.78
380.062	4.63
380.429	4.66
380.795	4.87
381.161	4.99
381.528	4.69
381.894	4.87
382.26	4.89
382.626	4.77
382.993	4.61
383.359	4.71
383.725	4.61
384.091	4.79
384.457	4.67
384.823	4.72
385.188	4.64
385.554	4.52
385.92	4.46
386.286	4.54
386.651	4.65
387.017	4.74
387.383	4.72
387.748	4.57
388.114	4.65
388.479	4.43
388.845	4.8
389.21	4.71
389.575	4.88
389.94	4.63
390.306	4.73
390.671	4.7
391.036	4.7
391.401	4.79
391.766	4.8
392.131	4.77
392.496	4.63
392.861	4.84
393.226	4.47
393.591	4.72
393.956	4.76
394.32	4.74
394.685	4.89
395.05	5.07
395.414	4.76
395.779	4.75
396.143	4.68
396.508	4.68
396.872	4.74
397.236	4.68
397.601	4.89
397.965	4.82
398.329	4.65
398.694	5.08
399.058	4.75
399.422	4.81
399.786	4.75
400.15	4.82
400.514	4.72
400.878	4.72
401.242	4.7
401.605	5.04
401.969	4.54
402.333	4.36
402.697	4.56
403.06	4.95
403.424	4.56
403.787	4.68
404.151	4.9
404.514	4.67
404.878	4.73
405.241	4.58
405.604	4.74
405.968	4.64
406.331	4.53
406.694	4.53
407.057	4.81
407.42	4.96
407.783	4.77
408.146	4.69
408.509	4.9
408.872	4.91
409.235	4.93
409.598	4.82
409.961	4.82
410.323	4.7
410.686	4.81
411.049	4.68
411.411	4.91
411.774	4.86
412.136	4.77
412.499	4.87
412.861	4.81
413.223	4.79
413.586	4.76
413.948	4.98
414.31	4.98
414.672	5.08
415.035	4.66
415.397	4.71
415.759	4.6
416.121	4.71
416.483	4.8
416.845	4.65
417.206	4.67
417.568	4.69
417.93	4.84
418.292	4.81
418.653	4.82
419.015	4.82
419.377	4.7
419.738	4.7
420.1	4.69
420.461	4.85
420.822	4.75
421.184	4.77
421.545	4.79
421.906	4.77
422.267	4.71
422.629	4.64
422.99	4.74
423.351	4.69
423.712	4.74
424.073	4.86
424.434	4.87
424.795	4.88
425.155	4.79
425.516	4.72
425.877	4.78
426.238	4.79
426.598	4.71
426.959	4.77
427.32	4.85
427.68	4.98
428.041	4.89
428.401	4.62
428.761	5
429.122	4.91
429.482	4.9
429.842	4.84
430.202	4.98
430.563	5.23
430.923	4.97
431.283	4.92
431.643	4.97
432.003	4.93
432.363	5.07
432.722	5.12
433.082	4.94
433.442	5.07
433.802	4.93
434.161	4.89
434.521	4.93
434.881	5.06
435.24	5.05
435.6	5.02
435.959	5
436.319	4.95
436.678	5.05
437.037	5.01
437.396	5.27
437.756	4.92
438.115	5.08
438.474	4.94
438.833	5.11
439.192	5.07
439.551	5.04
439.91	5.07
440.269	5.03
440.628	5.07
440.987	5
441.345	4.97
441.704	5.02
442.063	4.91
442.421	5.03
442.78	4.88
443.138	5.03
443.497	5.03
443.855	5.02
444.214	4.98
444.572	5.09
444.93	5.11
445.288	5.08
445.647	5.21
446.005	5.11
446.363	5.15
446.721	5.11
447.079	5.14
447.437	4.94
447.795	5.05
448.153	5.06
448.51	5.04
448.868	5.09
449.226	5.07
449.584	5.05
449.941	5.08
450.299	5.12
450.656	5.16
451.014	5.11
451.371	5.22
451.729	5.07
452.086	5.12
452.443	5.15
452.801	5.22
453.158	5.2
453.515	5.17
453.872	5.08
454.229	5.2
454.586	5.14
454.943	5.23
455.3	5.08
455.657	5.16
456.014	5.28
456.371	5.05
456.727	5.37
457.084	4.95
457.441	5.42
457.797	5.19
458.154	5.19
458.51	5.3
458.867	5.17
459.223	5.39
459.58	5.33
459.936	5.17
460.292	5.16
460.648	5.18
461.005	5.21
461.361	5.08
461.717	5.05
462.073	5.16
462.429	5.18
462.785	5.17
463.141	5.18
463.496	5.25
463.852	5.33
464.208	5.3
464.564	5.34
464.919	5.28
465.275	5.19
465.631	5.23
465.986	5.53
466.342	5.36
466.697	5.2
467.052	5.24
467.408	5.23
467.763	5.41
468.118	5.39
468.473	5.29
468.829	5.35
469.184	5.34
469.539	5.37
469.894	5.3
470.249	5.3
470.603	5.25
470.958	5.29
471.313	5.5
471.668	5.48
472.023	5.13
472.377	5.47
472.732	5.46
473.086	5.29
473.441	5.29
473.795	5.37
474.15	5.21
474.504	5.5
474.859	5.38
475.213	5.42
475.567	5.48
475.921	5.39
476.275	5.44
476.63	5.49
476.984	5.56
477.338	5.43
477.692	5.23
478.045	5.17
478.399	5.43
478.753	5.23
479.107	5.36
479.461	5.3
479.814	5.41
480.168	5.31
480.521	5.52
480.875	5.4
481.228	5.33
481.582	5.38
481.935	5.3
482.289	5.34
482.642	5.41
482.995	5.32
483.348	5.28
483.701	5.34
484.055	5.32
484.408	5.35
484.761	5.18
485.114	5.04
485.466	4.99
485.819	5.02
486.172	5.07
486.525	5.15
486.878	5.19
487.23	5.18
487.583	5.24
487.936	5.29
488.288	5.25
488.641	5.17
488.993	5.18
489.345	5.08
489.698	5.15
490.05	5.19
490.402	5.16
490.754	5.29
491.107	5.22
491.459	5.3
491.811	5.35
492.163	5.46
492.515	5.3
492.866	5.2
493.218	5.15
493.57	5.23
493.922	5.22
494.274	5.33
494.625	5.42
494.977	5.43
495.328	5.47
495.68	5.5
496.031	5.43
496.383	5.57
496.734	5.42
497.086	5.46
497.437	5.53
497.788	5.38
498.139	5.57
498.49	5.37
498.842	5.38
499.193	5.45
499.544	5.49
499.894	5.49
500.245	5.55
500.596	5.57
500.947	5.53
501.298	5.51
501.648	5.5
501.999	5.65
502.35	5.84
502.7	5.61
503.051	5.58
503.401	5.67
503.752	5.53
504.102	5.55
504.452	5.6
504.803	5.6
505.153	5.48
505.503	5.68
505.853	5.61
506.203	5.68
506.553	5.5
506.903	5.59
507.253	5.61
507.603	5.63
507.953	5.59
508.303	5.69
508.652	5.66
509.002	5.72
509.352	5.59
509.701	5.68
510.051	5.65
510.4	5.61
510.75	5.66
511.099	5.52
511.449	5.65
511.798	5.52
512.147	5.6
512.496	5.49
512.846	5.7
513.195	5.6
513.544	5.59
513.893	5.57
514.242	5.58
514.591	5.62
514.939	5.64
515.288	5.61
515.637	5.75
515.986	5.67
516.334	5.77
516.683	5.67
517.032	5.72
517.38	5.73
517.729	5.73
518.077	5.8
518.426	5.82
518.774	5.72
519.122	5.84
519.47	5.71
519.819	5.67
520.167	5.6
520.515	5.68
520.863	5.72
521.211	5.62
521.559	5.69
521.907	5.85
522.255	5.68
522.602	5.76
522.95	5.79
523.298	5.84
523.645	5.75
523.993	5.81
524.341	5.81
524.688	5.81
525.036	5.95
525.383	5.97
525.73	5.79
526.078	5.84
526.425	5.8
526.772	5.79
527.119	5.76
527.466	5.72
527.814	5.74
528.161	5.86
528.508	5.79
528.854	5.75
529.201	5.79
529.548	5.7
529.895	5.6
530.242	5.57
530.588	5.59
530.935	5.64
531.282	5.67
531.628	5.73
531.975	5.79
532.321	5.81
532.667	5.87
533.014	5.84
533.36	5.9
533.706	5.92
534.052	5.92
534.399	5.79
534.745	5.75
535.091	5.81
535.437	5.77
535.783	5.88
536.129	5.92
536.474	5.99
536.82	5.93
537.166	5.98
537.512	6
537.857	6.02
538.203	5.92
538.549	6.01
538.894	5.97
539.239	6.12
539.585	6.04
539.93	6.15
540.276	6.16
540.621	6.15
540.966	6.17
541.311	6.09
541.656	6.23
542.001	6.1
542.346	6.05
542.691	6.01
543.036	5.91
543.381	5.96
543.726	5.97
544.071	6.09
544.415	6.12
544.76	6.14
545.105	6.07
545.449	6.17
545.794	6.21
546.138	6.21
546.483	6.18
546.827	6.31
547.171	6.4
547.516	6.19
547.86	6.32
548.204	6.26
548.548	6.28
548.892	6.26
549.236	6.34
549.58	6.32
549.924	6.47
550.268	6.5
550.612	6.54
550.956	6.57
551.3	6.43
551.643	6.49
551.987	6.66
552.33	6.57
552.674	6.46
553.017	6.64
553.361	6.65
553.704	6.59
554.048	6.54
554.391	6.68
554.734	6.54
555.077	6.84
555.42	6.65
555.764	6.68
556.107	6.72
556.45	6.8
556.793	6.72
557.135	6.8
557.478	6.56
557.821	6.83
558.164	6.8
558.507	6.82
558.849	6.8
559.192	6.87
559.534	6.94
559.877	6.86
560.219	6.78
560.562	6.78
560.904	7.13
561.246	6.72
561.589	6.81
561.931	6.75
562.273	7.15
562.615	6.83
562.957	7.02
563.299	6.87
563.641	6.75
563.983	6.86
564.325	6.96
564.667	7.1
565.008	7.14
565.35	7.05
565.692	6.98
566.033	7.02
566.375	7.28
566.716	7.22
567.058	7.14
567.399	7.21
567.741	7.02
568.082	7.19
568.423	7.23
568.764	7.24
569.105	7.2
569.447	7.24
569.788	7.14
570.129	7.22
570.47	7.26
570.811	7.19
571.151	7.33
571.492	7.39
571.833	7.22
572.174	7.47
572.514	7.62
572.855	7.5
573.195	7.16
573.536	7.27
573.876	7.41
574.217	7.5
574.557	7.36
574.898	7.49
575.238	7.45
575.578	7.34
575.918	7.54
576.258	7.46
576.598	7.65
576.938	7.7
577.278	7.38
577.618	7.6
577.958	7.49
578.298	7.62
578.638	7.67
578.977	7.86
579.317	7.91
579.657	7.76
579.996	7.72
580.336	7.71
580.675	7.84
581.014	7.92
581.354	7.72
581.693	7.68
582.032	7.67
582.372	7.88
582.711	8.14
583.05	7.83
583.389	7.99
583.728	7.81
584.067	8.1
584.406	7.76
584.745	8.15
585.083	7.94
585.422	7.86
585.761	8.22
586.1	8.05
586.438	8.1
586.777	8.23
587.115	8.21
587.454	8.21
587.792	8.25
588.13	8.1
588.469	8.23
588.807	8.27
589.145	8.24
589.483	8.49
589.821	8.37
590.159	8.46
590.497	8.36
590.835	8.59
591.173	8.63
591.511	8.26
591.849	8.49
592.187	8.46
592.524	8.26
592.862	8.3
593.2	8.55
593.537	8.79
593.875	8.56
594.212	8.67
594.55	8.8
594.887	8.68
595.224	8.71
595.561	8.53
595.899	8.55
596.236	8.73
596.573	8.69
596.91	8.85
597.247	8.7
597.584	8.62
597.921	8.93
598.258	8.88
598.594	8.83
598.931	8.79
599.268	9.05
599.604	8.9
599.941	8.81
600.277	9.13
600.614	9.15
600.95	8.99
601.287	9.04
601.623	9.38
601.959	9.07
602.296	9.03
602.632	9.18
602.968	9.13
603.304	9.3
603.64	9.49
603.976	9.39
604.312	9.39
604.648	9.13
604.984	9.33
605.319	9.2
605.655	9.15
605.991	9.31
606.326	9.51
606.662	9.36
606.998	9.32
607.333	9.28
607.668	9.26
608.004	9.59
608.339	9.5
608.674	9.61
609.01	9.64
609.345	9.7
609.68	9.49
610.015	9.44
610.35	9.61
610.685	9.89
611.02	9.49
611.355	9.59
611.689	9.61
612.024	9.88
612.359	9.64
612.694	9.53
613.028	9.89
613.363	9.69
613.697	10.08
614.032	10.21
614.366	9.72
614.7	9.94
615.035	9.83
615.369	9.67
615.703	10.05
616.037	10.42
616.371	9.83
616.705	10.15
617.039	10.15
617.373	10.25
617.707	9.99
618.041	10.39
618.375	10.13
618.709	10.38
619.042	10.68
619.376	10.25
619.71	10.45
620.043	10.29
620.377	10.48
620.71	10.27
621.043	10.32
621.377	10.46
621.71	10.21
622.043	10.61
622.376	10.93
622.709	10.38
623.043	10.39
623.376	10.45
623.709	10.4
624.041	10.84
624.374	10.68
624.707	10.83
625.04	10.57
625.373	10.52
625.705	10.66
626.038	10.78
626.37	10.79
626.703	10.89
627.035	10.8
627.368	10.45
627.7	10.72
628.032	10.9
628.365	10.98
628.697	10.95
629.029	11.21
629.361	11.06
629.693	11.24
630.025	11.12
630.357	10.97
630.689	10.94
631.021	11.31
631.353	11.27
631.684	11.27
632.016	11.13
632.348	10.98
632.679	10.98
633.011	11.53
633.342	11.64
633.674	11.41
634.005	11.19
634.336	11.57
634.668	11.61
634.999	11.34
635.33	11.33
635.661	11.72
635.992	11.54
636.323	11.13
636.654	11.53
636.985	11.77
637.316	11.29
637.647	11.77
637.977	11.93
638.308	11.8
638.639	11.66
638.969	11.66
639.3	11.95
639.63	12.03
639.961	12.22
640.291	11.99
640.622	12.05
640.952	11.87
641.282	11.85
641.612	12.08
641.943	12.1
642.273	12.25
642.603	12.15
642.933	12.02
643.263	12.07
643.592	12.01
643.922	11.94
644.252	12.23
644.582	12.27
644.911	12.14
645.241	12.15
645.571	12.37
645.9	12.68
646.23	12.64
646.559	12.92
646.888	12.56
647.218	12.17
647.547	12.49
647.876	12.52
648.205	12.72
648.534	12.2
648.863	12.46
649.192	12.48
649.521	12.83
649.85	12.71
650.179	12.74
650.508	12.82
650.837	12.72
651.165	12.57
651.494	13.25
651.822	12.66
652.151	12.62
652.479	12.75
652.808	12.78
653.136	12.7
653.465	12.82
653.793	12.82
654.121	12.57
654.449	12.69
654.777	13.41
655.105	12.73
655.433	13.18
655.761	12.95
656.089	13.63
656.417	13
656.745	13.4
657.073	13.15
657.4	13.12
657.728	13.08
658.056	13.37
658.383	13.37
658.711	13.49
659.038	13.56
659.365	12.99
659.693	13.41
660.02	13.86
660.347	13.8
660.674	12.9
661.001	13.47
661.329	13.68
661.656	13.72
661.982	13.6
662.309	13.45
662.636	13.73
662.963	13.69
663.29	13.64
663.616	13.45
663.943	13.29
664.27	13.76
664.596	14.12
664.923	14.01
665.249	13.82
665.576	13.91
665.902	14.15
666.228	14.14
666.554	13.99
666.881	14.35
667.207	14.12
667.533	14.61
667.859	14.37
668.185	14.59
668.511	13.71
668.837	14.28
669.162	14.15
669.488	14.41
669.814	14.08
670.139	13.79
670.465	14.07
670.791	13.87
671.116	14.21
671.442	15.04
671.767	14.86
672.092	14.41
672.418	14.53
672.743	14.17
673.068	14.58
673.393	14.7
673.718	14.7
674.043	15.02
674.368	14.62
674.693	14.22
675.018	14.75
675.343	14.9
675.667	15.14
675.992	15.29
676.317	14.51
676.641	14.42
676.966	15.02
677.29	14.46
677.615	15.46
677.939	14.9
678.264	15.42
678.588	15.21
678.912	14.75
679.236	15.11
679.56	15.69
679.885	14.48
680.209	14.61
680.532	15.83
680.856	14.98
681.18	15.3
681.504	15.19
681.828	15.24
682.152	15.3
682.475	15.22
682.799	15.1
683.122	15.18
683.446	15.9
683.769	15.59
684.093	15.66
684.416	15.6
684.739	16.29
685.062	15.8
685.386	15.89
685.709	16.19
686.032	16.14
686.355	15.25
686.678	15.71
687.001	16.46
687.324	15.6
