Data from 20-9_forehead_Reflection__0__146.txt Node

Date: Fri Nov 11 21:13:00 CST 2022
User: ToomeyLab
Spectrometer: FLMS14357
Trigger mode: 0
Integration Time (sec): 1.000000E-2
Scans to average: 100
Electric dark correction enabled: true
Nonlinearity correction enabled: false
Boxcar width: 0
XAxis mode: Wavelengths
Number of Pixels in Spectrum: 2048
>>>>>Begin Spectral Data<<<<<
189.047	-166.29
189.435	-166.29
189.823	-166.29
190.211	-215.58
190.599	200
190.987	48.92
191.375	61.54
191.763	-42.6
192.151	114.29
192.538	-229.63
192.926	-91.36
193.314	181.47
193.702	212.08
194.089	34.53
194.477	93.43
194.864	54.01
195.252	14.09
195.639	-24.09
196.027	247.06
196.414	135.47
196.801	137.07
197.189	52.58
197.576	28.82
197.963	-115.54
198.351	38.02
198.738	33.17
199.125	8.88
199.512	50.51
199.899	-950.72
200.286	-2.05
200.673	-11.97
201.06	67.65
201.447	36.76
201.833	30.7
202.22	-15.12
202.607	6.94
202.994	36.01
203.38	27.83
203.767	27.84
204.154	27.68
204.54	6.54
204.927	2.31
205.313	54.69
205.699	-2.75
206.086	38.34
206.472	14.48
206.858	38.45
207.245	73.75
207.631	45.41
208.017	49.61
208.403	9.49
208.789	23.48
209.175	-6.32
209.561	38.24
209.947	40.34
210.333	-6.08
210.719	2.7
211.105	34.15
211.491	12.45
211.876	6.31
212.262	73.2
212.648	21.7
213.034	5.82
213.419	-79.28
213.805	-8.12
214.19	33.2
214.576	33.07
214.961	-9.86
215.346	14.29
215.732	16.8
216.117	34.18
216.502	6.22
216.888	-4.5
217.273	-8.82
217.658	-16.02
218.043	2.79
218.428	12.87
218.813	26.69
219.198	-5.51
219.583	19.51
219.968	8.63
220.353	-4.07
220.738	-16.69
221.122	2.78
221.507	-3.22
221.892	13.3
222.276	6.88
222.661	8.96
223.046	-16.48
223.43	-1.92
223.815	1.94
224.199	1.43
224.583	-2
224.968	2.5
225.352	2.17
225.736	-1.74
226.121	5.67
226.505	5.4
226.889	-1.83
227.273	3.52
227.657	-2.73
228.041	-2.66
228.425	3.94
228.809	-1.22
229.193	6.78
229.577	1.89
229.961	3.01
230.344	1.98
230.728	1.99
231.112	1.69
231.495	1.89
231.879	1.88
232.263	1.53
232.646	2.75
233.03	1.78
233.413	1.74
233.797	2.34
234.18	0.23
234.563	4.18
234.946	0.37
235.33	2.47
235.713	1.2
236.096	2.04
236.479	2.23
236.862	3.53
237.245	0.45
237.628	2.11
238.011	2.88
238.394	4.27
238.777	2.05
239.16	3.57
239.543	2.54
239.925	3.57
240.308	3.05
240.691	2.63
241.073	0.89
241.456	1.01
241.838	2.62
242.221	2.67
242.603	3.08
242.986	2.22
243.368	2.36
243.75	2.53
244.133	2.25
244.515	1.74
244.897	2.66
245.279	1.9
245.661	2.82
246.043	2.83
246.425	3.65
246.807	2.49
247.189	2.47
247.571	1.6
247.953	2.55
248.335	2.33
248.717	2.36
249.098	2.58
249.48	2.1
249.862	2.57
250.243	2.52
250.625	2.27
251.006	3.41
251.388	3.21
251.769	2.24
252.151	2.24
252.532	2.29
252.913	3.12
253.295	2.17
253.676	1.71
254.057	1.85
254.438	2.62
254.819	1.67
255.2	3.34
255.581	2.57
255.962	2.43
256.343	1.64
256.724	2.48
257.105	2.73
257.486	2.64
257.867	2.58
258.247	1.2
258.628	2.31
259.009	1.77
259.389	1.92
259.77	2.93
260.15	2.03
260.531	2.24
260.911	2.27
261.292	2.5
261.672	2.13
262.052	2.34
262.432	2.47
262.813	2.46
263.193	2.15
263.573	2.19
263.953	3.06
264.333	1.99
264.713	2.77
265.093	1.85
265.473	1.86
265.853	1.68
266.233	2.44
266.612	2.23
266.992	1.69
267.372	2.71
267.752	2.32
268.131	2.07
268.511	2.04
268.89	2.48
269.27	2.11
269.649	1.97
270.029	3.07
270.408	2.33
270.787	1.79
271.167	1.63
271.546	2.42
271.925	2.1
272.304	2.04
272.683	2.6
273.062	2.02
273.441	2.43
273.82	2.47
274.199	2.23
274.578	1.81
274.957	2.31
275.336	2.62
275.715	2.18
276.093	2.19
276.472	2.27
276.851	1.74
277.229	1.96
277.608	2
277.986	1.88
278.365	1.97
278.743	2.29
279.122	2.47
279.5	2.08
279.878	2.43
280.257	2.32
280.635	1.83
281.013	2.61
281.391	2.13
281.769	1.98
282.147	2.07
282.525	1.92
282.903	2.08
283.281	2.26
283.659	2.39
284.037	2.27
284.415	1.96
284.792	1.98
285.17	2.62
285.548	1.94
285.925	2.07
286.303	2.17
286.68	2.41
287.058	2.08
287.435	2.02
287.813	2.5
288.19	2.2
288.567	2.42
288.945	2.4
289.322	2.38
289.699	1.87
290.076	2.59
290.453	2.82
290.83	2.41
291.207	2.44
291.584	2.62
291.961	2.63
292.338	2.42
292.715	2.53
293.092	2.16
293.469	2.51
293.845	2.28
294.222	2.22
294.599	3.06
294.975	2.83
295.352	2.51
295.728	2.35
296.105	2.65
296.481	2.23
296.858	2.17
297.234	2.49
297.61	2.71
297.986	2.61
298.363	3.09
298.739	3.11
299.115	2.78
299.491	3.02
299.867	2.82
300.243	2.82
300.619	2.92
300.995	3.28
301.371	3.49
301.746	3.38
302.122	3.08
302.498	2.97
302.874	3.12
303.249	3.32
303.625	3.14
304	2.87
304.376	3.35
304.751	3.16
305.127	3.12
305.502	3.68
305.878	3.69
306.253	3.27
306.628	3.32
307.003	3.45
307.378	3.58
307.754	3.93
308.129	3.46
308.504	3.87
308.879	3.88
309.254	3.96
309.629	3.63
310.003	3.66
310.378	3.91
310.753	4.14
311.128	3.76
311.502	3.89
311.877	3.95
312.252	3.92
312.626	3.97
313.001	4.1
313.375	4.1
313.75	4.06
314.124	3.86
314.498	4.32
314.873	4.22
315.247	3.89
315.621	4.6
315.995	4.13
316.369	4.18
316.743	4.14
317.117	4.54
317.491	4.35
317.865	4.33
318.239	4.78
318.613	4.86
318.987	4.66
319.361	4.3
319.734	4.78
320.108	4.39
320.482	4.75
320.855	4.66
321.229	4.84
321.602	4.81
321.976	4.83
322.349	5.3
322.723	5.15
323.096	5.05
323.469	5.11
323.843	4.96
324.216	4.7
324.589	5.16
324.962	5.58
325.335	5.15
325.708	5.17
326.081	5.01
326.454	5.11
326.827	5.25
327.2	5.49
327.573	5.91
327.945	5.1
328.318	5.42
328.691	5.57
329.063	5.68
329.436	5.31
329.809	5.3
330.181	5.1
330.553	4.97
330.926	5.46
331.298	5.67
331.671	5.46
332.043	5.25
332.415	5.95
332.787	5.65
333.159	5.48
333.532	5.96
333.904	6.06
334.276	5.56
334.648	5.99
335.02	5.79
335.391	6.09
335.763	5.98
336.135	5.36
336.507	5.75
336.879	6.06
337.25	5.89
337.622	6.1
337.993	6.25
338.365	5.63
338.736	6.27
339.108	5.8
339.479	5.99
339.851	6.2
340.222	5.81
340.593	6.39
340.964	6.12
341.336	6.5
341.707	5.94
342.078	5.52
342.449	6.42
342.82	6.34
343.191	6.4
343.562	6.11
343.933	6.27
344.303	6.06
344.674	6.58
345.045	5.9
345.416	6.59
345.786	6.14
346.157	6.33
346.527	6.65
346.898	6.16
347.268	6.06
347.639	6.38
348.009	5.99
348.38	6.84
348.75	6.35
349.12	6.99
349.49	7.22
349.861	6.82
350.231	6.36
350.601	6.36
350.971	6.92
351.341	6.45
351.711	6.71
352.081	6.7
352.45	6.79
352.82	6.61
353.19	6.53
353.56	6.64
353.929	6.85
354.299	6.74
354.669	7.12
355.038	6.96
355.408	6.93
355.777	7.23
356.147	7.13
356.516	7.23
356.885	7.42
357.254	7.17
357.624	6.65
357.993	7.38
358.362	7.02
358.731	6.88
359.1	7.06
359.469	6.81
359.838	6.93
360.207	7.39
360.576	7.4
360.945	7.11
361.314	7.05
361.682	7.31
362.051	7.14
362.42	7.51
362.788	7.44
363.157	7.24
363.525	7.33
363.894	7.23
364.262	7.53
364.631	7.66
364.999	7.51
365.367	7.59
365.735	7.25
366.104	7.39
366.472	7.56
366.84	7.11
367.208	7.24
367.576	7.69
367.944	7.7
368.312	7.88
368.68	7.64
369.048	7.85
369.416	7.73
369.783	7.79
370.151	7.82
370.519	7.87
370.886	7.75
371.254	8.15
371.621	7.76
371.989	7.95
372.356	8.35
372.724	8.27
373.091	8.19
373.458	8.02
373.826	8.11
374.193	8.04
374.56	8.3
374.927	8.11
375.294	8.36
375.661	8.41
376.028	7.9
376.395	8.32
376.762	8.34
377.129	7.96
377.496	8.3
377.863	8.46
378.229	8.35
378.596	8.36
378.963	8.38
379.329	8.41
379.696	8.48
380.062	8.38
380.429	8.58
380.795	8.97
381.161	8.63
381.528	8.51
381.894	8.64
382.26	9.02
382.626	8.79
382.993	8.59
383.359	9.13
383.725	8.66
384.091	8.82
384.457	8.59
384.823	8.81
385.188	8.6
385.554	8.48
385.92	8.67
386.286	8.85
386.651	8.98
387.017	8.88
387.383	8.91
387.748	8.87
388.114	8.82
388.479	8.8
388.845	9
389.21	8.81
389.575	9.2
389.94	9.24
390.306	8.99
390.671	9.07
391.036	9.04
391.401	8.99
391.766	9.41
392.131	9.16
392.496	9.24
392.861	9.05
393.226	9.08
393.591	8.9
393.956	9.14
394.32	9.01
394.685	9.08
395.05	9.38
395.414	9.18
395.779	9.35
396.143	9.17
396.508	9.34
396.872	9.33
397.236	9.19
397.601	9.32
397.965	9.28
398.329	9.23
398.694	9.29
399.058	9.35
399.422	9.41
399.786	9.42
400.15	9.51
400.514	9.6
400.878	9.32
401.242	9.38
401.605	9.63
401.969	9.5
402.333	9.42
402.697	9.67
403.06	9.81
403.424	9.34
403.787	9.68
404.151	9.53
404.514	9.64
404.878	9.55
405.241	9.56
405.604	9.4
405.968	9.36
406.331	9.34
406.694	9.49
407.057	9.6
407.42	9.75
407.783	9.69
408.146	9.61
408.509	9.62
408.872	9.73
409.235	9.85
409.598	9.85
409.961	9.67
410.323	9.3
410.686	9.64
411.049	9.82
411.411	9.72
411.774	9.94
412.136	9.68
412.499	9.8
412.861	9.79
413.223	9.66
413.586	9.65
413.948	9.98
414.31	10.01
414.672	9.71
415.035	9.96
415.397	10.06
415.759	9.7
416.121	9.82
416.483	9.92
416.845	10
417.206	9.93
417.568	9.79
417.93	9.88
418.292	9.75
418.653	10.01
419.015	9.98
419.377	10
419.738	9.99
420.1	9.82
420.461	10.06
420.822	9.92
421.184	10.03
421.545	10.08
421.906	9.97
422.267	9.91
422.629	9.8
422.99	10.03
423.351	10.09
423.712	10.03
424.073	10.16
424.434	10.36
424.795	10.41
425.155	10.23
425.516	10.33
425.877	10.26
426.238	10.3
426.598	10.27
426.959	10.48
427.32	10.54
427.68	10.64
428.041	10.66
428.401	10.56
428.761	10.84
429.122	10.92
429.482	10.9
429.842	10.82
430.202	11.11
430.563	11.15
430.923	11.17
431.283	10.96
431.643	11.08
432.003	11.18
432.363	11.27
432.722	11.39
433.082	11.38
433.442	11.48
433.802	11.37
434.161	11.45
434.521	11.54
434.881	11.57
435.24	11.41
435.6	11.44
435.959	11.58
436.319	11.57
436.678	11.64
437.037	11.61
437.396	11.91
437.756	11.74
438.115	11.59
438.474	11.79
438.833	11.73
439.192	11.75
439.551	11.92
439.91	11.87
440.269	11.93
440.628	11.96
440.987	11.83
441.345	11.82
441.704	11.79
442.063	11.87
442.421	11.9
442.78	11.82
443.138	12.08
443.497	12.01
443.855	12.15
444.214	12.14
444.572	12.34
444.93	12.25
445.288	12.33
445.647	12.44
446.005	12.44
446.363	12.38
446.721	12.39
447.079	12.35
447.437	12.27
447.795	12.34
448.153	12.21
448.51	12.32
448.868	12.35
449.226	12.46
449.584	12.5
449.941	12.58
450.299	12.56
450.656	12.57
451.014	12.78
451.371	12.8
451.729	12.68
452.086	12.66
452.443	12.98
452.801	13.01
453.158	12.88
453.515	12.98
453.872	12.88
454.229	12.92
454.586	12.87
454.943	13.13
455.3	13.18
455.657	13.09
456.014	13.35
456.371	13.11
456.727	13.31
457.084	13.29
457.441	13.45
457.797	13.27
458.154	13.43
458.51	13.46
458.867	13.45
459.223	13.43
459.58	13.43
459.936	13.37
460.292	13.46
460.648	13.4
461.005	13.3
461.361	13.19
461.717	13.23
462.073	13.32
462.429	13.32
462.785	13.58
463.141	13.61
463.496	13.68
463.852	13.94
464.208	13.75
464.564	13.79
464.919	13.96
465.275	14.01
465.631	14.08
465.986	14.1
466.342	14.04
466.697	14.03
467.052	13.95
467.408	14.02
467.763	14.13
468.118	14.26
468.473	14.21
468.829	14.01
469.184	14.18
469.539	14.24
469.894	14.3
470.249	14.4
470.603	14.36
470.958	14.31
471.313	14.47
471.668	14.47
472.023	14.18
472.377	14.6
472.732	14.44
473.086	14.58
473.441	14.51
473.795	14.5
474.15	14.58
474.504	14.62
474.859	14.43
475.213	14.79
475.567	14.84
475.921	14.78
476.275	14.73
476.63	14.97
476.984	14.92
477.338	14.85
477.692	14.63
478.045	14.77
478.399	14.85
478.753	14.72
479.107	14.8
479.461	14.94
479.814	14.91
480.168	14.92
480.521	15.07
480.875	15.07
481.228	15.04
481.582	15.1
481.935	14.96
482.289	15.1
482.642	14.99
482.995	14.97
483.348	15
483.701	15.01
484.055	14.9
484.408	14.85
484.761	14.66
485.114	14.42
485.466	14.2
485.819	14.29
486.172	14.38
486.525	14.68
486.878	14.77
487.23	14.89
487.583	15.09
487.936	15.08
488.288	14.95
488.641	14.93
488.993	14.73
489.345	14.74
489.698	14.76
490.05	14.88
490.402	15.04
490.754	15.2
491.107	15.33
491.459	15.38
491.811	15.54
492.163	15.59
492.515	15.47
492.866	15.21
493.218	15.07
493.57	15.02
493.922	15.24
494.274	15.41
494.625	15.61
494.977	15.83
495.328	15.87
495.68	16.03
496.031	16.12
496.383	16.16
496.734	16.21
497.086	16.22
497.437	16.16
497.788	16.07
498.139	16.16
498.49	15.9
498.842	16.08
499.193	16.1
499.544	16.12
499.894	16.18
500.245	16.28
500.596	16.4
500.947	16.42
501.298	16.33
501.648	16.57
501.999	16.55
502.35	16.68
502.7	16.71
503.051	16.64
503.401	16.73
503.752	16.71
504.102	16.71
504.452	16.75
504.803	16.71
505.153	16.77
505.503	16.86
505.853	16.64
506.203	16.75
506.553	16.67
506.903	16.77
507.253	16.79
507.603	16.91
507.953	17.01
508.303	17.03
508.652	17.06
509.002	17.01
509.352	16.94
509.701	16.89
510.051	16.86
510.4	16.87
510.75	16.97
511.099	16.92
511.449	16.94
511.798	17.02
512.147	16.99
512.496	17.09
512.846	17.2
513.195	17.11
513.544	17.02
513.893	17.1
514.242	17.27
514.591	17.21
514.939	17.15
515.288	17.35
515.637	17.34
515.986	17.44
516.334	17.49
516.683	17.41
517.032	17.45
517.38	17.5
517.729	17.62
518.077	17.55
518.426	17.61
518.774	17.52
519.122	17.44
519.47	17.46
519.819	17.25
520.167	17.25
520.515	17.22
520.863	17.38
521.211	17.36
521.559	17.46
521.907	17.63
522.255	17.59
522.602	17.66
522.95	17.83
523.298	17.91
523.645	17.83
523.993	18.02
524.341	17.98
524.688	18
525.036	17.99
525.383	17.91
525.73	17.91
526.078	17.81
526.425	17.87
526.772	17.78
527.119	17.6
527.466	17.68
527.814	17.74
528.161	17.8
528.508	17.82
528.854	17.84
529.201	17.75
529.548	17.61
529.895	17.31
530.242	17.13
530.588	17.25
530.935	17.44
531.282	17.62
531.628	17.76
531.975	17.84
532.321	17.87
532.667	18.11
533.014	18.05
533.36	18.22
533.706	18.2
534.052	18.18
534.399	17.99
534.745	17.81
535.091	17.76
535.437	17.78
535.783	18.07
536.129	18.24
536.474	18.36
536.82	18.5
537.166	18.62
537.512	18.47
537.857	18.34
538.203	18.43
538.549	18.41
538.894	18.47
539.239	18.52
539.585	18.7
539.93	18.69
540.276	18.95
540.621	19.04
540.966	19.01
541.311	19.04
541.656	18.99
542.001	18.81
542.346	18.63
542.691	18.38
543.036	18.18
543.381	18.27
543.726	18.43
544.071	18.5
544.415	18.69
544.76	18.74
545.105	18.77
545.449	18.88
545.794	18.97
546.138	19.17
546.483	19.27
546.827	19.25
547.171	19.21
547.516	19.26
547.86	19.27
548.204	19.26
548.548	19.09
548.892	19.24
549.236	19.29
549.58	19.53
549.924	19.6
550.268	19.63
550.612	19.84
550.956	19.94
551.3	19.77
551.643	19.9
551.987	19.95
552.33	19.99
552.674	19.83
553.017	19.98
553.361	19.96
553.704	20.02
554.048	19.87
554.391	19.85
554.734	19.93
555.077	20.02
555.42	20.1
555.764	20.02
556.107	20.2
556.45	20.41
556.793	20.32
557.135	20.39
557.478	20.33
557.821	20.33
558.164	20.36
558.507	20.35
558.849	20.53
559.192	20.42
559.534	20.67
559.877	20.56
560.219	20.46
560.562	20.51
560.904	20.59
561.246	20.38
561.589	20.81
561.931	20.6
562.273	20.84
562.615	20.47
562.957	20.66
563.299	20.64
563.641	20.74
563.983	20.78
564.325	20.87
564.667	21
565.008	20.91
565.35	21
565.692	20.63
566.033	20.98
566.375	20.89
566.716	20.92
567.058	20.94
567.399	20.93
567.741	20.74
568.082	20.72
568.423	20.72
568.764	20.93
569.105	20.91
569.447	21.33
569.788	21.1
570.129	21.17
570.47	20.95
570.811	21.37
571.151	21.29
571.492	21.27
571.833	21.36
572.174	21.45
572.514	21.49
572.855	21.37
573.195	21.04
573.536	21.41
573.876	21.13
574.217	21.41
574.557	21.34
574.898	21.59
575.238	21.46
575.578	21.4
575.918	21.64
576.258	21.52
576.598	21.51
576.938	21.5
577.278	21.7
577.618	21.6
577.958	21.67
578.298	21.71
578.638	21.82
578.977	21.81
579.317	21.92
579.657	21.88
579.996	21.74
580.336	21.8
580.675	22.23
581.014	22.11
581.354	22.19
581.693	22.07
582.032	22.08
582.372	22.19
582.711	22.03
583.05	22.13
583.389	22.19
583.728	22.2
584.067	22.3
584.406	22.43
584.745	22.59
585.083	22.51
585.422	22.55
585.761	22.49
586.1	22.56
586.438	22.46
586.777	22.56
587.115	22.57
587.454	22.43
587.792	22.64
588.13	22.47
588.469	22.59
588.807	22.46
589.145	22.56
589.483	22.93
589.821	22.77
590.159	22.86
590.497	23
590.835	22.71
591.173	22.92
591.511	22.55
591.849	22.78
592.187	22.53
592.524	22.85
592.862	22.97
593.2	22.86
593.537	23.03
593.875	23.03
594.212	22.89
594.55	23.13
594.887	23
595.224	22.9
595.561	22.94
595.899	23.16
596.236	22.96
596.573	23.09
596.91	23.13
597.247	23.03
597.584	23.27
597.921	23.21
598.258	23.02
598.594	22.92
598.931	22.78
599.268	23.06
599.604	23.28
599.941	23.4
600.277	23.52
600.614	23.53
600.95	23.45
601.287	23.65
601.623	23.68
601.959	23.72
602.296	23.62
602.632	23.56
602.968	23.53
603.304	23.68
603.64	24.12
603.976	23.52
604.312	23.37
604.648	23.45
604.984	23.57
605.319	23.65
605.655	23.38
605.991	23.55
606.326	23.77
606.662	23.44
606.998	23.61
607.333	23.78
607.668	23.86
608.004	23.67
608.339	23.99
608.674	24
609.01	23.99
609.345	24.02
609.68	23.75
610.015	23.94
610.35	23.95
610.685	24.13
611.02	23.56
611.355	23.99
611.689	24.05
612.024	24.05
612.359	24.14
612.694	24.14
613.028	24.32
613.363	24.23
613.697	24.55
614.032	24.39
614.366	24.38
614.7	24.43
615.035	24.57
615.369	24.35
615.703	24.57
616.037	24.36
616.371	24.43
616.705	24.77
617.039	24.9
617.373	24.89
617.707	24.99
618.041	24.81
618.375	24.47
618.709	24.77
619.042	25.08
619.376	24.93
619.71	24.82
620.043	24.86
620.377	24.88
620.71	24.76
621.043	24.74
621.377	24.76
621.71	24.8
622.043	24.61
622.376	24.92
622.709	24.96
623.043	25.01
623.376	25.29
623.709	25.2
624.041	25.35
624.374	25.34
624.707	25.04
625.04	25.04
625.373	25.01
625.705	24.8
626.038	25.26
626.37	25.4
626.703	25.16
627.035	25.23
627.368	24.84
627.7	25.06
628.032	25.17
628.365	25.21
628.697	24.98
629.029	25.27
629.361	25.61
629.693	25.31
630.025	25.35
630.357	25.56
630.689	25.42
631.021	25.35
631.353	25.81
631.684	25.46
632.016	25.26
632.348	25.47
632.679	25.34
633.011	25.37
633.342	25.71
633.674	25.42
634.005	25.88
634.336	25.52
634.668	25.57
634.999	25.66
635.33	25.71
635.661	25.71
635.992	25.68
636.323	25.55
636.654	25.64
636.985	25.96
637.316	25.63
637.647	26.22
637.977	25.82
638.308	25.75
638.639	25.93
638.969	25.73
639.3	26.35
639.63	26.09
639.961	25.91
640.291	26.55
640.622	26.2
640.952	26.27
641.282	26.01
641.612	25.87
641.943	26.54
642.273	25.94
642.603	26.06
642.933	26.18
643.263	26.47
643.592	26.42
643.922	26.5
644.252	26.4
644.582	26.54
644.911	26.29
645.241	26.3
645.571	26.23
645.9	26.46
646.23	26.12
646.559	26.39
646.888	26.64
647.218	26.47
647.547	26.37
647.876	26.86
648.205	26.16
648.534	26.08
648.863	26.48
649.192	26.98
649.521	26.44
649.85	26.94
650.179	26.64
650.508	26.81
650.837	26.95
651.165	26.42
651.494	26.58
651.822	26.69
652.151	26.46
652.479	26.49
652.808	26.87
653.136	26.52
653.465	27.19
653.793	27.33
654.121	26.61
654.449	26.46
654.777	27.17
655.105	26.54
655.433	26.94
655.761	26.62
656.089	27.17
656.417	26.81
656.745	27.45
657.073	26.57
657.4	27.2
657.728	27.52
658.056	26.69
658.383	27.05
658.711	26.85
659.038	27.45
659.365	27.13
659.693	27.55
660.02	27.76
660.347	27.24
660.674	27.09
661.001	27.27
661.329	27.19
661.656	27.21
661.982	27.68
662.309	26.86
662.636	27.69
662.963	27.35
663.29	27.38
663.616	26.86
663.943	26.93
664.27	27.02
664.596	28.26
664.923	28.05
665.249	28.06
665.576	27.75
665.902	27.78
666.228	27.64
666.554	27.63
666.881	27.52
667.207	28.08
667.533	27.95
667.859	28.18
668.185	28.05
668.511	27.6
668.837	27.56
669.162	28.35
669.488	27.66
669.814	27.49
670.139	28.01
670.465	27.76
670.791	27.68
671.116	28.03
671.442	28.16
671.767	28.21
672.092	27.55
672.418	27.94
672.743	27.67
673.068	28.01
673.393	28.61
673.718	28
674.043	27.93
674.368	27.71
674.693	28.23
675.018	28.15
675.343	28.29
