Data from 20-9_chest_Reflection__2__138.txt Node

Date: Fri Nov 11 21:10:38 CST 2022
User: ToomeyLab
Spectrometer: FLMS14357
Trigger mode: 0
Integration Time (sec): 1.000000E-2
Scans to average: 100
Electric dark correction enabled: true
Nonlinearity correction enabled: false
Boxcar width: 0
XAxis mode: Wavelengths
Number of Pixels in Spectrum: 2048
>>>>>Begin Spectral Data<<<<<
189.047	98.64
189.435	98.64
189.823	98.64
190.211	35.55
190.599	381.94
190.987	200.45
191.375	17.49
191.763	220.44
192.151	168.93
192.538	-241.2
192.926	174.54
193.314	78.33
193.702	100.61
194.089	111.35
194.477	565.97
194.864	82.26
195.252	84.35
195.639	-69.08
196.027	-2650.74
196.414	125.16
196.801	133.74
197.189	61.44
197.576	19.92
197.963	-164.69
198.351	-24.55
198.738	5.02
199.125	-23.82
199.512	39.8
199.899	-494.75
200.286	0.79
200.673	11.14
201.06	15.35
201.447	27.35
201.833	22.52
202.22	1.32
202.607	44.97
202.994	46.43
203.38	22.77
203.767	17.01
204.154	50.69
204.54	-12.27
204.927	36.39
205.313	-12.74
205.699	-42.86
206.086	58.98
206.472	0.87
206.858	60.82
207.245	42.3
207.631	7.5
208.017	-5.25
208.403	2.62
208.789	1.25
209.175	14.2
209.561	52.87
209.947	13.3
210.333	-26.46
210.719	41.98
211.105	27.3
211.491	-6.58
211.876	0.68
212.262	50.99
212.648	-34.43
213.034	-23.68
213.419	-102.99
213.805	-4.64
214.19	12.21
214.576	44.85
214.961	-74.36
215.346	-14.61
215.732	-30.29
216.117	37.66
216.502	5.4
216.888	5.51
217.273	8.05
217.658	-15.98
218.043	30.04
218.428	-2.37
218.813	-6.56
219.198	-1.28
219.583	13.25
219.968	5.27
220.353	6.65
220.738	-15.11
221.122	10.02
221.507	-13.33
221.892	-2.45
222.276	17.71
222.661	15.24
223.046	-15.94
223.43	2.35
223.815	12.44
224.199	1.6
224.583	-2.87
224.968	9.81
225.352	11.48
225.736	-1
226.121	2.78
226.505	6.16
226.889	-8.43
227.273	5.63
227.657	-1.46
228.041	-1.73
228.425	3.16
228.809	3.9
229.193	6.63
229.577	4.78
229.961	4.6
230.344	4.87
230.728	4.22
231.112	3.89
231.495	4.72
231.879	5.24
232.263	3.5
232.646	4.05
233.03	3.77
233.413	3.29
233.797	4.04
234.18	3.92
234.563	4.78
234.946	3.28
235.33	4.48
235.713	3.62
236.096	4.06
236.479	3.84
236.862	5.77
237.245	4.56
237.628	4.33
238.011	4.55
238.394	5.18
238.777	5.03
239.16	5.57
239.543	2.34
239.925	4.36
240.308	2.77
240.691	5.7
241.073	4.86
241.456	2.37
241.838	5.57
242.221	3.73
242.603	4.25
242.986	3.93
243.368	3.77
243.75	4.44
244.133	4.46
244.515	4.16
244.897	4.53
245.279	3.62
245.661	4.7
246.043	4.44
246.425	4.62
246.807	4.3
247.189	4.51
247.571	3.98
247.953	4.31
248.335	4.25
248.717	4.41
249.098	4.62
249.48	4.12
249.862	4.4
250.243	3.93
250.625	4.16
251.006	4.88
251.388	4.73
251.769	4.4
252.151	4.95
252.532	5.09
252.913	5
253.295	3.99
253.676	3.5
254.057	4.05
254.438	3.97
254.819	3.13
255.2	4.2
255.581	3.61
255.962	3.78
256.343	4.23
256.724	3.33
257.105	4.55
257.486	3.64
257.867	5.16
258.247	2.85
258.628	3.63
259.009	3.4
259.389	3.37
259.77	4.51
260.15	3.98
260.531	4.71
260.911	4.12
261.292	4.19
261.672	3.99
262.052	4.17
262.432	4.25
262.813	4.12
263.193	3.91
263.573	4.49
263.953	4.59
264.333	3.41
264.713	3.85
265.093	4.01
265.473	3.59
265.853	3.88
266.233	3.92
266.612	2.99
266.992	3.94
267.372	4.65
267.752	3.54
268.131	3.28
268.511	3.44
268.89	3.79
269.27	3.52
269.649	3.96
270.029	4.44
270.408	3.98
270.787	4.13
271.167	3.22
271.546	3.96
271.925	4.44
272.304	3.89
272.683	3.93
273.062	3.68
273.441	3.85
273.82	4.12
274.199	3.93
274.578	3.71
274.957	3.95
275.336	4.34
275.715	3.97
276.093	3.59
276.472	4.02
276.851	3.4
277.229	3.86
277.608	4.03
277.986	4.02
278.365	3.72
278.743	3.97
279.122	4.23
279.5	3.76
279.878	3.99
280.257	3.79
280.635	3.46
281.013	3.98
281.391	3.55
281.769	4.02
282.147	3.78
282.525	3.43
282.903	3.48
283.281	3.94
283.659	4.03
284.037	3.73
284.415	3.54
284.792	3.9
285.17	4.29
285.548	3.91
285.925	3.51
286.303	3.49
286.68	3.85
287.058	4.13
287.435	3.52
287.813	4.13
288.19	3.74
288.567	3.79
288.945	3.69
289.322	3.79
289.699	3.5
290.076	3.94
290.453	3.69
290.83	3.35
291.207	3.47
291.584	4.02
291.961	4.06
292.338	4.09
292.715	4.04
293.092	3.73
293.469	3.79
293.845	3.53
294.222	3.58
294.599	4.05
294.975	4
295.352	3.91
295.728	3.69
296.105	3.87
296.481	3.83
296.858	3.64
297.234	4.1
297.61	3.79
297.986	4.05
298.363	4.23
298.739	3.93
299.115	4.02
299.491	4.05
299.867	3.95
300.243	3.81
300.619	3.87
300.995	3.79
301.371	4.5
301.746	4.48
302.122	3.92
302.498	4.47
302.874	4.33
303.249	4.49
303.625	4.04
304	3.44
304.376	4.11
304.751	3.71
305.127	4.28
305.502	4.08
305.878	4.72
306.253	3.82
306.628	4.27
307.003	4.21
307.378	3.9
307.754	4.45
308.129	4.66
308.504	4.18
308.879	4.02
309.254	4.48
309.629	3.87
310.003	3.97
310.378	4.13
310.753	4.55
311.128	4.57
311.502	4.5
311.877	4.24
312.252	3.96
312.626	4.29
313.001	4.21
313.375	4.49
313.75	4.12
314.124	3.77
314.498	4.33
314.873	3.82
315.247	4.09
315.621	4.05
315.995	4.35
316.369	4.14
316.743	4.15
317.117	4.34
317.491	4.54
317.865	4.28
318.239	4.31
318.613	4.13
318.987	4.37
319.361	3.97
319.734	4.44
320.108	4.29
320.482	4.4
320.855	3.83
321.229	3.83
321.602	4.21
321.976	4.07
322.349	4.01
322.723	4.36
323.096	4.36
323.469	4.57
323.843	4.11
324.216	4.19
324.589	4.97
324.962	4.93
325.335	4.1
325.708	4.5
326.081	4.4
326.454	4.16
326.827	3.93
327.2	4.73
327.573	5.04
327.945	4.69
328.318	4.02
328.691	4.76
329.063	4.76
329.436	4.16
329.809	4.28
330.181	4.25
330.553	3.82
330.926	4.04
331.298	4.61
331.671	3.98
332.043	3.84
332.415	4.17
332.787	4.65
333.159	4.29
333.532	4.29
333.904	4.41
334.276	4.06
334.648	4.32
335.02	4.15
335.391	4.55
335.763	3.97
336.135	4.07
336.507	4.26
336.879	4.32
337.25	4.61
337.622	4.54
337.993	4.37
338.365	4.71
338.736	4.48
339.108	4.38
339.479	4.1
339.851	4.53
340.222	4.41
340.593	4.69
340.964	4.43
341.336	4.63
341.707	4.36
342.078	4.29
342.449	4.64
342.82	4.47
343.191	5.07
343.562	4.51
343.933	4.14
344.303	4.21
344.674	4.59
345.045	4.11
345.416	4.49
345.786	4.23
346.157	4.25
346.527	4.29
346.898	3.87
347.268	4.17
347.639	4.32
348.009	4.07
348.38	4.39
348.75	4.25
349.12	4.81
349.49	4.75
349.861	4.37
350.231	4.57
350.601	4.58
350.971	4.63
351.341	4.93
351.711	4.14
352.081	4.39
352.45	4.23
352.82	4.41
353.19	4.55
353.56	4.03
353.929	4.31
354.299	4.32
354.669	4.57
355.038	4.51
355.408	4.48
355.777	4.68
356.147	4.47
356.516	4.53
356.885	4.42
357.254	4.41
357.624	4.14
357.993	4.6
358.362	4.39
358.731	4.07
359.1	4.57
359.469	3.95
359.838	4.39
360.207	4.61
360.576	4.62
360.945	4.71
361.314	4.29
361.682	4.35
362.051	4.22
362.42	4.54
362.788	4.49
363.157	4.11
363.525	4.43
363.894	4.31
364.262	4.57
364.631	4.78
364.999	4.51
365.367	4.42
365.735	4.53
366.104	4.27
366.472	4.29
366.84	4.13
367.208	4.5
367.576	4.37
367.944	4.56
368.312	4.62
368.68	4.6
369.048	4.51
369.416	4.47
369.783	4.71
370.151	4.56
370.519	4.69
370.886	4.58
371.254	4.81
371.621	4.25
371.989	4.36
372.356	4.59
372.724	4.78
373.091	4.67
373.458	4.64
373.826	4.32
374.193	4.36
374.56	4.17
374.927	4.5
375.294	4.95
375.661	4.95
376.028	4.32
376.395	4.93
376.762	5.05
377.129	4.59
377.496	4.72
377.863	4.43
378.229	4.59
378.596	4.56
378.963	4.6
379.329	4.77
379.696	4.74
380.062	4.62
380.429	4.58
380.795	4.88
381.161	4.69
381.528	4.69
381.894	4.71
382.26	4.87
382.626	4.74
382.993	4.72
383.359	4.49
383.725	4.52
384.091	4.63
384.457	4.78
384.823	4.57
385.188	4.86
385.554	4.52
385.92	4.58
386.286	4.73
386.651	4.79
387.017	4.54
387.383	4.65
387.748	4.3
388.114	4.5
388.479	4.34
388.845	4.5
389.21	4.52
389.575	4.89
389.94	4.69
390.306	4.57
390.671	4.75
391.036	4.69
391.401	4.85
391.766	4.63
392.131	4.73
392.496	4.7
392.861	4.69
393.226	4.51
393.591	4.63
393.956	4.67
394.32	4.78
394.685	4.58
395.05	4.82
395.414	4.7
395.779	4.69
396.143	4.7
396.508	4.92
396.872	4.77
397.236	4.59
397.601	4.61
397.965	4.68
398.329	4.65
398.694	4.7
399.058	4.72
399.422	4.76
399.786	4.69
400.15	4.78
400.514	4.87
400.878	4.85
401.242	4.65
401.605	4.81
401.969	4.87
402.333	4.48
402.697	4.69
403.06	4.88
403.424	4.54
403.787	4.69
404.151	4.85
404.514	4.69
404.878	4.62
405.241	4.64
405.604	4.7
405.968	4.78
406.331	4.53
406.694	4.58
407.057	4.58
407.42	4.86
407.783	4.79
408.146	4.79
408.509	4.92
408.872	4.58
409.235	4.74
409.598	4.89
409.961	4.9
410.323	4.64
410.686	4.68
411.049	4.56
411.411	4.6
411.774	4.92
412.136	4.64
412.499	4.85
412.861	4.8
413.223	4.71
413.586	4.67
413.948	4.95
414.31	4.95
414.672	4.83
415.035	4.78
415.397	4.8
415.759	4.6
416.121	4.73
416.483	4.65
416.845	4.84
417.206	4.78
417.568	4.68
417.93	4.71
418.292	4.6
418.653	4.78
419.015	4.8
419.377	4.81
419.738	4.75
420.1	4.76
420.461	4.77
420.822	4.73
421.184	4.65
421.545	4.73
421.906	4.78
422.267	4.66
422.629	4.6
422.99	4.67
423.351	4.66
423.712	4.7
424.073	4.78
424.434	4.8
424.795	4.76
425.155	4.66
425.516	4.79
425.877	4.69
426.238	4.74
426.598	4.74
426.959	4.68
427.32	4.83
427.68	4.84
428.041	4.9
428.401	4.65
428.761	4.85
429.122	4.74
429.482	4.89
429.842	4.78
430.202	4.82
430.563	4.92
430.923	4.86
431.283	4.74
431.643	4.85
432.003	4.85
432.363	4.73
432.722	4.99
433.082	5
433.442	4.89
433.802	5.03
434.161	4.92
434.521	4.83
434.881	4.91
435.24	4.94
435.6	4.92
435.959	4.93
436.319	4.86
436.678	4.93
437.037	4.89
437.396	5.02
437.756	4.85
438.115	5.07
438.474	4.95
438.833	5.03
439.192	4.95
439.551	5.01
439.91	5.02
440.269	4.9
440.628	5.11
440.987	4.95
441.345	4.89
441.704	4.94
442.063	4.94
442.421	4.9
442.78	4.85
443.138	4.99
443.497	4.86
443.855	4.93
444.214	4.88
444.572	4.9
444.93	5
445.288	4.87
445.647	5.03
446.005	5
446.363	4.96
446.721	4.97
447.079	5.04
447.437	4.85
447.795	4.96
448.153	4.88
448.51	4.99
448.868	4.95
449.226	4.95
449.584	5.02
449.941	5.04
450.299	4.93
450.656	5.16
451.014	5
451.371	5.11
451.729	5.02
452.086	5.1
452.443	5.1
452.801	5.04
453.158	5.02
453.515	4.94
453.872	4.99
454.229	5.02
454.586	5.01
454.943	5.09
455.3	5.18
455.657	5.1
456.014	5.32
456.371	5.23
456.727	5.19
457.084	4.96
457.441	5.27
457.797	5
458.154	5.1
458.51	5.16
458.867	5.14
459.223	5.14
459.58	5.18
459.936	5.05
460.292	5.13
460.648	5.05
461.005	5.06
461.361	5.03
461.717	5.04
462.073	5.07
462.429	5.02
462.785	4.98
463.141	5.08
463.496	5.06
463.852	5.17
464.208	5.21
464.564	5.13
464.919	5.15
465.275	5.23
465.631	5.27
465.986	5.45
466.342	5.23
466.697	5.27
467.052	5.16
467.408	5.06
467.763	5.21
468.118	5.33
468.473	5.19
468.829	5.27
469.184	5.39
469.539	5.31
469.894	5.36
470.249	5.4
470.603	5.18
470.958	5.27
471.313	5.31
471.668	5.41
472.023	5.02
472.377	5.41
472.732	5.32
473.086	5.14
473.441	5.34
473.795	5.37
474.15	5.29
474.504	5.38
474.859	5.26
475.213	5.5
475.567	5.49
475.921	5.36
476.275	5.3
476.63	5.48
476.984	5.65
477.338	5.33
477.692	5.33
478.045	5.33
478.399	5.51
478.753	5.31
479.107	5.3
479.461	5.3
479.814	5.31
480.168	5.3
480.521	5.37
480.875	5.42
481.228	5.31
481.582	5.46
481.935	5.35
482.289	5.27
482.642	5.28
482.995	5.3
483.348	5.27
483.701	5.41
484.055	5.26
484.408	5.18
484.761	5.14
485.114	5.09
485.466	5.02
485.819	5.06
486.172	5.07
486.525	5.2
486.878	5.21
487.23	5.19
487.583	5.26
487.936	5.25
488.288	5.29
488.641	5.19
488.993	5.23
489.345	5.21
489.698	5.19
490.05	5.17
490.402	5.22
490.754	5.28
491.107	5.27
491.459	5.32
491.811	5.35
492.163	5.3
492.515	5.32
492.866	5.3
493.218	5.24
493.57	5.3
493.922	5.27
494.274	5.37
494.625	5.35
494.977	5.4
495.328	5.47
495.68	5.43
496.031	5.5
496.383	5.5
496.734	5.61
497.086	5.55
497.437	5.5
497.788	5.5
498.139	5.51
498.49	5.53
498.842	5.48
499.193	5.58
499.544	5.52
499.894	5.49
500.245	5.58
500.596	5.69
500.947	5.67
501.298	5.62
501.648	5.64
501.999	5.72
502.35	5.76
502.7	5.76
503.051	5.7
503.401	5.65
503.752	5.69
504.102	5.72
504.452	5.66
504.803	5.71
505.153	5.67
505.503	5.71
505.853	5.61
506.203	5.81
506.553	5.63
506.903	5.68
507.253	5.71
507.603	5.81
507.953	5.85
508.303	5.62
508.652	5.93
509.002	5.83
509.352	5.74
509.701	5.82
510.051	5.71
510.4	5.77
510.75	5.75
511.099	5.69
511.449	5.91
511.798	5.71
512.147	5.75
512.496	5.78
512.846	5.84
513.195	5.74
513.544	5.82
513.893	5.83
514.242	5.78
514.591	5.82
514.939	5.78
515.288	5.86
515.637	5.9
515.986	5.84
516.334	5.83
516.683	5.83
517.032	5.85
517.38	5.99
517.729	5.9
518.077	5.83
518.426	5.94
518.774	5.97
519.122	5.95
519.47	6
519.819	5.93
520.167	5.83
520.515	5.94
520.863	5.96
521.211	5.96
521.559	5.95
521.907	6.01
522.255	5.96
522.602	5.99
522.95	6.02
523.298	6.1
523.645	6.12
523.993	5.97
524.341	6.08
524.688	6.21
525.036	6.18
525.383	6.03
525.73	6.09
526.078	6.05
526.425	6.07
526.772	6.1
527.119	6.03
527.466	6.06
527.814	5.96
528.161	6.16
528.508	6.06
528.854	5.94
529.201	6.05
529.548	6.06
529.895	5.93
530.242	5.93
530.588	5.93
530.935	5.96
531.282	6.01
531.628	5.99
531.975	6.11
532.321	6.16
532.667	6.25
533.014	6.16
533.36	6.22
533.706	6.31
534.052	6.27
534.399	6.19
534.745	6.25
535.091	6.15
535.437	6.16
535.783	6.25
536.129	6.23
536.474	6.35
536.82	6.32
537.166	6.41
537.512	6.44
537.857	6.3
538.203	6.38
538.549	6.38
538.894	6.41
539.239	6.42
539.585	6.46
539.93	6.5
540.276	6.56
540.621	6.49
540.966	6.62
541.311	6.48
541.656	6.5
542.001	6.5
542.346	6.54
542.691	6.4
543.036	6.37
543.381	6.41
543.726	6.33
544.071	6.5
544.415	6.51
544.76	6.57
545.105	6.52
545.449	6.52
545.794	6.68
546.138	6.66
546.483	6.7
546.827	6.76
547.171	6.79
547.516	6.66
547.86	6.68
548.204	6.76
548.548	6.75
548.892	6.84
549.236	6.78
549.58	6.88
549.924	6.92
550.268	6.95
550.612	7.14
550.956	7.18
551.3	6.99
551.643	7.09
551.987	7.09
552.33	7.08
552.674	6.93
553.017	7.13
553.361	7.18
553.704	7.21
554.048	7.05
554.391	7.17
554.734	7.21
555.077	7.26
555.42	7.16
555.764	7.18
556.107	7.32
556.45	7.38
556.793	7.22
557.135	7.31
557.478	7.41
557.821	7.34
558.164	7.32
558.507	7.41
558.849	7.46
559.192	7.48
559.534	7.5
559.877	7.55
560.219	7.46
560.562	7.26
560.904	7.58
561.246	7.44
561.589	7.56
561.931	7.35
562.273	7.5
562.615	7.65
562.957	7.59
563.299	7.65
563.641	7.58
563.983	7.6
564.325	7.62
564.667	7.66
565.008	7.9
565.35	7.63
565.692	7.51
566.033	7.84
566.375	7.95
566.716	7.84
567.058	7.9
567.399	7.86
567.741	7.98
568.082	7.82
568.423	7.78
568.764	8.03
569.105	7.91
569.447	7.97
569.788	7.87
570.129	7.97
570.47	7.99
570.811	8.03
571.151	8.17
571.492	8.09
571.833	8.05
572.174	8.18
572.514	8.1
572.855	8.05
573.195	7.93
573.536	8.19
573.876	8.24
574.217	8.3
574.557	8.25
574.898	8.28
575.238	8.25
575.578	8.36
575.918	8.4
576.258	8.32
576.598	8.41
576.938	8.48
577.278	8.34
577.618	8.29
577.958	8.38
578.298	8.53
578.638	8.39
578.977	8.56
579.317	8.55
579.657	8.56
579.996	8.56
580.336	8.76
580.675	8.85
581.014	8.87
581.354	8.58
581.693	8.81
582.032	8.76
582.372	8.95
582.711	8.81
583.05	8.9
583.389	8.87
583.728	8.83
584.067	9.07
584.406	8.8
584.745	9.06
585.083	8.97
585.422	8.95
585.761	8.9
586.1	8.9
586.438	9.25
586.777	9.11
587.115	9.23
587.454	9.12
587.792	8.93
588.13	9.09
588.469	9.25
588.807	9.17
589.145	9.3
589.483	9.47
589.821	9.4
590.159	9.4
590.497	9.52
590.835	9.31
591.173	9.43
591.511	9.21
591.849	9.35
592.187	9.41
592.524	9.51
592.862	9.45
593.2	9.7
593.537	9.55
593.875	9.89
594.212	9.74
594.55	9.55
594.887	9.61
595.224	9.62
595.561	9.63
595.899	9.36
596.236	9.89
596.573	9.94
596.91	9.91
597.247	9.61
597.584	9.77
597.921	9.95
598.258	9.74
598.594	9.89
598.931	9.79
599.268	9.98
599.604	10.02
599.941	10.07
600.277	10.14
600.614	10.28
600.95	9.93
601.287	10.27
601.623	10.76
601.959	10.19
602.296	10.2
602.632	10.11
602.968	10.3
603.304	10.49
603.64	10.52
603.976	10.26
604.312	10.35
604.648	10.39
604.984	10.35
605.319	10.42
605.655	10.31
605.991	10.38
606.326	10.71
606.662	10.48
606.998	10.36
607.333	10.69
607.668	10.46
608.004	10.48
608.339	10.65
608.674	10.74
609.01	10.6
609.345	10.49
609.68	10.56
610.015	10.84
610.35	10.86
610.685	10.88
611.02	10.74
611.355	10.94
611.689	10.96
612.024	10.97
612.359	10.74
612.694	11.07
613.028	11.04
613.363	11.06
613.697	11.34
614.032	11.03
614.366	11.17
614.7	10.95
615.035	11.29
615.369	10.9
615.703	11.22
616.037	11.33
616.371	11.24
616.705	11.64
617.039	11.55
617.373	11.36
617.707	11.49
618.041	11.51
618.375	11.58
618.709	11.79
619.042	11.94
619.376	11.7
619.71	11.63
620.043	11.93
620.377	11.48
620.71	11.5
621.043	11.65
621.377	11.85
621.71	11.72
622.043	11.59
622.376	11.88
622.709	11.56
623.043	12.06
623.376	12.03
623.709	12.2
624.041	11.98
624.374	11.48
624.707	12.16
625.04	11.77
625.373	11.85
625.705	12.11
626.038	12.03
626.37	12.24
626.703	12.28
627.035	11.96
627.368	12.22
627.7	12.14
628.032	12.21
628.365	12.34
628.697	12.16
629.029	12.41
629.361	12.67
629.693	12.29
630.025	12.39
630.357	12.62
630.689	12.39
631.021	12.31
631.353	12.65
631.684	12.56
632.016	12.25
632.348	12.47
632.679	12.5
633.011	12.87
633.342	12.69
633.674	12.92
634.005	12.44
634.336	12.93
634.668	12.7
634.999	12.88
635.33	12.89
635.661	12.92
635.992	12.84
636.323	13.03
636.654	12.97
636.985	13.11
637.316	13.02
637.647	13.28
637.977	12.97
638.308	13.2
638.639	12.89
638.969	13.45
639.3	13.59
639.63	13.29
639.961	13.23
640.291	13.41
640.622	13.66
640.952	13.48
641.282	13.44
641.612	13.34
641.943	13.93
642.273	13.52
642.603	13.63
642.933	14.08
643.263	13.95
643.592	14.06
643.922	13.69
644.252	13.43
644.582	14.11
644.911	13.74
645.241	13.79
645.571	14.14
645.9	14.48
646.23	14.09
646.559	14.06
646.888	14.39
647.218	13.9
647.547	14.09
647.876	14.4
648.205	14.01
648.534	13.97
648.863	14.45
649.192	13.9
649.521	14.7
649.85	14.72
650.179	14.26
650.508	14.48
650.837	14.43
651.165	14.35
651.494	14.46
651.822	14.24
652.151	14.27
652.479	14.29
652.808	14.44
653.136	14.33
653.465	14.67
653.793	14.71
654.121	14.22
654.449	14.33
654.777	14.68
655.105	14.48
655.433	15.13
655.761	14.89
656.089	14.94
656.417	14.39
656.745	15.19
657.073	15.03
657.4	14.99
657.728	14.92
658.056	15.12
658.383	15.15
658.711	14.98
659.038	15.05
659.365	14.89
659.693	15.53
660.02	15.76
660.347	15.24
660.674	15.17
661.001	15.29
661.329	15.21
661.656	15.59
661.982	15.3
662.309	15.1
662.636	15.8
662.963	15.24
663.29	15.48
663.616	15.18
663.943	15.85
664.27	15.52
664.596	15.64
664.923	15.35
665.249	15.51
665.576	16.15
665.902	16.16
666.228	15.77
666.554	15.74
666.881	15.66
667.207	15.75
667.533	16.3
667.859	16.3
668.185	16.09
668.511	15.82
668.837	16.29
669.162	16.05
669.488	16.8
669.814	16.13
670.139	16.31
670.465	16.3
670.791	16.56
671.116	16.3
671.442	16.62
671.767	15.77
672.092	16.51
672.418	16.4
672.743	16.35
673.068	16.72
673.393	16.53
673.718	16.15
674.043	16.32
674.368	16.38
674.693	16.1
675.018	17.06
675.343	16.03
675.667	17.33
675.992	17.11
676.317	17.07
676.641	16.22
676.966	17.12
677.29	16.32
677.615	17.37
677.939	16.96
678.264	17
678.588	16.37
678.912	17.06
679.236	16.79
679.56	16.82
679.885	16.52
680.209	16.77
680.532	17.42
680.856	17.47
681.18	17.63
681.504	16.9
681.828	17.69
682.152	17.07
682.475	17.28
682.799	17.04
683.122	17.5
683.446	17.54
683.769	17.27
684.093	17.9
684.416	17.76
684.739	18
685.062	17.24
685.386	18.13
685.709	18.07
686.032	17.66
686.355	17.56
686.678	18.02
