Data from 20-9_crown_Reflection__3__144.txt Node

Date: Fri Nov 11 21:12:18 CST 2022
User: ToomeyLab
Spectrometer: FLMS14357
Trigger mode: 0
Integration Time (sec): 1.000000E-2
Scans to average: 100
Electric dark correction enabled: true
Nonlinearity correction enabled: false
Boxcar width: 0
XAxis mode: Wavelengths
Number of Pixels in Spectrum: 2048
>>>>>Begin Spectral Data<<<<<
189.047	197.33
189.435	197.33
189.823	197.33
190.211	-528.73
190.599	614.48
190.987	334.62
191.375	-20.83
191.763	-63.85
192.151	-79.17
192.538	-687.5
192.926	307.25
193.314	94.87
193.702	-26.75
194.089	21.69
194.477	664.87
194.864	157.3
195.252	125.21
195.639	27.7
196.027	805.15
196.414	48.3
196.801	99.57
197.189	70.87
197.576	82.12
197.963	-134.21
198.351	-89.54
198.738	-84.93
199.125	34.53
199.512	47.32
199.899	-1998.37
200.286	-10.19
200.673	-32.43
201.06	44.32
201.447	36.6
201.833	-9.93
202.22	-26.63
202.607	33.08
202.994	36.65
203.38	45.89
203.767	18.7
204.154	40.09
204.54	-5.87
204.927	21.89
205.313	-2.71
205.699	-41.79
206.086	46.9
206.472	11.34
206.858	35.81
207.245	64.26
207.631	-0.94
208.017	-3.98
208.403	-9.63
208.789	-9.5
209.175	25.92
209.561	36.67
209.947	-6.9
210.333	-8.46
210.719	15.4
211.105	29.12
211.491	39.32
211.876	6
212.262	80.42
212.648	12.71
213.034	-3.54
213.419	-64.88
213.805	-47
214.19	-32.61
214.576	28.91
214.961	-63.9
215.346	-2.16
215.732	-22.66
216.117	26.54
216.502	-24.55
216.888	-34.83
217.273	7.27
217.658	-62.5
218.043	29.18
218.428	1.99
218.813	-3.65
219.198	-7
219.583	18.8
219.968	-15.85
220.353	5.96
220.738	-15.64
221.122	33.46
221.507	-31.05
221.892	-20.97
222.276	8.57
222.661	18.2
223.046	-15.45
223.43	-4.23
223.815	3.61
224.199	6.07
224.583	-16.65
224.968	-2.63
225.352	11.71
225.736	10.15
226.121	0.05
226.505	7.61
226.889	-7.32
227.273	11.57
227.657	0.1
228.041	-1.86
228.425	1.78
228.809	1.79
229.193	7.78
229.577	4.84
229.961	4.82
230.344	3.52
230.728	3.31
231.112	2.42
231.495	2.58
231.879	3.04
232.263	3.24
232.646	2.9
233.03	2.73
233.413	3.8
233.797	6.69
234.18	1.99
234.563	4.62
234.946	1.93
235.33	3.79
235.713	3.97
236.096	2.39
236.479	4.63
236.862	5.64
237.245	4.14
237.628	4.8
238.011	3.1
238.394	3
238.777	4.26
239.16	4.55
239.543	1.21
239.925	3.63
240.308	3.42
240.691	5.25
241.073	3.75
241.456	2.28
241.838	4.84
242.221	2.89
242.603	3.63
242.986	3.2
243.368	3.56
243.75	3.82
244.133	3.77
244.515	3.8
244.897	4.42
245.279	3.58
245.661	3.76
246.043	3.59
246.425	4.4
246.807	3.6
247.189	3.6
247.571	3.74
247.953	4.15
248.335	3.77
248.717	3.81
249.098	4.11
249.48	3.73
249.862	3.97
250.243	4.06
250.625	3.77
251.006	4.81
251.388	4.32
251.769	3.64
252.151	4.17
252.532	3.42
252.913	4.31
253.295	3.65
253.676	3.46
254.057	3.69
254.438	3.29
254.819	2.89
255.2	3.91
255.581	4.46
255.962	2.8
256.343	3.42
256.724	3.06
257.105	2.86
257.486	3.07
257.867	3.84
258.247	3.22
258.628	3.44
259.009	3.52
259.389	3.5
259.77	4.44
260.15	3.49
260.531	3.48
260.911	3.66
261.292	3.6
261.672	3.32
262.052	3.43
262.432	3.61
262.813	3.67
263.193	3.41
263.573	3.58
263.953	3.72
264.333	3.35
264.713	3.49
265.093	3.22
265.473	2.6
265.853	3.34
266.233	3.75
266.612	3.27
266.992	3.44
267.372	3.79
267.752	3.17
268.131	3.73
268.511	3.8
268.89	3.11
269.27	3.29
269.649	3.31
270.029	3.62
270.408	3.13
270.787	3.52
271.167	2.96
271.546	3.91
271.925	3.53
272.304	3.31
272.683	3.41
273.062	3.06
273.441	3.53
273.82	3.21
274.199	3.07
274.578	3.18
274.957	3.45
275.336	3.77
275.715	3.57
276.093	3.02
276.472	2.8
276.851	2.73
277.229	3.22
277.608	4.02
277.986	3.43
278.365	2.78
278.743	3.36
279.122	3.51
279.5	3.54
279.878	3.96
280.257	3.39
280.635	3.22
281.013	2.77
281.391	2.99
281.769	3.09
282.147	3.2
282.525	2.88
282.903	2.61
283.281	2.98
283.659	3.33
284.037	3.48
284.415	3.28
284.792	2.94
285.17	3.44
285.548	3.08
285.925	2.85
286.303	3.45
286.68	3.9
287.058	3.13
287.435	3.26
287.813	3.33
288.19	3.23
288.567	3.35
288.945	3.42
289.322	3.4
289.699	2.71
290.076	3.49
290.453	3.39
290.83	3.06
291.207	2.99
291.584	3.22
291.961	3.07
292.338	3.51
292.715	3.46
293.092	3.39
293.469	3.22
293.845	3.53
294.222	2.91
294.599	3.45
294.975	2.95
295.352	2.92
295.728	3.13
296.105	3.36
296.481	2.76
296.858	3.12
297.234	3.06
297.61	2.73
297.986	3.56
298.363	3.44
298.739	3.35
299.115	3.41
299.491	3.6
299.867	3.16
300.243	3.48
300.619	3.47
300.995	3.46
301.371	4.05
301.746	3.49
302.122	3.39
302.498	3.21
302.874	3.26
303.249	3.28
303.625	3.26
304	3.08
304.376	3.45
304.751	3.1
305.127	3.32
305.502	3.29
305.878	3.52
306.253	3.22
306.628	3.5
307.003	3.39
307.378	3.07
307.754	3.56
308.129	3.3
308.504	2.96
308.879	3.56
309.254	3.68
309.629	3.37
310.003	3.49
310.378	3.11
310.753	3.65
311.128	3.75
311.502	3.33
311.877	3.35
312.252	3.32
312.626	3.44
313.001	2.92
313.375	3.13
313.75	3.21
314.124	2.98
314.498	3.19
314.873	3.4
315.247	3.47
315.621	3.29
315.995	3.68
316.369	3.31
316.743	3.29
317.117	3.7
317.491	2.98
317.865	2.48
318.239	3.41
318.613	3.68
318.987	3.04
319.361	3.25
319.734	3.41
320.108	2.88
320.482	3.33
320.855	2.65
321.229	2.92
321.602	3.39
321.976	3.52
322.349	3.24
322.723	4.02
323.096	2.81
323.469	3.5
323.843	3.61
324.216	3.38
324.589	3.47
324.962	3.87
325.335	3.25
325.708	3.65
326.081	3.49
326.454	3.05
326.827	2.79
327.2	4.04
327.573	4.21
327.945	3.38
328.318	3.3
328.691	3.49
329.063	3.72
329.436	3.3
329.809	3.03
330.181	3.22
330.553	3.02
330.926	3.43
331.298	3.29
331.671	3.29
332.043	2.76
332.415	3.08
332.787	3.71
333.159	3.36
333.532	3.49
333.904	3.24
334.276	3.26
334.648	2.93
335.02	2.98
335.391	3.76
335.763	3.27
336.135	3.22
336.507	3.5
336.879	3.23
337.25	3.44
337.622	3.1
337.993	3.37
338.365	3.33
338.736	3.22
339.108	3.03
339.479	2.86
339.851	3.85
340.222	2.98
340.593	3.36
340.964	3.45
341.336	3.36
341.707	2.73
342.078	2.97
342.449	3.66
342.82	3.38
343.191	3.12
343.562	3.26
343.933	3.22
344.303	2.89
344.674	3.46
345.045	3.23
345.416	3.3
345.786	3.04
346.157	2.78
346.527	3.23
346.898	3.03
347.268	3.2
347.639	3.17
348.009	3.23
348.38	3.32
348.75	3.38
349.12	3.84
349.49	3.47
349.861	3.18
350.231	3.58
350.601	3.47
350.971	3.1
351.341	3.28
351.711	3.28
352.081	3.48
352.45	3.36
352.82	2.93
353.19	3.35
353.56	3.51
353.929	3.29
354.299	3.37
354.669	3.27
355.038	3.12
355.408	3.39
355.777	3.56
356.147	3.31
356.516	3.33
356.885	3.4
357.254	3.21
357.624	2.75
357.993	3.47
358.362	3.44
358.731	3.14
359.1	3.38
359.469	2.92
359.838	3.21
360.207	3.53
360.576	3.26
360.945	3.56
361.314	3.17
361.682	3.36
362.051	3.45
362.42	3.47
362.788	3.38
363.157	3.29
363.525	3.13
363.894	3.27
364.262	3.33
364.631	3.33
364.999	3.41
365.367	3.36
365.735	3.36
366.104	3.23
366.472	2.98
366.84	3.12
367.208	3.35
367.576	3.74
367.944	3.63
368.312	3.38
368.68	3.28
369.048	3.31
369.416	3.3
369.783	3.45
370.151	3.58
370.519	3.37
370.886	3.39
371.254	3.63
371.621	3.25
371.989	3.13
372.356	3.44
372.724	3.75
373.091	3.45
373.458	3.13
373.826	3.14
374.193	3.14
374.56	3.36
374.927	3.21
375.294	3.51
375.661	3.6
376.028	3.22
376.395	3.57
376.762	3.68
377.129	3.65
377.496	3.5
377.863	3.52
378.229	3.36
378.596	3.42
378.963	3.46
379.329	3.54
379.696	3.64
380.062	3.34
380.429	3.65
380.795	3.82
381.161	3.37
381.528	3.7
381.894	3.47
382.26	3.66
382.626	3.46
382.993	3.57
383.359	3.43
383.725	3.29
384.091	3.67
384.457	3.49
384.823	3.19
385.188	3.49
385.554	3.36
385.92	3.31
386.286	3.42
386.651	3.73
387.017	3.3
387.383	3.38
387.748	3.21
388.114	3.41
388.479	3.39
388.845	3.48
389.21	3.31
389.575	3.51
389.94	3.45
390.306	3.34
390.671	3.6
391.036	3.56
391.401	3.1
391.766	3.81
392.131	3.52
392.496	3.45
392.861	3.5
393.226	3.49
393.591	3.43
393.956	3.61
394.32	3.53
394.685	3.5
395.05	3.88
395.414	3.43
395.779	3.58
396.143	3.39
396.508	3.61
396.872	3.61
397.236	3.36
397.601	3.51
397.965	3.57
398.329	3.55
398.694	3.76
399.058	3.76
399.422	3.54
399.786	3.59
400.15	3.44
400.514	3.64
400.878	3.56
401.242	3.45
401.605	3.69
401.969	3.55
402.333	3.52
402.697	3.68
403.06	3.82
403.424	3.39
403.787	3.74
404.151	3.48
404.514	3.66
404.878	3.58
405.241	3.57
405.604	3.55
405.968	3.69
406.331	3.52
406.694	3.72
407.057	3.62
407.42	3.82
407.783	3.71
408.146	3.68
408.509	3.68
408.872	3.61
409.235	3.58
409.598	3.59
409.961	3.71
410.323	3.64
410.686	3.62
411.049	3.54
411.411	3.55
411.774	3.64
412.136	3.48
412.499	3.73
412.861	3.58
413.223	3.46
413.586	3.65
413.948	3.72
414.31	3.68
414.672	3.74
415.035	3.57
415.397	3.44
415.759	3.47
416.121	3.53
416.483	3.54
416.845	3.64
417.206	3.6
417.568	3.6
417.93	3.59
418.292	3.4
418.653	3.6
419.015	3.59
419.377	3.75
419.738	3.69
420.1	3.6
420.461	3.74
420.822	3.58
421.184	3.52
421.545	3.5
421.906	3.57
422.267	3.61
422.629	3.45
422.99	3.54
423.351	3.51
423.712	3.5
424.073	3.56
424.434	3.66
424.795	3.68
425.155	3.59
425.516	3.61
425.877	3.53
426.238	3.58
426.598	3.62
426.959	3.57
427.32	3.67
427.68	3.71
428.041	3.81
428.401	3.45
428.761	3.61
429.122	3.52
429.482	3.73
429.842	3.55
430.202	3.83
430.563	3.78
430.923	3.7
431.283	3.57
431.643	3.51
432.003	3.85
432.363	3.54
432.722	3.96
433.082	3.75
433.442	3.83
433.802	3.78
434.161	3.7
434.521	3.6
434.881	3.83
435.24	3.8
435.6	3.82
435.959	3.74
436.319	3.75
436.678	3.76
437.037	3.89
437.396	3.7
437.756	3.74
438.115	3.86
438.474	3.58
438.833	3.84
439.192	3.78
439.551	3.73
439.91	3.75
440.269	3.67
440.628	3.92
440.987	3.68
441.345	3.76
441.704	3.73
442.063	3.73
442.421	3.62
442.78	3.74
443.138	3.84
443.497	3.59
443.855	3.72
444.214	3.72
444.572	3.75
444.93	3.64
445.288	3.7
445.647	3.9
446.005	3.79
446.363	3.79
446.721	3.82
447.079	3.8
447.437	3.65
447.795	3.76
448.153	3.69
448.51	3.67
448.868	3.78
449.226	3.74
449.584	3.67
449.941	3.77
450.299	3.68
450.656	3.87
451.014	3.85
451.371	3.81
451.729	3.75
452.086	3.63
452.443	3.71
452.801	3.99
453.158	3.8
453.515	3.95
453.872	3.79
454.229	3.83
454.586	3.89
454.943	3.97
455.3	3.81
455.657	3.86
456.014	4
456.371	3.91
456.727	3.94
457.084	3.64
457.441	3.94
457.797	3.83
458.154	3.86
458.51	3.71
458.867	3.82
459.223	4.05
459.58	3.77
459.936	3.8
460.292	3.94
460.648	3.87
461.005	3.81
461.361	3.88
461.717	3.78
462.073	3.87
462.429	3.74
462.785	3.8
463.141	3.84
463.496	3.88
463.852	3.93
464.208	3.9
464.564	4.09
464.919	3.79
465.275	3.71
465.631	3.91
465.986	4.06
466.342	3.96
466.697	3.81
467.052	4
467.408	3.81
467.763	3.9
468.118	3.94
468.473	3.89
468.829	3.9
469.184	3.92
469.539	3.99
469.894	3.84
470.249	3.96
470.603	4
470.958	3.93
471.313	4
471.668	3.97
472.023	3.74
472.377	3.96
472.732	4
473.086	3.94
473.441	3.85
473.795	3.94
474.15	3.98
474.504	4.04
474.859	3.99
475.213	4.05
475.567	4
475.921	3.94
476.275	4.05
476.63	3.95
476.984	3.99
477.338	4.02
477.692	3.98
478.045	3.82
478.399	4
478.753	3.88
479.107	3.94
479.461	3.9
479.814	3.94
480.168	3.92
480.521	3.99
480.875	3.95
481.228	3.86
481.582	4.08
481.935	3.85
482.289	3.88
482.642	3.97
482.995	3.82
483.348	3.89
483.701	3.94
484.055	3.9
484.408	3.84
484.761	3.83
485.114	3.64
485.466	3.65
485.819	3.69
486.172	3.72
486.525	3.77
486.878	3.8
487.23	3.78
487.583	3.83
487.936	3.82
488.288	3.84
488.641	3.77
488.993	3.76
489.345	3.73
489.698	3.76
490.05	3.77
490.402	3.8
490.754	3.86
491.107	3.84
491.459	3.82
491.811	3.96
492.163	4.05
492.515	3.87
492.866	3.87
493.218	3.79
493.57	3.8
493.922	3.79
494.274	3.92
494.625	3.9
494.977	3.95
495.328	3.97
495.68	3.95
496.031	3.99
496.383	4.13
496.734	4.02
497.086	4.06
497.437	4.03
497.788	3.93
498.139	4.03
498.49	3.97
498.842	3.96
499.193	4.01
499.544	4.06
499.894	3.99
500.245	4.02
500.596	4.07
500.947	4.02
501.298	3.95
501.648	4.01
501.999	4.1
502.35	4.15
502.7	4.03
503.051	4.07
503.401	4.11
503.752	3.92
504.102	3.93
504.452	4.06
504.803	4.03
505.153	4.03
505.503	4.01
505.853	4.02
506.203	4.14
506.553	3.91
506.903	4.01
507.253	4.13
507.603	4.05
507.953	3.97
508.303	3.91
508.652	4.09
509.002	4.12
509.352	4.07
509.701	4.1
510.051	3.98
510.4	4.12
510.75	4.01
511.099	4.03
511.449	4.03
511.798	4.01
512.147	4.02
512.496	4.04
512.846	4.16
513.195	4.07
513.544	4.03
513.893	3.94
514.242	4.03
514.591	4.08
514.939	4.01
515.288	3.95
515.637	4.05
515.986	4.04
516.334	4.03
516.683	4.12
517.032	4.07
517.38	4.03
517.729	4.13
518.077	4.14
518.426	4.14
518.774	4.13
519.122	4.15
519.47	4.06
519.819	4.06
520.167	4.02
520.515	4.06
520.863	4.13
521.211	4.05
521.559	4
521.907	4.05
522.255	3.99
522.602	4.07
522.95	4.13
523.298	4.19
523.645	4.17
523.993	4.17
524.341	4.12
524.688	4.1
525.036	4.06
525.383	4.11
525.73	4.14
526.078	4.13
526.425	4.05
526.772	4.08
527.119	3.98
527.466	4.1
527.814	4.06
528.161	4.08
528.508	3.99
528.854	3.95
529.201	4.03
529.548	3.92
529.895	3.93
530.242	3.86
530.588	3.92
530.935	3.91
531.282	3.95
531.628	3.98
531.975	4.02
532.321	3.99
532.667	4.09
533.014	4.07
533.36	4.1
533.706	4.12
534.052	4.04
534.399	4.01
534.745	3.99
535.091	3.99
535.437	3.97
535.783	4.02
536.129	4.07
536.474	4.07
536.82	4.01
537.166	4.11
537.512	4.13
537.857	4.09
538.203	4.05
538.549	4.19
538.894	4.02
539.239	4.06
539.585	4.23
539.93	4.26
540.276	4.23
540.621	4.22
540.966	4.3
541.311	4.28
541.656	4.2
542.001	4.12
542.346	4.14
542.691	4.03
543.036	3.98
543.381	4.03
543.726	4
544.071	4.06
544.415	4.1
544.76	4.08
545.105	4.06
545.449	4.1
545.794	4.19
546.138	4.11
546.483	4.19
546.827	4.2
547.171	4.25
547.516	4.12
547.86	4.17
548.204	4.17
548.548	4.08
548.892	4.2
549.236	4.21
549.58	4.19
549.924	4.26
550.268	4.18
550.612	4.33
550.956	4.41
551.3	4.23
551.643	4.35
551.987	4.35
552.33	4.3
552.674	4.36
553.017	4.48
553.361	4.36
553.704	4.35
554.048	4.28
554.391	4.17
554.734	4.24
555.077	4.27
555.42	4.29
555.764	4.3
556.107	4.24
556.45	4.53
556.793	4.29
557.135	4.23
557.478	4.44
557.821	4.28
558.164	4.3
558.507	4.4
558.849	4.27
559.192	4.16
559.534	4.28
559.877	4.31
560.219	4.37
560.562	4.31
560.904	4.49
561.246	4
561.589	4.38
561.931	4.13
562.273	4.33
562.615	4.3
562.957	4.38
563.299	4.33
563.641	4.32
563.983	4.3
564.325	4.19
564.667	4.29
565.008	4.51
565.35	4.49
565.692	4.18
566.033	4.17
566.375	4.54
566.716	4.32
567.058	4.33
567.399	4.46
567.741	4.4
568.082	4.25
568.423	4.41
568.764	4.31
569.105	4.28
569.447	4.5
569.788	4.45
570.129	4.18
570.47	4.49
570.811	4.46
571.151	4.52
571.492	4.49
571.833	4.22
572.174	4.58
572.514	4.46
572.855	4.4
573.195	4.13
573.536	4.47
573.876	4.32
574.217	4.51
574.557	4.29
574.898	4.42
575.238	4.37
575.578	4.43
575.918	4.52
576.258	4.35
576.598	4.27
576.938	4.36
577.278	4.33
577.618	4.33
577.958	4.33
578.298	4.4
578.638	4.39
578.977	4.62
579.317	4.38
579.657	4.46
579.996	4.3
580.336	4.46
580.675	4.52
581.014	4.45
581.354	4.22
581.693	4.47
582.032	4.27
582.372	4.49
582.711	4.39
583.05	4.42
583.389	4.44
583.728	4.46
584.067	4.67
584.406	4.39
584.745	4.59
585.083	4.3
585.422	4.45
585.761	4.47
586.1	4.46
586.438	4.3
586.777	4.34
587.115	4.39
587.454	4.47
587.792	4.54
588.13	4.44
588.469	4.29
588.807	4.44
589.145	4.58
589.483	4.9
589.821	4.6
590.159	4.36
590.497	4.74
590.835	4.43
591.173	4.63
591.511	4.43
591.849	4.47
592.187	4.43
592.524	4.27
592.862	4.4
593.2	4.54
593.537	4.52
593.875	4.77
594.212	4.51
594.55	4.41
594.887	4.41
595.224	4.4
595.561	4.25
595.899	4.23
596.236	4.41
596.573	4.51
596.91	4.7
597.247	4.5
597.584	4.43
597.921	4.79
598.258	4.31
598.594	4.36
598.931	4.26
599.268	4.49
599.604	4.38
599.941	4.39
600.277	4.42
600.614	4.44
600.95	4.23
601.287	4.58
601.623	4.86
601.959	4.53
602.296	4.55
602.632	4.28
602.968	4.54
603.304	4.64
603.64	4.58
603.976	4.58
604.312	4.57
604.648	4.19
604.984	4.46
605.319	4.68
605.655	4.45
605.991	4.63
606.326	4.66
606.662	4.43
606.998	4.52
607.333	4.48
607.668	4.51
608.004	4.56
608.339	4.48
608.674	4.47
609.01	4.35
609.345	4.51
609.68	4.39
610.015	4.53
610.35	4.49
610.685	4.42
611.02	4.56
611.355	4.41
611.689	4.55
612.024	4.46
612.359	4.39
612.694	4.3
613.028	4.56
613.363	4.5
613.697	4.55
614.032	4.49
614.366	4.44
614.7	4.48
615.035	4.52
615.369	4.51
615.703	4.55
616.037	4.61
616.371	4.5
616.705	4.67
617.039	4.48
617.373	4.7
617.707	4.51
618.041	4.58
618.375	4.24
618.709	4.82
619.042	4.73
619.376	4.88
619.71	4.58
620.043	4.64
620.377	4.63
620.71	4.64
621.043	4.48
621.377	4.65
621.71	4.39
622.043	4.52
622.376	4.69
622.709	4.37
623.043	4.64
623.376	4.7
623.709	4.59
624.041	4.83
624.374	4.32
624.707	4.72
625.04	4.54
625.373	4.58
625.705	4.67
626.038	4.66
626.37	4.55
626.703	4.5
627.035	4.57
627.368	4.44
627.7	4.41
628.032	4.54
628.365	4.8
628.697	4.52
629.029	4.71
629.361	4.46
629.693	4.61
630.025	4.67
630.357	4.57
630.689	4.53
631.021	4.55
631.353	4.89
631.684	4.49
632.016	4.5
632.348	4.47
632.679	4.41
633.011	4.86
633.342	4.48
633.674	4.35
634.005	4.44
634.336	4.68
634.668	4.59
634.999	4.79
635.33	4.65
635.661	4.7
635.992	4.84
636.323	4.75
636.654	4.92
636.985	4.67
637.316	4.67
637.647	4.79
637.977	4.49
638.308	4.72
638.639	4.45
638.969	4.59
639.3	4.71
639.63	4.95
639.961	4.44
640.291	5.19
640.622	5.05
640.952	4.48
641.282	4.61
641.612	4.45
641.943	4.77
642.273	4.78
642.603	4.68
642.933	4.54
643.263	4.78
643.592	4.82
643.922	4.57
644.252	4.66
644.582	4.79
644.911	4.42
645.241	4.76
645.571	4.59
645.9	4.62
646.23	5.04
646.559	4.83
646.888	4.73
647.218	4.8
647.547	4.6
647.876	4.43
648.205	5.04
648.534	4.54
648.863	4.8
649.192	4.56
649.521	4.35
649.85	4.61
650.179	4.74
650.508	4.81
650.837	4.99
651.165	4.54
651.494	4.66
651.822	4.37
652.151	4.38
652.479	4.12
652.808	4.33
653.136	4.23
653.465	4.83
653.793	4.88
654.121	4.55
654.449	4.29
654.777	5.03
655.105	4.51
655.433	4.83
655.761	4.78
656.089	5.12
656.417	4.46
656.745	4.8
657.073	4.39
657.4	4.45
657.728	5
658.056	4.82
658.383	4.91
658.711	4.38
659.038	4.59
659.365	4.38
659.693	4.46
660.02	4.91
660.347	4.8
660.674	4.48
661.001	4.71
661.329	4.35
661.656	4.71
661.982	5.13
662.309	4.77
662.636	5.15
662.963	4.77
663.29	4.87
663.616	4.35
663.943	4.59
664.27	4.62
664.596	5.26
664.923	4.34
665.249	4.8
665.576	4.93
665.902	4.83
666.228	4.72
666.554	4.36
666.881	4.28
667.207	4.62
667.533	4.97
667.859	4.79
668.185	4.94
668.511	4.64
668.837	4.7
669.162	4.4
669.488	5
669.814	4.92
670.139	4.58
670.465	4.26
670.791	4.17
671.116	4.79
671.442	4.91
671.767	5.01
672.092	4.44
672.418	4.74
672.743	4.46
673.068	4.24
673.393	5.17
673.718	4.41
674.043	4.89
674.368	4.33
674.693	4.53
675.018	4.72
675.343	4.74
675.667	5.04
675.992	5.35
676.317	4.02
676.641	4.16
676.966	5
677.29	4.72
677.615	4.28
677.939	4.74
678.264	5.17
678.588	4.97
678.912	4.26
679.236	5.48
679.56	4.95
679.885	4.89
680.209	4.42
680.532	5.67
680.856	4.82
681.18	4.97
681.504	4.7
681.828	4.68
682.152	4.63
682.475	4.88
682.799	4.53
683.122	4.29
683.446	5.31
683.769	4.73
684.093	5.09
684.416	4.69
684.739	5.92
685.062	4.49
685.386	4.75
685.709	5.04
686.032	4.34
686.355	5.33
686.678	5.27
687.001	4.41
687.324	4.38
687.646	4.42
687.969	4.61
688.292	5.91
688.614	4.91
688.937	4.41
689.26	4.46
689.582	5.44
689.904	5.16
690.227	4.78
690.549	4.77
690.871	4.11
691.194	5.11
691.516	4.41
691.838	5.4
692.16	5.15
692.482	4.89
692.804	4.73
