Data from 20-9_crown_Reflection__1__142.txt Node

Date: Fri Nov 11 21:11:59 CST 2022
User: ToomeyLab
Spectrometer: FLMS14357
Trigger mode: 0
Integration Time (sec): 1.000000E-2
Scans to average: 100
Electric dark correction enabled: true
Nonlinearity correction enabled: false
Boxcar width: 0
XAxis mode: Wavelengths
Number of Pixels in Spectrum: 2048
>>>>>Begin Spectral Data<<<<<
189.047	57.26
189.435	57.26
189.823	57.26
190.211	66.07
190.599	458.93
190.987	370.59
191.375	39.57
191.763	74.05
192.151	-267.74
192.538	191.51
192.926	233.18
193.314	88.18
193.702	66.84
194.089	71.94
194.477	591.88
194.864	-6.69
195.252	51.74
195.639	-15.44
196.027	-2430.15
196.414	124.22
196.801	76.33
197.189	75.82
197.576	7.19
197.963	-70.47
198.351	-61.96
198.738	-1.99
199.125	10.41
199.512	-6.46
199.899	-908.51
200.286	19.92
200.673	-27.96
201.06	-7.77
201.447	30.16
201.833	-11.12
202.22	-74.46
202.607	-3.86
202.994	28.92
203.38	26.71
203.767	52.75
204.154	64.12
204.54	-7.92
204.927	-6.18
205.313	4.66
205.699	-84.2
206.086	14.93
206.472	33.06
206.858	26.05
207.245	23.06
207.631	36.38
208.017	14.56
208.403	4.94
208.789	5.92
209.175	31.83
209.561	44.74
209.947	15.62
210.333	-58.86
210.719	38.57
211.105	53.3
211.491	0.06
211.876	27.12
212.262	58.34
212.648	19.78
213.034	18.06
213.419	-35.89
213.805	11.5
214.19	-24.56
214.576	-2.75
214.961	-57.94
215.346	-8.14
215.732	-43.58
216.117	-8.82
216.502	13.84
216.888	-0.17
217.273	34.53
217.658	-10.35
218.043	34.64
218.428	-9.91
218.813	-21.58
219.198	18.39
219.583	13.61
219.968	-6.29
220.353	-44.93
220.738	-23.6
221.122	5.97
221.507	-5.8
221.892	-14.11
222.276	23.02
222.661	22.92
223.046	-11.55
223.43	2.98
223.815	-3.36
224.199	-3.04
224.583	-0.66
224.968	-5.02
225.352	-2.6
225.736	-4.48
226.121	1.34
226.505	0.33
226.889	-6.32
227.273	3.59
227.657	-1.21
228.041	0.51
228.425	-0.4
228.809	-0.15
229.193	1.71
229.577	3.59
229.961	3.97
230.344	2.25
230.728	2.2
231.112	1.03
231.495	1.58
231.879	1.04
232.263	1.58
232.646	1.31
233.03	2.59
233.413	3.58
233.797	4.1
234.18	0.34
234.563	3.25
234.946	1.51
235.33	2.95
235.713	1.05
236.096	1.81
236.479	1.47
236.862	3.66
237.245	1.11
237.628	3.34
238.011	1.44
238.394	2.26
238.777	3.04
239.16	2.18
239.543	2.9
239.925	3.41
240.308	2.86
240.691	2.14
241.073	1.86
241.456	0.36
241.838	2.94
242.221	2.14
242.603	2.84
242.986	2.26
243.368	2.32
243.75	2.61
244.133	2.77
244.515	2.72
244.897	2.62
245.279	2.74
245.661	2.85
246.043	3.08
246.425	3.57
246.807	2.49
247.189	2.53
247.571	2.89
247.953	2.25
248.335	2.52
248.717	2.78
249.098	2.81
249.48	2.18
249.862	2.85
250.243	2.4
250.625	2.41
251.006	2.93
251.388	2.93
251.769	2.43
252.151	2.69
252.532	2.62
252.913	2.78
253.295	2.66
253.676	2.19
254.057	2.18
254.438	2.3
254.819	2.14
255.2	2.6
255.581	1.86
255.962	1.74
256.343	2.85
256.724	1.77
257.105	1.88
257.486	2.35
257.867	3.85
258.247	1.96
258.628	2.81
259.009	2.03
259.389	1.55
259.77	2.94
260.15	2.01
260.531	2.47
260.911	2.38
261.292	2.7
261.672	2.28
262.052	2.53
262.432	2.55
262.813	2.53
263.193	2.07
263.573	2.35
263.953	2.68
264.333	1.96
264.713	2.38
265.093	2.13
265.473	2.25
265.853	1.93
266.233	2.95
266.612	2.04
266.992	2.23
267.372	2.7
267.752	2.46
268.131	2.47
268.511	2.1
268.89	2.52
269.27	2.21
269.649	2.15
270.029	2.52
270.408	2.3
270.787	2.24
271.167	1.99
271.546	2.24
271.925	2.5
272.304	2.35
272.683	2.45
273.062	2.07
273.441	2.42
273.82	2.1
274.199	2.22
274.578	2.03
274.957	2.69
275.336	2.67
275.715	2.56
276.093	1.98
276.472	2.08
276.851	1.91
277.229	2.37
277.608	2.51
277.986	2.73
278.365	1.95
278.743	2.7
279.122	2.66
279.5	1.81
279.878	2.4
280.257	2.5
280.635	2.39
281.013	2.17
281.391	1.99
281.769	2.13
282.147	2.36
282.525	1.77
282.903	1.87
283.281	2.19
283.659	2.68
284.037	2.49
284.415	2.22
284.792	2.4
285.17	2.66
285.548	1.79
285.925	2.08
286.303	1.97
286.68	2.66
287.058	2.26
287.435	2.41
287.813	2.41
288.19	1.97
288.567	2.43
288.945	2.64
289.322	2.84
289.699	1.92
290.076	2.72
290.453	2.65
290.83	2.38
291.207	1.97
291.584	2.53
291.961	2.57
292.338	2.19
292.715	2.95
293.092	2.54
293.469	1.91
293.845	2.51
294.222	1.87
294.599	2.55
294.975	2.73
295.352	2.78
295.728	2.4
296.105	2.12
296.481	2.07
296.858	2.37
297.234	2.29
297.61	2.22
297.986	2.75
298.363	2.7
298.739	2.77
299.115	2.79
299.491	2.63
299.867	2.19
300.243	2.53
300.619	2.65
300.995	2.97
301.371	2.5
301.746	2.74
302.122	2.61
302.498	2.63
302.874	2.61
303.249	2.64
303.625	2.26
304	2.22
304.376	2.63
304.751	2.2
305.127	1.92
305.502	2.64
305.878	2.63
306.253	2.39
306.628	2.39
307.003	2.4
307.378	2.01
307.754	2.93
308.129	2.64
308.504	2.36
308.879	2.41
309.254	2.93
309.629	2.31
310.003	2.68
310.378	2.73
310.753	3.02
311.128	2.83
311.502	2.94
311.877	2.65
312.252	2.43
312.626	2.62
313.001	2.43
313.375	2.48
313.75	2.65
314.124	2.69
314.498	2.36
314.873	2.3
315.247	2.55
315.621	3.26
315.995	2.74
316.369	2.84
316.743	2.73
317.117	2.91
317.491	2.84
317.865	2.12
318.239	2.67
318.613	3.3
318.987	2.91
319.361	2.62
319.734	3.27
320.108	2.18
320.482	2.68
320.855	2.57
321.229	2.39
321.602	2.13
321.976	2.28
322.349	3
322.723	3
323.096	2.46
323.469	2.83
323.843	2.5
324.216	2.9
324.589	2.67
324.962	3.11
325.335	2.39
325.708	3.1
326.081	2.49
326.454	2.84
326.827	2.78
327.2	3.01
327.573	3.44
327.945	2.8
328.318	2.29
328.691	2.92
329.063	2.91
329.436	2.63
329.809	2.5
330.181	2.6
330.553	1.96
330.926	2.82
331.298	2.54
331.671	2.88
332.043	2.55
332.415	2.94
332.787	2.73
333.159	2.48
333.532	2.9
333.904	3.07
334.276	2.79
334.648	2.66
335.02	2.87
335.391	2.55
335.763	2.58
336.135	2.44
336.507	2.61
336.879	2.73
337.25	2.53
337.622	2.93
337.993	2.94
338.365	2.88
338.736	2.81
339.108	2.57
339.479	2.79
339.851	2.94
340.222	2.71
340.593	3.09
340.964	2.53
341.336	3.14
341.707	2.59
342.078	2.21
342.449	2.66
342.82	3.02
343.191	2.66
343.562	2.54
343.933	2.57
344.303	2.63
344.674	2.97
345.045	2.5
345.416	2.96
345.786	2.52
346.157	2.29
346.527	3.01
346.898	2.32
347.268	2.48
347.639	2.7
348.009	2.83
348.38	2.79
348.75	2.91
349.12	3.06
349.49	3.05
349.861	2.75
350.231	3.1
350.601	2.79
350.971	2.95
351.341	2.94
351.711	2.74
352.081	2.79
352.45	2.91
352.82	2.49
353.19	3.15
353.56	2.85
353.929	2.9
354.299	2.93
354.669	2.96
355.038	2.83
355.408	2.97
355.777	3.11
356.147	3.02
356.516	2.94
356.885	3.04
357.254	2.61
357.624	2.66
357.993	2.94
358.362	2.95
358.731	2.59
359.1	2.82
359.469	2.44
359.838	2.74
360.207	2.93
360.576	2.87
360.945	2.85
361.314	2.57
361.682	2.78
362.051	2.98
362.42	3.01
362.788	3
363.157	2.87
363.525	2.73
363.894	2.6
364.262	2.9
364.631	3.17
364.999	3.09
365.367	3.04
365.735	2.74
366.104	2.75
366.472	2.78
366.84	2.27
367.208	2.75
367.576	3.25
367.944	3.11
368.312	2.86
368.68	2.99
369.048	2.95
369.416	2.85
369.783	3.13
370.151	3
370.519	3.06
370.886	2.8
371.254	3.18
371.621	2.98
371.989	2.96
372.356	3.06
372.724	3.32
373.091	2.96
373.458	3.02
373.826	2.83
374.193	2.61
374.56	2.85
374.927	2.82
375.294	3.1
375.661	3.43
376.028	2.88
376.395	3.4
376.762	3.21
377.129	3.05
377.496	3
377.863	3
378.229	3.11
378.596	2.93
378.963	2.85
379.329	3.32
379.696	2.93
380.062	2.89
380.429	2.86
380.795	3.25
381.161	3.01
381.528	2.77
381.894	3.14
382.26	3.34
382.626	3.08
382.993	2.93
383.359	3.18
383.725	2.9
384.091	3.12
384.457	3.04
384.823	2.5
385.188	2.99
385.554	3.01
385.92	2.8
386.286	3
386.651	3.09
387.017	2.8
387.383	3.05
387.748	2.93
388.114	3.07
388.479	2.77
388.845	3.07
389.21	2.91
389.575	3.13
389.94	3.02
390.306	2.87
390.671	2.93
391.036	3.22
391.401	2.88
391.766	3.01
392.131	2.92
392.496	2.93
392.861	3.15
393.226	2.92
393.591	2.79
393.956	2.9
394.32	2.99
394.685	3.14
395.05	3.34
395.414	2.91
395.779	3.05
396.143	3.09
396.508	3.04
396.872	3.24
397.236	2.89
397.601	3.19
397.965	3.09
398.329	3.15
398.694	2.93
399.058	3.1
399.422	2.92
399.786	3.01
400.15	3.16
400.514	3
400.878	3.12
401.242	3.04
401.605	3.27
401.969	3.02
402.333	2.85
402.697	3.08
403.06	3.16
403.424	2.76
403.787	3.06
404.151	3.05
404.514	3.04
404.878	2.95
405.241	3.14
405.604	3.08
405.968	3.15
406.331	2.73
406.694	2.93
407.057	3.13
407.42	3.14
407.783	3.14
408.146	3.16
408.509	3.05
408.872	3.19
409.235	3.11
409.598	3.02
409.961	3.31
410.323	2.8
410.686	3.1
411.049	3.1
411.411	3.21
411.774	3
412.136	2.9
412.499	3.22
412.861	3.13
413.223	3.13
413.586	3.07
413.948	3.29
414.31	2.98
414.672	3.19
415.035	2.85
415.397	3.17
415.759	2.87
416.121	3.19
416.483	3.02
416.845	3.16
417.206	3.07
417.568	3.18
417.93	2.94
418.292	2.97
418.653	3.07
419.015	3.05
419.377	3.18
419.738	3.18
420.1	3.06
420.461	3.03
420.822	3.09
421.184	3.05
421.545	3.07
421.906	2.93
422.267	2.97
422.629	2.91
422.99	2.96
423.351	3.04
423.712	2.97
424.073	3.1
424.434	3.06
424.795	3.11
425.155	2.98
425.516	3.04
425.877	3
426.238	2.99
426.598	2.99
426.959	3.01
427.32	3.08
427.68	3.11
428.041	3.2
428.401	2.94
428.761	3.25
429.122	2.92
429.482	3.22
429.842	3.07
430.202	3.25
430.563	3.26
430.923	3.12
431.283	3.01
431.643	3.13
432.003	3.29
432.363	3.01
432.722	3.27
433.082	3.21
433.442	3.19
433.802	3.33
434.161	3.17
434.521	3.15
434.881	3.29
435.24	3.09
435.6	3.08
435.959	3.02
436.319	3.08
436.678	2.97
437.037	3.18
437.396	3.35
437.756	3.11
438.115	3.12
438.474	3.1
438.833	3.15
439.192	3.04
439.551	3.08
439.91	3.19
440.269	3.11
440.628	3.25
440.987	3.14
441.345	3.09
441.704	3.09
442.063	3.21
442.421	3.12
442.78	3.03
443.138	3.23
443.497	3.09
443.855	3.07
444.214	3.03
444.572	3.19
444.93	3.16
445.288	3.05
445.647	3.2
446.005	3.25
446.363	3.31
446.721	3.19
447.079	3.14
447.437	3.08
447.795	3.18
448.153	3.03
448.51	3.06
448.868	3.16
449.226	3.17
449.584	3.13
449.941	3.23
450.299	3.14
450.656	3.13
451.014	3.2
451.371	3.19
451.729	3.1
452.086	3.31
452.443	3.09
452.801	3.31
453.158	2.98
453.515	3.15
453.872	3.12
454.229	3.35
454.586	3.27
454.943	3.3
455.3	3.24
455.657	3.31
456.014	3.36
456.371	3.27
456.727	3.37
457.084	2.9
457.441	3.32
457.797	2.98
458.154	3.33
458.51	3.29
458.867	3.11
459.223	3.3
459.58	3.13
459.936	3.26
460.292	3.07
460.648	3.26
461.005	3.21
461.361	3.13
461.717	3.05
462.073	3.18
462.429	3.04
462.785	3.07
463.141	3.04
463.496	3.11
463.852	3.16
464.208	3.15
464.564	3.14
464.919	3.07
465.275	3.19
465.631	3.02
465.986	3.32
466.342	3.24
466.697	3.23
467.052	3.06
467.408	3.23
467.763	3.13
468.118	3.2
468.473	3.4
468.829	3.19
469.184	3.28
469.539	3.26
469.894	3.25
470.249	3.23
470.603	3.06
470.958	3.2
471.313	3.37
471.668	3.37
472.023	3.12
472.377	3.29
472.732	3.11
473.086	3.01
473.441	3.13
473.795	3.34
474.15	3.12
474.504	3.27
474.859	3.12
475.213	3.3
475.567	3.27
475.921	3.22
476.275	3.12
476.63	3.27
476.984	3.37
477.338	3.2
477.692	3.17
478.045	3.08
478.399	3.34
478.753	3.08
479.107	3.27
479.461	3.24
479.814	3.18
480.168	3.23
480.521	3.23
480.875	3.25
481.228	3.23
481.582	3.26
481.935	3.11
482.289	3.19
482.642	3.26
482.995	3.16
483.348	3.22
483.701	3.2
484.055	3.12
484.408	3.09
484.761	3.09
485.114	2.97
485.466	2.92
485.819	2.96
486.172	2.98
486.525	3.02
486.878	3.07
487.23	3.02
487.583	3.05
487.936	3.07
488.288	3.16
488.641	3.04
488.993	3.03
489.345	3
489.698	3.02
490.05	3.02
490.402	3.01
490.754	3.11
491.107	3.05
491.459	3.1
491.811	3.17
492.163	3.18
492.515	3.2
492.866	3.07
493.218	3.03
493.57	3.02
493.922	3.03
494.274	3.13
494.625	3.09
494.977	3.19
495.328	3.22
495.68	3.24
496.031	3.26
496.383	3.28
496.734	3.21
497.086	3.24
497.437	3.27
497.788	3.06
498.139	3.23
498.49	3.11
498.842	3.05
499.193	3.23
499.544	3.23
499.894	3.1
500.245	3.18
500.596	3.22
500.947	3.21
501.298	3.2
501.648	3.24
501.999	3.14
502.35	3.22
502.7	3.28
503.051	3.21
503.401	3.27
503.752	3.15
504.102	3.12
504.452	3.25
504.803	3.2
505.153	3.19
505.503	3.32
505.853	3.25
506.203	3.27
506.553	3.05
506.903	3.18
507.253	3.23
507.603	3.3
507.953	3.23
508.303	3.12
508.652	3.2
509.002	3.08
509.352	3.25
509.701	3.32
510.051	3.27
510.4	3.24
510.75	3.17
511.099	3.16
511.449	3.23
511.798	3.15
512.147	3.11
512.496	3.08
512.846	3.24
513.195	3.15
513.544	3.14
513.893	3.05
514.242	3.12
514.591	3.16
514.939	3.21
515.288	3.19
515.637	3.2
515.986	3.21
516.334	3.23
516.683	3.11
517.032	3.25
517.38	3.23
517.729	3.28
518.077	3.18
518.426	3.25
518.774	3.28
519.122	3.25
519.47	3.21
519.819	3.16
520.167	3.11
520.515	3.16
520.863	3.12
521.211	3.07
521.559	3.03
521.907	3.27
522.255	3.14
522.602	3.24
522.95	3.13
523.298	3.33
523.645	3.23
523.993	3.2
524.341	3.26
524.688	3.27
525.036	3.23
525.383	3.19
525.73	3.15
526.078	3.1
526.425	3.08
526.772	3.2
527.119	3.08
527.466	3.15
527.814	3.19
528.161	3.22
528.508	3.12
528.854	3.08
529.201	3.11
529.548	3.08
529.895	3
530.242	3.04
530.588	3.02
530.935	3.02
531.282	3.11
531.628	3.07
531.975	3.19
532.321	3.12
532.667	3.16
533.014	3.11
533.36	3.16
533.706	3.26
534.052	3.17
534.399	3.08
534.745	3.08
535.091	3.14
535.437	3.08
535.783	3.09
536.129	3.14
536.474	3.15
536.82	3.14
537.166	3.21
537.512	3.16
537.857	3.17
538.203	3.14
538.549	3.24
538.894	3.13
539.239	3.11
539.585	3.22
539.93	3.23
540.276	3.38
540.621	3.28
540.966	3.34
541.311	3.21
541.656	3.18
542.001	3.17
542.346	3.12
542.691	3.12
543.036	3.05
543.381	3.11
543.726	3.03
544.071	3.14
544.415	3.15
544.76	3.18
545.105	3.11
545.449	3.1
545.794	3.21
546.138	3.18
546.483	3.18
546.827	3.29
547.171	3.26
547.516	3.11
547.86	3.13
548.204	3.28
548.548	3.11
548.892	3.22
549.236	3.21
549.58	3.22
549.924	3.24
550.268	3.28
550.612	3.35
550.956	3.46
551.3	3.36
551.643	3.23
551.987	3.3
552.33	3.34
552.674	3.32
553.017	3.41
553.361	3.32
553.704	3.31
554.048	3.19
554.391	3.27
554.734	3.18
555.077	3.4
555.42	3.28
555.764	3.4
556.107	3.34
556.45	3.34
556.793	3.31
557.135	3.37
557.478	3.43
557.821	3.32
558.164	3.28
558.507	3.21
558.849	3.3
559.192	3.27
559.534	3.34
559.877	3.29
560.219	3.48
560.562	3.31
560.904	3.42
561.246	3.16
561.589	3.47
561.931	3.31
562.273	3.41
562.615	3.36
562.957	3.41
563.299	3.28
563.641	3.31
563.983	3.3
564.325	3.17
564.667	3.51
565.008	3.48
565.35	3.3
565.692	3.14
566.033	3.2
566.375	3.23
566.716	3.3
567.058	3.29
567.399	3.52
567.741	3.38
568.082	3.28
568.423	3.37
568.764	3.42
569.105	3.15
569.447	3.47
569.788	3.41
570.129	3.29
570.47	3.34
570.811	3.32
571.151	3.5
571.492	3.4
571.833	3.19
572.174	3.41
572.514	3.3
572.855	3.39
573.195	3.21
573.536	3.53
573.876	3.42
574.217	3.39
574.557	3.2
574.898	3.3
575.238	3.39
575.578	3.41
575.918	3.4
576.258	3.44
576.598	3.19
576.938	3.18
577.278	3.31
577.618	3.37
577.958	3.29
578.298	3.41
578.638	3.25
578.977	3.43
579.317	3.47
579.657	3.42
579.996	3.31
580.336	3.41
580.675	3.45
581.014	3.52
581.354	3.35
581.693	3.46
582.032	3.24
582.372	3.28
582.711	3.41
583.05	3.38
583.389	3.64
583.728	3.59
584.067	3.49
584.406	3.29
584.745	3.48
585.083	3.21
585.422	3.43
585.761	3.26
586.1	3.24
586.438	3.48
586.777	3.44
587.115	3.38
587.454	3.38
587.792	3.51
588.13	3.22
588.469	3.4
588.807	3.55
589.145	3.36
589.483	3.62
589.821	3.47
590.159	3.56
590.497	3.52
590.835	3.33
591.173	3.56
591.511	3.28
591.849	3.46
592.187	3.48
592.524	3.18
592.862	3.26
593.2	3.45
593.537	3.48
593.875	3.56
594.212	3.32
594.55	3.41
594.887	3.41
595.224	3.24
595.561	3.31
595.899	3.23
596.236	3.38
596.573	3.44
596.91	3.43
597.247	3.52
597.584	3.26
597.921	3.42
598.258	3.25
598.594	3.26
598.931	3.22
599.268	3.32
599.604	3.5
599.941	3.46
600.277	3.38
600.614	3.44
600.95	3.35
601.287	3.36
601.623	3.83
601.959	3.62
602.296	3.22
602.632	3.14
602.968	3.49
603.304	3.57
603.64	3.83
603.976	3.58
604.312	3.31
604.648	3.33
604.984	3.47
605.319	3.31
605.655	3.43
605.991	3.23
606.326	3.59
606.662	3.38
606.998	3.34
607.333	3.47
607.668	3.43
608.004	3.48
608.339	3.43
608.674	3.36
609.01	3.37
609.345	3.2
609.68	3.28
610.015	3.28
610.35	3.39
610.685	3.56
611.02	3.33
611.355	3.26
611.689	3.32
612.024	3.33
612.359	3.15
612.694	3.29
613.028	3.42
613.363	3.58
613.697	3.62
614.032	3.45
614.366	3.2
614.7	3.18
615.035	3.5
615.369	3.29
615.703	3.46
616.037	3.56
616.371	3.25
616.705	3.3
617.039	3.43
617.373	3.45
617.707	3.38
618.041	3.44
618.375	3.01
618.709	3.78
619.042	3.53
619.376	3.26
619.71	3.16
620.043	3.54
620.377	3.26
620.71	3.5
621.043	3.29
621.377	3.55
621.71	3.16
622.043	3.49
622.376	3.63
622.709	3.38
623.043	3.26
623.376	3.64
623.709	3.42
624.041	3.68
624.374	3.04
624.707	3.83
625.04	3.61
625.373	3.21
625.705	3.3
626.038	3.46
626.37	3.52
626.703	3.27
627.035	3.32
627.368	3.16
627.7	3.5
628.032	3.55
628.365	3.65
628.697	3.52
629.029	3.22
629.361	3.36
629.693	3.49
630.025	3.32
630.357	3.28
630.689	3.26
631.021	3.5
631.353	3.62
631.684	3.32
632.016	3.44
632.348	3.16
632.679	3.15
633.011	3.56
633.342	3.23
633.674	3.24
634.005	3.47
634.336	3.54
634.668	3.39
634.999	3.31
635.33	3.46
635.661	3.76
635.992	3.56
636.323	3.47
636.654	3.51
636.985	3.34
637.316	3.45
637.647	3.61
637.977	3.85
638.308	3.5
638.639	3.2
638.969	3.23
639.3	3.4
639.63	3.69
639.961	3.39
640.291	3.78
640.622	3.77
640.952	3.37
641.282	3
641.612	3.17
641.943	3.56
642.273	3.54
642.603	3.74
642.933	3.44
643.263	3.07
643.592	3.62
643.922	3.32
644.252	4
644.582	3.33
644.911	3.07
645.241	3.58
645.571	3.44
645.9	3.73
646.23	3.56
646.559	3.68
646.888	3.43
647.218	3.4
647.547	3.18
647.876	3.17
648.205	3.45
648.534	3.06
648.863	3.47
649.192	3.27
649.521	3.69
649.85	3.33
650.179	3.51
650.508	3.59
650.837	3.72
651.165	3.54
651.494	3.39
651.822	3.34
652.151	3.02
652.479	3.06
652.808	3.31
653.136	3.16
653.465	3.52
653.793	3.38
654.121	3.44
654.449	2.85
654.777	3.8
655.105	3.82
655.433	3.44
655.761	3.88
656.089	3.27
656.417	3.03
656.745	3.47
657.073	2.91
657.4	3.37
657.728	3.88
658.056	3.66
658.383	3.13
658.711	3.35
659.038	3.39
659.365	3.17
659.693	3.28
660.02	3.91
660.347	3.43
660.674	3.46
661.001	3.68
661.329	3.31
661.656	3.2
661.982	3.7
662.309	3.54
662.636	3.56
662.963	3.29
663.29	3.21
663.616	2.79
663.943	3.5
664.27	3.46
664.596	3.92
664.923	3.41
665.249	3.92
665.576	3.35
665.902	3.68
666.228	3.7
666.554	3.14
666.881	3.29
667.207	3.87
667.533	3.19
667.859	3.79
668.185	3.69
668.511	3.44
668.837	3.8
669.162	3.29
669.488	3.29
669.814	3.84
670.139	3.67
670.465	3.42
670.791	3.12
671.116	3.36
671.442	3.17
671.767	3.83
672.092	3.46
672.418	3.16
672.743	3.31
673.068	3.39
673.393	3.72
673.718	3.56
674.043	3.55
674.368	3.46
674.693	3.64
675.018	3.37
675.343	3.5
675.667	4.23
675.992	3.95
676.317	3.33
676.641	3.89
676.966	3.87
677.29	3.11
677.615	3.25
677.939	3.34
678.264	3.62
678.588	3.4
678.912	3.83
679.236	3.77
679.56	3.74
679.885	3.8
680.209	3.31
680.532	3.96
680.856	4.28
681.18	3.64
681.504	3.44
681.828	3.74
682.152	3.4
682.475	3.63
682.799	3.6
683.122	3.58
683.446	3.83
683.769	3.45
684.093	3.8
684.416	3.42
684.739	4.33
685.062	3.9
685.386	3.79
685.709	3.65
686.032	3.25
686.355	3.45
686.678	3.74
687.001	3.22
687.324	3.34
687.646	2.56
687.969	3.44
688.292	4.1
688.614	3.56
688.937	3.1
689.26	2.95
689.582	4.16
689.904	3.28
690.227	3.73
690.549	3.16
690.871	3.69
691.194	3.33
691.516	2.62
691.838	3.94
692.16	3.75
692.482	3.47
692.804	2.99
