Data from 20-9_chest_Reflection__4__140.txt Node

Date: Fri Nov 11 21:11:00 CST 2022
User: ToomeyLab
Spectrometer: FLMS14357
Trigger mode: 0
Integration Time (sec): 1.000000E-2
Scans to average: 100
Electric dark correction enabled: true
Nonlinearity correction enabled: false
Boxcar width: 0
XAxis mode: Wavelengths
Number of Pixels in Spectrum: 2048
>>>>>Begin Spectral Data<<<<<
189.047	-83.94
189.435	-83.94
189.823	-83.94
190.211	101.14
190.599	295.44
190.987	-8.54
191.375	66.06
191.763	93.91
192.151	-640.12
192.538	106.33
192.926	343.06
193.314	42.23
193.702	134.39
194.089	116.56
194.477	-80.38
194.864	38.32
195.252	126.56
195.639	95.2
196.027	1469.85
196.414	70.93
196.801	122.62
197.189	35.04
197.576	84.52
197.963	-124.25
198.351	-86.73
198.738	7.83
199.125	20.95
199.512	9.36
199.899	-762.14
200.286	-47.16
200.673	-17.15
201.06	25.86
201.447	12.78
201.833	8.81
202.22	46.86
202.607	17.82
202.994	36.82
203.38	2.97
203.767	20.97
204.154	28.45
204.54	15.32
204.927	45.1
205.313	-12.96
205.699	-16.98
206.086	44.09
206.472	-23.02
206.858	30.34
207.245	41.34
207.631	11.39
208.017	11.4
208.403	-13.79
208.789	-7.7
209.175	19.25
209.561	44.48
209.947	-12.54
210.333	-14.47
210.719	10.06
211.105	33.47
211.491	2.59
211.876	19.07
212.262	21.92
212.648	-13.45
213.034	-7.3
213.419	-32.6
213.805	-12.52
214.19	-78.05
214.576	55.7
214.961	-9.29
215.346	-31.51
215.732	-16.26
216.117	17.88
216.502	6.59
216.888	-34.16
217.273	-1.33
217.658	-23.57
218.043	-23.86
218.428	-24.41
218.813	12.78
219.198	-2.61
219.583	4.61
219.968	-14.12
220.353	-17.7
220.738	-16.13
221.122	-23.77
221.507	-19.01
221.892	-24.54
222.276	3.93
222.661	8.85
223.046	-19.44
223.43	-12.21
223.815	-0.99
224.199	12.65
224.583	-8.71
224.968	-12.46
225.352	0.85
225.736	-2.78
226.121	-2.63
226.505	7.23
226.889	-7.03
227.273	2.71
227.657	-8.92
228.041	5.32
228.425	-1.72
228.809	3.98
229.193	5.05
229.577	4.15
229.961	3.66
230.344	4.85
230.728	2.92
231.112	2.06
231.495	3.2
231.879	2.31
232.263	1.95
232.646	2.65
233.03	3.51
233.413	4.03
233.797	1.65
234.18	2.7
234.563	4.42
234.946	5.05
235.33	3.77
235.713	3.49
236.096	2.93
236.479	2.24
236.862	4.97
237.245	3.99
237.628	4.41
238.011	3.68
238.394	2.33
238.777	4.9
239.16	4.14
239.543	3.55
239.925	2.3
240.308	4.82
240.691	4.35
241.073	1.97
241.456	2.8
241.838	4.96
242.221	3.61
242.603	4.62
242.986	3.29
243.368	3.4
243.75	3.76
244.133	3.64
244.515	3.44
244.897	4.11
245.279	3.46
245.661	2.83
246.043	3.67
246.425	4.94
246.807	3.49
247.189	3.38
247.571	3.65
247.953	3.95
248.335	3.79
248.717	3.89
249.098	4.05
249.48	3.6
249.862	4.04
250.243	3.69
250.625	3.85
251.006	4.43
251.388	3.49
251.769	4.14
252.151	3.12
252.532	3.19
252.913	4.88
253.295	3.9
253.676	3.13
254.057	3.67
254.438	3.95
254.819	3.86
255.2	3.68
255.581	4.21
255.962	3.71
256.343	2.77
256.724	3.42
257.105	3.54
257.486	3.28
257.867	3.98
258.247	2.44
258.628	3.58
259.009	4.12
259.389	3.26
259.77	4.01
260.15	3.75
260.531	3.94
260.911	3.74
261.292	4.01
261.672	3.76
262.052	3.68
262.432	3.88
262.813	3.75
263.193	3.16
263.573	3.57
263.953	4.23
264.333	3.18
264.713	3.51
265.093	3.99
265.473	2.97
265.853	2.75
266.233	3.27
266.612	3.29
266.992	3.43
267.372	3.82
267.752	3.48
268.131	2.8
268.511	3.5
268.89	3.55
269.27	3.12
269.649	3.05
270.029	3.65
270.408	3.62
270.787	3.09
271.167	3.09
271.546	3.07
271.925	3.8
272.304	3.49
272.683	3.58
273.062	3.19
273.441	3.34
273.82	3.38
274.199	3.42
274.578	3.28
274.957	3.65
275.336	3.83
275.715	3.34
276.093	3
276.472	3.5
276.851	2.96
277.229	3.41
277.608	3.87
277.986	3.56
278.365	3.28
278.743	2.9
279.122	3.87
279.5	3.6
279.878	4.01
280.257	4.23
280.635	2.93
281.013	3.39
281.391	3.47
281.769	3.34
282.147	3.22
282.525	2.82
282.903	3
283.281	3.64
283.659	3.49
284.037	3.74
284.415	3.56
284.792	3.8
285.17	3.48
285.548	3.16
285.925	3.13
286.303	3.23
286.68	3.61
287.058	3.7
287.435	3.61
287.813	3.53
288.19	3.1
288.567	3.16
288.945	3.61
289.322	3.71
289.699	3.11
290.076	4.26
290.453	3.76
290.83	3.26
291.207	3.33
291.584	3.88
291.961	3.47
292.338	3.63
292.715	3.7
293.092	4.07
293.469	3.82
293.845	3.83
294.222	3.36
294.599	3.9
294.975	3.76
295.352	3.57
295.728	3.51
296.105	3.84
296.481	3.93
296.858	3.74
297.234	3.99
297.61	3.46
297.986	3.83
298.363	4.06
298.739	3.95
299.115	4.17
299.491	4.24
299.867	4
300.243	3.98
300.619	3.94
300.995	3.8
301.371	4.08
301.746	4.31
302.122	4.24
302.498	4.38
302.874	4.2
303.249	4.22
303.625	3.95
304	4.25
304.376	4.29
304.751	3.79
305.127	3.95
305.502	4.02
305.878	4.35
306.253	4.33
306.628	4.3
307.003	4.36
307.378	4.03
307.754	4.89
308.129	4.16
308.504	4.46
308.879	3.86
309.254	4.42
309.629	4.18
310.003	4.21
310.378	4.5
310.753	4.5
311.128	4.45
311.502	4.66
311.877	4.2
312.252	4.45
312.626	4.31
313.001	4.01
313.375	4.42
313.75	4.32
314.124	4.21
314.498	4.52
314.873	4.72
315.247	4.44
315.621	4.55
315.995	4.51
316.369	4.56
316.743	4.63
317.117	4.56
317.491	4.3
317.865	4.25
318.239	4.76
318.613	4.87
318.987	4.39
319.361	4.14
319.734	4.32
320.108	3.91
320.482	4.73
320.855	4.5
321.229	4.61
321.602	4.3
321.976	4.52
322.349	4.96
322.723	4.79
323.096	4.33
323.469	4.43
323.843	4.9
324.216	4.31
324.589	4.96
324.962	4.91
325.335	4.49
325.708	4.59
326.081	4.62
326.454	4.63
326.827	4.25
327.2	4.9
327.573	4.9
327.945	4.3
328.318	4.85
328.691	4.86
329.063	4.68
329.436	4.17
329.809	4.86
330.181	4.05
330.553	4.19
330.926	4.4
331.298	4.58
331.671	4.31
332.043	4.22
332.415	4.73
332.787	4.81
333.159	4.5
333.532	4.9
333.904	4.56
334.276	4.19
334.648	4.83
335.02	4.39
335.391	4.98
335.763	4.55
336.135	4.46
336.507	4.82
336.879	4.66
337.25	4.72
337.622	4.75
337.993	4.89
338.365	4.97
338.736	4.53
339.108	4.53
339.479	4.79
339.851	4.83
340.222	4.61
340.593	5.23
340.964	4.73
341.336	4.7
341.707	4.6
342.078	4.16
342.449	4.77
342.82	5.07
343.191	4.67
343.562	4.57
343.933	4.61
344.303	4.37
344.674	4.66
345.045	4.68
345.416	5.03
345.786	4.57
346.157	4.64
346.527	4.93
346.898	4.23
347.268	4.62
347.639	4.67
348.009	4.54
348.38	4.98
348.75	4.68
349.12	5.38
349.49	4.59
349.861	4.97
350.231	4.85
350.601	4.92
350.971	4.7
351.341	5.14
351.711	5.02
352.081	4.99
352.45	4.73
352.82	4.52
353.19	4.94
353.56	4.86
353.929	4.84
354.299	4.85
354.669	4.86
355.038	4.52
355.408	5.11
355.777	4.93
356.147	5.1
356.516	5.32
356.885	4.86
357.254	4.78
357.624	4.64
357.993	5.14
358.362	5.09
358.731	4.62
359.1	4.8
359.469	4.46
359.838	4.94
360.207	4.99
360.576	4.73
360.945	4.91
361.314	4.68
361.682	4.64
362.051	5.05
362.42	5.03
362.788	5.09
363.157	5.09
363.525	4.83
363.894	4.87
364.262	5.02
364.631	5.14
364.999	5.03
365.367	5.18
365.735	4.97
366.104	4.92
366.472	4.93
366.84	4.75
367.208	4.93
367.576	5.29
367.944	5.38
368.312	4.82
368.68	4.7
369.048	4.95
369.416	4.74
369.783	4.92
370.151	5.13
370.519	5.26
370.886	4.93
371.254	5.27
371.621	4.7
371.989	5.02
372.356	5.19
372.724	5.26
373.091	5.29
373.458	5.42
373.826	5.05
374.193	4.98
374.56	4.94
374.927	5.13
375.294	5.21
375.661	5.36
376.028	5.03
376.395	5.29
376.762	5.43
377.129	5.07
377.496	4.97
377.863	5.42
378.229	5.08
378.596	4.72
378.963	5.16
379.329	5.15
379.696	5.28
380.062	4.98
380.429	4.99
380.795	5.2
381.161	5.27
381.528	5.06
381.894	5.4
382.26	5.22
382.626	5.45
382.993	5.27
383.359	5.3
383.725	4.9
384.091	5.26
384.457	5.41
384.823	5.08
385.188	5.21
385.554	5.28
385.92	4.95
386.286	5.14
386.651	5.21
387.017	5.18
387.383	5.25
387.748	5.3
388.114	5.09
388.479	5
388.845	5.18
389.21	5.19
389.575	5.27
389.94	5.16
390.306	5.12
390.671	5.3
391.036	5.38
391.401	5.39
391.766	5.42
392.131	5.19
392.496	5.29
392.861	5.5
393.226	5.3
393.591	5.26
393.956	5.16
394.32	5.26
394.685	5.08
395.05	5.68
395.414	5.14
395.779	5.37
396.143	5.21
396.508	5.3
396.872	5.26
397.236	5.16
397.601	5.05
397.965	5.32
398.329	5.26
398.694	5.45
399.058	5.54
399.422	5.25
399.786	5.17
400.15	5.37
400.514	5.39
400.878	5.2
401.242	5.15
401.605	5.64
401.969	5.51
402.333	5.13
402.697	5.29
403.06	5.51
403.424	5.32
403.787	5.35
404.151	5.31
404.514	5.27
404.878	5.3
405.241	5.36
405.604	5.26
405.968	5.42
406.331	5.12
406.694	5.27
407.057	5.41
407.42	5.5
407.783	5.45
408.146	5.61
408.509	5.3
408.872	5.36
409.235	5.4
409.598	5.39
409.961	5.53
410.323	5.18
410.686	5.44
411.049	5.3
411.411	5.45
411.774	5.37
412.136	5.3
412.499	5.35
412.861	5.42
413.223	5.22
413.586	5.41
413.948	5.66
414.31	5.59
414.672	5.84
415.035	5.4
415.397	5.59
415.759	5.29
416.121	5.46
416.483	5.41
416.845	5.62
417.206	5.16
417.568	5.31
417.93	5.34
418.292	5.38
418.653	5.49
419.015	5.32
419.377	5.48
419.738	5.56
420.1	5.4
420.461	5.49
420.822	5.38
421.184	5.42
421.545	5.5
421.906	5.35
422.267	5.46
422.629	5.35
422.99	5.35
423.351	5.38
423.712	5.36
424.073	5.55
424.434	5.54
424.795	5.46
425.155	5.42
425.516	5.5
425.877	5.49
426.238	5.44
426.598	5.43
426.959	5.41
427.32	5.59
427.68	5.47
428.041	5.69
428.401	5.36
428.761	5.56
429.122	5.66
429.482	5.69
429.842	5.69
430.202	5.78
430.563	5.63
430.923	5.64
431.283	5.5
431.643	5.73
432.003	5.78
432.363	5.71
432.722	5.86
433.082	5.77
433.442	5.74
433.802	5.78
434.161	5.84
434.521	5.74
434.881	5.89
435.24	5.66
435.6	5.63
435.959	5.78
436.319	5.65
436.678	5.57
437.037	5.71
437.396	5.83
437.756	5.8
438.115	5.65
438.474	5.71
438.833	5.74
439.192	5.82
439.551	5.73
439.91	5.89
440.269	5.83
440.628	5.82
440.987	5.72
441.345	5.65
441.704	5.79
442.063	5.76
442.421	5.8
442.78	5.67
443.138	5.85
443.497	5.75
443.855	5.81
444.214	5.86
444.572	5.88
444.93	5.83
445.288	5.92
445.647	5.94
446.005	6.04
446.363	5.95
446.721	5.9
447.079	5.96
447.437	5.76
447.795	5.77
448.153	5.72
448.51	5.78
448.868	5.77
449.226	5.8
449.584	5.77
449.941	5.9
450.299	5.76
450.656	5.84
451.014	5.96
451.371	5.95
451.729	5.84
452.086	6.02
452.443	5.84
452.801	6.12
453.158	5.96
453.515	5.97
453.872	6
454.229	6
454.586	5.88
454.943	6.17
455.3	6.01
455.657	6.11
456.014	6.11
456.371	6.12
456.727	6.13
457.084	6.09
457.441	6.16
457.797	6.06
458.154	6.05
458.51	6.2
458.867	6.07
459.223	6.15
459.58	6.03
459.936	6.11
460.292	6.04
460.648	6.1
461.005	5.99
461.361	6.05
461.717	5.93
462.073	6.03
462.429	6.09
462.785	5.93
463.141	6.09
463.496	6.09
463.852	6.03
464.208	6.14
464.564	6.1
464.919	6.18
465.275	6.21
465.631	6
465.986	6.32
466.342	6.21
466.697	6.14
467.052	6.11
467.408	6.22
467.763	6.07
468.118	6.28
468.473	6.25
468.829	6.23
469.184	6.2
469.539	6.21
469.894	6.34
470.249	6.28
470.603	6.25
470.958	6.17
471.313	6.24
471.668	6.35
472.023	6.06
472.377	6.32
472.732	6.21
473.086	6.34
473.441	6.23
473.795	6.12
474.15	6.32
474.504	6.39
474.859	6.35
475.213	6.3
475.567	6.37
475.921	6.43
476.275	6.45
476.63	6.35
476.984	6.38
477.338	6.5
477.692	6.14
478.045	6.35
478.399	6.36
478.753	6.21
479.107	6.29
479.461	6.32
479.814	6.19
480.168	6.43
480.521	6.43
480.875	6.44
481.228	6.31
481.582	6.46
481.935	6.33
482.289	6.35
482.642	6.34
482.995	6.28
483.348	6.36
483.701	6.38
484.055	6.36
484.408	6.25
484.761	6.18
485.114	6.12
485.466	6.07
485.819	6.05
486.172	6.08
486.525	6.11
486.878	6.14
487.23	6.18
487.583	6.28
487.936	6.31
488.288	6.29
488.641	6.25
488.993	6.25
489.345	6.15
489.698	6.23
490.05	6.25
490.402	6.22
490.754	6.32
491.107	6.36
491.459	6.36
491.811	6.44
492.163	6.48
492.515	6.36
492.866	6.34
493.218	6.31
493.57	6.35
493.922	6.27
494.274	6.37
494.625	6.48
494.977	6.49
495.328	6.59
495.68	6.57
496.031	6.48
496.383	6.69
496.734	6.68
497.086	6.78
497.437	6.73
497.788	6.64
498.139	6.62
498.49	6.65
498.842	6.52
499.193	6.71
499.544	6.69
499.894	6.62
500.245	6.78
500.596	6.82
500.947	6.71
501.298	6.75
501.648	6.78
501.999	6.77
502.35	6.87
502.7	6.87
503.051	6.84
503.401	6.88
503.752	6.82
504.102	6.76
504.452	6.85
504.803	6.79
505.153	6.82
505.503	6.84
505.853	6.89
506.203	6.89
506.553	6.72
506.903	6.84
507.253	6.83
507.603	6.97
507.953	6.85
508.303	6.85
508.652	6.98
509.002	6.94
509.352	6.97
509.701	6.98
510.051	6.87
510.4	6.99
510.75	6.97
511.099	6.88
511.449	6.98
511.798	7.01
512.147	6.9
512.496	6.88
512.846	7.14
513.195	7.03
513.544	6.93
513.893	6.92
514.242	7.09
514.591	7.03
514.939	7.07
515.288	6.99
515.637	7.07
515.986	6.99
516.334	7.13
516.683	7.22
517.032	7.14
517.38	7.24
517.729	7.28
518.077	7.17
518.426	7.25
518.774	7.09
519.122	7.08
519.47	7.19
519.819	7.13
520.167	7.11
520.515	7.07
520.863	7.12
521.211	7.18
521.559	7.16
521.907	7.27
522.255	7.29
522.602	7.35
522.95	7.29
523.298	7.33
523.645	7.38
523.993	7.44
524.341	7.48
524.688	7.44
525.036	7.44
525.383	7.47
525.73	7.43
526.078	7.36
526.425	7.29
526.772	7.4
527.119	7.29
527.466	7.44
527.814	7.44
528.161	7.46
528.508	7.37
528.854	7.4
529.201	7.34
529.548	7.4
529.895	7.21
530.242	7.22
530.588	7.22
530.935	7.29
531.282	7.3
531.628	7.36
531.975	7.4
532.321	7.42
532.667	7.59
533.014	7.58
533.36	7.63
533.706	7.65
534.052	7.64
534.399	7.6
534.745	7.55
535.091	7.5
535.437	7.53
535.783	7.57
536.129	7.69
536.474	7.7
536.82	7.72
537.166	7.78
537.512	7.77
537.857	7.72
538.203	7.75
538.549	7.93
538.894	7.74
539.239	7.8
539.585	7.83
539.93	7.94
540.276	8.12
540.621	7.99
540.966	8.14
541.311	8.1
541.656	8.02
542.001	7.97
542.346	8.06
542.691	7.87
543.036	7.86
543.381	7.86
543.726	7.84
544.071	7.96
544.415	7.94
544.76	8.06
545.105	8.05
545.449	7.96
545.794	8.24
546.138	8.1
546.483	8.29
546.827	8.29
547.171	8.32
547.516	8.17
547.86	8.27
548.204	8.26
548.548	8.29
548.892	8.34
549.236	8.31
549.58	8.44
549.924	8.45
550.268	8.43
550.612	8.54
550.956	8.78
551.3	8.6
551.643	8.63
551.987	8.7
552.33	8.7
552.674	8.66
553.017	8.88
553.361	8.79
553.704	8.7
554.048	8.75
554.391	8.75
554.734	8.67
555.077	8.89
555.42	8.76
555.764	8.95
556.107	8.96
556.45	9.01
556.793	8.91
557.135	8.94
557.478	8.93
557.821	9.27
558.164	9.03
558.507	9.05
558.849	9.01
559.192	9.09
559.534	9.18
559.877	9.27
560.219	9.23
560.562	9.29
560.904	9.37
561.246	9.04
561.589	9.35
561.931	9.09
562.273	9.39
562.615	9.35
562.957	9.4
563.299	9.46
563.641	9.32
563.983	9.28
564.325	9.31
564.667	9.48
565.008	9.56
565.35	9.43
565.692	9.37
566.033	9.56
566.375	9.42
566.716	9.63
567.058	9.61
567.399	9.69
567.741	9.76
568.082	9.8
568.423	9.84
568.764	9.86
569.105	9.69
569.447	9.9
569.788	9.78
570.129	9.9
570.47	9.9
570.811	10.07
571.151	10.17
571.492	10.04
571.833	10.01
572.174	10.12
572.514	10.13
572.855	10.05
573.195	9.95
573.536	10.1
573.876	10.18
574.217	10.25
574.557	10.02
574.898	10.16
575.238	10.29
575.578	10.11
575.918	10.32
576.258	10.23
576.598	10.41
576.938	10.4
577.278	10.41
577.618	10.48
577.958	10.54
578.298	10.49
578.638	10.56
578.977	10.48
579.317	10.72
579.657	10.72
579.996	10.51
580.336	10.72
580.675	10.75
581.014	10.78
581.354	10.62
581.693	10.82
582.032	10.7
582.372	10.69
582.711	11.11
583.05	11.02
583.389	10.81
583.728	10.97
584.067	11.12
584.406	10.94
584.745	11.25
585.083	11.05
585.422	11.21
585.761	11.3
586.1	11.21
586.438	11.19
586.777	11.35
587.115	11.32
587.454	10.99
587.792	11.52
588.13	11.18
588.469	11.28
588.807	11.34
589.145	11.32
589.483	11.67
589.821	11.39
590.159	11.67
590.497	11.79
590.835	11.42
591.173	11.76
591.511	11.5
591.849	11.51
592.187	11.62
592.524	11.52
592.862	11.58
593.2	11.81
593.537	12.09
593.875	11.96
594.212	11.85
594.55	11.88
594.887	12.07
595.224	11.78
595.561	12.12
595.899	11.82
596.236	12.06
596.573	12.19
596.91	12.27
597.247	12.25
597.584	12.15
597.921	12.29
598.258	12.18
598.594	12.27
598.931	12.1
599.268	12.26
599.604	12.24
599.941	12.27
600.277	12.39
600.614	12.44
600.95	12.4
601.287	12.54
601.623	12.82
601.959	12.74
602.296	12.39
602.632	12.56
602.968	12.64
603.304	12.83
603.64	12.96
603.976	12.89
604.312	12.82
604.648	12.85
604.984	12.97
605.319	12.91
605.655	12.84
605.991	12.71
606.326	13.04
606.662	12.94
606.998	12.89
607.333	12.95
607.668	12.9
608.004	13.04
608.339	13.19
608.674	13.08
609.01	13.31
609.345	13.33
609.68	12.91
610.015	13.28
610.35	13.45
610.685	13.72
611.02	13.41
611.355	13.42
611.689	13.46
612.024	13.47
612.359	13.41
612.694	13.51
613.028	13.54
613.363	13.73
613.697	13.74
614.032	13.57
614.366	13.54
614.7	13.73
615.035	13.8
615.369	13.9
615.703	13.84
616.037	14.09
616.371	13.93
616.705	14.14
617.039	14.06
617.373	13.82
617.707	14.26
618.041	14.22
618.375	13.97
618.709	14.31
619.042	14.11
619.376	14.56
619.71	14.44
620.043	14.37
620.377	14.54
620.71	14.05
621.043	14.49
621.377	14.47
621.71	14.28
622.043	14.83
622.376	14.49
622.709	14.11
623.043	14.7
623.376	14.45
623.709	14.89
624.041	14.78
624.374	14.57
624.707	14.96
625.04	14.77
625.373	14.62
625.705	15.26
626.038	15.08
626.37	14.54
626.703	14.94
627.035	14.87
627.368	14.57
627.7	15.11
628.032	15.2
628.365	15.44
628.697	15.05
629.029	15.39
629.361	14.97
629.693	15.36
630.025	15.37
630.357	15.49
630.689	15.12
631.021	15.1
631.353	15.42
631.684	15.47
632.016	15.38
632.348	15.59
632.679	15.18
633.011	15.81
633.342	15.53
633.674	15.34
634.005	15.44
634.336	15.44
634.668	15.59
634.999	15.65
635.33	15.7
635.661	15.85
635.992	15.84
636.323	15.84
636.654	16.01
636.985	15.93
637.316	15.99
637.647	16.42
637.977	16.33
638.308	15.93
638.639	16.02
638.969	16.01
639.3	16.04
639.63	16.43
639.961	16.45
640.291	16.61
640.622	16.42
640.952	16.32
641.282	16.01
641.612	16.23
641.943	16.44
642.273	16.49
642.603	16.78
642.933	16.6
643.263	16.27
643.592	16.78
643.922	16.74
644.252	16.76
644.582	16.84
644.911	16.62
645.241	16.53
645.571	16.81
645.9	17.18
646.23	17.09
646.559	16.75
646.888	17.23
647.218	16.79
647.547	16.81
647.876	17.19
648.205	17.13
648.534	17.21
648.863	16.97
649.192	16.9
649.521	17.27
649.85	17.15
650.179	16.9
650.508	17.1
650.837	17.2
651.165	16.89
651.494	17.45
651.822	17.55
652.151	17.36
652.479	16.92
652.808	17.15
653.136	17.54
653.465	17.77
653.793	17.61
654.121	17.45
654.449	17.25
654.777	18.01
655.105	17.35
655.433	17.81
655.761	17.85
656.089	17.74
656.417	17.35
656.745	17.82
657.073	17.87
657.4	17.65
657.728	18.07
658.056	17.77
658.383	18.2
658.711	17.62
659.038	18.3
659.365	17.86
659.693	18.15
660.02	18.84
660.347	17.95
660.674	18.66
661.001	18.29
661.329	18.17
661.656	18.57
661.982	18.26
662.309	18.16
662.636	18.59
662.963	18.56
663.29	18.19
663.616	17.93
663.943	18.59
664.27	18.41
664.596	18.62
664.923	18.87
665.249	19.31
665.576	18.85
665.902	19.12
666.228	18.58
666.554	18.25
666.881	18.77
667.207	18.79
667.533	18.99
667.859	18.92
668.185	19.42
668.511	18.99
668.837	19.2
669.162	19.26
669.488	18.76
669.814	18.61
670.139	19.02
670.465	19.36
670.791	19.3
671.116	19.68
671.442	19.23
671.767	19.45
672.092	18.93
672.418	19.28
672.743	19.18
673.068	19.87
673.393	19.59
673.718	19.18
674.043	19.63
674.368	19.59
674.693	19
675.018	19.29
675.343	19.5
675.667	19.7
675.992	19.74
676.317	19.18
676.641	19.48
676.966	20.47
677.29	19.42
677.615	20.08
677.939	19.82
678.264	19.88
678.588	19.85
678.912	20.41
679.236	20.27
679.56	20.05
679.885	19.94
680.209	19.85
680.532	20.51
680.856	19.8
681.18	20.75
681.504	20.23
681.828	20.61
682.152	19.71
682.475	19.9
682.799	20.19
683.122	20.02
683.446	20.47
683.769	20.42
684.093	20.53
