Data from 2019-4_chest_Reflection__3__193.txt Node

Date: Fri Nov 11 18:26:05 CST 2022
User: ToomeyLab
Spectrometer: FLMS14357
Trigger mode: 0
Integration Time (sec): 1.000000E-2
Scans to average: 100
Electric dark correction enabled: true
Nonlinearity correction enabled: false
Boxcar width: 0
XAxis mode: Wavelengths
Number of Pixels in Spectrum: 2048
>>>>>Begin Spectral Data<<<<<
189.047	60.38
189.435	60.38
189.823	60.38
190.211	-70.53
190.599	34.6
190.987	101.11
191.375	-990.5
191.763	64.26
192.151	-7.18
192.538	280.05
192.926	299.02
193.314	119.03
193.702	-14.06
194.089	141.77
194.477	328.2
194.864	207.46
195.252	-36.97
195.639	47.25
196.027	1.38
196.414	-129.68
196.801	84.69
197.189	-41.03
197.576	88.79
197.963	-16.69
198.351	3.82
198.738	3
199.125	10.98
199.512	-0.77
199.899	3.12
200.286	-44.83
200.673	-11.43
201.06	0.5
201.447	27.08
201.833	58.15
202.22	-46.72
202.607	36.06
202.994	47.72
203.38	8.75
203.767	12.42
204.154	21.65
204.54	28.99
204.927	-23.56
205.313	19.98
205.699	13.62
206.086	-61.54
206.472	-37.75
206.858	21.62
207.245	10.03
207.631	-2.34
208.017	-10.78
208.403	29.96
208.789	19.18
209.175	-19.81
209.561	34.18
209.947	0.25
210.333	43.35
210.719	12.16
211.105	-9.37
211.491	19.87
211.876	-39.77
212.262	-5.9
212.648	10.02
213.034	33.23
213.419	9.92
213.805	9.64
214.19	26.88
214.576	22.63
214.961	17.52
215.346	-6.68
215.732	23.33
216.117	42.07
216.502	4.78
216.888	-39.78
217.273	17.59
217.658	-4.12
218.043	24.01
218.428	37.51
218.813	5.8
219.198	6.81
219.583	19.71
219.968	-26.03
220.353	9.12
220.738	-8.57
221.122	-37.1
221.507	20.12
221.892	5.61
222.276	23.46
222.661	7.65
223.046	-0.62
223.43	13.67
223.815	5.87
224.199	4.1
224.583	24.97
224.968	5.26
225.352	14.5
225.736	-0.55
226.121	-1.52
226.505	3.22
226.889	8.64
227.273	7.66
227.657	8.03
228.041	5.52
228.425	3.24
228.809	7.13
229.193	2.78
229.577	4.38
229.961	5.24
230.344	4.1
230.728	3.86
231.112	4.51
231.495	5.37
231.879	2.93
232.263	4.67
232.646	2.56
233.03	3.39
233.413	4.89
233.797	4.47
234.18	2.57
234.563	4.71
234.946	2.3
235.33	5.02
235.713	2.35
236.096	4.08
236.479	3.67
236.862	3.62
237.245	4.77
237.628	3.34
238.011	3.48
238.394	4.5
238.777	1.71
239.16	2.81
239.543	4.31
239.925	2.64
240.308	4.78
240.691	4.85
241.073	4.94
241.456	4.23
241.838	4.19
242.221	3.85
242.603	2.67
242.986	3.76
243.368	3.51
243.75	3.87
244.133	3.48
244.515	3.87
244.897	4.2
245.279	3.74
245.661	3.51
246.043	3.94
246.425	3.05
246.807	4.97
247.189	3.22
247.571	3.46
247.953	3.65
248.335	3.75
248.717	3.85
249.098	3.69
249.48	3.58
249.862	3.44
250.243	3.34
250.625	3.27
251.006	2.84
251.388	3.64
251.769	3.63
252.151	3.64
252.532	3.12
252.913	3.87
253.295	4.06
253.676	4.1
254.057	3.53
254.438	3.64
254.819	2.73
255.2	4.44
255.581	3.83
255.962	3.98
256.343	2.69
256.724	2.99
257.105	3.12
257.486	4.09
257.867	3.58
258.247	3.25
258.628	3.38
259.009	3.6
259.389	3.3
259.77	4.48
260.15	2.84
260.531	3.58
260.911	3.19
261.292	3.43
261.672	3.39
262.052	3.12
262.432	3.2
262.813	3.59
263.193	3.44
263.573	3.44
263.953	3.07
264.333	3.23
264.713	3.64
265.093	3.22
265.473	3.33
265.853	3.82
266.233	4.35
266.612	3.25
266.992	3.1
267.372	3.87
267.752	3.29
268.131	4.64
268.511	3.08
268.89	3.66
269.27	3.54
269.649	3.29
270.029	3.05
270.408	3.13
270.787	3.61
271.167	3.36
271.546	3.87
271.925	3.21
272.304	3.5
272.683	3.3
273.062	3.3
273.441	2.9
273.82	3.39
274.199	3.16
274.578	3.4
274.957	3.57
275.336	3.07
275.715	2.94
276.093	3.44
276.472	3.49
276.851	3.09
277.229	3.86
277.608	2.84
277.986	3.68
278.365	2.55
278.743	3.01
279.122	3.07
279.5	3.52
279.878	3.13
280.257	3.69
280.635	2.99
281.013	3.11
281.391	3.45
281.769	3.03
282.147	3.48
282.525	3.31
282.903	3.21
283.281	3.66
283.659	3.25
284.037	3.34
284.415	2.97
284.792	3.51
285.17	3.57
285.548	3.57
285.925	3.13
286.303	2.74
286.68	2.94
287.058	3.21
287.435	3.54
287.813	3.24
288.19	3.2
288.567	2.88
288.945	2.71
289.322	3.09
289.699	3.25
290.076	3.21
290.453	3.51
290.83	2.87
291.207	3.38
291.584	3.25
291.961	3.2
292.338	3.17
292.715	3.14
293.092	3.2
293.469	3.24
293.845	2.76
294.222	3.65
294.599	3.7
294.975	2.72
295.352	3.56
295.728	3.28
296.105	3.27
296.481	3.24
296.858	3.6
297.234	3.34
297.61	3.07
297.986	3.2
298.363	3.46
298.739	3
299.115	3.23
299.491	3.46
299.867	3.35
300.243	3.04
300.619	3.33
300.995	2.98
301.371	3.69
301.746	2.83
302.122	2.95
302.498	3.54
302.874	3.22
303.249	3.09
303.625	3.34
304	3.21
304.376	3.14
304.751	3.26
305.127	3.34
305.502	2.69
305.878	3.39
306.253	3.31
306.628	3.03
307.003	3.57
307.378	2.9
307.754	3.74
308.129	3.31
308.504	2.8
308.879	3.71
309.254	3.23
309.629	3.51
310.003	3.01
310.378	3.7
310.753	3.07
311.128	3.34
311.502	3.13
311.877	3.35
312.252	3.62
312.626	3.96
313.001	3.4
313.375	3.09
313.75	3.21
314.124	3.23
314.498	3.32
314.873	3.4
315.247	3.71
315.621	3.56
315.995	3.24
316.369	3.35
316.743	3.04
317.117	3.16
317.491	3.01
317.865	3.82
318.239	3.22
318.613	3.88
318.987	3.5
319.361	3.65
319.734	4.01
320.108	3.08
320.482	3.12
320.855	3.34
321.229	3.64
321.602	3.54
321.976	3.19
322.349	3.65
322.723	3.88
323.096	3.06
323.469	3.55
323.843	3.19
324.216	2.84
324.589	3.38
324.962	3.31
325.335	3.03
325.708	3.31
326.081	3.29
326.454	3.45
326.827	3.45
327.2	3.46
327.573	3.35
327.945	3.57
328.318	3.42
328.691	3.18
329.063	3.24
329.436	3.46
329.809	3.58
330.181	3.08
330.553	3.07
330.926	3.14
331.298	3.05
331.671	3.04
332.043	3.46
332.415	2.58
332.787	3.15
333.159	3.37
333.532	3.24
333.904	3.27
334.276	3.04
334.648	2.9
335.02	3.53
335.391	3.01
335.763	3.64
336.135	3.44
336.507	3.51
336.879	3.47
337.25	3.35
337.622	3.83
337.993	3.48
338.365	3.25
338.736	3.08
339.108	3.45
339.479	3.32
339.851	3.72
340.222	3.1
340.593	3.03
340.964	3.3
341.336	3.26
341.707	2.94
342.078	3.08
342.449	3.26
342.82	3.4
343.191	3.18
343.562	3.23
343.933	2.49
344.303	3.29
344.674	3.21
345.045	3.43
345.416	3.74
345.786	3.5
346.157	3.23
346.527	3.57
346.898	3.26
347.268	3.14
347.639	3.49
348.009	3.38
348.38	3.7
348.75	3.47
349.12	3.26
349.49	2.94
349.861	3.21
350.231	3.57
350.601	3.24
350.971	3.48
351.341	3.19
351.711	3.34
352.081	3.42
352.45	3.38
352.82	3.26
353.19	3.61
353.56	3.96
353.929	3.25
354.299	3.17
354.669	3.47
355.038	3.78
355.408	3.05
355.777	3.53
356.147	3.34
356.516	3.13
356.885	3.17
357.254	3.68
357.624	3.08
357.993	3.04
358.362	3.42
358.731	3.33
359.1	3.35
359.469	3.25
359.838	3.36
360.207	3.68
360.576	3.06
360.945	3.1
361.314	3.64
361.682	3.3
362.051	3.22
362.42	2.94
362.788	3.4
363.157	3.22
363.525	3.15
363.894	3.32
364.262	3.19
364.631	3.39
364.999	3.22
365.367	3.3
365.735	3.48
366.104	3.46
366.472	3.41
366.84	3.34
367.208	3.28
367.576	3.5
367.944	3.21
368.312	3.06
368.68	3.4
369.048	3.18
369.416	3.19
369.783	3.57
370.151	3.11
370.519	3.19
370.886	3.26
371.254	3.4
371.621	3.22
371.989	3.41
372.356	2.95
372.724	2.99
373.091	3.29
373.458	3.25
373.826	3.15
374.193	3.33
374.56	3.29
374.927	3.47
375.294	3.02
375.661	3.33
376.028	3.23
376.395	3.49
376.762	3.56
377.129	3.24
377.496	3.55
377.863	3.08
378.229	3.04
378.596	3.3
378.963	3.41
379.329	3.4
379.696	3.48
380.062	3.08
380.429	3.16
380.795	3.11
381.161	3.16
381.528	3.8
381.894	3.2
382.26	3.17
382.626	3.17
382.993	3.15
383.359	3.19
383.725	3.3
384.091	3.34
384.457	3.25
384.823	3.22
385.188	3.44
385.554	3.46
385.92	3.49
386.286	3.62
386.651	3.41
387.017	3.33
387.383	3.34
387.748	3.1
388.114	3.19
388.479	3.04
388.845	3.44
389.21	3.21
389.575	3.12
389.94	3.59
390.306	3.26
390.671	3.19
391.036	3.2
391.401	3.52
391.766	3.57
392.131	3.42
392.496	3.05
392.861	2.99
393.226	3.35
393.591	3.45
393.956	3.46
394.32	3.5
394.685	3.24
395.05	3.27
395.414	3.53
395.779	3.25
396.143	3.19
396.508	3.38
396.872	3.04
397.236	3.21
397.601	3.15
397.965	3.35
398.329	3.36
398.694	3.59
399.058	3.25
399.422	3.53
399.786	3.3
400.15	3.42
400.514	3.09
400.878	3.33
401.242	3.36
401.605	3.06
401.969	3.49
402.333	3.15
402.697	3.31
403.06	3.48
403.424	3.48
403.787	3.41
404.151	3.41
404.514	3.48
404.878	3.16
405.241	3.13
405.604	3.39
405.968	3.32
406.331	3.23
406.694	3.14
407.057	3.23
407.42	3.33
407.783	3.32
408.146	3.37
408.509	3.31
408.872	3.36
409.235	3.46
409.598	3.37
409.961	3.35
410.323	3.45
410.686	3.62
411.049	3.44
411.411	3.27
411.774	3.41
412.136	3.3
412.499	3.36
412.861	3.37
413.223	3.34
413.586	3.34
413.948	3.29
414.31	3.41
414.672	3.17
415.035	3.42
415.397	3.4
415.759	3.4
416.121	3.59
416.483	3.53
416.845	3.09
417.206	3.4
417.568	3.42
417.93	3.28
418.292	3.28
418.653	3.39
419.015	3.37
419.377	3.25
419.738	3.3
420.1	3.31
420.461	3.37
420.822	3.4
421.184	3.29
421.545	3.34
421.906	3.29
422.267	3.25
422.629	3.19
422.99	3.35
423.351	3.26
423.712	3.18
424.073	3.29
424.434	3.35
424.795	3.29
425.155	3.2
425.516	3.18
425.877	3.26
426.238	3.19
426.598	3.33
426.959	3.3
427.32	3.27
427.68	3.46
428.041	3.39
428.401	3.36
428.761	3.37
429.122	3.37
429.482	3.37
429.842	3.25
430.202	3.47
430.563	3.48
430.923	3.45
431.283	3.66
431.643	3.36
432.003	3.4
432.363	3.57
432.722	3.31
433.082	3.37
433.442	3.46
433.802	3.33
434.161	3.59
434.521	3.41
434.881	3.35
435.24	3.35
435.6	3.3
435.959	3.35
436.319	3.55
436.678	3.39
437.037	3.54
437.396	3.51
437.756	3.47
438.115	3.28
438.474	3.56
438.833	3.38
439.192	3.31
439.551	3.44
439.91	3.49
440.269	3.45
440.628	3.39
440.987	3.28
441.345	3.55
441.704	3.36
442.063	3.38
442.421	3.34
442.78	3.38
443.138	3.41
443.497	3.31
443.855	3.47
444.214	3.42
444.572	3.46
444.93	3.34
445.288	3.4
445.647	3.47
446.005	3.43
446.363	3.38
446.721	3.5
447.079	3.28
447.437	3.32
447.795	3.41
448.153	3.44
448.51	3.4
448.868	3.33
449.226	3.36
449.584	3.44
449.941	3.33
450.299	3.35
450.656	3.46
451.014	3.47
451.371	3.52
451.729	3.47
452.086	3.46
452.443	3.59
452.801	3.37
453.158	3.44
453.515	3.4
453.872	3.4
454.229	3.52
454.586	3.38
454.943	3.57
455.3	3.29
455.657	3.44
456.014	3.55
456.371	3.51
456.727	3.57
457.084	3.54
457.441	3.43
457.797	3.54
458.154	3.67
458.51	3.62
458.867	3.64
459.223	3.52
459.58	3.53
459.936	3.56
460.292	3.59
460.648	3.49
461.005	3.57
461.361	3.47
461.717	3.49
462.073	3.42
462.429	3.38
462.785	3.46
463.141	3.41
463.496	3.32
463.852	3.59
464.208	3.54
464.564	3.61
464.919	3.52
465.275	3.45
465.631	3.43
465.986	3.56
466.342	3.59
466.697	3.7
467.052	3.55
467.408	3.7
467.763	3.6
468.118	3.59
468.473	3.54
468.829	3.39
469.184	3.4
469.539	3.61
469.894	3.64
470.249	3.5
470.603	3.59
470.958	3.57
471.313	3.33
471.668	3.59
472.023	3.68
472.377	3.69
472.732	3.58
473.086	3.58
473.441	3.58
473.795	3.68
474.15	3.59
474.504	3.63
474.859	3.46
475.213	3.64
475.567	3.74
475.921	3.54
476.275	3.72
476.63	3.52
476.984	3.58
477.338	3.47
477.692	3.68
478.045	3.5
478.399	3.58
478.753	3.62
479.107	3.63
479.461	3.58
479.814	3.57
480.168	3.68
480.521	3.61
480.875	3.6
481.228	3.63
481.582	3.69
481.935	3.61
482.289	3.57
482.642	3.56
482.995	3.56
483.348	3.5
483.701	3.49
484.055	3.55
484.408	3.46
484.761	3.42
485.114	3.38
485.466	3.32
485.819	3.34
486.172	3.4
486.525	3.41
486.878	3.44
487.23	3.45
487.583	3.58
487.936	3.41
488.288	3.55
488.641	3.53
488.993	3.41
489.345	3.44
489.698	3.43
490.05	3.42
490.402	3.46
490.754	3.57
491.107	3.48
491.459	3.62
491.811	3.52
492.163	3.69
492.515	3.62
492.866	3.48
493.218	3.48
493.57	3.47
493.922	3.54
494.274	3.53
494.625	3.62
494.977	3.53
495.328	3.69
495.68	3.71
496.031	3.67
496.383	3.69
496.734	3.67
497.086	3.57
497.437	3.73
497.788	3.75
498.139	3.56
498.49	3.64
498.842	3.63
499.193	3.74
499.544	3.66
499.894	3.69
500.245	3.7
500.596	3.67
500.947	3.7
501.298	3.71
501.648	3.66
501.999	3.66
502.35	3.7
502.7	3.61
503.051	3.67
503.401	3.67
503.752	3.73
504.102	3.68
504.452	3.7
504.803	3.67
505.153	3.77
505.503	3.62
505.853	3.72
506.203	4.02
506.553	3.74
506.903	3.73
507.253	3.84
507.603	3.82
507.953	3.74
508.303	3.76
508.652	3.96
509.002	3.85
509.352	3.75
509.701	3.78
510.051	3.74
510.4	3.8
510.75	3.88
511.099	3.86
511.449	3.82
511.798	3.88
512.147	3.82
512.496	3.75
512.846	3.87
513.195	3.79
513.544	3.82
513.893	3.65
514.242	3.78
514.591	3.74
514.939	3.95
515.288	3.91
515.637	3.85
515.986	3.84
516.334	4.01
516.683	4.01
517.032	3.94
517.38	3.98
517.729	3.77
518.077	3.9
518.426	4.02
518.774	3.9
519.122	3.93
519.47	3.85
519.819	3.87
520.167	3.85
520.515	3.75
520.863	3.87
521.211	3.93
521.559	3.83
521.907	3.96
522.255	3.9
522.602	3.86
522.95	3.93
523.298	3.92
523.645	3.97
523.993	4.11
524.341	4
524.688	3.92
525.036	3.98
525.383	3.95
525.73	4.03
526.078	3.96
526.425	4
526.772	3.99
527.119	3.93
527.466	3.89
527.814	3.83
528.161	3.89
528.508	3.98
528.854	3.97
529.201	3.95
529.548	3.91
529.895	3.81
530.242	3.84
530.588	3.78
530.935	3.85
531.282	3.83
531.628	3.89
531.975	3.98
532.321	3.96
532.667	4.04
533.014	4.06
533.36	4.12
533.706	4.13
534.052	4.05
534.399	3.94
534.745	3.94
535.091	3.94
535.437	3.96
535.783	3.99
536.129	4.01
536.474	4.13
536.82	4.09
537.166	4.15
537.512	4.18
537.857	4.16
538.203	4.13
538.549	4.13
538.894	4.03
539.239	4.08
539.585	4.14
539.93	4.15
540.276	4.18
540.621	4.38
540.966	4.3
541.311	4.22
541.656	4.21
542.001	4.27
542.346	4.24
542.691	4.14
543.036	4.09
543.381	4.12
543.726	4.1
544.071	4.16
544.415	4.2
544.76	4.22
545.105	4.19
545.449	4.15
545.794	4.34
546.138	4.33
546.483	4.41
546.827	4.23
547.171	4.38
547.516	4.3
547.86	4.27
548.204	4.33
548.548	4.28
548.892	4.37
549.236	4.37
549.58	4.4
549.924	4.39
550.268	4.43
550.612	4.53
550.956	4.36
551.3	4.41
551.643	4.48
551.987	4.55
552.33	4.7
552.674	4.8
553.017	4.72
553.361	4.63
553.704	4.54
554.048	4.64
554.391	4.43
554.734	4.66
555.077	4.58
555.42	4.68
555.764	4.63
556.107	4.49
556.45	4.7
556.793	4.77
557.135	4.75
557.478	4.47
557.821	4.67
558.164	4.71
558.507	4.76
558.849	4.58
559.192	4.7
559.534	5.02
559.877	5.03
560.219	4.7
560.562	4.79
560.904	5.06
561.246	4.72
561.589	4.89
561.931	4.79
562.273	4.96
562.615	4.74
562.957	4.79
563.299	4.74
563.641	4.94
563.983	4.76
564.325	4.83
564.667	4.76
565.008	4.81
565.35	5.05
565.692	5.13
566.033	4.84
566.375	4.94
566.716	4.87
567.058	4.93
567.399	5.12
567.741	5.03
568.082	4.98
568.423	4.99
568.764	5.04
569.105	5.03
569.447	5.02
569.788	5.19
570.129	5.17
570.47	5.09
570.811	5.15
571.151	5.12
571.492	5.1
571.833	5.13
572.174	5.14
572.514	5.08
572.855	5.25
573.195	5.17
573.536	5.12
573.876	5.15
574.217	5.09
574.557	5.11
574.898	5.34
575.238	5.34
575.578	5.33
575.918	5.04
576.258	5.39
576.598	5.26
576.938	5.48
577.278	5.31
577.618	5.43
577.958	5.34
578.298	5.41
578.638	5.42
578.977	5.39
579.317	5.64
579.657	5.41
579.996	5.57
580.336	5.53
580.675	5.38
581.014	5.5
581.354	5.75
581.693	5.47
582.032	5.71
582.372	5.38
582.711	5.81
583.05	5.39
583.389	5.52
583.728	5.56
584.067	5.81
584.406	5.56
584.745	5.94
585.083	5.66
585.422	5.73
585.761	5.76
586.1	5.92
586.438	5.86
586.777	5.88
587.115	6.03
587.454	5.64
587.792	5.87
588.13	6.02
588.469	6.14
588.807	5.9
589.145	6.13
589.483	5.98
589.821	6.07
590.159	6.23
590.497	5.74
590.835	5.97
591.173	5.97
591.511	6.07
591.849	6.27
592.187	6.23
592.524	5.95
592.862	6.11
593.2	6.23
593.537	6.03
593.875	6.24
594.212	6.25
594.55	6.18
594.887	6.12
595.224	6.08
595.561	6.25
595.899	6.32
596.236	6.34
596.573	6.24
596.91	6.31
597.247	6.27
597.584	6.39
597.921	6.2
598.258	6.46
598.594	6.12
598.931	6.14
599.268	6.28
599.604	6.27
599.941	6.23
600.277	6.35
600.614	6.47
600.95	6.64
601.287	6.41
601.623	6.56
601.959	6.69
602.296	6.6
602.632	6.62
602.968	6.56
603.304	6.47
603.64	6.86
603.976	6.99
604.312	6.7
604.648	6.78
604.984	6.57
605.319	6.69
605.655	6.53
605.991	6.69
606.326	6.84
606.662	6.79
606.998	6.61
607.333	6.89
607.668	6.89
608.004	6.77
608.339	6.98
608.674	6.8
609.01	6.82
609.345	7.09
609.68	6.91
610.015	6.86
610.35	7.02
610.685	7.05
611.02	6.95
611.355	6.91
611.689	6.93
612.024	7.03
612.359	7.01
612.694	7.36
613.028	7.04
613.363	7.24
613.697	7.01
614.032	7.04
614.366	7.5
614.7	7.53
615.035	7.03
615.369	7.17
615.703	7.25
616.037	7.49
616.371	7.37
616.705	7.65
617.039	7.47
617.373	7.32
617.707	7.54
618.041	7.58
618.375	7.78
618.709	7.51
619.042	7.52
619.376	7.48
619.71	7.67
620.043	7.72
620.377	7.54
620.71	7.9
621.043	7.65
621.377	7.52
621.71	7.51
622.043	7.52
622.376	7.83
622.709	7.53
623.043	8.28
623.376	7.78
623.709	8.02
624.041	7.89
624.374	7.89
624.707	7.74
625.04	8.14
625.373	7.96
625.705	7.88
626.038	8.09
626.37	7.61
626.703	7.79
627.035	7.82
627.368	8.09
627.7	8.06
628.032	7.84
628.365	8.12
628.697	8.03
629.029	8.05
629.361	8.11
629.693	8.18
630.025	8.38
630.357	8.25
630.689	8.5
631.021	8.21
631.353	8.42
631.684	8.63
632.016	8.26
632.348	8.38
632.679	8.39
633.011	8.49
633.342	8.44
633.674	8.38
634.005	8.04
634.336	8.78
634.668	8.75
634.999	8.58
635.33	8.6
635.661	8.42
635.992	8.7
636.323	8.57
636.654	8.49
636.985	8.86
637.316	8.63
637.647	8.63
637.977	8.77
638.308	8.9
638.639	8.67
638.969	8.7
639.3	9.14
639.63	8.7
639.961	9
640.291	9.02
640.622	8.75
640.952	9.12
641.282	9.35
641.612	8.71
641.943	9.5
642.273	9.09
642.603	9.38
642.933	9.01
643.263	8.89
643.592	9.14
643.922	9.39
644.252	9.41
644.582	9.36
644.911	9.24
645.241	9.59
645.571	9.14
645.9	9.01
646.23	9.8
646.559	9.17
646.888	9.37
647.218	9.33
647.547	9.62
647.876	9.31
648.205	9.67
648.534	9.22
648.863	9.25
649.192	10.13
649.521	9.27
649.85	9.38
650.179	9.81
650.508	9.87
650.837	9.79
651.165	9.49
651.494	9.55
651.822	9.79
652.151	9.89
652.479	9.96
652.808	10.18
653.136	9.75
653.465	10.21
653.793	9.89
654.121	9.76
654.449	9.87
654.777	9.69
655.105	9.86
655.433	9.71
655.761	10.25
656.089	10.11
656.417	10.55
656.745	9.6
657.073	10.04
657.4	10.84
657.728	10.2
658.056	10.01
658.383	9.93
658.711	10.46
659.038	10.37
659.365	10.44
659.693	9.97
660.02	10.64
660.347	10.5
660.674	10.13
661.001	10.35
661.329	10.49
661.656	10.48
661.982	10.23
662.309	10.6
662.636	10.72
662.963	10.28
663.29	10.76
663.616	11
663.943	10.87
664.27	10.59
664.596	10.88
664.923	10.31
665.249	10.45
665.576	10.75
665.902	10.87
666.228	10.48
666.554	10.82
666.881	10.58
667.207	10.81
667.533	11.29
667.859	11.11
668.185	10.35
668.511	11.07
668.837	11.25
669.162	11.36
669.488	10.75
669.814	11.06
670.139	11.09
670.465	11.41
670.791	10.86
671.116	10.54
671.442	11.4
671.767	11.27
672.092	10.71
672.418	11.04
672.743	10.94
673.068	11.55
673.393	11.53
673.718	11.79
674.043	10.91
674.368	12.44
674.693	12.06
675.018	11.3
675.343	11.54
675.667	11.56
675.992	10.88
676.317	11.74
676.641	11.84
676.966	11.81
677.29	11.49
677.615	11.45
677.939	12
678.264	11.84
678.588	12.19
678.912	11.3
679.236	10.89
679.56	11.38
679.885	11.88
680.209	11.98
680.532	11.52
680.856	11.78
681.18	11.94
681.504	12.26
681.828	11.83
682.152	11.65
682.475	12.08
682.799	12.19
683.122	12.24
683.446	12.15
683.769	12.38
684.093	12.5
684.416	12.56
684.739	12.73
685.062	11.84
685.386	12.15
685.709	12.34
686.032	12.17
686.355	12.21
686.678	12.17
687.001	12.44
687.324	12.09
687.646	13.03
687.969	13.2
688.292	11.94
688.614	12.66
688.937	12.49
689.26	12.49
689.582	12.8
689.904	12.06
