Data from 2019-4_chest_Reflection__2__192.txt Node

Date: Fri Nov 11 18:25:49 CST 2022
User: ToomeyLab
Spectrometer: FLMS14357
Trigger mode: 0
Integration Time (sec): 1.000000E-2
Scans to average: 100
Electric dark correction enabled: true
Nonlinearity correction enabled: false
Boxcar width: 0
XAxis mode: Wavelengths
Number of Pixels in Spectrum: 2048
>>>>>Begin Spectral Data<<<<<
189.047	177.88
189.435	177.88
189.823	177.88
190.211	15.71
190.599	-5.1
190.987	52.22
191.375	-491.32
191.763	38.01
192.151	-151.18
192.538	474.78
192.926	97.16
193.314	25.27
193.702	-779.03
194.089	24.89
194.477	75.71
194.864	-13.76
195.252	163.79
195.639	28.54
196.027	77.61
196.414	-173.31
196.801	73.06
197.189	107.84
197.576	182.15
197.963	28.61
198.351	7.58
198.738	-26.74
199.125	-52
199.512	7.04
199.899	20.77
200.286	-31.92
200.673	-8.14
201.06	-38.4
201.447	23.32
201.833	48.18
202.22	-84.47
202.607	0.47
202.994	28.32
203.38	-38.24
203.767	35.29
204.154	-6.25
204.54	31.17
204.927	-24.58
205.313	31.99
205.699	-4.9
206.086	-48.18
206.472	-37.1
206.858	11.1
207.245	-18.97
207.631	-32.04
208.017	-37.22
208.403	-13.99
208.789	25.78
209.175	-33.66
209.561	-19.67
209.947	-22.96
210.333	16.67
210.719	12.79
211.105	43.01
211.491	17.6
211.876	-22.98
212.262	-30.04
212.648	29.97
213.034	-13.46
213.419	-6.73
213.805	23.08
214.19	10.39
214.576	11.09
214.961	-19.04
215.346	10.94
215.732	8.6
216.117	46.59
216.502	4.98
216.888	3.62
217.273	9.64
217.658	-26.11
218.043	6.21
218.428	22.72
218.813	7.08
219.198	-5.87
219.583	-10.87
219.968	-20.96
220.353	-1.8
220.738	3.85
221.122	-13.7
221.507	28.79
221.892	14.53
222.276	-3.65
222.661	6.57
223.046	4.17
223.43	3.44
223.815	-6.59
224.199	-4.02
224.583	15.24
224.968	15.45
225.352	3.82
225.736	1.06
226.121	10.61
226.505	12.59
226.889	8.6
227.273	9.82
227.657	7.81
228.041	4.05
228.425	-1.45
228.809	-0.94
229.193	4.6
229.577	2.64
229.961	2.06
230.344	2.69
230.728	2.8
231.112	3.58
231.495	3.84
231.879	3.66
232.263	4.38
232.646	3.18
233.03	1.81
233.413	4
233.797	2.62
234.18	2.31
234.563	1.76
234.946	0.43
235.33	4.92
235.713	0.9
236.096	2.55
236.479	1.75
236.862	2.51
237.245	1.97
237.628	1.23
238.011	1.49
238.394	3.33
238.777	3.2
239.16	1.26
239.543	4.11
239.925	1.57
240.308	2.89
240.691	3.55
241.073	4.73
241.456	2.87
241.838	1.99
242.221	3.37
242.603	1.59
242.986	2.75
243.368	2.63
243.75	2.52
244.133	2.39
244.515	3.28
244.897	3.04
245.279	3.07
245.661	2.17
246.043	2.41
246.425	2.34
246.807	2.55
247.189	2.45
247.571	2.67
247.953	2.29
248.335	2.85
248.717	2.96
249.098	3.03
249.48	2.74
249.862	2.83
250.243	2.82
250.625	2.54
251.006	1.94
251.388	3
251.769	2.88
252.151	3.1
252.532	2.4
252.913	3.23
253.295	1.81
253.676	2.74
254.057	2.66
254.438	2.66
254.819	2.26
255.2	3.45
255.581	3.01
255.962	2.51
256.343	2.48
256.724	3.06
257.105	2.31
257.486	1.5
257.867	3.24
258.247	1.98
258.628	2.4
259.009	2.38
259.389	3.17
259.77	2.69
260.15	2.05
260.531	2.84
260.911	2.6
261.292	2.54
261.672	2.64
262.052	2.55
262.432	2.53
262.813	2.69
263.193	2.96
263.573	2.51
263.953	2.68
264.333	2.32
264.713	2.22
265.093	2.32
265.473	2.44
265.853	2.22
266.233	2.8
266.612	2.7
266.992	2.25
267.372	3.35
267.752	2.29
268.131	3.03
268.511	2.63
268.89	2.68
269.27	2.07
269.649	2.98
270.029	2.21
270.408	2.12
270.787	2.81
271.167	2.86
271.546	2.57
271.925	2.12
272.304	2.54
272.683	2.79
273.062	2.55
273.441	2.2
273.82	3.06
274.199	1.87
274.578	2.38
274.957	2.63
275.336	2.68
275.715	2.36
276.093	2.49
276.472	2.78
276.851	2.87
277.229	2.95
277.608	1.83
277.986	2.73
278.365	2.52
278.743	3.03
279.122	2.55
279.5	2.77
279.878	2.35
280.257	2.12
280.635	2.31
281.013	1.99
281.391	3
281.769	2.56
282.147	2.59
282.525	3.14
282.903	3.01
283.281	2.97
283.659	2.25
284.037	2.69
284.415	2.19
284.792	2.84
285.17	2.67
285.548	2.91
285.925	2.44
286.303	2.72
286.68	2.48
287.058	2.65
287.435	2.48
287.813	2.41
288.19	2.44
288.567	2.35
288.945	2.54
289.322	2.63
289.699	2.62
290.076	2.42
290.453	2.37
290.83	2.65
291.207	2.46
291.584	2.75
291.961	2.62
292.338	2.66
292.715	2.48
293.092	2.4
293.469	2.12
293.845	2.3
294.222	2.62
294.599	2.28
294.975	2.19
295.352	2.73
295.728	2.38
296.105	2.45
296.481	2.44
296.858	2.81
297.234	2.4
297.61	2.6
297.986	2.44
298.363	2.62
298.739	2.29
299.115	2.67
299.491	2.7
299.867	2.62
300.243	2.45
300.619	2.34
300.995	2.84
301.371	2.97
301.746	2.08
302.122	2.27
302.498	2.65
302.874	2.93
303.249	2.57
303.625	2.64
304	2.24
304.376	2.99
304.751	3.03
305.127	2.53
305.502	2.31
305.878	2.3
306.253	2.82
306.628	2.39
307.003	2.94
307.378	2.42
307.754	2.44
308.129	2.76
308.504	2.44
308.879	2.87
309.254	2.28
309.629	2.48
310.003	2.43
310.378	2.6
310.753	2.44
311.128	2.66
311.502	1.93
311.877	2.44
312.252	2.74
312.626	2.74
313.001	2.39
313.375	2.23
313.75	2.61
314.124	2.9
314.498	2.48
314.873	2.44
315.247	2.65
315.621	2.53
315.995	2.33
316.369	2.44
316.743	2.43
317.117	2.12
317.491	1.94
317.865	2.86
318.239	2.77
318.613	2.9
318.987	2.53
319.361	2.68
319.734	2.56
320.108	2.34
320.482	2.49
320.855	2.27
321.229	2.37
321.602	1.7
321.976	2.63
322.349	2.53
322.723	2.35
323.096	2.34
323.469	2.56
323.843	2.59
324.216	2.43
324.589	2.66
324.962	2.19
325.335	2.03
325.708	2.48
326.081	2.21
326.454	2.87
326.827	2.28
327.2	2.77
327.573	2.6
327.945	3.16
328.318	2.49
328.691	2.76
329.063	2.55
329.436	2.44
329.809	2.59
330.181	2.38
330.553	2.86
330.926	2.7
331.298	2.28
331.671	2.35
332.043	2.96
332.415	2.37
332.787	2.67
333.159	2.97
333.532	2.79
333.904	2.82
334.276	2.7
334.648	2.16
335.02	2.5
335.391	2.47
335.763	2.6
336.135	2.83
336.507	3.04
336.879	2.59
337.25	2.87
337.622	2.75
337.993	3
338.365	2.87
338.736	2.79
339.108	2.64
339.479	2.64
339.851	2.64
340.222	2.69
340.593	2.45
340.964	2.59
341.336	2.35
341.707	2.52
342.078	2.65
342.449	3.02
342.82	3.19
343.191	2.63
343.562	2.8
343.933	2.33
344.303	2.5
344.674	2.77
345.045	2.77
345.416	2.94
345.786	2.71
346.157	2.6
346.527	2.78
346.898	2.48
347.268	2.35
347.639	2.83
348.009	2.72
348.38	2.76
348.75	2.55
349.12	2.61
349.49	2.87
349.861	2.5
350.231	2.86
350.601	2.72
350.971	2.65
351.341	2.88
351.711	2.64
352.081	2.31
352.45	2.31
352.82	2.77
353.19	2.86
353.56	3.07
353.929	2.44
354.299	2.32
354.669	2.49
355.038	2.8
355.408	2.24
355.777	2.53
356.147	2.62
356.516	2.88
356.885	2.52
357.254	3
357.624	2.46
357.993	2.46
358.362	2.93
358.731	2.65
359.1	2.77
359.469	2.66
359.838	2.92
360.207	2.92
360.576	2.55
360.945	2.32
361.314	2.78
361.682	2.89
362.051	2.85
362.42	2.54
362.788	2.75
363.157	2.45
363.525	2.6
363.894	2.63
364.262	2.65
364.631	2.58
364.999	2.32
365.367	2.57
365.735	2.92
366.104	2.71
366.472	2.74
366.84	2.56
367.208	2.51
367.576	2.72
367.944	2.72
368.312	2.21
368.68	2.68
369.048	2.39
369.416	2.81
369.783	2.79
370.151	2.6
370.519	2.32
370.886	2.39
371.254	2.64
371.621	2.79
371.989	2.69
372.356	2.48
372.724	2.32
373.091	2.95
373.458	2.72
373.826	2.83
374.193	2.35
374.56	2.47
374.927	2.62
375.294	2.62
375.661	2.44
376.028	2.95
376.395	2.77
376.762	2.65
377.129	2.76
377.496	2.72
377.863	2.26
378.229	2.66
378.596	2.79
378.963	3
379.329	2.81
379.696	2.9
380.062	2.69
380.429	2.45
380.795	2.48
381.161	2.64
381.528	2.81
381.894	2.71
382.26	2.49
382.626	2.58
382.993	2.66
383.359	2.67
383.725	2.54
384.091	2.58
384.457	2.74
384.823	2.48
385.188	2.65
385.554	2.65
385.92	2.82
386.286	2.85
386.651	2.79
387.017	2.77
387.383	2.59
387.748	2.52
388.114	2.68
388.479	2.74
388.845	2.71
389.21	2.56
389.575	2.55
389.94	2.59
390.306	2.72
390.671	2.64
391.036	2.77
391.401	2.81
391.766	3.04
392.131	2.69
392.496	2.66
392.861	2.48
393.226	2.63
393.591	2.69
393.956	2.9
394.32	2.79
394.685	2.63
395.05	2.72
395.414	2.83
395.779	2.64
396.143	2.88
396.508	2.82
396.872	2.4
397.236	2.62
397.601	2.75
397.965	2.62
398.329	2.7
398.694	3.05
399.058	2.74
399.422	2.98
399.786	2.94
400.15	2.79
400.514	2.65
400.878	2.49
401.242	2.65
401.605	2.41
401.969	2.49
402.333	2.66
402.697	2.71
403.06	2.92
403.424	2.72
403.787	2.71
404.151	2.87
404.514	2.82
404.878	2.57
405.241	2.81
405.604	2.72
405.968	2.78
406.331	2.56
406.694	2.76
407.057	2.72
407.42	2.62
407.783	2.56
408.146	2.74
408.509	2.56
408.872	2.79
409.235	2.77
409.598	2.82
409.961	2.91
410.323	3.06
410.686	2.7
411.049	2.92
411.411	2.8
411.774	2.71
412.136	2.63
412.499	2.97
412.861	2.82
413.223	2.63
413.586	2.48
413.948	2.69
414.31	2.81
414.672	2.71
415.035	2.75
415.397	2.81
415.759	2.78
416.121	2.88
416.483	2.76
416.845	2.5
417.206	2.83
417.568	2.78
417.93	2.79
418.292	2.7
418.653	2.78
419.015	2.76
419.377	2.71
419.738	2.79
420.1	2.82
420.461	2.94
420.822	2.9
421.184	2.71
421.545	2.82
421.906	2.75
422.267	2.76
422.629	2.69
422.99	2.7
423.351	2.65
423.712	2.68
424.073	2.76
424.434	2.78
424.795	2.75
425.155	2.59
425.516	2.74
425.877	2.67
426.238	2.69
426.598	2.74
426.959	2.74
427.32	2.82
427.68	2.82
428.041	2.68
428.401	2.82
428.761	2.94
429.122	2.78
429.482	2.85
429.842	2.71
430.202	2.88
430.563	2.66
430.923	2.89
431.283	2.96
431.643	2.77
432.003	2.87
432.363	2.7
432.722	2.81
433.082	2.86
433.442	2.91
433.802	2.73
434.161	2.89
434.521	2.87
434.881	2.77
435.24	2.87
435.6	2.77
435.959	2.77
436.319	2.89
436.678	2.75
437.037	2.94
437.396	2.9
437.756	2.78
438.115	2.84
438.474	2.87
438.833	3.01
439.192	2.71
439.551	2.86
439.91	2.79
440.269	2.93
440.628	2.83
440.987	2.78
441.345	2.86
441.704	2.76
442.063	2.95
442.421	2.87
442.78	2.84
443.138	2.88
443.497	2.89
443.855	2.87
444.214	2.9
444.572	3.07
444.93	2.81
445.288	2.92
445.647	2.91
446.005	2.86
446.363	2.75
446.721	2.99
447.079	2.84
447.437	2.84
447.795	2.89
448.153	2.88
448.51	2.86
448.868	2.92
449.226	2.9
449.584	3
449.941	2.94
450.299	2.89
450.656	2.96
451.014	2.93
451.371	2.96
451.729	2.84
452.086	2.85
452.443	2.98
452.801	2.97
453.158	2.82
453.515	2.94
453.872	2.9
454.229	2.93
454.586	2.91
454.943	2.96
455.3	2.91
455.657	2.91
456.014	3.06
456.371	3.05
456.727	3.11
457.084	2.94
457.441	3.01
457.797	2.88
458.154	3.02
458.51	3.06
458.867	3.07
459.223	2.97
459.58	3.09
459.936	2.9
460.292	3.12
460.648	2.86
461.005	3.08
461.361	2.93
461.717	2.92
462.073	3.05
462.429	2.9
462.785	3.09
463.141	3.02
463.496	2.94
463.852	3.08
464.208	3.09
464.564	3.12
464.919	2.83
465.275	2.97
465.631	3.16
465.986	2.95
466.342	3.06
466.697	3.04
467.052	3.18
467.408	3.32
467.763	3.07
468.118	3.07
468.473	3.11
468.829	2.9
469.184	2.93
469.539	3.04
469.894	3.18
470.249	2.97
470.603	3
470.958	3.11
471.313	2.96
471.668	2.96
472.023	3.14
472.377	3.07
472.732	3.02
473.086	3.2
473.441	3.13
473.795	3.09
474.15	3.08
474.504	3.12
474.859	2.97
475.213	3.17
475.567	3.2
475.921	3.14
476.275	3.11
476.63	3.14
476.984	3.18
477.338	2.96
477.692	3.19
478.045	3.12
478.399	2.94
478.753	2.95
479.107	3.17
479.461	3.19
479.814	3.02
480.168	3.1
480.521	3.14
480.875	3.05
481.228	3.18
481.582	3.23
481.935	3.09
482.289	3.05
482.642	3.06
482.995	3.13
483.348	3.11
483.701	3
484.055	3.06
484.408	3.03
484.761	3.04
485.114	2.93
485.466	2.89
485.819	2.89
486.172	2.95
486.525	2.99
486.878	3.07
487.23	3.07
487.583	3.14
487.936	3.06
488.288	3.14
488.641	3.09
488.993	3.03
489.345	3.03
489.698	3
490.05	3.02
490.402	3.03
490.754	3.14
491.107	3.07
491.459	3.12
491.811	3.05
492.163	3.17
492.515	3.14
492.866	3.03
493.218	3.06
493.57	3.04
493.922	3.06
494.274	3.15
494.625	3.27
494.977	3.15
495.328	3.19
495.68	3.27
496.031	3.21
496.383	3.26
496.734	3.27
497.086	3.2
497.437	3.38
497.788	3.18
498.139	3.25
498.49	3.28
498.842	3.19
499.193	3.28
499.544	3.22
499.894	3.3
500.245	3.26
500.596	3.3
500.947	3.29
501.298	3.32
501.648	3.35
501.999	3.3
502.35	3.36
502.7	3.33
503.051	3.44
503.401	3.3
503.752	3.38
504.102	3.29
504.452	3.33
504.803	3.34
505.153	3.47
505.503	3.28
505.853	3.3
506.203	3.56
506.553	3.36
506.903	3.47
507.253	3.44
507.603	3.45
507.953	3.41
508.303	3.43
508.652	3.52
509.002	3.48
509.352	3.43
509.701	3.34
510.051	3.35
510.4	3.52
510.75	3.46
511.099	3.43
511.449	3.42
511.798	3.47
512.147	3.39
512.496	3.44
512.846	3.41
513.195	3.39
513.544	3.4
513.893	3.38
514.242	3.44
514.591	3.38
514.939	3.45
515.288	3.55
515.637	3.52
515.986	3.52
516.334	3.6
516.683	3.67
517.032	3.56
517.38	3.6
517.729	3.41
518.077	3.75
518.426	3.44
518.774	3.47
519.122	3.47
519.47	3.44
519.819	3.45
520.167	3.47
520.515	3.51
520.863	3.49
521.211	3.5
521.559	3.55
521.907	3.66
522.255	3.48
522.602	3.57
522.95	3.59
523.298	3.55
523.645	3.65
523.993	3.61
524.341	3.62
524.688	3.61
525.036	3.66
525.383	3.76
525.73	3.72
526.078	3.67
526.425	3.7
526.772	3.61
527.119	3.52
527.466	3.6
527.814	3.55
528.161	3.58
528.508	3.64
528.854	3.63
529.201	3.62
529.548	3.55
529.895	3.51
530.242	3.5
530.588	3.48
530.935	3.54
531.282	3.56
531.628	3.66
531.975	3.69
532.321	3.67
532.667	3.75
533.014	3.73
533.36	3.76
533.706	3.7
534.052	3.71
534.399	3.71
534.745	3.66
535.091	3.65
535.437	3.67
535.783	3.71
536.129	3.8
536.474	3.77
536.82	3.83
537.166	3.82
537.512	3.85
537.857	3.88
538.203	3.83
538.549	3.83
538.894	3.88
539.239	3.82
539.585	3.88
539.93	3.91
540.276	4.02
540.621	4.01
540.966	3.94
541.311	4.02
541.656	3.99
542.001	3.86
542.346	3.88
542.691	3.86
543.036	3.78
543.381	3.9
543.726	3.86
544.071	3.88
544.415	3.97
544.76	3.92
545.105	3.9
545.449	3.93
545.794	4.07
546.138	4.01
546.483	4.04
546.827	4
547.171	4.14
547.516	4.04
547.86	4.02
548.204	4.14
548.548	4.11
548.892	4.16
549.236	4.16
549.58	4.2
549.924	4.17
550.268	4.23
550.612	4.32
550.956	4.15
551.3	4.11
551.643	4.17
551.987	4.11
552.33	4.44
552.674	4.38
553.017	4.39
553.361	4.28
553.704	4.33
554.048	4.34
554.391	4.18
554.734	4.38
555.077	4.29
555.42	4.47
555.764	4.41
556.107	4.15
556.45	4.39
556.793	4.6
557.135	4.37
557.478	4.38
557.821	4.55
558.164	4.56
558.507	4.45
558.849	4.5
559.192	4.52
559.534	4.64
559.877	4.59
560.219	4.42
560.562	4.59
560.904	4.73
561.246	4.64
561.589	4.66
561.931	4.67
562.273	4.71
562.615	4.52
562.957	4.52
563.299	4.6
563.641	4.62
563.983	4.62
564.325	4.51
564.667	4.56
565.008	4.76
565.35	4.84
565.692	5.05
566.033	4.79
566.375	4.77
566.716	4.59
567.058	4.54
567.399	4.85
567.741	4.77
568.082	4.83
568.423	4.79
568.764	4.9
569.105	4.94
569.447	4.96
569.788	5
570.129	4.84
570.47	4.86
570.811	4.89
571.151	4.94
571.492	4.81
571.833	4.87
572.174	4.87
572.514	4.97
572.855	5
573.195	4.98
573.536	5.01
573.876	4.97
574.217	5.04
574.557	4.88
574.898	5.24
575.238	5.18
575.578	4.89
575.918	4.9
576.258	5.02
576.598	5.09
576.938	5.12
577.278	5.22
577.618	5.15
577.958	5.22
578.298	5.24
578.638	5.17
578.977	5.08
579.317	5.3
579.657	5.38
579.996	5.33
580.336	5.32
580.675	5.4
581.014	5.32
581.354	5.45
581.693	5.35
582.032	5.46
582.372	5.25
582.711	5.4
583.05	5.56
583.389	5.47
583.728	5.58
584.067	5.48
584.406	5.72
584.745	5.86
585.083	5.38
585.422	5.51
585.761	5.55
586.1	5.59
586.438	5.59
586.777	5.64
587.115	5.96
587.454	5.59
587.792	5.71
588.13	5.87
588.469	5.92
588.807	5.61
589.145	5.84
589.483	5.94
589.821	5.96
590.159	5.73
590.497	5.69
590.835	5.98
591.173	5.71
591.511	5.82
591.849	5.91
592.187	5.78
592.524	5.85
592.862	5.91
593.2	5.89
593.537	5.78
593.875	6.19
594.212	6.04
594.55	5.91
594.887	6.3
595.224	6.26
595.561	6.18
595.899	5.83
596.236	5.96
596.573	5.84
596.91	6.13
597.247	6.26
597.584	6.15
597.921	6.05
598.258	6.02
598.594	6
598.931	6.12
599.268	6.18
599.604	6.16
599.941	6.26
600.277	6.44
600.614	6.38
600.95	6.44
601.287	6.23
601.623	6.36
601.959	6.52
602.296	6.38
602.632	6.36
602.968	6.36
603.304	6.52
603.64	6.68
603.976	6.7
604.312	6.63
604.648	6.58
604.984	6.51
605.319	6.45
605.655	6.23
605.991	6.44
606.326	6.45
606.662	6.67
606.998	6.65
607.333	6.69
607.668	6.67
608.004	6.83
608.339	6.67
608.674	6.92
609.01	6.86
609.345	6.79
609.68	6.81
610.015	6.66
610.35	6.75
610.685	6.76
611.02	6.83
611.355	6.81
611.689	6.93
612.024	6.84
612.359	6.83
612.694	7.25
613.028	7.12
613.363	6.84
613.697	6.78
614.032	6.94
614.366	7.13
614.7	7.12
615.035	7.18
615.369	7.07
615.703	7.06
616.037	6.8
616.371	7.04
616.705	7.33
617.039	7.17
617.373	7.26
617.707	7.47
618.041	7.54
618.375	7.44
618.709	7.06
619.042	7.19
619.376	7.52
619.71	7.61
620.043	7.69
620.377	7.01
620.71	7.65
621.043	7.55
621.377	7.64
621.71	7.55
622.043	7.74
622.376	7.66
622.709	7.4
623.043	7.9
623.376	7.66
623.709	7.53
624.041	7.89
624.374	7.73
624.707	7.59
625.04	7.75
625.373	7.71
625.705	7.33
626.038	7.73
626.37	7.82
626.703	8.07
627.035	7.88
627.368	7.84
627.7	7.99
628.032	7.77
628.365	7.62
628.697	8.09
629.029	7.93
629.361	7.89
629.693	7.98
630.025	8.25
630.357	7.93
630.689	8.06
631.021	8.01
631.353	8.29
631.684	8.29
632.016	8.11
632.348	8.1
632.679	8.27
633.011	8.22
633.342	8.32
633.674	8.01
634.005	7.72
634.336	8.42
634.668	8.12
634.999	8.47
635.33	8.56
635.661	8.27
635.992	8.76
636.323	8.3
636.654	8.13
636.985	8.4
637.316	8.6
637.647	8.55
637.977	8.8
638.308	9.07
638.639	8.4
638.969	8.58
639.3	9.18
639.63	8.67
639.961	8.52
640.291	9.03
640.622	8.27
640.952	9.14
641.282	9.09
641.612	8.99
641.943	9.58
642.273	9.09
642.603	8.84
642.933	9.22
643.263	8.85
643.592	8.96
643.922	8.96
644.252	9.11
644.582	9.42
644.911	8.93
645.241	8.96
645.571	9.33
645.9	9
646.23	9.54
646.559	9.16
646.888	9.4
647.218	9.43
647.547	9.72
647.876	9.63
648.205	9.15
648.534	9.23
648.863	9.36
649.192	9.69
649.521	9.48
649.85	9.65
650.179	9.67
650.508	9.55
650.837	9.34
651.165	9.46
651.494	9.57
651.822	9.66
652.151	10.24
652.479	9.71
652.808	9.88
653.136	9.81
653.465	9.18
653.793	9.74
654.121	9.6
654.449	9.6
654.777	9.86
655.105	9.85
655.433	9.4
655.761	10.21
656.089	9.9
656.417	10.7
656.745	9.95
657.073	10.23
657.4	10.37
657.728	9.85
658.056	10.12
658.383	9.94
658.711	9.76
659.038	10.39
659.365	10.5
659.693	9.92
660.02	10.37
660.347	10.38
660.674	10.14
661.001	10.21
661.329	10.43
661.656	10.36
661.982	10.46
662.309	10.93
662.636	10.26
662.963	10.26
663.29	10.53
663.616	10.47
663.943	10.54
664.27	10.98
664.596	10.61
664.923	10.01
665.249	10.15
665.576	11.21
665.902	10.98
666.228	10.26
666.554	11.21
666.881	10.57
667.207	10.25
667.533	11.07
667.859	10.74
668.185	9.87
668.511	10.65
668.837	11.25
669.162	11.12
669.488	11.01
669.814	11.07
670.139	11.03
670.465	11.07
670.791	10.68
671.116	10.96
671.442	11.58
671.767	11.72
672.092	10.34
672.418	11.41
672.743	10.39
673.068	11.65
673.393	11.41
673.718	11.92
674.043	10.97
674.368	11.52
674.693	12.14
675.018	11.34
675.343	11.52
675.667	11.36
675.992	11.14
676.317	11.45
676.641	11.56
676.966	11.5
677.29	12.15
677.615	11.24
677.939	12.19
678.264	11.44
678.588	11.66
678.912	11.51
679.236	11.63
679.56	10.87
679.885	12.29
680.209	11.85
680.532	11.13
680.856	11.87
681.18	11.7
681.504	12.19
681.828	12.01
682.152	11.68
682.475	11.96
682.799	12.32
683.122	12.29
683.446	12.91
683.769	12.48
684.093	12.33
684.416	12.77
684.739	12.59
685.062	12.13
685.386	11.68
685.709	13.28
686.032	12.98
686.355	12.66
686.678	12.08
687.001	11.89
687.324	12.64
687.646	12.58
687.969	12.36
688.292	12.16
688.614	12.59
688.937	12.1
689.26	11.83
689.582	12.21
689.904	11.36
