Data from 2019-4_forehead_Reflection__0__200.txt Node

Date: Fri Nov 11 18:30:11 CST 2022
User: ToomeyLab
Spectrometer: FLMS14357
Trigger mode: 0
Integration Time (sec): 1.000000E-2
Scans to average: 100
Electric dark correction enabled: true
Nonlinearity correction enabled: false
Boxcar width: 0
XAxis mode: Wavelengths
Number of Pixels in Spectrum: 2048
>>>>>Begin Spectral Data<<<<<
189.047	178.42
189.435	178.42
189.823	178.42
190.211	13.37
190.599	5.71
190.987	-18.87
191.375	852.89
191.763	-37.8
192.151	-190.12
192.538	220.74
192.926	-87.51
193.314	39.57
193.702	-346.54
194.089	260.5
194.477	272.41
194.864	299.72
195.252	137.93
195.639	141.45
196.027	47.46
196.414	153.39
196.801	4.86
197.189	62.55
197.576	524.27
197.963	99.48
198.351	36.23
198.738	46.08
199.125	-0.27
199.512	30.52
199.899	10.25
200.286	-14.93
200.673	-22.96
201.06	14.64
201.447	-9.87
201.833	46.74
202.22	-33.99
202.607	44.19
202.994	34.73
203.38	-6.96
203.767	-13.99
204.154	28.64
204.54	88.36
204.927	19.08
205.313	14.42
205.699	22.63
206.086	-54.97
206.472	-36.44
206.858	20.52
207.245	48.55
207.631	27.49
208.017	-6.07
208.403	-14.87
208.789	32.68
209.175	-31.97
209.561	2.11
209.947	-3.37
210.333	46.84
210.719	20.19
211.105	-6.92
211.491	35.82
211.876	-11.75
212.262	-25.71
212.648	30.17
213.034	20.37
213.419	-15.75
213.805	-1.79
214.19	27.69
214.576	5.58
214.961	35.56
215.346	-17.44
215.732	30.3
216.117	21.93
216.502	19.43
216.888	0
217.273	-9.37
217.658	4.86
218.043	19.08
218.428	25.56
218.813	30.03
219.198	-15.05
219.583	24.92
219.968	11.02
220.353	15.15
220.738	11.73
221.122	-32.07
221.507	12.51
221.892	11.99
222.276	19.41
222.661	13.83
223.046	14.04
223.43	-2.49
223.815	10.88
224.199	3.86
224.583	25.89
224.968	19.22
225.352	13.16
225.736	5.25
226.121	-2.23
226.505	10.34
226.889	8.93
227.273	6.75
227.657	7.19
228.041	3.11
228.425	1.38
228.809	7.28
229.193	8.66
229.577	3.68
229.961	5.01
230.344	4.28
230.728	3.87
231.112	4.02
231.495	4.93
231.879	4.15
232.263	6.22
232.646	4.66
233.03	4.95
233.413	4.02
233.797	5.53
234.18	4.82
234.563	1.24
234.946	2.9
235.33	4.89
235.713	3.09
236.096	4.85
236.479	2.54
236.862	4.78
237.245	6.23
237.628	3.7
238.011	2.27
238.394	4.47
238.777	3.73
239.16	4.31
239.543	5.19
239.925	2.39
240.308	4.11
240.691	6.76
241.073	4.9
241.456	4.47
241.838	4.78
242.221	3.53
242.603	3.57
242.986	4.23
243.368	4.16
243.75	3.72
244.133	3.92
244.515	4.19
244.897	4.25
245.279	3.23
245.661	3.46
246.043	3.28
246.425	4.24
246.807	4.53
247.189	4.3
247.571	4.17
247.953	3.65
248.335	4.12
248.717	4.06
249.098	4.04
249.48	3.69
249.862	4.04
250.243	4.06
250.625	3.81
251.006	3.78
251.388	4.11
251.769	3.97
252.151	3.48
252.532	4.31
252.913	4.18
253.295	3.87
253.676	4.06
254.057	4.38
254.438	3.67
254.819	4.28
255.2	4.68
255.581	3.97
255.962	4.52
256.343	3.31
256.724	4.42
257.105	3.95
257.486	2.92
257.867	4.23
258.247	3.56
258.628	3.8
259.009	4.41
259.389	3.66
259.77	4.04
260.15	3.38
260.531	3.8
260.911	3.7
261.292	3.96
261.672	3.74
262.052	3.71
262.432	3.5
262.813	4.03
263.193	3.83
263.573	4.15
263.953	4.06
264.333	3.72
264.713	4.52
265.093	3.68
265.473	4.11
265.853	3.56
266.233	4.5
266.612	3.48
266.992	3.88
267.372	4.61
267.752	3.31
268.131	3.93
268.511	3.95
268.89	3.98
269.27	3.62
269.649	4.18
270.029	3.8
270.408	3.37
270.787	3.89
271.167	4.47
271.546	4.41
271.925	4
272.304	3.99
272.683	3.93
273.062	3.92
273.441	3.24
273.82	4.07
274.199	3.57
274.578	3.45
274.957	3.89
275.336	3.15
275.715	3.48
276.093	3.87
276.472	3.96
276.851	4.12
277.229	4.19
277.608	3.8
277.986	3.66
278.365	3.44
278.743	3.84
279.122	3.98
279.5	3.72
279.878	3.49
280.257	4
280.635	3.44
281.013	3.8
281.391	4.18
281.769	3.37
282.147	3.77
282.525	3.76
282.903	3.76
283.281	4.54
283.659	3.94
284.037	3.55
284.415	3.63
284.792	4.06
285.17	4.17
285.548	3.98
285.925	3.88
286.303	3.37
286.68	3.58
287.058	3.95
287.435	3.74
287.813	4.07
288.19	3.57
288.567	3.24
288.945	3.72
289.322	3.77
289.699	4.05
290.076	3.93
290.453	3.77
290.83	3.26
291.207	3.61
291.584	4.24
291.961	3.71
292.338	3.94
292.715	3.72
293.092	4.2
293.469	4.21
293.845	3.85
294.222	4.23
294.599	3.64
294.975	3.44
295.352	4.01
295.728	3.87
296.105	4.12
296.481	4.52
296.858	4.6
297.234	4.1
297.61	4.19
297.986	4
298.363	4.45
298.739	4.26
299.115	4.39
299.491	4.41
299.867	4.27
300.243	4.11
300.619	4.39
300.995	4.76
301.371	5.11
301.746	4.34
302.122	4.57
302.498	5.1
302.874	4.77
303.249	4.65
303.625	4.85
304	4.75
304.376	4.72
304.751	4.67
305.127	4.73
305.502	5.02
305.878	4.7
306.253	4.9
306.628	4.77
307.003	5.01
307.378	4.67
307.754	4.66
308.129	4.86
308.504	5.02
308.879	5.83
309.254	5.13
309.629	5.01
310.003	5.25
310.378	5.45
310.753	5.03
311.128	5.43
311.502	5.01
311.877	5.27
312.252	5.94
312.626	5.63
313.001	5.57
313.375	5.07
313.75	5.79
314.124	5.89
314.498	5.59
314.873	5.85
315.247	6.02
315.621	5.77
315.995	5.99
316.369	5.6
316.743	6
317.117	6.11
317.491	6.1
317.865	6.56
318.239	6.43
318.613	6.26
318.987	5.78
319.361	6.45
319.734	6.58
320.108	6.07
320.482	6.36
320.855	6.26
321.229	6.17
321.602	6.13
321.976	6.76
322.349	7.15
322.723	6.94
323.096	6.71
323.469	6.88
323.843	6.91
324.216	6.48
324.589	7.04
324.962	6.21
325.335	6.29
325.708	6.48
326.081	6.33
326.454	6.75
326.827	6.83
327.2	7.28
327.573	7.31
327.945	6.91
328.318	6.63
328.691	6.77
329.063	6.9
329.436	7.1
329.809	7.04
330.181	7.1
330.553	6.8
330.926	7.01
331.298	6.75
331.671	6.83
332.043	7.21
332.415	7.36
332.787	6.87
333.159	6.8
333.532	7.32
333.904	7.49
334.276	7.39
334.648	6.69
335.02	7.54
335.391	7.36
335.763	7.57
336.135	7.77
336.507	8.03
336.879	7.82
337.25	7.69
337.622	7.99
337.993	8
338.365	8.11
338.736	7.7
339.108	7.81
339.479	7.35
339.851	7.62
340.222	7.83
340.593	7.8
340.964	7.78
341.336	7.81
341.707	7.95
342.078	7.7
342.449	8.08
342.82	7.98
343.191	8.03
343.562	8.09
343.933	7.62
344.303	8.01
344.674	8.38
345.045	8.11
345.416	8.04
345.786	8.18
346.157	8.43
346.527	8.31
346.898	8.44
347.268	8.19
347.639	8.28
348.009	8.27
348.38	8.62
348.75	8.54
349.12	8.7
349.49	8.36
349.861	8.38
350.231	8.3
350.601	8.67
350.971	8.6
351.341	8.71
351.711	8.74
352.081	8.49
352.45	8.57
352.82	8.73
353.19	8.91
353.56	9.03
353.929	8.3
354.299	8.52
354.669	8.98
355.038	9.24
355.408	8.56
355.777	9.03
356.147	8.66
356.516	8.93
356.885	8.64
357.254	9.41
357.624	8.7
357.993	8.61
358.362	9.05
358.731	8.83
359.1	9.05
359.469	9.16
359.838	9.34
360.207	9.05
360.576	8.83
360.945	9.11
361.314	9.21
361.682	9.4
362.051	9.49
362.42	9.16
362.788	9.37
363.157	9.18
363.525	9.13
363.894	9.21
364.262	9.05
364.631	9.09
364.999	9.44
365.367	9.49
365.735	9.71
366.104	9.6
366.472	9.37
366.84	9.74
367.208	9.62
367.576	9.99
367.944	9.52
368.312	9.52
368.68	9.55
369.048	9.64
369.416	9.92
369.783	9.94
370.151	9.7
370.519	10.22
370.886	9.81
371.254	9.76
371.621	10.14
371.989	9.82
372.356	9.96
372.724	9.89
373.091	9.94
373.458	9.73
373.826	9.95
374.193	10.05
374.56	10.21
374.927	9.88
375.294	9.89
375.661	10.3
376.028	9.97
376.395	10.51
376.762	10.14
377.129	9.94
377.496	10.32
377.863	9.94
378.229	10.19
378.596	10.45
378.963	10.4
379.329	10.33
379.696	10.18
380.062	10.29
380.429	10.26
380.795	10.38
381.161	10.47
381.528	10.65
381.894	10.54
382.26	10.37
382.626	10.61
382.993	10.29
383.359	10.38
383.725	10.63
384.091	10.49
384.457	10.66
384.823	10.73
385.188	10.54
385.554	10.56
385.92	11.05
386.286	10.78
386.651	10.81
387.017	10.6
387.383	10.81
387.748	10.95
388.114	11.01
388.479	10.67
388.845	10.86
389.21	10.76
389.575	10.87
389.94	10.96
390.306	10.86
390.671	10.91
391.036	11.29
391.401	11.27
391.766	11.51
392.131	10.97
392.496	11.22
392.861	11.05
393.226	11.35
393.591	11.19
393.956	11.29
394.32	11.28
394.685	11.4
395.05	11.21
395.414	11.35
395.779	11.25
396.143	11.33
396.508	11.51
396.872	11.26
397.236	11.41
397.601	11.51
397.965	11.29
398.329	11.7
398.694	11.77
399.058	11.51
399.422	11.7
399.786	11.66
400.15	11.63
400.514	11.66
400.878	11.76
401.242	11.82
401.605	11.49
401.969	11.62
402.333	11.74
402.697	11.86
403.06	11.86
403.424	11.83
403.787	11.97
404.151	12.1
404.514	12.22
404.878	11.87
405.241	11.88
405.604	12.02
405.968	11.89
406.331	11.77
406.694	11.84
407.057	11.9
407.42	11.99
407.783	11.79
408.146	12.04
408.509	12.12
408.872	12.23
409.235	12.25
409.598	12.27
409.961	12.31
410.323	12.34
410.686	12.48
411.049	12.34
411.411	12.33
411.774	12.41
412.136	12.29
412.499	12.55
412.861	12.34
413.223	12.31
413.586	12.29
413.948	12.38
414.31	12.32
414.672	12.43
415.035	12.56
415.397	12.51
415.759	12.82
416.121	12.61
416.483	12.69
416.845	12.43
417.206	12.72
417.568	12.7
417.93	12.63
418.292	12.6
418.653	12.7
419.015	12.71
419.377	12.58
419.738	12.56
420.1	12.6
420.461	12.64
420.822	12.7
421.184	12.53
421.545	12.57
421.906	12.6
422.267	12.67
422.629	12.54
422.99	12.63
423.351	12.68
423.712	12.49
424.073	12.67
424.434	12.85
424.795	12.71
425.155	12.81
425.516	12.73
425.877	12.66
426.238	12.66
426.598	12.78
426.959	12.92
427.32	12.89
427.68	13.21
428.041	13.06
428.401	13.19
428.761	13.35
429.122	13.31
429.482	13.41
429.842	13.31
430.202	13.51
430.563	13.47
430.923	13.48
431.283	13.62
431.643	13.45
432.003	13.3
432.363	13.39
432.722	13.41
433.082	13.57
433.442	13.82
433.802	13.54
434.161	13.67
434.521	13.62
434.881	13.35
435.24	13.53
435.6	13.69
435.959	13.38
436.319	13.69
436.678	13.54
437.037	13.73
437.396	13.79
437.756	13.67
438.115	13.73
438.474	13.77
438.833	13.87
439.192	13.81
439.551	13.83
439.91	13.93
440.269	13.82
440.628	13.78
440.987	13.8
441.345	13.8
441.704	13.82
442.063	14.05
442.421	13.91
442.78	13.86
443.138	13.86
443.497	13.9
443.855	14.07
444.214	14.21
444.572	14.19
444.93	14.13
445.288	14.2
445.647	14.26
446.005	14.29
446.363	14.12
446.721	14.23
447.079	14.12
447.437	13.95
447.795	14.21
448.153	14.09
448.51	14.11
448.868	14.21
449.226	14.22
449.584	14.13
449.941	14.27
450.299	14.36
450.656	14.57
451.014	14.51
451.371	14.6
451.729	14.49
452.086	14.52
452.443	14.62
452.801	14.72
453.158	14.64
453.515	14.71
453.872	14.8
454.229	14.89
454.586	14.77
454.943	14.76
455.3	14.94
455.657	14.63
456.014	14.71
456.371	14.89
456.727	14.9
457.084	14.92
457.441	15.17
457.797	15.06
458.154	15
458.51	15.21
458.867	15.1
459.223	15.17
459.58	15.03
459.936	15.18
460.292	15.05
460.648	14.93
461.005	15.18
461.361	14.89
461.717	14.81
462.073	14.98
462.429	14.88
462.785	15.09
463.141	15.28
463.496	15.3
463.852	15.4
464.208	15.49
464.564	15.43
464.919	15.44
465.275	15.46
465.631	15.5
465.986	15.43
466.342	15.46
466.697	15.39
467.052	15.55
467.408	15.97
467.763	15.55
468.118	15.72
468.473	15.65
468.829	15.45
469.184	15.71
469.539	15.68
469.894	15.72
470.249	15.8
470.603	15.61
470.958	15.77
471.313	15.71
471.668	15.7
472.023	15.98
472.377	15.94
472.732	15.92
473.086	16.06
473.441	16.16
473.795	16.07
474.15	15.87
474.504	15.93
474.859	15.91
475.213	16.04
475.567	16.18
475.921	16.18
476.275	16.06
476.63	16.19
476.984	16.15
477.338	16.06
477.692	16.44
478.045	16.24
478.399	16.1
478.753	16.13
479.107	16.34
479.461	16.21
479.814	16.24
480.168	16.46
480.521	16.4
480.875	16.31
481.228	16.49
481.582	16.29
481.935	16.31
482.289	16.22
482.642	16.39
482.995	16.34
483.348	16.33
483.701	16.16
484.055	16.39
484.408	16.15
484.761	16.04
485.114	15.77
485.466	15.67
485.819	15.62
486.172	15.73
486.525	15.84
486.878	16.02
487.23	16.12
487.583	16.28
487.936	16.25
488.288	16.31
488.641	16.2
488.993	16.05
489.345	16.06
489.698	16.03
490.05	16.17
490.402	16.13
490.754	16.41
491.107	16.44
491.459	16.64
491.811	16.58
492.163	16.84
492.515	16.67
492.866	16.52
493.218	16.34
493.57	16.38
493.922	16.46
494.274	16.52
494.625	16.75
494.977	16.7
495.328	17.12
495.68	17.12
496.031	17.21
496.383	17.26
496.734	17.41
497.086	17.15
497.437	17.39
497.788	17.46
498.139	17.24
498.49	17.23
498.842	17.11
499.193	17.26
499.544	17.14
499.894	17.37
500.245	17.42
500.596	17.51
500.947	17.35
501.298	17.52
501.648	17.62
501.999	17.58
502.35	17.58
502.7	17.62
503.051	17.71
503.401	17.86
503.752	17.84
504.102	17.89
504.452	17.8
504.803	17.82
505.153	17.8
505.503	17.92
505.853	17.94
506.203	18.02
506.553	18.04
506.903	17.84
507.253	17.93
507.603	17.99
507.953	17.99
508.303	18.03
508.652	18.13
509.002	18.05
509.352	17.91
509.701	18.02
510.051	17.97
510.4	18.04
510.75	17.95
511.099	18.01
511.449	17.98
511.798	18.2
512.147	18.09
512.496	18.18
512.846	18.18
513.195	18.25
513.544	18.28
513.893	18.03
514.242	18.15
514.591	18.17
514.939	18.42
515.288	18.41
515.637	18.38
515.986	18.34
516.334	18.58
516.683	18.5
517.032	18.62
517.38	18.57
517.729	18.51
518.077	18.63
518.426	18.64
518.774	18.49
519.122	18.58
519.47	18.51
519.819	18.41
520.167	18.41
520.515	18.39
520.863	18.33
521.211	18.42
521.559	18.42
521.907	18.65
522.255	18.69
522.602	18.63
522.95	18.79
523.298	18.95
523.645	18.95
523.993	19.03
524.341	19.04
524.688	19.08
525.036	18.94
525.383	18.75
525.73	19
526.078	19.04
526.425	19.02
526.772	18.9
527.119	18.74
527.466	18.74
527.814	18.67
528.161	18.75
528.508	18.87
528.854	18.85
529.201	18.94
529.548	18.75
529.895	18.52
530.242	18.45
530.588	18.45
530.935	18.51
531.282	18.52
531.628	18.55
531.975	18.77
532.321	18.89
532.667	19.14
533.014	19.15
533.36	19.04
533.706	19.22
534.052	19.29
534.399	19.16
534.745	18.93
535.091	18.85
535.437	18.91
535.783	19
536.129	19.12
536.474	19.27
536.82	19.37
537.166	19.46
537.512	19.61
537.857	19.55
538.203	19.36
538.549	19.38
538.894	19.46
539.239	19.41
539.585	19.61
539.93	19.76
540.276	19.86
540.621	20.01
540.966	19.95
541.311	19.92
541.656	20.04
542.001	19.82
542.346	19.76
542.691	19.49
543.036	19.4
543.381	19.43
543.726	19.39
544.071	19.43
544.415	19.67
544.76	19.62
545.105	19.68
545.449	19.77
545.794	20
546.138	20.07
546.483	20.07
546.827	19.98
547.171	20.21
547.516	20.2
547.86	20.18
548.204	20.25
548.548	20.14
548.892	20.1
549.236	20.25
549.58	20.32
549.924	20.54
550.268	20.42
550.612	20.74
550.956	20.62
551.3	20.7
551.643	20.77
551.987	20.73
552.33	21.03
552.674	20.91
553.017	20.87
553.361	20.94
553.704	20.98
554.048	20.8
554.391	20.62
554.734	20.78
555.077	20.75
555.42	20.91
555.764	21.04
556.107	20.82
556.45	21.03
556.793	21.23
557.135	21.27
557.478	20.98
557.821	21.15
558.164	21.26
558.507	21.17
558.849	21.26
559.192	21.35
559.534	21.38
559.877	21.41
560.219	21.2
560.562	21.23
560.904	21.32
561.246	21.52
561.589	21.38
561.931	21.17
562.273	21.57
562.615	21.43
562.957	21.58
563.299	21.6
563.641	21.49
563.983	21.32
564.325	21.44
564.667	21.52
565.008	21.56
565.35	21.61
565.692	21.72
566.033	21.56
566.375	21.81
566.716	21.52
567.058	21.66
567.399	21.78
567.741	21.63
568.082	21.71
568.423	21.63
568.764	21.74
569.105	21.69
569.447	21.76
569.788	21.98
570.129	22.01
570.47	21.95
570.811	21.96
571.151	21.89
571.492	22.07
571.833	21.96
572.174	21.76
572.514	21.99
572.855	21.87
573.195	21.93
573.536	22.04
573.876	21.82
574.217	21.93
574.557	21.87
574.898	22.12
575.238	22.03
575.578	22.22
575.918	22.04
576.258	22.25
576.598	22.34
576.938	22.12
577.278	22.2
577.618	22.24
577.958	22.15
578.298	22.41
578.638	22.39
578.977	22.4
579.317	22.62
579.657	22.46
579.996	22.47
580.336	22.62
580.675	22.53
581.014	22.81
581.354	22.67
581.693	22.81
582.032	22.49
582.372	22.68
582.711	22.75
583.05	22.52
583.389	22.75
583.728	22.95
584.067	22.99
584.406	22.87
584.745	23.05
585.083	22.97
585.422	22.96
585.761	22.83
586.1	22.96
586.438	22.93
586.777	23.12
587.115	23.27
587.454	23
587.792	23.03
588.13	23.27
588.469	23.22
588.807	23.27
589.145	23.22
589.483	23.31
589.821	22.98
590.159	23.24
590.497	22.89
590.835	23.47
591.173	23.15
591.511	23.37
591.849	23.11
592.187	23.43
592.524	23.39
592.862	23.27
593.2	23.22
593.537	23.18
593.875	23.56
594.212	23.5
594.55	23.45
594.887	23.55
595.224	23.55
595.561	23.51
595.899	23.26
596.236	23.67
596.573	23.38
596.91	23.57
597.247	23.75
597.584	23.48
597.921	23.5
598.258	23.66
598.594	23.55
598.931	23.26
599.268	23.61
599.604	23.45
599.941	23.52
600.277	23.54
600.614	23.45
600.95	23.62
601.287	23.67
601.623	23.68
601.959	23.71
602.296	23.88
602.632	23.83
602.968	23.92
603.304	23.94
603.64	23.82
603.976	24.16
604.312	23.61
604.648	23.74
604.984	23.81
605.319	23.83
605.655	23.7
605.991	23.79
606.326	23.74
606.662	23.83
606.998	23.79
607.333	23.97
607.668	24.01
608.004	23.97
608.339	24
608.674	23.99
609.01	24.06
609.345	24.14
609.68	24.19
610.015	24.39
610.35	24.11
610.685	24.1
611.02	23.92
611.355	24.22
611.689	24.25
612.024	24.12
612.359	24.19
612.694	24.34
613.028	24.18
613.363	24.3
613.697	24.41
614.032	24.51
614.366	24.59
614.7	24.37
615.035	24.59
615.369	24.36
615.703	24.55
616.037	24.35
616.371	24.53
616.705	24.58
617.039	24.22
617.373	24.55
617.707	24.87
618.041	24.86
618.375	24.71
618.709	24.57
619.042	24.58
619.376	24.68
619.71	25.07
620.043	25.03
620.377	24.53
620.71	24.8
621.043	24.9
621.377	24.94
621.71	24.99
622.043	24.99
622.376	24.97
622.709	24.72
623.043	25.07
623.376	25.16
623.709	24.69
624.041	25.27
624.374	24.83
624.707	24.87
625.04	25.55
625.373	25.37
625.705	25.33
626.038	25.24
626.37	25.11
626.703	25.4
627.035	24.92
627.368	24.91
627.7	25.2
628.032	24.97
628.365	25.1
628.697	25.18
629.029	25.28
629.361	25.17
629.693	25.15
630.025	25.4
630.357	25.12
630.689	25.4
631.021	25.63
631.353	25.3
631.684	25.51
632.016	25.63
632.348	25.54
632.679	25.42
633.011	25.39
633.342	25.67
633.674	25.48
634.005	25.1
634.336	25.89
634.668	25.4
634.999	25.72
635.33	25.77
635.661	25.63
635.992	25.75
636.323	25.62
636.654	25.52
636.985	25.58
637.316	25.58
637.647	25.87
637.977	25.68
638.308	25.64
638.639	25.47
638.969	25.78
639.3	25.78
639.63	25.74
639.961	26.04
640.291	26
640.622	25.64
640.952	25.72
641.282	26.19
641.612	25.71
641.943	26.05
642.273	26.22
642.603	25.82
642.933	26.55
643.263	25.89
643.592	26.41
643.922	26.5
644.252	26.25
644.582	26.09
644.911	26.24
645.241	26.31
645.571	26.13
645.9	26.23
646.23	26.31
646.559	26.05
646.888	26.22
647.218	26.95
647.547	26.53
647.876	26.2
648.205	26.7
648.534	26.19
648.863	26.17
649.192	26.87
649.521	25.89
649.85	26.81
650.179	26.58
650.508	26.42
650.837	26.34
651.165	26.43
651.494	26.78
651.822	26.65
652.151	26.95
652.479	26.78
652.808	26.56
653.136	26.35
653.465	26.78
653.793	26.76
654.121	25.99
654.449	26.38
654.777	26.71
655.105	26.65
655.433	26.53
655.761	27.07
656.089	26.71
656.417	26.89
656.745	26.67
657.073	27.1
657.4	27.3
657.728	27.04
658.056	26.8
658.383	25.98
658.711	26.4
659.038	26.88
659.365	27.07
659.693	27.52
660.02	27.44
660.347	26.68
660.674	26.61
661.001	26.96
661.329	26.9
661.656	26.93
661.982	26.75
662.309	27.31
662.636	27.12
662.963	26.77
663.29	27.02
663.616	26.94
663.943	27.67
664.27	27.27
664.596	27.6
664.923	26.97
665.249	26.97
665.576	27.25
665.902	26.91
666.228	26.85
666.554	27.04
666.881	26.89
667.207	26.79
667.533	27.71
667.859	27.51
668.185	26.97
668.511	27.02
668.837	27.53
669.162	27.65
669.488	27.54
669.814	27.55
670.139	27.21
670.465	26.76
670.791	26.93
671.116	27.2
671.442	27.35
671.767	27.7
672.092	26.96
