Data from 2019-4_chest_Reflection__4__194.txt Node

Date: Fri Nov 11 18:26:20 CST 2022
User: ToomeyLab
Spectrometer: FLMS14357
Trigger mode: 0
Integration Time (sec): 1.000000E-2
Scans to average: 100
Electric dark correction enabled: true
Nonlinearity correction enabled: false
Boxcar width: 0
XAxis mode: Wavelengths
Number of Pixels in Spectrum: 2048
>>>>>Begin Spectral Data<<<<<
189.047	99.33
189.435	99.33
189.823	99.33
190.211	9.86
190.599	28.64
190.987	148.39
191.375	-9.92
191.763	75.24
192.151	-48
192.538	537.79
192.926	39.22
193.314	196.99
193.702	-639.63
194.089	26.39
194.477	-59.76
194.864	-133.33
195.252	-176.25
195.639	131.45
196.027	12.6
196.414	-21.58
196.801	109.94
197.189	45.53
197.576	589.18
197.963	-50.63
198.351	7.13
198.738	56.89
199.125	-13.11
199.512	-38.15
199.899	-4.19
200.286	-58.54
200.673	27.53
201.06	10.85
201.447	35.72
201.833	18.13
202.22	-26.35
202.607	38.77
202.994	34.67
203.38	-11.58
203.767	29.17
204.154	-4.11
204.54	18.88
204.927	-52.14
205.313	2.14
205.699	-1.89
206.086	-31.5
206.472	-48.08
206.858	1.59
207.245	24.88
207.631	-20.84
208.017	-48.97
208.403	-6.3
208.789	54.45
209.175	-59.74
209.561	7
209.947	-12.27
210.333	56.2
210.719	40.83
211.105	4.92
211.491	31.31
211.876	35.53
212.262	4.41
212.648	27.34
213.034	-0.18
213.419	-38.2
213.805	12.14
214.19	13.5
214.576	0.74
214.961	19.12
215.346	-11.2
215.732	24.69
216.117	47.9
216.502	19.71
216.888	-6.33
217.273	4.44
217.658	-16.71
218.043	1.1
218.428	14.38
218.813	13.54
219.198	3.76
219.583	1.44
219.968	-10.36
220.353	18.63
220.738	1.65
221.122	-15.98
221.507	13.33
221.892	23.21
222.276	19.73
222.661	39.33
223.046	-1.9
223.43	1.74
223.815	0.28
224.199	-3.73
224.583	15.9
224.968	13.67
225.352	15.35
225.736	-1.99
226.121	-1.92
226.505	0.89
226.889	7.75
227.273	2.67
227.657	4.29
228.041	1.04
228.425	0.02
228.809	5.05
229.193	5.53
229.577	2.77
229.961	5.21
230.344	3.89
230.728	3.34
231.112	4
231.495	4.07
231.879	4.44
232.263	4
232.646	2.8
233.03	4.29
233.413	4.69
233.797	3.76
234.18	2.22
234.563	4.72
234.946	2.08
235.33	3.03
235.713	1.14
236.096	3.03
236.479	1.75
236.862	2.56
237.245	4.15
237.628	2.86
238.011	1.8
238.394	5.3
238.777	3.92
239.16	2.54
239.543	5.34
239.925	3.33
240.308	3.19
240.691	4.64
241.073	2.64
241.456	3.65
241.838	4.15
242.221	3.92
242.603	2.93
242.986	3.17
243.368	3.56
243.75	3.34
244.133	3.58
244.515	4.03
244.897	3.38
245.279	3.33
245.661	3.23
246.043	2.69
246.425	3.8
246.807	3.73
247.189	4.05
247.571	3.63
247.953	3.23
248.335	3.43
248.717	3.9
249.098	3.55
249.48	3.24
249.862	3.36
250.243	3.45
250.625	3.25
251.006	2.65
251.388	3.65
251.769	3.3
252.151	3.7
252.532	3.92
252.913	3.18
253.295	3.35
253.676	3.67
254.057	3.29
254.438	2.87
254.819	3.76
255.2	4.3
255.581	3.53
255.962	3.79
256.343	3.91
256.724	3.08
257.105	2.99
257.486	2.52
257.867	3.44
258.247	3.18
258.628	3.43
259.009	3.66
259.389	3.1
259.77	3.24
260.15	3.24
260.531	3.24
260.911	3.04
261.292	2.98
261.672	3.29
262.052	3.09
262.432	2.96
262.813	3.76
263.193	3.24
263.573	2.86
263.953	3.33
264.333	2.68
264.713	2.86
265.093	3.29
265.473	3.68
265.853	3.4
266.233	3.55
266.612	2.91
266.992	3.05
267.372	3.09
267.752	3.55
268.131	3.71
268.511	3.03
268.89	3.35
269.27	3.19
269.649	3.48
270.029	3.03
270.408	3.17
270.787	3.46
271.167	3.64
271.546	3.48
271.925	3.6
272.304	3.6
272.683	3.14
273.062	2.94
273.441	2.59
273.82	3.53
274.199	2.96
274.578	3.12
274.957	3.62
275.336	3.12
275.715	3.27
276.093	2.64
276.472	2.92
276.851	3.58
277.229	3.26
277.608	2.86
277.986	3.55
278.365	2.75
278.743	3.1
279.122	3.12
279.5	3
279.878	2.73
280.257	3.27
280.635	2.93
281.013	2.82
281.391	2.88
281.769	2.25
282.147	3.2
282.525	3.57
282.903	3.38
283.281	3.86
283.659	3.52
284.037	3.22
284.415	3.08
284.792	3.35
285.17	3.18
285.548	3.16
285.925	2.98
286.303	2.97
286.68	3.09
287.058	3.39
287.435	3.21
287.813	3.5
288.19	3.11
288.567	2.83
288.945	2.8
289.322	3.27
289.699	3.29
290.076	3.22
290.453	3.04
290.83	3.05
291.207	3.06
291.584	3.41
291.961	2.86
292.338	3.34
292.715	3.37
293.092	3.23
293.469	2.79
293.845	2.96
294.222	3.54
294.599	2.8
294.975	2.77
295.352	3.38
295.728	3.01
296.105	3.46
296.481	3.56
296.858	3.66
297.234	3.36
297.61	3.05
297.986	2.97
298.363	3.42
298.739	3.01
299.115	3.48
299.491	3.19
299.867	3.6
300.243	3.27
300.619	3.58
300.995	3.3
301.371	3.79
301.746	2.82
302.122	3.32
302.498	3.85
302.874	3.36
303.249	3.38
303.625	3.4
304	3.78
304.376	2.79
304.751	3.33
305.127	3.5
305.502	3.15
305.878	3.51
306.253	3.59
306.628	3.29
307.003	3.5
307.378	2.78
307.754	3.07
308.129	3.4
308.504	3.13
308.879	3.92
309.254	3.05
309.629	3.79
310.003	3.68
310.378	3.76
310.753	3.33
311.128	3.77
311.502	3.11
311.877	3.53
312.252	3.87
312.626	3.72
313.001	3.9
313.375	3.24
313.75	3.65
314.124	3.5
314.498	3.56
314.873	3.4
315.247	3.47
315.621	3.91
315.995	3.72
316.369	3.61
316.743	3.79
317.117	3.58
317.491	3.47
317.865	3.89
318.239	4.09
318.613	3.78
318.987	3.84
319.361	3.73
319.734	3.51
320.108	3.51
320.482	3.55
320.855	3.61
321.229	3.58
321.602	3.47
321.976	4.38
322.349	4.41
322.723	4.25
323.096	4.04
323.469	3.07
323.843	3.86
324.216	3.66
324.589	4.27
324.962	3.42
325.335	3.42
325.708	3.7
326.081	3.35
326.454	3.68
326.827	3.82
327.2	3.99
327.573	3.8
327.945	4.18
328.318	3.66
328.691	4.02
329.063	3.69
329.436	3.83
329.809	3.86
330.181	3.58
330.553	3.72
330.926	4.01
331.298	3.71
331.671	4.3
332.043	3.86
332.415	3.85
332.787	3.76
333.159	3.77
333.532	3.9
333.904	3.87
334.276	3.69
334.648	3.53
335.02	4.24
335.391	3.5
335.763	4.1
336.135	4.29
336.507	3.77
336.879	4.36
337.25	4.17
337.622	4.39
337.993	3.85
338.365	3.63
338.736	3.87
339.108	4.12
339.479	4.45
339.851	4.25
340.222	3.96
340.593	3.94
340.964	3.67
341.336	4.11
341.707	3.74
342.078	3.94
342.449	4.04
342.82	4.46
343.191	4.06
343.562	4.26
343.933	3.65
344.303	3.94
344.674	4.21
345.045	4.03
345.416	3.96
345.786	4.15
346.157	4.15
346.527	4.31
346.898	3.92
347.268	3.96
347.639	4.22
348.009	3.83
348.38	4.41
348.75	4.15
349.12	4.32
349.49	4.05
349.861	3.78
350.231	4.34
350.601	3.88
350.971	4.28
351.341	4
351.711	4.25
352.081	4.27
352.45	4.01
352.82	4.17
353.19	4.51
353.56	4.4
353.929	3.56
354.299	3.93
354.669	4.33
355.038	4.87
355.408	3.85
355.777	4.37
356.147	4.13
356.516	3.95
356.885	4.24
357.254	4.62
357.624	3.69
357.993	3.75
358.362	3.93
358.731	4.36
359.1	4.17
359.469	3.92
359.838	4.21
360.207	4.43
360.576	4.04
360.945	4.54
361.314	4.31
361.682	4
362.051	4.24
362.42	4.15
362.788	4.05
363.157	4.12
363.525	4.02
363.894	4.05
364.262	4.05
364.631	4.12
364.999	4.12
365.367	4.17
365.735	4.45
366.104	4.44
366.472	4.23
366.84	4.44
367.208	3.95
367.576	4.41
367.944	3.85
368.312	4.11
368.68	3.9
369.048	3.93
369.416	4.28
369.783	4.28
370.151	3.93
370.519	4.16
370.886	3.94
371.254	4.38
371.621	4.53
371.989	4.5
372.356	3.99
372.724	4.13
373.091	4.34
373.458	3.95
373.826	4.45
374.193	4.14
374.56	4.1
374.927	4.12
375.294	4.2
375.661	4.02
376.028	4.28
376.395	4.4
376.762	4.13
377.129	4.22
377.496	4.59
377.863	3.89
378.229	4.24
378.596	4.19
378.963	4.64
379.329	4.31
379.696	4.11
380.062	4.22
380.429	3.89
380.795	4.1
381.161	4.25
381.528	4.46
381.894	4.23
382.26	4.25
382.626	4.17
382.993	4.01
383.359	4.13
383.725	4.38
384.091	4.01
384.457	4.32
384.823	3.99
385.188	4.16
385.554	4.46
385.92	4.43
386.286	4.19
386.651	4.29
387.017	4.28
387.383	4.14
387.748	4.2
388.114	4.22
388.479	4.27
388.845	4.5
389.21	4.1
389.575	4.26
389.94	4.41
390.306	4.57
390.671	4.11
391.036	4.39
391.401	4.37
391.766	4.53
392.131	4.37
392.496	4.29
392.861	4.12
393.226	4.16
393.591	4.38
393.956	4.33
394.32	4.51
394.685	4.4
395.05	4.1
395.414	4.46
395.779	4.02
396.143	4.41
396.508	4.34
396.872	4.12
397.236	4.39
397.601	4.39
397.965	4.31
398.329	4.43
398.694	4.61
399.058	4.51
399.422	4.48
399.786	4.53
400.15	4.34
400.514	4.18
400.878	4.27
401.242	4.14
401.605	4.26
401.969	4.32
402.333	4.24
402.697	4.48
403.06	4.67
403.424	4.51
403.787	4.42
404.151	4.64
404.514	4.47
404.878	4.32
405.241	4.35
405.604	4.44
405.968	4.46
406.331	4.19
406.694	4.42
407.057	4.27
407.42	4.28
407.783	4.26
408.146	4.41
408.509	4.41
408.872	4.54
409.235	4.49
409.598	4.47
409.961	4.65
410.323	4.63
410.686	4.81
411.049	4.42
411.411	4.63
411.774	4.42
412.136	4.54
412.499	4.69
412.861	4.64
413.223	4.42
413.586	4.54
413.948	4.64
414.31	4.55
414.672	4.48
415.035	4.67
415.397	4.58
415.759	4.68
416.121	4.75
416.483	4.59
416.845	4.46
417.206	4.58
417.568	4.47
417.93	4.61
418.292	4.52
418.653	4.44
419.015	4.42
419.377	4.43
419.738	4.62
420.1	4.47
420.461	4.56
420.822	4.57
421.184	4.54
421.545	4.54
421.906	4.48
422.267	4.44
422.629	4.38
422.99	4.6
423.351	4.44
423.712	4.37
424.073	4.44
424.434	4.54
424.795	4.44
425.155	4.41
425.516	4.43
425.877	4.45
426.238	4.41
426.598	4.44
426.959	4.45
427.32	4.46
427.68	4.56
428.041	4.39
428.401	4.55
428.761	4.67
429.122	4.46
429.482	4.63
429.842	4.42
430.202	4.69
430.563	4.69
430.923	4.59
431.283	4.7
431.643	4.5
432.003	4.61
432.363	4.57
432.722	4.57
433.082	4.79
433.442	4.7
433.802	4.4
434.161	4.71
434.521	4.58
434.881	4.51
435.24	4.51
435.6	4.66
435.959	4.56
436.319	4.56
436.678	4.58
437.037	4.71
437.396	4.73
437.756	4.67
438.115	4.49
438.474	4.74
438.833	4.73
439.192	4.6
439.551	4.62
439.91	4.77
440.269	4.77
440.628	4.78
440.987	4.61
441.345	4.68
441.704	4.61
442.063	4.65
442.421	4.67
442.78	4.75
443.138	4.61
443.497	4.75
443.855	4.74
444.214	4.77
444.572	4.79
444.93	4.72
445.288	4.65
445.647	4.73
446.005	4.63
446.363	4.71
446.721	4.78
447.079	4.66
447.437	4.59
447.795	4.63
448.153	4.69
448.51	4.63
448.868	4.69
449.226	4.57
449.584	4.66
449.941	4.67
450.299	4.61
450.656	4.69
451.014	4.86
451.371	4.83
451.729	4.76
452.086	4.9
452.443	4.78
452.801	4.81
453.158	4.73
453.515	4.71
453.872	4.86
454.229	4.79
454.586	4.81
454.943	4.81
455.3	4.81
455.657	4.74
456.014	4.85
456.371	4.87
456.727	4.92
457.084	4.94
457.441	4.82
457.797	4.71
458.154	4.93
458.51	4.96
458.867	4.82
459.223	4.79
459.58	4.81
459.936	4.86
460.292	4.77
460.648	4.87
461.005	4.89
461.361	4.73
461.717	4.78
462.073	4.76
462.429	4.55
462.785	4.84
463.141	4.75
463.496	4.78
463.852	4.96
464.208	4.83
464.564	4.91
464.919	4.93
465.275	4.81
465.631	5.01
465.986	4.79
466.342	4.92
466.697	4.86
467.052	4.92
467.408	5.15
467.763	5.02
468.118	5
468.473	4.95
468.829	4.72
469.184	4.74
469.539	4.99
469.894	4.96
470.249	4.86
470.603	4.95
470.958	4.99
471.313	4.79
471.668	5.02
472.023	5.05
472.377	5.14
472.732	5.04
473.086	5.14
473.441	4.95
473.795	5.11
474.15	4.89
474.504	5.22
474.859	4.96
475.213	4.95
475.567	5.03
475.921	5.07
476.275	5.03
476.63	4.89
476.984	5.05
477.338	4.93
477.692	5.14
478.045	4.94
478.399	4.89
478.753	4.95
479.107	5.09
479.461	5.03
479.814	5.05
480.168	5.07
480.521	5.06
480.875	5.05
481.228	5.02
481.582	5.03
481.935	4.95
482.289	4.97
482.642	5.05
482.995	5.01
483.348	4.94
483.701	5.01
484.055	5.03
484.408	4.89
484.761	4.84
485.114	4.83
485.466	4.74
485.819	4.7
486.172	4.73
486.525	4.74
486.878	4.84
487.23	4.87
487.583	4.87
487.936	4.96
488.288	4.91
488.641	4.91
488.993	4.86
489.345	4.83
489.698	4.86
490.05	4.86
490.402	4.88
490.754	4.93
491.107	4.95
491.459	5.01
491.811	4.96
492.163	5.09
492.515	5.01
492.866	4.99
493.218	4.88
493.57	4.95
493.922	4.92
494.274	4.97
494.625	4.94
494.977	5
495.328	5.17
495.68	5.19
496.031	5.12
496.383	5.22
496.734	5.23
497.086	5.29
497.437	5.21
497.788	5.28
498.139	5.25
498.49	5.14
498.842	5.18
499.193	5.21
499.544	5.12
499.894	5.25
500.245	5.25
500.596	5.29
500.947	5.16
501.298	5.28
501.648	5.35
501.999	5.37
502.35	5.28
502.7	5.3
503.051	5.33
503.401	5.25
503.752	5.24
504.102	5.31
504.452	5.32
504.803	5.14
505.153	5.47
505.503	5.35
505.853	5.44
506.203	5.45
506.553	5.34
506.903	5.44
507.253	5.43
507.603	5.36
507.953	5.42
508.303	5.5
508.652	5.53
509.002	5.38
509.352	5.43
509.701	5.48
510.051	5.43
510.4	5.43
510.75	5.33
511.099	5.35
511.449	5.5
511.798	5.48
512.147	5.46
512.496	5.4
512.846	5.49
513.195	5.44
513.544	5.49
513.893	5.5
514.242	5.49
514.591	5.45
514.939	5.53
515.288	5.56
515.637	5.49
515.986	5.59
516.334	5.59
516.683	5.53
517.032	5.55
517.38	5.66
517.729	5.65
518.077	5.7
518.426	5.58
518.774	5.52
519.122	5.63
519.47	5.65
519.819	5.53
520.167	5.59
520.515	5.49
520.863	5.6
521.211	5.58
521.559	5.49
521.907	5.66
522.255	5.76
522.602	5.66
522.95	5.64
523.298	5.75
523.645	5.66
523.993	5.76
524.341	5.85
524.688	5.7
525.036	5.78
525.383	5.79
525.73	5.84
526.078	5.8
526.425	5.86
526.772	5.82
527.119	5.65
527.466	5.7
527.814	5.61
528.161	5.66
528.508	5.78
528.854	5.72
529.201	5.81
529.548	5.73
529.895	5.58
530.242	5.64
530.588	5.62
530.935	5.65
531.282	5.61
531.628	5.62
531.975	5.73
532.321	5.75
532.667	5.82
533.014	5.88
533.36	6
533.706	5.88
534.052	5.88
534.399	5.88
534.745	5.81
535.091	5.8
535.437	5.82
535.783	5.84
536.129	5.88
536.474	5.85
536.82	5.92
537.166	6.02
537.512	6.12
537.857	6.14
538.203	6.08
538.549	6.11
538.894	6.09
539.239	6.03
539.585	6.04
539.93	6.28
540.276	6.21
540.621	6.35
540.966	6.29
541.311	6.29
541.656	6.29
542.001	6.21
542.346	6.25
542.691	6.13
543.036	6.14
543.381	6.04
543.726	6.03
544.071	6.1
544.415	6.11
544.76	6.19
545.105	6.21
545.449	6.27
545.794	6.29
546.138	6.38
546.483	6.27
546.827	6.44
547.171	6.45
547.516	6.43
547.86	6.38
548.204	6.39
548.548	6.4
548.892	6.4
549.236	6.54
549.58	6.54
549.924	6.58
550.268	6.53
550.612	6.75
550.956	6.45
551.3	6.57
551.643	6.64
551.987	6.66
552.33	6.71
552.674	6.88
553.017	6.88
553.361	6.84
553.704	6.86
554.048	6.8
554.391	6.74
554.734	6.83
555.077	6.77
555.42	6.87
555.764	6.81
556.107	6.71
556.45	6.94
556.793	6.99
557.135	6.84
557.478	6.74
557.821	6.92
558.164	7.19
558.507	6.95
558.849	7.01
559.192	7.13
559.534	7.17
559.877	7.13
560.219	7.05
560.562	7.14
560.904	7.19
561.246	7.09
561.589	7.2
561.931	7.29
562.273	7.38
562.615	7.19
562.957	7.3
563.299	7.17
563.641	7.38
563.983	7.36
564.325	7.33
564.667	7.15
565.008	7.26
565.35	7.44
565.692	7.39
566.033	7.42
566.375	7.34
566.716	7.21
567.058	7.17
567.399	7.62
567.741	7.51
568.082	7.44
568.423	7.52
568.764	7.47
569.105	7.54
569.447	7.48
569.788	7.52
570.129	7.61
570.47	7.5
570.811	7.61
571.151	7.62
571.492	7.63
571.833	7.67
572.174	7.56
572.514	7.85
572.855	7.69
573.195	7.67
573.536	7.79
573.876	7.66
574.217	7.72
574.557	7.65
574.898	7.93
575.238	8
575.578	7.84
575.918	7.73
576.258	7.93
576.598	7.91
576.938	7.98
577.278	7.93
577.618	8.06
577.958	7.95
578.298	8.22
578.638	8.09
578.977	8.02
579.317	8.25
579.657	8.25
579.996	8.17
580.336	8.04
580.675	8.26
581.014	8.3
581.354	8.61
581.693	8.33
582.032	8.22
582.372	8.05
582.711	8.42
583.05	8.33
583.389	8.4
583.728	8.46
584.067	8.65
584.406	8.54
584.745	8.71
585.083	8.65
585.422	8.46
585.761	8.48
586.1	8.81
586.438	8.53
586.777	8.55
587.115	8.9
587.454	8.77
587.792	8.74
588.13	8.86
588.469	8.63
588.807	8.91
589.145	8.96
589.483	8.95
589.821	8.92
590.159	8.99
590.497	8.64
590.835	9.13
591.173	8.84
591.511	8.9
591.849	8.8
592.187	8.95
592.524	8.88
592.862	8.94
593.2	9.06
593.537	8.79
593.875	9.28
594.212	8.94
594.55	9.13
594.887	9.17
595.224	9.2
595.561	9.48
595.899	9.09
596.236	9.3
596.573	9.1
596.91	9.21
597.247	9.39
597.584	9.15
597.921	9.57
598.258	9.48
598.594	9.27
598.931	9.3
599.268	9.41
599.604	9.2
599.941	9.43
600.277	9.51
600.614	9.53
600.95	9.79
601.287	9.61
601.623	9.59
601.959	9.61
602.296	9.74
602.632	9.68
602.968	9.92
603.304	9.66
603.64	9.79
603.976	9.92
604.312	9.8
604.648	9.65
604.984	9.77
605.319	9.79
605.655	9.67
605.991	9.99
606.326	9.91
606.662	9.87
606.998	9.85
607.333	9.86
607.668	9.86
608.004	10.15
608.339	10.11
608.674	10.2
609.01	10.22
609.345	10.32
609.68	10.14
610.015	10.1
610.35	10.28
610.685	10.3
611.02	10.27
611.355	10.37
611.689	10.32
612.024	10.46
612.359	10.31
612.694	10.49
613.028	10.39
613.363	10.33
613.697	10.38
614.032	10.63
614.366	10.61
614.7	10.51
615.035	10.55
615.369	10.44
615.703	10.72
616.037	10.58
616.371	10.72
616.705	10.92
617.039	10.65
617.373	10.89
617.707	10.95
618.041	10.72
618.375	11.01
618.709	10.71
619.042	10.66
619.376	10.91
619.71	11.02
620.043	11.11
620.377	11.25
620.71	11.17
621.043	11.38
621.377	11.27
621.71	11.07
622.043	11.12
622.376	10.98
622.709	11.18
623.043	11.44
623.376	11.11
623.709	11.05
624.041	11.5
624.374	11.57
624.707	11.2
625.04	11.62
625.373	11.72
625.705	11.61
626.038	11.53
626.37	11.56
626.703	11.54
627.035	11.34
627.368	11.64
627.7	11.73
628.032	11.84
628.365	11.62
628.697	11.82
629.029	11.88
629.361	11.88
629.693	11.42
630.025	12.07
630.357	11.91
630.689	11.92
631.021	11.72
631.353	12.15
631.684	12.08
632.016	11.98
632.348	11.95
632.679	11.76
633.011	12.08
633.342	11.99
633.674	11.71
634.005	11.88
634.336	12.38
634.668	12.15
634.999	12.24
635.33	12.03
635.661	11.94
635.992	12.21
636.323	12.54
636.654	12.47
636.985	12.72
637.316	12.68
637.647	12.35
637.977	12.72
638.308	12.5
638.639	12.41
638.969	12.63
639.3	12.61
639.63	12.5
639.961	12.83
640.291	12.6
640.622	12.56
640.952	12.78
641.282	12.89
641.612	13.01
641.943	13.12
642.273	12.81
642.603	12.68
642.933	12.96
643.263	12.78
643.592	13.2
643.922	13.3
644.252	12.77
644.582	13.02
644.911	12.98
645.241	12.84
645.571	13.19
645.9	13.05
646.23	13.13
646.559	13.06
646.888	13.32
647.218	13.43
647.547	13.79
647.876	13.54
648.205	13.72
648.534	13.18
648.863	13.4
649.192	13.58
649.521	13.18
649.85	13.51
650.179	13.61
650.508	13.26
650.837	13.52
651.165	13.23
651.494	13.51
651.822	13.45
652.151	14.33
652.479	13.72
652.808	13.92
653.136	14.02
653.465	13.91
653.793	14.08
654.121	13.49
654.449	13.61
654.777	13.56
655.105	13.94
655.433	13.76
655.761	13.95
656.089	13.85
656.417	14.27
656.745	13.98
657.073	14.44
657.4	14.24
657.728	13.68
658.056	13.82
658.383	13.75
658.711	14.03
659.038	14.9
659.365	15
659.693	14.41
660.02	14.52
660.347	14.23
660.674	14.11
661.001	14.33
661.329	14.4
661.656	14.2
661.982	14.73
662.309	14.42
662.636	14.75
662.963	14.38
663.29	15.05
663.616	14.33
663.943	14.76
664.27	14.66
664.596	14.75
664.923	14.12
665.249	14.35
665.576	15.07
665.902	15.11
666.228	14.2
666.554	15.46
666.881	14.62
667.207	14.75
667.533	15.34
667.859	14.45
668.185	14.32
668.511	15.01
668.837	14.98
669.162	15.46
669.488	15.33
669.814	15.13
670.139	14.95
670.465	14.64
670.791	15.11
671.116	14.88
671.442	15.38
671.767	15.76
672.092	15.22
672.418	15.06
672.743	14.85
673.068	15.85
673.393	15.68
673.718	15.62
674.043	15.48
674.368	16.48
674.693	16.12
675.018	15.84
675.343	15.42
675.667	16.05
675.992	15.73
676.317	15.17
676.641	15.95
676.966	15.55
677.29	15.6
677.615	15.63
677.939	16.23
678.264	16.64
678.588	16.09
678.912	15.77
679.236	15.44
679.56	15.52
679.885	16.58
680.209	16.04
680.532	15.42
680.856	16.51
681.18	15.42
681.504	16.21
681.828	16.2
682.152	16.32
682.475	16.29
682.799	16.6
683.122	15.85
683.446	16.74
683.769	16.72
684.093	16.28
684.416	16.81
684.739	16.79
685.062	16.61
685.386	15.92
685.709	16.51
686.032	16.84
686.355	16.49
686.678	16.28
