Data from 2019-4_chest_Reflection__1__191.txt Node

Date: Fri Nov 11 18:25:30 CST 2022
User: ToomeyLab
Spectrometer: FLMS14357
Trigger mode: 0
Integration Time (sec): 1.000000E-2
Scans to average: 100
Electric dark correction enabled: true
Nonlinearity correction enabled: false
Boxcar width: 0
XAxis mode: Wavelengths
Number of Pixels in Spectrum: 2048
>>>>>Begin Spectral Data<<<<<
189.047	16.29
189.435	16.29
189.823	16.29
190.211	66.47
190.599	15.95
190.987	100.39
191.375	-519.42
191.763	-15.7
192.151	-599.65
192.538	232.6
192.926	366.1
193.314	128.06
193.702	-9.45
194.089	-89.42
194.477	178.26
194.864	-52.25
195.252	197.77
195.639	102.21
196.027	-18.71
196.414	-178.59
196.801	54.04
197.189	45.21
197.576	-72.26
197.963	60.73
198.351	7.78
198.738	9.03
199.125	22.09
199.512	-26.92
199.899	40.36
200.286	-60.02
200.673	-6.97
201.06	-8.9
201.447	8.92
201.833	57.88
202.22	23.57
202.607	47.22
202.994	65.11
203.38	-4.15
203.767	10.01
204.154	-37.79
204.54	2.72
204.927	3.99
205.313	45.53
205.699	15.63
206.086	20.48
206.472	-64.79
206.858	-9.82
207.245	14.6
207.631	-27.74
208.017	-3.72
208.403	-0.53
208.789	40.6
209.175	-19.22
209.561	15.93
209.947	13.97
210.333	41.15
210.719	41
211.105	-0.78
211.491	2.13
211.876	-21.29
212.262	-18.24
212.648	3.78
213.034	2.16
213.419	6.85
213.805	16.36
214.19	-1.54
214.576	6.23
214.961	13.12
215.346	-0.78
215.732	23.69
216.117	35.48
216.502	17.95
216.888	-29.06
217.273	13.82
217.658	-3.89
218.043	-1.72
218.428	21.91
218.813	-1.58
219.198	-18.58
219.583	2.44
219.968	-20.59
220.353	-4.42
220.738	-6.67
221.122	-35.32
221.507	18.45
221.892	15.87
222.276	3.74
222.661	7.64
223.046	1.7
223.43	7.01
223.815	-6.2
224.199	2.29
224.583	14.24
224.968	7.31
225.352	8.31
225.736	-2.65
226.121	-0.57
226.505	11.17
226.889	4.65
227.273	2.23
227.657	7.5
228.041	5.73
228.425	-1.14
228.809	10.17
229.193	3.89
229.577	5.52
229.961	6.49
230.344	5.08
230.728	5.39
231.112	5.65
231.495	7.03
231.879	5.39
232.263	5.69
232.646	5.55
233.03	5.75
233.413	6.12
233.797	5.91
234.18	3.73
234.563	3.34
234.946	3.17
235.33	7.36
235.713	3.43
236.096	7.64
236.479	3.82
236.862	6.38
237.245	6.89
237.628	3.46
238.011	3.34
238.394	4.33
238.777	5.81
239.16	4.06
239.543	5.98
239.925	4.97
240.308	5.79
240.691	5.97
241.073	6.76
241.456	5.47
241.838	4.76
242.221	4.52
242.603	3.8
242.986	5.35
243.368	4.89
243.75	4.43
244.133	4.72
244.515	4.84
244.897	4.99
245.279	4.89
245.661	4.46
246.043	4.51
246.425	4.34
246.807	5.38
247.189	5.4
247.571	5.14
247.953	4.1
248.335	4.79
248.717	4.81
249.098	4.74
249.48	4.82
249.862	4.76
250.243	4.65
250.625	4.9
251.006	3.8
251.388	4.54
251.769	4.47
252.151	5.33
252.532	3.87
252.913	4.29
253.295	4.23
253.676	5.19
254.057	4.03
254.438	3.78
254.819	4.29
255.2	5.41
255.581	4.81
255.962	5.29
256.343	4.42
256.724	3.92
257.105	4.34
257.486	4.05
257.867	4.61
258.247	5.17
258.628	4.36
259.009	4.05
259.389	4.23
259.77	4.39
260.15	3.94
260.531	4.34
260.911	4.17
261.292	4.35
261.672	4.33
262.052	4.29
262.432	4.05
262.813	4.52
263.193	4.69
263.573	3.94
263.953	4.8
264.333	3.8
264.713	4.5
265.093	4.57
265.473	4.64
265.853	4.2
266.233	4.6
266.612	4.77
266.992	4.15
267.372	4.66
267.752	4.36
268.131	4.78
268.511	4.19
268.89	4.82
269.27	4.04
269.649	4.4
270.029	3.98
270.408	4.14
270.787	4.76
271.167	4.47
271.546	4.47
271.925	4.32
272.304	4.34
272.683	4.54
273.062	4.4
273.441	3.76
273.82	4.56
274.199	4.21
274.578	4.05
274.957	4.38
275.336	3.78
275.715	4.54
276.093	4.51
276.472	4.88
276.851	4.35
277.229	4.37
277.608	4.33
277.986	4.53
278.365	4.02
278.743	4.44
279.122	4.49
279.5	3.87
279.878	5
280.257	4.54
280.635	4.31
281.013	3.9
281.391	3.85
281.769	3.6
282.147	4.42
282.525	4.34
282.903	4.55
283.281	4.82
283.659	4.29
284.037	4.06
284.415	3.72
284.792	4.11
285.17	4.63
285.548	4.17
285.925	3.92
286.303	4.08
286.68	4.1
287.058	4.32
287.435	4.27
287.813	4.16
288.19	4.18
288.567	3.59
288.945	3.7
289.322	4.08
289.699	4.46
290.076	4.18
290.453	4.19
290.83	4.19
291.207	3.78
291.584	4.06
291.961	4.14
292.338	4.52
292.715	4.34
293.092	4.12
293.469	3.96
293.845	4.24
294.222	4.38
294.599	4.11
294.975	3.96
295.352	4.02
295.728	3.93
296.105	4
296.481	4.37
296.858	4.02
297.234	4.32
297.61	4.09
297.986	4.09
298.363	3.93
298.739	4.08
299.115	4.22
299.491	4.22
299.867	4.44
300.243	3.74
300.619	3.39
300.995	4.16
301.371	4.25
301.746	3.38
302.122	4.11
302.498	4.46
302.874	4.51
303.249	4.15
303.625	4.17
304	4.05
304.376	4
304.751	3.94
305.127	3.94
305.502	4.11
305.878	4.28
306.253	3.95
306.628	3.61
307.003	4.53
307.378	3.65
307.754	3.73
308.129	4.04
308.504	3.34
308.879	4.49
309.254	4.06
309.629	3.96
310.003	4.48
310.378	4.1
310.753	4.16
311.128	4.4
311.502	3.71
311.877	3.94
312.252	4.3
312.626	4.11
313.001	4.05
313.375	3.82
313.75	4.05
314.124	4.07
314.498	3.91
314.873	3.96
315.247	4.25
315.621	4.05
315.995	4.09
316.369	3.7
316.743	4.23
317.117	4.14
317.491	3.71
317.865	4.41
318.239	4.6
318.613	4.05
318.987	4.23
319.361	4.43
319.734	4.25
320.108	3.79
320.482	4.26
320.855	3.69
321.229	4.15
321.602	3.89
321.976	4.17
322.349	4.8
322.723	4.02
323.096	3.65
323.469	3.93
323.843	3.94
324.216	3.57
324.589	3.96
324.962	3.45
325.335	3.33
325.708	3.93
326.081	3.39
326.454	4.1
326.827	3.91
327.2	4.31
327.573	3.59
327.945	4.4
328.318	4.06
328.691	3.94
329.063	4.16
329.436	3.83
329.809	4.15
330.181	3.56
330.553	3.47
330.926	3.76
331.298	3.49
331.671	3.74
332.043	3.84
332.415	3.82
332.787	3.56
333.159	3.88
333.532	3.96
333.904	3.81
334.276	4.19
334.648	3.46
335.02	4.24
335.391	4.13
335.763	4.02
336.135	4.19
336.507	4.17
336.879	3.89
337.25	3.85
337.622	4.09
337.993	4.17
338.365	4.1
338.736	4.1
339.108	3.84
339.479	3.82
339.851	4.09
340.222	3.54
340.593	3.83
340.964	3.7
341.336	3.81
341.707	3.74
342.078	4.22
342.449	4
342.82	3.96
343.191	3.99
343.562	4.17
343.933	3.57
344.303	4.03
344.674	3.59
345.045	4
345.416	3.76
345.786	3.79
346.157	4.06
346.527	4.21
346.898	4.07
347.268	4.04
347.639	4.01
348.009	3.95
348.38	4.11
348.75	3.95
349.12	4.1
349.49	3.99
349.861	3.68
350.231	4.03
350.601	4.04
350.971	3.87
351.341	3.78
351.711	3.99
352.081	3.78
352.45	3.84
352.82	4.09
353.19	3.93
353.56	4.38
353.929	3.38
354.299	3.61
354.669	4.06
355.038	4.28
355.408	3.68
355.777	4
356.147	3.95
356.516	3.97
356.885	3.78
357.254	4.18
357.624	3.52
357.993	3.58
358.362	3.84
358.731	3.64
359.1	4.18
359.469	4.11
359.838	3.98
360.207	3.98
360.576	3.83
360.945	3.79
361.314	4.17
361.682	4.02
362.051	4.11
362.42	3.7
362.788	3.94
363.157	3.84
363.525	3.69
363.894	3.8
364.262	3.75
364.631	3.9
364.999	3.89
365.367	3.75
365.735	4.02
366.104	3.85
366.472	4.02
366.84	3.96
367.208	4.01
367.576	3.71
367.944	3.89
368.312	3.49
368.68	3.88
369.048	3.76
369.416	3.89
369.783	4.04
370.151	3.85
370.519	3.78
370.886	3.82
371.254	3.99
371.621	3.75
371.989	4.21
372.356	3.87
372.724	3.96
373.091	3.77
373.458	3.66
373.826	4.07
374.193	3.83
374.56	3.7
374.927	4.04
375.294	3.75
375.661	4.14
376.028	4.2
376.395	4.19
376.762	4.01
377.129	3.86
377.496	4.08
377.863	3.42
378.229	3.88
378.596	4.15
378.963	3.94
379.329	3.85
379.696	3.93
380.062	3.91
380.429	3.95
380.795	3.88
381.161	4.02
381.528	4.09
381.894	3.66
382.26	3.62
382.626	3.74
382.993	3.77
383.359	3.64
383.725	3.86
384.091	4.02
384.457	3.83
384.823	3.85
385.188	3.88
385.554	3.82
385.92	4.11
386.286	4.14
386.651	3.87
387.017	4.03
387.383	3.82
387.748	3.56
388.114	3.83
388.479	3.91
388.845	4.05
389.21	3.79
389.575	3.61
389.94	3.9
390.306	3.75
390.671	3.88
391.036	4.07
391.401	4.16
391.766	4.19
392.131	3.93
392.496	3.63
392.861	3.7
393.226	3.71
393.591	3.9
393.956	3.95
394.32	3.75
394.685	3.78
395.05	3.77
395.414	4.04
395.779	3.9
396.143	4.03
396.508	3.76
396.872	3.63
397.236	3.79
397.601	3.76
397.965	3.89
398.329	3.91
398.694	4.11
399.058	3.95
399.422	3.92
399.786	3.94
400.15	3.95
400.514	3.94
400.878	3.84
401.242	3.76
401.605	3.66
401.969	3.74
402.333	3.76
402.697	4.07
403.06	4.09
403.424	3.95
403.787	3.86
404.151	3.86
404.514	4.12
404.878	3.89
405.241	3.81
405.604	3.73
405.968	3.92
406.331	3.85
406.694	3.86
407.057	3.78
407.42	3.72
407.783	3.82
408.146	3.89
408.509	3.85
408.872	3.86
409.235	4.11
409.598	3.84
409.961	4.14
410.323	3.78
410.686	3.98
411.049	3.9
411.411	3.86
411.774	4.01
412.136	3.83
412.499	3.98
412.861	3.9
413.223	3.84
413.586	3.75
413.948	3.89
414.31	3.94
414.672	3.87
415.035	3.92
415.397	3.9
415.759	4.08
416.121	3.94
416.483	3.94
416.845	3.78
417.206	3.99
417.568	3.89
417.93	3.97
418.292	3.79
418.653	3.83
419.015	3.86
419.377	3.99
419.738	3.88
420.1	3.84
420.461	3.91
420.822	3.97
421.184	3.81
421.545	3.89
421.906	3.88
422.267	3.8
422.629	3.78
422.99	3.83
423.351	3.86
423.712	3.77
424.073	3.77
424.434	3.89
424.795	3.8
425.155	3.8
425.516	3.75
425.877	3.85
426.238	3.8
426.598	3.82
426.959	3.8
427.32	3.81
427.68	3.85
428.041	3.71
428.401	3.9
428.761	3.9
429.122	3.95
429.482	3.86
429.842	3.9
430.202	4.06
430.563	4.08
430.923	3.98
431.283	4
431.643	3.9
432.003	4
432.363	4.03
432.722	3.86
433.082	3.85
433.442	4.05
433.802	3.78
434.161	3.9
434.521	4.03
434.881	3.83
435.24	3.84
435.6	3.92
435.959	3.82
436.319	3.98
436.678	3.89
437.037	4.06
437.396	4.03
437.756	3.82
438.115	3.88
438.474	3.93
438.833	3.82
439.192	3.75
439.551	3.83
439.91	3.82
440.269	3.86
440.628	3.99
440.987	3.89
441.345	4.01
441.704	3.76
442.063	3.86
442.421	3.87
442.78	3.96
443.138	3.86
443.497	3.8
443.855	3.95
444.214	4
444.572	4.06
444.93	3.87
445.288	3.93
445.647	3.94
446.005	3.92
446.363	3.87
446.721	3.97
447.079	3.87
447.437	3.89
447.795	3.94
448.153	3.78
448.51	3.91
448.868	3.83
449.226	3.81
449.584	3.88
449.941	3.83
450.299	3.88
450.656	3.9
451.014	4.02
451.371	3.97
451.729	3.9
452.086	4
452.443	4.03
452.801	4.03
453.158	3.92
453.515	3.89
453.872	4
454.229	4
454.586	3.93
454.943	4.02
455.3	3.94
455.657	3.9
456.014	4.11
456.371	4.02
456.727	4.08
457.084	3.89
457.441	3.9
457.797	4.02
458.154	4.06
458.51	4.01
458.867	3.98
459.223	3.87
459.58	3.8
459.936	3.87
460.292	4.01
460.648	4.02
461.005	3.99
461.361	4.01
461.717	4
462.073	3.9
462.429	3.74
462.785	4.07
463.141	3.98
463.496	3.9
463.852	4.11
464.208	3.87
464.564	3.89
464.919	4.04
465.275	3.85
465.631	3.94
465.986	3.93
466.342	4.04
466.697	3.92
467.052	4
467.408	4.1
467.763	3.9
468.118	4.1
468.473	4.01
468.829	3.78
469.184	3.95
469.539	3.89
469.894	4.05
470.249	4.05
470.603	3.9
470.958	4.16
471.313	3.82
471.668	3.99
472.023	4.06
472.377	4.16
472.732	3.99
473.086	4.13
473.441	4.11
473.795	4
474.15	3.93
474.504	4.11
474.859	3.92
475.213	4.12
475.567	4.06
475.921	4.03
476.275	4.01
476.63	4.08
476.984	4.06
477.338	4.02
477.692	4.19
478.045	3.91
478.399	3.95
478.753	4.1
479.107	4.11
479.461	4.02
479.814	4.01
480.168	4.04
480.521	4.06
480.875	4.08
481.228	4.06
481.582	4.09
481.935	4
482.289	3.99
482.642	4.07
482.995	4.06
483.348	4.04
483.701	3.91
484.055	3.99
484.408	3.85
484.761	3.92
485.114	3.83
485.466	3.79
485.819	3.82
486.172	3.83
486.525	3.82
486.878	3.87
487.23	3.86
487.583	3.93
487.936	3.89
488.288	3.95
488.641	3.93
488.993	3.85
489.345	3.85
489.698	3.83
490.05	3.89
490.402	3.92
490.754	3.99
491.107	3.95
491.459	4.04
491.811	3.91
492.163	4
492.515	4.02
492.866	3.93
493.218	3.91
493.57	3.96
493.922	3.9
494.274	3.88
494.625	3.95
494.977	4.02
495.328	4.07
495.68	4.07
496.031	4.12
496.383	4.04
496.734	4.09
497.086	4
497.437	4.27
497.788	4.14
498.139	4
498.49	4.15
498.842	4.15
499.193	4.15
499.544	4.11
499.894	4.23
500.245	4.1
500.596	4.21
500.947	4.07
501.298	4.06
501.648	4.14
501.999	4.2
502.35	4.17
502.7	4.02
503.051	4.14
503.401	4.15
503.752	4.06
504.102	4.01
504.452	4.13
504.803	4.03
505.153	4.07
505.503	4.23
505.853	4.12
506.203	4.39
506.553	4.28
506.903	4.24
507.253	4.33
507.603	4.19
507.953	4.14
508.303	4.23
508.652	4.19
509.002	4.23
509.352	4.21
509.701	4.14
510.051	4.16
510.4	4.28
510.75	4.3
511.099	4.23
511.449	4.2
511.798	4.35
512.147	4.27
512.496	4.18
512.846	4.32
513.195	4.22
513.544	4.25
513.893	4.22
514.242	4.1
514.591	4.25
514.939	4.23
515.288	4.22
515.637	4.24
515.986	4.31
516.334	4.36
516.683	4.36
517.032	4.3
517.38	4.24
517.729	4.28
518.077	4.37
518.426	4.26
518.774	4.32
519.122	4.23
519.47	4.42
519.819	4.26
520.167	4.29
520.515	4.19
520.863	4.29
521.211	4.32
521.559	4.23
521.907	4.4
522.255	4.3
522.602	4.3
522.95	4.36
523.298	4.42
523.645	4.28
523.993	4.36
524.341	4.5
524.688	4.39
525.036	4.33
525.383	4.43
525.73	4.38
526.078	4.44
526.425	4.39
526.772	4.36
527.119	4.26
527.466	4.28
527.814	4.25
528.161	4.33
528.508	4.33
528.854	4.36
529.201	4.35
529.548	4.34
529.895	4.2
530.242	4.21
530.588	4.2
530.935	4.2
531.282	4.25
531.628	4.24
531.975	4.34
532.321	4.34
532.667	4.34
533.014	4.48
533.36	4.5
533.706	4.43
534.052	4.45
534.399	4.38
534.745	4.31
535.091	4.39
535.437	4.35
535.783	4.32
536.129	4.4
536.474	4.4
536.82	4.44
537.166	4.44
537.512	4.54
537.857	4.55
538.203	4.46
538.549	4.53
538.894	4.46
539.239	4.37
539.585	4.47
539.93	4.62
540.276	4.53
540.621	4.64
540.966	4.64
541.311	4.61
541.656	4.57
542.001	4.59
542.346	4.56
542.691	4.47
543.036	4.43
543.381	4.47
543.726	4.42
544.071	4.47
544.415	4.57
544.76	4.51
545.105	4.52
545.449	4.55
545.794	4.63
546.138	4.68
546.483	4.69
546.827	4.62
547.171	4.66
547.516	4.72
547.86	4.68
548.204	4.65
548.548	4.67
548.892	4.68
549.236	4.63
549.58	4.71
549.924	4.78
550.268	4.78
550.612	4.9
550.956	4.76
551.3	4.89
551.643	4.76
551.987	4.68
552.33	4.99
552.674	5.06
553.017	5
553.361	4.99
553.704	4.98
554.048	4.88
554.391	4.79
554.734	4.99
555.077	4.84
555.42	4.97
555.764	4.94
556.107	4.71
556.45	4.96
556.793	5.09
557.135	4.92
557.478	4.79
557.821	5
558.164	5.02
558.507	4.88
558.849	4.87
559.192	5.11
559.534	5.21
559.877	5.3
560.219	4.93
560.562	5.12
560.904	5.22
561.246	5.11
561.589	5.13
561.931	5.07
562.273	5.09
562.615	5.17
562.957	5.16
563.299	5.27
563.641	5.2
563.983	5.01
564.325	5.2
564.667	5.06
565.008	5.28
565.35	5.27
565.692	5.33
566.033	5.22
566.375	5.43
566.716	5.21
567.058	5.17
567.399	5.32
567.741	5.25
568.082	5.26
568.423	5.3
568.764	5.34
569.105	5.43
569.447	5.17
569.788	5.32
570.129	5.22
570.47	5.5
570.811	5.3
571.151	5.28
571.492	5.42
571.833	5.34
572.174	5.27
572.514	5.35
572.855	5.45
573.195	5.26
573.536	5.37
573.876	5.35
574.217	5.41
574.557	5.3
574.898	5.59
575.238	5.5
575.578	5.41
575.918	5.34
576.258	5.63
576.598	5.55
576.938	5.63
577.278	5.63
577.618	5.52
577.958	5.62
578.298	5.74
578.638	5.63
578.977	5.73
579.317	5.71
579.657	5.64
579.996	5.74
580.336	5.98
580.675	5.65
581.014	5.64
581.354	5.87
581.693	5.75
582.032	5.85
582.372	5.52
582.711	5.78
583.05	5.82
583.389	5.73
583.728	5.83
584.067	5.82
584.406	5.89
584.745	6.29
585.083	5.78
585.422	5.87
585.761	6.03
586.1	5.99
586.438	5.95
586.777	6.04
587.115	6.29
587.454	5.83
587.792	5.93
588.13	6
588.469	6.04
588.807	5.99
589.145	6.11
589.483	6.02
589.821	6.2
590.159	6.24
590.497	5.92
590.835	6.28
591.173	5.96
591.511	6.09
591.849	6.24
592.187	6.17
592.524	6.26
592.862	6.41
593.2	6.16
593.537	6.19
593.875	6.27
594.212	6.19
594.55	6.33
594.887	6.45
595.224	6.48
595.561	6.28
595.899	6.16
596.236	6.27
596.573	6.21
596.91	6.48
597.247	6.3
597.584	6.36
597.921	6.33
598.258	6.36
598.594	6.35
598.931	6.31
599.268	6.45
599.604	6.28
599.941	6.49
600.277	6.6
600.614	6.46
600.95	6.46
601.287	6.61
601.623	6.72
601.959	6.7
602.296	6.61
602.632	6.78
602.968	6.38
603.304	6.58
603.64	7.07
603.976	6.94
604.312	6.71
604.648	6.54
604.984	6.69
605.319	6.68
605.655	6.64
605.991	6.88
606.326	6.73
606.662	6.75
606.998	6.83
607.333	6.86
607.668	6.91
608.004	6.99
608.339	6.79
608.674	7.02
609.01	7.15
609.345	6.99
609.68	6.78
610.015	6.9
610.35	7.12
610.685	6.79
611.02	6.76
611.355	7.01
611.689	6.94
612.024	7.08
612.359	6.89
612.694	7.27
613.028	7.05
613.363	7.03
613.697	7.05
614.032	7.26
614.366	7.3
614.7	7.25
615.035	7.11
615.369	7.25
615.703	7.13
616.037	7.16
616.371	7.29
616.705	7.37
617.039	7.42
617.373	7.29
617.707	7.67
618.041	7.78
618.375	7.42
618.709	7.42
619.042	7.38
619.376	7.64
619.71	7.62
620.043	7.57
620.377	7.38
620.71	7.75
621.043	7.46
621.377	7.64
621.71	7.49
622.043	7.78
622.376	7.96
622.709	7.67
623.043	7.78
623.376	7.76
623.709	7.86
624.041	7.85
624.374	7.7
624.707	7.51
625.04	8.06
625.373	7.89
625.705	7.73
626.038	8.06
626.37	7.95
626.703	8.05
627.035	7.81
627.368	7.83
627.7	8.19
628.032	7.91
628.365	7.83
628.697	8.03
629.029	7.9
629.361	7.88
629.693	8.27
630.025	8.43
630.357	8.2
630.689	8.29
631.021	8.06
631.353	8.28
631.684	8.28
632.016	8.03
632.348	8.11
632.679	8.18
633.011	8.26
633.342	8.44
633.674	8.19
634.005	8.08
634.336	8.6
634.668	8.44
634.999	8.53
635.33	8.68
635.661	8.43
635.992	8.53
636.323	8.47
636.654	8.65
636.985	8.66
637.316	8.8
637.647	8.89
637.977	8.87
638.308	8.96
638.639	8.5
638.969	8.44
639.3	9.09
639.63	8.76
639.961	8.7
640.291	8.87
640.622	8.66
640.952	8.87
641.282	9.21
641.612	8.85
641.943	8.99
642.273	9.08
642.603	8.85
642.933	8.9
643.263	8.81
643.592	8.69
643.922	9.14
644.252	8.9
644.582	9.07
644.911	9.35
645.241	8.9
645.571	9.01
645.9	8.75
646.23	9.36
646.559	9.31
646.888	9.34
647.218	9.38
647.547	9.44
647.876	9.01
648.205	9.38
648.534	9.33
648.863	9.18
649.192	9.53
649.521	9.5
649.85	9.32
650.179	9.49
650.508	9.81
650.837	9.5
651.165	9.28
651.494	9.58
651.822	9.43
652.151	9.83
652.479	9.67
652.808	10
653.136	9.71
653.465	9.65
653.793	10.1
654.121	9.74
654.449	10.03
654.777	9.69
655.105	9.72
655.433	9.54
655.761	10
656.089	9.39
656.417	10.33
656.745	9.76
657.073	10.13
657.4	10.57
657.728	9.95
658.056	10.16
658.383	9.76
658.711	9.75
659.038	10.08
659.365	10.52
659.693	10.21
660.02	10.55
660.347	10.14
660.674	10.04
661.001	9.84
661.329	10.58
661.656	10.41
661.982	10.08
662.309	10.39
662.636	10.59
662.963	10.24
663.29	10.44
663.616	10.18
663.943	10.65
664.27	10.77
664.596	10.49
664.923	10.05
665.249	10.23
665.576	10.93
665.902	10.47
666.228	9.98
666.554	10.88
666.881	10.94
667.207	10.2
667.533	10.97
667.859	10.32
668.185	9.83
668.511	10.59
668.837	11.14
669.162	11.14
669.488	11
669.814	10.91
670.139	10.79
670.465	10.62
670.791	10.73
671.116	11.06
671.442	11.21
671.767	11.25
672.092	10.73
672.418	10.83
672.743	11.08
673.068	11.65
673.393	11.5
673.718	11.61
674.043	11.21
674.368	12.1
674.693	11.87
675.018	11.36
675.343	11.66
675.667	11.62
675.992	11.26
676.317	11.56
676.641	11.19
676.966	11.13
677.29	11.66
677.615	11.45
677.939	11.9
678.264	11.67
678.588	11.75
678.912	11.49
679.236	10.89
679.56	11.34
679.885	11.91
680.209	11.79
680.532	11.32
680.856	11.95
681.18	11.37
681.504	12.06
681.828	12.5
682.152	11.88
682.475	11.67
682.799	11.73
683.122	12.14
683.446	12.45
683.769	12.5
684.093	11.81
684.416	12.4
684.739	12.12
685.062	12.13
685.386	11.93
685.709	12.35
686.032	12.44
686.355	11.74
686.678	11.9
687.001	11.92
687.324	12.4
687.646	13.16
687.969	11.98
688.292	11.98
688.614	12.54
688.937	12.61
689.26	12.15
689.582	12.84
689.904	12.05
690.227	12.25
690.549	13.03
690.871	12.41
691.194	12.74
