Data from 2019-4_crown_Reflection__4__199.txt Node

Date: Fri Nov 11 18:27:46 CST 2022
User: ToomeyLab
Spectrometer: FLMS14357
Trigger mode: 0
Integration Time (sec): 1.000000E-2
Scans to average: 100
Electric dark correction enabled: true
Nonlinearity correction enabled: false
Boxcar width: 0
XAxis mode: Wavelengths
Number of Pixels in Spectrum: 2048
>>>>>Begin Spectral Data<<<<<
189.047	105.09
189.435	105.09
189.823	105.09
190.211	67.74
190.599	23.13
190.987	66.08
191.375	1814.46
191.763	117.98
192.151	-522.47
192.538	-82.34
192.926	35.04
193.314	-66.34
193.702	-1240.78
194.089	-67.48
194.477	164.27
194.864	82.96
195.252	-247.7
195.639	28.41
196.027	53.15
196.414	-223.59
196.801	41.53
197.189	125.55
197.576	86.01
197.963	-236.53
198.351	-1.19
198.738	4.39
199.125	13.8
199.512	26.95
199.899	9.7
200.286	-85.4
200.673	0.73
201.06	-50.18
201.447	25.57
201.833	25.59
202.22	-92.38
202.607	12.56
202.994	51.86
203.38	-47.58
203.767	0.92
204.154	-14.2
204.54	13.32
204.927	-28.98
205.313	30.6
205.699	-4.1
206.086	-20.65
206.472	-54.07
206.858	1.59
207.245	10.36
207.631	-78.11
208.017	-27.29
208.403	-6.89
208.789	14.29
209.175	-54.99
209.561	-5.76
209.947	29.26
210.333	19.17
210.719	-8.21
211.105	2.13
211.491	11.44
211.876	17.51
212.262	-41.34
212.648	22.6
213.034	29.15
213.419	-30.45
213.805	-8.32
214.19	0.75
214.576	-4.13
214.961	0.63
215.346	0.19
215.732	4.22
216.117	17.89
216.502	-15.14
216.888	-57.17
217.273	4.53
217.658	-1.8
218.043	-14.35
218.428	11.12
218.813	31.62
219.198	-1.51
219.583	-16.54
219.968	-25.53
220.353	-1.72
220.738	-12.24
221.122	-53.96
221.507	9.58
221.892	12.48
222.276	-5.79
222.661	5.04
223.046	11.13
223.43	0.32
223.815	0.63
224.199	-1.61
224.583	9.57
224.968	4.69
225.352	3.06
225.736	3.23
226.121	-8.15
226.505	0.99
226.889	-2.09
227.273	6.21
227.657	13.78
228.041	1.24
228.425	1.85
228.809	1.96
229.193	3.91
229.577	4.66
229.961	5.57
230.344	5.15
230.728	4.01
231.112	5.14
231.495	5.8
231.879	5.59
232.263	5.4
232.646	3.32
233.03	5.15
233.413	4.05
233.797	3.99
234.18	1.65
234.563	2.27
234.946	2.68
235.33	4.4
235.713	2.98
236.096	4.46
236.479	2.16
236.862	3.89
237.245	5.17
237.628	2.9
238.011	4.16
238.394	2.44
238.777	3.65
239.16	3.76
239.543	4.6
239.925	3.72
240.308	3.39
240.691	5.17
241.073	5.5
241.456	4.39
241.838	4.81
242.221	3.96
242.603	3.37
242.986	4.46
243.368	4.17
243.75	4.41
244.133	3.91
244.515	4.63
244.897	4.44
245.279	3.9
245.661	4.29
246.043	3.81
246.425	3.92
246.807	4.77
247.189	4.65
247.571	4.06
247.953	3.62
248.335	4.29
248.717	4.42
249.098	4.33
249.48	4.4
249.862	4.54
250.243	4.02
250.625	4.02
251.006	3.62
251.388	4.63
251.769	3.36
252.151	4.01
252.532	4.44
252.913	3.13
253.295	3.92
253.676	4.25
254.057	3.67
254.438	3.93
254.819	4.21
255.2	4.84
255.581	3.15
255.962	3.33
256.343	3.7
256.724	3.48
257.105	2.84
257.486	3.21
257.867	3.51
258.247	3.31
258.628	4.21
259.009	3.45
259.389	4.18
259.77	4
260.15	3.98
260.531	4.17
260.911	3.43
261.292	3.95
261.672	3.85
262.052	3.96
262.432	3.67
262.813	4.25
263.193	4.27
263.573	3.59
263.953	3.86
264.333	3.91
264.713	3.68
265.093	4.09
265.473	4.13
265.853	4.19
266.233	4.51
266.612	3.97
266.992	3.8
267.372	4.24
267.752	3.75
268.131	3.97
268.511	3.83
268.89	4.11
269.27	4.01
269.649	4.03
270.029	3.84
270.408	3.76
270.787	4.09
271.167	3.76
271.546	4.12
271.925	3.66
272.304	3.7
272.683	3.66
273.062	3.78
273.441	3.37
273.82	3.81
274.199	3.61
274.578	3.96
274.957	4.16
275.336	3.63
275.715	3.69
276.093	3.24
276.472	4.22
276.851	4.08
277.229	3.88
277.608	3.81
277.986	3.79
278.365	3.14
278.743	4.1
279.122	4.07
279.5	3.22
279.878	3.44
280.257	3.16
280.635	3.64
281.013	4.2
281.391	3.64
281.769	3.52
282.147	4.09
282.525	3.96
282.903	3.96
283.281	4.53
283.659	3.51
284.037	3.7
284.415	3.57
284.792	3.73
285.17	3.54
285.548	3.47
285.925	3.68
286.303	3.69
286.68	3.49
287.058	3.82
287.435	3.77
287.813	3.67
288.19	3.63
288.567	3
288.945	3.44
289.322	3.74
289.699	3.59
290.076	3.44
290.453	3.47
290.83	3.45
291.207	3.68
291.584	3.54
291.961	4.01
292.338	3.24
292.715	3.59
293.092	3.63
293.469	3.49
293.845	3.35
294.222	3.48
294.599	3.93
294.975	2.66
295.352	3.66
295.728	3.19
296.105	3.32
296.481	3.62
296.858	3.46
297.234	3.74
297.61	3.38
297.986	3.43
298.363	3.45
298.739	3.41
299.115	3.75
299.491	3.39
299.867	3.3
300.243	3.43
300.619	3.35
300.995	3.71
301.371	3.76
301.746	2.89
302.122	3.44
302.498	3.97
302.874	3.23
303.249	3.26
303.625	3.32
304	3.39
304.376	3.63
304.751	3.41
305.127	3.77
305.502	2.94
305.878	3.3
306.253	3.48
306.628	3.62
307.003	3.08
307.378	2.91
307.754	3.13
308.129	3.56
308.504	3.04
308.879	3.79
309.254	3.22
309.629	3.15
310.003	3.46
310.378	3.1
310.753	3.34
311.128	3.71
311.502	2.77
311.877	3.09
312.252	4
312.626	3.77
313.001	3.44
313.375	3
313.75	3.54
314.124	3.19
314.498	3.18
314.873	3.35
315.247	3.68
315.621	3.13
315.995	3.14
316.369	3.27
316.743	3.17
317.117	4.02
317.491	3.03
317.865	4.03
318.239	3.34
318.613	3.47
318.987	2.75
319.361	3.54
319.734	3.39
320.108	2.93
320.482	2.98
320.855	3.08
321.229	3.35
321.602	3.26
321.976	3.42
322.349	3.69
322.723	3.67
323.096	3.57
323.469	3.17
323.843	3.03
324.216	3.26
324.589	3.46
324.962	2.88
325.335	2.74
325.708	3.15
326.081	2.86
326.454	3.4
326.827	3.2
327.2	3.6
327.573	2.97
327.945	3.28
328.318	3.33
328.691	3.05
329.063	3.12
329.436	3.67
329.809	3.52
330.181	3.2
330.553	2.69
330.926	3.22
331.298	2.74
331.671	3.17
332.043	3.01
332.415	2.73
332.787	3.3
333.159	3.1
333.532	3.1
333.904	3.17
334.276	3.42
334.648	2.79
335.02	3.59
335.391	3.03
335.763	3.1
336.135	3.4
336.507	3.57
336.879	3.26
337.25	2.84
337.622	3.27
337.993	3.41
338.365	3.59
338.736	2.74
339.108	3.34
339.479	2.91
339.851	3.19
340.222	2.93
340.593	2.64
340.964	3.18
341.336	2.9
341.707	3.06
342.078	3.56
342.449	3.28
342.82	3.64
343.191	3.54
343.562	3.45
343.933	3.1
344.303	3.17
344.674	3.14
345.045	3.4
345.416	3.25
345.786	3.07
346.157	3.08
346.527	3.18
346.898	3.41
347.268	3.44
347.639	3.33
348.009	3.17
348.38	3.52
348.75	3.22
349.12	3.46
349.49	3.06
349.861	3.51
350.231	3.45
350.601	3.54
350.971	3.41
351.341	3.1
351.711	3.28
352.081	3.03
352.45	2.88
352.82	3.17
353.19	3.73
353.56	3.91
353.929	2.92
354.299	3.05
354.669	3.33
355.038	3.29
355.408	3.19
355.777	3.65
356.147	3.53
356.516	2.59
356.885	3.39
357.254	3.2
357.624	3.11
357.993	2.92
358.362	3.31
358.731	3.32
359.1	3.32
359.469	3.26
359.838	3.46
360.207	3.55
360.576	2.92
360.945	3.28
361.314	3.35
361.682	3.32
362.051	3.59
362.42	3.3
362.788	3.3
363.157	3.14
363.525	3.09
363.894	3.28
364.262	3.1
364.631	3.51
364.999	3.14
365.367	3.2
365.735	3.36
366.104	3.53
366.472	3.34
366.84	3.51
367.208	3.28
367.576	3.19
367.944	3.5
368.312	3.02
368.68	3.43
369.048	2.96
369.416	3.34
369.783	3.45
370.151	3.33
370.519	3.45
370.886	3.25
371.254	3.29
371.621	3.29
371.989	3.63
372.356	3.12
372.724	3.17
373.091	3.59
373.458	3.37
373.826	3.6
374.193	3.13
374.56	3.44
374.927	3.38
375.294	3.37
375.661	3.4
376.028	3.34
376.395	3.62
376.762	3.25
377.129	3.08
377.496	3.49
377.863	3.23
378.229	3.29
378.596	3.48
378.963	3.41
379.329	3.38
379.696	3.56
380.062	3.11
380.429	3.37
380.795	3.06
381.161	3.12
381.528	3.52
381.894	3.6
382.26	3.19
382.626	3.41
382.993	3.72
383.359	3.65
383.725	3.45
384.091	3.46
384.457	3.28
384.823	3.3
385.188	3.28
385.554	3.52
385.92	3.68
386.286	3.32
386.651	3.53
387.017	3.54
387.383	3.15
387.748	3.43
388.114	3.33
388.479	3.28
388.845	3.41
389.21	3.22
389.575	3.2
389.94	3.38
390.306	3.4
390.671	3.32
391.036	3.56
391.401	3.69
391.766	3.71
392.131	3.48
392.496	3.39
392.861	3.23
393.226	3.17
393.591	3.47
393.956	3.44
394.32	3.57
394.685	3.39
395.05	3.36
395.414	3.59
395.779	3.36
396.143	3.49
396.508	3.55
396.872	3.32
397.236	3.36
397.601	3.26
397.965	3.44
398.329	3.67
398.694	3.57
399.058	3.45
399.422	3.54
399.786	3.69
400.15	3.64
400.514	3.64
400.878	3.4
401.242	3.48
401.605	3.37
401.969	3.32
402.333	3.56
402.697	3.6
403.06	3.6
403.424	3.47
403.787	3.55
404.151	3.48
404.514	3.5
404.878	3.32
405.241	3.51
405.604	3.68
405.968	3.57
406.331	3.35
406.694	3.59
407.057	3.35
407.42	3.33
407.783	3.44
408.146	3.64
408.509	3.55
408.872	3.54
409.235	3.48
409.598	3.51
409.961	3.73
410.323	3.6
410.686	3.73
411.049	3.46
411.411	3.75
411.774	3.66
412.136	3.51
412.499	3.59
412.861	3.62
413.223	3.55
413.586	3.65
413.948	3.41
414.31	3.44
414.672	3.38
415.035	3.48
415.397	3.65
415.759	3.81
416.121	3.62
416.483	3.58
416.845	3.45
417.206	3.72
417.568	3.52
417.93	3.64
418.292	3.55
418.653	3.61
419.015	3.51
419.377	3.59
419.738	3.63
420.1	3.55
420.461	3.59
420.822	3.63
421.184	3.49
421.545	3.62
421.906	3.56
422.267	3.55
422.629	3.4
422.99	3.56
423.351	3.44
423.712	3.41
424.073	3.52
424.434	3.48
424.795	3.47
425.155	3.49
425.516	3.44
425.877	3.4
426.238	3.52
426.598	3.51
426.959	3.53
427.32	3.51
427.68	3.68
428.041	3.54
428.401	3.85
428.761	3.57
429.122	3.41
429.482	3.54
429.842	3.58
430.202	3.67
430.563	3.73
430.923	3.7
431.283	3.77
431.643	3.55
432.003	3.48
432.363	3.51
432.722	3.54
433.082	3.61
433.442	3.79
433.802	3.52
434.161	3.72
434.521	3.63
434.881	3.51
435.24	3.59
435.6	3.52
435.959	3.53
436.319	3.7
436.678	3.5
437.037	3.75
437.396	3.77
437.756	3.67
438.115	3.54
438.474	3.61
438.833	3.84
439.192	3.6
439.551	3.54
439.91	3.54
440.269	3.55
440.628	3.7
440.987	3.56
441.345	3.6
441.704	3.62
442.063	3.54
442.421	3.54
442.78	3.57
443.138	3.69
443.497	3.52
443.855	3.73
444.214	3.69
444.572	3.65
444.93	3.55
445.288	3.64
445.647	3.63
446.005	3.62
446.363	3.53
446.721	3.76
447.079	3.52
447.437	3.56
447.795	3.69
448.153	3.61
448.51	3.61
448.868	3.58
449.226	3.53
449.584	3.63
449.941	3.55
450.299	3.61
450.656	3.67
451.014	3.85
451.371	3.77
451.729	3.62
452.086	3.72
452.443	3.77
452.801	3.76
453.158	3.62
453.515	3.73
453.872	3.62
454.229	3.64
454.586	3.65
454.943	3.71
455.3	3.75
455.657	3.61
456.014	3.74
456.371	3.72
456.727	3.7
457.084	3.69
457.441	3.64
457.797	3.61
458.154	3.82
458.51	3.64
458.867	3.71
459.223	3.68
459.58	3.74
459.936	3.63
460.292	3.73
460.648	3.57
461.005	3.78
461.361	3.6
461.717	3.65
462.073	3.64
462.429	3.44
462.785	3.66
463.141	3.72
463.496	3.63
463.852	3.88
464.208	3.82
464.564	3.75
464.919	3.68
465.275	3.68
465.631	3.46
465.986	3.72
466.342	3.76
466.697	3.73
467.052	3.73
467.408	3.92
467.763	3.66
468.118	3.77
468.473	3.76
468.829	3.37
469.184	3.63
469.539	3.69
469.894	3.79
470.249	3.79
470.603	3.79
470.958	3.76
471.313	3.62
471.668	3.77
472.023	3.61
472.377	3.66
472.732	3.76
473.086	3.76
473.441	3.75
473.795	3.76
474.15	3.69
474.504	3.66
474.859	3.64
475.213	3.93
475.567	3.78
475.921	3.67
476.275	3.62
476.63	3.74
476.984	3.76
477.338	3.62
477.692	3.81
478.045	3.75
478.399	3.7
478.753	3.81
479.107	3.69
479.461	3.8
479.814	3.8
480.168	3.75
480.521	3.76
480.875	3.61
481.228	3.81
481.582	3.79
481.935	3.67
482.289	3.61
482.642	3.69
482.995	3.66
483.348	3.66
483.701	3.66
484.055	3.72
484.408	3.56
484.761	3.55
485.114	3.48
485.466	3.43
485.819	3.43
486.172	3.49
486.525	3.53
486.878	3.56
487.23	3.62
487.583	3.65
487.936	3.54
488.288	3.58
488.641	3.61
488.993	3.53
489.345	3.53
489.698	3.54
490.05	3.53
490.402	3.61
490.754	3.67
491.107	3.62
491.459	3.64
491.811	3.56
492.163	3.66
492.515	3.63
492.866	3.52
493.218	3.49
493.57	3.59
493.922	3.58
494.274	3.68
494.625	3.68
494.977	3.65
495.328	3.76
495.68	3.85
496.031	3.68
496.383	3.73
496.734	3.86
497.086	3.71
497.437	3.84
497.788	3.9
498.139	3.65
498.49	3.67
498.842	3.68
499.193	3.77
499.544	3.71
499.894	3.8
500.245	3.69
500.596	3.72
500.947	3.76
501.298	3.74
501.648	3.74
501.999	3.69
502.35	3.69
502.7	3.72
503.051	3.75
503.401	3.65
503.752	3.66
504.102	3.79
504.452	3.75
504.803	3.73
505.153	3.82
505.503	3.78
505.853	3.91
506.203	3.94
506.553	3.94
506.903	3.92
507.253	3.79
507.603	3.78
507.953	3.73
508.303	3.72
508.652	3.71
509.002	3.69
509.352	3.74
509.701	3.8
510.051	3.73
510.4	3.81
510.75	3.79
511.099	3.76
511.449	3.8
511.798	3.77
512.147	3.74
512.496	3.77
512.846	3.75
513.195	3.74
513.544	3.82
513.893	3.68
514.242	3.7
514.591	3.71
514.939	3.78
515.288	3.84
515.637	3.8
515.986	3.72
516.334	3.88
516.683	3.73
517.032	3.86
517.38	3.81
517.729	3.81
518.077	3.79
518.426	3.75
518.774	3.85
519.122	3.62
519.47	3.76
519.819	3.64
520.167	3.68
520.515	3.83
520.863	3.7
521.211	3.78
521.559	3.66
521.907	3.77
522.255	3.8
522.602	3.78
522.95	3.72
523.298	3.8
523.645	3.73
523.993	3.78
524.341	3.86
524.688	3.76
525.036	3.82
525.383	3.84
525.73	3.85
526.078	3.76
526.425	3.79
526.772	3.76
527.119	3.69
527.466	3.7
527.814	3.66
528.161	3.62
528.508	3.79
528.854	3.74
529.201	3.72
529.548	3.73
529.895	3.54
530.242	3.57
530.588	3.55
530.935	3.61
531.282	3.61
531.628	3.65
531.975	3.71
532.321	3.69
532.667	3.75
533.014	3.76
533.36	3.8
533.706	3.73
534.052	3.77
534.399	3.69
534.745	3.66
535.091	3.6
535.437	3.63
535.783	3.66
536.129	3.75
536.474	3.7
536.82	3.75
537.166	3.72
537.512	3.74
537.857	3.79
538.203	3.77
538.549	3.8
538.894	3.69
539.239	3.68
539.585	3.71
539.93	3.77
540.276	3.74
540.621	3.83
540.966	3.86
541.311	3.78
541.656	3.76
542.001	3.82
542.346	3.82
542.691	3.66
543.036	3.63
543.381	3.65
543.726	3.64
544.071	3.68
544.415	3.71
544.76	3.75
545.105	3.65
545.449	3.71
545.794	3.77
546.138	3.83
546.483	3.77
546.827	3.78
547.171	3.81
547.516	3.73
547.86	3.69
548.204	3.71
548.548	3.84
548.892	3.81
549.236	3.76
549.58	3.83
549.924	3.81
550.268	3.82
550.612	3.91
550.956	3.84
551.3	3.85
551.643	3.67
551.987	3.73
552.33	4.03
552.674	4.06
553.017	4.05
553.361	3.89
553.704	4.08
554.048	3.76
554.391	3.82
554.734	3.93
555.077	3.79
555.42	3.99
555.764	3.87
556.107	3.77
556.45	3.8
556.793	3.95
557.135	3.9
557.478	3.92
557.821	3.68
558.164	3.97
558.507	3.65
558.849	3.81
559.192	4.02
559.534	4.05
559.877	3.89
560.219	3.72
560.562	3.86
560.904	3.97
561.246	3.78
561.589	3.91
561.931	3.96
562.273	4.06
562.615	3.78
562.957	3.91
563.299	3.84
563.641	3.88
563.983	3.78
564.325	3.87
564.667	3.86
565.008	3.89
565.35	4.12
565.692	4.12
566.033	3.99
566.375	3.93
566.716	3.83
567.058	3.81
567.399	3.97
567.741	3.82
568.082	3.86
568.423	3.99
568.764	3.97
569.105	3.86
569.447	4.04
569.788	4.04
570.129	3.9
570.47	3.93
570.811	3.87
571.151	3.91
571.492	3.87
571.833	3.97
572.174	3.83
572.514	3.91
572.855	3.66
573.195	3.66
573.536	3.95
573.876	3.82
574.217	3.84
574.557	3.81
574.898	4.12
575.238	3.94
575.578	3.83
575.918	3.8
576.258	3.97
576.598	4.03
576.938	3.9
577.278	3.81
577.618	3.92
577.958	3.96
578.298	4.01
578.638	3.94
578.977	3.97
579.317	3.98
579.657	3.94
579.996	4.05
580.336	3.94
580.675	3.91
581.014	3.77
581.354	4.18
581.693	3.89
582.032	3.91
582.372	3.94
582.711	3.88
583.05	3.96
583.389	4.02
583.728	3.77
584.067	4.09
584.406	3.89
584.745	4.21
585.083	4.04
585.422	3.91
585.761	4.08
586.1	4
586.438	3.8
586.777	3.92
587.115	4.13
587.454	3.93
587.792	3.85
588.13	4.04
588.469	4.1
588.807	3.99
589.145	4.07
589.483	3.92
589.821	4.24
590.159	3.99
590.497	3.67
590.835	4
591.173	3.78
591.511	3.95
591.849	3.97
592.187	3.98
592.524	3.99
592.862	4.03
593.2	3.89
593.537	3.92
593.875	4.18
594.212	4.1
594.55	4.01
594.887	3.93
595.224	3.99
595.561	4.11
595.899	3.75
596.236	4.11
596.573	3.79
596.91	4.03
597.247	3.93
597.584	3.86
597.921	3.96
598.258	4.02
598.594	3.95
598.931	3.76
599.268	3.84
599.604	3.88
599.941	3.98
600.277	3.88
600.614	3.93
600.95	4.08
601.287	3.88
601.623	4.07
601.959	4.02
602.296	4.07
602.632	4.07
602.968	3.86
603.304	3.85
603.64	4.28
603.976	4.07
604.312	4.01
604.648	3.75
604.984	3.9
605.319	4.05
605.655	3.88
605.991	3.93
606.326	3.95
606.662	3.86
606.998	3.74
607.333	4.04
607.668	4.01
608.004	4.07
608.339	4.15
608.674	3.99
609.01	3.68
609.345	4.05
609.68	3.98
610.015	3.88
610.35	3.81
610.685	3.95
611.02	4.04
611.355	3.88
611.689	3.92
612.024	3.89
612.359	3.96
612.694	4.16
613.028	4.08
613.363	3.89
613.697	3.87
614.032	3.96
614.366	3.94
614.7	3.99
615.035	3.87
615.369	3.82
615.703	3.86
616.037	3.91
616.371	3.8
616.705	3.91
617.039	4.18
617.373	4.06
617.707	4.05
618.041	4.28
618.375	3.96
618.709	3.84
619.042	3.85
619.376	4.02
619.71	4
620.043	3.99
620.377	3.85
620.71	3.97
621.043	4.08
621.377	4.14
621.71	4.02
622.043	4.04
622.376	4.2
622.709	3.93
623.043	4.27
623.376	3.88
623.709	3.65
624.041	3.95
624.374	4.16
624.707	3.92
625.04	4.09
625.373	3.87
625.705	3.76
626.038	3.74
626.37	3.84
626.703	3.87
627.035	3.88
627.368	3.68
627.7	4
628.032	3.74
628.365	3.91
628.697	4.15
629.029	3.71
629.361	3.71
629.693	3.96
630.025	4.13
630.357	3.94
630.689	4.18
631.021	3.69
631.353	3.93
631.684	4.12
632.016	3.85
632.348	3.82
632.679	3.88
633.011	3.86
633.342	4
633.674	3.68
634.005	3.58
634.336	4.44
634.668	3.99
634.999	4.17
635.33	4.07
635.661	3.86
635.992	3.91
636.323	3.92
636.654	4.02
636.985	4.12
637.316	4.2
637.647	4.32
637.977	4.22
638.308	4.13
638.639	3.96
638.969	3.46
639.3	4.22
639.63	4.14
639.961	3.9
640.291	4.11
640.622	3.77
640.952	4.14
641.282	4.16
641.612	4.01
641.943	4.32
642.273	4.34
642.603	3.72
642.933	4.02
643.263	3.75
643.592	4.09
643.922	3.92
644.252	4.01
644.582	3.81
644.911	4.21
645.241	3.8
645.571	4.12
645.9	4.1
646.23	3.88
646.559	4.22
646.888	3.89
647.218	3.79
647.547	3.87
647.876	3.55
648.205	3.94
648.534	3.64
648.863	3.75
649.192	4.07
649.521	3.97
649.85	4.51
650.179	4.37
650.508	4.01
650.837	3.68
651.165	3.51
651.494	3.67
651.822	3.75
652.151	4.6
652.479	4.08
652.808	4.21
653.136	4.12
653.465	3.74
653.793	4.21
654.121	3.61
654.449	3.52
654.777	3.99
655.105	4.15
655.433	3.76
655.761	4.1
656.089	3.6
656.417	4.02
656.745	3.67
657.073	3.93
657.4	4.6
657.728	3.77
658.056	4.11
658.383	3.9
658.711	3.59
659.038	3.79
659.365	4.43
659.693	3.92
660.02	4.42
660.347	4
660.674	4.2
661.001	4.39
661.329	4.38
661.656	4.06
661.982	4.01
662.309	4.03
662.636	4.11
662.963	3.95
663.29	3.93
663.616	4.14
663.943	4.31
664.27	4.01
664.596	3.9
664.923	3.51
665.249	3.49
665.576	3.96
665.902	4.51
666.228	3.35
666.554	4.19
666.881	4.46
667.207	3.8
667.533	4.15
667.859	3.67
668.185	3.26
668.511	3.92
668.837	4.24
669.162	4
669.488	4.21
669.814	4.21
670.139	4.2
670.465	4.11
670.791	3.62
671.116	4.06
671.442	4.32
671.767	4.25
672.092	3.44
672.418	4.24
672.743	3.4
673.068	4.38
673.393	3.8
673.718	4.25
674.043	3.78
674.368	4.41
674.693	4.12
675.018	3.77
675.343	3.91
675.667	4.21
675.992	3.91
676.317	3.81
676.641	4.13
676.966	3.78
677.29	3.85
677.615	3.88
677.939	3.8
678.264	4.63
678.588	4.55
678.912	3.86
679.236	3.98
679.56	3.61
679.885	4.05
680.209	3.75
680.532	3.29
680.856	4.16
681.18	3.57
681.504	4.29
681.828	4.15
682.152	3.83
682.475	4.19
682.799	3.88
683.122	4.39
683.446	4.24
683.769	4.39
684.093	3.88
684.416	4.29
684.739	4.31
685.062	3.84
685.386	4.01
685.709	4.3
686.032	4.12
686.355	4.37
686.678	4.1
687.001	3.65
687.324	4.09
687.646	4.61
687.969	3.66
688.292	3.44
688.614	4.09
688.937	4.08
689.26	3.15
689.582	4.36
689.904	3.32
690.227	3.58
690.549	3.65
690.871	3.77
691.194	4.28
691.516	4.35
691.838	3.53
692.16	3.93
