Data from 2019-4_crown_Reflection__0__195.txt Node

Date: Fri Nov 11 18:27:06 CST 2022
User: ToomeyLab
Spectrometer: FLMS14357
Trigger mode: 0
Integration Time (sec): 1.000000E-2
Scans to average: 100
Electric dark correction enabled: true
Nonlinearity correction enabled: false
Boxcar width: 0
XAxis mode: Wavelengths
Number of Pixels in Spectrum: 2048
>>>>>Begin Spectral Data<<<<<
189.047	79.12
189.435	79.12
189.823	79.12
190.211	-7.28
190.599	-15.95
190.987	-29.49
191.375	-954.96
191.763	-47.29
192.151	-399.88
192.538	134.36
192.926	195.3
193.314	117.96
193.702	-598.85
194.089	55.83
194.477	397.78
194.864	12.44
195.252	71.97
195.639	107.4
196.027	105.68
196.414	-86.85
196.801	68.93
197.189	86.64
197.576	-46.45
197.963	0.26
198.351	-20.29
198.738	-31.36
199.125	17.32
199.512	-39.27
199.899	23.41
200.286	-125.74
200.673	-22.89
201.06	-48.79
201.447	-22.91
201.833	54.14
202.22	-48.31
202.607	53.24
202.994	-2.22
203.38	-15.37
203.767	13.49
204.154	-27.7
204.54	6.55
204.927	-62.16
205.313	-9.94
205.699	18.71
206.086	-36.56
206.472	-37.23
206.858	5.27
207.245	-26.22
207.631	3.27
208.017	-6.86
208.403	17.44
208.789	20.64
209.175	-45.19
209.561	-4.9
209.947	-20.84
210.333	5.79
210.719	-9.56
211.105	-7.72
211.491	23.56
211.876	-33.64
212.262	-13.03
212.648	20.41
213.034	14.04
213.419	13.18
213.805	-5.16
214.19	-5.63
214.576	-13.81
214.961	-11.3
215.346	1.63
215.732	7.76
216.117	29.6
216.502	6.75
216.888	-33.66
217.273	-12.11
217.658	-2.22
218.043	17.18
218.428	15.08
218.813	21.6
219.198	7.02
219.583	15.22
219.968	7.54
220.353	17.48
220.738	-11.64
221.122	-50.56
221.507	12.25
221.892	9.21
222.276	-3.45
222.661	9.94
223.046	-10.27
223.43	-1.78
223.815	4.23
224.199	-10.96
224.583	16.38
224.968	11.21
225.352	2.38
225.736	-2.02
226.121	-8.53
226.505	5.27
226.889	9.54
227.273	3.99
227.657	7.46
228.041	0.63
228.425	0.24
228.809	8.67
229.193	3.28
229.577	5.08
229.961	5.1
230.344	5.74
230.728	4.98
231.112	5.26
231.495	6.47
231.879	6.08
232.263	5.82
232.646	5.1
233.03	4.41
233.413	4.73
233.797	6.61
234.18	4.23
234.563	1.8
234.946	3.01
235.33	5.77
235.713	3.79
236.096	5.72
236.479	3.38
236.862	4.67
237.245	5.08
237.628	3.89
238.011	3.55
238.394	4.95
238.777	3.72
239.16	5.02
239.543	5.3
239.925	3.29
240.308	5.98
240.691	6.28
241.073	5.19
241.456	5.33
241.838	5.09
242.221	4.75
242.603	4.47
242.986	4.92
243.368	5.44
243.75	5.01
244.133	5.15
244.515	5.18
244.897	4.83
245.279	5.27
245.661	4.2
246.043	4.29
246.425	4.6
246.807	5.43
247.189	4.69
247.571	5.52
247.953	4.8
248.335	5.15
248.717	5.22
249.098	5.32
249.48	4.94
249.862	5.07
250.243	4.87
250.625	4.75
251.006	3.91
251.388	5.16
251.769	4.82
252.151	4.6
252.532	4.02
252.913	4.74
253.295	5.28
253.676	5.65
254.057	4.64
254.438	4.75
254.819	4.34
255.2	5.71
255.581	5.15
255.962	3.6
256.343	3.87
256.724	5.08
257.105	4.44
257.486	3.65
257.867	5.45
258.247	4.55
258.628	5.29
259.009	4.42
259.389	4.4
259.77	5.32
260.15	4.46
260.531	4.7
260.911	4.7
261.292	4.74
261.672	4.83
262.052	4.64
262.432	4.67
262.813	4.89
263.193	4.94
263.573	4.84
263.953	4.72
264.333	4.17
264.713	4.77
265.093	4.58
265.473	4.46
265.853	4.16
266.233	4.96
266.612	4.53
266.992	4.43
267.372	4.59
267.752	4.13
268.131	4.86
268.511	4.73
268.89	4.72
269.27	4.79
269.649	4.52
270.029	4.04
270.408	4.17
270.787	4.67
271.167	4.39
271.546	5.18
271.925	4.27
272.304	4.54
272.683	4.86
273.062	4.81
273.441	3.98
273.82	5.02
274.199	4.37
274.578	4.45
274.957	4.61
275.336	4.22
275.715	4.3
276.093	4.59
276.472	5.13
276.851	4.28
277.229	4.51
277.608	4.57
277.986	4.47
278.365	4.48
278.743	4.81
279.122	4.62
279.5	4.27
279.878	3.95
280.257	4.35
280.635	4.02
281.013	4.36
281.391	4.33
281.769	4.07
282.147	4.68
282.525	4.38
282.903	4.6
283.281	4.52
283.659	4.71
284.037	4.39
284.415	4.21
284.792	4.97
285.17	4.33
285.548	4.14
285.925	3.95
286.303	4.24
286.68	4.17
287.058	4.32
287.435	4.49
287.813	4.24
288.19	4.43
288.567	3.62
288.945	3.94
289.322	4.49
289.699	4.65
290.076	4.25
290.453	4.9
290.83	4.27
291.207	4.64
291.584	4.38
291.961	4.27
292.338	4.63
292.715	4.21
293.092	4.16
293.469	4.46
293.845	4.42
294.222	4.65
294.599	4.31
294.975	4.04
295.352	4.46
295.728	3.97
296.105	4.41
296.481	4.63
296.858	4.7
297.234	4.89
297.61	4.4
297.986	4.09
298.363	4.56
298.739	4.28
299.115	4.38
299.491	4.4
299.867	4.32
300.243	4.18
300.619	4.37
300.995	4.29
301.371	4.83
301.746	4.08
302.122	4.34
302.498	4.41
302.874	4.31
303.249	4.47
303.625	4.41
304	4.43
304.376	4.34
304.751	4.63
305.127	4.64
305.502	4.13
305.878	4.35
306.253	4.25
306.628	4.4
307.003	4.31
307.378	3.9
307.754	3.86
308.129	4.58
308.504	3.79
308.879	4.66
309.254	3.91
309.629	4.21
310.003	4.43
310.378	4.14
310.753	4.45
311.128	4.23
311.502	3.99
311.877	4.51
312.252	4.83
312.626	4.46
313.001	4.75
313.375	3.88
313.75	4.62
314.124	4.13
314.498	4.42
314.873	4.58
315.247	4.42
315.621	4.63
315.995	4.38
316.369	4.26
316.743	4.09
317.117	4.36
317.491	3.99
317.865	4.73
318.239	4.79
318.613	4.58
318.987	3.96
319.361	4.7
319.734	4.16
320.108	3.72
320.482	4.63
320.855	4.25
321.229	4.29
321.602	4.6
321.976	3.97
322.349	4.47
322.723	4.3
323.096	4.09
323.469	4.07
323.843	4.45
324.216	3.92
324.589	4.24
324.962	3.91
325.335	3.87
325.708	4.27
326.081	4.15
326.454	4.37
326.827	4.1
327.2	4.6
327.573	3.94
327.945	4.76
328.318	4.29
328.691	4.51
329.063	3.99
329.436	3.84
329.809	4.82
330.181	4.61
330.553	3.99
330.926	4.07
331.298	4.15
331.671	4.44
332.043	4.43
332.415	3.91
332.787	4.02
333.159	4.13
333.532	4.14
333.904	4.36
334.276	4.19
334.648	3.72
335.02	4.4
335.391	4.16
335.763	4.17
336.135	4.52
336.507	4.76
336.879	4.2
337.25	4.23
337.622	4.43
337.993	3.88
338.365	4.56
338.736	3.79
339.108	4.41
339.479	4.23
339.851	4.33
340.222	3.97
340.593	3.84
340.964	4.54
341.336	4.17
341.707	4.13
342.078	4.06
342.449	4.68
342.82	4.43
343.191	4.36
343.562	4.39
343.933	4.08
344.303	4
344.674	4.19
345.045	4.08
345.416	4.62
345.786	4.43
346.157	4.43
346.527	4.39
346.898	4.2
347.268	4.23
347.639	4.29
348.009	4.31
348.38	4.3
348.75	4.22
349.12	4.51
349.49	4.1
349.861	4.12
350.231	4.44
350.601	4.34
350.971	4.4
351.341	4.41
351.711	4.12
352.081	3.88
352.45	3.93
352.82	4.16
353.19	4.61
353.56	4.54
353.929	3.99
354.299	4.3
354.669	4.37
355.038	4.68
355.408	4.47
355.777	4.51
356.147	3.97
356.516	4.15
356.885	4.13
357.254	4.7
357.624	3.84
357.993	4.1
358.362	4.52
358.731	4.35
359.1	4.26
359.469	4.43
359.838	4.46
360.207	4.34
360.576	4.19
360.945	3.99
361.314	4.22
361.682	4.25
362.051	4.43
362.42	4.07
362.788	4.17
363.157	4.25
363.525	4.13
363.894	4.23
364.262	4.07
364.631	4.28
364.999	4.27
365.367	4.13
365.735	4.45
366.104	4.32
366.472	4.5
366.84	4.55
367.208	4.36
367.576	4.46
367.944	4.36
368.312	4.13
368.68	4.07
369.048	4.23
369.416	4.4
369.783	4.28
370.151	4.26
370.519	4.31
370.886	4.29
371.254	4.22
371.621	4.48
371.989	4.52
372.356	3.77
372.724	4.27
373.091	4.29
373.458	4.4
373.826	4.48
374.193	4.19
374.56	4.28
374.927	4.28
375.294	4.28
375.661	4.17
376.028	4.48
376.395	4.04
376.762	4.25
377.129	4.4
377.496	4.7
377.863	4.12
378.229	4.27
378.596	4.46
378.963	4.42
379.329	4.4
379.696	4.29
380.062	4.1
380.429	4.3
380.795	4.11
381.161	4.24
381.528	4.63
381.894	4.2
382.26	4.31
382.626	4.37
382.993	4.32
383.359	4.49
383.725	4.33
384.091	4.5
384.457	4.27
384.823	4.23
385.188	4.51
385.554	4.54
385.92	4.56
386.286	4.55
386.651	4.3
387.017	4.41
387.383	4.32
387.748	4.34
388.114	4.36
388.479	4.43
388.845	4.49
389.21	4.16
389.575	4.3
389.94	4.55
390.306	4.46
390.671	4.43
391.036	4.48
391.401	4.59
391.766	4.73
392.131	4.51
392.496	4.19
392.861	4.22
393.226	4.3
393.591	4.71
393.956	4.52
394.32	4.36
394.685	4.22
395.05	4.22
395.414	4.54
395.779	4.13
396.143	4.38
396.508	4.51
396.872	4.33
397.236	4.44
397.601	4.27
397.965	4.43
398.329	4.4
398.694	4.58
399.058	4.38
399.422	4.77
399.786	4.35
400.15	4.5
400.514	4.65
400.878	4.6
401.242	4.4
401.605	4.36
401.969	4.46
402.333	4.32
402.697	4.52
403.06	4.34
403.424	4.33
403.787	4.44
404.151	4.44
404.514	4.53
404.878	4.1
405.241	4.56
405.604	4.34
405.968	4.76
406.331	4.36
406.694	4.54
407.057	4.4
407.42	4.26
407.783	4.43
408.146	4.46
408.509	4.26
408.872	4.43
409.235	4.45
409.598	4.53
409.961	4.3
410.323	4.46
410.686	4.46
411.049	4.52
411.411	4.75
411.774	4.55
412.136	4.38
412.499	4.76
412.861	4.6
413.223	4.43
413.586	4.49
413.948	4.44
414.31	4.61
414.672	4.44
415.035	4.61
415.397	4.59
415.759	4.7
416.121	4.66
416.483	4.48
416.845	4.34
417.206	4.53
417.568	4.68
417.93	4.54
418.292	4.55
418.653	4.52
419.015	4.49
419.377	4.58
419.738	4.5
420.1	4.53
420.461	4.69
420.822	4.55
421.184	4.56
421.545	4.6
421.906	4.43
422.267	4.55
422.629	4.42
422.99	4.56
423.351	4.44
423.712	4.35
424.073	4.48
424.434	4.55
424.795	4.46
425.155	4.46
425.516	4.49
425.877	4.49
426.238	4.44
426.598	4.52
426.959	4.49
427.32	4.56
427.68	4.59
428.041	4.54
428.401	4.54
428.761	4.69
429.122	4.6
429.482	4.61
429.842	4.58
430.202	4.67
430.563	4.7
430.923	4.71
431.283	4.77
431.643	4.59
432.003	4.65
432.363	4.73
432.722	4.56
433.082	4.69
433.442	4.75
433.802	4.55
434.161	4.73
434.521	4.62
434.881	4.49
435.24	4.69
435.6	4.65
435.959	4.52
436.319	4.65
436.678	4.54
437.037	4.83
437.396	4.8
437.756	4.64
438.115	4.52
438.474	4.71
438.833	4.67
439.192	4.59
439.551	4.67
439.91	4.63
440.269	4.63
440.628	4.81
440.987	4.58
441.345	4.63
441.704	4.64
442.063	4.68
442.421	4.66
442.78	4.56
443.138	4.72
443.497	4.54
443.855	4.65
444.214	4.7
444.572	4.79
444.93	4.6
445.288	4.65
445.647	4.87
446.005	4.63
446.363	4.67
446.721	4.81
447.079	4.57
447.437	4.53
447.795	4.62
448.153	4.66
448.51	4.66
448.868	4.57
449.226	4.67
449.584	4.59
449.941	4.65
450.299	4.64
450.656	4.66
451.014	4.67
451.371	4.75
451.729	4.68
452.086	4.76
452.443	4.82
452.801	4.68
453.158	4.58
453.515	4.7
453.872	4.79
454.229	4.72
454.586	4.67
454.943	4.85
455.3	4.79
455.657	4.65
456.014	4.88
456.371	4.89
456.727	4.84
457.084	4.88
457.441	4.83
457.797	4.68
458.154	4.88
458.51	4.93
458.867	4.8
459.223	4.76
459.58	4.73
459.936	4.82
460.292	4.81
460.648	4.75
461.005	4.9
461.361	4.77
461.717	4.74
462.073	4.7
462.429	4.64
462.785	4.81
463.141	4.71
463.496	4.78
463.852	4.87
464.208	4.83
464.564	4.82
464.919	4.92
465.275	4.81
465.631	4.75
465.986	4.79
466.342	5.04
466.697	4.85
467.052	4.87
467.408	5.01
467.763	4.82
468.118	4.92
468.473	4.89
468.829	4.63
469.184	4.86
469.539	4.82
469.894	4.9
470.249	4.87
470.603	4.89
470.958	4.95
471.313	4.56
471.668	4.85
472.023	4.91
472.377	4.91
472.732	4.96
473.086	4.9
473.441	4.97
473.795	4.85
474.15	4.87
474.504	4.89
474.859	4.97
475.213	4.93
475.567	4.97
475.921	4.86
476.275	4.78
476.63	4.87
476.984	4.93
477.338	5.14
477.692	5.03
478.045	4.84
478.399	4.85
478.753	4.87
479.107	5.03
479.461	4.92
479.814	4.88
480.168	4.95
480.521	4.91
480.875	4.92
481.228	5.04
481.582	5.01
481.935	4.89
482.289	4.96
482.642	4.93
482.995	4.93
483.348	4.79
483.701	4.85
484.055	4.93
484.408	4.81
484.761	4.76
485.114	4.72
485.466	4.66
485.819	4.64
486.172	4.63
486.525	4.64
486.878	4.71
487.23	4.73
487.583	4.79
487.936	4.73
488.288	4.76
488.641	4.84
488.993	4.77
489.345	4.72
489.698	4.71
490.05	4.74
490.402	4.72
490.754	4.81
491.107	4.83
491.459	4.86
491.811	4.8
492.163	4.86
492.515	4.89
492.866	4.81
493.218	4.78
493.57	4.8
493.922	4.77
494.274	4.78
494.625	4.9
494.977	4.82
495.328	4.95
495.68	4.99
496.031	4.94
496.383	4.97
496.734	4.97
497.086	5
497.437	5.05
497.788	5.06
498.139	5.05
498.49	5
498.842	4.96
499.193	4.93
499.544	5.02
499.894	5.06
500.245	4.97
500.596	5
500.947	4.91
501.298	5.11
501.648	5.12
501.999	5
502.35	5.06
502.7	5.08
503.051	5.2
503.401	4.98
503.752	5
504.102	5.03
504.452	5.05
504.803	5.01
505.153	5.09
505.503	5.11
505.853	5.2
506.203	5.17
506.553	5.08
506.903	5.11
507.253	5.06
507.603	5.07
507.953	5.08
508.303	5.2
508.652	5.1
509.002	5.16
509.352	5.09
509.701	5.05
510.051	5.07
510.4	5.16
510.75	5.06
511.099	5.09
511.449	5.06
511.798	5.18
512.147	5.1
512.496	5.18
512.846	5.14
513.195	5.13
513.544	5.04
513.893	5.09
514.242	5.07
514.591	5.02
514.939	5.11
515.288	5.12
515.637	5.03
515.986	5.18
516.334	5.14
516.683	5.25
517.032	5.16
517.38	5.21
517.729	5.13
518.077	5.18
518.426	5.11
518.774	5.14
519.122	5.16
519.47	5.23
519.819	5.13
520.167	5.01
520.515	5.1
520.863	5.11
521.211	5.16
521.559	5.02
521.907	5.2
522.255	5.16
522.602	5.18
522.95	5.12
523.298	5.2
523.645	5.15
523.993	5.15
524.341	5.36
524.688	5.14
525.036	5.22
525.383	5.35
525.73	5.21
526.078	5.29
526.425	5.26
526.772	5.21
527.119	5.14
527.466	5.07
527.814	4.98
528.161	5.04
528.508	5.15
528.854	5.19
529.201	5.22
529.548	5.16
529.895	5.02
530.242	5.07
530.588	5.03
530.935	5.01
531.282	4.95
531.628	5.02
531.975	5.1
532.321	5.14
532.667	5.18
533.014	5.23
533.36	5.2
533.706	5.2
534.052	5.26
534.399	5.19
534.745	5.11
535.091	5.14
535.437	5.12
535.783	5.13
536.129	5.17
536.474	5.16
536.82	5.16
537.166	5.27
537.512	5.34
537.857	5.29
538.203	5.27
538.549	5.2
538.894	5.24
539.239	5.18
539.585	5.17
539.93	5.21
540.276	5.38
540.621	5.46
540.966	5.35
541.311	5.31
541.656	5.32
542.001	5.29
542.346	5.33
542.691	5.18
543.036	5.19
543.381	5.13
543.726	5.11
544.071	5.16
544.415	5.22
544.76	5.21
545.105	5.23
545.449	5.19
545.794	5.31
546.138	5.29
546.483	5.31
546.827	5.31
547.171	5.3
547.516	5.29
547.86	5.34
548.204	5.3
548.548	5.32
548.892	5.31
549.236	5.33
549.58	5.34
549.924	5.34
550.268	5.39
550.612	5.46
550.956	5.46
551.3	5.49
551.643	5.38
551.987	5.26
552.33	5.56
552.674	5.51
553.017	5.65
553.361	5.58
553.704	5.46
554.048	5.46
554.391	5.38
554.734	5.56
555.077	5.39
555.42	5.5
555.764	5.55
556.107	5.35
556.45	5.56
556.793	5.61
557.135	5.7
557.478	5.48
557.821	5.6
558.164	5.52
558.507	5.42
558.849	5.46
559.192	5.51
559.534	5.69
559.877	5.58
560.219	5.48
560.562	5.51
560.904	5.74
561.246	5.57
561.589	5.66
561.931	5.59
562.273	5.57
562.615	5.47
562.957	5.61
563.299	5.51
563.641	5.66
563.983	5.62
564.325	5.57
564.667	5.51
565.008	5.54
565.35	5.67
565.692	5.67
566.033	5.8
566.375	5.74
566.716	5.56
567.058	5.5
567.399	5.79
567.741	5.81
568.082	5.59
568.423	5.51
568.764	5.6
569.105	5.61
569.447	5.71
569.788	5.69
570.129	5.67
570.47	5.82
570.811	5.72
571.151	5.67
571.492	5.75
571.833	5.55
572.174	5.44
572.514	5.61
572.855	5.65
573.195	5.59
573.536	5.71
573.876	5.69
574.217	5.7
574.557	5.48
574.898	5.95
575.238	5.82
575.578	5.75
575.918	5.56
576.258	5.65
576.598	5.71
576.938	5.82
577.278	5.72
577.618	5.54
577.958	5.62
578.298	5.71
578.638	5.62
578.977	5.81
579.317	5.9
579.657	5.84
579.996	5.88
580.336	5.95
580.675	5.86
581.014	5.61
581.354	5.88
581.693	5.8
582.032	5.59
582.372	5.53
582.711	5.99
583.05	5.69
583.389	5.89
583.728	5.99
584.067	5.86
584.406	5.85
584.745	6.22
585.083	5.87
585.422	5.85
585.761	5.94
586.1	5.66
586.438	5.89
586.777	5.68
587.115	6
587.454	5.79
587.792	6
588.13	5.87
588.469	6.12
588.807	5.76
589.145	5.77
589.483	6.11
589.821	6.1
590.159	5.84
590.497	5.76
590.835	5.99
591.173	5.77
591.511	6
591.849	6.04
592.187	6.01
592.524	5.9
592.862	5.93
593.2	5.73
593.537	5.54
593.875	6.04
594.212	5.79
594.55	5.99
594.887	5.82
595.224	5.79
595.561	5.98
595.899	5.68
596.236	5.94
596.573	5.93
596.91	5.98
597.247	5.86
597.584	5.94
597.921	6.02
598.258	6.05
598.594	5.85
598.931	5.95
599.268	5.95
599.604	5.75
599.941	5.84
600.277	6.06
600.614	5.9
600.95	6.02
601.287	5.91
601.623	5.92
601.959	5.95
602.296	6.13
602.632	5.9
602.968	6.06
603.304	5.92
603.64	6.12
603.976	6.12
604.312	5.99
604.648	6.05
604.984	6.01
605.319	6.06
605.655	5.79
605.991	5.87
606.326	6.18
606.662	6.08
606.998	6.03
607.333	6.08
607.668	6.25
608.004	5.96
608.339	5.93
608.674	6.07
609.01	6.12
609.345	6.24
609.68	5.83
610.015	5.96
610.35	5.98
610.685	5.98
611.02	6.14
611.355	6.12
611.689	6.12
612.024	6.06
612.359	5.89
612.694	6.21
613.028	5.88
613.363	6.08
613.697	5.84
614.032	6.01
614.366	6.32
614.7	6.26
615.035	6.14
615.369	6.01
615.703	5.94
616.037	5.9
616.371	6.01
616.705	6.38
617.039	6.18
617.373	6.33
617.707	6.53
618.041	6.44
618.375	6.35
618.709	5.97
619.042	6.18
619.376	6.15
619.71	6.47
620.043	6.27
620.377	5.67
620.71	6.24
621.043	6.49
621.377	6.18
621.71	6.12
622.043	6.36
622.376	6.71
622.709	6.23
623.043	6.46
623.376	6.33
623.709	5.97
624.041	6.31
624.374	6.11
624.707	6.28
625.04	6.52
625.373	6.45
625.705	6.36
626.038	6.1
626.37	5.97
626.703	6.25
627.035	5.95
627.368	6.3
627.7	6.43
628.032	6.21
628.365	6.02
628.697	6.25
629.029	6.37
629.361	6.15
629.693	6.13
630.025	6.46
630.357	6.39
630.689	6.33
631.021	6.2
631.353	6.19
631.684	6.46
632.016	6.57
632.348	6.13
632.679	6.21
633.011	6.38
633.342	6.35
633.674	6.08
634.005	5.9
634.336	6.44
634.668	6.37
634.999	6.35
635.33	6.33
635.661	5.95
635.992	6.3
636.323	6.34
636.654	6.2
636.985	6.27
637.316	6.3
637.647	6.36
637.977	6.24
638.308	6.59
638.639	6
638.969	6.17
639.3	6.59
639.63	6.34
639.961	6.71
640.291	6.52
640.622	6.16
640.952	6.71
641.282	7.06
641.612	6.62
641.943	7.06
642.273	6.47
642.603	6.13
642.933	6.4
643.263	6.15
643.592	6.18
643.922	6.57
644.252	6.77
644.582	6.46
644.911	6.58
645.241	6.49
645.571	6.48
645.9	6.37
646.23	6.79
646.559	6.46
646.888	6.53
647.218	6.87
647.547	6.63
647.876	6.13
648.205	6.78
648.534	6.49
648.863	6.49
649.192	6.66
649.521	6.46
649.85	6.68
650.179	6.75
650.508	6.75
650.837	6.55
651.165	5.91
651.494	6.44
651.822	6.88
652.151	6.92
652.479	6.39
652.808	6.2
653.136	6.5
653.465	6.31
653.793	6.48
654.121	6.23
654.449	6.45
654.777	6.51
655.105	6.46
655.433	6.26
655.761	7.06
656.089	6.17
656.417	6.95
656.745	6.44
657.073	6.78
657.4	6.89
657.728	6.76
658.056	6.36
658.383	6.24
658.711	6.46
659.038	7.3
659.365	7.2
659.693	6.48
660.02	6.56
660.347	6.3
660.674	6.26
661.001	6.71
661.329	7.22
661.656	6.9
661.982	6.66
662.309	6.72
662.636	6.83
662.963	6.57
663.29	6.66
663.616	6.69
663.943	6.79
664.27	6.44
664.596	6.85
664.923	6.59
665.249	6.43
665.576	6.75
665.902	6.94
666.228	6.33
666.554	7.27
666.881	7.05
667.207	6.17
667.533	7.14
667.859	6.48
668.185	5.85
668.511	6.27
668.837	6.84
669.162	6.76
669.488	6.58
669.814	6.49
670.139	6.46
670.465	6.79
670.791	6.85
671.116	6.56
671.442	7.22
671.767	6.87
672.092	6.38
672.418	6.95
672.743	6.27
673.068	7.38
673.393	6.89
673.718	6.74
674.043	6.31
674.368	7
674.693	7.02
675.018	7.42
675.343	6.9
675.667	6.84
675.992	6.6
676.317	6.17
676.641	6.41
676.966	6.64
677.29	7.31
677.615	6.65
677.939	6.8
678.264	7.66
678.588	6.7
678.912	7.33
679.236	6.43
679.56	6.53
679.885	7.24
680.209	6.27
680.532	6.48
680.856	6.81
681.18	6.74
681.504	6.86
681.828	7.11
682.152	6.56
682.475	6.69
682.799	6.55
683.122	6.99
683.446	7.45
683.769	7.75
684.093	6.9
684.416	6.79
684.739	7.22
685.062	6.66
685.386	6.51
685.709	7.63
686.032	7.37
686.355	6.83
686.678	7.15
687.001	6.8
687.324	6.86
687.646	7.5
687.969	6.68
688.292	7.07
688.614	6.75
688.937	7.31
689.26	6.35
689.582	6.91
689.904	6.72
690.227	7.92
690.549	7.78
690.871	6.74
691.194	6.97
691.516	6.73
691.838	6.82
692.16	6.41
692.482	7.2
