Data from 2019-4_crown_Reflection__3__198.txt Node

Date: Fri Nov 11 18:27:37 CST 2022
User: ToomeyLab
Spectrometer: FLMS14357
Trigger mode: 0
Integration Time (sec): 1.000000E-2
Scans to average: 100
Electric dark correction enabled: true
Nonlinearity correction enabled: false
Boxcar width: 0
XAxis mode: Wavelengths
Number of Pixels in Spectrum: 2048
>>>>>Begin Spectral Data<<<<<
189.047	129.89
189.435	129.89
189.823	129.89
190.211	-69.69
190.599	-36.93
190.987	166.69
191.375	459.5
191.763	337.01
192.151	223.06
192.538	184.89
192.926	243.96
193.314	269.25
193.702	-809.22
194.089	4.46
194.477	176.04
194.864	173.15
195.252	-127.2
195.639	14.61
196.027	23.2
196.414	53.73
196.801	7.47
197.189	2.3
197.576	123.03
197.963	-52.41
198.351	31.34
198.738	-17.06
199.125	-18.28
199.512	38.34
199.899	18.08
200.286	-112.08
200.673	8.43
201.06	-60.95
201.447	-15.1
201.833	30.37
202.22	-37.97
202.607	1.59
202.994	27.99
203.38	-7.19
203.767	50.85
204.154	30.85
204.54	19.54
204.927	-1.2
205.313	29.42
205.699	1.79
206.086	-46.46
206.472	-37.94
206.858	-4.16
207.245	-6.6
207.631	-79.01
208.017	-42.73
208.403	-8.93
208.789	35.16
209.175	-42.97
209.561	-8.99
209.947	-12.41
210.333	6.19
210.719	-3.38
211.105	9.65
211.491	4.06
211.876	-41.11
212.262	-34.26
212.648	-22.98
213.034	-4.23
213.419	-36.13
213.805	1.34
214.19	-8.22
214.576	-10.93
214.961	-7.77
215.346	-25.73
215.732	6.07
216.117	24.92
216.502	29.14
216.888	-44.74
217.273	-15.85
217.658	-2.39
218.043	6.41
218.428	25.82
218.813	-0.15
219.198	-1.05
219.583	-14.81
219.968	8.86
220.353	-4.7
220.738	-3.92
221.122	-21.4
221.507	8.33
221.892	13.74
222.276	23.01
222.661	0.89
223.046	-3.62
223.43	-4.61
223.815	6.85
224.199	0.09
224.583	11.51
224.968	6.48
225.352	9.36
225.736	2.53
226.121	1.05
226.505	-4.57
226.889	8.3
227.273	7.61
227.657	6.42
228.041	2.34
228.425	-4.67
228.809	4.22
229.193	1.75
229.577	2.61
229.961	3.95
230.344	2.71
230.728	2.77
231.112	2.88
231.495	3.16
231.879	3.65
232.263	4.64
232.646	2.45
233.03	1.47
233.413	3.11
233.797	2.08
234.18	-0.4
234.563	0.79
234.946	0.38
235.33	5.83
235.713	0.66
236.096	4.24
236.479	1.74
236.862	0.67
237.245	3.18
237.628	1.57
238.011	0.9
238.394	1.45
238.777	2.14
239.16	1.09
239.543	4.53
239.925	1.98
240.308	2.26
240.691	2.83
241.073	3.27
241.456	2.59
241.838	3.34
242.221	2.32
242.603	2.36
242.986	2.31
243.368	3.19
243.75	2.88
244.133	2.48
244.515	3.22
244.897	3
245.279	2.8
245.661	1.84
246.043	2.09
246.425	3.09
246.807	2.7
247.189	3.22
247.571	2.49
247.953	2.29
248.335	2.8
248.717	2.88
249.098	2.72
249.48	2.53
249.862	2.79
250.243	2.89
250.625	2.3
251.006	1.71
251.388	2.46
251.769	2.87
252.151	2.77
252.532	2.62
252.913	3.07
253.295	2.21
253.676	2.85
254.057	2.6
254.438	2.41
254.819	2.24
255.2	3.66
255.581	2.72
255.962	0.96
256.343	1.46
256.724	1.69
257.105	1.77
257.486	2.16
257.867	1.87
258.247	2.72
258.628	3.2
259.009	1.84
259.389	2.62
259.77	2.99
260.15	2.42
260.531	2.59
260.911	2.06
261.292	2.5
261.672	2.45
262.052	2.36
262.432	2.31
262.813	2.58
263.193	2.69
263.573	2.07
263.953	2.46
264.333	2.12
264.713	2.53
265.093	2.51
265.473	2.47
265.853	2.56
266.233	2.24
266.612	2.42
266.992	2.27
267.372	3.06
267.752	2.46
268.131	2.51
268.511	2.34
268.89	2.78
269.27	2.2
269.649	2.14
270.029	2.02
270.408	2.31
270.787	3.32
271.167	2.41
271.546	2.4
271.925	2.47
272.304	2.69
272.683	2.66
273.062	2.73
273.441	2.18
273.82	2.69
274.199	2.25
274.578	2.55
274.957	2.34
275.336	2.02
275.715	2.78
276.093	2.33
276.472	2.6
276.851	2.21
277.229	2.39
277.608	2.43
277.986	2.35
278.365	1.76
278.743	2.54
279.122	2.31
279.5	3.07
279.878	3.1
280.257	2.66
280.635	2.43
281.013	1.79
281.391	2.47
281.769	1.9
282.147	2.41
282.525	2.63
282.903	2.9
283.281	2.62
283.659	2.29
284.037	2.59
284.415	2.3
284.792	2.51
285.17	2.83
285.548	2.59
285.925	2.44
286.303	1.95
286.68	2.26
287.058	2.57
287.435	2.25
287.813	2.32
288.19	2.33
288.567	2.22
288.945	2
289.322	2.31
289.699	2.7
290.076	2.65
290.453	2.47
290.83	1.94
291.207	2.35
291.584	2.34
291.961	2.55
292.338	2.48
292.715	2.15
293.092	2.55
293.469	2.16
293.845	2.57
294.222	2.61
294.599	2.58
294.975	1.98
295.352	2.43
295.728	2.51
296.105	2.13
296.481	3.01
296.858	2.53
297.234	2.18
297.61	2.23
297.986	2.01
298.363	2.45
298.739	2.41
299.115	2.46
299.491	2.64
299.867	2.73
300.243	2.43
300.619	2.33
300.995	2.53
301.371	2.84
301.746	1.81
302.122	2.17
302.498	2.64
302.874	2.4
303.249	2.16
303.625	2.63
304	2.44
304.376	2.48
304.751	2.6
305.127	2.66
305.502	2.04
305.878	2.29
306.253	2.3
306.628	2.25
307.003	2.87
307.378	1.99
307.754	2.18
308.129	2.37
308.504	2.13
308.879	2.99
309.254	2.24
309.629	2.36
310.003	2.19
310.378	2.63
310.753	2.36
311.128	2.42
311.502	2.18
311.877	2.52
312.252	2.77
312.626	2.66
313.001	2.42
313.375	2.38
313.75	2.53
314.124	2.4
314.498	2.32
314.873	2.54
315.247	2.52
315.621	2.34
315.995	2.65
316.369	2.17
316.743	2.42
317.117	2.39
317.491	2.67
317.865	2.73
318.239	2.98
318.613	2.6
318.987	1.94
319.361	2.8
319.734	2.47
320.108	2.07
320.482	2.42
320.855	2.78
321.229	2.49
321.602	2.1
321.976	2.52
322.349	2.69
322.723	2.81
323.096	2.28
323.469	2.47
323.843	2.58
324.216	2.41
324.589	2.35
324.962	2.43
325.335	2.13
325.708	2.66
326.081	2.23
326.454	2.53
326.827	2.72
327.2	3.09
327.573	2.6
327.945	2.8
328.318	2.72
328.691	2.45
329.063	2.41
329.436	2.49
329.809	2.03
330.181	2.03
330.553	2.19
330.926	2.1
331.298	2.21
331.671	2.55
332.043	2.77
332.415	2.17
332.787	2.44
333.159	2.08
333.532	2.29
333.904	2.25
334.276	2.69
334.648	1.66
335.02	2.63
335.391	2.23
335.763	2.51
336.135	2.45
336.507	2.72
336.879	2.22
337.25	2.88
337.622	2.71
337.993	2.76
338.365	2.99
338.736	2.55
339.108	2.33
339.479	2.04
339.851	1.92
340.222	2.27
340.593	2.31
340.964	2.26
341.336	1.93
341.707	2.37
342.078	2.51
342.449	2.39
342.82	2.98
343.191	2.8
343.562	2.58
343.933	2.19
344.303	2.62
344.674	2.6
345.045	2.46
345.416	2.55
345.786	2.42
346.157	2.65
346.527	2.44
346.898	2.35
347.268	2.35
347.639	2.9
348.009	2.39
348.38	2.41
348.75	2.24
349.12	2.73
349.49	2.29
349.861	1.78
350.231	2.7
350.601	2.44
350.971	2.4
351.341	2.53
351.711	2.34
352.081	2.46
352.45	2.59
352.82	2.66
353.19	2.92
353.56	3.16
353.929	1.81
354.299	2.2
354.669	2.74
355.038	2.92
355.408	2.48
355.777	2.6
356.147	2.32
356.516	2.17
356.885	2.64
357.254	2.96
357.624	2.09
357.993	2.3
358.362	2.76
358.731	2.41
359.1	2.62
359.469	2.61
359.838	2.55
360.207	2.65
360.576	2.41
360.945	2.52
361.314	2.7
361.682	2.68
362.051	2.61
362.42	2.39
362.788	2.43
363.157	2.22
363.525	2.39
363.894	2.55
364.262	2.32
364.631	2.51
364.999	2.63
365.367	2.38
365.735	2.75
366.104	2.82
366.472	2.48
366.84	2.83
367.208	2.45
367.576	2.56
367.944	2.31
368.312	2.26
368.68	2.32
369.048	2.38
369.416	2.5
369.783	2.74
370.151	2.27
370.519	2.74
370.886	2.14
371.254	2.38
371.621	2.45
371.989	2.63
372.356	2.3
372.724	2.63
373.091	2.58
373.458	2.86
373.826	2.88
374.193	2.59
374.56	2.6
374.927	2.55
375.294	2.46
375.661	2.7
376.028	2.79
376.395	2.66
376.762	2.68
377.129	2.45
377.496	2.62
377.863	2.45
378.229	2.71
378.596	2.71
378.963	2.88
379.329	2.67
379.696	2.44
380.062	2.43
380.429	2.63
380.795	2.33
381.161	2.69
381.528	2.97
381.894	2.55
382.26	2.42
382.626	2.46
382.993	2.52
383.359	2.52
383.725	2.54
384.091	2.45
384.457	2.57
384.823	2.61
385.188	2.76
385.554	2.49
385.92	2.95
386.286	2.49
386.651	2.78
387.017	2.43
387.383	2.69
387.748	2.37
388.114	2.58
388.479	2.49
388.845	2.54
389.21	2.46
389.575	2.5
389.94	2.69
390.306	2.53
390.671	2.46
391.036	2.58
391.401	2.71
391.766	2.94
392.131	2.69
392.496	2.72
392.861	2.49
393.226	2.47
393.591	2.81
393.956	2.71
394.32	2.75
394.685	2.4
395.05	2.53
395.414	2.89
395.779	2.61
396.143	2.57
396.508	2.53
396.872	2.6
397.236	2.65
397.601	2.61
397.965	2.46
398.329	2.66
398.694	2.91
399.058	2.77
399.422	2.86
399.786	2.95
400.15	2.86
400.514	2.85
400.878	2.72
401.242	2.53
401.605	2.46
401.969	2.58
402.333	2.57
402.697	2.7
403.06	2.77
403.424	2.55
403.787	2.81
404.151	2.68
404.514	2.88
404.878	2.48
405.241	2.66
405.604	2.68
405.968	2.68
406.331	2.57
406.694	2.88
407.057	2.61
407.42	2.58
407.783	2.55
408.146	2.84
408.509	2.49
408.872	2.63
409.235	2.98
409.598	2.8
409.961	2.66
410.323	2.67
410.686	2.85
411.049	2.74
411.411	2.92
411.774	2.64
412.136	2.62
412.499	2.76
412.861	2.69
413.223	2.65
413.586	2.79
413.948	2.61
414.31	2.74
414.672	2.56
415.035	2.79
415.397	2.66
415.759	3.07
416.121	2.77
416.483	2.94
416.845	2.53
417.206	2.71
417.568	2.72
417.93	2.74
418.292	2.78
418.653	2.7
419.015	2.54
419.377	2.71
419.738	2.65
420.1	2.77
420.461	2.79
420.822	2.69
421.184	2.74
421.545	2.7
421.906	2.74
422.267	2.65
422.629	2.66
422.99	2.69
423.351	2.64
423.712	2.66
424.073	2.69
424.434	2.72
424.795	2.62
425.155	2.71
425.516	2.63
425.877	2.72
426.238	2.76
426.598	2.71
426.959	2.75
427.32	2.7
427.68	2.83
428.041	2.65
428.401	2.81
428.761	2.78
429.122	2.82
429.482	2.78
429.842	2.71
430.202	2.81
430.563	2.76
430.923	2.83
431.283	2.82
431.643	2.74
432.003	2.9
432.363	2.83
432.722	2.9
433.082	2.94
433.442	2.98
433.802	2.58
434.161	2.87
434.521	2.8
434.881	2.57
435.24	2.71
435.6	2.82
435.959	2.58
436.319	2.89
436.678	2.8
437.037	2.77
437.396	2.81
437.756	2.62
438.115	2.64
438.474	2.94
438.833	2.74
439.192	2.63
439.551	2.71
439.91	2.77
440.269	2.88
440.628	2.89
440.987	2.73
441.345	2.81
441.704	2.76
442.063	2.76
442.421	2.9
442.78	2.83
443.138	2.82
443.497	2.73
443.855	2.82
444.214	2.87
444.572	3.09
444.93	2.88
445.288	2.7
445.647	2.95
446.005	2.76
446.363	2.78
446.721	2.87
447.079	2.62
447.437	2.8
447.795	2.86
448.153	2.8
448.51	2.82
448.868	2.85
449.226	2.89
449.584	2.88
449.941	2.8
450.299	2.78
450.656	2.85
451.014	2.93
451.371	2.97
451.729	2.8
452.086	2.91
452.443	2.94
452.801	2.96
453.158	3.04
453.515	2.8
453.872	2.86
454.229	2.92
454.586	2.87
454.943	3.01
455.3	2.91
455.657	2.86
456.014	2.86
456.371	2.96
456.727	2.99
457.084	2.89
457.441	2.88
457.797	2.97
458.154	3.01
458.51	2.78
458.867	3.06
459.223	2.9
459.58	2.92
459.936	2.87
460.292	2.95
460.648	2.87
461.005	2.92
461.361	2.84
461.717	2.87
462.073	2.86
462.429	2.72
462.785	2.97
463.141	2.88
463.496	2.85
463.852	3.04
464.208	2.96
464.564	3.03
464.919	2.89
465.275	2.91
465.631	2.95
465.986	2.93
466.342	3.06
466.697	2.82
467.052	2.97
467.408	3.06
467.763	2.89
468.118	2.99
468.473	3.01
468.829	2.89
469.184	2.89
469.539	2.96
469.894	3.06
470.249	2.87
470.603	2.99
470.958	3.09
471.313	2.66
471.668	3.03
472.023	2.98
472.377	3.03
472.732	3.11
473.086	3.03
473.441	2.92
473.795	3.02
474.15	3.01
474.504	2.99
474.859	2.88
475.213	2.89
475.567	3.07
475.921	2.94
476.275	3
476.63	3.06
476.984	2.99
477.338	2.87
477.692	3.04
478.045	3.01
478.399	2.82
478.753	2.92
479.107	3.13
479.461	2.9
479.814	2.98
480.168	3
480.521	3.06
480.875	2.93
481.228	2.98
481.582	3.08
481.935	3
482.289	2.89
482.642	2.99
482.995	3.04
483.348	2.9
483.701	2.96
484.055	3.02
484.408	2.86
484.761	2.88
485.114	2.77
485.466	2.75
485.819	2.74
486.172	2.76
486.525	2.85
486.878	2.86
487.23	2.87
487.583	2.88
487.936	2.88
488.288	2.89
488.641	2.94
488.993	2.83
489.345	2.85
489.698	2.83
490.05	2.85
490.402	2.89
490.754	2.99
491.107	2.9
491.459	2.91
491.811	2.86
492.163	2.96
492.515	2.93
492.866	2.86
493.218	2.83
493.57	2.9
493.922	2.91
494.274	2.91
494.625	2.98
494.977	3.01
495.328	3.08
495.68	3.07
496.031	3.02
496.383	2.92
496.734	3.16
497.086	3.1
497.437	3.18
497.788	3.05
498.139	2.97
498.49	3.12
498.842	3.01
499.193	3.05
499.544	3.01
499.894	3.07
500.245	3.04
500.596	3.07
500.947	2.88
501.298	3.02
501.648	3.11
501.999	2.97
502.35	3.1
502.7	3.11
503.051	3.11
503.401	3.11
503.752	3.02
504.102	3.04
504.452	3.13
504.803	3
505.153	3.03
505.503	3.14
505.853	3.14
506.203	3.14
506.553	3.08
506.903	3.14
507.253	3.12
507.603	3.07
507.953	3.13
508.303	3.12
508.652	3.21
509.002	3.14
509.352	3.07
509.701	3.1
510.051	3.08
510.4	3.17
510.75	3.09
511.099	3.09
511.449	3.1
511.798	3.19
512.147	3.1
512.496	3.1
512.846	3.17
513.195	3.03
513.544	3.17
513.893	3
514.242	3.01
514.591	3.08
514.939	3.16
515.288	3.1
515.637	3.1
515.986	3.14
516.334	3.23
516.683	3.2
517.032	3.12
517.38	3.14
517.729	3.09
518.077	3.2
518.426	3.09
518.774	3.19
519.122	3.01
519.47	3.17
519.819	3.04
520.167	3.16
520.515	3.03
520.863	3.06
521.211	3.19
521.559	3.03
521.907	3.2
522.255	3.13
522.602	3.16
522.95	3.13
523.298	3.25
523.645	3.16
523.993	3.24
524.341	3.24
524.688	3.23
525.036	3.15
525.383	3.18
525.73	3.22
526.078	3.24
526.425	3.19
526.772	3.11
527.119	3.07
527.466	3.12
527.814	2.97
528.161	3.11
528.508	3.22
528.854	3.11
529.201	3.19
529.548	3.07
529.895	2.95
530.242	2.92
530.588	2.97
530.935	3.01
531.282	3.02
531.628	3.11
531.975	3.11
532.321	3.1
532.667	3.1
533.014	3.22
533.36	3.21
533.706	3.18
534.052	3.16
534.399	3.06
534.745	3.02
535.091	3.05
535.437	3.08
535.783	3.12
536.129	3.19
536.474	3.17
536.82	3.14
537.166	3.2
537.512	3.21
537.857	3.27
538.203	3.17
538.549	3.12
538.894	3.13
539.239	3.08
539.585	3.19
539.93	3.23
540.276	3.24
540.621	3.37
540.966	3.35
541.311	3.31
541.656	3.23
542.001	3.17
542.346	3.3
542.691	3.12
543.036	3.09
543.381	3.09
543.726	3.11
544.071	3.17
544.415	3.21
544.76	3.14
545.105	3.18
545.449	3.11
545.794	3.3
546.138	3.3
546.483	3.23
546.827	3.13
547.171	3.34
547.516	3.2
547.86	3.26
548.204	3.26
548.548	3.19
548.892	3.18
549.236	3.26
549.58	3.26
549.924	3.29
550.268	3.25
550.612	3.43
550.956	3.31
551.3	3.36
551.643	3.3
551.987	3.28
552.33	3.54
552.674	3.36
553.017	3.54
553.361	3.4
553.704	3.43
554.048	3.2
554.391	3.29
554.734	3.4
555.077	3.37
555.42	3.37
555.764	3.33
556.107	3.3
556.45	3.48
556.793	3.52
557.135	3.54
557.478	3.38
557.821	3.44
558.164	3.46
558.507	3.24
558.849	3.36
559.192	3.49
559.534	3.62
559.877	3.57
560.219	3.37
560.562	3.4
560.904	3.5
561.246	3.48
561.589	3.52
561.931	3.44
562.273	3.59
562.615	3.45
562.957	3.38
563.299	3.34
563.641	3.32
563.983	3.42
564.325	3.47
564.667	3.41
565.008	3.32
565.35	3.5
565.692	3.5
566.033	3.7
566.375	3.42
566.716	3.44
567.058	3.42
567.399	3.55
567.741	3.54
568.082	3.37
568.423	3.5
568.764	3.51
569.105	3.45
569.447	3.48
569.788	3.56
570.129	3.45
570.47	3.49
570.811	3.38
571.151	3.45
571.492	3.52
571.833	3.47
572.174	3.35
572.514	3.34
572.855	3.4
573.195	3.34
573.536	3.46
573.876	3.36
574.217	3.53
574.557	3.36
574.898	3.6
575.238	3.72
575.578	3.49
575.918	3.36
576.258	3.32
576.598	3.53
576.938	3.51
577.278	3.49
577.618	3.37
577.958	3.44
578.298	3.6
578.638	3.47
578.977	3.64
579.317	3.58
579.657	3.37
579.996	3.67
580.336	3.54
580.675	3.61
581.014	3.66
581.354	3.7
581.693	3.4
582.032	3.43
582.372	3.46
582.711	3.67
583.05	3.29
583.389	3.59
583.728	3.66
584.067	3.84
584.406	3.62
584.745	3.75
585.083	3.61
585.422	3.56
585.761	3.61
586.1	3.61
586.438	3.61
586.777	3.49
587.115	3.71
587.454	3.68
587.792	3.79
588.13	3.61
588.469	3.78
588.807	3.66
589.145	3.81
589.483	3.62
589.821	3.63
590.159	3.55
590.497	3.45
590.835	3.81
591.173	3.51
591.511	3.66
591.849	3.58
592.187	3.58
592.524	3.73
592.862	3.64
593.2	3.4
593.537	3.37
593.875	3.82
594.212	3.61
594.55	3.77
594.887	3.68
595.224	3.49
595.561	3.64
595.899	3.63
596.236	3.67
596.573	3.71
596.91	3.83
597.247	3.51
597.584	3.84
597.921	3.57
598.258	3.61
598.594	3.68
598.931	3.63
599.268	3.57
599.604	3.55
599.941	3.74
600.277	3.7
600.614	3.44
600.95	3.7
601.287	3.56
601.623	3.8
601.959	3.94
602.296	3.75
602.632	3.67
602.968	3.68
603.304	3.6
603.64	3.81
603.976	3.9
604.312	3.64
604.648	3.63
604.984	3.63
605.319	3.73
605.655	3.5
605.991	3.66
606.326	3.81
606.662	3.71
606.998	3.69
607.333	3.7
607.668	3.54
608.004	3.89
608.339	3.59
608.674	3.61
609.01	3.66
609.345	3.69
609.68	3.68
610.015	3.52
610.35	3.73
610.685	3.66
611.02	3.66
611.355	3.66
611.689	3.71
612.024	3.74
612.359	3.55
612.694	3.86
613.028	3.71
613.363	3.61
613.697	3.61
614.032	3.7
614.366	3.96
614.7	3.67
615.035	3.59
615.369	3.79
615.703	3.38
616.037	3.69
616.371	3.88
616.705	4.18
617.039	3.63
617.373	3.8
617.707	4.2
618.041	4.13
618.375	3.78
618.709	3.34
619.042	3.75
619.376	3.86
619.71	3.83
620.043	4
620.377	3.52
620.71	3.85
621.043	4.17
621.377	3.71
621.71	3.71
622.043	3.75
622.376	4.03
622.709	3.78
623.043	4.52
623.376	3.84
623.709	3.67
624.041	3.88
624.374	3.71
624.707	3.57
625.04	3.85
625.373	4.07
625.705	3.6
626.038	3.65
626.37	3.5
626.703	3.77
627.035	3.85
627.368	3.89
627.7	4.13
628.032	3.9
628.365	3.75
628.697	3.99
629.029	3.82
629.361	3.91
629.693	3.74
630.025	4.14
630.357	3.7
630.689	3.88
631.021	3.77
631.353	3.68
631.684	3.75
632.016	3.71
632.348	3.59
632.679	4.04
633.011	3.78
633.342	4.01
633.674	3.53
634.005	3.38
634.336	4.19
634.668	3.74
634.999	3.88
635.33	3.85
635.661	3.46
635.992	3.87
636.323	3.88
636.654	3.9
636.985	4.16
637.316	4.08
637.647	3.95
637.977	4
638.308	4.06
638.639	3.74
638.969	3.83
639.3	4.32
639.63	3.97
639.961	3.76
640.291	3.97
640.622	3.81
640.952	4.09
641.282	4
641.612	4.07
641.943	4.37
642.273	3.85
642.603	4.04
642.933	3.82
643.263	3.58
643.592	3.87
643.922	4.15
644.252	4.12
644.582	3.87
644.911	4.19
645.241	3.76
645.571	4.08
645.9	4.01
646.23	4.03
646.559	4.19
646.888	4.17
647.218	4.25
647.547	4.27
647.876	4.07
648.205	4.34
648.534	3.69
648.863	3.97
649.192	4.35
649.521	3.89
649.85	4.22
650.179	4.1
650.508	4.1
650.837	4.01
651.165	3.35
651.494	3.83
651.822	3.98
652.151	4.44
652.479	4.11
652.808	4.31
653.136	3.91
653.465	4.04
653.793	4.03
654.121	3.81
654.449	4
654.777	3.99
655.105	3.79
655.433	3.54
655.761	3.89
656.089	3.83
656.417	4.23
656.745	3.79
657.073	4.41
657.4	4.03
657.728	4.06
658.056	3.85
658.383	3.84
658.711	4.05
659.038	4.3
659.365	4.61
659.693	3.92
660.02	4.31
660.347	4.4
660.674	3.96
661.001	3.88
661.329	4.33
661.656	3.97
661.982	4
662.309	4.29
662.636	4.38
662.963	3.66
663.29	3.98
663.616	3.92
663.943	4.62
664.27	3.89
664.596	4.19
664.923	3.18
665.249	3.59
665.576	4
665.902	4.32
666.228	3.76
666.554	4.76
666.881	4.38
667.207	3.86
667.533	4.27
667.859	4.27
668.185	3.4
668.511	3.99
668.837	4.38
669.162	4.36
669.488	4.33
669.814	4.32
670.139	3.93
670.465	4.06
670.791	4.29
671.116	3.85
671.442	4.81
671.767	4.15
672.092	3.8
672.418	4.59
672.743	3.84
673.068	4.3
673.393	4.14
673.718	4.38
674.043	4.12
674.368	3.95
674.693	4.57
675.018	4.04
675.343	4.3
675.667	4.32
675.992	4.23
676.317	4.82
676.641	4.37
676.966	4.23
677.29	4.79
677.615	4.19
677.939	4.86
678.264	4.73
678.588	4.29
678.912	4.35
679.236	3.89
679.56	4
679.885	4.32
680.209	3.99
680.532	3.6
680.856	4.14
681.18	4.02
681.504	4.53
681.828	4.85
682.152	3.8
682.475	4.23
682.799	4.3
683.122	4.42
683.446	4.56
683.769	4.65
684.093	4.46
684.416	4.19
684.739	4.92
685.062	4.35
685.386	3.84
685.709	4.59
686.032	4.73
686.355	4.29
686.678	4.53
687.001	4.13
687.324	4.43
687.646	4.82
687.969	4.16
688.292	4.34
688.614	4.39
688.937	3.65
689.26	3.92
689.582	3.78
689.904	3.98
690.227	4.37
690.549	4.73
690.871	4.42
691.194	4.22
691.516	4.6
691.838	3.44
692.16	3.5
692.482	4.16
692.804	3.51
