Data from 2019-4_chest_Reflection__0__190.txt Node

Date: Fri Nov 11 18:25:19 CST 2022
User: ToomeyLab
Spectrometer: FLMS14357
Trigger mode: 0
Integration Time (sec): 1.000000E-2
Scans to average: 100
Electric dark correction enabled: true
Nonlinearity correction enabled: false
Boxcar width: 0
XAxis mode: Wavelengths
Number of Pixels in Spectrum: 2048
>>>>>Begin Spectral Data<<<<<
189.047	221.32
189.435	221.32
189.823	221.32
190.211	-14.08
190.599	54.55
190.987	128.73
191.375	-999.17
191.763	43.48
192.151	18.59
192.538	-320.74
192.926	167.49
193.314	304.3
193.702	-748.85
194.089	-104.8
194.477	120.73
194.864	91.55
195.252	-11.11
195.639	86.03
196.027	36.29
196.414	-98.16
196.801	36.52
197.189	72.94
197.576	247.45
197.963	174.76
198.351	9.8
198.738	10.74
199.125	-16.97
199.512	-48.15
199.899	39.56
200.286	-77.18
200.673	-23.58
201.06	-21.32
201.447	19.02
201.833	25.78
202.22	-33.32
202.607	-23.67
202.994	53.13
203.38	-68.83
203.767	27.71
204.154	-35.35
204.54	20.55
204.927	-12.57
205.313	13.91
205.699	8.62
206.086	-45.41
206.472	-74.57
206.858	0.27
207.245	-18.15
207.631	-35.8
208.017	-49.04
208.403	6.61
208.789	15.84
209.175	-19.45
209.561	18.85
209.947	-9.38
210.333	18.03
210.719	-12.5
211.105	0.86
211.491	7.6
211.876	-13.75
212.262	-40.3
212.648	-4.27
213.034	-2.19
213.419	-33.69
213.805	-7.86
214.19	8.98
214.576	9.86
214.961	16.7
215.346	-8.46
215.732	-8.26
216.117	25.58
216.502	5.29
216.888	-25.41
217.273	-1.86
217.658	-19.09
218.043	5.75
218.428	18.09
218.813	13.4
219.198	-4.34
219.583	-6.76
219.968	0.01
220.353	-4.18
220.738	-4.12
221.122	-18.13
221.507	8.19
221.892	15.73
222.276	12.82
222.661	-1.82
223.046	-22.45
223.43	4.21
223.815	-5.38
224.199	-19.82
224.583	21.54
224.968	11.07
225.352	8.01
225.736	-7.47
226.121	8.49
226.505	-2.99
226.889	1.09
227.273	5.6
227.657	5.77
228.041	4.79
228.425	-0.82
228.809	2.46
229.193	1.11
229.577	2.87
229.961	3.63
230.344	2.7
230.728	3.22
231.112	2.13
231.495	3.46
231.879	3.1
232.263	2.69
232.646	2.59
233.03	2.26
233.413	3.42
233.797	2.62
234.18	-1.8
234.563	1.98
234.946	2.46
235.33	3.84
235.713	0.31
236.096	3.19
236.479	1.19
236.862	2.75
237.245	3.77
237.628	1.74
238.011	1.44
238.394	3.14
238.777	1.96
239.16	1.53
239.543	3.66
239.925	0.9
240.308	2.49
240.691	4.69
241.073	3.36
241.456	2.27
241.838	3.39
242.221	2.93
242.603	1.39
242.986	2.2
243.368	1.92
243.75	3.04
244.133	2.26
244.515	3.08
244.897	3.12
245.279	2.66
245.661	1.97
246.043	1.93
246.425	2.26
246.807	3.06
247.189	2.93
247.571	2.15
247.953	2.4
248.335	2.37
248.717	2.85
249.098	2.61
249.48	2.54
249.862	2.24
250.243	2.36
250.625	2.01
251.006	1.58
251.388	3.25
251.769	2.93
252.151	2.86
252.532	2.96
252.913	2.47
253.295	2.39
253.676	3.18
254.057	2.35
254.438	2.42
254.819	2.11
255.2	2.88
255.581	2.61
255.962	2.31
256.343	0.89
256.724	1.36
257.105	2.13
257.486	1.5
257.867	1.79
258.247	2.47
258.628	2.58
259.009	2.09
259.389	2.34
259.77	2.57
260.15	2.3
260.531	2.31
260.911	2.18
261.292	2.26
261.672	2.44
262.052	2.4
262.432	2.03
262.813	3.03
263.193	2.95
263.573	2.25
263.953	2.53
264.333	2.11
264.713	2.41
265.093	2.01
265.473	2.28
265.853	2.42
266.233	2.27
266.612	2.69
266.992	2.81
267.372	2.74
267.752	2.16
268.131	2.66
268.511	2.18
268.89	2.25
269.27	2.71
269.649	2.58
270.029	2.05
270.408	2
270.787	2.92
271.167	2.3
271.546	2.88
271.925	2.02
272.304	2.05
272.683	2.42
273.062	2.08
273.441	1.76
273.82	2.51
274.199	2.34
274.578	2.58
274.957	2.48
275.336	2.41
275.715	1.95
276.093	2.24
276.472	2.52
276.851	2.85
277.229	2.63
277.608	2.27
277.986	2.45
278.365	2.26
278.743	2.78
279.122	2.31
279.5	2.17
279.878	1.96
280.257	1.98
280.635	2.28
281.013	1.97
281.391	2.26
281.769	1.78
282.147	2.31
282.525	2.6
282.903	2.97
283.281	2.78
283.659	2.23
284.037	2.27
284.415	2.26
284.792	2.72
285.17	2.7
285.548	2.37
285.925	2.36
286.303	1.98
286.68	2.15
287.058	2.69
287.435	2.57
287.813	2.58
288.19	2.54
288.567	2
288.945	2.01
289.322	2.44
289.699	2.37
290.076	2.31
290.453	2.26
290.83	1.72
291.207	2.32
291.584	2.37
291.961	2.44
292.338	2.49
292.715	2.32
293.092	2.6
293.469	1.95
293.845	1.74
294.222	2.58
294.599	2.46
294.975	2.1
295.352	2.69
295.728	2.11
296.105	2.46
296.481	2.36
296.858	2.61
297.234	2.47
297.61	2.23
297.986	2.36
298.363	2.41
298.739	2.37
299.115	2.61
299.491	2.33
299.867	2.74
300.243	2.35
300.619	2.28
300.995	2.68
301.371	2.8
301.746	1.89
302.122	2.63
302.498	3.14
302.874	2.38
303.249	2.44
303.625	2.64
304	2.43
304.376	2.55
304.751	2.77
305.127	2.32
305.502	2.38
305.878	2.31
306.253	2.63
306.628	2.31
307.003	2.5
307.378	2.4
307.754	2.18
308.129	2.62
308.504	2.12
308.879	2.85
309.254	2.27
309.629	2.58
310.003	2.96
310.378	2.59
310.753	2.51
311.128	2.88
311.502	2.26
311.877	2.73
312.252	3.15
312.626	2.7
313.001	2.65
313.375	2.23
313.75	2.84
314.124	2.69
314.498	2.59
314.873	2.77
315.247	2.74
315.621	2.79
315.995	2.29
316.369	3.1
316.743	2.91
317.117	2.81
317.491	2.8
317.865	3.3
318.239	2.94
318.613	3.22
318.987	2.71
319.361	2.9
319.734	3.4
320.108	2.51
320.482	2.62
320.855	2.72
321.229	2.81
321.602	2.96
321.976	2.95
322.349	2.65
322.723	2.9
323.096	2.63
323.469	2.85
323.843	2.44
324.216	2.68
324.589	2.92
324.962	2.1
325.335	2.38
325.708	2.75
326.081	3.04
326.454	2.7
326.827	2.52
327.2	2.93
327.573	2.69
327.945	3.18
328.318	2.91
328.691	2.76
329.063	2.84
329.436	2.79
329.809	3.05
330.181	2.02
330.553	2.66
330.926	3.1
331.298	2.9
331.671	2.82
332.043	3.13
332.415	2.37
332.787	2.5
333.159	3.02
333.532	2.97
333.904	3.13
334.276	3.22
334.648	2.31
335.02	2.83
335.391	2.87
335.763	3.2
336.135	3.31
336.507	2.85
336.879	2.79
337.25	2.73
337.622	3.22
337.993	2.85
338.365	2.96
338.736	2.87
339.108	3.18
339.479	3.22
339.851	2.87
340.222	2.71
340.593	2.44
340.964	3
341.336	2.61
341.707	3
342.078	2.76
342.449	3.05
342.82	3.08
343.191	3.04
343.562	3.18
343.933	2.61
344.303	2.94
344.674	2.89
345.045	3.19
345.416	2.93
345.786	2.67
346.157	2.99
346.527	3.09
346.898	3.18
347.268	2.82
347.639	2.96
348.009	3.01
348.38	3.53
348.75	2.95
349.12	3.18
349.49	2.52
349.861	2.9
350.231	3.19
350.601	3.43
350.971	2.95
351.341	2.86
351.711	2.99
352.081	2.98
352.45	2.77
352.82	3.13
353.19	3.22
353.56	3.26
353.929	2.8
354.299	2.66
354.669	2.94
355.038	3.29
355.408	2.84
355.777	3.28
356.147	2.85
356.516	2.64
356.885	3.01
357.254	3.05
357.624	2.96
357.993	2.92
358.362	3.18
358.731	2.72
359.1	3.13
359.469	3.11
359.838	3.13
360.207	3.09
360.576	3.03
360.945	2.99
361.314	3.37
361.682	3.01
362.051	3.17
362.42	3.06
362.788	3.11
363.157	2.84
363.525	2.88
363.894	2.98
364.262	3.19
364.631	2.93
364.999	3.13
365.367	2.92
365.735	3.41
366.104	3.12
366.472	3.02
366.84	3.32
367.208	3.32
367.576	3.1
367.944	2.8
368.312	2.9
368.68	3.04
369.048	2.96
369.416	3.34
369.783	3.42
370.151	2.76
370.519	2.97
370.886	2.82
371.254	3.04
371.621	3.22
371.989	3.3
372.356	2.92
372.724	3.11
373.091	3.33
373.458	3.01
373.826	3.5
374.193	3.09
374.56	3.24
374.927	3.18
375.294	3.24
375.661	3.14
376.028	3.16
376.395	3.11
376.762	3.19
377.129	3.17
377.496	3.18
377.863	2.66
378.229	2.99
378.596	3.21
378.963	3.36
379.329	3.07
379.696	3.34
380.062	3.23
380.429	3.16
380.795	3.16
381.161	3.21
381.528	3.03
381.894	3.16
382.26	3.23
382.626	3.1
382.993	2.83
383.359	2.79
383.725	3.31
384.091	2.99
384.457	3.16
384.823	2.8
385.188	3.09
385.554	3.14
385.92	3.41
386.286	3.29
386.651	3.46
387.017	3.06
387.383	3.23
387.748	2.96
388.114	3.04
388.479	3.27
388.845	3.31
389.21	2.94
389.575	3.02
389.94	3.42
390.306	3.27
390.671	3.15
391.036	2.95
391.401	3.4
391.766	3.38
392.131	3.34
392.496	3.06
392.861	3.14
393.226	3.38
393.591	3.44
393.956	3.51
394.32	3.42
394.685	3.31
395.05	3.17
395.414	3.42
395.779	3.11
396.143	3.24
396.508	3.37
396.872	3.03
397.236	3.1
397.601	3.37
397.965	3.44
398.329	3.24
398.694	3.54
399.058	3.16
399.422	3.35
399.786	3.31
400.15	3.32
400.514	3.02
400.878	3.51
401.242	3.34
401.605	3.25
401.969	3.03
402.333	3.27
402.697	3.69
403.06	3.58
403.424	3.31
403.787	3.41
404.151	3.41
404.514	3.31
404.878	3.19
405.241	3.27
405.604	3.43
405.968	3.28
406.331	3.31
406.694	3.25
407.057	3.15
407.42	3.21
407.783	3.29
408.146	3.43
408.509	3.24
408.872	3.42
409.235	3.39
409.598	3.2
409.961	3.41
410.323	3.57
410.686	3.34
411.049	3.32
411.411	3.55
411.774	3.29
412.136	3.21
412.499	3.36
412.861	3.37
413.223	3.44
413.586	3.27
413.948	3.4
414.31	3.5
414.672	3.34
415.035	3.38
415.397	3.56
415.759	3.51
416.121	3.61
416.483	3.44
416.845	3.23
417.206	3.45
417.568	3.55
417.93	3.37
418.292	3.42
418.653	3.42
419.015	3.46
419.377	3.36
419.738	3.47
420.1	3.43
420.461	3.42
420.822	3.42
421.184	3.4
421.545	3.44
421.906	3.37
422.267	3.34
422.629	3.24
422.99	3.4
423.351	3.28
423.712	3.27
424.073	3.4
424.434	3.38
424.795	3.32
425.155	3.4
425.516	3.42
425.877	3.31
426.238	3.38
426.598	3.45
426.959	3.38
427.32	3.36
427.68	3.45
428.041	3.36
428.401	3.52
428.761	3.42
429.122	3.6
429.482	3.53
429.842	3.48
430.202	3.62
430.563	3.53
430.923	3.49
431.283	3.56
431.643	3.5
432.003	3.53
432.363	3.32
432.722	3.5
433.082	3.67
433.442	3.67
433.802	3.53
434.161	3.59
434.521	3.49
434.881	3.45
435.24	3.46
435.6	3.58
435.959	3.41
436.319	3.53
436.678	3.58
437.037	3.72
437.396	3.68
437.756	3.38
438.115	3.33
438.474	3.54
438.833	3.62
439.192	3.51
439.551	3.56
439.91	3.47
440.269	3.49
440.628	3.55
440.987	3.43
441.345	3.67
441.704	3.5
442.063	3.55
442.421	3.54
442.78	3.57
443.138	3.6
443.497	3.43
443.855	3.65
444.214	3.61
444.572	3.72
444.93	3.55
445.288	3.55
445.647	3.63
446.005	3.61
446.363	3.55
446.721	3.66
447.079	3.6
447.437	3.54
447.795	3.63
448.153	3.58
448.51	3.53
448.868	3.57
449.226	3.63
449.584	3.62
449.941	3.63
450.299	3.62
450.656	3.62
451.014	3.57
451.371	3.72
451.729	3.68
452.086	3.67
452.443	3.72
452.801	3.61
453.158	3.75
453.515	3.68
453.872	3.65
454.229	3.64
454.586	3.61
454.943	3.73
455.3	3.82
455.657	3.57
456.014	3.79
456.371	3.77
456.727	3.82
457.084	3.79
457.441	3.72
457.797	3.8
458.154	3.82
458.51	3.84
458.867	3.83
459.223	3.72
459.58	3.8
459.936	3.83
460.292	3.79
460.648	3.63
461.005	3.82
461.361	3.75
461.717	3.68
462.073	3.67
462.429	3.68
462.785	3.7
463.141	3.72
463.496	3.79
463.852	3.89
464.208	3.96
464.564	3.89
464.919	3.83
465.275	3.78
465.631	3.88
465.986	3.71
466.342	3.97
466.697	3.91
467.052	3.8
467.408	4.07
467.763	3.82
468.118	3.99
468.473	3.92
468.829	3.67
469.184	3.76
469.539	3.91
469.894	3.95
470.249	3.79
470.603	3.88
470.958	3.92
471.313	3.73
471.668	3.94
472.023	4.01
472.377	3.93
472.732	4.09
473.086	3.94
473.441	3.95
473.795	3.83
474.15	3.84
474.504	3.86
474.859	3.83
475.213	3.93
475.567	4.04
475.921	3.86
476.275	3.92
476.63	3.89
476.984	4.02
477.338	3.81
477.692	4.05
478.045	3.85
478.399	3.88
478.753	4.04
479.107	4.07
479.461	4.01
479.814	3.88
480.168	3.99
480.521	3.98
480.875	4.08
481.228	4.16
481.582	4.09
481.935	3.88
482.289	3.89
482.642	4.04
482.995	3.92
483.348	3.96
483.701	3.99
484.055	3.94
484.408	3.86
484.761	3.86
485.114	3.74
485.466	3.72
485.819	3.73
486.172	3.77
486.525	3.8
486.878	3.89
487.23	3.94
487.583	3.91
487.936	3.95
488.288	3.97
488.641	3.88
488.993	3.85
489.345	3.83
489.698	3.86
490.05	3.91
490.402	3.94
490.754	3.95
491.107	3.91
491.459	4.01
491.811	4.02
492.163	4.11
492.515	4.1
492.866	3.93
493.218	3.89
493.57	3.95
493.922	3.97
494.274	4.02
494.625	4.1
494.977	4.06
495.328	4.17
495.68	4.24
496.031	4.21
496.383	4.21
496.734	4.23
497.086	4.13
497.437	4.24
497.788	4.24
498.139	4.26
498.49	4.27
498.842	4.15
499.193	4.28
499.544	4.24
499.894	4.32
500.245	4.31
500.596	4.27
500.947	4.21
501.298	4.26
501.648	4.32
501.999	4.29
502.35	4.36
502.7	4.25
503.051	4.26
503.401	4.32
503.752	4.23
504.102	4.29
504.452	4.32
504.803	4.39
505.153	4.54
505.503	4.42
505.853	4.33
506.203	4.5
506.553	4.42
506.903	4.31
507.253	4.46
507.603	4.51
507.953	4.38
508.303	4.49
508.652	4.39
509.002	4.43
509.352	4.35
509.701	4.43
510.051	4.47
510.4	4.56
510.75	4.4
511.099	4.47
511.449	4.5
511.798	4.46
512.147	4.47
512.496	4.5
512.846	4.51
513.195	4.49
513.544	4.49
513.893	4.4
514.242	4.47
514.591	4.45
514.939	4.52
515.288	4.56
515.637	4.52
515.986	4.46
516.334	4.51
516.683	4.71
517.032	4.68
517.38	4.76
517.729	4.51
518.077	4.68
518.426	4.55
518.774	4.61
519.122	4.59
519.47	4.59
519.819	4.58
520.167	4.59
520.515	4.56
520.863	4.6
521.211	4.6
521.559	4.57
521.907	4.67
522.255	4.69
522.602	4.66
522.95	4.7
523.298	4.74
523.645	4.75
523.993	4.76
524.341	4.81
524.688	4.69
525.036	4.82
525.383	4.83
525.73	4.8
526.078	4.85
526.425	4.75
526.772	4.71
527.119	4.66
527.466	4.71
527.814	4.66
528.161	4.67
528.508	4.77
528.854	4.77
529.201	4.81
529.548	4.71
529.895	4.56
530.242	4.61
530.588	4.58
530.935	4.62
531.282	4.65
531.628	4.7
531.975	4.77
532.321	4.82
532.667	4.81
533.014	4.86
533.36	4.97
533.706	4.9
534.052	4.95
534.399	4.87
534.745	4.78
535.091	4.82
535.437	4.81
535.783	4.92
536.129	4.94
536.474	4.97
536.82	4.98
537.166	4.97
537.512	5.04
537.857	5.1
538.203	4.97
538.549	5.01
538.894	4.99
539.239	5.02
539.585	4.97
539.93	5.1
540.276	5.18
540.621	5.32
540.966	5.27
541.311	5.33
541.656	5.2
542.001	5.14
542.346	5.13
542.691	5.11
543.036	4.99
543.381	5
543.726	5
544.071	5.05
544.415	5.15
544.76	5.21
545.105	5.15
545.449	5.16
545.794	5.27
546.138	5.31
546.483	5.33
546.827	5.39
547.171	5.29
547.516	5.33
547.86	5.3
548.204	5.4
548.548	5.38
548.892	5.34
549.236	5.43
549.58	5.41
549.924	5.5
550.268	5.48
550.612	5.72
550.956	5.59
551.3	5.53
551.643	5.6
551.987	5.46
552.33	5.72
552.674	5.73
553.017	5.72
553.361	5.71
553.704	5.71
554.048	5.58
554.391	5.76
554.734	5.79
555.077	5.74
555.42	5.72
555.764	5.71
556.107	5.64
556.45	5.73
556.793	5.91
557.135	5.94
557.478	5.72
557.821	5.82
558.164	5.86
558.507	5.75
558.849	5.95
559.192	5.81
559.534	6.13
559.877	6.01
560.219	5.94
560.562	5.92
560.904	5.91
561.246	6.03
561.589	6.09
561.931	6.08
562.273	6.19
562.615	5.97
562.957	6.09
563.299	6.08
563.641	6.07
563.983	6.23
564.325	6.04
564.667	6.18
565.008	6.2
565.35	6.33
565.692	6.27
566.033	6.3
566.375	6.28
566.716	6.23
567.058	6.16
567.399	6.3
567.741	6.29
568.082	6.28
568.423	6.36
568.764	6.44
569.105	6.4
569.447	6.43
569.788	6.5
570.129	6.45
570.47	6.53
570.811	6.46
571.151	6.31
571.492	6.43
571.833	6.48
572.174	6.41
572.514	6.54
572.855	6.53
573.195	6.44
573.536	6.59
573.876	6.59
574.217	6.51
574.557	6.5
574.898	6.62
575.238	6.71
575.578	6.59
575.918	6.43
576.258	6.76
576.598	6.64
576.938	6.75
577.278	6.65
577.618	6.73
577.958	6.79
578.298	6.78
578.638	6.84
578.977	6.79
579.317	6.77
579.657	6.89
579.996	6.91
580.336	7.11
580.675	7
581.014	6.96
581.354	7.21
581.693	6.89
582.032	6.92
582.372	6.94
582.711	7.03
583.05	7
583.389	7.01
583.728	7.23
584.067	7.28
584.406	7.19
584.745	7.4
585.083	7.18
585.422	7.24
585.761	7.3
586.1	7.52
586.438	7.26
586.777	7.35
587.115	7.62
587.454	7.48
587.792	7.37
588.13	7.46
588.469	7.45
588.807	7.52
589.145	7.42
589.483	7.54
589.821	7.71
590.159	7.56
590.497	7.36
590.835	7.5
591.173	7.65
591.511	7.57
591.849	7.55
592.187	7.75
592.524	7.6
592.862	7.78
593.2	7.72
593.537	7.74
593.875	7.83
594.212	7.72
594.55	7.83
594.887	7.71
595.224	7.69
595.561	7.94
595.899	7.68
596.236	7.8
596.573	7.84
596.91	8.03
597.247	8.02
597.584	7.8
597.921	7.91
598.258	8.08
598.594	7.89
598.931	7.76
599.268	7.92
599.604	7.95
599.941	7.88
600.277	8.09
600.614	8.06
600.95	8.28
601.287	8.06
601.623	8.2
601.959	8.24
602.296	8.26
602.632	7.98
602.968	8.3
603.304	8.2
603.64	8.68
603.976	8.34
604.312	8.34
604.648	8.28
604.984	8.19
605.319	8.22
605.655	8.09
605.991	8.44
606.326	8.37
606.662	8.37
606.998	8.21
607.333	8.53
607.668	8.4
608.004	8.63
608.339	8.52
608.674	8.48
609.01	8.55
609.345	8.69
609.68	8.71
610.015	8.65
610.35	8.71
610.685	8.79
611.02	8.6
611.355	8.57
611.689	8.74
612.024	8.85
612.359	8.54
612.694	9.04
613.028	9.05
613.363	8.7
613.697	8.7
614.032	8.85
614.366	9.07
614.7	8.89
615.035	9
615.369	8.95
615.703	8.77
616.037	8.99
616.371	9.09
616.705	9.46
617.039	9.44
617.373	9.23
617.707	9.46
618.041	9.33
618.375	9.36
618.709	9.2
619.042	9.25
619.376	9.2
619.71	9.18
620.043	9.59
620.377	9.13
620.71	9.69
621.043	9.24
621.377	9.61
621.71	9.29
622.043	9.7
622.376	9.33
622.709	9.52
623.043	9.89
623.376	9.12
623.709	9.35
624.041	9.65
624.374	9.48
624.707	9.39
625.04	9.91
625.373	10.02
625.705	9.57
626.038	9.67
626.37	9.81
626.703	9.83
627.035	9.62
627.368	9.96
627.7	9.96
628.032	9.66
628.365	10.03
628.697	9.95
629.029	9.95
629.361	9.96
629.693	9.96
630.025	10.16
630.357	9.98
630.689	10.13
631.021	10.29
631.353	10.29
631.684	10.53
632.016	10.35
632.348	9.98
632.679	10.03
633.011	10.32
633.342	10.37
633.674	10.32
634.005	9.85
634.336	10.31
634.668	10.45
634.999	10.45
635.33	10.4
635.661	10.24
635.992	10.37
636.323	10.05
636.654	10.35
636.985	10.56
637.316	10.6
637.647	10.73
637.977	10.75
638.308	10.96
638.639	10.57
638.969	10.82
639.3	10.95
639.63	10.21
639.961	10.8
640.291	11.25
640.622	10.59
640.952	11.04
641.282	10.93
641.612	11.09
641.943	11.21
642.273	11.23
642.603	10.92
642.933	10.75
643.263	10.85
643.592	10.86
643.922	11.25
644.252	10.92
644.582	11.56
644.911	11.23
645.241	11.02
645.571	11.4
645.9	11.15
646.23	11.03
646.559	11.23
646.888	11.08
647.218	11.58
647.547	11.77
647.876	11.06
648.205	11.44
648.534	10.87
648.863	11.64
649.192	11.93
649.521	11.35
649.85	11.41
650.179	11.89
650.508	11.62
650.837	11.61
651.165	11.38
651.494	11.52
651.822	11.42
652.151	12.03
652.479	11.6
652.808	11.68
653.136	11.73
653.465	11.92
653.793	11.81
654.121	11.75
654.449	11.8
654.777	11.86
655.105	11.76
655.433	11.37
655.761	12.46
656.089	11.79
656.417	12.41
656.745	11.95
657.073	12.18
657.4	12.32
657.728	11.71
658.056	12.14
658.383	11.59
658.711	12.11
659.038	12.09
659.365	12.82
659.693	12.16
660.02	12.94
660.347	12.1
660.674	12.1
661.001	12.5
661.329	12.56
661.656	12.32
661.982	12.29
662.309	12.76
662.636	12.88
662.963	12.36
663.29	12.48
663.616	12.34
663.943	12.8
664.27	12.74
664.596	12.33
664.923	12.17
665.249	12.73
665.576	13
665.902	12.4
666.228	11.93
666.554	13.14
666.881	12.6
667.207	12.52
667.533	13.04
667.859	12.69
668.185	12.05
668.511	12.88
668.837	13.44
669.162	12.9
669.488	13.66
669.814	12.74
670.139	12.64
670.465	12.57
670.791	13.44
671.116	13.21
671.442	13.42
671.767	13.71
672.092	13.07
672.418	13.1
672.743	12.98
673.068	13.86
673.393	13.27
673.718	13.33
674.043	12.98
674.368	13.63
674.693	13.78
675.018	13.51
675.343	13.51
675.667	13.97
675.992	13.93
676.317	13.89
676.641	13.2
676.966	13.07
677.29	13.92
677.615	13.17
677.939	13.56
678.264	14.43
678.588	13.82
678.912	13.87
679.236	13.89
679.56	13.48
679.885	13.99
680.209	14
680.532	13.61
680.856	14.04
681.18	14.11
681.504	13.8
681.828	14.33
682.152	14.18
682.475	13.74
682.799	14.17
683.122	13.89
683.446	14.18
683.769	14.33
684.093	14.25
684.416	14.25
684.739	14.53
685.062	14.02
685.386	14.34
685.709	14.43
686.032	14.39
686.355	14.48
686.678	14.51
687.001	14.18
687.324	14.76
687.646	15.07
687.969	15.12
688.292	15.04
