Data from 2019-4_crown_Reflection__2__197.txt Node

Date: Fri Nov 11 18:27:27 CST 2022
User: ToomeyLab
Spectrometer: FLMS14357
Trigger mode: 0
Integration Time (sec): 1.000000E-2
Scans to average: 100
Electric dark correction enabled: true
Nonlinearity correction enabled: false
Boxcar width: 0
XAxis mode: Wavelengths
Number of Pixels in Spectrum: 2048
>>>>>Begin Spectral Data<<<<<
189.047	70.39
189.435	70.39
189.823	70.39
190.211	-101.55
190.599	40.63
190.987	-20.26
191.375	829.34
191.763	92.08
192.151	-473.53
192.538	-87.96
192.926	-72.29
193.314	253.66
193.702	-544.01
194.089	-62
194.477	169.65
194.864	136.29
195.252	-99.55
195.639	80.17
196.027	56.86
196.414	-128.99
196.801	121.78
197.189	-15.2
197.576	407.5
197.963	13.95
198.351	64.53
198.738	5.28
199.125	0.89
199.512	38.72
199.899	-9.78
200.286	-51.92
200.673	15.5
201.06	-23.01
201.447	27.04
201.833	70.47
202.22	-35.59
202.607	19.69
202.994	38.02
203.38	31.86
203.767	52.68
204.154	-43.89
204.54	20.48
204.927	13.81
205.313	-5.9
205.699	-6.43
206.086	-47.2
206.472	-40.78
206.858	22.71
207.245	13.99
207.631	-8.41
208.017	48.81
208.403	43.48
208.789	18.69
209.175	-42.8
209.561	23.12
209.947	-9.18
210.333	36.4
210.719	14.39
211.105	21.07
211.491	13.97
211.876	-43.47
212.262	-10.4
212.648	16.22
213.034	2.16
213.419	-5.59
213.805	17.9
214.19	5.63
214.576	8.93
214.961	3.01
215.346	4.18
215.732	-6.68
216.117	16.83
216.502	1.48
216.888	-32.86
217.273	0.37
217.658	2.31
218.043	4.73
218.428	25.47
218.813	5.27
219.198	7.72
219.583	-1.27
219.968	-18.03
220.353	17.89
220.738	8.53
221.122	-27.8
221.507	6.68
221.892	13
222.276	-1.68
222.661	16.41
223.046	3.17
223.43	7.49
223.815	4.38
224.199	-3.94
224.583	11.35
224.968	13.84
225.352	7.25
225.736	2.56
226.121	11.36
226.505	3.98
226.889	6.48
227.273	7.74
227.657	6.34
228.041	6.18
228.425	4.54
228.809	2.16
229.193	5.46
229.577	3.08
229.961	4.14
230.344	4.06
230.728	4.29
231.112	4.57
231.495	5.12
231.879	4.46
232.263	3.62
232.646	4.5
233.03	3.66
233.413	5.39
233.797	5.01
234.18	1.89
234.563	3.86
234.946	1.73
235.33	4.79
235.713	2.84
236.096	4.19
236.479	3.65
236.862	4.49
237.245	3.8
237.628	2.79
238.011	2.19
238.394	2.71
238.777	3.7
239.16	4.61
239.543	4.23
239.925	2.99
240.308	5.72
240.691	6.64
241.073	3.41
241.456	3.96
241.838	3.42
242.221	4.09
242.603	3.48
242.986	3.39
243.368	3.61
243.75	3.66
244.133	3.34
244.515	3.69
244.897	4.49
245.279	3.87
245.661	3.25
246.043	3.42
246.425	3.9
246.807	5.2
247.189	4.46
247.571	3.72
247.953	3.8
248.335	3.69
248.717	3.75
249.098	4
249.48	3.74
249.862	3.85
250.243	3.82
250.625	3.36
251.006	2.93
251.388	3.52
251.769	3.58
252.151	3.74
252.532	4.12
252.913	3.43
253.295	2.84
253.676	4.52
254.057	3.52
254.438	3.45
254.819	3.8
255.2	4.39
255.581	3.21
255.962	3.54
256.343	3.54
256.724	2.92
257.105	3.27
257.486	4.75
257.867	4.71
258.247	3.51
258.628	2.74
259.009	3.18
259.389	3.32
259.77	3.57
260.15	3.64
260.531	3.1
260.911	3.37
261.292	3.32
261.672	3.37
262.052	3.4
262.432	3.46
262.813	3.67
263.193	3.94
263.573	3.48
263.953	3.65
264.333	3.17
264.713	3.49
265.093	3.43
265.473	3.84
265.853	4.33
266.233	3.62
266.612	4.03
266.992	3.7
267.372	4.34
267.752	3.63
268.131	3.59
268.511	3.41
268.89	3.85
269.27	2.9
269.649	3.69
270.029	3.21
270.408	2.8
270.787	3.22
271.167	3.66
271.546	3.39
271.925	3.47
272.304	3.84
272.683	3.33
273.062	3.57
273.441	3.2
273.82	3.3
274.199	3.19
274.578	3.22
274.957	3.43
275.336	2.81
275.715	3.55
276.093	3.55
276.472	3.7
276.851	3.61
277.229	3.88
277.608	3.58
277.986	3.3
278.365	3.29
278.743	3.62
279.122	4.16
279.5	3.51
279.878	3.26
280.257	3.41
280.635	2.72
281.013	3.02
281.391	3.65
281.769	2.78
282.147	3.36
282.525	3.56
282.903	3.57
283.281	4.01
283.659	3.57
284.037	3.19
284.415	2.94
284.792	3.84
285.17	3.65
285.548	3.28
285.925	3.33
286.303	3.1
286.68	3.03
287.058	3.1
287.435	3.41
287.813	3.35
288.19	3.55
288.567	2.76
288.945	2.9
289.322	3.41
289.699	3.63
290.076	3.16
290.453	2.74
290.83	2.61
291.207	3.17
291.584	3.72
291.961	3.04
292.338	3.24
292.715	3.26
293.092	3.2
293.469	3
293.845	3.05
294.222	2.95
294.599	3.17
294.975	2.52
295.352	3.4
295.728	2.7
296.105	3.35
296.481	3.34
296.858	3.46
297.234	3.3
297.61	3.06
297.986	3.1
298.363	3.23
298.739	3.2
299.115	3.13
299.491	3.16
299.867	3.16
300.243	2.84
300.619	3.26
300.995	2.93
301.371	3.42
301.746	2.79
302.122	2.93
302.498	3.65
302.874	3.16
303.249	3.07
303.625	3.35
304	3.42
304.376	2.72
304.751	3.26
305.127	3.15
305.502	3.13
305.878	3.06
306.253	3.13
306.628	2.76
307.003	3.24
307.378	2.98
307.754	2.81
308.129	2.96
308.504	2.84
308.879	3.59
309.254	2.74
309.629	3.18
310.003	3.42
310.378	3
310.753	2.69
311.128	3.33
311.502	2.6
311.877	2.81
312.252	3.33
312.626	3.24
313.001	2.86
313.375	2.8
313.75	3.33
314.124	2.93
314.498	3.12
314.873	3.12
315.247	3.2
315.621	2.87
315.995	2.76
316.369	2.88
316.743	2.89
317.117	3.24
317.491	2.73
317.865	3.56
318.239	2.63
318.613	3.27
318.987	2.94
319.361	3.15
319.734	2.98
320.108	2.39
320.482	2.94
320.855	2.95
321.229	3.38
321.602	3.09
321.976	3.52
322.349	3.25
322.723	3.71
323.096	2.92
323.469	3.48
323.843	3.35
324.216	2.85
324.589	3.49
324.962	2.56
325.335	2.68
325.708	3.12
326.081	3.02
326.454	2.91
326.827	3.34
327.2	3.21
327.573	3.17
327.945	3.16
328.318	3.24
328.691	3.05
329.063	2.91
329.436	3.11
329.809	3.08
330.181	2.86
330.553	2.6
330.926	2.97
331.298	2.82
331.671	2.84
332.043	2.64
332.415	2.84
332.787	2.41
333.159	2.52
333.532	3.28
333.904	2.84
334.276	2.95
334.648	2.19
335.02	2.9
335.391	2.82
335.763	2.91
336.135	3.22
336.507	3.33
336.879	3.3
337.25	2.76
337.622	3.49
337.993	3.15
338.365	3.69
338.736	2.96
339.108	2.93
339.479	3.01
339.851	3.15
340.222	2.94
340.593	3.03
340.964	2.74
341.336	3.04
341.707	3.04
342.078	2.81
342.449	3.19
342.82	3.3
343.191	3.22
343.562	3.55
343.933	2.63
344.303	3.15
344.674	3.16
345.045	3.25
345.416	3.23
345.786	3.08
346.157	2.98
346.527	3
346.898	2.65
347.268	2.91
347.639	3.21
348.009	2.84
348.38	3.35
348.75	2.97
349.12	3.1
349.49	3.16
349.861	2.42
350.231	3.23
350.601	3.45
350.971	2.83
351.341	3.23
351.711	3.16
352.081	3
352.45	3.17
352.82	2.81
353.19	3.6
353.56	3.51
353.929	2.49
354.299	2.47
354.669	2.69
355.038	3.18
355.408	3.07
355.777	3.25
356.147	2.94
356.516	2.69
356.885	3.09
357.254	3.17
357.624	2.81
357.993	2.81
358.362	2.92
358.731	3.05
359.1	3.16
359.469	3.14
359.838	2.95
360.207	3.12
360.576	2.79
360.945	2.97
361.314	3.3
361.682	2.97
362.051	3.2
362.42	2.96
362.788	3.04
363.157	2.74
363.525	2.93
363.894	3.12
364.262	2.79
364.631	3.06
364.999	2.99
365.367	2.76
365.735	3.32
366.104	3.21
366.472	3.2
366.84	3.22
367.208	3.02
367.576	3.11
367.944	2.86
368.312	2.64
368.68	3.03
369.048	2.98
369.416	3.29
369.783	3.25
370.151	2.99
370.519	3
370.886	2.71
371.254	2.92
371.621	3.02
371.989	3.36
372.356	2.64
372.724	2.84
373.091	3.17
373.458	3.04
373.826	3.13
374.193	3
374.56	2.79
374.927	2.95
375.294	2.92
375.661	3.31
376.028	3.06
376.395	3
376.762	3.03
377.129	2.59
377.496	3.22
377.863	2.63
378.229	3.03
378.596	3.08
378.963	3.21
379.329	3.08
379.696	3.17
380.062	2.94
380.429	2.98
380.795	2.93
381.161	2.99
381.528	3.29
381.894	2.96
382.26	2.99
382.626	3.24
382.993	3.19
383.359	2.94
383.725	3.34
384.091	2.83
384.457	3.03
384.823	2.86
385.188	2.9
385.554	2.95
385.92	3.33
386.286	3.16
386.651	3.1
387.017	3.09
387.383	3
387.748	3.01
388.114	3.2
388.479	3.14
388.845	3.23
389.21	2.89
389.575	3.13
389.94	3.24
390.306	3.18
390.671	3.08
391.036	2.94
391.401	3.31
391.766	3.48
392.131	2.89
392.496	3.01
392.861	2.89
393.226	3.13
393.591	3.24
393.956	3.21
394.32	3.13
394.685	3.17
395.05	2.83
395.414	3.19
395.779	2.75
396.143	3.12
396.508	3.2
396.872	3.07
397.236	2.84
397.601	3.12
397.965	3.02
398.329	3.05
398.694	3.4
399.058	3
399.422	3.43
399.786	3.16
400.15	3.13
400.514	2.95
400.878	3.08
401.242	3.17
401.605	2.98
401.969	3.01
402.333	2.96
402.697	3.31
403.06	3.11
403.424	2.99
403.787	3.22
404.151	3.29
404.514	3.18
404.878	2.85
405.241	3.2
405.604	3.15
405.968	3.14
406.331	2.87
406.694	3.23
407.057	2.98
407.42	3
407.783	3.01
408.146	3.11
408.509	2.99
408.872	3.22
409.235	3.34
409.598	3.24
409.961	3.29
410.323	3.21
410.686	3.48
411.049	3.3
411.411	3.36
411.774	3
412.136	3.07
412.499	3.31
412.861	3.22
413.223	3.07
413.586	2.99
413.948	3.19
414.31	2.99
414.672	3.16
415.035	3.21
415.397	3.14
415.759	3.36
416.121	3.19
416.483	3.25
416.845	2.95
417.206	3.24
417.568	3.21
417.93	3.01
418.292	3.08
418.653	3.21
419.015	3.23
419.377	3.11
419.738	3.11
420.1	3.16
420.461	3.2
420.822	3.15
421.184	3.18
421.545	3.14
421.906	3.12
422.267	3.11
422.629	3.04
422.99	3.02
423.351	3.02
423.712	3.04
424.073	3.07
424.434	3.18
424.795	3.12
425.155	2.93
425.516	3.04
425.877	3.03
426.238	3.08
426.598	3.11
426.959	3.18
427.32	3.08
427.68	3.31
428.041	3.07
428.401	3.25
428.761	3.21
429.122	3.16
429.482	3.27
429.842	3.04
430.202	3.21
430.563	3.23
430.923	3.25
431.283	3.29
431.643	3.2
432.003	3.18
432.363	3.23
432.722	3.04
433.082	3.23
433.442	3.29
433.802	3.01
434.161	3.22
434.521	3.11
434.881	3.06
435.24	3.23
435.6	3.13
435.959	3.06
436.319	3.21
436.678	3.21
437.037	3.24
437.396	3.26
437.756	3.19
438.115	3.15
438.474	3.14
438.833	3.19
439.192	2.99
439.551	3.24
439.91	3.2
440.269	3.22
440.628	3.21
440.987	3.1
441.345	3.15
441.704	3.17
442.063	3.19
442.421	3.17
442.78	3.15
443.138	3.14
443.497	3.09
443.855	3.29
444.214	3.32
444.572	3.37
444.93	3.17
445.288	3.14
445.647	3.3
446.005	3.26
446.363	3.28
446.721	3.22
447.079	3.15
447.437	3.17
447.795	3.16
448.153	3.19
448.51	3.22
448.868	3.11
449.226	3.12
449.584	3.22
449.941	3.09
450.299	3.16
450.656	3.27
451.014	3.29
451.371	3.29
451.729	3.24
452.086	3.39
452.443	3.32
452.801	3.29
453.158	3.19
453.515	3.29
453.872	3.2
454.229	3.13
454.586	3.09
454.943	3.24
455.3	3.24
455.657	3.12
456.014	3.27
456.371	3.23
456.727	3.43
457.084	3.15
457.441	3.2
457.797	3.25
458.154	3.29
458.51	3.18
458.867	3.39
459.223	3.18
459.58	3.26
459.936	3.15
460.292	3.22
460.648	3.23
461.005	3.29
461.361	3.18
461.717	3.18
462.073	3.17
462.429	3.14
462.785	3.3
463.141	3.2
463.496	3.05
463.852	3.23
464.208	3.21
464.564	3.2
464.919	3.35
465.275	3.22
465.631	3.34
465.986	3.02
466.342	3.39
466.697	3.17
467.052	3.37
467.408	3.54
467.763	3.36
468.118	3.13
468.473	3.26
468.829	3.12
469.184	3.21
469.539	3.29
469.894	3.2
470.249	3.21
470.603	3.11
470.958	3.35
471.313	3.18
471.668	3.31
472.023	3.32
472.377	3.29
472.732	3.32
473.086	3.37
473.441	3.34
473.795	3.38
474.15	3.17
474.504	3.41
474.859	3.4
475.213	3.34
475.567	3.5
475.921	3.39
476.275	3.29
476.63	3.24
476.984	3.35
477.338	3.31
477.692	3.37
478.045	3.27
478.399	3.23
478.753	3.21
479.107	3.4
479.461	3.31
479.814	3.37
480.168	3.21
480.521	3.31
480.875	3.26
481.228	3.37
481.582	3.37
481.935	3.2
482.289	3.14
482.642	3.27
482.995	3.26
483.348	3.13
483.701	3.16
484.055	3.31
484.408	3.11
484.761	3.08
485.114	3.08
485.466	3.03
485.819	3.01
486.172	3.04
486.525	3.12
486.878	3.18
487.23	3.16
487.583	3.21
487.936	3.12
488.288	3.21
488.641	3.15
488.993	3.04
489.345	3.08
489.698	3.1
490.05	3.13
490.402	3.17
490.754	3.23
491.107	3.22
491.459	3.22
491.811	3.2
492.163	3.24
492.515	3.16
492.866	3.12
493.218	3.08
493.57	3.16
493.922	3.18
494.274	3.22
494.625	3.23
494.977	3.2
495.328	3.4
495.68	3.35
496.031	3.33
496.383	3.23
496.734	3.31
497.086	3.17
497.437	3.25
497.788	3.35
498.139	3.19
498.49	3.23
498.842	3.26
499.193	3.3
499.544	3.32
499.894	3.39
500.245	3.29
500.596	3.32
500.947	3.21
501.298	3.33
501.648	3.28
501.999	3.28
502.35	3.2
502.7	3.21
503.051	3.37
503.401	3.36
503.752	3.26
504.102	3.51
504.452	3.37
504.803	3.3
505.153	3.28
505.503	3.24
505.853	3.25
506.203	3.43
506.553	3.42
506.903	3.37
507.253	3.42
507.603	3.25
507.953	3.37
508.303	3.26
508.652	3.46
509.002	3.28
509.352	3.23
509.701	3.27
510.051	3.23
510.4	3.38
510.75	3.29
511.099	3.32
511.449	3.3
511.798	3.36
512.147	3.3
512.496	3.32
512.846	3.33
513.195	3.37
513.544	3.26
513.893	3.28
514.242	3.22
514.591	3.26
514.939	3.28
515.288	3.37
515.637	3.27
515.986	3.25
516.334	3.47
516.683	3.33
517.032	3.39
517.38	3.35
517.729	3.35
518.077	3.37
518.426	3.29
518.774	3.38
519.122	3.3
519.47	3.35
519.819	3.28
520.167	3.3
520.515	3.26
520.863	3.31
521.211	3.26
521.559	3.32
521.907	3.43
522.255	3.3
522.602	3.41
522.95	3.35
523.298	3.33
523.645	3.31
523.993	3.31
524.341	3.37
524.688	3.31
525.036	3.34
525.383	3.39
525.73	3.4
526.078	3.32
526.425	3.37
526.772	3.32
527.119	3.22
527.466	3.31
527.814	3.18
528.161	3.26
528.508	3.31
528.854	3.29
529.201	3.35
529.548	3.31
529.895	3.17
530.242	3.16
530.588	3.17
530.935	3.16
531.282	3.19
531.628	3.26
531.975	3.27
532.321	3.27
532.667	3.32
533.014	3.34
533.36	3.45
533.706	3.4
534.052	3.31
534.399	3.29
534.745	3.2
535.091	3.22
535.437	3.2
535.783	3.28
536.129	3.36
536.474	3.33
536.82	3.42
537.166	3.35
537.512	3.38
537.857	3.39
538.203	3.34
538.549	3.32
538.894	3.34
539.239	3.3
539.585	3.34
539.93	3.36
540.276	3.41
540.621	3.42
540.966	3.39
541.311	3.41
541.656	3.37
542.001	3.41
542.346	3.38
542.691	3.31
543.036	3.18
543.381	3.23
543.726	3.21
544.071	3.28
544.415	3.33
544.76	3.28
545.105	3.27
545.449	3.31
545.794	3.33
546.138	3.35
546.483	3.33
546.827	3.37
547.171	3.41
547.516	3.33
547.86	3.4
548.204	3.38
548.548	3.35
548.892	3.27
549.236	3.41
549.58	3.39
549.924	3.5
550.268	3.46
550.612	3.36
550.956	3.6
551.3	3.53
551.643	3.35
551.987	3.4
552.33	3.56
552.674	3.65
553.017	3.63
553.361	3.47
553.704	3.69
554.048	3.4
554.391	3.49
554.734	3.53
555.077	3.44
555.42	3.56
555.764	3.54
556.107	3.42
556.45	3.55
556.793	3.49
557.135	3.47
557.478	3.48
557.821	3.5
558.164	3.41
558.507	3.38
558.849	3.53
559.192	3.53
559.534	3.49
559.877	3.79
560.219	3.39
560.562	3.52
560.904	3.53
561.246	3.57
561.589	3.49
561.931	3.59
562.273	3.52
562.615	3.54
562.957	3.65
563.299	3.45
563.641	3.55
563.983	3.51
564.325	3.43
564.667	3.4
565.008	3.5
565.35	3.62
565.692	3.72
566.033	3.5
566.375	3.54
566.716	3.51
567.058	3.55
567.399	3.58
567.741	3.55
568.082	3.44
568.423	3.58
568.764	3.49
569.105	3.58
569.447	3.54
569.788	3.64
570.129	3.55
570.47	3.64
570.811	3.58
571.151	3.45
571.492	3.58
571.833	3.53
572.174	3.54
572.514	3.63
572.855	3.57
573.195	3.49
573.536	3.58
573.876	3.48
574.217	3.51
574.557	3.42
574.898	3.74
575.238	3.64
575.578	3.5
575.918	3.42
576.258	3.45
576.598	3.49
576.938	3.58
577.278	3.48
577.618	3.44
577.958	3.55
578.298	3.69
578.638	3.67
578.977	3.74
579.317	3.75
579.657	3.68
579.996	3.77
580.336	3.55
580.675	3.68
581.014	3.56
581.354	3.88
581.693	3.56
582.032	3.56
582.372	3.41
582.711	3.56
583.05	3.39
583.389	3.63
583.728	3.78
584.067	3.58
584.406	3.63
584.745	4
585.083	3.62
585.422	3.57
585.761	3.7
586.1	3.73
586.438	3.56
586.777	3.65
587.115	3.98
587.454	3.6
587.792	3.64
588.13	3.61
588.469	3.66
588.807	3.54
589.145	3.58
589.483	3.64
589.821	3.88
590.159	3.68
590.497	3.43
590.835	3.67
591.173	3.64
591.511	3.65
591.849	3.67
592.187	3.59
592.524	3.54
592.862	3.58
593.2	3.84
593.537	3.36
593.875	3.95
594.212	3.59
594.55	3.62
594.887	3.8
595.224	3.72
595.561	3.77
595.899	3.52
596.236	3.56
596.573	3.52
596.91	3.62
597.247	3.6
597.584	3.73
597.921	3.45
598.258	3.88
598.594	3.74
598.931	3.52
599.268	3.53
599.604	3.74
599.941	3.83
600.277	3.67
600.614	3.77
600.95	3.79
601.287	3.65
601.623	3.71
601.959	3.78
602.296	3.79
602.632	3.63
602.968	3.77
603.304	3.73
603.64	3.79
603.976	3.82
604.312	3.91
604.648	3.54
604.984	3.58
605.319	3.69
605.655	3.52
605.991	3.65
606.326	3.6
606.662	3.65
606.998	3.51
607.333	3.66
607.668	3.67
608.004	3.85
608.339	3.8
608.674	3.83
609.01	3.95
609.345	3.73
609.68	3.53
610.015	3.54
610.35	3.72
610.685	3.58
611.02	3.64
611.355	3.61
611.689	3.81
612.024	3.66
612.359	3.63
612.694	3.81
613.028	3.66
613.363	3.69
613.697	3.52
614.032	3.88
614.366	3.77
614.7	3.8
615.035	3.56
615.369	3.73
615.703	3.63
616.037	3.58
616.371	3.86
616.705	3.81
617.039	4
617.373	3.53
617.707	4.09
618.041	3.92
618.375	3.73
618.709	3.62
619.042	3.59
619.376	3.88
619.71	3.8
620.043	3.59
620.377	3.54
620.71	4
621.043	3.66
621.377	3.9
621.71	3.57
622.043	3.77
622.376	4.01
622.709	3.73
623.043	4.05
623.376	3.53
623.709	3.6
624.041	3.73
624.374	3.68
624.707	3.73
625.04	3.88
625.373	3.36
625.705	3.58
626.038	3.77
626.37	3.48
626.703	3.93
627.035	3.75
627.368	3.46
627.7	3.84
628.032	3.75
628.365	3.76
628.697	3.9
629.029	3.87
629.361	3.82
629.693	3.74
630.025	3.98
630.357	3.72
630.689	3.85
631.021	3.63
631.353	4.06
631.684	3.72
632.016	3.93
632.348	3.46
632.679	3.52
633.011	3.69
633.342	3.75
633.674	3.62
634.005	3.42
634.336	3.98
634.668	3.82
634.999	3.7
635.33	3.71
635.661	3.6
635.992	3.86
636.323	3.63
636.654	3.92
636.985	3.83
637.316	3.74
637.647	4.35
637.977	3.86
638.308	4.06
638.639	3.91
638.969	3.66
639.3	4.1
639.63	3.78
639.961	3.66
640.291	3.96
640.622	3.86
640.952	3.93
641.282	4.13
641.612	3.89
641.943	4.59
642.273	3.9
642.603	3.89
642.933	3.66
643.263	3.75
643.592	3.61
643.922	3.81
644.252	3.71
644.582	4.24
644.911	3.93
645.241	3.68
645.571	3.95
645.9	3.71
646.23	3.93
646.559	3.79
646.888	3.92
647.218	4.02
647.547	3.8
647.876	3.95
648.205	3.77
648.534	3.7
648.863	3.8
649.192	4.08
649.521	3.98
649.85	4
650.179	3.82
650.508	3.87
650.837	3.81
651.165	3.41
651.494	3.84
651.822	3.84
652.151	4.42
652.479	3.69
652.808	4.3
653.136	3.75
653.465	3.75
653.793	3.98
654.121	3.92
654.449	4
654.777	3.83
655.105	3.93
655.433	3.81
655.761	4.31
656.089	3.48
656.417	4.51
656.745	3.79
657.073	3.8
657.4	4.27
657.728	4.15
658.056	4.05
658.383	4
658.711	3.79
659.038	4.65
659.365	4.14
659.693	4.05
660.02	4.41
660.347	3.94
660.674	3.43
661.001	3.96
661.329	4.44
661.656	3.94
661.982	4.03
662.309	3.97
662.636	4.08
662.963	3.87
663.29	3.79
663.616	4.19
663.943	4.18
664.27	4.13
664.596	3.95
664.923	3
665.249	4.08
665.576	4.33
665.902	4.41
666.228	3.7
666.554	4.45
666.881	4.11
667.207	3.59
667.533	4.04
667.859	3.44
668.185	3.03
668.511	4.41
668.837	4.03
669.162	3.71
669.488	4.13
669.814	4.17
670.139	4.32
670.465	3.52
670.791	3.96
671.116	3.85
671.442	4.15
671.767	4.39
672.092	3.72
672.418	3.91
672.743	3.63
673.068	4.84
673.393	4.09
673.718	4.36
674.043	3.92
674.368	4.08
674.693	4.23
675.018	4.46
675.343	3.96
675.667	3.85
675.992	3.94
676.317	3.95
676.641	3.67
676.966	4.43
677.29	4.12
677.615	4.18
677.939	4.23
678.264	3.99
678.588	4.3
678.912	3.97
679.236	3.73
679.56	3.69
679.885	3.68
680.209	3.49
680.532	3.2
680.856	4.17
681.18	4.1
681.504	4.5
681.828	4.35
682.152	3.88
682.475	4.24
682.799	4.03
683.122	4.14
683.446	4.46
683.769	4.7
684.093	4.07
684.416	4.19
684.739	4.39
685.062	3.2
685.386	3.82
685.709	3.86
686.032	4.52
686.355	4.41
686.678	3.9
687.001	3.59
687.324	4.58
687.646	4.93
687.969	3.74
688.292	4.05
688.614	3.92
688.937	4.17
689.26	4.27
689.582	3.78
689.904	3.71
690.227	4.88
690.549	4.95
690.871	4.59
691.194	4.22
691.516	4.06
691.838	3.57
692.16	2.84
692.482	4.41
692.804	3.57
693.126	3.38
693.448	4.24
