Data from 0263_chest_Reflection__1__139.txt Node

Date: Fri Oct 20 21:43:35 CDT 2023
User: ToomeyLab
Spectrometer: FLMS14357
Trigger mode: 0
Integration Time (sec): 1.000000E-2
Scans to average: 100
Electric dark correction enabled: true
Nonlinearity correction enabled: false
Boxcar width: 0
XAxis mode: Wavelengths
Number of Pixels in Spectrum: 2048
>>>>>Begin Spectral Data<<<<<
189.047	-220.95
189.435	-220.95
189.823	-220.95
190.211	2175.81
190.599	-9.25
190.987	2923.77
191.375	40.06
191.763	165.12
192.151	-259.37
192.538	81.74
192.926	70.17
193.314	80.22
193.702	-54.91
194.089	127.46
194.477	-184.58
194.864	8.25
195.252	75.46
195.639	25.95
196.027	276.58
196.414	64.19
196.801	-922.94
197.189	24.23
197.576	63.3
197.963	252.35
198.351	47.95
198.738	19.54
199.125	43.57
199.512	47.61
199.899	4.23
200.286	3.99
200.673	35.39
201.06	40.6
201.447	38.77
201.833	45.4
202.22	44.05
202.607	39.33
202.994	31.57
203.38	31.37
203.767	14.99
204.154	-0.8
204.54	44.85
204.927	12.93
205.313	-34.86
205.699	58.8
206.086	63.86
206.472	48.56
206.858	30.91
207.245	21.67
207.631	37.67
208.017	24.65
208.403	20.11
208.789	45.06
209.175	51.7
209.561	31.9
209.947	-17.51
210.333	-9.16
210.719	1.11
211.105	8.24
211.491	23.85
211.876	33.85
212.262	11.96
212.648	22.75
213.034	5.49
213.419	6.3
213.805	18.29
214.19	-5.6
214.576	-15.15
214.961	19.59
215.346	16.48
215.732	13.11
216.117	3.72
216.502	34.99
216.888	26.06
217.273	17.9
217.658	2.06
218.043	10.27
218.428	-0.46
218.813	7.34
219.198	-1.32
219.583	-11.17
219.968	-16.9
220.353	12.3
220.738	14.42
221.122	1.74
221.507	24.78
221.892	1.05
222.276	17.41
222.661	23.55
223.046	17.81
223.43	5.92
223.815	18.71
224.199	16.65
224.583	-4.67
224.968	5.75
225.352	2.29
225.736	2.65
226.121	4.93
226.505	4.54
226.889	5.19
227.273	4.85
227.657	9.27
228.041	7.4
228.425	2.06
228.809	4.1
229.193	4.66
229.577	5.54
229.961	2.33
230.344	2.74
230.728	1.88
231.112	3.55
231.495	2.77
231.879	3.13
232.263	3.14
232.646	1.54
233.03	3.7
233.413	2.98
233.797	3.03
234.18	3.14
234.563	5.11
234.946	4.54
235.33	3.46
235.713	2.72
236.096	4.31
236.479	3.5
236.862	3.71
237.245	2.42
237.628	2.39
238.011	3.05
238.394	3.34
238.777	3.66
239.16	2.95
239.543	4.09
239.925	5.65
240.308	4.39
240.691	3.42
241.073	4.77
241.456	4.05
241.838	3.2
242.221	4.92
242.603	3.42
242.986	3.19
243.368	3.86
243.75	2.99
244.133	2.47
244.515	2.7
244.897	2.76
245.279	2.75
245.661	2.81
246.043	3.24
246.425	2.19
246.807	2.59
247.189	3.96
247.571	2.54
247.953	3.12
248.335	3.45
248.717	2.52
249.098	2.6
249.48	2.5
249.862	3.1
250.243	2.94
250.625	3.67
251.006	3.03
251.388	3
251.769	2.87
252.151	3.5
252.532	2.95
252.913	3.19
253.295	2.48
253.676	2.45
254.057	3.31
254.438	2.94
254.819	2.97
255.2	2.64
255.581	2.52
255.962	2.4
256.343	3.03
256.724	1.34
257.105	2.8
257.486	2.72
257.867	3.41
258.247	3.55
258.628	2.97
259.009	2.36
259.389	2.64
259.77	2.68
260.15	3.29
260.531	2.97
260.911	2.88
261.292	2.36
261.672	2.88
262.052	2.69
262.432	2.75
262.813	2.79
263.193	2.74
263.573	2.59
263.953	2.99
264.333	2.68
264.713	3.29
265.093	3.44
265.473	2.84
265.853	3.43
266.233	3.66
266.612	2.68
266.992	3.05
267.372	2.67
267.752	2.34
268.131	3.34
268.511	2.84
268.89	2.96
269.27	2.53
269.649	2.42
270.029	2.48
270.408	2.54
270.787	3.42
271.167	2.9
271.546	2.92
271.925	3.39
272.304	3.08
272.683	2.67
273.062	2.95
273.441	2.9
273.82	3.21
274.199	2.6
274.578	2.91
274.957	2.87
275.336	3.14
275.715	3
276.093	2.44
276.472	2.8
276.851	2.8
277.229	3.08
277.608	2.41
277.986	2.51
278.365	3.45
278.743	2.35
279.122	2.81
279.5	2.61
279.878	2.54
280.257	2.65
280.635	2.66
281.013	2.76
281.391	2.95
281.769	2.25
282.147	2.47
282.525	2.79
282.903	2.77
283.281	3.2
283.659	2.65
284.037	2.97
284.415	2.46
284.792	2.65
285.17	2.74
285.548	2.38
285.925	2.53
286.303	2.51
286.68	2.53
287.058	3.04
287.435	2.93
287.813	2.23
288.19	2.48
288.567	2.4
288.945	2.79
289.322	3.03
289.699	2.19
290.076	3.18
290.453	2.57
290.83	2.47
291.207	3.13
291.584	2.14
291.961	2.79
292.338	2.99
292.715	2.95
293.092	2.84
293.469	3.34
293.845	2.48
294.222	2.89
294.599	2.92
294.975	3.32
295.352	3.13
295.728	2.97
296.105	2.88
296.481	3.16
296.858	2.8
297.234	3.16
297.61	2.69
297.986	2.93
298.363	2.87
298.739	2.95
299.115	2.83
299.491	2.9
299.867	2.91
300.243	3.12
300.619	2.76
300.995	3.11
301.371	3.14
301.746	2.83
302.122	3.29
302.498	3.13
302.874	3.04
303.249	3.16
303.625	3.42
304	3.63
304.376	2.74
304.751	2.76
305.127	2.59
305.502	3.41
305.878	2.85
306.253	3.15
306.628	3.3
307.003	3.33
307.378	3.28
307.754	3.49
308.129	3.51
308.504	3.79
308.879	3.32
309.254	4.08
309.629	2.9
310.003	2.94
310.378	3.71
310.753	3.52
311.128	3.59
311.502	3.83
311.877	3.45
312.252	3
312.626	3.82
313.001	3.47
313.375	3.36
313.75	3.72
314.124	3.49
314.498	3.34
314.873	3.3
315.247	3.3
315.621	3.53
315.995	3.67
316.369	3.41
316.743	3.67
317.117	3.7
317.491	3.36
317.865	3.98
318.239	3.88
318.613	3.53
318.987	3.07
319.361	3.13
319.734	3.32
320.108	3.68
320.482	4.21
320.855	4.03
321.229	3.8
321.602	3.78
321.976	4.03
322.349	3.61
322.723	3.46
323.096	3.61
323.469	3.49
323.843	3.21
324.216	3.95
324.589	3.95
324.962	4.49
325.335	3.97
325.708	3.93
326.081	3.73
326.454	3.52
326.827	3.81
327.2	4.45
327.573	3.63
327.945	4.03
328.318	3.38
328.691	4.14
329.063	4.29
329.436	3.04
329.809	3.99
330.181	4.15
330.553	4.09
330.926	3.47
331.298	3.16
331.671	3.45
332.043	3.73
332.415	3.77
332.787	4.37
333.159	3.35
333.532	4.25
333.904	3.61
334.276	3.63
334.648	3.82
335.02	4.1
335.391	4.01
335.763	4.34
336.135	3.72
336.507	4.31
336.879	4.13
337.25	3.86
337.622	4.11
337.993	4.45
338.365	4.13
338.736	4.44
339.108	4.17
339.479	3.71
339.851	4.32
340.222	4.1
340.593	3.83
340.964	3.33
341.336	4.49
341.707	4.05
342.078	3.97
342.449	3.95
342.82	3.85
343.191	3.84
343.562	4.4
343.933	4.21
344.303	3.87
344.674	4.28
345.045	4.37
345.416	4.33
345.786	4.11
346.157	4.05
346.527	4.19
346.898	4.12
347.268	4.1
347.639	4.34
348.009	3.87
348.38	4.21
348.75	4.39
349.12	3.97
349.49	4.12
349.861	4.36
350.231	4.25
350.601	4.04
350.971	4.74
351.341	3.87
351.711	4.86
352.081	4.4
352.45	3.97
352.82	4.12
353.19	4.57
353.56	4.3
353.929	4.53
354.299	3.44
354.669	4.25
355.038	4.17
355.408	4.18
355.777	4.25
356.147	4.37
356.516	4.45
356.885	4.29
357.254	4.39
357.624	4.13
357.993	4.12
358.362	4.47
358.731	3.96
359.1	3.88
359.469	4.18
359.838	4.41
360.207	4.12
360.576	4.66
360.945	4.03
361.314	4.34
361.682	4.05
362.051	4.14
362.42	4.13
362.788	4.01
363.157	4.17
363.525	3.93
363.894	4.07
364.262	4.23
364.631	4.21
364.999	4.34
365.367	4.42
365.735	3.99
366.104	4.12
366.472	4.37
366.84	4.27
367.208	4.46
367.576	4.33
367.944	4.29
368.312	4.45
368.68	4.24
369.048	4.27
369.416	4.49
369.783	4.41
370.151	4.32
370.519	4.43
370.886	4.5
371.254	4.23
371.621	4.84
371.989	4.11
372.356	4.42
372.724	4.72
373.091	4.45
373.458	4.18
373.826	4.27
374.193	4.41
374.56	4.6
374.927	4.73
375.294	4.46
375.661	4.71
376.028	4.78
376.395	4.44
376.762	4.52
377.129	4.16
377.496	4.65
377.863	4.86
378.229	4.86
378.596	4.44
378.963	4.42
379.329	4.47
379.696	4.85
380.062	4.81
380.429	4.59
380.795	4.2
381.161	4.55
381.528	4.89
381.894	4.12
382.26	4.38
382.626	4.78
382.993	4.47
383.359	4.63
383.725	4.69
384.091	4.66
384.457	4.71
384.823	4.5
385.188	4.83
385.554	4.81
385.92	4.75
386.286	4.84
386.651	4.39
387.017	4.63
387.383	4.53
387.748	4.66
388.114	4.35
388.479	4.6
388.845	4.95
389.21	4.37
389.575	4.19
389.94	4.64
390.306	4.63
390.671	4.48
391.036	4.59
391.401	4.87
391.766	4.8
392.131	4.5
392.496	4.65
392.861	4.7
393.226	4.61
393.591	4.7
393.956	4.67
394.32	4.74
394.685	4.71
395.05	4.92
395.414	4.92
395.779	4.63
396.143	4.61
396.508	4.48
396.872	4.83
397.236	4.71
397.601	4.49
397.965	4.39
398.329	4.52
398.694	4.49
399.058	4.4
399.422	4.79
399.786	4.55
400.15	4.74
400.514	4.62
400.878	4.92
401.242	4.89
401.605	4.71
401.969	4.48
402.333	4.64
402.697	4.8
403.06	4.57
403.424	4.78
403.787	4.72
404.151	4.57
404.514	4.83
404.878	4.9
405.241	4.66
405.604	4.54
405.968	4.84
406.331	4.5
406.694	4.57
407.057	4.71
407.42	4.98
407.783	4.85
408.146	4.81
408.509	4.69
408.872	5.09
409.235	4.71
409.598	4.68
409.961	4.76
410.323	4.89
410.686	4.84
411.049	4.62
411.411	4.6
411.774	4.92
412.136	4.94
412.499	4.94
412.861	4.87
413.223	4.88
413.586	4.69
413.948	4.74
414.31	5.07
414.672	4.7
415.035	4.8
415.397	4.9
415.759	4.71
416.121	5.01
416.483	4.89
416.845	4.97
417.206	5.03
417.568	5.19
417.93	5.01
418.292	4.66
418.653	4.96
419.015	4.58
419.377	4.79
419.738	4.74
420.1	4.72
420.461	4.76
420.822	4.72
421.184	4.79
421.545	4.88
421.906	4.83
422.267	4.8
422.629	4.67
422.99	4.65
423.351	4.72
423.712	4.69
424.073	4.88
424.434	4.67
424.795	4.73
425.155	4.8
425.516	4.8
425.877	4.86
426.238	4.65
426.598	4.83
426.959	4.68
427.32	4.85
427.68	4.8
428.041	4.74
428.401	4.91
428.761	4.88
429.122	4.86
429.482	4.9
429.842	4.93
430.202	4.9
430.563	4.94
430.923	5.05
431.283	5.06
431.643	5.15
432.003	5.09
432.363	4.86
432.722	5.22
433.082	5.13
433.442	4.91
433.802	5.21
434.161	4.92
434.521	5.06
434.881	5.04
435.24	5
435.6	4.75
435.959	4.89
436.319	4.96
436.678	5.03
437.037	4.86
437.396	5.09
437.756	5.1
438.115	4.83
438.474	5.13
438.833	5
439.192	4.88
439.551	4.82
439.91	5.05
440.269	5.09
440.628	4.99
440.987	5.04
441.345	4.95
441.704	5.11
442.063	5.08
442.421	5.03
442.78	5.01
443.138	5.07
443.497	5.17
443.855	5.09
444.214	5.1
444.572	4.95
444.93	5.19
445.288	5.09
445.647	5.1
446.005	5.04
446.363	5.03
446.721	4.97
447.079	5.23
447.437	4.96
447.795	5.04
448.153	5.02
448.51	4.98
448.868	5
449.226	4.97
449.584	4.98
449.941	4.97
450.299	5.09
450.656	4.97
451.014	5.09
451.371	5.1
451.729	5.04
452.086	5.09
452.443	5.24
452.801	5.19
453.158	5.33
453.515	5.22
453.872	5.14
454.229	5.38
454.586	5.1
454.943	5.23
455.3	5.01
455.657	5.17
456.014	5.1
456.371	5.18
456.727	5.29
457.084	5.29
457.441	5.3
457.797	5.2
458.154	5.07
458.51	5.2
458.867	5.21
459.223	5.12
459.58	5.21
459.936	5.32
460.292	5.2
460.648	5.12
461.005	5.15
461.361	5.27
461.717	5.01
462.073	5.05
462.429	5.08
462.785	5.19
463.141	5.24
463.496	5.23
463.852	5.27
464.208	5.46
464.564	5.32
464.919	5.32
465.275	5.47
465.631	5.4
465.986	5.38
466.342	5.34
466.697	5.37
467.052	5.18
467.408	5.46
467.763	5.52
468.118	5.63
468.473	5.38
468.829	5.46
469.184	5.3
469.539	5.44
469.894	5.48
470.249	5.35
470.603	5.15
470.958	5.56
471.313	5.54
471.668	5.33
472.023	5.36
472.377	5.46
472.732	5.32
473.086	5.52
473.441	5.46
473.795	5.79
474.15	5.41
474.504	5.29
474.859	5.39
475.213	5.51
475.567	5.41
475.921	5.45
476.275	5.52
476.63	5.59
476.984	5.51
477.338	5.33
477.692	5.42
478.045	5.49
478.399	5.52
478.753	5.44
479.107	5.43
479.461	5.37
479.814	5.7
480.168	5.56
480.521	5.37
480.875	5.4
481.228	5.53
481.582	5.51
481.935	5.5
482.289	5.6
482.642	5.65
482.995	5.38
483.348	5.54
483.701	5.38
484.055	5.42
484.408	5.45
484.761	5.3
485.114	5.29
485.466	5.18
485.819	5.15
486.172	5.04
486.525	5.12
486.878	5.19
487.23	5.27
487.583	5.34
487.936	5.31
488.288	5.43
488.641	5.39
488.993	5.36
489.345	5.28
489.698	5.24
490.05	5.27
490.402	5.27
490.754	5.28
491.107	5.35
491.459	5.43
491.811	5.49
492.163	5.51
492.515	5.51
492.866	5.48
493.218	5.42
493.57	5.32
493.922	5.36
494.274	5.33
494.625	5.41
494.977	5.42
495.328	5.6
495.68	5.63
496.031	5.55
496.383	5.71
496.734	5.7
497.086	5.72
497.437	5.78
497.788	5.65
498.139	5.82
498.49	5.5
498.842	5.64
499.193	5.64
499.544	5.74
499.894	5.77
500.245	5.76
500.596	5.7
500.947	5.76
501.298	5.72
501.648	5.62
501.999	5.92
502.35	5.76
502.7	5.96
503.051	5.9
503.401	5.73
503.752	5.88
504.102	5.94
504.452	5.74
504.803	5.82
505.153	5.91
505.503	5.92
505.853	6.03
506.203	5.81
506.553	5.76
506.903	5.78
507.253	5.89
507.603	5.9
507.953	5.8
508.303	5.76
508.652	6.1
509.002	5.87
509.352	5.96
509.701	5.91
510.051	5.82
510.4	5.79
510.75	5.95
511.099	5.82
511.449	5.93
511.798	6.02
512.147	6
512.496	5.97
512.846	5.87
513.195	5.98
513.544	5.97
513.893	5.86
514.242	5.96
514.591	5.85
514.939	5.96
515.288	5.86
515.637	5.99
515.986	6.08
516.334	6.09
516.683	6.01
517.032	6.01
517.38	6.03
517.729	6.16
518.077	6.18
518.426	6.03
518.774	5.97
519.122	6.2
519.47	6.06
519.819	6.03
520.167	5.99
520.515	5.99
520.863	6.06
521.211	6.01
521.559	6.09
521.907	6.03
522.255	5.99
522.602	6.28
522.95	6.11
523.298	6.12
523.645	6.21
523.993	6.23
524.341	6.16
524.688	6.16
525.036	6.21
525.383	6.17
525.73	6.33
526.078	6.29
526.425	6.13
526.772	6.2
527.119	6.22
527.466	6.18
527.814	6.15
528.161	6.15
528.508	6.11
528.854	6.21
529.201	6.15
529.548	6.21
529.895	6.19
530.242	6.1
530.588	5.97
530.935	6.01
531.282	6.03
531.628	6.1
531.975	6.12
532.321	6.19
532.667	6.21
533.014	6.3
533.36	6.35
533.706	6.47
534.052	6.35
534.399	6.29
534.745	6.19
535.091	6.32
535.437	6.28
535.783	6.25
536.129	6.33
536.474	6.35
536.82	6.45
537.166	6.47
537.512	6.59
537.857	6.69
538.203	6.58
538.549	6.56
538.894	6.38
539.239	6.41
539.585	6.41
539.93	6.62
540.276	6.67
540.621	6.68
540.966	6.72
541.311	6.85
541.656	6.75
542.001	6.8
542.346	6.71
542.691	6.63
543.036	6.56
543.381	6.46
543.726	6.47
544.071	6.47
544.415	6.54
544.76	6.62
545.105	6.7
545.449	6.69
545.794	6.64
546.138	6.68
546.483	6.68
546.827	6.9
547.171	7.04
547.516	6.86
547.86	7.06
548.204	6.81
548.548	6.88
548.892	6.85
549.236	6.97
549.58	6.87
549.924	6.91
550.268	7.06
550.612	7.14
550.956	7.2
551.3	7.15
551.643	7.06
551.987	7.24
552.33	7.3
552.674	7.27
553.017	7.22
553.361	7.4
553.704	7.37
554.048	7.09
554.391	7.21
554.734	7.32
555.077	7.24
555.42	7.25
555.764	7.26
556.107	7.43
556.45	7.41
556.793	7.18
557.135	7.37
557.478	7.36
557.821	7.55
558.164	7.73
558.507	7.53
558.849	7.7
559.192	7.55
559.534	7.67
559.877	7.34
560.219	7.74
560.562	7.64
560.904	7.42
561.246	7.52
561.589	7.53
561.931	7.87
562.273	7.63
562.615	7.85
562.957	7.75
563.299	7.63
563.641	7.73
563.983	7.71
564.325	7.7
564.667	7.86
565.008	7.69
565.35	8.08
565.692	7.72
566.033	8.1
566.375	7.92
566.716	7.97
567.058	8.03
567.399	8.07
567.741	7.86
568.082	7.89
568.423	7.92
568.764	7.82
569.105	8.06
569.447	7.93
569.788	7.96
570.129	7.99
570.47	7.98
570.811	8.12
571.151	8.03
571.492	8.24
571.833	8.31
572.174	8.15
572.514	8.25
572.855	8.14
573.195	8.35
573.536	8.25
573.876	8.16
574.217	8.05
574.557	8.11
574.898	8.14
575.238	8.03
575.578	8.19
575.918	8.18
576.258	8.35
576.598	8.41
576.938	8.51
577.278	8.44
577.618	8.27
577.958	8.49
578.298	8.38
578.638	8.42
578.977	8.34
579.317	8.43
579.657	8.68
579.996	8.72
580.336	8.81
580.675	8.72
581.014	8.52
581.354	8.68
581.693	8.72
582.032	9
582.372	8.83
582.711	9.1
583.05	9.16
583.389	8.76
583.728	8.93
584.067	8.97
584.406	8.96
584.745	9.12
585.083	8.87
585.422	9.06
585.761	9.02
586.1	8.89
586.438	8.81
586.777	8.98
587.115	9.12
587.454	9.17
587.792	9.14
588.13	9.49
588.469	9.29
588.807	9
589.145	9.27
589.483	9.23
589.821	9.13
590.159	9.24
590.497	9.27
590.835	9.2
591.173	9.13
591.511	9.72
591.849	9.22
592.187	9.57
592.524	9.13
592.862	9.35
593.2	9.61
593.537	9.36
593.875	9.46
594.212	9.57
594.55	9.64
594.887	9.67
595.224	9.56
595.561	9.57
595.899	9.58
596.236	9.63
596.573	9.78
596.91	9.95
597.247	9.73
597.584	9.62
597.921	9.64
598.258	9.92
598.594	9.7
598.931	9.75
599.268	9.59
599.604	9.66
599.941	9.67
600.277	9.87
600.614	9.87
600.95	9.84
601.287	9.86
601.623	10.33
601.959	9.86
602.296	10.01
602.632	10.03
602.968	9.89
603.304	10.24
603.64	10.07
603.976	10.12
604.312	10.37
604.648	10
604.984	10.22
605.319	10.19
605.655	10.3
605.991	10.28
606.326	10.24
606.662	10.1
606.998	10.17
607.333	10.16
607.668	10
608.004	10.29
608.339	10.28
608.674	10.51
609.01	10.46
609.345	10.95
609.68	10.69
610.015	10.69
610.35	10.62
610.685	10.8
611.02	10.42
611.355	10.63
611.689	10.35
612.024	10.58
612.359	10.69
612.694	10.69
613.028	10.84
613.363	10.82
613.697	10.8
614.032	10.85
614.366	11.11
614.7	10.95
615.035	10.97
615.369	11.14
615.703	10.62
616.037	11.1
616.371	11.08
616.705	11.08
617.039	10.85
617.373	11.33
617.707	11.25
618.041	11.18
618.375	10.6
618.709	11.28
619.042	11.56
619.376	11.48
619.71	11.39
620.043	11.6
620.377	11.12
620.71	11.52
621.043	11.58
621.377	11.35
621.71	11.23
622.043	11.53
622.376	11.82
622.709	11.45
623.043	11.38
623.376	11.5
623.709	11.39
624.041	11.67
624.374	11.67
624.707	11.52
625.04	12.03
625.373	12.07
625.705	11.74
626.038	12.06
626.37	11.4
626.703	11.79
627.035	11.91
627.368	11.8
627.7	11.73
628.032	11.92
628.365	11.93
628.697	11.96
629.029	11.93
629.361	11.84
629.693	11.89
630.025	11.86
630.357	12.04
630.689	11.94
631.021	12.31
631.353	12.31
631.684	12.1
632.016	12.08
632.348	12.11
632.679	12.22
633.011	11.86
633.342	11.87
633.674	12.77
634.005	12.49
634.336	12.8
634.668	12.43
634.999	11.87
635.33	12.29
635.661	12.63
635.992	12.53
636.323	12.53
636.654	12.76
636.985	12.4
637.316	12.51
637.647	12.58
637.977	12.34
638.308	12.58
638.639	12.76
638.969	12.61
639.3	12.43
639.63	12.8
639.961	12.54
640.291	12.76
640.622	12.84
640.952	12.87
641.282	13.19
641.612	12.92
641.943	13.25
642.273	12.6
642.603	13.25
642.933	12.87
643.263	12.57
643.592	13.18
643.922	13.7
644.252	13.14
644.582	13.16
644.911	13.23
645.241	13.17
645.571	13.54
645.9	12.9
646.23	13.08
646.559	13.37
646.888	13.48
647.218	13.28
647.547	12.83
647.876	13.36
648.205	13.55
648.534	13.7
648.863	13.42
649.192	13.21
649.521	13.69
649.85	13.82
650.179	13.26
650.508	13.72
650.837	13.58
651.165	13.79
651.494	13.55
651.822	13.81
652.151	13.62
652.479	13.75
652.808	13.75
653.136	13.21
653.465	13.96
653.793	13.93
654.121	13.62
654.449	13.8
654.777	13.81
655.105	13.92
655.433	13.71
655.761	14.39
656.089	13.76
656.417	13.79
656.745	13.87
657.073	14.38
657.4	14.69
657.728	14.18
658.056	14.1
658.383	14.01
658.711	13.57
659.038	14.48
659.365	14.38
659.693	14.28
660.02	14.39
660.347	14.2
660.674	14.48
661.001	14.15
661.329	14.18
661.656	14.35
661.982	14.08
662.309	14.31
662.636	14.07
662.963	14.33
663.29	14.41
663.616	14.57
663.943	14.25
664.27	14.64
664.596	14.48
664.923	14.23
665.249	14.1
665.576	14.98
665.902	14.53
666.228	14.69
666.554	15.06
666.881	14.51
667.207	15.24
667.533	14.22
667.859	15.57
668.185	15.28
668.511	15.47
668.837	15.6
669.162	15.19
669.488	15.35
669.814	14.5
670.139	15.26
670.465	14.56
670.791	15.51
671.116	14.72
671.442	14.82
671.767	15.03
672.092	14.94
672.418	14.92
672.743	14.83
673.068	15.16
673.393	15.2
673.718	15.22
674.043	15.47
674.368	15.9
674.693	16.07
675.018	15.43
675.343	15.49
675.667	15.24
675.992	15.74
676.317	15.83
676.641	15.47
676.966	16.09
677.29	15.71
677.615	15.6
677.939	15.17
678.264	15.41
678.588	15.49
678.912	16.49
679.236	16.31
679.56	15.5
679.885	16.43
680.209	15.59
680.532	15.31
680.856	15.68
681.18	15.79
681.504	15.94
681.828	16.54
682.152	16.18
682.475	15.69
682.799	16.2
683.122	15.87
683.446	15.97
683.769	15.86
684.093	15.81
684.416	16.04
684.739	16.3
685.062	15.41
685.386	15.61
685.709	16.03
686.032	16.92
686.355	16.76
686.678	16.16
687.001	16.56
687.324	16.32
