Data from 0263_forehead_Reflection__2__150.txt Node

Date: Fri Oct 20 21:47:45 CDT 2023
User: ToomeyLab
Spectrometer: FLMS14357
Trigger mode: 0
Integration Time (sec): 1.000000E-2
Scans to average: 100
Electric dark correction enabled: true
Nonlinearity correction enabled: false
Boxcar width: 0
XAxis mode: Wavelengths
Number of Pixels in Spectrum: 2048
>>>>>Begin Spectral Data<<<<<
189.047	-192.28
189.435	-192.28
189.823	-192.28
190.211	1353.23
190.599	-98.8
190.987	2587.7
191.375	85.57
191.763	208.89
192.151	-84.05
192.538	-33.01
192.926	6.93
193.314	62.9
193.702	73.92
194.089	84.19
194.477	-194.5
194.864	177.72
195.252	95.62
195.639	-45.55
196.027	-636.92
196.414	77.67
196.801	-2575.88
197.189	31.81
197.576	142.86
197.963	161.2
198.351	48.25
198.738	16.8
199.125	32.51
199.512	18.97
199.899	34.44
200.286	-2.41
200.673	31.12
201.06	56.28
201.447	-0.73
201.833	43.63
202.22	61.86
202.607	47.67
202.994	43.17
203.38	26.74
203.767	21.35
204.154	55.32
204.54	52.26
204.927	23.36
205.313	43.62
205.699	38.62
206.086	57.1
206.472	37.71
206.858	31.4
207.245	-8.2
207.631	64.69
208.017	36.16
208.403	29.28
208.789	42.92
209.175	33
209.561	59.34
209.947	8.39
210.333	10.92
210.719	12.83
211.105	28.37
211.491	23.87
211.876	23.02
212.262	16.28
212.648	42.24
213.034	30.24
213.419	19.3
213.805	10.12
214.19	-20.7
214.576	-26.34
214.961	19.08
215.346	53.66
215.732	28.74
216.117	-13.85
216.502	35.18
216.888	9.36
217.273	9.07
217.658	26.78
218.043	53.79
218.428	-4.86
218.813	20.81
219.198	23.16
219.583	0.83
219.968	-11
220.353	13.74
220.738	20.03
221.122	21.77
221.507	14.35
221.892	12.54
222.276	14.1
222.661	15.84
223.046	13.13
223.43	7.14
223.815	5.84
224.199	11.49
224.583	6.97
224.968	-8.18
225.352	0.15
225.736	8.98
226.121	6.19
226.505	2.39
226.889	9.29
227.273	7.97
227.657	12.67
228.041	9.99
228.425	3.68
228.809	5.2
229.193	6.8
229.577	7.55
229.961	3.85
230.344	3.89
230.728	2
231.112	3.98
231.495	2.68
231.879	3.2
232.263	3.95
232.646	2.71
233.03	4.17
233.413	3.62
233.797	3.02
234.18	2.84
234.563	5.55
234.946	4.36
235.33	5.01
235.713	3.23
236.096	5.48
236.479	2.87
236.862	3.87
237.245	3.34
237.628	3.51
238.011	5.03
238.394	3.25
238.777	5.56
239.16	3.61
239.543	4.93
239.925	6.74
240.308	5.49
240.691	3.6
241.073	6.66
241.456	5.28
241.838	4.85
242.221	5.83
242.603	4.78
242.986	3.67
243.368	3.59
243.75	3.31
244.133	3.18
244.515	3.12
244.897	3.02
245.279	3.68
245.661	3.25
246.043	2.88
246.425	3.27
246.807	4.14
247.189	4.14
247.571	3.06
247.953	3.44
248.335	3.76
248.717	2.97
249.098	2.97
249.48	3
249.862	3.25
250.243	3.3
250.625	3.59
251.006	3.5
251.388	3.21
251.769	3.45
252.151	3.35
252.532	3.88
252.913	4.56
253.295	2.93
253.676	3.85
254.057	3.35
254.438	3.14
254.819	3.35
255.2	3.1
255.581	3.71
255.962	3.12
256.343	4.1
256.724	2.27
257.105	3.96
257.486	3.98
257.867	4.04
258.247	3.26
258.628	3.89
259.009	3.57
259.389	3.23
259.77	2.95
260.15	3.26
260.531	3.53
260.911	3.46
261.292	3.13
261.672	3.25
262.052	3.38
262.432	3.18
262.813	3.1
263.193	3.12
263.573	3.24
263.953	3.33
264.333	3.23
264.713	3.6
265.093	4.04
265.473	3.67
265.853	3.35
266.233	2.66
266.612	3.38
266.992	3.5
267.372	3.47
267.752	2.82
268.131	3.52
268.511	3.24
268.89	3.25
269.27	3.51
269.649	3.19
270.029	3.38
270.408	3.63
270.787	3.91
271.167	3.44
271.546	3.06
271.925	3.89
272.304	3.81
272.683	3.95
273.062	3.31
273.441	3.15
273.82	2.92
274.199	3.27
274.578	3.61
274.957	3.45
275.336	3.25
275.715	3.16
276.093	3.44
276.472	3.7
276.851	3.59
277.229	3.46
277.608	3.1
277.986	2.74
278.365	3.35
278.743	3.65
279.122	2.79
279.5	3.25
279.878	2.99
280.257	3.32
280.635	3.46
281.013	3.52
281.391	3.69
281.769	3.24
282.147	2.79
282.525	3.54
282.903	3.01
283.281	3.56
283.659	3.33
284.037	2.91
284.415	3.21
284.792	3.19
285.17	3.45
285.548	3.17
285.925	2.87
286.303	3.05
286.68	3.29
287.058	3.87
287.435	3.71
287.813	2.85
288.19	3.08
288.567	3.26
288.945	3.44
289.322	3.22
289.699	2.99
290.076	3.67
290.453	3.8
290.83	3.22
291.207	3.35
291.584	3.17
291.961	3.17
292.338	3.05
292.715	3.43
293.092	3.07
293.469	3.77
293.845	3.44
294.222	3.2
294.599	3.38
294.975	4.57
295.352	3.49
295.728	3.55
296.105	3.57
296.481	3.23
296.858	3.38
297.234	3.93
297.61	3.43
297.986	3.69
298.363	3.81
298.739	3.53
299.115	3.55
299.491	3.68
299.867	3.82
300.243	3.74
300.619	3.65
300.995	3.67
301.371	3.95
301.746	3.79
302.122	4.06
302.498	3.63
302.874	3.72
303.249	3.87
303.625	3.99
304	4.35
304.376	3.96
304.751	3.57
305.127	3.89
305.502	4.57
305.878	4.38
306.253	4.17
306.628	4.45
307.003	4.71
307.378	4.66
307.754	4.56
308.129	4.75
308.504	4.87
308.879	4.37
309.254	5.11
309.629	4.06
310.003	4.26
310.378	4.95
310.753	4.34
311.128	4.32
311.502	4.79
311.877	4.63
312.252	4.55
312.626	4.78
313.001	4.7
313.375	4.86
313.75	5.1
314.124	4.69
314.498	4.97
314.873	4.76
315.247	5.46
315.621	5.51
315.995	5.71
316.369	4.75
316.743	5.59
317.117	5.48
317.491	4.94
317.865	5.54
318.239	5.76
318.613	4.98
318.987	5.61
319.361	4.94
319.734	5.53
320.108	5.74
320.482	6.23
320.855	6.22
321.229	6.22
321.602	6.29
321.976	5.77
322.349	6.19
322.723	5.59
323.096	5.77
323.469	5.96
323.843	5.64
324.216	5.91
324.589	5.87
324.962	6.75
325.335	6.54
325.708	6.19
326.081	6
326.454	6.01
326.827	6.85
327.2	6.76
327.573	7.11
327.945	6.9
328.318	6.61
328.691	6.45
329.063	6.79
329.436	6.08
329.809	6.89
330.181	7.51
330.553	6.59
330.926	6.72
331.298	6.13
331.671	6.88
332.043	6.94
332.415	7.08
332.787	7.59
333.159	6.71
333.532	7.02
333.904	7.07
334.276	6.89
334.648	6.98
335.02	7.29
335.391	6.83
335.763	7.79
336.135	7.39
336.507	7.14
336.879	7.36
337.25	7.36
337.622	7.4
337.993	7.89
338.365	7.35
338.736	7.41
339.108	7.84
339.479	7.48
339.851	7.03
340.222	7.55
340.593	7.61
340.964	7.29
341.336	8.33
341.707	7.46
342.078	7.96
342.449	7.76
342.82	7.63
343.191	7.75
343.562	7.89
343.933	7.81
344.303	8.07
344.674	8.36
345.045	8.37
345.416	8.32
345.786	7.73
346.157	8.09
346.527	7.94
346.898	8.39
347.268	8.18
347.639	8.68
348.009	7.92
348.38	8.17
348.75	8.24
349.12	8.46
349.49	8.34
349.861	8.78
350.231	8.4
350.601	8.64
350.971	8.86
351.341	8.84
351.711	8.92
352.081	8.6
352.45	8.61
352.82	8.56
353.19	8.96
353.56	9.12
353.929	8.86
354.299	8.8
354.669	8.84
355.038	8.84
355.408	9.39
355.777	8.98
356.147	8.95
356.516	9.04
356.885	8.87
357.254	9.37
357.624	9.24
357.993	9.16
358.362	9.31
358.731	8.56
359.1	9.19
359.469	9.4
359.838	9.45
360.207	9.39
360.576	9.45
360.945	9.04
361.314	9.43
361.682	9.59
362.051	9.49
362.42	9.27
362.788	9.76
363.157	9.39
363.525	9.48
363.894	9.43
364.262	9.47
364.631	9.6
364.999	9.69
365.367	10
365.735	9.91
366.104	9.4
366.472	10.02
366.84	9.76
367.208	9.94
367.576	9.91
367.944	9.87
368.312	9.93
368.68	10.33
369.048	10.13
369.416	10.36
369.783	10.19
370.151	10.16
370.519	10.21
370.886	10.58
371.254	10.6
371.621	10.85
371.989	10.23
372.356	10.8
372.724	10.49
373.091	10.81
373.458	10.53
373.826	10.64
374.193	10.29
374.56	10.77
374.927	10.89
375.294	11
375.661	10.89
376.028	10.91
376.395	11.18
376.762	11.14
377.129	10.94
377.496	10.91
377.863	11.49
378.229	11.17
378.596	11.11
378.963	10.97
379.329	11.17
379.696	11.3
380.062	11.1
380.429	11.2
380.795	11.22
381.161	11.23
381.528	11.35
381.894	11.45
382.26	11.83
382.626	11.71
382.993	11.59
383.359	11.78
383.725	11.82
384.091	12.08
384.457	11.58
384.823	11.67
385.188	12.04
385.554	11.96
385.92	11.88
386.286	12
386.651	11.68
387.017	12.12
387.383	11.79
387.748	11.59
388.114	11.85
388.479	11.94
388.845	12.29
389.21	11.74
389.575	11.83
389.94	12.49
390.306	11.92
390.671	11.97
391.036	12.09
391.401	12.7
391.766	12.55
392.131	12.21
392.496	12.49
392.861	12.42
393.226	12.38
393.591	12.52
393.956	12.75
394.32	12.56
394.685	12.49
395.05	12.69
395.414	12.58
395.779	12.58
396.143	12.59
396.508	12.67
396.872	12.58
397.236	12.85
397.601	12.73
397.965	12.81
398.329	12.98
398.694	13.01
399.058	12.64
399.422	13.36
399.786	12.94
400.15	13.08
400.514	13.08
400.878	13.4
401.242	13.35
401.605	13.03
401.969	13.13
402.333	13.29
402.697	13.49
403.06	13.17
403.424	13.02
403.787	13.28
404.151	13.45
404.514	13.55
404.878	13.67
405.241	13.59
405.604	13.55
405.968	13.66
406.331	13.55
406.694	13.71
407.057	13.68
407.42	14.06
407.783	13.81
408.146	13.85
408.509	13.9
408.872	14.13
409.235	13.99
409.598	14.04
409.961	14.28
410.323	14.16
410.686	13.84
411.049	14.03
411.411	14.15
411.774	14.44
412.136	14.21
412.499	14.26
412.861	14.11
413.223	14.37
413.586	14.38
413.948	14.28
414.31	14.72
414.672	14.3
415.035	14.45
415.397	14.42
415.759	14.35
416.121	14.43
416.483	14.69
416.845	14.55
417.206	14.7
417.568	14.63
417.93	14.8
418.292	14.49
418.653	14.98
419.015	14.47
419.377	14.56
419.738	14.64
420.1	14.5
420.461	14.56
420.822	14.53
421.184	14.69
421.545	14.65
421.906	14.67
422.267	14.85
422.629	14.74
422.99	14.63
423.351	14.74
423.712	14.71
424.073	14.75
424.434	14.77
424.795	15.02
425.155	14.97
425.516	14.9
425.877	15.03
426.238	14.88
426.598	14.96
426.959	14.92
427.32	15.2
427.68	15.21
428.041	15.31
428.401	15.43
428.761	15.56
429.122	15.57
429.482	15.53
429.842	15.69
430.202	15.69
430.563	15.7
430.923	15.84
431.283	15.74
431.643	15.92
432.003	16.14
432.363	15.88
432.722	16.12
433.082	15.84
433.442	15.87
433.802	16.31
434.161	15.89
434.521	16.13
434.881	16.11
435.24	16.07
435.6	16
435.959	16.05
436.319	16.19
436.678	16.23
437.037	16.39
437.396	16.6
437.756	16.57
438.115	16.32
438.474	16.62
438.833	16.67
439.192	16.59
439.551	16.55
439.91	16.56
440.269	16.67
440.628	16.56
440.987	16.53
441.345	16.51
441.704	16.62
442.063	16.58
442.421	16.6
442.78	16.61
443.138	16.82
443.497	16.56
443.855	16.83
444.214	16.72
444.572	16.89
444.93	17.23
445.288	17.04
445.647	17.3
446.005	16.98
446.363	17.08
446.721	17.11
447.079	17.17
447.437	17.07
447.795	17.03
448.153	16.95
448.51	17.06
448.868	16.84
449.226	16.95
449.584	16.99
449.941	17.1
450.299	17.28
450.656	17.36
451.014	17.4
451.371	17.72
451.729	17.56
452.086	17.59
452.443	17.79
452.801	17.97
453.158	17.87
453.515	17.92
453.872	17.98
454.229	18.02
454.586	17.86
454.943	17.83
455.3	17.82
455.657	17.97
456.014	17.89
456.371	17.89
456.727	18.18
457.084	18.04
457.441	18.29
457.797	18.19
458.154	18.26
458.51	18.24
458.867	18.31
459.223	18.37
459.58	18.4
459.936	18.54
460.292	18.41
460.648	18.31
461.005	18.38
461.361	18.18
461.717	18.17
462.073	18.2
462.429	18.21
462.785	18.33
463.141	18.48
463.496	18.55
463.852	18.68
464.208	18.94
464.564	18.73
464.919	18.83
465.275	19.11
465.631	18.99
465.986	19.07
466.342	19.22
466.697	18.94
467.052	19.12
467.408	19.17
467.763	19.3
468.118	19.45
468.473	19.34
468.829	19.32
469.184	19.28
469.539	19.19
469.894	19.3
470.249	19.23
470.603	19.39
470.958	19.51
471.313	19.7
471.668	19.59
472.023	19.74
472.377	19.82
472.732	19.68
473.086	19.72
473.441	19.98
473.795	19.93
474.15	19.94
474.504	19.57
474.859	19.87
475.213	19.74
475.567	19.9
475.921	20.15
476.275	19.96
476.63	20.05
476.984	20.07
477.338	20.22
477.692	20.35
478.045	19.93
478.399	20.12
478.753	20.29
479.107	20.29
479.461	20.08
479.814	20.13
480.168	20.17
480.521	20.3
480.875	20.38
481.228	20.41
481.582	20.44
481.935	20.37
482.289	20.51
482.642	20.45
482.995	20.47
483.348	20.5
483.701	20.35
484.055	20.37
484.408	20.18
484.761	20.18
485.114	20.15
485.466	19.75
485.819	19.55
486.172	19.56
486.525	19.63
486.878	19.72
487.23	19.87
487.583	20.05
487.936	20.15
488.288	20.27
488.641	20.36
488.993	20.13
489.345	20.13
489.698	19.98
490.05	20.05
490.402	20.14
490.754	20.3
491.107	20.33
491.459	20.59
491.811	20.85
492.163	20.88
492.515	21.02
492.866	21.03
493.218	20.82
493.57	20.59
493.922	20.54
494.274	20.55
494.625	20.67
494.977	20.86
495.328	21.18
495.68	21.33
496.031	21.37
496.383	21.62
496.734	21.74
497.086	21.75
497.437	21.7
497.788	21.74
498.139	21.86
498.49	21.83
498.842	21.69
499.193	21.69
499.544	21.87
499.894	21.85
500.245	21.88
500.596	21.95
500.947	22.02
501.298	22.03
501.648	22.15
501.999	22.32
502.35	22.28
502.7	22.42
503.051	22.46
503.401	22.36
503.752	22.38
504.102	22.47
504.452	22.56
504.803	22.71
505.153	22.72
505.503	22.61
505.853	22.57
506.203	22.6
506.553	22.67
506.903	22.69
507.253	22.68
507.603	22.75
507.953	22.85
508.303	22.85
508.652	22.95
509.002	22.63
509.352	22.97
509.701	23.08
510.051	22.91
510.4	22.81
510.75	22.82
511.099	22.74
511.449	22.9
511.798	22.81
512.147	22.79
512.496	23.01
512.846	23.02
513.195	23.07
513.544	23.02
513.893	23.11
514.242	23.12
514.591	23.33
514.939	23.19
515.288	23.38
515.637	23.29
515.986	23.37
516.334	23.41
516.683	23.31
517.032	23.55
517.38	23.42
517.729	23.57
518.077	23.68
518.426	23.74
518.774	23.6
519.122	23.68
519.47	23.62
519.819	23.67
520.167	23.48
520.515	23.57
520.863	23.38
521.211	23.45
521.559	23.5
521.907	23.49
522.255	23.72
522.602	23.96
522.95	23.78
523.298	23.94
523.645	24.07
523.993	24.13
524.341	24.13
524.688	24.13
525.036	24.28
525.383	24.13
525.73	24.5
526.078	24.25
526.425	24.26
526.772	24.15
527.119	24.3
527.466	24.09
527.814	24.08
528.161	23.92
528.508	24
528.854	24.17
529.201	24.2
529.548	24.25
529.895	24.1
530.242	23.81
530.588	23.66
530.935	23.63
531.282	23.68
531.628	23.77
531.975	23.78
532.321	23.98
532.667	24.16
533.014	24.28
533.36	24.48
533.706	24.61
534.052	24.61
534.399	24.51
534.745	24.59
535.091	24.48
535.437	24.22
535.783	24.31
536.129	24.39
536.474	24.54
536.82	24.74
537.166	24.78
537.512	24.91
537.857	25
538.203	24.97
538.549	25.08
538.894	24.94
539.239	25.08
539.585	24.9
539.93	25.05
540.276	25.35
540.621	25.41
540.966	25.6
541.311	25.77
541.656	25.81
542.001	25.71
542.346	25.66
542.691	25.32
543.036	25.17
543.381	24.9
543.726	24.87
544.071	24.88
544.415	24.98
544.76	25.14
545.105	25.32
545.449	25.36
545.794	25.47
546.138	25.59
546.483	25.73
546.827	26.05
547.171	25.96
547.516	26.06
547.86	26.18
548.204	26.04
548.548	26.23
548.892	26.03
549.236	26.02
549.58	26
549.924	26.11
550.268	26.39
550.612	26.54
550.956	26.69
551.3	26.54
551.643	26.66
551.987	26.83
552.33	26.85
552.674	26.79
553.017	26.85
553.361	26.85
553.704	27.04
554.048	27
554.391	27.08
554.734	26.89
555.077	26.78
555.42	26.73
555.764	26.78
556.107	27.18
556.45	27.03
556.793	27.01
557.135	27.28
557.478	27.15
557.821	27.55
558.164	27.58
558.507	27.11
558.849	27.49
559.192	27.54
559.534	27.66
559.877	27.42
560.219	27.56
560.562	27.66
560.904	27.64
561.246	28.03
561.589	27.79
561.931	27.84
562.273	27.81
562.615	27.84
562.957	27.73
563.299	27.63
563.641	27.81
563.983	27.76
564.325	27.97
564.667	28.03
565.008	28.11
565.35	28.15
565.692	28.06
566.033	28.39
566.375	28.19
566.716	28.25
567.058	27.97
567.399	28.18
567.741	28.16
568.082	28.01
568.423	28.22
568.764	27.96
569.105	28.02
569.447	28.13
569.788	28.18
570.129	28.37
570.47	28.3
570.811	28.12
571.151	28.44
571.492	28.43
571.833	28.67
572.174	28.65
572.514	28.62
572.855	28.48
573.195	28.56
573.536	28.6
573.876	28.63
574.217	28.41
574.557	28.52
574.898	28.35
575.238	28.65
575.578	28.8
575.918	28.63
576.258	28.8
576.598	28.8
576.938	28.79
577.278	28.88
577.618	28.85
577.958	28.9
578.298	28.94
578.638	29.22
578.977	29.07
579.317	28.97
579.657	29.35
579.996	29.23
580.336	29.49
580.675	29.22
581.014	29.5
581.354	29.5
581.693	29.77
582.032	29.67
582.372	29.76
582.711	29.65
583.05	30.17
583.389	29.6
583.728	29.75
584.067	29.77
584.406	29.83
584.745	29.83
585.083	29.63
585.422	29.99
585.761	29.96
586.1	29.92
586.438	29.81
586.777	30.05
587.115	30.16
587.454	30.33
587.792	30.21
588.13	30.32
588.469	30.31
588.807	29.93
589.145	30.27
589.483	30.33
589.821	30.24
590.159	30.29
590.497	30.18
590.835	30.49
591.173	30.21
591.511	30.34
591.849	30.15
592.187	30.48
592.524	30.47
592.862	30.41
593.2	30.64
593.537	30.53
593.875	30.3
594.212	30.63
594.55	30.84
594.887	31.01
595.224	30.35
595.561	30.61
595.899	30.59
596.236	30.83
596.573	30.98
596.91	30.99
597.247	30.65
597.584	30.6
597.921	31.02
598.258	31.1
598.594	30.77
598.931	30.32
599.268	30.65
599.604	30.77
599.941	30.73
600.277	30.76
600.614	30.88
600.95	31.17
601.287	30.99
601.623	31.37
601.959	31.09
602.296	31.27
602.632	31.61
602.968	31.1
603.304	31.4
603.64	31.08
603.976	31.59
604.312	31.72
604.648	31.86
604.984	31.64
605.319	31.61
605.655	31.47
605.991	31.24
606.326	31.25
606.662	31.06
606.998	31.32
607.333	31.16
607.668	30.92
608.004	31.48
608.339	31.82
608.674	31.69
609.01	31.46
609.345	32.11
609.68	32.01
610.015	31.95
610.35	32.18
610.685	31.8
611.02	32.08
611.355	31.79
611.689	31.96
612.024	31.9
612.359	31.94
612.694	32
613.028	31.89
613.363	32.14
613.697	32.16
614.032	32.28
614.366	32.23
614.7	32.38
615.035	32.43
615.369	32.45
615.703	32.28
616.037	32.92
616.371	32.78
616.705	32.5
617.039	32.63
617.373	32.67
617.707	32.95
618.041	32.7
618.375	32.82
618.709	32.68
619.042	32.96
619.376	33.26
619.71	33.21
620.043	33.13
620.377	32.75
620.71	32.73
621.043	32.85
621.377	33.08
621.71	33.28
622.043	32.85
622.376	32.92
622.709	33.3
623.043	33.69
623.376	33
623.709	33.26
624.041	33.3
624.374	33.16
624.707	33.17
625.04	32.99
625.373	33.29
625.705	33.19
626.038	33.39
626.37	33.17
626.703	33.08
627.035	33.22
627.368	33.74
627.7	33.9
628.032	33.53
628.365	33.55
628.697	33.63
629.029	33.88
629.361	33.5
629.693	33.3
630.025	33.84
630.357	33.72
630.689	33.4
631.021	33.67
631.353	33.72
631.684	33.71
632.016	33.63
632.348	34.1
632.679	33.78
633.011	34.14
633.342	33.89
633.674	34.27
634.005	34.13
634.336	34.16
634.668	33.66
634.999	33.9
635.33	34.25
635.661	34.43
635.992	34.4
636.323	33.83
636.654	34.11
636.985	33.92
637.316	34.04
637.647	33.99
637.977	34.11
638.308	34.21
638.639	34.55
638.969	34.96
639.3	34.03
639.63	34.78
639.961	34.12
640.291	34.19
640.622	34.73
640.952	34.73
641.282	34.6
641.612	34.75
641.943	34.89
642.273	34.53
642.603	35.13
642.933	34.71
643.263	35.11
643.592	34.9
643.922	35.1
644.252	34.49
644.582	35.34
644.911	34.82
645.241	35.22
645.571	35.44
645.9	34.82
646.23	35.04
646.559	34.76
646.888	34.97
647.218	35.32
647.547	35.5
647.876	35.23
648.205	35.39
648.534	34.86
648.863	35.31
649.192	35.24
649.521	35.32
649.85	35.28
650.179	34.92
650.508	35.33
650.837	35.85
651.165	35.47
651.494	35.33
651.822	35.81
652.151	35.49
652.479	35.51
652.808	35.76
653.136	35.24
653.465	35.63
653.793	36.13
654.121	35.9
654.449	35.99
654.777	35.63
655.105	35.98
655.433	35.6
655.761	36.13
656.089	35.73
656.417	35.84
656.745	35.28
657.073	36.26
657.4	36.12
657.728	36.16
658.056	35.52
658.383	35.76
658.711	36.55
659.038	35.88
659.365	36.26
659.693	36.25
660.02	36.31
660.347	36.49
660.674	36.11
661.001	36.3
661.329	36.13
661.656	36.26
661.982	36.15
662.309	36.12
662.636	36.64
662.963	35.97
663.29	36.3
663.616	36.73
663.943	36.35
664.27	36.77
664.596	36.69
664.923	36.6
665.249	37.01
665.576	36.38
665.902	37.13
666.228	36.7
666.554	37.06
666.881	36.09
667.207	36.68
667.533	36.67
667.859	36.68
668.185	37.29
668.511	37.4
668.837	37.23
669.162	37.14
669.488	37.34
669.814	36.55
670.139	36.84
670.465	36.93
670.791	37.51
671.116	37.08
671.442	36.93
671.767	36.65
672.092	37.03
