Data from 0263_crown_Reflection__0__143.txt Node

Date: Fri Oct 20 21:46:04 CDT 2023
User: ToomeyLab
Spectrometer: FLMS14357
Trigger mode: 0
Integration Time (sec): 1.000000E-2
Scans to average: 100
Electric dark correction enabled: true
Nonlinearity correction enabled: false
Boxcar width: 0
XAxis mode: Wavelengths
Number of Pixels in Spectrum: 2048
>>>>>Begin Spectral Data<<<<<
189.047	-21.08
189.435	-21.08
189.823	-21.08
190.211	3004.84
190.599	-251.96
190.987	7951.64
191.375	72.64
191.763	4.65
192.151	78.83
192.538	40.78
192.926	14.22
193.314	42.01
193.702	42.77
194.089	108.67
194.477	-22.92
194.864	991.75
195.252	62.52
195.639	104.74
196.027	-866.46
196.414	58.82
196.801	-3093.53
197.189	9.88
197.576	64.79
197.963	105.88
198.351	57.22
198.738	21.46
199.125	43.02
199.512	31.53
199.899	-13.65
200.286	8.04
200.673	21.57
201.06	21.53
201.447	26.58
201.833	14.47
202.22	40.04
202.607	49.72
202.994	21.5
203.38	8.17
203.767	-4.48
204.154	38.51
204.54	50.98
204.927	14.65
205.313	-24.45
205.699	51.17
206.086	46.65
206.472	30.85
206.858	26.5
207.245	-11.56
207.631	52.6
208.017	39.73
208.403	51.92
208.789	57.87
209.175	-35.01
209.561	33.29
209.947	9.33
210.333	34.29
210.719	32.23
211.105	40.57
211.491	35.33
211.876	32.54
212.262	15.46
212.648	2.44
213.034	14.56
213.419	6.96
213.805	24.2
214.19	-15.2
214.576	41.86
214.961	22.37
215.346	41.87
215.732	9.55
216.117	-12.95
216.502	15.75
216.888	0.7
217.273	13.28
217.658	-1.78
218.043	-13.27
218.428	17.15
218.813	8.74
219.198	2.99
219.583	8.85
219.968	15.43
220.353	19.75
220.738	14.45
221.122	27.42
221.507	16.99
221.892	11.3
222.276	27.49
222.661	16.52
223.046	17.72
223.43	13.92
223.815	23.49
224.199	25.13
224.583	1.19
224.968	16.86
225.352	-1.87
225.736	6.6
226.121	10.2
226.505	9.55
226.889	13.98
227.273	15.37
227.657	17.14
228.041	15.49
228.425	7.71
228.809	7.11
229.193	10.29
229.577	12.24
229.961	8.63
230.344	6.93
230.728	7.38
231.112	8.41
231.495	7.82
231.879	8.77
232.263	7.88
232.646	7.78
233.03	8.11
233.413	7.47
233.797	8.8
234.18	7.13
234.563	8.54
234.946	9.38
235.33	8.17
235.713	7.18
236.096	8.77
236.479	7.24
236.862	7.44
237.245	6.99
237.628	8.01
238.011	9.06
238.394	8.47
238.777	10.12
239.16	7.77
239.543	8.14
239.925	10.85
240.308	7.48
240.691	8.1
241.073	7.66
241.456	8.01
241.838	8.17
242.221	7.61
242.603	8.25
242.986	7.26
243.368	7.69
243.75	7.78
244.133	7.1
244.515	6.96
244.897	7.04
245.279	7.08
245.661	6.85
246.043	6.29
246.425	6.69
246.807	6.29
247.189	6.8
247.571	6.87
247.953	6.59
248.335	7.4
248.717	6.21
249.098	6.44
249.48	6.33
249.862	6.45
250.243	7.36
250.625	6.7
251.006	6.42
251.388	6.55
251.769	6.99
252.151	7.23
252.532	6.72
252.913	6.85
253.295	4.91
253.676	6.45
254.057	6.62
254.438	6.51
254.819	6.23
255.2	6.53
255.581	6.72
255.962	6.37
256.343	7.62
256.724	5.89
257.105	7.23
257.486	7.16
257.867	5.97
258.247	6.35
258.628	6.42
259.009	5.99
259.389	6.24
259.77	5.57
260.15	7.01
260.531	6.38
260.911	6.5
261.292	5.81
261.672	6.17
262.052	5.98
262.432	5.88
262.813	6.03
263.193	6.41
263.573	6.47
263.953	5.91
264.333	6.11
264.713	6.75
265.093	6.34
265.473	6.41
265.853	6.34
266.233	6.79
266.612	6.35
266.992	5.4
267.372	5.69
267.752	6.27
268.131	5.91
268.511	6.31
268.89	6.27
269.27	6
269.649	5.22
270.029	5.76
270.408	6.63
270.787	6.31
271.167	6.65
271.546	5.89
271.925	5.94
272.304	6.4
272.683	6.47
273.062	5.75
273.441	5.95
273.82	5.97
274.199	5.79
274.578	6.18
274.957	5.82
275.336	5.58
275.715	5.94
276.093	5.6
276.472	6.15
276.851	6.22
277.229	6.05
277.608	5.11
277.986	5.51
278.365	5.9
278.743	5.51
279.122	5.37
279.5	6.17
279.878	5.59
280.257	5.24
280.635	5.81
281.013	6.28
281.391	5.98
281.769	6.06
282.147	5.74
282.525	6.02
282.903	5.45
283.281	5.95
283.659	5.56
284.037	5.66
284.415	5.16
284.792	5.73
285.17	5.56
285.548	5.67
285.925	5.55
286.303	5.27
286.68	5.7
287.058	6.21
287.435	5.84
287.813	5.13
288.19	5.63
288.567	5.76
288.945	5.64
289.322	5.8
289.699	4.88
290.076	5.7
290.453	5.8
290.83	5.45
291.207	6.18
291.584	5.21
291.961	5.81
292.338	5.48
292.715	5.32
293.092	5.22
293.469	5.67
293.845	5.8
294.222	5.09
294.599	5.78
294.975	6.29
295.352	5.58
295.728	5.77
296.105	5.53
296.481	5.49
296.858	5.42
297.234	5.65
297.61	5.16
297.986	5.68
298.363	5.43
298.739	5.65
299.115	5.54
299.491	5.59
299.867	5.49
300.243	5.45
300.619	5.72
300.995	5.33
301.371	5.9
301.746	5.76
302.122	5.81
302.498	5.29
302.874	5.6
303.249	5.77
303.625	5.84
304	6.08
304.376	5.53
304.751	5.26
305.127	5.36
305.502	5.74
305.878	5.75
306.253	5.64
306.628	5.85
307.003	5.87
307.378	5.32
307.754	5.64
308.129	5.87
308.504	5.68
308.879	5.9
309.254	6.1
309.629	5.12
310.003	4.68
310.378	5.45
310.753	5.92
311.128	6.18
311.502	5.46
311.877	5.45
312.252	5.24
312.626	5.53
313.001	5.52
313.375	5.94
313.75	5.35
314.124	5.38
314.498	5.46
314.873	5.29
315.247	6.02
315.621	5.55
315.995	5.43
316.369	5.4
316.743	5.91
317.117	5.72
317.491	5.51
317.865	6
318.239	6.46
318.613	5.4
318.987	5.81
319.361	5.32
319.734	5.78
320.108	5.27
320.482	5.37
320.855	5.33
321.229	5.75
321.602	5.43
321.976	5.3
322.349	6.06
322.723	5.43
323.096	5.82
323.469	5.88
323.843	5.91
324.216	5.66
324.589	6.12
324.962	6.03
325.335	5.68
325.708	5.55
326.081	5.37
326.454	5.63
326.827	5.63
327.2	5.99
327.573	5.51
327.945	5.45
328.318	5.25
328.691	5.56
329.063	6.08
329.436	5.52
329.809	5.9
330.181	5.92
330.553	5.66
330.926	5.7
331.298	5.47
331.671	5.63
332.043	5.57
332.415	5.88
332.787	6.24
333.159	5.45
333.532	6.08
333.904	5.85
334.276	5.72
334.648	6.15
335.02	6.07
335.391	4.93
335.763	6.07
336.135	5.72
336.507	5.49
336.879	5.33
337.25	5.63
337.622	5.78
337.993	6.53
338.365	5.63
338.736	5.52
339.108	5.91
339.479	5.5
339.851	6.11
340.222	5.46
340.593	5.47
340.964	5.6
341.336	6.08
341.707	5.76
342.078	5.95
342.449	5.57
342.82	5.82
343.191	5.53
343.562	5.87
343.933	6.01
344.303	5.73
344.674	5.62
345.045	6.05
345.416	6.02
345.786	5.7
346.157	5.79
346.527	5.61
346.898	5.91
347.268	6.11
347.639	6.22
348.009	5.47
348.38	5.67
348.75	5.77
349.12	5.57
349.49	5.67
349.861	5.76
350.231	5.61
350.601	5.59
350.971	5.78
351.341	6.08
351.711	6.1
352.081	5.77
352.45	5.9
352.82	5.93
353.19	6.12
353.56	6.15
353.929	5.71
354.299	5.7
354.669	5.83
355.038	6.13
355.408	6.13
355.777	5.73
356.147	5.62
356.516	5.96
356.885	5.71
357.254	6.08
357.624	5.92
357.993	5.71
358.362	5.92
358.731	5.6
359.1	5.44
359.469	5.82
359.838	5.7
360.207	5.89
360.576	6.01
360.945	5.71
361.314	5.74
361.682	5.94
362.051	5.6
362.42	5.76
362.788	5.99
363.157	6.1
363.525	5.82
363.894	5.76
364.262	5.83
364.631	5.76
364.999	5.86
365.367	6.07
365.735	5.72
366.104	5.9
366.472	6
366.84	5.94
367.208	5.74
367.576	5.85
367.944	5.79
368.312	5.84
368.68	6.13
369.048	5.81
369.416	6.23
369.783	5.96
370.151	5.82
370.519	5.8
370.886	6.32
371.254	6.31
371.621	6.08
371.989	6.02
372.356	6.03
372.724	6.38
373.091	5.67
373.458	5.7
373.826	5.75
374.193	5.89
374.56	5.94
374.927	6.01
375.294	6.17
375.661	6.05
376.028	6.4
376.395	6.14
376.762	5.6
377.129	6.17
377.496	5.96
377.863	6.18
378.229	6.01
378.596	6.27
378.963	6.14
379.329	6.26
379.696	5.86
380.062	5.99
380.429	5.92
380.795	5.9
381.161	5.86
381.528	6.3
381.894	5.74
382.26	6.19
382.626	6.05
382.993	6.12
383.359	5.97
383.725	6.25
384.091	6.4
384.457	5.71
384.823	6.41
385.188	6.09
385.554	5.94
385.92	5.87
386.286	6.1
386.651	5.89
387.017	6.16
387.383	5.96
387.748	5.69
388.114	5.76
388.479	5.98
388.845	6.26
389.21	5.89
389.575	5.62
389.94	6.01
390.306	5.92
390.671	5.89
391.036	5.96
391.401	6.27
391.766	6.2
392.131	5.95
392.496	5.66
392.861	6.26
393.226	6.07
393.591	6.07
393.956	5.98
394.32	6.07
394.685	6.17
395.05	6.14
395.414	6.37
395.779	6.15
396.143	6.02
396.508	6
396.872	6.23
397.236	6.2
397.601	5.83
397.965	5.83
398.329	5.95
398.694	6.1
399.058	5.69
399.422	5.9
399.786	5.81
400.15	5.73
400.514	5.83
400.878	6.17
401.242	6.13
401.605	6.15
401.969	5.83
402.333	6.07
402.697	6
403.06	6.04
403.424	5.94
403.787	5.91
404.151	6.06
404.514	5.98
404.878	6.14
405.241	6.06
405.604	5.94
405.968	6.2
406.331	5.97
406.694	6.01
407.057	5.76
407.42	6.18
407.783	6.06
408.146	5.79
408.509	5.98
408.872	6.12
409.235	6.02
409.598	6
409.961	6.06
410.323	6.04
410.686	5.87
411.049	6.13
411.411	5.95
411.774	6.01
412.136	5.85
412.499	5.94
412.861	6.21
413.223	6.04
413.586	5.86
413.948	5.89
414.31	6.11
414.672	5.63
415.035	5.77
415.397	6.01
415.759	5.83
416.121	6
416.483	6.2
416.845	6.1
417.206	6.07
417.568	6.17
417.93	6
418.292	5.74
418.653	6.08
419.015	5.98
419.377	6
419.738	5.89
420.1	5.76
420.461	5.91
420.822	5.78
421.184	5.87
421.545	5.88
421.906	5.85
422.267	5.77
422.629	5.97
422.99	5.73
423.351	5.79
423.712	5.84
424.073	5.83
424.434	5.72
424.795	5.84
425.155	5.82
425.516	5.8
425.877	5.74
426.238	5.68
426.598	5.86
426.959	5.75
427.32	5.82
427.68	5.77
428.041	5.81
428.401	5.85
428.761	5.84
429.122	5.73
429.482	5.8
429.842	6.06
430.202	5.99
430.563	5.89
430.923	5.89
431.283	5.75
431.643	6
432.003	6.22
432.363	5.97
432.722	6.15
433.082	5.83
433.442	5.8
433.802	6.07
434.161	5.99
434.521	6.02
434.881	5.93
435.24	6.05
435.6	5.9
435.959	5.73
436.319	5.92
436.678	5.98
437.037	5.98
437.396	5.92
437.756	6.04
438.115	5.73
438.474	5.98
438.833	5.93
439.192	5.82
439.551	5.77
439.91	5.83
440.269	5.93
440.628	5.85
440.987	5.92
441.345	5.78
441.704	5.86
442.063	5.85
442.421	5.8
442.78	5.76
443.138	5.97
443.497	5.94
443.855	6
444.214	5.75
444.572	5.79
444.93	5.91
445.288	5.95
445.647	5.99
446.005	5.77
446.363	5.83
446.721	5.85
447.079	5.99
447.437	5.87
447.795	5.82
448.153	5.79
448.51	5.77
448.868	5.79
449.226	5.74
449.584	5.78
449.941	5.68
450.299	5.83
450.656	5.87
451.014	5.82
451.371	5.81
451.729	5.82
452.086	5.98
452.443	5.95
452.801	5.72
453.158	5.92
453.515	5.97
453.872	5.91
454.229	5.98
454.586	5.76
454.943	5.83
455.3	5.86
455.657	5.93
456.014	5.9
456.371	5.86
456.727	5.91
457.084	6.02
457.441	5.99
457.797	5.91
458.154	5.85
458.51	5.9
458.867	5.92
459.223	5.8
459.58	5.78
459.936	5.98
460.292	5.93
460.648	5.66
461.005	5.72
461.361	5.87
461.717	5.74
462.073	5.74
462.429	5.69
462.785	5.71
463.141	5.85
463.496	5.69
463.852	5.85
464.208	5.91
464.564	5.98
464.919	5.96
465.275	5.99
465.631	5.95
465.986	5.88
466.342	5.91
466.697	5.88
467.052	5.85
467.408	5.93
467.763	5.9
468.118	5.98
468.473	5.95
468.829	5.87
469.184	5.89
469.539	5.81
469.894	5.8
470.249	5.82
470.603	5.7
470.958	5.92
471.313	5.91
471.668	6.02
472.023	5.93
472.377	5.93
472.732	5.63
473.086	5.9
473.441	5.97
473.795	6.17
474.15	5.77
474.504	5.73
474.859	5.76
475.213	5.9
475.567	5.8
475.921	5.89
476.275	5.88
476.63	6.02
476.984	5.9
477.338	5.69
477.692	5.91
478.045	5.78
478.399	5.8
478.753	5.81
479.107	5.83
479.461	5.82
479.814	6.01
480.168	5.84
480.521	5.83
480.875	5.78
481.228	5.85
481.582	5.83
481.935	5.82
482.289	5.86
482.642	5.83
482.995	5.8
483.348	5.81
483.701	5.68
484.055	5.86
484.408	5.57
484.761	5.69
485.114	5.58
485.466	5.53
485.819	5.45
486.172	5.39
486.525	5.39
486.878	5.41
487.23	5.45
487.583	5.46
487.936	5.53
488.288	5.62
488.641	5.62
488.993	5.51
489.345	5.56
489.698	5.49
490.05	5.48
490.402	5.43
490.754	5.47
491.107	5.48
491.459	5.57
491.811	5.55
492.163	5.63
492.515	5.71
492.866	5.67
493.218	5.6
493.57	5.51
493.922	5.48
494.274	5.49
494.625	5.5
494.977	5.5
495.328	5.62
495.68	5.7
496.031	5.58
496.383	5.71
496.734	5.72
497.086	5.75
497.437	5.7
497.788	5.59
498.139	5.87
498.49	5.7
498.842	5.66
499.193	5.72
499.544	5.68
499.894	5.67
500.245	5.55
500.596	5.73
500.947	5.68
501.298	5.69
501.648	5.6
501.999	5.59
502.35	5.79
502.7	5.75
503.051	5.72
503.401	5.78
503.752	5.8
504.102	5.85
504.452	5.68
504.803	5.57
505.153	5.78
505.503	5.71
505.853	5.73
506.203	5.73
506.553	5.63
506.903	5.7
507.253	5.66
507.603	5.61
507.953	5.73
508.303	5.72
508.652	5.71
509.002	5.7
509.352	5.63
509.701	5.58
510.051	5.67
510.4	5.64
510.75	5.66
511.099	5.69
511.449	5.69
511.798	5.71
512.147	5.63
512.496	5.66
512.846	5.63
513.195	5.67
513.544	5.71
513.893	5.52
514.242	5.73
514.591	5.68
514.939	5.6
515.288	5.59
515.637	5.62
515.986	5.66
516.334	5.71
516.683	5.73
517.032	5.5
517.38	5.58
517.729	5.63
518.077	5.75
518.426	5.66
518.774	5.5
519.122	5.52
519.47	5.6
519.819	5.5
520.167	5.66
520.515	5.55
520.863	5.64
521.211	5.63
521.559	5.62
521.907	5.48
522.255	5.62
522.602	5.71
522.95	5.54
523.298	5.63
523.645	5.56
523.993	5.52
524.341	5.58
524.688	5.68
525.036	5.81
525.383	5.58
525.73	5.76
526.078	5.68
526.425	5.68
526.772	5.62
527.119	5.58
527.466	5.53
527.814	5.61
528.161	5.46
528.508	5.39
528.854	5.53
529.201	5.5
529.548	5.62
529.895	5.62
530.242	5.44
530.588	5.35
530.935	5.3
531.282	5.36
531.628	5.37
531.975	5.29
532.321	5.36
532.667	5.44
533.014	5.47
533.36	5.59
533.706	5.55
534.052	5.47
534.399	5.44
534.745	5.32
535.091	5.39
535.437	5.48
535.783	5.45
536.129	5.49
536.474	5.39
536.82	5.4
537.166	5.5
537.512	5.54
537.857	5.6
538.203	5.54
538.549	5.63
538.894	5.58
539.239	5.41
539.585	5.52
539.93	5.56
540.276	5.6
540.621	5.54
540.966	5.63
541.311	5.76
541.656	5.65
542.001	5.64
542.346	5.54
542.691	5.48
543.036	5.46
543.381	5.4
543.726	5.33
544.071	5.31
544.415	5.36
544.76	5.37
545.105	5.5
545.449	5.38
545.794	5.5
546.138	5.47
546.483	5.49
546.827	5.52
547.171	5.58
547.516	5.56
547.86	5.65
548.204	5.49
548.548	5.49
548.892	5.46
549.236	5.57
549.58	5.4
549.924	5.44
550.268	5.6
550.612	5.66
550.956	5.69
551.3	5.41
551.643	5.64
551.987	5.63
552.33	5.7
552.674	5.62
553.017	5.57
553.361	5.65
553.704	5.68
554.048	5.74
554.391	5.73
554.734	5.7
555.077	5.52
555.42	5.51
555.764	5.4
556.107	5.68
556.45	5.63
556.793	5.48
557.135	5.48
557.478	5.56
557.821	5.64
558.164	5.81
558.507	5.63
558.849	5.64
559.192	5.79
559.534	5.78
559.877	5.56
560.219	5.77
560.562	5.66
560.904	5.38
561.246	5.7
561.589	5.69
561.931	5.64
562.273	5.78
562.615	5.78
562.957	5.6
563.299	5.63
563.641	5.53
563.983	5.37
564.325	5.49
564.667	5.72
565.008	5.58
565.35	5.72
565.692	5.68
566.033	5.73
566.375	5.6
566.716	5.78
567.058	5.58
567.399	5.69
567.741	5.68
568.082	5.65
568.423	5.49
568.764	5.44
569.105	5.59
569.447	5.59
569.788	5.56
570.129	5.44
570.47	5.56
570.811	5.68
571.151	5.62
571.492	5.75
571.833	5.78
572.174	5.69
572.514	5.6
572.855	5.64
573.195	5.76
573.536	5.54
573.876	5.73
574.217	5.58
574.557	5.49
574.898	5.43
575.238	5.55
575.578	5.6
575.918	5.51
576.258	5.64
576.598	5.72
576.938	5.63
577.278	5.67
577.618	5.48
577.958	5.57
578.298	5.45
578.638	5.6
578.977	5.66
579.317	5.54
579.657	5.49
579.996	5.7
580.336	5.62
580.675	5.73
581.014	5.58
581.354	5.53
581.693	5.48
582.032	5.64
582.372	5.7
582.711	5.66
583.05	5.84
583.389	5.83
583.728	5.71
584.067	5.65
584.406	5.75
584.745	5.83
585.083	5.7
585.422	5.65
585.761	5.62
586.1	5.51
586.438	5.43
586.777	5.83
587.115	5.74
587.454	5.63
587.792	5.61
588.13	5.8
588.469	5.69
588.807	5.38
589.145	5.56
589.483	5.45
589.821	5.4
590.159	5.74
590.497	5.81
590.835	5.64
591.173	5.72
591.511	5.75
591.849	5.46
592.187	5.56
592.524	5.35
592.862	5.84
593.2	5.55
593.537	5.52
593.875	5.65
594.212	5.83
594.55	5.69
594.887	5.82
595.224	5.69
595.561	5.35
595.899	5.71
596.236	5.67
596.573	5.63
596.91	5.65
597.247	5.64
597.584	5.28
597.921	5.61
598.258	5.66
598.594	5.71
598.931	5.48
599.268	5.48
599.604	5.69
599.941	5.65
600.277	5.39
600.614	5.49
600.95	5.62
601.287	5.42
601.623	5.74
601.959	5.87
602.296	5.59
602.632	5.79
602.968	5.55
603.304	5.58
603.64	5.5
603.976	5.66
604.312	5.72
604.648	5.63
604.984	5.7
605.319	5.82
605.655	5.67
605.991	5.71
606.326	5.55
606.662	5.33
606.998	5.48
607.333	5.49
607.668	5.44
608.004	5.57
608.339	5.55
608.674	5.65
609.01	5.53
609.345	5.84
609.68	5.73
610.015	5.83
610.35	5.8
610.685	5.86
611.02	5.69
611.355	5.54
611.689	5.5
612.024	5.69
612.359	5.54
612.694	5.64
613.028	5.81
613.363	5.66
613.697	5.59
614.032	5.73
614.366	5.62
614.7	5.85
615.035	5.7
615.369	5.67
615.703	5.4
616.037	5.75
616.371	5.76
616.705	5.58
617.039	5.76
617.373	5.81
617.707	5.94
618.041	5.91
618.375	5.38
618.709	5.78
619.042	5.56
619.376	5.91
619.71	5.74
620.043	5.74
620.377	5.57
620.71	5.82
621.043	6.04
621.377	5.54
621.71	5.59
622.043	5.91
622.376	5.86
622.709	5.94
623.043	5.87
623.376	5.62
623.709	5.44
624.041	5.57
624.374	5.71
624.707	5.48
625.04	5.7
625.373	6.01
625.705	5.5
626.038	6.21
626.37	5.4
626.703	5.56
627.035	5.78
627.368	5.69
627.7	6.19
628.032	5.78
628.365	5.78
628.697	5.83
629.029	5.72
629.361	5.84
629.693	5.67
630.025	5.77
630.357	5.76
630.689	5.64
631.021	6.04
631.353	5.91
631.684	5.46
632.016	5.92
632.348	5.62
632.679	5.34
633.011	6
633.342	5.64
633.674	5.67
634.005	6.04
634.336	6.19
634.668	5.45
634.999	5.52
635.33	5.45
635.661	6
635.992	6.08
636.323	5.82
636.654	5.73
636.985	5.52
637.316	5.72
637.647	5.52
637.977	5.29
638.308	5.94
638.639	5.64
638.969	5.54
639.3	5.66
639.63	5.79
639.961	5.59
640.291	5.81
640.622	5.64
640.952	6
641.282	5.56
641.612	5.81
641.943	5.95
642.273	5.44
642.603	5.83
642.933	5.72
643.263	6.01
643.592	5.68
643.922	6.21
644.252	5.81
644.582	5.61
644.911	5.95
645.241	5.98
645.571	6.15
645.9	6.04
646.23	5.92
646.559	5.81
646.888	6.18
647.218	5.74
647.547	5.56
647.876	5.6
648.205	5.77
648.534	5.37
648.863	5.8
649.192	5.65
649.521	5.6
649.85	5.7
650.179	5.69
650.508	5.9
650.837	5.76
651.165	5.88
651.494	5.52
651.822	6.08
652.151	5.7
652.479	5.76
652.808	5.96
653.136	5.75
653.465	6.09
653.793	6.01
654.121	5.95
654.449	5.97
654.777	5.9
655.105	6.05
655.433	6.51
655.761	6.12
656.089	5.85
656.417	5.94
656.745	5.87
657.073	6.14
657.4	6.58
657.728	6.14
658.056	5.74
658.383	6.21
658.711	6.06
659.038	5.84
659.365	5.66
659.693	6.03
660.02	5.99
660.347	5.6
660.674	6.15
661.001	5.78
661.329	6.02
661.656	5.9
661.982	5.62
662.309	6.08
662.636	5.98
662.963	6.08
663.29	5.93
663.616	5.92
663.943	5.75
664.27	5.91
664.596	6
664.923	5.72
665.249	6.6
665.576	6.02
665.902	6.59
666.228	6.19
666.554	6.46
666.881	5.63
667.207	6.37
667.533	6
667.859	6.07
668.185	6.85
668.511	6.16
668.837	6.37
669.162	6.45
669.488	6.29
669.814	5.73
670.139	5.52
670.465	5.76
670.791	6.16
671.116	5.99
671.442	6.43
671.767	5.98
672.092	6.45
672.418	6.27
672.743	6.55
673.068	6.4
673.393	6.07
673.718	6.01
674.043	6.36
674.368	6.27
674.693	6.19
675.018	6.69
675.343	6.16
675.667	6.4
675.992	6.69
676.317	6.17
676.641	6.64
676.966	6.09
677.29	5.91
677.615	6.48
677.939	6.35
678.264	6.46
678.588	5.72
678.912	6.65
679.236	6.19
679.56	5.92
679.885	6.66
680.209	6.64
680.532	5.64
680.856	5.57
681.18	6.04
681.504	6.54
681.828	6.05
682.152	6.58
682.475	6.1
682.799	6.42
683.122	6.61
683.446	6.23
683.769	6.33
684.093	6.85
684.416	5.82
684.739	5.65
685.062	5.48
685.386	6.45
685.709	5.75
686.032	6.22
686.355	6.97
686.678	6.38
687.001	6.5
687.324	6.28
687.646	6.5
687.969	6.42
688.292	6.8
688.614	6.47
688.937	6.36
689.26	6.32
689.582	5.82
689.904	5.89
690.227	6.45
690.549	6.53
690.871	7.07
691.194	6.87
691.516	6.29
691.838	6.91
692.16	6.4
692.482	6.67
692.804	6.39
693.126	5.71
693.448	7.58
