Data from 0263_crown_Reflection__1__144.txt Node

Date: Fri Oct 20 21:46:14 CDT 2023
User: ToomeyLab
Spectrometer: FLMS14357
Trigger mode: 0
Integration Time (sec): 1.000000E-2
Scans to average: 100
Electric dark correction enabled: true
Nonlinearity correction enabled: false
Boxcar width: 0
XAxis mode: Wavelengths
Number of Pixels in Spectrum: 2048
>>>>>Begin Spectral Data<<<<<
189.047	-77.63
189.435	-77.63
189.823	-77.63
190.211	2234.95
190.599	-66.61
190.987	2331.97
191.375	30.92
191.763	316.18
192.151	36.31
192.538	4.8
192.926	-20.43
193.314	32.8
193.702	48.89
194.089	105.37
194.477	-75.47
194.864	521.58
195.252	-6.5
195.639	121.9
196.027	255.91
196.414	194.56
196.801	-3126.47
197.189	74.25
197.576	94.58
197.963	-120.4
198.351	77.88
198.738	14.41
199.125	40.21
199.512	37.76
199.899	24.56
200.286	14.88
200.673	19.58
201.06	33.88
201.447	-3.91
201.833	25.14
202.22	44.85
202.607	32.61
202.994	34.68
203.38	43.21
203.767	4.04
204.154	35.78
204.54	47.1
204.927	6.41
205.313	-25.36
205.699	53.76
206.086	30.73
206.472	44.6
206.858	36.79
207.245	10.28
207.631	16.67
208.017	50.49
208.403	19.55
208.789	49.01
209.175	37.87
209.561	36.94
209.947	29.46
210.333	5.91
210.719	15.85
211.105	35
211.491	35.53
211.876	-2.3
212.262	13.69
212.648	45.49
213.034	17.44
213.419	30.87
213.805	-18.08
214.19	30.17
214.576	7.5
214.961	40.24
215.346	22.41
215.732	8.82
216.117	-9.73
216.502	16.29
216.888	-3.29
217.273	1.1
217.658	10.31
218.043	36.75
218.428	20.37
218.813	21.83
219.198	6.32
219.583	-12.24
219.968	11.25
220.353	29.13
220.738	34.98
221.122	17.97
221.507	9.6
221.892	19.7
222.276	9.23
222.661	20.66
223.046	21.56
223.43	6.56
223.815	23.7
224.199	19.94
224.583	2.17
224.968	5.97
225.352	3.38
225.736	10.74
226.121	11.95
226.505	3.28
226.889	15.27
227.273	8.65
227.657	15.32
228.041	12.88
228.425	9.61
228.809	7.88
229.193	7.9
229.577	9.47
229.961	6.14
230.344	7.23
230.728	7.04
231.112	8.08
231.495	7.33
231.879	7.5
232.263	9.15
232.646	6.18
233.03	5.88
233.413	6.36
233.797	7.53
234.18	9.98
234.563	10.34
234.946	11.46
235.33	6.83
235.713	7.54
236.096	7.91
236.479	8.02
236.862	7.57
237.245	6.28
237.628	7.51
238.011	9.07
238.394	8.31
238.777	8.65
239.16	7.21
239.543	10.12
239.925	9.24
240.308	6.64
240.691	7.74
241.073	8.39
241.456	7.46
241.838	8.3
242.221	7.7
242.603	6.68
242.986	7.18
243.368	7.26
243.75	6.42
244.133	6.61
244.515	6.42
244.897	6.75
245.279	6.56
245.661	6.05
246.043	6.16
246.425	7.11
246.807	5.81
247.189	6.35
247.571	6.49
247.953	6.33
248.335	6.96
248.717	5.88
249.098	5.92
249.48	5.91
249.862	6.1
250.243	6.21
250.625	6.09
251.006	6.35
251.388	6.42
251.769	5.89
252.151	5.57
252.532	6.4
252.913	5.67
253.295	5.17
253.676	6.14
254.057	6.08
254.438	5.72
254.819	5.87
255.2	6.16
255.581	6.31
255.962	5.91
256.343	6.59
256.724	5.11
257.105	6.5
257.486	6.16
257.867	5.52
258.247	5.98
258.628	5.62
259.009	5.82
259.389	5.01
259.77	5.57
260.15	5.49
260.531	5.86
260.911	5.86
261.292	5.56
261.672	5.81
262.052	5.58
262.432	5.51
262.813	5.65
263.193	6.14
263.573	5.32
263.953	6.11
264.333	5.91
264.713	5.94
265.093	6.18
265.473	6.13
265.853	5.69
266.233	5.37
266.612	5.15
266.992	5.76
267.372	5.18
267.752	5.41
268.131	5.57
268.511	5.69
268.89	5.16
269.27	5.04
269.649	5.03
270.029	5.22
270.408	4.98
270.787	4.99
271.167	5.32
271.546	5.7
271.925	5.82
272.304	5.88
272.683	5.66
273.062	5.22
273.441	5.43
273.82	5.03
274.199	5.48
274.578	5.29
274.957	5.37
275.336	5.54
275.715	5.44
276.093	4.95
276.472	5.61
276.851	5.67
277.229	5.78
277.608	4.69
277.986	5.11
278.365	5.89
278.743	4.92
279.122	5.48
279.5	4.94
279.878	4.4
280.257	5.17
280.635	5.5
281.013	5.43
281.391	5.84
281.769	5.58
282.147	5
282.525	5.49
282.903	5.02
283.281	5
283.659	4.92
284.037	5.19
284.415	4.65
284.792	5.29
285.17	5.07
285.548	5.19
285.925	4.85
286.303	4.35
286.68	4.55
287.058	5.59
287.435	5.38
287.813	4.69
288.19	4.87
288.567	4.9
288.945	5.48
289.322	5.37
289.699	4.77
290.076	5.79
290.453	5.34
290.83	4.93
291.207	5.75
291.584	4.66
291.961	5.29
292.338	4.93
292.715	5.01
293.092	5.15
293.469	5.12
293.845	4.96
294.222	4.99
294.599	5.14
294.975	5.85
295.352	5.39
295.728	5.16
296.105	4.71
296.481	4.85
296.858	4.84
297.234	5.2
297.61	4.85
297.986	4.72
298.363	4.99
298.739	4.89
299.115	4.91
299.491	5
299.867	5.13
300.243	4.86
300.619	4.82
300.995	4.82
301.371	5.5
301.746	5.04
302.122	4.87
302.498	5.02
302.874	5.23
303.249	4.75
303.625	4.73
304	5.53
304.376	5.12
304.751	4.63
305.127	4.74
305.502	5.31
305.878	5.01
306.253	4.97
306.628	5.45
307.003	5.08
307.378	5.22
307.754	4.93
308.129	5.12
308.504	5.37
308.879	5.35
309.254	5.73
309.629	5.06
310.003	4.37
310.378	5.57
310.753	5.03
311.128	5.39
311.502	4.93
311.877	5.37
312.252	5.3
312.626	5.26
313.001	5
313.375	4.86
313.75	4.91
314.124	4.59
314.498	5.03
314.873	4.5
315.247	5.33
315.621	5.03
315.995	4.81
316.369	4.69
316.743	4.85
317.117	5.45
317.491	4.79
317.865	4.96
318.239	5.41
318.613	5.07
318.987	4.6
319.361	4.47
319.734	5.01
320.108	4.68
320.482	5.18
320.855	4.71
321.229	5.67
321.602	4.86
321.976	4.84
322.349	5.04
322.723	4.92
323.096	4.87
323.469	4.75
323.843	5.31
324.216	4.98
324.589	4.9
324.962	5.47
325.335	4.94
325.708	5.12
326.081	5.18
326.454	5.02
326.827	5.44
327.2	5.1
327.573	5.26
327.945	5.38
328.318	4.59
328.691	4.82
329.063	5.73
329.436	4.91
329.809	5.21
330.181	5.29
330.553	5.47
330.926	5.54
331.298	4.84
331.671	4.93
332.043	4.32
332.415	4.75
332.787	5.82
333.159	4.81
333.532	5.06
333.904	5.04
334.276	4.99
334.648	5.64
335.02	6.04
335.391	5.04
335.763	5.18
336.135	5.65
336.507	5.09
336.879	4.85
337.25	5.54
337.622	5.12
337.993	5.57
338.365	4.76
338.736	5.06
339.108	5.2
339.479	5.19
339.851	5.34
340.222	5.29
340.593	5.11
340.964	5.3
341.336	5.95
341.707	5.59
342.078	5.21
342.449	5.36
342.82	4.9
343.191	4.9
343.562	5.33
343.933	5.17
344.303	4.96
344.674	5.5
345.045	5.25
345.416	5.58
345.786	5.35
346.157	5.43
346.527	5.48
346.898	5.31
347.268	5.38
347.639	5.56
348.009	5.39
348.38	5.42
348.75	5.37
349.12	5.48
349.49	5.22
349.861	5.57
350.231	4.83
350.601	5.25
350.971	5.71
351.341	5.6
351.711	5.64
352.081	5.32
352.45	5.45
352.82	5.22
353.19	5.76
353.56	5.26
353.929	5.2
354.299	5.14
354.669	5.26
355.038	5.55
355.408	5.42
355.777	5.26
356.147	5.14
356.516	5.18
356.885	5.36
357.254	5.54
357.624	5.49
357.993	5.03
358.362	5.82
358.731	5.12
359.1	4.9
359.469	5.53
359.838	5.42
360.207	5.4
360.576	5.65
360.945	5.01
361.314	5.48
361.682	5.26
362.051	5.23
362.42	5.37
362.788	5.46
363.157	5.39
363.525	5.27
363.894	5.36
364.262	5.37
364.631	5.74
364.999	5.51
365.367	5.26
365.735	5.39
366.104	5.05
366.472	5.56
366.84	5.66
367.208	5.27
367.576	5.41
367.944	5.47
368.312	5.4
368.68	5.7
369.048	5.31
369.416	5.87
369.783	5.23
370.151	5.57
370.519	5.23
370.886	5.78
371.254	5.63
371.621	5.61
371.989	5.59
372.356	5.76
372.724	5.67
373.091	5.75
373.458	5.36
373.826	5.83
374.193	5.17
374.56	5.57
374.927	5.51
375.294	5.8
375.661	5.44
376.028	5.71
376.395	5.7
376.762	5.5
377.129	5.63
377.496	5.61
377.863	5.77
378.229	5.43
378.596	5.79
378.963	5.65
379.329	5.73
379.696	5.71
380.062	5.53
380.429	5.52
380.795	5.45
381.161	5.48
381.528	5.87
381.894	5.44
382.26	5.8
382.626	6.14
382.993	5.55
383.359	5.39
383.725	5.73
384.091	5.55
384.457	5.73
384.823	5.76
385.188	5.7
385.554	5.78
385.92	5.71
386.286	5.65
386.651	5.49
387.017	5.51
387.383	5.59
387.748	5.24
388.114	5.43
388.479	5.68
388.845	5.94
389.21	5.5
389.575	5.39
389.94	5.75
390.306	5.47
390.671	5.36
391.036	5.21
391.401	5.76
391.766	5.74
392.131	5.63
392.496	5.95
392.861	5.36
393.226	5.71
393.591	5.62
393.956	5.78
394.32	5.87
394.685	5.41
395.05	5.76
395.414	5.74
395.779	5.58
396.143	5.66
396.508	5.64
396.872	5.7
397.236	5.6
397.601	5.47
397.965	5.45
398.329	5.6
398.694	5.66
399.058	5.21
399.422	5.92
399.786	5.77
400.15	5.56
400.514	5.61
400.878	5.77
401.242	5.64
401.605	5.67
401.969	5.41
402.333	5.72
402.697	5.69
403.06	5.54
403.424	5.54
403.787	5.61
404.151	5.78
404.514	5.78
404.878	5.71
405.241	5.61
405.604	5.6
405.968	5.69
406.331	5.55
406.694	5.74
407.057	5.44
407.42	5.8
407.783	5.72
408.146	5.6
408.509	5.51
408.872	5.67
409.235	5.65
409.598	5.78
409.961	5.88
410.323	5.72
410.686	5.56
411.049	5.83
411.411	5.59
411.774	5.64
412.136	5.77
412.499	5.64
412.861	5.58
413.223	5.72
413.586	5.63
413.948	5.78
414.31	5.88
414.672	5.54
415.035	5.55
415.397	5.67
415.759	5.52
416.121	5.44
416.483	5.83
416.845	5.71
417.206	5.89
417.568	5.72
417.93	5.86
418.292	5.35
418.653	5.7
419.015	5.37
419.377	5.58
419.738	5.63
420.1	5.43
420.461	5.55
420.822	5.56
421.184	5.49
421.545	5.55
421.906	5.57
422.267	5.45
422.629	5.54
422.99	5.36
423.351	5.45
423.712	5.42
424.073	5.54
424.434	5.53
424.795	5.46
425.155	5.64
425.516	5.4
425.877	5.54
426.238	5.36
426.598	5.41
426.959	5.4
427.32	5.5
427.68	5.43
428.041	5.53
428.401	5.45
428.761	5.42
429.122	5.57
429.482	5.48
429.842	5.63
430.202	5.46
430.563	5.4
430.923	5.53
431.283	5.47
431.643	5.69
432.003	5.81
432.363	5.6
432.722	5.7
433.082	5.57
433.442	5.48
433.802	5.69
434.161	5.48
434.521	5.55
434.881	5.56
435.24	5.6
435.6	5.42
435.959	5.64
436.319	5.52
436.678	5.55
437.037	5.54
437.396	5.62
437.756	5.8
438.115	5.47
438.474	5.57
438.833	5.58
439.192	5.39
439.551	5.51
439.91	5.54
440.269	5.59
440.628	5.56
440.987	5.5
441.345	5.41
441.704	5.5
442.063	5.49
442.421	5.44
442.78	5.47
443.138	5.55
443.497	5.42
443.855	5.45
444.214	5.48
444.572	5.41
444.93	5.59
445.288	5.52
445.647	5.65
446.005	5.35
446.363	5.46
446.721	5.34
447.079	5.64
447.437	5.47
447.795	5.33
448.153	5.47
448.51	5.43
448.868	5.31
449.226	5.42
449.584	5.39
449.941	5.38
450.299	5.4
450.656	5.41
451.014	5.4
451.371	5.53
451.729	5.4
452.086	5.38
452.443	5.59
452.801	5.39
453.158	5.5
453.515	5.46
453.872	5.44
454.229	5.54
454.586	5.46
454.943	5.42
455.3	5.34
455.657	5.61
456.014	5.43
456.371	5.6
456.727	5.53
457.084	5.38
457.441	5.51
457.797	5.4
458.154	5.38
458.51	5.44
458.867	5.49
459.223	5.41
459.58	5.48
459.936	5.49
460.292	5.37
460.648	5.35
461.005	5.3
461.361	5.44
461.717	5.22
462.073	5.33
462.429	5.32
462.785	5.39
463.141	5.47
463.496	5.33
463.852	5.47
464.208	5.52
464.564	5.56
464.919	5.32
465.275	5.58
465.631	5.37
465.986	5.51
466.342	5.52
466.697	5.41
467.052	5.41
467.408	5.53
467.763	5.42
468.118	5.54
468.473	5.49
468.829	5.52
469.184	5.56
469.539	5.26
469.894	5.52
470.249	5.22
470.603	5.26
470.958	5.49
471.313	5.62
471.668	5.61
472.023	5.51
472.377	5.49
472.732	5.38
473.086	5.48
473.441	5.54
473.795	5.55
474.15	5.44
474.504	5.42
474.859	5.43
475.213	5.56
475.567	5.52
475.921	5.47
476.275	5.33
476.63	5.44
476.984	5.47
477.338	5.43
477.692	5.44
478.045	5.44
478.399	5.36
478.753	5.4
479.107	5.47
479.461	5.35
479.814	5.54
480.168	5.49
480.521	5.48
480.875	5.32
481.228	5.36
481.582	5.55
481.935	5.51
482.289	5.37
482.642	5.37
482.995	5.32
483.348	5.4
483.701	5.39
484.055	5.33
484.408	5.27
484.761	5.16
485.114	5.12
485.466	5.07
485.819	5.05
486.172	4.95
486.525	4.97
486.878	4.99
487.23	5
487.583	5.07
487.936	5.08
488.288	5.16
488.641	5.22
488.993	5.06
489.345	5.1
489.698	5.07
490.05	4.99
490.402	5.02
490.754	5.06
491.107	5.09
491.459	5.21
491.811	5.15
492.163	5.18
492.515	5.22
492.866	5.2
493.218	5.16
493.57	5.09
493.922	4.99
494.274	5.08
494.625	5.07
494.977	5.12
495.328	5.13
495.68	5.24
496.031	5.05
496.383	5.31
496.734	5.2
497.086	5.32
497.437	5.31
497.788	5.17
498.139	5.36
498.49	5.26
498.842	5.14
499.193	5.26
499.544	5.26
499.894	5.25
500.245	5.2
500.596	5.22
500.947	5.21
501.298	5.17
501.648	5.2
501.999	5.31
502.35	5.17
502.7	5.34
503.051	5.38
503.401	5.34
503.752	5.33
504.102	5.34
504.452	5.25
504.803	5.19
505.153	5.38
505.503	5.25
505.853	5.38
506.203	5.19
506.553	5.09
506.903	5.36
507.253	5.29
507.603	5.33
507.953	5.28
508.303	5.15
508.652	5.39
509.002	5.21
509.352	5.27
509.701	5.2
510.051	5
510.4	5.28
510.75	5.27
511.099	5.21
511.449	5.33
511.798	5.16
512.147	5.16
512.496	5.15
512.846	5.12
513.195	5.28
513.544	5.25
513.893	5.05
514.242	5.22
514.591	5.17
514.939	5.12
515.288	5.16
515.637	5.32
515.986	5.28
516.334	5.09
516.683	5.26
517.032	5.09
517.38	5.07
517.729	5.26
518.077	5.18
518.426	5.14
518.774	5.02
519.122	4.98
519.47	5.13
519.819	5.04
520.167	5.07
520.515	5.09
520.863	5.12
521.211	5.05
521.559	5.11
521.907	5.04
522.255	5.13
522.602	5.17
522.95	5.08
523.298	5.17
523.645	5.15
523.993	5.09
524.341	5.21
524.688	5.16
525.036	5.16
525.383	5.05
525.73	5.3
526.078	5.18
526.425	5.09
526.772	5.12
527.119	5.05
527.466	5.09
527.814	5.09
528.161	5.04
528.508	4.89
528.854	5.06
529.201	5
529.548	4.94
529.895	4.96
530.242	4.92
530.588	4.84
530.935	4.82
531.282	4.84
531.628	4.84
531.975	4.81
532.321	4.89
532.667	4.93
533.014	4.97
533.36	5.04
533.706	5.05
534.052	5.02
534.399	4.91
534.745	4.85
535.091	4.89
535.437	4.89
535.783	4.93
536.129	4.92
536.474	4.98
536.82	5.02
537.166	5.06
537.512	5.05
537.857	5.11
538.203	5.06
538.549	4.96
538.894	4.97
539.239	5.05
539.585	5
539.93	5.02
540.276	5.13
540.621	5.08
540.966	5.16
541.311	5.04
541.656	5.03
542.001	5.09
542.346	5.07
542.691	4.97
543.036	4.93
543.381	4.87
543.726	4.82
544.071	4.85
544.415	4.89
544.76	4.83
545.105	4.96
545.449	4.89
545.794	4.95
546.138	4.99
546.483	4.94
546.827	4.99
547.171	5.1
547.516	5.01
547.86	5.06
548.204	5.01
548.548	5
548.892	4.99
549.236	5.04
549.58	4.95
549.924	4.85
550.268	5.03
550.612	5.05
550.956	5.09
551.3	5.09
551.643	5.02
551.987	5.2
552.33	5.27
552.674	4.99
553.017	5.06
553.361	5.09
553.704	5.26
554.048	5.14
554.391	4.99
554.734	5.12
555.077	5.04
555.42	4.98
555.764	4.99
556.107	5.13
556.45	4.91
556.793	4.91
557.135	4.94
557.478	4.87
557.821	5.08
558.164	5.26
558.507	5.11
558.849	5.44
559.192	5.16
559.534	5.14
559.877	4.97
560.219	5.08
560.562	5.17
560.904	5.04
561.246	5.17
561.589	5.1
561.931	4.98
562.273	5.29
562.615	5.15
562.957	5.2
563.299	5.18
563.641	4.95
563.983	4.9
564.325	5.02
564.667	4.94
565.008	5.07
565.35	5.06
565.692	5.21
566.033	5.18
566.375	5.06
566.716	5.13
567.058	5.01
567.399	5.15
567.741	4.92
568.082	5
568.423	5.1
568.764	4.94
569.105	5.02
569.447	4.98
569.788	4.99
570.129	4.94
570.47	5.09
570.811	5.1
571.151	5.05
571.492	5.13
571.833	5.19
572.174	5.13
572.514	5
572.855	4.96
573.195	5.12
573.536	4.93
573.876	5.17
574.217	4.85
574.557	4.94
574.898	4.81
575.238	4.83
575.578	5.11
575.918	4.7
576.258	5
576.598	5.22
576.938	4.94
577.278	5.04
577.618	4.94
577.958	4.84
578.298	4.83
578.638	4.93
578.977	5
579.317	4.92
579.657	4.89
579.996	5.11
580.336	5.08
580.675	4.89
581.014	4.94
581.354	5.12
581.693	5.06
582.032	5.09
582.372	5.08
582.711	5.03
583.05	5.1
583.389	4.89
583.728	5.2
584.067	5.09
584.406	5.02
584.745	4.96
585.083	4.8
585.422	4.95
585.761	4.97
586.1	5.14
586.438	4.69
586.777	5.1
587.115	5.11
587.454	4.96
587.792	4.9
588.13	5.03
588.469	4.8
588.807	4.75
589.145	5.11
589.483	4.87
589.821	4.92
590.159	5.06
590.497	4.87
590.835	5.07
591.173	5.07
591.511	5.08
591.849	4.95
592.187	4.92
592.524	4.57
592.862	4.94
593.2	5.23
593.537	4.95
593.875	4.87
594.212	5.03
594.55	4.94
594.887	5.05
595.224	4.97
595.561	4.83
595.899	5.04
596.236	4.93
596.573	5.09
596.91	5.16
597.247	4.97
597.584	4.66
597.921	5.03
598.258	4.94
598.594	5.16
598.931	4.81
599.268	4.75
599.604	4.95
599.941	4.88
600.277	4.71
600.614	4.93
600.95	4.95
601.287	5.02
601.623	5.04
601.959	5.07
602.296	5.03
602.632	4.99
602.968	4.69
603.304	5.06
603.64	4.8
603.976	4.93
604.312	4.99
604.648	4.88
604.984	5.09
605.319	5.03
605.655	4.71
605.991	5.06
606.326	4.95
606.662	4.65
606.998	4.78
607.333	4.74
607.668	4.71
608.004	4.89
608.339	4.77
608.674	5.1
609.01	4.76
609.345	4.96
609.68	5.02
610.015	4.83
610.35	5
610.685	5.07
611.02	4.88
611.355	4.74
611.689	4.82
612.024	4.87
612.359	4.87
612.694	4.9
613.028	4.88
613.363	4.74
613.697	5.04
614.032	4.91
614.366	5.09
614.7	4.83
615.035	5.09
615.369	5.07
615.703	4.81
616.037	5.12
616.371	5.03
616.705	4.8
617.039	5.01
617.373	5.11
617.707	5.4
618.041	4.88
618.375	4.54
618.709	4.96
619.042	4.95
619.376	5.31
619.71	4.91
620.043	5.47
620.377	4.76
620.71	5.36
621.043	5.24
621.377	4.99
621.71	4.91
622.043	5.01
622.376	4.96
622.709	5.19
623.043	5.14
623.376	4.94
623.709	4.72
624.041	5.2
624.374	4.86
624.707	4.4
625.04	5.08
625.373	4.92
625.705	4.66
626.038	4.96
626.37	4.92
626.703	4.69
627.035	4.98
627.368	5.05
627.7	4.89
628.032	4.89
628.365	4.88
628.697	5.01
629.029	4.88
629.361	5.06
629.693	4.92
630.025	5.18
630.357	5
630.689	4.9
631.021	5.13
631.353	4.78
631.684	4.65
632.016	5.16
632.348	5
632.679	4.61
633.011	4.86
633.342	4.61
633.674	5.03
634.005	5.01
634.336	5.25
634.668	4.65
634.999	4.78
635.33	4.59
635.661	5.68
635.992	5.12
636.323	5.17
636.654	5.07
636.985	4.78
637.316	5
637.647	4.71
637.977	4.6
638.308	4.9
638.639	4.84
638.969	5.2
639.3	4.56
639.63	4.97
639.961	4.56
640.291	4.52
640.622	5.49
640.952	4.95
641.282	4.97
641.612	5.29
641.943	5.07
642.273	4.92
642.603	5.44
642.933	5.3
643.263	5.42
643.592	4.92
643.922	5.43
644.252	4.87
644.582	5
644.911	5.19
645.241	5.13
645.571	5.59
645.9	5.07
646.23	5.13
646.559	5.17
646.888	5.18
647.218	5.04
647.547	5.17
647.876	5.28
648.205	5.06
648.534	4.59
648.863	5.17
649.192	4.78
649.521	5.15
649.85	4.92
650.179	4.59
650.508	4.84
650.837	4.93
651.165	5.33
651.494	4.53
651.822	5.12
652.151	5.02
652.479	4.9
652.808	4.95
653.136	4.59
653.465	5.21
653.793	5.1
654.121	5.31
654.449	5.1
654.777	4.88
655.105	5.26
655.433	5.58
655.761	5.28
656.089	4.73
656.417	5.11
656.745	4.85
657.073	5.23
657.4	5.52
657.728	5.59
658.056	4.91
658.383	4.79
658.711	5.09
659.038	4.99
659.365	5.58
659.693	5.14
660.02	5.26
660.347	5.07
660.674	5.02
661.001	4.76
661.329	5.11
661.656	5.02
661.982	5.26
662.309	5.08
662.636	5.01
662.963	5.62
663.29	5.2
663.616	5.22
663.943	4.56
664.27	5.22
664.596	5.22
664.923	4.79
665.249	4.98
665.576	5.13
665.902	5.31
666.228	5.08
666.554	5.17
666.881	4.8
667.207	5.15
667.533	5.17
667.859	5.7
668.185	5.67
668.511	5.36
668.837	5.36
669.162	5.35
669.488	4.92
669.814	5.19
670.139	5.36
670.465	5.29
670.791	5.44
671.116	5.27
671.442	4.95
671.767	5.47
672.092	5.33
672.418	5.13
672.743	5.26
673.068	5.65
673.393	4.78
673.718	5.39
674.043	4.97
674.368	5.28
674.693	5.44
675.018	6.09
675.343	5.2
675.667	5.17
675.992	5.9
676.317	5.8
676.641	5.47
676.966	5.39
677.29	5.29
677.615	5.15
677.939	5.45
678.264	4.96
678.588	4.29
678.912	5.59
679.236	5.16
679.56	5.55
679.885	5.44
680.209	5.52
680.532	4.7
680.856	5.29
681.18	5.22
681.504	5.54
681.828	5.44
682.152	5.89
682.475	5.06
682.799	5.58
683.122	5.22
683.446	5.7
683.769	4.75
684.093	5.37
684.416	5.2
684.739	5.02
685.062	4.37
685.386	5.71
685.709	5.1
686.032	5.53
686.355	5.4
686.678	5.1
687.001	5.37
687.324	5.6
687.646	5.7
687.969	5.5
688.292	5.62
688.614	5.52
688.937	5.02
689.26	5.45
689.582	5.58
689.904	5.39
690.227	5.59
690.549	5.14
690.871	5.47
691.194	5.72
691.516	5.73
691.838	6.34
692.16	5.25
692.482	5.2
692.804	5.14
693.126	5.06
