Data from 0263_forehead_Reflection__0__148.txt Node

Date: Fri Oct 20 21:47:19 CDT 2023
User: ToomeyLab
Spectrometer: FLMS14357
Trigger mode: 0
Integration Time (sec): 1.000000E-2
Scans to average: 100
Electric dark correction enabled: true
Nonlinearity correction enabled: false
Boxcar width: 0
XAxis mode: Wavelengths
Number of Pixels in Spectrum: 2048
>>>>>Begin Spectral Data<<<<<
189.047	207.26
189.435	207.26
189.823	207.26
190.211	70.97
190.599	-77.88
190.987	7045.9
191.375	72.59
191.763	208.85
192.151	198.56
192.538	1.38
192.926	24.9
193.314	41.83
193.702	32.73
194.089	49.64
194.477	-576.41
194.864	486.32
195.252	67.61
195.639	85.34
196.027	-414.35
196.414	26.77
196.801	-2482.35
197.189	13.22
197.576	73.04
197.963	238.73
198.351	59.54
198.738	30.34
199.125	34.05
199.512	17.5
199.899	30.43
200.286	2.19
200.673	23.85
201.06	62.97
201.447	39.6
201.833	39.22
202.22	57.38
202.607	55.51
202.994	53.38
203.38	53.42
203.767	8.83
204.154	41.79
204.54	46.68
204.927	24.97
205.313	-0.96
205.699	47.95
206.086	31.76
206.472	58.56
206.858	22.26
207.245	17.59
207.631	40.4
208.017	21.44
208.403	28.5
208.789	56.28
209.175	28.74
209.561	18.54
209.947	28.04
210.333	48.51
210.719	20.9
211.105	20.03
211.491	49.76
211.876	27.55
212.262	43.52
212.648	48.3
213.034	22.7
213.419	43.42
213.805	4.25
214.19	13.18
214.576	-0.59
214.961	31.78
215.346	31.97
215.732	22.18
216.117	1.16
216.502	40.12
216.888	14.45
217.273	7.86
217.658	4.92
218.043	3.81
218.428	5.55
218.813	-8.31
219.198	7.02
219.583	7.55
219.968	9.48
220.353	16.33
220.738	23.58
221.122	-8.07
221.507	12.6
221.892	28.52
222.276	14.6
222.661	10.96
223.046	15.94
223.43	17.86
223.815	14.1
224.199	17.18
224.583	5.22
224.968	18.58
225.352	2.26
225.736	4.32
226.121	13.66
226.505	1.47
226.889	6.1
227.273	13.05
227.657	9.87
228.041	7.5
228.425	7.14
228.809	8.32
229.193	6.54
229.577	7.15
229.961	3.64
230.344	2.18
230.728	1.94
231.112	3.98
231.495	3.66
231.879	4
232.263	5.11
232.646	3.12
233.03	4.35
233.413	3.76
233.797	4.41
234.18	4.81
234.563	6.65
234.946	5.65
235.33	4.2
235.713	4.67
236.096	5.06
236.479	4.47
236.862	4.04
237.245	4.25
237.628	6.19
238.011	4.65
238.394	3.46
238.777	6.59
239.16	4.54
239.543	6.46
239.925	7.6
240.308	5.01
240.691	3.6
241.073	4.77
241.456	4.42
241.838	3.94
242.221	4.61
242.603	4.68
242.986	4.94
243.368	4.22
243.75	4.29
244.133	3.52
244.515	3.65
244.897	3.8
245.279	3.91
245.661	4.15
246.043	3.8
246.425	4.58
246.807	4.46
247.189	4.94
247.571	3.85
247.953	4.86
248.335	3.97
248.717	3.72
249.098	3.65
249.48	3.61
249.862	3.9
250.243	3.81
250.625	3.9
251.006	4.4
251.388	4.12
251.769	4.16
252.151	3.96
252.532	5.23
252.913	3.08
253.295	3.59
253.676	4.27
254.057	3.91
254.438	3.95
254.819	4.37
255.2	3.97
255.581	3.94
255.962	4.08
256.343	4.7
256.724	4.16
257.105	4.17
257.486	4.81
257.867	4.51
258.247	4.17
258.628	4.84
259.009	3.81
259.389	3.3
259.77	3.81
260.15	4.91
260.531	4.39
260.911	4.33
261.292	3.83
261.672	3.98
262.052	3.82
262.432	3.78
262.813	3.78
263.193	4.09
263.573	3.87
263.953	4.05
264.333	4.35
264.713	4.63
265.093	3.98
265.473	4.33
265.853	3.63
266.233	3.95
266.612	4.48
266.992	3.99
267.372	2.83
267.752	3.25
268.131	3.33
268.511	4.26
268.89	3.74
269.27	3.64
269.649	3.26
270.029	4.22
270.408	4.57
270.787	4.32
271.167	3.73
271.546	4.45
271.925	4.51
272.304	4.03
272.683	4.38
273.062	3.96
273.441	3.91
273.82	3.93
274.199	4.06
274.578	3.8
274.957	3.91
275.336	4.05
275.715	4.06
276.093	3.44
276.472	4.09
276.851	4.35
277.229	4.25
277.608	3.58
277.986	3.62
278.365	3.73
278.743	3.64
279.122	4.21
279.5	3.87
279.878	3.51
280.257	4.24
280.635	4.22
281.013	4.25
281.391	3.93
281.769	4.15
282.147	3.88
282.525	3.94
282.903	3.78
283.281	3.63
283.659	3.87
284.037	4.19
284.415	3.41
284.792	3.74
285.17	4.04
285.548	3.58
285.925	3.14
286.303	3.4
286.68	3.44
287.058	4.35
287.435	3.96
287.813	3.47
288.19	3.78
288.567	3.61
288.945	4.16
289.322	3.95
289.699	3.43
290.076	4.38
290.453	4
290.83	3.65
291.207	4.44
291.584	3.55
291.961	3.79
292.338	3.92
292.715	4.15
293.092	4.26
293.469	4.23
293.845	4.03
294.222	4.07
294.599	3.83
294.975	5.02
295.352	3.98
295.728	4.23
296.105	4.19
296.481	4.28
296.858	3.95
297.234	4.55
297.61	3.93
297.986	4
298.363	4.22
298.739	4.41
299.115	4.47
299.491	4.52
299.867	4.33
300.243	4.59
300.619	4.51
300.995	4.28
301.371	5.21
301.746	4.53
302.122	4.89
302.498	4.23
302.874	4.62
303.249	4.67
303.625	4.54
304	4.51
304.376	4.42
304.751	4.5
305.127	4.59
305.502	4.82
305.878	4.62
306.253	5.29
306.628	5.18
307.003	5.03
307.378	4.91
307.754	5.29
308.129	5.41
308.504	5.72
308.879	5.65
309.254	5.92
309.629	5.14
310.003	4.94
310.378	5.79
310.753	5.42
311.128	5.88
311.502	5.35
311.877	5.87
312.252	5.39
312.626	5.86
313.001	5.68
313.375	6
313.75	5.68
314.124	5.5
314.498	5.54
314.873	5.23
315.247	6.14
315.621	5.84
315.995	6.35
316.369	5.96
316.743	6.24
317.117	6.32
317.491	5.94
317.865	6.41
318.239	6.79
318.613	6.45
318.987	6.46
319.361	5.58
319.734	6.36
320.108	5.83
320.482	6.68
320.855	6.62
321.229	7.34
321.602	6.51
321.976	6.63
322.349	7.48
322.723	6.88
323.096	6.77
323.469	6.79
323.843	6.97
324.216	6.41
324.589	7.8
324.962	7.44
325.335	6.77
325.708	6.99
326.081	6.81
326.454	7.42
326.827	7.83
327.2	7.64
327.573	7.43
327.945	7.27
328.318	6.92
328.691	6.99
329.063	7.79
329.436	7.61
329.809	8
330.181	7.73
330.553	7.9
330.926	7.13
331.298	7.21
331.671	7.71
332.043	7.59
332.415	7.68
332.787	7.56
333.159	7.83
333.532	8.24
333.904	7.96
334.276	7.87
334.648	8.32
335.02	8.34
335.391	7.76
335.763	8.37
336.135	7.77
336.507	8.08
336.879	7.85
337.25	8.02
337.622	8.37
337.993	8.92
338.365	8.73
338.736	8.25
339.108	8.36
339.479	8.48
339.851	8.47
340.222	8.43
340.593	8.02
340.964	8.34
341.336	8.81
341.707	8.41
342.078	8.87
342.449	7.9
342.82	8.33
343.191	8.51
343.562	8.73
343.933	8.35
344.303	8.61
344.674	8.75
345.045	9.24
345.416	9.19
345.786	9.14
346.157	8.91
346.527	8.72
346.898	8.92
347.268	8.99
347.639	9.21
348.009	8.98
348.38	9
348.75	9.08
349.12	9.29
349.49	9.33
349.861	9.32
350.231	8.9
350.601	9.15
350.971	9.56
351.341	9.15
351.711	9.53
352.081	9.35
352.45	9.48
352.82	9.42
353.19	9.67
353.56	9.7
353.929	9.41
354.299	9.96
354.669	9.5
355.038	10.07
355.408	10.05
355.777	9.56
356.147	9.6
356.516	9.62
356.885	9.96
357.254	9.99
357.624	10.06
357.993	9.84
358.362	10.06
358.731	9.51
359.1	9.73
359.469	9.64
359.838	10.09
360.207	10.14
360.576	9.98
360.945	9.8
361.314	10.29
361.682	10.11
362.051	10.1
362.42	10.37
362.788	10.33
363.157	10.21
363.525	10.13
363.894	10.3
364.262	10.33
364.631	10.05
364.999	10.45
365.367	10.38
365.735	10.57
366.104	10.51
366.472	10.35
366.84	10.39
367.208	10.97
367.576	10.64
367.944	10.94
368.312	10.6
368.68	10.84
369.048	10.58
369.416	10.95
369.783	11.02
370.151	11.02
370.519	11.18
370.886	11.19
371.254	11.12
371.621	11.12
371.989	10.92
372.356	11.14
372.724	11.73
373.091	11.16
373.458	11.1
373.826	11.63
374.193	11.07
374.56	11.27
374.927	11.16
375.294	11.46
375.661	11.53
376.028	11.87
376.395	11.91
376.762	11.64
377.129	11.54
377.496	11.64
377.863	12.12
378.229	12.04
378.596	11.65
378.963	11.83
379.329	11.76
379.696	11.99
380.062	11.88
380.429	11.73
380.795	11.64
381.161	12.14
381.528	12.41
381.894	12.01
382.26	11.96
382.626	12.41
382.993	11.88
383.359	12.64
383.725	12.27
384.091	12.35
384.457	12.28
384.823	12.5
385.188	12.44
385.554	12.46
385.92	12.02
386.286	12.73
386.651	12.06
387.017	12.88
387.383	12.55
387.748	12.41
388.114	12.2
388.479	12.75
388.845	12.92
389.21	12.65
389.575	12.67
389.94	12.85
390.306	12.86
390.671	12.85
391.036	12.84
391.401	13.09
391.766	13.02
392.131	13.14
392.496	13.26
392.861	13.06
393.226	13.28
393.591	13.2
393.956	13.14
394.32	13.35
394.685	12.91
395.05	13.46
395.414	13.39
395.779	13.26
396.143	13.03
396.508	13.39
396.872	13.43
397.236	13.49
397.601	13.47
397.965	13.21
398.329	13.43
398.694	13.69
399.058	13.31
399.422	13.72
399.786	13.8
400.15	13.73
400.514	13.34
400.878	13.67
401.242	13.65
401.605	13.8
401.969	13.78
402.333	14.1
402.697	13.84
403.06	13.81
403.424	13.98
403.787	14.05
404.151	14.1
404.514	14.21
404.878	14.01
405.241	14.1
405.604	13.81
405.968	14.25
406.331	14
406.694	14.05
407.057	14.31
407.42	14.61
407.783	14.33
408.146	14.24
408.509	14.23
408.872	14.7
409.235	14.49
409.598	14.87
409.961	14.6
410.323	14.87
410.686	14.29
411.049	14.61
411.411	14.59
411.774	14.44
412.136	14.6
412.499	14.62
412.861	14.94
413.223	14.88
413.586	14.73
413.948	14.87
414.31	15.16
414.672	14.62
415.035	14.86
415.397	15.32
415.759	14.87
416.121	15.05
416.483	15.29
416.845	15.16
417.206	15.25
417.568	15.15
417.93	15.29
418.292	14.93
418.653	15.27
419.015	15.15
419.377	15.14
419.738	15.04
420.1	15.08
420.461	15.1
420.822	15.07
421.184	15.11
421.545	15.11
421.906	15.2
422.267	15.19
422.629	15.18
422.99	15.19
423.351	15.07
423.712	15.15
424.073	15.41
424.434	15.31
424.795	15.38
425.155	15.5
425.516	15.32
425.877	15.4
426.238	15.19
426.598	15.45
426.959	15.38
427.32	15.45
427.68	15.48
428.041	15.65
428.401	15.77
428.761	15.72
429.122	15.95
429.482	15.99
429.842	16.13
430.202	16.18
430.563	16.06
430.923	16.29
431.283	16.23
431.643	16.34
432.003	16.45
432.363	16.38
432.722	16.58
433.082	16.48
433.442	16.31
433.802	16.54
434.161	16.23
434.521	16.38
434.881	16.56
435.24	16.5
435.6	16.38
435.959	16.51
436.319	16.64
436.678	16.54
437.037	16.63
437.396	16.9
437.756	17.02
438.115	16.64
438.474	16.95
438.833	16.71
439.192	16.74
439.551	16.8
439.91	16.99
440.269	16.97
440.628	17.03
440.987	17.01
441.345	16.86
441.704	16.95
442.063	16.98
442.421	16.82
442.78	16.8
443.138	17.11
443.497	17
443.855	17.1
444.214	17.18
444.572	17.23
444.93	17.38
445.288	17.36
445.647	17.53
446.005	17.4
446.363	17.52
446.721	17.37
447.079	17.48
447.437	17.25
447.795	17.31
448.153	17.34
448.51	17.27
448.868	17.25
449.226	17.27
449.584	17.45
449.941	17.45
450.299	17.54
450.656	17.66
451.014	17.74
451.371	17.8
451.729	17.96
452.086	17.92
452.443	18.04
452.801	18.03
453.158	18.06
453.515	18.15
453.872	18.15
454.229	18.35
454.586	18.2
454.943	18.18
455.3	17.99
455.657	18.25
456.014	18.19
456.371	18.44
456.727	18.55
457.084	18.32
457.441	18.43
457.797	18.53
458.154	18.48
458.51	18.49
458.867	18.64
459.223	18.73
459.58	18.68
459.936	18.62
460.292	18.49
460.648	18.39
461.005	18.47
461.361	18.48
461.717	18.37
462.073	18.43
462.429	18.39
462.785	18.45
463.141	18.75
463.496	18.81
463.852	19.1
464.208	19
464.564	19.09
464.919	19.13
465.275	19.4
465.631	19.16
465.986	19.12
466.342	19.42
466.697	19.26
467.052	19.34
467.408	19.43
467.763	19.39
468.118	19.68
468.473	19.48
468.829	19.62
469.184	19.68
469.539	19.46
469.894	19.73
470.249	19.43
470.603	19.55
470.958	19.62
471.313	19.85
471.668	19.9
472.023	19.97
472.377	19.68
472.732	19.94
473.086	20.05
473.441	20.08
473.795	20.22
474.15	19.99
474.504	19.94
474.859	20.05
475.213	20.31
475.567	20.11
475.921	20.06
476.275	20.12
476.63	20.29
476.984	20.37
477.338	20.21
477.692	20.33
478.045	20.39
478.399	20.41
478.753	20.48
479.107	20.38
479.461	20.32
479.814	20.61
480.168	20.4
480.521	20.47
480.875	20.51
481.228	20.56
481.582	20.63
481.935	20.66
482.289	20.67
482.642	20.66
482.995	20.66
483.348	20.7
483.701	20.54
484.055	20.62
484.408	20.44
484.761	20.28
485.114	20.22
485.466	19.84
485.819	19.7
486.172	19.67
486.525	19.67
486.878	19.91
487.23	20.04
487.583	20.25
487.936	20.28
488.288	20.46
488.641	20.58
488.993	20.37
489.345	20.33
489.698	20.21
490.05	20.23
490.402	20.22
490.754	20.42
491.107	20.47
491.459	20.73
491.811	20.88
492.163	20.98
492.515	21.18
492.866	21.13
493.218	20.96
493.57	20.66
493.922	20.55
494.274	20.66
494.625	20.82
494.977	20.97
495.328	21.18
495.68	21.39
496.031	21.54
496.383	21.79
496.734	21.77
497.086	21.73
497.437	21.89
497.788	22.03
498.139	22.11
498.49	22.04
498.842	21.82
499.193	21.86
499.544	21.89
499.894	21.96
500.245	21.91
500.596	22.05
500.947	22.17
501.298	22.07
501.648	22.21
501.999	22.12
502.35	22.36
502.7	22.45
503.051	22.36
503.401	22.51
503.752	22.63
504.102	22.61
504.452	22.55
504.803	22.6
505.153	22.78
505.503	22.72
505.853	22.73
506.203	22.56
506.553	22.73
506.903	22.67
507.253	22.79
507.603	22.83
507.953	22.82
508.303	22.9
508.652	23.09
509.002	23.04
509.352	22.99
509.701	22.98
510.051	22.97
510.4	22.99
510.75	22.98
511.099	22.91
511.449	22.96
511.798	22.96
512.147	23.09
512.496	22.98
512.846	23.06
513.195	23.21
513.544	23.12
513.893	23.17
514.242	23.3
514.591	23.35
514.939	23.27
515.288	23.44
515.637	23.38
515.986	23.5
516.334	23.63
516.683	23.38
517.032	23.57
517.38	23.73
517.729	23.89
518.077	23.73
518.426	23.79
518.774	23.57
519.122	23.78
519.47	23.74
519.819	23.49
520.167	23.53
520.515	23.49
520.863	23.52
521.211	23.57
521.559	23.58
521.907	23.56
522.255	23.77
522.602	23.96
522.95	23.89
523.298	24
523.645	24.16
523.993	24.08
524.341	24.32
524.688	24.17
525.036	24.33
525.383	24.25
525.73	24.31
526.078	24.31
526.425	24.29
526.772	24.3
527.119	24.41
527.466	24
527.814	24.04
528.161	23.95
528.508	24
528.854	24.17
529.201	24.16
529.548	24.32
529.895	24.12
530.242	23.95
530.588	23.69
530.935	23.66
531.282	23.81
531.628	23.77
531.975	23.81
532.321	23.94
532.667	24.17
533.014	24.34
533.36	24.51
533.706	24.65
534.052	24.6
534.399	24.6
534.745	24.64
535.091	24.53
535.437	24.32
535.783	24.27
536.129	24.46
536.474	24.55
536.82	24.71
537.166	24.99
537.512	25.1
537.857	25.17
538.203	25.07
538.549	24.98
538.894	24.95
539.239	25.01
539.585	25.13
539.93	25.2
540.276	25.6
540.621	25.56
540.966	25.68
541.311	25.83
541.656	25.72
542.001	25.54
542.346	25.61
542.691	25.38
543.036	25.28
543.381	24.9
543.726	25
544.071	24.99
544.415	24.97
544.76	25.22
545.105	25.35
545.449	25.4
545.794	25.68
546.138	25.71
546.483	25.74
546.827	26.06
547.171	26.1
547.516	26.02
547.86	26.06
548.204	25.89
548.548	26.16
548.892	26.21
549.236	26.08
549.58	26.01
549.924	26.23
550.268	26.4
550.612	26.42
550.956	26.66
551.3	26.72
551.643	26.66
551.987	26.99
552.33	27.01
552.674	27.06
553.017	27.04
553.361	27.12
553.704	27.04
554.048	26.94
554.391	26.91
554.734	26.99
555.077	26.76
555.42	26.95
555.764	27.02
556.107	27.18
556.45	26.98
556.793	26.99
557.135	27.21
557.478	27.46
557.821	27.33
558.164	27.42
558.507	27.42
558.849	27.58
559.192	27.59
559.534	27.46
559.877	27.73
560.219	27.61
560.562	27.85
560.904	27.59
561.246	27.61
561.589	27.72
561.931	27.76
562.273	27.77
562.615	27.93
562.957	27.85
563.299	27.98
563.641	28.06
563.983	27.78
564.325	28.04
564.667	27.79
565.008	27.94
565.35	28.12
565.692	27.95
566.033	28.36
566.375	28.18
566.716	28.29
567.058	28.13
567.399	28.31
567.741	28.13
568.082	27.97
568.423	28.04
568.764	28.02
569.105	28.23
569.447	27.99
569.788	28.23
570.129	28.16
570.47	28.34
570.811	28.17
571.151	28.65
571.492	28.67
571.833	28.88
572.174	28.71
572.514	28.81
572.855	28.54
573.195	28.68
573.536	28.58
573.876	28.59
574.217	28.56
574.557	28.59
574.898	28.49
575.238	28.65
575.578	28.69
575.918	28.75
576.258	28.8
576.598	28.9
576.938	28.89
577.278	29.14
577.618	28.91
577.958	28.99
578.298	28.8
578.638	29.13
578.977	29.15
579.317	28.91
579.657	29.39
579.996	29.37
580.336	29.39
580.675	29.32
581.014	29.35
581.354	29.55
581.693	29.75
582.032	29.68
582.372	29.78
582.711	29.44
583.05	30.04
583.389	29.76
583.728	29.77
584.067	29.67
584.406	29.83
584.745	29.88
585.083	29.62
585.422	29.93
585.761	29.66
586.1	29.9
586.438	29.85
586.777	30.09
587.115	30.29
587.454	30.05
587.792	30.2
588.13	30.19
588.469	30.6
588.807	30.42
589.145	30.26
589.483	30.2
589.821	30.04
590.159	30.32
590.497	30.27
590.835	30.31
591.173	30.19
591.511	30.3
591.849	30.45
592.187	30.58
592.524	30.1
592.862	30.45
593.2	30.78
593.537	30.61
593.875	30.38
594.212	30.7
594.55	30.7
594.887	30.83
595.224	30.87
595.561	30.47
595.899	30.73
596.236	30.89
596.573	30.7
596.91	30.91
597.247	30.95
597.584	30.49
597.921	31.01
598.258	30.97
598.594	30.89
598.931	30.62
599.268	30.68
599.604	30.82
599.941	30.95
600.277	30.94
600.614	31.01
600.95	30.94
601.287	31.19
601.623	31.49
601.959	31.35
602.296	31.7
602.632	31.41
602.968	31.23
603.304	31.63
603.64	31.21
603.976	31.52
604.312	31.92
604.648	31.83
604.984	31.59
605.319	31.41
605.655	31.36
605.991	31.05
606.326	31.28
606.662	31.34
606.998	31.25
607.333	31.28
607.668	31.27
608.004	31.64
608.339	31.66
608.674	31.83
609.01	31.81
609.345	32.16
609.68	32.2
610.015	32.09
610.35	31.88
610.685	32.35
611.02	31.82
611.355	31.83
611.689	31.79
612.024	31.88
612.359	31.81
612.694	32
613.028	32.07
613.363	32.26
613.697	32.09
614.032	32.33
614.366	32.27
614.7	32.54
615.035	32.56
615.369	32.78
615.703	32.52
616.037	32.66
616.371	32.51
616.705	32.38
617.039	32.97
617.373	33.08
617.707	33.01
618.041	32.38
618.375	32.56
618.709	32.74
619.042	33
619.376	32.89
619.71	32.79
620.043	33.18
620.377	32.86
620.71	32.81
621.043	33.04
621.377	33.1
621.71	32.99
622.043	32.97
622.376	33
622.709	33.49
623.043	33.48
623.376	32.93
623.709	33.06
624.041	33.05
624.374	33.49
624.707	33.18
625.04	33.23
625.373	33.39
625.705	33.06
626.038	33.79
626.37	33.02
626.703	33.18
627.035	33.09
627.368	33.64
627.7	33.7
628.032	33.52
628.365	33.52
628.697	33.61
629.029	33.63
629.361	33.48
629.693	33.51
630.025	33.54
630.357	33.99
630.689	33.58
631.021	33.73
631.353	34.14
631.684	33.73
632.016	33.96
632.348	34.13
632.679	33.82
633.011	34.14
633.342	33.91
633.674	33.82
634.005	33.8
634.336	34.12
634.668	34.02
634.999	33.94
635.33	34.06
635.661	34.23
635.992	34.63
636.323	34.28
636.654	33.95
636.985	34.23
637.316	34.58
637.647	34.16
637.977	34.19
638.308	34.69
638.639	34.47
638.969	34.17
639.3	34.09
639.63	34.56
639.961	34.41
640.291	34.29
640.622	34.06
640.952	34.36
641.282	34.97
641.612	34.25
641.943	34.61
642.273	34.52
642.603	34.94
642.933	34.91
643.263	34.85
643.592	34.96
643.922	35.06
644.252	34.85
644.582	34.41
644.911	35.09
645.241	35.3
645.571	34.99
645.9	34.89
646.23	34.8
646.559	34.99
646.888	35.03
647.218	35.04
647.547	34.88
647.876	34.81
648.205	35.13
648.534	35.28
648.863	35.45
649.192	35.57
649.521	35.45
649.85	35.79
650.179	35.05
650.508	35.76
650.837	35.42
651.165	35.95
651.494	35.13
651.822	35.97
652.151	35.1
652.479	35.34
652.808	35.91
653.136	35.57
653.465	36.1
653.793	35.82
654.121	35.85
654.449	35.62
654.777	35.48
655.105	35.4
655.433	35.53
655.761	36.29
656.089	35.64
656.417	35.79
656.745	36.39
657.073	35.4
657.4	37
657.728	36.13
658.056	35.86
658.383	35.9
658.711	36.34
659.038	36.15
659.365	36.18
659.693	36.03
660.02	36.65
660.347	36.73
660.674	36.76
661.001	35.75
661.329	35.88
661.656	36.27
661.982	36.34
662.309	35.99
662.636	36.23
662.963	36.07
663.29	36.13
663.616	36.79
663.943	36.79
664.27	36.62
664.596	36.72
664.923	35.97
665.249	36.55
665.576	36.25
665.902	36.96
666.228	37
666.554	37.24
666.881	36.17
667.207	35.9
667.533	36.7
667.859	37.34
668.185	37.02
668.511	37.65
668.837	37.35
669.162	37.13
669.488	37.52
669.814	36.97
670.139	36.95
670.465	36.6
670.791	37.44
671.116	36.87
671.442	37.57
671.767	36.91
672.092	36.7
