Data from 0263_crown_Reflection__2__145.txt Node

Date: Fri Oct 20 21:46:24 CDT 2023
User: ToomeyLab
Spectrometer: FLMS14357
Trigger mode: 0
Integration Time (sec): 1.000000E-2
Scans to average: 100
Electric dark correction enabled: true
Nonlinearity correction enabled: false
Boxcar width: 0
XAxis mode: Wavelengths
Number of Pixels in Spectrum: 2048
>>>>>Begin Spectral Data<<<<<
189.047	-311.02
189.435	-311.02
189.823	-311.02
190.211	2741.94
190.599	12.33
190.987	4101.64
191.375	117.54
191.763	251.24
192.151	16.22
192.538	-17.99
192.926	24.48
193.314	47.88
193.702	-21.6
194.089	129.48
194.477	-322.25
194.864	1043.51
195.252	47.19
195.639	105.75
196.027	-459.92
196.414	72.28
196.801	-1621.18
197.189	9.74
197.576	24.35
197.963	17.98
198.351	41.03
198.738	31.62
199.125	38.17
199.512	26.87
199.899	34.49
200.286	1.19
200.673	28.7
201.06	34.15
201.447	46.81
201.833	38.87
202.22	35.08
202.607	29.07
202.994	45.72
203.38	-48.74
203.767	18.81
204.154	54.37
204.54	45.81
204.927	7.59
205.313	23.65
205.699	43.47
206.086	44.03
206.472	19.47
206.858	37.58
207.245	-9.78
207.631	42.75
208.017	20.63
208.403	16.9
208.789	41.77
209.175	-3.76
209.561	35.09
209.947	-0.3
210.333	33.85
210.719	7.77
211.105	24.72
211.491	27.36
211.876	-2.3
212.262	35.88
212.648	13.72
213.034	-27.13
213.419	15.55
213.805	24.6
214.19	1.35
214.576	-1.57
214.961	9.09
215.346	-0.02
215.732	7.09
216.117	-27.13
216.502	5.66
216.888	38.45
217.273	12.55
217.658	4.28
218.043	19.01
218.428	12.84
218.813	7.26
219.198	0.14
219.583	-1.15
219.968	8.97
220.353	4.8
220.738	23.89
221.122	-5.8
221.507	10.24
221.892	27
222.276	21.99
222.661	20.19
223.046	-2.21
223.43	6.3
223.815	20.14
224.199	14.15
224.583	7.3
224.968	-1.16
225.352	4.74
225.736	1.24
226.121	5.74
226.505	9.59
226.889	5.56
227.273	6.68
227.657	10.62
228.041	11.23
228.425	8.8
228.809	3.12
229.193	4.02
229.577	7.88
229.961	6.38
230.344	5.45
230.728	3.49
231.112	4.71
231.495	4.25
231.879	4.37
232.263	4.32
232.646	3.18
233.03	3.11
233.413	4.17
233.797	4.62
234.18	5.22
234.563	8.46
234.946	4.47
235.33	4.47
235.713	3.82
236.096	5.38
236.479	5.12
236.862	5.41
237.245	5.12
237.628	5.58
238.011	5.57
238.394	4.3
238.777	5.97
239.16	3.91
239.543	7.5
239.925	6.5
240.308	5.34
240.691	4.44
241.073	4.38
241.456	4.8
241.838	4.31
242.221	5.61
242.603	4.49
242.986	4.17
243.368	5.17
243.75	4.06
244.133	3.99
244.515	4.08
244.897	4.25
245.279	4.19
245.661	3.85
246.043	4.13
246.425	4.17
246.807	3.28
247.189	3.59
247.571	3.46
247.953	4.54
248.335	3.94
248.717	3.8
249.098	3.59
249.48	3.88
249.862	3.85
250.243	3.86
250.625	3.96
251.006	4.06
251.388	3.82
251.769	4.27
252.151	4.16
252.532	3.7
252.913	3.84
253.295	3.64
253.676	3.77
254.057	4.06
254.438	3.54
254.819	4.05
255.2	3.39
255.581	3.85
255.962	3.84
256.343	4.53
256.724	2.63
257.105	3.71
257.486	3.8
257.867	4.59
258.247	4.2
258.628	3.63
259.009	3.2
259.389	3.74
259.77	3.08
260.15	3.78
260.531	3.54
260.911	3.9
261.292	3.28
261.672	3.74
262.052	3.72
262.432	3.5
262.813	3.5
263.193	3.89
263.573	3.4
263.953	3.8
264.333	4.15
264.713	3.77
265.093	3.49
265.473	3.84
265.853	3.65
266.233	3.53
266.612	4.27
266.992	3.4
267.372	3.8
267.752	3.02
268.131	4.05
268.511	3.51
268.89	3.65
269.27	3.09
269.649	3.18
270.029	3.24
270.408	4.19
270.787	3.62
271.167	3.78
271.546	3.52
271.925	3.84
272.304	4.5
272.683	3.86
273.062	3.8
273.441	3.49
273.82	3.45
274.199	3.39
274.578	3.65
274.957	3.41
275.336	3.34
275.715	3.47
276.093	3.37
276.472	3.61
276.851	3.96
277.229	3.52
277.608	2.93
277.986	3.24
278.365	3.71
278.743	3.34
279.122	3.3
279.5	3.17
279.878	3.18
280.257	3.56
280.635	3.7
281.013	3.69
281.391	3.64
281.769	3.14
282.147	3.82
282.525	3.79
282.903	3.22
283.281	3.46
283.659	3.57
284.037	3.61
284.415	3.11
284.792	3.39
285.17	3.49
285.548	3.54
285.925	2.92
286.303	3.5
286.68	3.1
287.058	3.87
287.435	3.62
287.813	2.94
288.19	3.19
288.567	3.54
288.945	3.46
289.322	3.54
289.699	2.93
290.076	3.88
290.453	3.29
290.83	3.28
291.207	3.77
291.584	3.11
291.961	2.9
292.338	3.6
292.715	3.14
293.092	3.07
293.469	3.19
293.845	3.43
294.222	3.28
294.599	2.84
294.975	3.68
295.352	3.65
295.728	3.34
296.105	2.95
296.481	3.34
296.858	3.37
297.234	3.24
297.61	2.92
297.986	3.2
298.363	3.23
298.739	3.53
299.115	3.02
299.491	3.29
299.867	3.33
300.243	3.34
300.619	3.22
300.995	3.45
301.371	3.78
301.746	3.35
302.122	4.01
302.498	2.92
302.874	3.21
303.249	3.05
303.625	3.45
304	3.75
304.376	2.84
304.751	2.87
305.127	3.3
305.502	4
305.878	3.31
306.253	3.47
306.628	3.75
307.003	3.45
307.378	3.13
307.754	3.32
308.129	3.67
308.504	3.52
308.879	3.77
309.254	3.63
309.629	3.22
310.003	2.75
310.378	3.72
310.753	3.72
311.128	3.62
311.502	3.21
311.877	3.46
312.252	3.47
312.626	3.39
313.001	3.27
313.375	3.8
313.75	3.4
314.124	3.01
314.498	3.61
314.873	2.74
315.247	3.35
315.621	3.79
315.995	3.57
316.369	2.81
316.743	3.66
317.117	3.56
317.491	2.83
317.865	3.32
318.239	3.71
318.613	4.03
318.987	3.55
319.361	3.13
319.734	2.69
320.108	3.09
320.482	3.52
320.855	3.85
321.229	3.88
321.602	3.53
321.976	3.21
322.349	3.65
322.723	3.73
323.096	3.79
323.469	3.76
323.843	2.74
324.216	2.77
324.589	4.1
324.962	2.82
325.335	3.37
325.708	3.3
326.081	3.4
326.454	3.52
326.827	3.56
327.2	3.86
327.573	3.37
327.945	3.66
328.318	3.01
328.691	3.44
329.063	3.99
329.436	3.48
329.809	3.94
330.181	4.02
330.553	3.64
330.926	3.46
331.298	3.35
331.671	3.04
332.043	3.29
332.415	3.66
332.787	3.6
333.159	3.65
333.532	3.56
333.904	3.57
334.276	3.16
334.648	3.7
335.02	3.82
335.391	2.63
335.763	3.93
336.135	3.72
336.507	3.73
336.879	3.59
337.25	3.39
337.622	4.18
337.993	4.1
338.365	3.65
338.736	3.63
339.108	3.51
339.479	3.42
339.851	3.65
340.222	2.99
340.593	3.19
340.964	3.27
341.336	3.53
341.707	3.66
342.078	3.82
342.449	3.43
342.82	3.46
343.191	3.23
343.562	3.73
343.933	3.17
344.303	3.41
344.674	3.4
345.045	3.51
345.416	3.99
345.786	3.44
346.157	3.78
346.527	3.71
346.898	3.66
347.268	3.39
347.639	3.9
348.009	3.78
348.38	3.66
348.75	3.56
349.12	3.63
349.49	3.8
349.861	3.52
350.231	3.37
350.601	3.84
350.971	4.01
351.341	3.6
351.711	4.13
352.081	3.6
352.45	3.35
352.82	3.86
353.19	3.71
353.56	3.85
353.929	3.97
354.299	3.11
354.669	3.22
355.038	3.68
355.408	4.26
355.777	3.72
356.147	3.37
356.516	3.68
356.885	3.35
357.254	3.56
357.624	3.66
357.993	3.32
358.362	3.33
358.731	3.05
359.1	2.92
359.469	3.4
359.838	3.77
360.207	3.63
360.576	3.82
360.945	3.45
361.314	3.6
361.682	3.81
362.051	3.57
362.42	3.67
362.788	3.76
363.157	3.6
363.525	3.33
363.894	3.67
364.262	3.41
364.631	3.59
364.999	3.48
365.367	3.68
365.735	3.92
366.104	3.65
366.472	3.58
366.84	3.58
367.208	3.68
367.576	3.51
367.944	3.94
368.312	3.38
368.68	3.8
369.048	3.85
369.416	3.66
369.783	3.66
370.151	3.72
370.519	3.5
370.886	3.93
371.254	3.61
371.621	3.83
371.989	3.42
372.356	3.84
372.724	3.92
373.091	3.8
373.458	3.05
373.826	3.71
374.193	3.48
374.56	3.65
374.927	3.63
375.294	4.23
375.661	3.76
376.028	4.07
376.395	4.12
376.762	3.27
377.129	3.65
377.496	3.57
377.863	3.69
378.229	3.63
378.596	3.67
378.963	3.52
379.329	3.72
379.696	3.69
380.062	3.75
380.429	3.65
380.795	3.27
381.161	3.61
381.528	4.2
381.894	3.79
382.26	3.87
382.626	3.97
382.993	3.61
383.359	3.77
383.725	3.56
384.091	3.81
384.457	3.7
384.823	3.64
385.188	4
385.554	3.93
385.92	3.69
386.286	3.93
386.651	3.48
387.017	3.85
387.383	3.66
387.748	3.46
388.114	3.4
388.479	3.63
388.845	3.89
389.21	3.5
389.575	3.67
389.94	3.91
390.306	3.82
390.671	3.71
391.036	3.74
391.401	3.98
391.766	3.77
392.131	3.6
392.496	3.84
392.861	3.82
393.226	3.71
393.591	3.54
393.956	3.83
394.32	4.04
394.685	3.73
395.05	3.93
395.414	4.01
395.779	3.64
396.143	3.66
396.508	3.55
396.872	3.76
397.236	3.76
397.601	3.52
397.965	3.67
398.329	3.66
398.694	3.79
399.058	3.37
399.422	3.88
399.786	3.83
400.15	3.56
400.514	3.73
400.878	4.03
401.242	3.86
401.605	3.67
401.969	3.57
402.333	3.85
402.697	3.66
403.06	3.74
403.424	3.58
403.787	3.63
404.151	3.59
404.514	3.73
404.878	3.9
405.241	3.9
405.604	3.51
405.968	3.82
406.331	3.66
406.694	3.67
407.057	3.65
407.42	3.96
407.783	3.73
408.146	3.74
408.509	3.72
408.872	3.95
409.235	3.78
409.598	3.74
409.961	3.99
410.323	3.75
410.686	3.63
411.049	3.65
411.411	3.62
411.774	3.75
412.136	3.5
412.499	3.72
412.861	3.84
413.223	3.82
413.586	3.91
413.948	3.86
414.31	4
414.672	3.76
415.035	3.67
415.397	3.88
415.759	3.85
416.121	3.77
416.483	3.96
416.845	3.88
417.206	3.66
417.568	3.79
417.93	3.86
418.292	3.6
418.653	3.85
419.015	3.75
419.377	3.7
419.738	3.62
420.1	3.75
420.461	3.76
420.822	3.73
421.184	3.73
421.545	3.67
421.906	3.57
422.267	3.57
422.629	3.72
422.99	3.63
423.351	3.62
423.712	3.57
424.073	3.58
424.434	3.56
424.795	3.64
425.155	3.75
425.516	3.65
425.877	3.69
426.238	3.59
426.598	3.68
426.959	3.65
427.32	3.65
427.68	3.66
428.041	3.65
428.401	3.7
428.761	3.77
429.122	3.62
429.482	3.71
429.842	3.7
430.202	3.77
430.563	3.74
430.923	3.78
431.283	3.8
431.643	3.87
432.003	3.82
432.363	3.73
432.722	3.87
433.082	3.58
433.442	3.5
433.802	3.98
434.161	3.55
434.521	3.77
434.881	3.84
435.24	3.77
435.6	3.63
435.959	3.75
436.319	3.72
436.678	3.75
437.037	3.66
437.396	3.84
437.756	3.76
438.115	3.65
438.474	3.79
438.833	3.76
439.192	3.73
439.551	3.64
439.91	3.78
440.269	3.81
440.628	3.79
440.987	3.63
441.345	3.73
441.704	3.72
442.063	3.58
442.421	3.59
442.78	3.64
443.138	3.73
443.497	3.78
443.855	3.77
444.214	3.72
444.572	3.64
444.93	3.91
445.288	3.84
445.647	4.04
446.005	3.44
446.363	3.73
446.721	3.77
447.079	3.73
447.437	3.78
447.795	3.59
448.153	3.6
448.51	3.63
448.868	3.69
449.226	3.65
449.584	3.65
449.941	3.65
450.299	3.71
450.656	3.57
451.014	3.62
451.371	3.76
451.729	3.72
452.086	3.58
452.443	3.76
452.801	3.68
453.158	3.68
453.515	3.71
453.872	3.65
454.229	3.85
454.586	3.72
454.943	3.59
455.3	3.59
455.657	3.76
456.014	3.71
456.371	3.74
456.727	3.76
457.084	3.61
457.441	3.74
457.797	3.72
458.154	3.59
458.51	3.75
458.867	3.71
459.223	3.64
459.58	3.8
459.936	3.72
460.292	3.69
460.648	3.5
461.005	3.57
461.361	3.66
461.717	3.56
462.073	3.6
462.429	3.67
462.785	3.66
463.141	3.7
463.496	3.67
463.852	3.7
464.208	3.73
464.564	3.8
464.919	3.63
465.275	3.86
465.631	3.73
465.986	3.73
466.342	3.92
466.697	3.76
467.052	3.73
467.408	3.81
467.763	3.91
468.118	3.73
468.473	3.82
468.829	3.74
469.184	3.6
469.539	3.91
469.894	3.75
470.249	3.68
470.603	3.66
470.958	3.86
471.313	3.85
471.668	3.93
472.023	3.82
472.377	3.79
472.732	3.66
473.086	3.75
473.441	3.87
473.795	3.96
474.15	3.64
474.504	3.66
474.859	3.8
475.213	3.72
475.567	3.75
475.921	3.81
476.275	3.67
476.63	3.86
476.984	3.96
477.338	3.75
477.692	3.68
478.045	3.83
478.399	3.78
478.753	3.76
479.107	3.82
479.461	3.72
479.814	3.92
480.168	3.75
480.521	3.82
480.875	3.73
481.228	3.71
481.582	3.89
481.935	3.74
482.289	3.76
482.642	3.75
482.995	3.63
483.348	3.8
483.701	3.72
484.055	3.73
484.408	3.65
484.761	3.64
485.114	3.53
485.466	3.5
485.819	3.45
486.172	3.4
486.525	3.43
486.878	3.47
487.23	3.53
487.583	3.59
487.936	3.59
488.288	3.62
488.641	3.72
488.993	3.51
489.345	3.55
489.698	3.5
490.05	3.51
490.402	3.52
490.754	3.52
491.107	3.53
491.459	3.63
491.811	3.66
492.163	3.57
492.515	3.64
492.866	3.66
493.218	3.63
493.57	3.52
493.922	3.54
494.274	3.55
494.625	3.58
494.977	3.62
495.328	3.65
495.68	3.78
496.031	3.68
496.383	3.74
496.734	3.82
497.086	3.61
497.437	3.78
497.788	3.66
498.139	3.78
498.49	3.68
498.842	3.7
499.193	3.77
499.544	3.69
499.894	3.71
500.245	3.73
500.596	3.74
500.947	3.73
501.298	3.78
501.648	3.77
501.999	3.64
502.35	3.74
502.7	3.88
503.051	3.75
503.401	3.7
503.752	3.87
504.102	3.8
504.452	3.69
504.803	3.72
505.153	3.76
505.503	3.69
505.853	3.87
506.203	3.61
506.553	3.67
506.903	3.82
507.253	3.74
507.603	3.76
507.953	3.77
508.303	3.59
508.652	3.79
509.002	3.71
509.352	3.86
509.701	3.79
510.051	3.65
510.4	3.67
510.75	3.79
511.099	3.64
511.449	3.79
511.798	3.77
512.147	3.72
512.496	3.71
512.846	3.71
513.195	3.73
513.544	3.7
513.893	3.62
514.242	3.74
514.591	3.76
514.939	3.65
515.288	3.51
515.637	3.73
515.986	3.77
516.334	3.67
516.683	3.73
517.032	3.65
517.38	3.56
517.729	3.75
518.077	3.65
518.426	3.6
518.774	3.65
519.122	3.75
519.47	3.79
519.819	3.78
520.167	3.56
520.515	3.67
520.863	3.69
521.211	3.68
521.559	3.72
521.907	3.61
522.255	3.68
522.602	3.85
522.95	3.68
523.298	3.66
523.645	3.73
523.993	3.7
524.341	3.76
524.688	3.74
525.036	3.7
525.383	3.61
525.73	3.92
526.078	3.82
526.425	3.83
526.772	3.69
527.119	3.76
527.466	3.69
527.814	3.69
528.161	3.62
528.508	3.59
528.854	3.63
529.201	3.64
529.548	3.72
529.895	3.62
530.242	3.56
530.588	3.52
530.935	3.46
531.282	3.52
531.628	3.56
531.975	3.49
532.321	3.57
532.667	3.57
533.014	3.6
533.36	3.69
533.706	3.68
534.052	3.73
534.399	3.57
534.745	3.58
535.091	3.56
535.437	3.61
535.783	3.57
536.129	3.61
536.474	3.67
536.82	3.67
537.166	3.61
537.512	3.74
537.857	3.84
538.203	3.7
538.549	3.72
538.894	3.64
539.239	3.59
539.585	3.7
539.93	3.63
540.276	3.85
540.621	3.65
540.966	3.82
541.311	3.78
541.656	3.8
542.001	3.81
542.346	3.78
542.691	3.61
543.036	3.63
543.381	3.62
543.726	3.57
544.071	3.57
544.415	3.62
544.76	3.65
545.105	3.66
545.449	3.64
545.794	3.78
546.138	3.63
546.483	3.64
546.827	3.79
547.171	3.83
547.516	3.73
547.86	3.76
548.204	3.71
548.548	3.77
548.892	3.64
549.236	3.71
549.58	3.62
549.924	3.65
550.268	3.74
550.612	3.74
550.956	3.97
551.3	3.85
551.643	3.68
551.987	3.88
552.33	3.79
552.674	3.8
553.017	3.72
553.361	3.85
553.704	3.83
554.048	3.63
554.391	3.88
554.734	3.83
555.077	3.74
555.42	3.68
555.764	3.66
556.107	3.84
556.45	3.84
556.793	3.65
557.135	3.76
557.478	3.68
557.821	3.84
558.164	4.03
558.507	3.86
558.849	4.07
559.192	3.76
559.534	4.08
559.877	3.69
560.219	3.98
560.562	3.73
560.904	3.68
561.246	3.92
561.589	3.76
561.931	3.86
562.273	3.92
562.615	3.95
562.957	3.91
563.299	3.77
563.641	3.82
563.983	3.79
564.325	3.62
564.667	3.94
565.008	3.7
565.35	3.89
565.692	3.8
566.033	3.97
566.375	3.77
566.716	3.78
567.058	3.8
567.399	3.97
567.741	3.71
568.082	3.8
568.423	3.83
568.764	3.73
569.105	3.98
569.447	3.75
569.788	3.84
570.129	3.78
570.47	3.96
570.811	3.95
571.151	3.8
571.492	3.83
571.833	3.87
572.174	3.91
572.514	3.85
572.855	3.72
573.195	3.95
573.536	3.75
573.876	3.89
574.217	3.75
574.557	3.75
574.898	3.65
575.238	3.64
575.578	3.76
575.918	3.68
576.258	3.9
576.598	3.77
576.938	3.88
577.278	3.8
577.618	3.67
577.958	3.82
578.298	3.71
578.638	3.81
578.977	3.89
579.317	3.8
579.657	3.9
579.996	3.98
580.336	3.92
580.675	3.98
581.014	3.83
581.354	3.96
581.693	3.88
582.032	3.84
582.372	3.88
582.711	4
583.05	4.08
583.389	3.97
583.728	4.17
584.067	3.84
584.406	4.02
584.745	3.99
585.083	3.64
585.422	4
585.761	3.92
586.1	3.85
586.438	3.63
586.777	3.93
587.115	3.84
587.454	4.15
587.792	3.9
588.13	4
588.469	3.83
588.807	3.62
589.145	3.93
589.483	3.74
589.821	3.83
590.159	3.98
590.497	3.92
590.835	4.09
591.173	3.71
591.511	4.13
591.849	4.01
592.187	3.79
592.524	3.81
592.862	3.87
593.2	3.92
593.537	3.99
593.875	3.74
594.212	3.92
594.55	4.07
594.887	4.13
595.224	3.93
595.561	3.64
595.899	3.81
596.236	4.08
596.573	4.09
596.91	4
597.247	3.89
597.584	3.8
597.921	3.94
598.258	3.93
598.594	4.02
598.931	3.77
599.268	3.86
599.604	3.97
599.941	3.93
600.277	3.74
600.614	3.94
600.95	3.81
601.287	3.83
601.623	4.19
601.959	3.92
602.296	4
602.632	3.86
602.968	3.78
603.304	4.01
603.64	4.03
603.976	3.89
604.312	4.26
604.648	4
604.984	3.98
605.319	3.99
605.655	3.95
605.991	4.03
606.326	3.91
606.662	3.84
606.998	3.75
607.333	3.84
607.668	3.88
608.004	3.91
608.339	3.75
608.674	4.03
609.01	3.93
609.345	4.18
609.68	4.11
610.015	3.66
610.35	3.89
610.685	4.23
611.02	4.05
611.355	3.94
611.689	3.85
612.024	3.94
612.359	3.94
612.694	3.99
613.028	4.06
613.363	4.01
613.697	3.93
614.032	3.91
614.366	4.09
614.7	3.9
615.035	3.92
615.369	4.24
615.703	3.87
616.037	3.79
616.371	4.02
616.705	3.97
617.039	4.11
617.373	4.19
617.707	4.36
618.041	3.74
618.375	3.68
618.709	3.91
619.042	4.34
619.376	4.21
619.71	4.18
620.043	4.06
620.377	3.7
620.71	3.83
621.043	4.31
621.377	3.84
621.71	3.84
622.043	4.18
622.376	4.11
622.709	4.25
623.043	4.07
623.376	3.75
623.709	3.87
624.041	4.05
624.374	4.08
624.707	4.04
625.04	4.14
625.373	4.22
625.705	4.23
626.038	4.3
626.37	3.75
626.703	4.19
627.035	3.82
627.368	4.19
627.7	4.48
628.032	4.02
628.365	4.04
628.697	4.04
629.029	3.96
629.361	4.3
629.693	4.12
630.025	4.07
630.357	4.15
630.689	3.91
631.021	4.12
631.353	4.15
631.684	3.85
632.016	4.53
632.348	4.16
632.679	4.15
633.011	3.99
633.342	3.75
633.674	4.47
634.005	4.31
634.336	4.34
634.668	4.03
634.999	4.14
635.33	3.79
635.661	4.8
635.992	4.08
636.323	4.35
636.654	4.12
636.985	4.46
637.316	4.46
637.647	3.92
637.977	3.96
638.308	4.06
638.639	4.35
638.969	4.66
639.3	3.98
639.63	3.89
639.961	4.38
640.291	4.04
640.622	4.31
640.952	4.39
641.282	4.2
641.612	4.48
641.943	4.21
642.273	4.1
642.603	4.15
642.933	4.16
643.263	4.36
643.592	3.63
643.922	4.4
644.252	3.93
644.582	4.3
644.911	4.6
645.241	4.58
645.571	4.66
645.9	3.52
646.23	4.45
646.559	4.21
646.888	4.28
647.218	4.5
647.547	4.05
647.876	4.16
648.205	4.02
648.534	4.01
648.863	4.37
649.192	4.2
649.521	4.12
649.85	4.24
650.179	4.18
650.508	4.45
650.837	4.12
651.165	4.62
651.494	3.78
651.822	4.37
652.151	4.47
652.479	3.8
652.808	4.63
653.136	3.99
653.465	4.78
653.793	4.55
654.121	4.54
654.449	4.45
654.777	4.12
655.105	4.46
655.433	4.93
655.761	4.7
656.089	4.23
656.417	4.01
656.745	4.33
657.073	4.32
657.4	5.34
657.728	4.56
658.056	4.31
658.383	4.73
658.711	4.44
659.038	4.58
659.365	4.23
659.693	4.45
660.02	4.6
660.347	4.16
660.674	4.3
661.001	3.9
661.329	4.65
661.656	4.68
661.982	4.41
662.309	4.63
662.636	4.22
662.963	4.39
663.29	4.19
663.616	4.23
663.943	4.32
664.27	4.48
664.596	4.46
664.923	4.08
665.249	4.27
665.576	4.04
665.902	4.61
666.228	4.43
666.554	4.34
666.881	4.06
667.207	4.8
667.533	4.81
667.859	4.95
668.185	4.64
668.511	4.98
668.837	4.9
669.162	5.33
669.488	4.49
669.814	4.2
670.139	4.46
670.465	4.38
670.791	4.42
671.116	4.59
671.442	4.79
671.767	4.89
672.092	4.8
672.418	4.95
672.743	4.55
673.068	5.12
673.393	4.31
673.718	4.5
674.043	4.44
674.368	4.4
674.693	4.92
675.018	5.64
675.343	4.31
675.667	4.48
675.992	4.31
676.317	4.9
676.641	5.4
676.966	4.57
677.29	4.1
677.615	4.9
677.939	3.86
678.264	4.64
678.588	4.02
678.912	4.66
679.236	4.54
679.56	4.65
679.885	5.1
680.209	5.06
680.532	4.69
680.856	4.64
681.18	4.5
681.504	4.66
681.828	4.69
682.152	4.9
682.475	4.9
682.799	4.46
683.122	4.7
683.446	4.63
683.769	5.02
684.093	5.18
684.416	4.89
684.739	4.52
685.062	3.85
685.386	4.99
685.709	4.8
686.032	5.19
686.355	4.93
686.678	4.97
687.001	4.82
687.324	4.23
687.646	4.74
687.969	4.94
688.292	5.23
688.614	4.93
688.937	4.88
689.26	4.62
689.582	4.53
689.904	4.11
690.227	5.28
690.549	5.45
690.871	4.76
691.194	4.65
691.516	4.83
691.838	5.77
692.16	4.93
692.482	4.6
692.804	5.2
693.126	4.3
