Data from 0263_chest_Reflection__4__142.txt Node

Date: Fri Oct 20 21:44:22 CDT 2023
User: ToomeyLab
Spectrometer: FLMS14357
Trigger mode: 0
Integration Time (sec): 1.000000E-2
Scans to average: 100
Electric dark correction enabled: true
Nonlinearity correction enabled: false
Boxcar width: 0
XAxis mode: Wavelengths
Number of Pixels in Spectrum: 2048
>>>>>Begin Spectral Data<<<<<
189.047	34.95
189.435	34.95
189.823	34.95
190.211	-986.56
190.599	38.11
190.987	-612.3
191.375	39.65
191.763	247.97
192.151	-117.21
192.538	67.83
192.926	-5.98
193.314	33.59
193.702	45.36
194.089	149.47
194.477	-87.27
194.864	217.02
195.252	91.15
195.639	19.88
196.027	-171.1
196.414	48.4
196.801	-204.12
197.189	44.45
197.576	91.5
197.963	240.87
198.351	43.05
198.738	5.48
199.125	20.09
199.512	40.95
199.899	49.45
200.286	-29.77
200.673	-4.03
201.06	29.49
201.447	5.48
201.833	32.31
202.22	54.81
202.607	59.15
202.994	54.22
203.38	26.43
203.767	-4.36
204.154	51.54
204.54	56.11
204.927	21.59
205.313	39.97
205.699	47.37
206.086	48.92
206.472	33.98
206.858	37.36
207.245	14.99
207.631	28.01
208.017	14.85
208.403	30.49
208.789	39.25
209.175	39.9
209.561	19.18
209.947	39.5
210.333	58.16
210.719	27.78
211.105	4.68
211.491	32.98
211.876	69.12
212.262	11.5
212.648	28.23
213.034	-2.01
213.419	22.18
213.805	22.67
214.19	20.58
214.576	21.98
214.961	43.42
215.346	44.21
215.732	21.84
216.117	-12.39
216.502	8.84
216.888	5.9
217.273	22.06
217.658	-3.76
218.043	-7.75
218.428	8.64
218.813	23.44
219.198	14.35
219.583	-19.72
219.968	-5.29
220.353	30.72
220.738	16.19
221.122	6.43
221.507	10.73
221.892	14.58
222.276	15.93
222.661	22.5
223.046	11.56
223.43	0.79
223.815	13.95
224.199	17.09
224.583	-1.52
224.968	9.66
225.352	4.63
225.736	9.82
226.121	15.18
226.505	0.21
226.889	4.95
227.273	8.46
227.657	6.38
228.041	6.39
228.425	3.42
228.809	6.1
229.193	7.15
229.577	5.11
229.961	3.82
230.344	3.47
230.728	3.34
231.112	4.45
231.495	3.02
231.879	3.56
232.263	4.24
232.646	1.76
233.03	2.18
233.413	3.07
233.797	4.25
234.18	2.11
234.563	5.49
234.946	6.7
235.33	5.29
235.713	4.5
236.096	3.4
236.479	4.28
236.862	4.03
237.245	3.27
237.628	4.08
238.011	5.07
238.394	4.73
238.777	6.74
239.16	2.96
239.543	6.65
239.925	5.53
240.308	5.16
240.691	3.68
241.073	6.89
241.456	5.28
241.838	4.07
242.221	5.12
242.603	4.74
242.986	4.24
243.368	4.28
243.75	3.77
244.133	3.4
244.515	3.17
244.897	3.21
245.279	4.07
245.661	3.37
246.043	3.65
246.425	4.51
246.807	3.55
247.189	3.35
247.571	3.6
247.953	3.91
248.335	3.66
248.717	3.49
249.098	3.33
249.48	3.41
249.862	3.61
250.243	3.84
250.625	3.83
251.006	4.09
251.388	3.74
251.769	4.01
252.151	3.92
252.532	4.37
252.913	3.25
253.295	2.43
253.676	4.02
254.057	3.58
254.438	3.81
254.819	3.52
255.2	3.56
255.581	4.15
255.962	3.3
256.343	3.41
256.724	3.59
257.105	4.36
257.486	3.86
257.867	4.01
258.247	3.42
258.628	3.17
259.009	3.1
259.389	3.4
259.77	3.65
260.15	3.93
260.531	3.57
260.911	3.74
261.292	3.35
261.672	3.44
262.052	3.46
262.432	3.59
262.813	3.57
263.193	3.23
263.573	3.59
263.953	3.46
264.333	4.15
264.713	3.78
265.093	3.71
265.473	4.15
265.853	3.69
266.233	3.96
266.612	4.23
266.992	3.78
267.372	4.17
267.752	3.9
268.131	3.69
268.511	3.94
268.89	3.51
269.27	3.24
269.649	3.07
270.029	3.14
270.408	3.6
270.787	3.56
271.167	2.82
271.546	3.91
271.925	4.07
272.304	3.58
272.683	3.73
273.062	3
273.441	3.63
273.82	3.55
274.199	3.45
274.578	3.49
274.957	3.44
275.336	3.25
275.715	3.53
276.093	2.93
276.472	3.53
276.851	3.81
277.229	3.64
277.608	3.16
277.986	3.23
278.365	3.54
278.743	3.13
279.122	3.6
279.5	2.91
279.878	2.95
280.257	3.35
280.635	3.73
281.013	3.6
281.391	3.78
281.769	3.31
282.147	3.35
282.525	2.77
282.903	3.34
283.281	3.39
283.659	3.36
284.037	3.15
284.415	3.28
284.792	3
285.17	3.39
285.548	3.15
285.925	3.19
286.303	3.05
286.68	3.08
287.058	3.59
287.435	3.16
287.813	2.8
288.19	3.37
288.567	3.32
288.945	3.75
289.322	4.03
289.699	2.65
290.076	4.02
290.453	3.28
290.83	3.42
291.207	3.92
291.584	3.04
291.961	3.34
292.338	3.29
292.715	3.22
293.092	3.43
293.469	3.57
293.845	3.47
294.222	3.54
294.599	3.34
294.975	4.63
295.352	4.09
295.728	3.71
296.105	3.67
296.481	3.77
296.858	3.58
297.234	3.84
297.61	3.52
297.986	3.68
298.363	3.85
298.739	3.73
299.115	3.59
299.491	3.63
299.867	3.69
300.243	3.91
300.619	3.97
300.995	3.47
301.371	3.93
301.746	3.75
302.122	3.9
302.498	3.7
302.874	4.02
303.249	4
303.625	4.02
304	4.72
304.376	3.76
304.751	3.96
305.127	3.86
305.502	4.52
305.878	4.24
306.253	4.04
306.628	4.36
307.003	4.31
307.378	4.28
307.754	4.31
308.129	4.71
308.504	4.78
308.879	4.56
309.254	4.81
309.629	3.86
310.003	3.91
310.378	4.4
310.753	4.51
311.128	5.1
311.502	4.42
311.877	4.72
312.252	4.57
312.626	4.5
313.001	4.69
313.375	4.42
313.75	4.45
314.124	4.16
314.498	4.5
314.873	4.11
315.247	4.26
315.621	4.59
315.995	4.92
316.369	4.22
316.743	4.87
317.117	5.24
317.491	4.21
317.865	4.72
318.239	4.86
318.613	4.46
318.987	4.77
319.361	3.81
319.734	4.27
320.108	4.26
320.482	5.12
320.855	4.87
321.229	5.46
321.602	4.74
321.976	4.6
322.349	5.4
322.723	4.41
323.096	5.28
323.469	5.07
323.843	5.12
324.216	5.22
324.589	4.97
324.962	5.39
325.335	4.48
325.708	5.15
326.081	4.91
326.454	4.89
326.827	5.09
327.2	5.18
327.573	5.1
327.945	4.74
328.318	4.92
328.691	5.31
329.063	5.54
329.436	4.68
329.809	5.33
330.181	4.97
330.553	4.73
330.926	5.18
331.298	5.3
331.671	4.57
332.043	4.69
332.415	5.31
332.787	5.25
333.159	4.85
333.532	5
333.904	5.24
334.276	4.94
334.648	5.02
335.02	5.71
335.391	5.01
335.763	5.39
336.135	5.22
336.507	5.25
336.879	4.8
337.25	5.22
337.622	5.17
337.993	5.71
338.365	5.32
338.736	5.42
339.108	5.4
339.479	5
339.851	5.79
340.222	5.03
340.593	4.9
340.964	5.21
341.336	5.09
341.707	5.22
342.078	5.61
342.449	5.12
342.82	5.29
343.191	5.07
343.562	5.15
343.933	4.98
344.303	4.95
344.674	5.81
345.045	5.62
345.416	5.62
345.786	5.03
346.157	4.86
346.527	5.51
346.898	5.3
347.268	5
347.639	5.74
348.009	4.76
348.38	5.19
348.75	5.57
349.12	5.42
349.49	5.23
349.861	5.55
350.231	4.95
350.601	5.32
350.971	5.49
351.341	5.21
351.711	5.66
352.081	5.38
352.45	5.35
352.82	5.53
353.19	5.81
353.56	5.64
353.929	5.13
354.299	5.72
354.669	5.2
355.038	5.23
355.408	5.37
355.777	5
356.147	5.37
356.516	5.28
356.885	5.36
357.254	5.19
357.624	5.34
357.993	5.26
358.362	5.6
358.731	5.07
359.1	5.05
359.469	5.33
359.838	5.34
360.207	5.35
360.576	5.67
360.945	5.21
361.314	5.27
361.682	5.19
362.051	5.1
362.42	5.23
362.788	5.4
363.157	5.44
363.525	5.16
363.894	5.27
364.262	5.2
364.631	5.42
364.999	5.55
365.367	5.31
365.735	5.5
366.104	5.29
366.472	5.3
366.84	5.44
367.208	5.35
367.576	5.6
367.944	5.33
368.312	5.54
368.68	5.38
369.048	5.48
369.416	5.73
369.783	5.67
370.151	5.63
370.519	5.35
370.886	5.47
371.254	5.63
371.621	6.11
371.989	5.46
372.356	5.75
372.724	5.42
373.091	5.39
373.458	5.46
373.826	5.62
374.193	5.43
374.56	5.43
374.927	5.57
375.294	5.7
375.661	5.75
376.028	5.72
376.395	5.53
376.762	5.49
377.129	5.52
377.496	5.69
377.863	5.78
378.229	5.51
378.596	5.74
378.963	5.87
379.329	5.62
379.696	5.61
380.062	5.47
380.429	5.43
380.795	5.45
381.161	5.58
381.528	6.1
381.894	5.42
382.26	5.69
382.626	6.01
382.993	5.48
383.359	5.49
383.725	5.75
384.091	5.59
384.457	5.71
384.823	5.94
385.188	5.89
385.554	5.94
385.92	5.78
386.286	5.94
386.651	5.69
387.017	5.43
387.383	5.68
387.748	5.56
388.114	5.59
388.479	5.67
388.845	5.9
389.21	5.6
389.575	5.36
389.94	5.81
390.306	5.6
390.671	5.28
391.036	5.75
391.401	5.68
391.766	5.54
392.131	5.78
392.496	5.65
392.861	5.75
393.226	5.71
393.591	5.64
393.956	5.75
394.32	5.82
394.685	5.7
395.05	6.11
395.414	5.8
395.779	5.5
396.143	5.62
396.508	5.65
396.872	5.73
397.236	5.67
397.601	5.61
397.965	5.64
398.329	5.64
398.694	6.02
399.058	5.42
399.422	5.78
399.786	5.7
400.15	5.76
400.514	5.49
400.878	5.93
401.242	6.03
401.605	5.75
401.969	5.5
402.333	5.9
402.697	5.96
403.06	5.77
403.424	5.86
403.787	5.85
404.151	5.88
404.514	5.79
404.878	5.83
405.241	5.87
405.604	5.68
405.968	5.96
406.331	5.89
406.694	5.67
407.057	5.75
407.42	6.11
407.783	5.93
408.146	5.81
408.509	5.78
408.872	5.86
409.235	5.78
409.598	5.88
409.961	5.88
410.323	5.9
410.686	5.64
411.049	5.91
411.411	5.8
411.774	5.91
412.136	5.8
412.499	6.09
412.861	5.98
413.223	5.99
413.586	5.91
413.948	6.08
414.31	6.01
414.672	5.84
415.035	5.71
415.397	6
415.759	6.06
416.121	5.76
416.483	6.02
416.845	5.95
417.206	5.93
417.568	6.09
417.93	6.15
418.292	5.75
418.653	6.02
419.015	5.96
419.377	5.81
419.738	5.66
420.1	5.77
420.461	5.84
420.822	5.72
421.184	6.03
421.545	5.92
421.906	5.8
422.267	5.81
422.629	5.8
422.99	5.8
423.351	5.82
423.712	5.75
424.073	5.95
424.434	5.71
424.795	5.75
425.155	5.91
425.516	5.72
425.877	5.9
426.238	5.73
426.598	5.79
426.959	5.8
427.32	5.82
427.68	5.96
428.041	5.91
428.401	6.06
428.761	5.89
429.122	5.97
429.482	5.93
429.842	6.03
430.202	6.08
430.563	5.94
430.923	6.2
431.283	6.03
431.643	6.11
432.003	6.33
432.363	5.96
432.722	6.12
433.082	6.2
433.442	6.1
433.802	6.21
434.161	5.89
434.521	6.06
434.881	6.11
435.24	6.02
435.6	5.87
435.959	6.02
436.319	5.97
436.678	6.04
437.037	5.98
437.396	6.05
437.756	6.07
438.115	5.78
438.474	6.19
438.833	6.13
439.192	6.1
439.551	6
439.91	6.07
440.269	6.2
440.628	6.08
440.987	6.23
441.345	5.89
441.704	6.14
442.063	6.11
442.421	6.07
442.78	6.07
443.138	6.15
443.497	5.99
443.855	6.12
444.214	6.15
444.572	6.04
444.93	6.19
445.288	6.15
445.647	6.37
446.005	5.97
446.363	6.15
446.721	6.25
447.079	6.24
447.437	6.05
447.795	6.02
448.153	5.92
448.51	6.12
448.868	6.05
449.226	6.04
449.584	5.98
449.941	5.98
450.299	6.16
450.656	6.17
451.014	6.11
451.371	6.26
451.729	6.12
452.086	6.05
452.443	6.33
452.801	6.28
453.158	6.28
453.515	6.12
453.872	6.18
454.229	6.34
454.586	6.14
454.943	6.28
455.3	6.1
455.657	6.24
456.014	6.16
456.371	6.3
456.727	6.31
457.084	6.35
457.441	6.34
457.797	6.34
458.154	6.43
458.51	6.12
458.867	6.2
459.223	6.45
459.58	6.35
459.936	6.31
460.292	6.3
460.648	6.25
461.005	6.11
461.361	6.3
461.717	6.08
462.073	6.32
462.429	6.17
462.785	6.24
463.141	6.33
463.496	6.45
463.852	6.29
464.208	6.4
464.564	6.39
464.919	6.32
465.275	6.62
465.631	6.6
465.986	6.43
466.342	6.57
466.697	6.3
467.052	6.23
467.408	6.53
467.763	6.6
468.118	6.58
468.473	6.39
468.829	6.34
469.184	6.35
469.539	6.42
469.894	6.36
470.249	6.41
470.603	6.55
470.958	6.48
471.313	6.71
471.668	6.52
472.023	6.56
472.377	6.52
472.732	6.44
473.086	6.46
473.441	6.65
473.795	6.56
474.15	6.51
474.504	6.33
474.859	6.67
475.213	6.62
475.567	6.51
475.921	6.53
476.275	6.47
476.63	6.59
476.984	6.69
477.338	6.61
477.692	6.53
478.045	6.65
478.399	6.54
478.753	6.66
479.107	6.57
479.461	6.6
479.814	6.71
480.168	6.61
480.521	6.78
480.875	6.56
481.228	6.73
481.582	6.78
481.935	6.54
482.289	6.6
482.642	6.54
482.995	6.56
483.348	6.55
483.701	6.57
484.055	6.59
484.408	6.5
484.761	6.48
485.114	6.41
485.466	6.32
485.819	6.26
486.172	6.14
486.525	6.19
486.878	6.3
487.23	6.37
487.583	6.42
487.936	6.42
488.288	6.46
488.641	6.51
488.993	6.44
489.345	6.35
489.698	6.37
490.05	6.4
490.402	6.4
490.754	6.46
491.107	6.48
491.459	6.61
491.811	6.59
492.163	6.64
492.515	6.65
492.866	6.69
493.218	6.55
493.57	6.5
493.922	6.45
494.274	6.52
494.625	6.5
494.977	6.56
495.328	6.72
495.68	6.7
496.031	6.65
496.383	6.85
496.734	6.82
497.086	6.88
497.437	6.86
497.788	6.69
498.139	6.94
498.49	6.94
498.842	6.74
499.193	6.78
499.544	6.87
499.894	6.82
500.245	6.73
500.596	6.89
500.947	6.85
501.298	6.75
501.648	6.96
501.999	6.94
502.35	6.9
502.7	7.21
503.051	6.89
503.401	6.94
503.752	7
504.102	7.02
504.452	6.87
504.803	6.92
505.153	7.07
505.503	6.92
505.853	7.09
506.203	6.95
506.553	6.97
506.903	7
507.253	7.03
507.603	7.03
507.953	7.08
508.303	7.07
508.652	7.28
509.002	7.03
509.352	7.1
509.701	7.11
510.051	6.97
510.4	7.15
510.75	7.08
511.099	7.12
511.449	7.05
511.798	7.12
512.147	7.14
512.496	7.23
512.846	7
513.195	7.1
513.544	7.26
513.893	7.1
514.242	7.08
514.591	7.2
514.939	7.2
515.288	7
515.637	7.19
515.986	7.2
516.334	7.15
516.683	7.16
517.032	7.22
517.38	7.2
517.729	7.19
518.077	7.29
518.426	7.27
518.774	7.11
519.122	7.2
519.47	7.19
519.819	7.17
520.167	7.23
520.515	7.17
520.863	7.17
521.211	7.19
521.559	7.24
521.907	7.21
522.255	7.37
522.602	7.44
522.95	7.27
523.298	7.41
523.645	7.43
523.993	7.33
524.341	7.34
524.688	7.26
525.036	7.52
525.383	7.37
525.73	7.68
526.078	7.42
526.425	7.46
526.772	7.39
527.119	7.42
527.466	7.37
527.814	7.41
528.161	7.38
528.508	7.31
528.854	7.46
529.201	7.39
529.548	7.46
529.895	7.37
530.242	7.35
530.588	7.21
530.935	7.13
531.282	7.26
531.628	7.34
531.975	7.29
532.321	7.39
532.667	7.44
533.014	7.43
533.36	7.66
533.706	7.61
534.052	7.66
534.399	7.45
534.745	7.45
535.091	7.47
535.437	7.54
535.783	7.45
536.129	7.59
536.474	7.61
536.82	7.67
537.166	7.6
537.512	7.74
537.857	7.85
538.203	7.69
538.549	7.84
538.894	7.73
539.239	7.65
539.585	7.74
539.93	7.83
540.276	7.99
540.621	7.9
540.966	7.97
541.311	7.91
541.656	7.89
542.001	7.95
542.346	8.01
542.691	7.78
543.036	7.85
543.381	7.69
543.726	7.71
544.071	7.76
544.415	7.73
544.76	7.85
545.105	7.89
545.449	7.84
545.794	8.01
546.138	7.93
546.483	8
546.827	8.09
547.171	8.11
547.516	8.06
547.86	8.18
548.204	8.08
548.548	8.29
548.892	8.11
549.236	8.21
549.58	8.02
549.924	8.16
550.268	8.31
550.612	8.3
550.956	8.5
551.3	8.3
551.643	8.27
551.987	8.54
552.33	8.38
552.674	8.37
553.017	8.39
553.361	8.54
553.704	8.58
554.048	8.48
554.391	8.51
554.734	8.53
555.077	8.48
555.42	8.48
555.764	8.5
556.107	8.77
556.45	8.6
556.793	8.54
557.135	8.66
557.478	8.63
557.821	8.8
558.164	8.81
558.507	8.79
558.849	8.96
559.192	8.83
559.534	8.96
559.877	8.74
560.219	8.99
560.562	9.08
560.904	8.7
561.246	8.94
561.589	8.69
561.931	8.96
562.273	9.01
562.615	9.03
562.957	9.13
563.299	8.96
563.641	9.02
563.983	8.85
564.325	9.01
564.667	8.89
565.008	8.9
565.35	8.99
565.692	9.17
566.033	9.14
566.375	9.19
566.716	9.15
567.058	9.2
567.399	9.17
567.741	9.14
568.082	9.16
568.423	9.31
568.764	9.18
569.105	9.31
569.447	9.24
569.788	9.32
570.129	9.32
570.47	9.41
570.811	9.41
571.151	9.53
571.492	9.38
571.833	9.54
572.174	9.55
572.514	9.47
572.855	9.28
573.195	9.53
573.536	9.31
573.876	9.69
574.217	9.48
574.557	9.53
574.898	9.41
575.238	9.56
575.578	9.67
575.918	9.55
576.258	9.69
576.598	9.59
576.938	9.72
577.278	9.69
577.618	9.57
577.958	9.67
578.298	9.77
578.638	9.7
578.977	9.76
579.317	9.79
579.657	9.8
579.996	9.85
580.336	9.9
580.675	10.13
581.014	9.74
581.354	9.82
581.693	10.06
582.032	10
582.372	10.06
582.711	10.25
583.05	10.4
583.389	10.04
583.728	10.26
584.067	10.27
584.406	10.28
584.745	10.01
585.083	10.43
585.422	10.42
585.761	10.27
586.1	10.44
586.438	10.05
586.777	10.52
587.115	10.31
587.454	10.27
587.792	10.32
588.13	10.77
588.469	10.46
588.807	10.14
589.145	10.54
589.483	10.36
589.821	10.83
590.159	10.6
590.497	10.53
590.835	10.48
591.173	10.54
591.511	10.62
591.849	10.55
592.187	10.53
592.524	10.56
592.862	10.6
593.2	10.76
593.537	10.54
593.875	10.8
594.212	11.06
594.55	10.69
594.887	10.9
595.224	10.77
595.561	10.94
595.899	11.04
596.236	11.07
596.573	10.72
596.91	10.89
597.247	11.16
597.584	10.72
597.921	11.17
598.258	11.09
598.594	11.16
598.931	10.77
599.268	10.93
599.604	10.97
599.941	10.94
600.277	11.1
600.614	11.09
600.95	11.27
601.287	11.3
601.623	11.16
601.959	11.02
602.296	11.24
602.632	11.35
602.968	11.44
603.304	11.53
603.64	11.28
603.976	11.37
604.312	11.85
604.648	11.53
604.984	11.75
605.319	11.49
605.655	11.5
605.991	11.49
606.326	11.46
606.662	11.45
606.998	11.59
607.333	11.34
607.668	11.37
608.004	11.69
608.339	11.59
608.674	11.76
609.01	11.8
609.345	12.06
609.68	11.73
610.015	11.81
610.35	11.96
610.685	11.99
611.02	12.05
611.355	11.61
611.689	11.76
612.024	12.04
612.359	12.07
612.694	12.18
613.028	11.97
613.363	12.06
613.697	11.98
614.032	12.13
614.366	12.23
614.7	12.16
615.035	12.21
615.369	12.35
615.703	11.93
616.037	12.58
616.371	12.32
616.705	12.5
617.039	12.47
617.373	12.26
617.707	12.64
618.041	12.45
618.375	12.32
618.709	12.7
619.042	12.78
619.376	12.83
619.71	12.87
620.043	12.94
620.377	12.71
620.71	12.59
621.043	12.97
621.377	12.58
621.71	12.65
622.043	12.7
622.376	13.11
622.709	12.83
623.043	12.78
623.376	12.46
623.709	12.8
624.041	12.65
624.374	13.08
624.707	12.66
625.04	13.13
625.373	13
625.705	12.96
626.038	13.16
626.37	12.91
626.703	12.99
627.035	13.01
627.368	13.23
627.7	13.14
628.032	13.04
628.365	13.18
628.697	13.33
629.029	13.16
629.361	13.38
629.693	13.45
630.025	13.16
630.357	13.47
630.689	13.17
631.021	13.76
631.353	13.42
631.684	13.63
632.016	13.54
632.348	13.51
632.679	13.44
633.011	13.42
633.342	13.37
633.674	13.79
634.005	13.65
634.336	14.14
634.668	13.47
634.999	13.71
635.33	13.55
635.661	13.97
635.992	13.89
636.323	13.93
636.654	13.99
636.985	13.78
637.316	14.09
637.647	13.83
637.977	13.66
638.308	14.01
638.639	14.24
638.969	13.93
639.3	13.58
639.63	14.09
639.961	14.29
640.291	13.75
640.622	14.12
640.952	13.96
641.282	14.28
641.612	13.85
641.943	14.29
642.273	13.87
642.603	14.16
642.933	14.05
643.263	14.62
643.592	14.77
643.922	14.94
644.252	14.35
644.582	14.37
644.911	14.68
645.241	14.86
645.571	15.16
645.9	14.52
646.23	14.94
646.559	14.76
646.888	14.81
647.218	14.81
647.547	14.68
647.876	14.78
648.205	14.59
648.534	14.7
648.863	14.67
649.192	14.74
649.521	14.85
649.85	14.9
650.179	14.94
650.508	15.18
650.837	15.72
651.165	14.79
651.494	14.31
651.822	15.08
652.151	15.29
652.479	15.13
652.808	15.01
653.136	15.1
653.465	15.36
653.793	15.32
654.121	15.54
654.449	14.93
654.777	15.13
655.105	15.87
655.433	15.82
655.761	15.49
656.089	15.35
656.417	15.26
656.745	15.28
657.073	15.64
657.4	16.53
657.728	16.04
658.056	15.42
658.383	15.79
658.711	15.62
659.038	15.51
659.365	15.88
659.693	15.99
660.02	15.77
660.347	15.88
660.674	15.84
661.001	16
661.329	15.83
661.656	16.02
661.982	15.61
662.309	15.76
662.636	15.82
662.963	16.23
663.29	15.89
663.616	16.32
663.943	15.93
664.27	15.86
664.596	16.15
664.923	16.1
665.249	16.09
665.576	16.11
665.902	16.05
666.228	16.86
666.554	16.74
666.881	15.53
667.207	16.43
667.533	16.19
667.859	16.68
668.185	16.39
668.511	16.82
668.837	16.29
669.162	16.62
669.488	16.46
669.814	16.57
670.139	16.36
670.465	16.3
670.791	17.05
671.116	16.72
671.442	16.69
671.767	16.62
672.092	17.08
672.418	16.73
672.743	16.84
673.068	17.77
673.393	16.62
673.718	16.35
674.043	17.04
674.368	16.89
674.693	17.23
675.018	17.44
675.343	17.44
675.667	17.04
675.992	17.26
676.317	17.49
676.641	17.5
676.966	17.36
677.29	17.18
677.615	17.77
677.939	16.66
678.264	17.38
678.588	17.08
678.912	18.53
679.236	17.62
679.56	17.44
679.885	17.46
680.209	17.73
680.532	17.58
680.856	17.18
681.18	17.17
681.504	17.92
681.828	18.11
682.152	17.44
682.475	17.18
682.799	17.87
683.122	17.69
683.446	17.78
683.769	17.84
684.093	17.9
684.416	17.73
684.739	17.77
685.062	18.03
685.386	17.71
685.709	17.68
686.032	18.09
