Data from 0263_forehead_Reflection__1__149.txt Node

Date: Fri Oct 20 21:47:30 CDT 2023
User: ToomeyLab
Spectrometer: FLMS14357
Trigger mode: 0
Integration Time (sec): 1.000000E-2
Scans to average: 100
Electric dark correction enabled: true
Nonlinearity correction enabled: false
Boxcar width: 0
XAxis mode: Wavelengths
Number of Pixels in Spectrum: 2048
>>>>>Begin Spectral Data<<<<<
189.047	-23.61
189.435	-23.61
189.823	-23.61
190.211	574.19
190.599	23.93
190.987	1740.98
191.375	176.39
191.763	193
192.151	-133.69
192.538	11.53
192.926	-7.79
193.314	46.83
193.702	56.28
194.089	148.52
194.477	-528.15
194.864	-3.51
195.252	38.54
195.639	-18.62
196.027	296.2
196.414	126.02
196.801	-2524.71
197.189	-40.05
197.576	-5.65
197.963	96.54
198.351	67.47
198.738	8.85
199.125	43.9
199.512	82.85
199.899	38.97
200.286	37
200.673	36.98
201.06	36.25
201.447	6.79
201.833	52.1
202.22	32.37
202.607	62.04
202.994	79.48
203.38	42.58
203.767	25.12
204.154	47.61
204.54	46.19
204.927	27.12
205.313	41.48
205.699	48.35
206.086	53.39
206.472	45.43
206.858	58.11
207.245	16.45
207.631	68.83
208.017	40.75
208.403	22.4
208.789	65.45
209.175	38.57
209.561	34.93
209.947	17.07
210.333	40.28
210.719	26.61
211.105	20.86
211.491	27.36
211.876	49.54
212.262	26.47
212.648	48.17
213.034	17.7
213.419	7.36
213.805	41.25
214.19	37.31
214.576	23.16
214.961	22.48
215.346	45.78
215.732	0.12
216.117	-14.03
216.502	31.84
216.888	53.46
217.273	9.96
217.658	28.28
218.043	21.82
218.428	11.03
218.813	-1.59
219.198	12.08
219.583	2.81
219.968	3.03
220.353	24.52
220.738	19.15
221.122	16.5
221.507	35.99
221.892	26.32
222.276	22.37
222.661	22.73
223.046	15.81
223.43	15.69
223.815	30.63
224.199	24.16
224.583	0.78
224.968	8.85
225.352	10.59
225.736	9.49
226.121	14.49
226.505	9.31
226.889	15.65
227.273	9.15
227.657	7.4
228.041	7.58
228.425	3.41
228.809	7.99
229.193	7.24
229.577	7.16
229.961	3.62
230.344	4.26
230.728	2.48
231.112	4.63
231.495	4.11
231.879	4.85
232.263	5.36
232.646	4.08
233.03	2.88
233.413	3.22
233.797	4.02
234.18	3.56
234.563	7.25
234.946	5.98
235.33	3.68
235.713	5.26
236.096	5.6
236.479	5.14
236.862	3.39
237.245	4.66
237.628	5.33
238.011	5.37
238.394	6.12
238.777	6.07
239.16	4.22
239.543	7.2
239.925	8.47
240.308	4.12
240.691	5.18
241.073	5.79
241.456	5.04
241.838	4.15
242.221	5.88
242.603	4.27
242.986	4.71
243.368	5.26
243.75	5.02
244.133	3.84
244.515	3.78
244.897	4.19
245.279	4.34
245.661	4.76
246.043	3.45
246.425	5.16
246.807	3.82
247.189	3.76
247.571	3.76
247.953	4.59
248.335	4.26
248.717	3.76
249.098	3.75
249.48	3.77
249.862	4.09
250.243	4.18
250.625	3.82
251.006	4.52
251.388	4.14
251.769	4.76
252.151	4.19
252.532	4.87
252.913	4.22
253.295	3.2
253.676	4.18
254.057	4.33
254.438	4.18
254.819	4.38
255.2	4.27
255.581	4.1
255.962	4.58
256.343	4.97
256.724	3.5
257.105	4.76
257.486	4.32
257.867	5.12
258.247	4.78
258.628	4.24
259.009	4.75
259.389	4.34
259.77	3.6
260.15	4.24
260.531	4.34
260.911	4.16
261.292	3.98
261.672	3.95
262.052	3.99
262.432	3.97
262.813	3.67
263.193	3.99
263.573	3.49
263.953	4.79
264.333	4.09
264.713	4.85
265.093	4.21
265.473	4.59
265.853	3.97
266.233	4.19
266.612	4.12
266.992	3.69
267.372	4.58
267.752	4.18
268.131	4.3
268.511	4.1
268.89	3.88
269.27	3.64
269.649	3.72
270.029	4.2
270.408	4.18
270.787	4.4
271.167	4.19
271.546	4.58
271.925	4.51
272.304	4.15
272.683	4.36
273.062	4.04
273.441	4.12
273.82	3.97
274.199	3.85
274.578	4.15
274.957	3.97
275.336	3.85
275.715	4.09
276.093	3.68
276.472	3.82
276.851	3.94
277.229	4.03
277.608	3.94
277.986	3.75
278.365	4.22
278.743	3.78
279.122	3.73
279.5	4.04
279.878	3.61
280.257	4.03
280.635	4.14
281.013	3.54
281.391	4.56
281.769	3.65
282.147	4.07
282.525	4.12
282.903	4.03
283.281	3.88
283.659	4.07
284.037	3.8
284.415	3.52
284.792	4.26
285.17	3.71
285.548	3.55
285.925	3.36
286.303	3.47
286.68	3.93
287.058	4.42
287.435	3.69
287.813	3.61
288.19	3.75
288.567	3.48
288.945	4.22
289.322	3.91
289.699	3.87
290.076	4.92
290.453	4.27
290.83	4
291.207	4.2
291.584	4.12
291.961	3.95
292.338	3.86
292.715	4.11
293.092	4.24
293.469	4.38
293.845	3.94
294.222	3.99
294.599	4.25
294.975	4.71
295.352	4.35
295.728	4.64
296.105	4.29
296.481	4.52
296.858	4.27
297.234	4.76
297.61	4.04
297.986	4.2
298.363	4.43
298.739	4.35
299.115	4.19
299.491	4.56
299.867	4.31
300.243	4.35
300.619	4.77
300.995	4.3
301.371	4.74
301.746	4.54
302.122	5.16
302.498	4.48
302.874	4.62
303.249	4.88
303.625	5.07
304	5.21
304.376	4.92
304.751	4.44
305.127	4.65
305.502	5.14
305.878	4.98
306.253	4.85
306.628	5.03
307.003	5.17
307.378	4.94
307.754	5.25
308.129	5.4
308.504	6.05
308.879	5.58
309.254	5.65
309.629	5.17
310.003	4.96
310.378	6.05
310.753	5.55
311.128	5.76
311.502	5.59
311.877	6.16
312.252	5.55
312.626	5.66
313.001	5.86
313.375	5.49
313.75	5.99
314.124	6.04
314.498	6.14
314.873	5.72
315.247	6.24
315.621	6.35
315.995	6.23
316.369	5.93
316.743	6.49
317.117	6.39
317.491	6.12
317.865	6.43
318.239	7.06
318.613	6.71
318.987	6.26
319.361	5.83
319.734	6.56
320.108	6.39
320.482	7.4
320.855	7.13
321.229	7.25
321.602	7.06
321.976	6.9
322.349	7.21
322.723	6.25
323.096	7.11
323.469	7.27
323.843	7.38
324.216	7.47
324.589	7.92
324.962	7.51
325.335	7.76
325.708	7.31
326.081	7.73
326.454	7.82
326.827	7.84
327.2	7.54
327.573	7.78
327.945	7.44
328.318	7.52
328.691	7.74
329.063	8.29
329.436	7.85
329.809	8.24
330.181	8.38
330.553	9.02
330.926	8.19
331.298	8.14
331.671	7.62
332.043	8.1
332.415	8.4
332.787	8.42
333.159	8.1
333.532	8.11
333.904	9.23
334.276	7.77
334.648	8.73
335.02	8.76
335.391	8.27
335.763	8.76
336.135	8.95
336.507	8.78
336.879	8.62
337.25	8.86
337.622	9.1
337.993	9.56
338.365	8.64
338.736	8.94
339.108	9.53
339.479	8.94
339.851	8.59
340.222	9.06
340.593	8.59
340.964	8.51
341.336	9.18
341.707	9.16
342.078	8.95
342.449	8.7
342.82	9.39
343.191	9.08
343.562	9.1
343.933	9.27
344.303	9.62
344.674	9.36
345.045	9.74
345.416	9.9
345.786	9.31
346.157	9.71
346.527	9.79
346.898	9.7
347.268	9.27
347.639	9.83
348.009	9.72
348.38	9.75
348.75	9.85
349.12	9.86
349.49	9.67
349.861	10.41
350.231	9.7
350.601	10.04
350.971	10.34
351.341	10.27
351.711	10.67
352.081	9.88
352.45	10.18
352.82	10.4
353.19	10.55
353.56	10.77
353.929	10.08
354.299	10.52
354.669	10.09
355.038	10.7
355.408	10.73
355.777	10.39
356.147	10.35
356.516	10.1
356.885	10.38
357.254	10.71
357.624	10.56
357.993	10.43
358.362	10.52
358.731	10.65
359.1	10.35
359.469	10.5
359.838	10.6
360.207	11.12
360.576	10.97
360.945	10.61
361.314	10.98
361.682	11.2
362.051	10.95
362.42	10.62
362.788	10.84
363.157	11.42
363.525	10.78
363.894	10.97
364.262	10.93
364.631	11.08
364.999	11.26
365.367	11.41
365.735	11.41
366.104	11.42
366.472	11.44
366.84	11.61
367.208	11.45
367.576	11.62
367.944	11.87
368.312	11.34
368.68	11.81
369.048	11.75
369.416	11.88
369.783	12.41
370.151	11.96
370.519	11.89
370.886	12.5
371.254	12.12
371.621	12.43
371.989	11.92
372.356	12.27
372.724	12.16
373.091	12.33
373.458	12.19
373.826	12.05
374.193	12.09
374.56	12.33
374.927	12.35
375.294	12.61
375.661	12.74
376.028	12.65
376.395	12.7
376.762	12.66
377.129	12.55
377.496	12.94
377.863	12.87
378.229	12.76
378.596	12.87
378.963	13.28
379.329	13.04
379.696	12.77
380.062	12.85
380.429	12.87
380.795	12.96
381.161	13.25
381.528	13.1
381.894	13.21
382.26	13.32
382.626	13.51
382.993	13.19
383.359	13.35
383.725	13.48
384.091	13.5
384.457	13.16
384.823	13.43
385.188	13.66
385.554	13.56
385.92	13.28
386.286	13.88
386.651	13.5
387.017	13.92
387.383	13.95
387.748	13.51
388.114	13.7
388.479	13.84
388.845	14.02
389.21	14
389.575	13.68
389.94	13.79
390.306	13.86
390.671	14.03
391.036	14.22
391.401	14.12
391.766	14.1
392.131	14.12
392.496	14.06
392.861	14.26
393.226	14.27
393.591	14.08
393.956	14.22
394.32	14.3
394.685	14.26
395.05	14.67
395.414	14.47
395.779	14.21
396.143	14.11
396.508	14.38
396.872	14.3
397.236	14.6
397.601	14.59
397.965	14.49
398.329	14.77
398.694	14.66
399.058	14.69
399.422	14.95
399.786	14.67
400.15	14.81
400.514	14.89
400.878	15.24
401.242	15.23
401.605	15.13
401.969	14.85
402.333	15
402.697	15.22
403.06	14.98
403.424	15.24
403.787	15.23
404.151	15.53
404.514	15.48
404.878	15.43
405.241	15.42
405.604	15.4
405.968	15.48
406.331	15.48
406.694	15.49
407.057	15.61
407.42	15.85
407.783	15.72
408.146	15.4
408.509	15.61
408.872	15.94
409.235	15.71
409.598	15.95
409.961	16.05
410.323	15.67
410.686	15.93
411.049	15.7
411.411	16.06
411.774	16
412.136	15.77
412.499	15.91
412.861	16.12
413.223	16.11
413.586	16.09
413.948	16.09
414.31	16.32
414.672	16.27
415.035	16.12
415.397	16.43
415.759	16.52
416.121	16.23
416.483	16.49
416.845	16.46
417.206	16.69
417.568	16.77
417.93	16.43
418.292	16.39
418.653	16.46
419.015	16.51
419.377	16.45
419.738	16.35
420.1	16.48
420.461	16.52
420.822	16.44
421.184	16.57
421.545	16.59
421.906	16.58
422.267	16.56
422.629	16.51
422.99	16.48
423.351	16.44
423.712	16.51
424.073	16.81
424.434	16.67
424.795	16.76
425.155	16.96
425.516	16.85
425.877	16.85
426.238	16.77
426.598	16.88
426.959	16.74
427.32	16.98
427.68	17.12
428.041	17.15
428.401	17.14
428.761	17.24
429.122	17.16
429.482	17.48
429.842	17.56
430.202	17.48
430.563	17.43
430.923	17.56
431.283	17.81
431.643	17.74
432.003	17.76
432.363	18.01
432.722	17.98
433.082	17.87
433.442	17.9
433.802	18.17
434.161	17.82
434.521	17.95
434.881	17.99
435.24	18.1
435.6	17.94
435.959	18.17
436.319	17.92
436.678	18.12
437.037	18.01
437.396	18.4
437.756	18.43
438.115	18.25
438.474	18.38
438.833	18.35
439.192	18.29
439.551	18.28
439.91	18.47
440.269	18.38
440.628	18.69
440.987	18.45
441.345	18.51
441.704	18.42
442.063	18.45
442.421	18.5
442.78	18.41
443.138	18.58
443.497	18.44
443.855	18.65
444.214	18.54
444.572	18.53
444.93	18.93
445.288	18.85
445.647	19.18
446.005	18.81
446.363	19.02
446.721	18.97
447.079	18.96
447.437	18.85
447.795	18.88
448.153	18.97
448.51	18.73
448.868	18.77
449.226	18.75
449.584	18.94
449.941	19.06
450.299	18.98
450.656	19.1
451.014	19.29
451.371	19.35
451.729	19.58
452.086	19.6
452.443	19.72
452.801	19.52
453.158	19.82
453.515	19.57
453.872	19.75
454.229	19.83
454.586	19.74
454.943	19.85
455.3	19.87
455.657	19.99
456.014	19.95
456.371	20.19
456.727	19.91
457.084	20
457.441	19.99
457.797	19.97
458.154	20.21
458.51	20.06
458.867	20.23
459.223	20.24
459.58	20.24
459.936	20.48
460.292	20.19
460.648	20.07
461.005	19.98
461.361	20.16
461.717	20.11
462.073	20.09
462.429	20.01
462.785	20.15
463.141	20.25
463.496	20.31
463.852	20.51
464.208	20.68
464.564	20.86
464.919	20.7
465.275	20.75
465.631	21.07
465.986	20.95
466.342	21.12
466.697	20.98
467.052	20.98
467.408	21.09
467.763	21.15
468.118	21.14
468.473	21.17
468.829	21.16
469.184	21.15
469.539	21.1
469.894	21.18
470.249	21.32
470.603	21.17
470.958	21.24
471.313	21.52
471.668	21.51
472.023	21.58
472.377	21.43
472.732	21.57
473.086	21.59
473.441	21.57
473.795	21.77
474.15	21.54
474.504	21.63
474.859	21.71
475.213	21.77
475.567	21.55
475.921	21.83
476.275	21.91
476.63	22.03
476.984	22.15
477.338	21.96
477.692	22.08
478.045	22.08
478.399	22.2
478.753	22.19
479.107	21.81
479.461	22.04
479.814	22.24
480.168	22.11
480.521	22.07
480.875	22.15
481.228	22.1
481.582	22.09
481.935	22.3
482.289	22.23
482.642	22.28
482.995	22.26
483.348	22.36
483.701	22.24
484.055	22.24
484.408	22.11
484.761	21.98
485.114	21.77
485.466	21.48
485.819	21.32
486.172	21.3
486.525	21.37
486.878	21.45
487.23	21.61
487.583	21.71
487.936	21.8
488.288	21.99
488.641	22.14
488.993	21.9
489.345	21.93
489.698	21.76
490.05	21.86
490.402	21.9
490.754	22.04
491.107	22.04
491.459	22.29
491.811	22.56
492.163	22.65
492.515	22.64
492.866	22.56
493.218	22.4
493.57	22.24
493.922	22.2
494.274	22.26
494.625	22.38
494.977	22.58
495.328	22.82
495.68	23
496.031	23.16
496.383	23.45
496.734	23.35
497.086	23.5
497.437	23.48
497.788	23.6
498.139	23.62
498.49	23.5
498.842	23.6
499.193	23.6
499.544	23.55
499.894	23.6
500.245	23.6
500.596	23.58
500.947	23.67
501.298	23.84
501.648	23.69
501.999	23.91
502.35	24
502.7	24.02
503.051	24.08
503.401	24.15
503.752	24.32
504.102	24.29
504.452	24.31
504.803	24.29
505.153	24.42
505.503	24.39
505.853	24.43
506.203	24.31
506.553	24.37
506.903	24.37
507.253	24.48
507.603	24.54
507.953	24.48
508.303	24.45
508.652	24.7
509.002	24.64
509.352	24.74
509.701	24.58
510.051	24.48
510.4	24.46
510.75	24.6
511.099	24.67
511.449	24.64
511.798	24.68
512.147	24.75
512.496	24.83
512.846	24.73
513.195	24.86
513.544	24.84
513.893	24.97
514.242	24.82
514.591	25.04
514.939	24.82
515.288	24.79
515.637	24.99
515.986	25.19
516.334	25.08
516.683	25.15
517.032	24.99
517.38	25.24
517.729	25.42
518.077	25.41
518.426	25.48
518.774	25.24
519.122	25.51
519.47	25.53
519.819	25.33
520.167	25.17
520.515	25.19
520.863	25.17
521.211	25.08
521.559	25.27
521.907	25.16
522.255	25.41
522.602	25.72
522.95	25.66
523.298	25.48
523.645	25.87
523.993	25.75
524.341	25.87
524.688	25.77
525.036	25.93
525.383	25.95
525.73	25.89
526.078	25.86
526.425	25.91
526.772	25.9
527.119	25.82
527.466	25.59
527.814	25.67
528.161	25.68
528.508	25.53
528.854	25.77
529.201	25.72
529.548	25.81
529.895	25.55
530.242	25.4
530.588	25.23
530.935	25.27
531.282	25.33
531.628	25.32
531.975	25.41
532.321	25.59
532.667	25.77
533.014	25.99
533.36	26.07
533.706	26.35
534.052	26.15
534.399	26.11
534.745	26.02
535.091	26.05
535.437	25.9
535.783	25.97
536.129	26.01
536.474	26.18
536.82	26.38
537.166	26.42
537.512	26.54
537.857	26.63
538.203	26.69
538.549	26.59
538.894	26.55
539.239	26.58
539.585	26.64
539.93	26.83
540.276	26.98
540.621	27.13
540.966	27.09
541.311	27.5
541.656	27.37
542.001	27.22
542.346	26.98
542.691	26.88
543.036	26.76
543.381	26.55
543.726	26.57
544.071	26.5
544.415	26.6
544.76	26.66
545.105	26.83
545.449	26.87
545.794	27.06
546.138	27.15
546.483	27.33
546.827	27.42
547.171	27.51
547.516	27.64
547.86	27.64
548.204	27.61
548.548	27.52
548.892	27.51
549.236	27.55
549.58	27.55
549.924	27.66
550.268	27.81
550.612	28.04
550.956	28.18
551.3	28.11
551.643	28.25
551.987	28.44
552.33	28.43
552.674	28.45
553.017	28.36
553.361	28.5
553.704	28.5
554.048	28.52
554.391	28.5
554.734	28.48
555.077	28.44
555.42	28.27
555.764	28.59
556.107	28.66
556.45	28.5
556.793	28.4
557.135	28.61
557.478	28.44
557.821	28.86
558.164	29.11
558.507	29.25
558.849	29.18
559.192	29.22
559.534	28.99
559.877	28.89
560.219	29.27
560.562	29.2
560.904	29.31
561.246	29.37
561.589	29.37
561.931	29.4
562.273	29.27
562.615	29.35
562.957	29.48
563.299	29.34
563.641	29.43
563.983	29.48
564.325	29.45
564.667	29.45
565.008	29.53
565.35	29.3
565.692	29.61
566.033	29.74
566.375	29.57
566.716	29.88
567.058	29.27
567.399	29.49
567.741	29.54
568.082	29.53
568.423	29.69
568.764	29.47
569.105	29.62
569.447	29.66
569.788	29.67
570.129	29.76
570.47	29.91
570.811	29.84
571.151	29.89
571.492	30.08
571.833	30.16
572.174	30.07
572.514	30.12
572.855	30.08
573.195	30.11
573.536	30.03
573.876	30.01
574.217	29.95
574.557	30.05
574.898	30.01
575.238	30.24
575.578	30.15
575.918	30.06
576.258	30.32
576.598	30.17
576.938	30.28
577.278	30.28
577.618	30.33
577.958	30.34
578.298	30.3
578.638	30.38
578.977	30.34
579.317	30.36
579.657	30.57
579.996	30.86
580.336	30.75
580.675	30.94
581.014	30.88
581.354	31.09
581.693	31.05
582.032	31.35
582.372	31.11
582.711	31.13
583.05	31.26
583.389	30.88
583.728	31.26
584.067	31.1
584.406	31.17
584.745	31.5
585.083	31.35
585.422	31.37
585.761	31.4
586.1	31.33
586.438	31.23
586.777	31.54
587.115	31.65
587.454	31.46
587.792	31.62
588.13	31.94
588.469	31.96
588.807	31.5
589.145	31.83
589.483	31.55
589.821	31.51
590.159	31.66
590.497	31.67
590.835	31.48
591.173	31.53
591.511	32.05
591.849	31.69
592.187	31.82
592.524	31.74
592.862	31.69
593.2	32.09
593.537	31.5
593.875	31.5
594.212	31.97
594.55	32.09
594.887	32.33
595.224	32.04
595.561	31.94
595.899	32.11
596.236	31.94
596.573	32.13
596.91	32.28
597.247	31.93
597.584	32.05
597.921	32.13
598.258	32.18
598.594	32.3
598.931	31.92
599.268	31.91
599.604	32.1
599.941	32.29
600.277	32.28
600.614	32.23
600.95	32.38
601.287	32.51
601.623	32.73
601.959	32.46
602.296	32.76
602.632	32.69
602.968	32.49
603.304	32.97
603.64	32.64
603.976	33.08
604.312	33.07
604.648	33.1
604.984	33.15
605.319	32.71
605.655	32.81
605.991	32.73
606.326	32.65
606.662	32.37
606.998	32.66
607.333	32.74
607.668	32.44
608.004	32.76
608.339	32.72
608.674	32.9
609.01	33.15
609.345	33.21
609.68	33.36
610.015	33.41
610.35	33.3
610.685	33.44
611.02	33.27
611.355	33.23
611.689	32.98
612.024	33.12
612.359	33.01
612.694	33.54
613.028	33.38
613.363	33.3
613.697	33.28
614.032	33.61
614.366	33.73
614.7	33.47
615.035	33.7
615.369	33.73
615.703	33.75
616.037	34.2
616.371	33.8
616.705	33.73
617.039	34.11
617.373	34.06
617.707	34.51
618.041	33.84
618.375	33.83
618.709	34.19
619.042	34.02
619.376	34.48
619.71	34.49
620.043	34.28
620.377	33.9
620.71	34.31
621.043	34.42
621.377	34.13
621.71	34.48
622.043	34.35
622.376	34.41
622.709	34.51
623.043	34.79
623.376	34.28
623.709	34.48
624.041	34.22
624.374	34.38
624.707	34.56
625.04	34.56
625.373	34.43
625.705	34.74
626.038	34.45
626.37	34.24
626.703	34.38
627.035	34.34
627.368	34.7
627.7	34.85
628.032	34.85
628.365	34.58
628.697	34.7
629.029	34.66
629.361	34.34
629.693	34.99
630.025	34.83
630.357	35
630.689	34.91
631.021	34.89
631.353	34.8
631.684	34.93
632.016	35.23
632.348	35.13
632.679	34.74
633.011	35.23
633.342	34.87
633.674	35.91
634.005	35.2
634.336	35.49
634.668	35.39
634.999	34.97
635.33	35
635.661	35.69
635.992	35.61
636.323	35.12
636.654	35.77
636.985	35.76
637.316	35.42
637.647	35.33
637.977	35.13
638.308	35.45
638.639	35.96
638.969	35.64
639.3	35.6
639.63	36.08
639.961	35.53
640.291	35.44
640.622	35.96
640.952	36.25
641.282	35.97
641.612	35.83
641.943	35.79
642.273	35.75
642.603	36.14
642.933	36.23
643.263	35.88
643.592	35.66
643.922	36.25
644.252	35.89
644.582	36.15
644.911	36.59
645.241	36.49
645.571	36.38
645.9	35.91
646.23	35.97
646.559	36.1
646.888	36.29
647.218	36.17
647.547	35.69
647.876	36.33
648.205	36.41
648.534	36.26
648.863	36.29
649.192	36.73
649.521	36.69
649.85	36.9
650.179	36.5
650.508	36.53
650.837	36.93
651.165	37.12
651.494	36.24
651.822	36.42
652.151	36.65
652.479	36.45
652.808	37.06
653.136	36.2
653.465	36.76
653.793	36.88
654.121	36.93
654.449	36.6
654.777	36.57
655.105	36.8
655.433	37.12
655.761	36.86
656.089	36.69
656.417	36.47
656.745	36.9
657.073	37.39
657.4	38.04
657.728	37.22
658.056	37.02
658.383	37.17
658.711	37.11
659.038	37.28
659.365	37.19
659.693	37.15
660.02	37.19
660.347	36.94
660.674	37.55
661.001	37.26
661.329	37.49
661.656	37
661.982	37.16
662.309	37.29
662.636	37.34
662.963	37.33
663.29	36.94
663.616	37.36
663.943	37.07
664.27	37.65
664.596	37.44
664.923	37.18
665.249	37.66
665.576	37.47
665.902	38.1
666.228	37.83
666.554	37.94
666.881	37.65
667.207	38.02
667.533	37.46
667.859	38.36
668.185	38.99
668.511	38.55
668.837	38.49
669.162	37.98
669.488	38.64
669.814	37.39
670.139	38.31
670.465	38.49
670.791	38.23
671.116	38.22
