Data from 0263_crown_Reflection__4__147.txt Node

Date: Fri Oct 20 21:46:43 CDT 2023
User: ToomeyLab
Spectrometer: FLMS14357
Trigger mode: 0
Integration Time (sec): 1.000000E-2
Scans to average: 100
Electric dark correction enabled: true
Nonlinearity correction enabled: false
Boxcar width: 0
XAxis mode: Wavelengths
Number of Pixels in Spectrum: 2048
>>>>>Begin Spectral Data<<<<<
189.047	226.26
189.435	226.26
189.823	226.26
190.211	575.81
190.599	36
190.987	2674.59
191.375	112.49
191.763	175.44
192.151	-27.3
192.538	105.11
192.926	62.03
193.314	48.97
193.702	30.02
194.089	121.64
194.477	-233.91
194.864	89.65
195.252	29.54
195.639	9.11
196.027	161.81
196.414	47.74
196.801	-3482.94
197.189	42.55
197.576	155.75
197.963	287.76
198.351	69.91
198.738	-12.11
199.125	58.85
199.512	24.79
199.899	36.93
200.286	-28.29
200.673	37.08
201.06	52.04
201.447	-9.78
201.833	51.12
202.22	64.52
202.607	50.47
202.994	50.64
203.38	9.2
203.767	26.39
204.154	18.19
204.54	36.93
204.927	11.83
205.313	47.8
205.699	36.84
206.086	27.59
206.472	40.49
206.858	41.1
207.245	-2.61
207.631	57.26
208.017	42.5
208.403	12.09
208.789	27.43
209.175	16.28
209.561	24.36
209.947	-7.95
210.333	47.6
210.719	-3.44
211.105	26.06
211.491	29.81
211.876	19.19
212.262	41.26
212.648	23.28
213.034	10.01
213.419	-7.03
213.805	36.47
214.19	36.38
214.576	32.76
214.961	15.45
215.346	39.71
215.732	23.47
216.117	-44.61
216.502	19.75
216.888	34.81
217.273	5.33
217.658	2.66
218.043	-3.47
218.428	14.85
218.813	-2.82
219.198	20.82
219.583	-21.21
219.968	13.99
220.353	40.18
220.738	24.88
221.122	12.89
221.507	7.61
221.892	23.42
222.276	13.58
222.661	13.83
223.046	13.68
223.43	4.33
223.815	15.79
224.199	19.76
224.583	-2.61
224.968	7.53
225.352	7.65
225.736	13.65
226.121	15.61
226.505	7.97
226.889	18.91
227.273	10.2
227.657	12.62
228.041	19.3
228.425	11.94
228.809	9.74
229.193	10.37
229.577	11.65
229.961	11.59
230.344	10.68
230.728	10.65
231.112	10.57
231.495	10.48
231.879	11.38
232.263	11.45
232.646	10.17
233.03	9.5
233.413	10.93
233.797	11.33
234.18	10.31
234.563	12.94
234.946	11.91
235.33	10.99
235.713	8.88
236.096	11.27
236.479	10.4
236.862	11.07
237.245	10.71
237.628	9.38
238.011	9.7
238.394	10.45
238.777	11.42
239.16	9.67
239.543	12.45
239.925	11.93
240.308	11.41
240.691	9.71
241.073	11.12
241.456	11
241.838	8.79
242.221	10.69
242.603	10.13
242.986	9.54
243.368	9.95
243.75	8.87
244.133	9.34
244.515	9.1
244.897	9.28
245.279	9.33
245.661	8.33
246.043	8.33
246.425	9.41
246.807	8.57
247.189	8.61
247.571	8.66
247.953	8.49
248.335	8.93
248.717	8.51
249.098	8.55
249.48	8.41
249.862	8.58
250.243	9.01
250.625	8.52
251.006	8.94
251.388	8.23
251.769	8.37
252.151	7.63
252.532	8.32
252.913	7.91
253.295	7.62
253.676	8.28
254.057	8.69
254.438	8.8
254.819	7.89
255.2	8.14
255.581	8.64
255.962	7.96
256.343	8.36
256.724	8.13
257.105	8.26
257.486	8.76
257.867	7.93
258.247	8.18
258.628	7.51
259.009	7.73
259.389	7.29
259.77	7.47
260.15	7.92
260.531	8.09
260.911	8.18
261.292	7.6
261.672	7.73
262.052	7.81
262.432	7.54
262.813	7.81
263.193	7.79
263.573	7.8
263.953	7.85
264.333	7.67
264.713	8.61
265.093	8.3
265.473	8.03
265.853	7.59
266.233	8.93
266.612	8.26
266.992	8.01
267.372	7.57
267.752	7.66
268.131	7.88
268.511	7.52
268.89	7.11
269.27	7
269.649	6.99
270.029	7.55
270.408	7.78
270.787	7.55
271.167	7.48
271.546	7.57
271.925	8.26
272.304	7.73
272.683	7.97
273.062	7.07
273.441	7.6
273.82	7.38
274.199	7.43
274.578	7.63
274.957	7.2
275.336	7.41
275.715	7.24
276.093	7.31
276.472	7.47
276.851	7.69
277.229	7.48
277.608	6.73
277.986	6.94
278.365	7.62
278.743	6.92
279.122	7.57
279.5	7.04
279.878	6.68
280.257	7.21
280.635	7.36
281.013	7.12
281.391	7.34
281.769	7.03
282.147	6.93
282.525	7
282.903	7.16
283.281	7.85
283.659	7.1
284.037	7.52
284.415	6.47
284.792	7.13
285.17	6.94
285.548	7.55
285.925	6.89
286.303	6.94
286.68	6.85
287.058	7.71
287.435	7.25
287.813	6.3
288.19	6.83
288.567	6.97
288.945	7.25
289.322	7.3
289.699	6.53
290.076	7.49
290.453	7.89
290.83	6.91
291.207	7.51
291.584	6.51
291.961	6.88
292.338	6.96
292.715	7.02
293.092	6.93
293.469	7.43
293.845	6.95
294.222	6.8
294.599	6.95
294.975	7.3
295.352	7.17
295.728	7.22
296.105	6.67
296.481	7.01
296.858	7.06
297.234	7.6
297.61	6.59
297.986	6.93
298.363	6.99
298.739	6.66
299.115	7.01
299.491	6.92
299.867	6.94
300.243	6.79
300.619	6.88
300.995	6.77
301.371	7.23
301.746	6.72
302.122	7.17
302.498	6.61
302.874	6.96
303.249	6.95
303.625	7.05
304	7.19
304.376	6.85
304.751	6.79
305.127	6.53
305.502	7.58
305.878	7
306.253	7.13
306.628	7.33
307.003	7.24
307.378	7.13
307.754	7.23
308.129	7.45
308.504	6.98
308.879	6.99
309.254	7.54
309.629	6.69
310.003	7.17
310.378	6.9
310.753	6.75
311.128	7.07
311.502	7.06
311.877	7.22
312.252	7
312.626	7.06
313.001	7.09
313.375	6.89
313.75	6.86
314.124	6.5
314.498	6.79
314.873	6.62
315.247	7.18
315.621	6.96
315.995	7.54
316.369	7.28
316.743	7.56
317.117	7.01
317.491	6.42
317.865	7.2
318.239	7.22
318.613	7.09
318.987	6.79
319.361	6.36
319.734	6.58
320.108	6.51
320.482	7.7
320.855	7.11
321.229	7.29
321.602	7.12
321.976	7.01
322.349	7.36
322.723	6.86
323.096	6.85
323.469	7
323.843	6.84
324.216	7.14
324.589	7.04
324.962	6.85
325.335	7.21
325.708	6.9
326.081	7.31
326.454	7.16
326.827	7.66
327.2	7.14
327.573	7.15
327.945	7.19
328.318	6.7
328.691	7.05
329.063	7.56
329.436	6.89
329.809	7.1
330.181	6.94
330.553	7.5
330.926	7.36
331.298	7.24
331.671	6.93
332.043	7.25
332.415	7.65
332.787	7.16
333.159	6.95
333.532	7.53
333.904	7.46
334.276	6.83
334.648	7.51
335.02	7.11
335.391	7.19
335.763	7.62
336.135	8.02
336.507	7.21
336.879	7.62
337.25	7.48
337.622	7.56
337.993	7.48
338.365	7.29
338.736	7.71
339.108	7.72
339.479	7.11
339.851	7.39
340.222	7.09
340.593	7.31
340.964	7.59
341.336	8.07
341.707	7.31
342.078	7.92
342.449	6.86
342.82	7.17
343.191	7.06
343.562	7.08
343.933	7.34
344.303	7.18
344.674	7.59
345.045	7.41
345.416	7.52
345.786	7.07
346.157	7.36
346.527	7.26
346.898	7.24
347.268	7.68
347.639	7.65
348.009	7.43
348.38	7.51
348.75	7.35
349.12	7.81
349.49	7.56
349.861	7.54
350.231	7.16
350.601	7.68
350.971	7.87
351.341	7.67
351.711	8.07
352.081	7.67
352.45	7.38
352.82	8
353.19	7.66
353.56	7.73
353.929	7.75
354.299	7.19
354.669	7.35
355.038	7.62
355.408	7.77
355.777	7.25
356.147	7.77
356.516	7.36
356.885	7.3
357.254	7.32
357.624	8.03
357.993	6.95
358.362	7.51
358.731	7.08
359.1	7.17
359.469	7.25
359.838	7.64
360.207	7.54
360.576	7.92
360.945	7.39
361.314	7.71
361.682	7.49
362.051	7.46
362.42	7.59
362.788	7.51
363.157	7.55
363.525	7.38
363.894	7.53
364.262	7.38
364.631	7.57
364.999	7.84
365.367	7.64
365.735	7.53
366.104	7.85
366.472	7.61
366.84	7.87
367.208	7.88
367.576	7.51
367.944	7.63
368.312	7.43
368.68	7.46
369.048	7.51
369.416	7.7
369.783	7.85
370.151	7.49
370.519	7.75
370.886	7.94
371.254	7.7
371.621	8.16
371.989	7.67
372.356	7.9
372.724	7.71
373.091	7.63
373.458	7.32
373.826	7.52
374.193	7.56
374.56	7.75
374.927	7.89
375.294	8.13
375.661	7.87
376.028	7.91
376.395	7.97
376.762	7.73
377.129	7.65
377.496	7.81
377.863	8.07
378.229	7.92
378.596	7.95
378.963	7.87
379.329	8.1
379.696	7.75
380.062	7.9
380.429	7.71
380.795	7.79
381.161	7.6
381.528	8.12
381.894	7.66
382.26	7.89
382.626	7.72
382.993	7.85
383.359	7.83
383.725	7.99
384.091	7.67
384.457	7.95
384.823	8.04
385.188	7.83
385.554	7.91
385.92	7.73
386.286	7.94
386.651	7.82
387.017	7.83
387.383	7.58
387.748	7.53
388.114	7.6
388.479	7.76
388.845	8.21
389.21	7.67
389.575	7.6
389.94	7.69
390.306	7.58
390.671	7.97
391.036	7.83
391.401	8.16
391.766	7.72
392.131	7.88
392.496	7.9
392.861	7.99
393.226	7.9
393.591	7.76
393.956	7.97
394.32	7.95
394.685	7.84
395.05	7.84
395.414	7.94
395.779	7.55
396.143	7.66
396.508	7.74
396.872	7.85
397.236	7.61
397.601	7.64
397.965	7.81
398.329	7.85
398.694	8
399.058	7.54
399.422	7.86
399.786	7.83
400.15	8.03
400.514	7.48
400.878	8
401.242	7.91
401.605	7.76
401.969	7.66
402.333	7.71
402.697	8.09
403.06	7.97
403.424	7.73
403.787	7.84
404.151	7.78
404.514	8.09
404.878	8.07
405.241	7.73
405.604	7.94
405.968	7.91
406.331	7.69
406.694	7.76
407.057	7.89
407.42	8.19
407.783	7.85
408.146	7.93
408.509	7.78
408.872	7.99
409.235	7.85
409.598	8.06
409.961	7.99
410.323	7.87
410.686	7.6
411.049	7.84
411.411	7.66
411.774	7.8
412.136	7.78
412.499	7.84
412.861	7.71
413.223	7.82
413.586	7.91
413.948	7.81
414.31	8.23
414.672	7.75
415.035	7.85
415.397	7.71
415.759	7.99
416.121	7.86
416.483	7.96
416.845	7.91
417.206	7.88
417.568	8.2
417.93	7.9
418.292	7.57
418.653	7.88
419.015	7.82
419.377	7.82
419.738	7.75
420.1	7.66
420.461	7.65
420.822	7.71
421.184	7.68
421.545	7.77
421.906	7.58
422.267	7.74
422.629	7.69
422.99	7.59
423.351	7.68
423.712	7.59
424.073	7.7
424.434	7.74
424.795	7.63
425.155	7.66
425.516	7.68
425.877	7.71
426.238	7.56
426.598	7.64
426.959	7.69
427.32	7.66
427.68	7.59
428.041	7.64
428.401	7.67
428.761	7.67
429.122	7.66
429.482	7.84
429.842	7.79
430.202	7.72
430.563	7.82
430.923	7.87
431.283	7.82
431.643	7.89
432.003	7.99
432.363	7.73
432.722	7.78
433.082	7.67
433.442	7.74
433.802	8.05
434.161	7.72
434.521	7.82
434.881	7.62
435.24	7.75
435.6	7.6
435.959	7.59
436.319	7.71
436.678	7.86
437.037	7.62
437.396	7.75
437.756	7.86
438.115	7.73
438.474	7.85
438.833	7.89
439.192	7.63
439.551	7.72
439.91	7.72
440.269	7.92
440.628	7.64
440.987	7.73
441.345	7.66
441.704	7.68
442.063	7.67
442.421	7.63
442.78	7.56
443.138	7.68
443.497	7.77
443.855	7.63
444.214	7.64
444.572	7.55
444.93	7.76
445.288	7.74
445.647	7.95
446.005	7.55
446.363	7.69
446.721	7.58
447.079	7.72
447.437	7.66
447.795	7.59
448.153	7.57
448.51	7.53
448.868	7.49
449.226	7.58
449.584	7.58
449.941	7.49
450.299	7.73
450.656	7.5
451.014	7.62
451.371	7.64
451.729	7.64
452.086	7.83
452.443	7.71
452.801	7.55
453.158	7.5
453.515	7.61
453.872	7.67
454.229	7.77
454.586	7.75
454.943	7.51
455.3	7.52
455.657	7.59
456.014	7.66
456.371	7.69
456.727	7.72
457.084	7.71
457.441	7.77
457.797	7.86
458.154	7.46
458.51	7.56
458.867	7.64
459.223	7.7
459.58	7.69
459.936	7.69
460.292	7.42
460.648	7.51
461.005	7.44
461.361	7.46
461.717	7.38
462.073	7.5
462.429	7.45
462.785	7.45
463.141	7.51
463.496	7.44
463.852	7.43
464.208	7.66
464.564	7.66
464.919	7.67
465.275	7.75
465.631	7.76
465.986	7.69
466.342	7.68
466.697	7.49
467.052	7.6
467.408	7.65
467.763	7.56
468.118	7.58
468.473	7.64
468.829	7.61
469.184	7.72
469.539	7.57
469.894	7.54
470.249	7.5
470.603	7.35
470.958	7.59
471.313	7.55
471.668	7.63
472.023	7.79
472.377	7.65
472.732	7.56
473.086	7.64
473.441	7.67
473.795	7.73
474.15	7.42
474.504	7.52
474.859	7.46
475.213	7.49
475.567	7.61
475.921	7.6
476.275	7.5
476.63	7.6
476.984	7.64
477.338	7.48
477.692	7.51
478.045	7.52
478.399	7.45
478.753	7.62
479.107	7.5
479.461	7.46
479.814	7.6
480.168	7.57
480.521	7.43
480.875	7.49
481.228	7.41
481.582	7.51
481.935	7.42
482.289	7.43
482.642	7.32
482.995	7.34
483.348	7.39
483.701	7.44
484.055	7.4
484.408	7.31
484.761	7.26
485.114	7.14
485.466	7.1
485.819	7.12
486.172	7
486.525	6.99
486.878	6.98
487.23	6.98
487.583	7.09
487.936	7.07
488.288	7.16
488.641	7.25
488.993	7.14
489.345	7.16
489.698	7.08
490.05	7.04
490.402	7.01
490.754	7.09
491.107	7.06
491.459	7.15
491.811	7.19
492.163	7.32
492.515	7.15
492.866	7.23
493.218	7.17
493.57	7.13
493.922	7.05
494.274	7.1
494.625	6.99
494.977	7.04
495.328	7.24
495.68	7.21
496.031	7.19
496.383	7.32
496.734	7.31
497.086	7.32
497.437	7.3
497.788	7.26
498.139	7.47
498.49	7.28
498.842	7.23
499.193	7.27
499.544	7.19
499.894	7.27
500.245	7.23
500.596	7.17
500.947	7.23
501.298	7.18
501.648	7.17
501.999	7.26
502.35	7.25
502.7	7.4
503.051	7.31
503.401	7.34
503.752	7.27
504.102	7.33
504.452	7.18
504.803	7.15
505.153	7.25
505.503	7.31
505.853	7.37
506.203	7.32
506.553	7.17
506.903	7.25
507.253	7.24
507.603	7.27
507.953	7.2
508.303	7.08
508.652	7.31
509.002	7.25
509.352	7.31
509.701	7.28
510.051	7.08
510.4	7.18
510.75	7.11
511.099	7.09
511.449	7.26
511.798	7.23
512.147	7.14
512.496	7.22
512.846	7.15
513.195	7.21
513.544	7.02
513.893	7.02
514.242	7.16
514.591	7.16
514.939	7.11
515.288	6.96
515.637	7.03
515.986	7.13
516.334	7.18
516.683	7
517.032	6.96
517.38	6.97
517.729	7.13
518.077	7.21
518.426	7.04
518.774	7.02
519.122	7.06
519.47	7.1
519.819	7
520.167	7.09
520.515	7.06
520.863	7.03
521.211	7.07
521.559	6.99
521.907	6.9
522.255	6.95
522.602	7.05
522.95	6.91
523.298	7.01
523.645	7.07
523.993	7.06
524.341	6.91
524.688	7.02
525.036	7.05
525.383	6.9
525.73	7.34
526.078	6.95
526.425	7.05
526.772	6.91
527.119	6.92
527.466	7.02
527.814	7.03
528.161	6.92
528.508	6.85
528.854	6.9
529.201	6.89
529.548	7
529.895	6.93
530.242	6.79
530.588	6.76
530.935	6.74
531.282	6.73
531.628	6.71
531.975	6.62
532.321	6.75
532.667	6.82
533.014	6.86
533.36	6.85
533.706	6.92
534.052	6.88
534.399	6.75
534.745	6.81
535.091	6.79
535.437	6.82
535.783	6.8
536.129	6.79
536.474	6.78
536.82	6.84
537.166	6.86
537.512	6.9
537.857	6.98
538.203	6.91
538.549	6.93
538.894	6.86
539.239	6.85
539.585	6.81
539.93	6.74
540.276	6.95
540.621	6.95
540.966	6.89
541.311	6.96
541.656	7.05
542.001	6.94
542.346	7.03
542.691	6.83
543.036	6.85
543.381	6.78
543.726	6.64
544.071	6.68
544.415	6.64
544.76	6.65
545.105	6.73
545.449	6.8
545.794	6.78
546.138	6.71
546.483	6.8
546.827	6.8
547.171	6.93
547.516	6.77
547.86	6.89
548.204	6.62
548.548	6.83
548.892	6.76
549.236	6.85
549.58	6.68
549.924	6.71
550.268	6.9
550.612	6.77
550.956	6.92
551.3	6.92
551.643	6.94
551.987	6.96
552.33	6.76
552.674	6.78
553.017	6.82
553.361	6.95
553.704	6.97
554.048	6.91
554.391	6.87
554.734	6.96
555.077	6.78
555.42	6.69
555.764	6.81
556.107	6.8
556.45	6.9
556.793	6.64
557.135	6.72
557.478	6.66
557.821	6.85
558.164	6.83
558.507	6.81
558.849	6.89
559.192	6.98
559.534	7.21
559.877	6.58
560.219	6.98
560.562	6.76
560.904	6.66
561.246	7.01
561.589	6.62
561.931	6.88
562.273	6.74
562.615	6.96
562.957	6.74
563.299	6.78
563.641	6.72
563.983	6.65
564.325	6.65
564.667	6.91
565.008	6.75
565.35	6.62
565.692	6.81
566.033	6.89
566.375	6.83
566.716	6.85
567.058	6.75
567.399	6.88
567.741	6.68
568.082	6.71
568.423	6.73
568.764	6.69
569.105	6.75
569.447	6.65
569.788	6.7
570.129	6.67
570.47	6.7
570.811	6.82
571.151	6.52
571.492	6.71
571.833	6.72
572.174	6.8
572.514	6.62
572.855	6.54
573.195	6.95
573.536	6.53
573.876	6.7
574.217	6.63
574.557	6.73
574.898	6.67
575.238	6.65
575.578	6.68
575.918	6.45
576.258	6.59
576.598	6.77
576.938	6.61
577.278	6.8
577.618	6.52
577.958	6.58
578.298	6.69
578.638	6.62
578.977	6.74
579.317	6.63
579.657	6.63
579.996	6.63
580.336	6.82
580.675	6.54
581.014	6.58
581.354	6.48
581.693	6.68
582.032	6.8
582.372	6.75
582.711	6.72
583.05	7.05
583.389	6.45
583.728	6.91
584.067	6.65
584.406	6.66
584.745	6.46
585.083	6.64
585.422	6.65
585.761	6.43
586.1	6.69
586.438	6.38
586.777	6.67
587.115	6.72
587.454	6.72
587.792	6.56
588.13	6.74
588.469	6.77
588.807	6.3
589.145	6.43
589.483	6.65
589.821	6.56
590.159	6.63
590.497	6.65
590.835	6.52
591.173	6.66
591.511	6.39
591.849	6.58
592.187	6.74
592.524	6.5
592.862	6.52
593.2	6.7
593.537	6.47
593.875	6.43
594.212	6.67
594.55	6.53
594.887	6.67
595.224	6.68
595.561	6.55
595.899	6.65
596.236	6.62
596.573	6.57
596.91	6.5
597.247	6.57
597.584	6.51
597.921	6.53
598.258	6.58
598.594	6.8
598.931	6.29
599.268	6.5
599.604	6.47
599.941	6.43
600.277	6.54
600.614	6.46
600.95	6.59
601.287	6.29
601.623	6.75
601.959	6.66
602.296	6.58
602.632	6.68
602.968	6.45
603.304	6.66
603.64	6.39
603.976	6.6
604.312	6.79
604.648	6.85
604.984	6.78
605.319	6.54
605.655	6.55
605.991	6.54
606.326	6.42
606.662	6.18
606.998	6.45
607.333	6.48
607.668	6.27
608.004	6.61
608.339	6.52
608.674	6.48
609.01	6.58
609.345	6.48
609.68	6.69
610.015	6.42
610.35	6.59
610.685	6.6
611.02	6.61
611.355	6.36
611.689	6.48
612.024	6.4
612.359	6.51
612.694	6.42
613.028	6.61
613.363	6.43
613.697	6.19
614.032	6.63
614.366	6.51
614.7	6.62
615.035	6.86
615.369	6.67
615.703	6.16
616.037	6.42
616.371	6.75
616.705	6.58
617.039	6.6
617.373	6.3
617.707	6.85
618.041	6.49
618.375	6.41
618.709	6.4
619.042	6.43
619.376	6.62
619.71	6.61
620.043	6.36
620.377	5.99
620.71	6.41
621.043	6.82
621.377	6.6
621.71	6.36
622.043	6.47
622.376	6.72
622.709	6.54
623.043	6.34
623.376	6.17
623.709	6.45
624.041	6.46
624.374	6.76
624.707	6.6
625.04	6.75
625.373	6.77
625.705	6.11
626.038	6.64
626.37	6.35
626.703	6.21
627.035	6.38
627.368	6.52
627.7	6.92
628.032	6.59
628.365	6.66
628.697	6.66
629.029	6.36
629.361	6.61
629.693	6.5
630.025	6.61
630.357	6.28
630.689	6.45
631.021	6.7
631.353	6.65
631.684	6.44
632.016	6.73
632.348	6.54
632.679	6.26
633.011	6.56
633.342	6.35
633.674	6.67
634.005	6.84
634.336	6.94
634.668	6.41
634.999	6.28
635.33	6.47
635.661	6.87
635.992	6.42
636.323	6.43
636.654	6.8
636.985	6.6
637.316	6.81
637.647	6.38
637.977	6.2
638.308	6.6
638.639	6.42
638.969	6.71
639.3	6.17
639.63	6.4
639.961	6.35
640.291	6.34
640.622	6.46
640.952	6.64
641.282	6.41
641.612	6.22
641.943	6.76
642.273	6.28
642.603	6.88
642.933	6.52
643.263	6.53
643.592	6.73
643.922	6.89
644.252	6.47
644.582	6.62
644.911	6.79
645.241	7.02
645.571	7.04
645.9	6.49
646.23	6.7
646.559	6.67
646.888	6.8
647.218	6.87
647.547	6.37
647.876	6.61
648.205	6.41
648.534	6.64
648.863	6.85
649.192	6.43
649.521	6.11
649.85	6.76
650.179	6.2
650.508	6.25
650.837	6.82
651.165	6.95
651.494	6.29
651.822	6.47
652.151	6.74
652.479	6.63
652.808	6.66
653.136	6.07
653.465	6.74
653.793	7.12
654.121	7.14
654.449	7.03
654.777	6.32
655.105	6.66
655.433	7.41
655.761	6.61
656.089	6.82
656.417	6.9
656.745	6.89
657.073	7.09
657.4	7.47
657.728	6.9
658.056	6.51
658.383	6.86
658.711	6.51
659.038	7
659.365	6.98
659.693	6.68
660.02	6.65
660.347	6.46
660.674	6.89
661.001	6.38
661.329	6.35
661.656	6.95
661.982	6.27
662.309	6.83
662.636	6.66
662.963	6.63
663.29	6.95
663.616	6.81
663.943	6.18
664.27	6.97
664.596	6.91
664.923	6.47
665.249	6.67
665.576	6.5
665.902	6.78
666.228	6.7
666.554	6.44
666.881	6.72
667.207	7.3
667.533	6.94
667.859	6.73
668.185	7.05
668.511	7.27
668.837	7.15
669.162	6.55
669.488	6.46
669.814	6.2
670.139	6.45
670.465	6.59
670.791	7.42
671.116	6.48
671.442	6.73
671.767	6.48
672.092	7.33
672.418	6.96
672.743	6.94
673.068	7.21
673.393	6.84
673.718	6.64
674.043	6.78
674.368	6.93
674.693	7.24
675.018	7.06
675.343	7.04
675.667	6.71
675.992	6.95
676.317	7.08
676.641	7.07
676.966	7.46
677.29	6.27
677.615	7.39
677.939	6.31
678.264	6.96
678.588	6.04
678.912	7.02
679.236	7.56
679.56	6.39
679.885	7.65
680.209	7.62
680.532	6.59
680.856	7.12
681.18	6.91
681.504	7.03
681.828	7.1
682.152	7.18
682.475	6.76
682.799	6.69
683.122	7.11
683.446	6.76
683.769	7.17
684.093	7.19
684.416	6.96
684.739	6.45
685.062	6.59
685.386	7.29
685.709	6.64
686.032	6.74
686.355	7.36
686.678	7.01
687.001	7.33
687.324	6.38
687.646	7.32
687.969	7.07
688.292	7.23
688.614	7.11
688.937	7.36
689.26	6.81
689.582	6.35
689.904	6.19
690.227	7.34
690.549	6.89
690.871	7.07
691.194	7.24
691.516	7.12
691.838	7.63
