Data from 0263_forehead_Reflection__3__151.txt Node

Date: Fri Oct 20 21:47:57 CDT 2023
User: ToomeyLab
Spectrometer: FLMS14357
Trigger mode: 0
Integration Time (sec): 1.000000E-2
Scans to average: 100
Electric dark correction enabled: true
Nonlinearity correction enabled: false
Boxcar width: 0
XAxis mode: Wavelengths
Number of Pixels in Spectrum: 2048
>>>>>Begin Spectral Data<<<<<
189.047	-104.28
189.435	-104.28
189.823	-104.28
190.211	262.37
190.599	-86.15
190.987	1527.87
191.375	157.48
191.763	151.52
192.151	405.77
192.538	-25.52
192.926	4.07
193.314	54.51
193.702	115.9
194.089	102.38
194.477	-237
194.864	46.32
195.252	62.17
195.639	5.51
196.027	-315.61
196.414	1.4
196.801	-1689.41
197.189	-1.16
197.576	170.72
197.963	219.64
198.351	58.58
198.738	18.93
199.125	24.65
199.512	15.96
199.899	6.48
200.286	-2.54
200.673	40.93
201.06	21.42
201.447	-20.4
201.833	12.48
202.22	30.71
202.607	79.75
202.994	29.13
203.38	23.49
203.767	4.46
204.154	48.18
204.54	52.8
204.927	9.09
205.313	62.7
205.699	38.34
206.086	38.09
206.472	59.34
206.858	39.75
207.245	47.31
207.631	35.73
208.017	35.85
208.403	50.3
208.789	31.25
209.175	17.8
209.561	39.96
209.947	10.17
210.333	23.81
210.719	25.57
211.105	21.89
211.491	31.34
211.876	25.77
212.262	56.66
212.648	42.07
213.034	7.49
213.419	10.49
213.805	16.13
214.19	16.99
214.576	10.05
214.961	14.12
215.346	33.82
215.732	22.54
216.117	-27.72
216.502	36.51
216.888	19.57
217.273	10.72
217.658	11.14
218.043	8.6
218.428	21.79
218.813	21.55
219.198	24
219.583	-5.3
219.968	12.16
220.353	34.96
220.738	32.45
221.122	22.62
221.507	8.42
221.892	8.09
222.276	28.32
222.661	19.67
223.046	5.93
223.43	5.38
223.815	17.67
224.199	17.9
224.583	0.59
224.968	1.27
225.352	10.44
225.736	7.39
226.121	14.73
226.505	0.41
226.889	8.04
227.273	6.48
227.657	10.56
228.041	6.63
228.425	1.09
228.809	6.2
229.193	4.85
229.577	6.46
229.961	2.54
230.344	3.22
230.728	3.41
231.112	4.3
231.495	2.94
231.879	4.06
232.263	4.6
232.646	4.07
233.03	2.61
233.413	3.67
233.797	4.17
234.18	5.36
234.563	4.64
234.946	4.79
235.33	4.99
235.713	5.33
236.096	6.44
236.479	3.7
236.862	3.53
237.245	3.62
237.628	1.96
238.011	3.56
238.394	4.9
238.777	4.97
239.16	3.97
239.543	5.79
239.925	6.27
240.308	6.33
240.691	4.14
241.073	5.86
241.456	3.91
241.838	5.38
242.221	4.31
242.603	4.75
242.986	4.21
243.368	4.66
243.75	3.86
244.133	3.2
244.515	3.45
244.897	3.3
245.279	3.83
245.661	3.21
246.043	3.52
246.425	2.98
246.807	3.41
247.189	4.12
247.571	2.52
247.953	3.57
248.335	3.76
248.717	3.27
249.098	3.26
249.48	3.48
249.862	3.66
250.243	3.63
250.625	3.46
251.006	3.69
251.388	3.57
251.769	4.11
252.151	3.3
252.532	4.49
252.913	3.58
253.295	4.16
253.676	4
254.057	4
254.438	3.7
254.819	3.84
255.2	3.77
255.581	3.21
255.962	2.97
256.343	3.86
256.724	3.04
257.105	3.16
257.486	4.2
257.867	4.53
258.247	4.07
258.628	3.87
259.009	3.43
259.389	2.75
259.77	3.64
260.15	4.03
260.531	3.5
260.911	3.75
261.292	3.15
261.672	3.41
262.052	3.38
262.432	3.42
262.813	3.55
263.193	3.67
263.573	3.71
263.953	3.7
264.333	3.87
264.713	3.97
265.093	4.18
265.473	3.78
265.853	4.49
266.233	3.38
266.612	3.83
266.992	3.95
267.372	3.34
267.752	3.35
268.131	3.66
268.511	3.05
268.89	3.6
269.27	3.63
269.649	3.37
270.029	3.72
270.408	3.62
270.787	3.87
271.167	3.55
271.546	3.44
271.925	4.02
272.304	3.81
272.683	3.62
273.062	3.62
273.441	3.83
273.82	3.33
274.199	3.59
274.578	3.81
274.957	3.44
275.336	3.9
275.715	3.53
276.093	3.49
276.472	3.75
276.851	3.84
277.229	3.63
277.608	2.98
277.986	3.1
278.365	3.82
278.743	3.55
279.122	3.75
279.5	3.37
279.878	3.17
280.257	3.6
280.635	4.22
281.013	4.58
281.391	3.4
281.769	3.78
282.147	3.46
282.525	3.63
282.903	3.21
283.281	3.64
283.659	3.25
284.037	3.63
284.415	3.35
284.792	3.2
285.17	3.57
285.548	3.09
285.925	3.32
286.303	3.55
286.68	3.24
287.058	3.65
287.435	3.67
287.813	3.26
288.19	3.48
288.567	3.48
288.945	3.7
289.322	3.64
289.699	2.9
290.076	4.21
290.453	3.9
290.83	3.32
291.207	4.12
291.584	3.26
291.961	3.73
292.338	3.68
292.715	3.73
293.092	3.93
293.469	3.63
293.845	3.7
294.222	3.56
294.599	3.39
294.975	4.42
295.352	3.89
295.728	3.89
296.105	3.72
296.481	4.06
296.858	3.79
297.234	3.89
297.61	3.79
297.986	3.77
298.363	3.87
298.739	4.13
299.115	3.57
299.491	4.04
299.867	3.95
300.243	4.11
300.619	4.06
300.995	4.07
301.371	4.58
301.746	4.51
302.122	4.95
302.498	4.1
302.874	3.94
303.249	4.35
303.625	4.12
304	4.8
304.376	4.46
304.751	4.34
305.127	4.25
305.502	4.83
305.878	4.27
306.253	4.61
306.628	4.59
307.003	4.6
307.378	4.69
307.754	4.45
308.129	5.35
308.504	4.96
308.879	4.84
309.254	5.29
309.629	4.5
310.003	4.28
310.378	5.12
310.753	5.22
311.128	5.29
311.502	5.25
311.877	5.38
312.252	4.76
312.626	5.12
313.001	5.19
313.375	5.22
313.75	5.28
314.124	5.18
314.498	5.7
314.873	5.13
315.247	5.27
315.621	5.4
315.995	6.16
316.369	5.44
316.743	5.39
317.117	5.92
317.491	5.08
317.865	5.72
318.239	6.27
318.613	6.31
318.987	5.49
319.361	5.25
319.734	6.16
320.108	5.5
320.482	6.31
320.855	6.18
321.229	6.77
321.602	6.17
321.976	6.36
322.349	7.08
322.723	6.38
323.096	6.84
323.469	6.7
323.843	6.69
324.216	6.75
324.589	6.62
324.962	7.18
325.335	6.9
325.708	6.44
326.081	6.82
326.454	6.76
326.827	7.25
327.2	7.24
327.573	7.02
327.945	6.86
328.318	6.76
328.691	7.15
329.063	7.17
329.436	6.74
329.809	7.11
330.181	7.79
330.553	7.35
330.926	7.45
331.298	6.79
331.671	6.65
332.043	7.13
332.415	7.16
332.787	7.47
333.159	7.15
333.532	7.77
333.904	7.51
334.276	6.9
334.648	7.98
335.02	7.82
335.391	7.34
335.763	8.04
336.135	7.89
336.507	7.57
336.879	7.3
337.25	7.74
337.622	8.18
337.993	7.97
338.365	8.06
338.736	7.45
339.108	7.95
339.479	8.31
339.851	7.66
340.222	8.04
340.593	7.41
340.964	8.07
341.336	8.68
341.707	8.54
342.078	8.42
342.449	7.91
342.82	8.03
343.191	7.9
343.562	8.46
343.933	8.28
344.303	8.73
344.674	8.75
345.045	8.48
345.416	8.8
345.786	8.43
346.157	8.47
346.527	8.42
346.898	8.55
347.268	8.63
347.639	8.63
348.009	8.34
348.38	8.55
348.75	8.92
349.12	8.34
349.49	8.93
349.861	8.69
350.231	8.75
350.601	9.01
350.971	9.04
351.341	9.23
351.711	9.59
352.081	9.28
352.45	8.91
352.82	8.78
353.19	9.28
353.56	9.13
353.929	9.13
354.299	8.91
354.669	9.3
355.038	9.3
355.408	8.99
355.777	9.34
356.147	9.38
356.516	9.68
356.885	9.57
357.254	9.55
357.624	9.68
357.993	9.39
358.362	9.55
358.731	9.4
359.1	9.22
359.469	9.2
359.838	9.61
360.207	9.55
360.576	9.79
360.945	9.38
361.314	10.04
361.682	10.06
362.051	9.85
362.42	9.84
362.788	9.89
363.157	9.95
363.525	9.64
363.894	9.75
364.262	9.93
364.631	9.91
364.999	10.16
365.367	10
365.735	9.98
366.104	10.32
366.472	10.3
366.84	10.28
367.208	10.6
367.576	10.27
367.944	10.4
368.312	10.55
368.68	10.53
369.048	10.44
369.416	10.65
369.783	10.63
370.151	10.49
370.519	10.61
370.886	10.75
371.254	10.69
371.621	11.08
371.989	10.84
372.356	11.2
372.724	10.8
373.091	11.03
373.458	10.56
373.826	10.93
374.193	10.81
374.56	11.1
374.927	11.11
375.294	11.3
375.661	11.2
376.028	11.37
376.395	11.1
376.762	11.23
377.129	11.19
377.496	11.32
377.863	11.66
378.229	11.4
378.596	11.61
378.963	11.55
379.329	11.53
379.696	11.49
380.062	11.66
380.429	11.5
380.795	11.36
381.161	11.57
381.528	11.98
381.894	11.81
382.26	12.05
382.626	11.82
382.993	11.68
383.359	11.94
383.725	11.96
384.091	12.14
384.457	11.94
384.823	11.89
385.188	12.24
385.554	12.1
385.92	11.97
386.286	12.02
386.651	11.82
387.017	12.19
387.383	12.33
387.748	11.89
388.114	12.32
388.479	12.07
388.845	12.29
389.21	12.13
389.575	12.19
389.94	12.33
390.306	12.29
390.671	12.33
391.036	12.48
391.401	12.51
391.766	12.35
392.131	12.52
392.496	12.5
392.861	12.72
393.226	12.81
393.591	12.46
393.956	12.88
394.32	12.95
394.685	12.59
395.05	12.89
395.414	13.13
395.779	12.99
396.143	12.75
396.508	12.73
396.872	13.31
397.236	13.28
397.601	12.94
397.965	12.89
398.329	13.2
398.694	13.33
399.058	13.06
399.422	13.41
399.786	13.19
400.15	13.06
400.514	13.09
400.878	13.35
401.242	13.51
401.605	13.66
401.969	13.12
402.333	13.49
402.697	13.35
403.06	13.54
403.424	13.56
403.787	13.65
404.151	13.33
404.514	13.83
404.878	13.86
405.241	13.98
405.604	13.64
405.968	13.88
406.331	13.77
406.694	13.71
407.057	13.9
407.42	14.09
407.783	13.8
408.146	13.84
408.509	13.98
408.872	14.15
409.235	14
409.598	14.25
409.961	14.04
410.323	14.34
410.686	14.04
411.049	14.32
411.411	14.09
411.774	14.24
412.136	14.33
412.499	14.19
412.861	14.36
413.223	14.36
413.586	14.28
413.948	14.62
414.31	14.58
414.672	14.31
415.035	14.56
415.397	14.6
415.759	14.82
416.121	14.45
416.483	14.74
416.845	14.8
417.206	14.98
417.568	14.79
417.93	14.79
418.292	14.77
418.653	14.96
419.015	14.72
419.377	14.83
419.738	14.67
420.1	14.68
420.461	14.66
420.822	14.69
421.184	14.73
421.545	14.79
421.906	14.9
422.267	14.83
422.629	14.77
422.99	14.72
423.351	14.67
423.712	14.73
424.073	15.05
424.434	14.83
424.795	15.07
425.155	15.08
425.516	15.02
425.877	15
426.238	14.93
426.598	15.06
426.959	15.09
427.32	15.19
427.68	15.22
428.041	15.35
428.401	15.37
428.761	15.44
429.122	15.64
429.482	15.47
429.842	15.6
430.202	15.76
430.563	15.79
430.923	15.93
431.283	16
431.643	16.1
432.003	16.01
432.363	16.15
432.722	16.14
433.082	16.1
433.442	15.92
433.802	16.19
434.161	16.11
434.521	16.04
434.881	16.08
435.24	16.06
435.6	16.06
435.959	16.05
436.319	16.29
436.678	16.37
437.037	16.07
437.396	16.38
437.756	16.42
438.115	16.39
438.474	16.34
438.833	16.55
439.192	16.46
439.551	16.37
439.91	16.61
440.269	16.58
440.628	16.68
440.987	16.61
441.345	16.64
441.704	16.54
442.063	16.53
442.421	16.71
442.78	16.57
443.138	16.75
443.497	16.61
443.855	16.83
444.214	16.66
444.572	16.83
444.93	16.96
445.288	17.08
445.647	17.09
446.005	17.06
446.363	17.2
446.721	17.03
447.079	17.26
447.437	17.07
447.795	16.81
448.153	16.82
448.51	16.93
448.868	16.91
449.226	16.93
449.584	17.03
449.941	16.97
450.299	17.15
450.656	17.13
451.014	17.37
451.371	17.61
451.729	17.42
452.086	17.48
452.443	17.61
452.801	17.53
453.158	17.86
453.515	17.58
453.872	17.91
454.229	17.9
454.586	17.84
454.943	17.66
455.3	17.75
455.657	17.99
456.014	17.98
456.371	17.96
456.727	18.02
457.084	18.08
457.441	18.1
457.797	18.22
458.154	17.94
458.51	18.09
458.867	18.11
459.223	18.2
459.58	18.32
459.936	18.39
460.292	18.24
460.648	18.25
461.005	18.15
461.361	18.16
461.717	18.07
462.073	18.03
462.429	17.96
462.785	18.28
463.141	18.35
463.496	18.29
463.852	18.62
464.208	18.67
464.564	18.59
464.919	18.66
465.275	18.86
465.631	18.78
465.986	19.02
466.342	18.81
466.697	18.89
467.052	19.04
467.408	18.83
467.763	19.08
468.118	19.14
468.473	19.21
468.829	19.09
469.184	19.16
469.539	19.09
469.894	19.11
470.249	19.17
470.603	19.12
470.958	19.37
471.313	19.35
471.668	19.42
472.023	19.58
472.377	19.43
472.732	19.37
473.086	19.63
473.441	19.69
473.795	19.83
474.15	19.54
474.504	19.6
474.859	19.75
475.213	19.7
475.567	19.7
475.921	19.87
476.275	19.83
476.63	20.14
476.984	20.08
477.338	19.98
477.692	19.98
478.045	19.96
478.399	19.92
478.753	19.98
479.107	20.03
479.461	20.03
479.814	20.26
480.168	20.09
480.521	20.12
480.875	20.13
481.228	20.2
481.582	20.07
481.935	20.2
482.289	20.41
482.642	20.29
482.995	20.22
483.348	20.33
483.701	20.22
484.055	20.23
484.408	19.92
484.761	19.98
485.114	19.89
485.466	19.47
485.819	19.35
486.172	19.32
486.525	19.35
486.878	19.53
487.23	19.66
487.583	19.85
487.936	19.92
488.288	20.13
488.641	20.29
488.993	19.85
489.345	19.93
489.698	19.76
490.05	19.77
490.402	19.97
490.754	20.07
491.107	20.14
491.459	20.38
491.811	20.56
492.163	20.61
492.515	20.71
492.866	20.76
493.218	20.46
493.57	20.28
493.922	20.24
494.274	20.34
494.625	20.49
494.977	20.63
495.328	20.89
495.68	21.03
496.031	21.2
496.383	21.43
496.734	21.41
497.086	21.56
497.437	21.6
497.788	21.48
498.139	21.67
498.49	21.57
498.842	21.49
499.193	21.53
499.544	21.51
499.894	21.69
500.245	21.62
500.596	21.58
500.947	21.72
501.298	21.85
501.648	21.62
501.999	21.98
502.35	21.98
502.7	22.24
503.051	22.14
503.401	22.1
503.752	22.39
504.102	22.28
504.452	22.26
504.803	22.12
505.153	22.46
505.503	22.37
505.853	22.5
506.203	22.35
506.553	22.41
506.903	22.39
507.253	22.54
507.603	22.55
507.953	22.47
508.303	22.41
508.652	22.61
509.002	22.66
509.352	22.7
509.701	22.79
510.051	22.51
510.4	22.58
510.75	22.48
511.099	22.51
511.449	22.67
511.798	22.68
512.147	22.73
512.496	22.72
512.846	22.87
513.195	22.81
513.544	22.75
513.893	22.92
514.242	22.84
514.591	23.01
514.939	23.01
515.288	23.01
515.637	23.02
515.986	23.17
516.334	23.25
516.683	23.29
517.032	23.35
517.38	23.22
517.729	23.39
518.077	23.44
518.426	23.3
518.774	23.36
519.122	23.36
519.47	23.4
519.819	23.34
520.167	23.37
520.515	23.19
520.863	23.23
521.211	23.2
521.559	23.19
521.907	23.28
522.255	23.47
522.602	23.66
522.95	23.72
523.298	23.71
523.645	23.78
523.993	24.04
524.341	23.97
524.688	23.81
525.036	24.07
525.383	24.08
525.73	24.12
526.078	24.06
526.425	23.99
526.772	23.96
527.119	23.97
527.466	23.79
527.814	23.78
528.161	23.73
528.508	23.67
528.854	23.92
529.201	23.86
529.548	23.9
529.895	23.81
530.242	23.52
530.588	23.19
530.935	23.28
531.282	23.51
531.628	23.53
531.975	23.57
532.321	23.74
532.667	23.8
533.014	24.16
533.36	24.17
533.706	24.35
534.052	24.4
534.399	24.37
534.745	24.2
535.091	24.14
535.437	23.94
535.783	23.91
536.129	24.25
536.474	24.29
536.82	24.41
537.166	24.71
537.512	24.9
537.857	24.99
538.203	24.79
538.549	24.76
538.894	24.65
539.239	24.7
539.585	24.83
539.93	24.9
540.276	25.17
540.621	25.25
540.966	25.38
541.311	25.56
541.656	25.57
542.001	25.32
542.346	25.42
542.691	25.03
543.036	24.97
543.381	24.54
543.726	24.62
544.071	24.68
544.415	24.84
544.76	24.92
545.105	25.1
545.449	25.13
545.794	25.29
546.138	25.4
546.483	25.54
546.827	25.75
547.171	25.83
547.516	25.77
547.86	25.91
548.204	25.84
548.548	25.92
548.892	25.79
549.236	25.82
549.58	25.61
549.924	25.86
550.268	26.2
550.612	26.14
550.956	26.4
551.3	26.34
551.643	26.4
551.987	26.65
552.33	26.53
552.674	26.75
553.017	26.54
553.361	26.72
553.704	26.84
554.048	26.71
554.391	26.71
554.734	26.6
555.077	26.55
555.42	26.67
555.764	26.68
556.107	26.79
556.45	26.97
556.793	26.79
557.135	26.98
557.478	27
557.821	27.18
558.164	27.33
558.507	27.16
558.849	27.27
559.192	27.46
559.534	27.45
559.877	27.42
560.219	27.38
560.562	27.44
560.904	27.31
561.246	27.69
561.589	27.39
561.931	27.65
562.273	27.55
562.615	27.8
562.957	27.84
563.299	27.68
563.641	27.69
563.983	27.63
564.325	27.76
564.667	27.76
565.008	27.77
565.35	28.11
565.692	28.05
566.033	28.19
566.375	27.98
566.716	27.94
567.058	27.9
567.399	28.01
567.741	27.77
568.082	27.94
568.423	27.93
568.764	27.65
569.105	27.96
569.447	27.87
569.788	27.95
570.129	28.09
570.47	28.2
570.811	28.24
571.151	28.17
571.492	28.42
571.833	28.58
572.174	28.38
572.514	28.37
572.855	28.56
573.195	28.44
573.536	28.4
573.876	28.53
574.217	28.15
574.557	28.42
574.898	28.22
575.238	28.59
575.578	28.49
575.918	28.43
576.258	28.66
576.598	28.73
576.938	28.78
577.278	28.58
577.618	28.64
577.958	28.77
578.298	28.76
578.638	28.96
578.977	28.92
579.317	28.99
579.657	29.09
579.996	28.99
580.336	28.98
580.675	28.92
581.014	29.16
581.354	29.25
581.693	29.08
582.032	29.71
582.372	29.49
582.711	29.52
583.05	29.87
583.389	29.58
583.728	29.83
584.067	29.5
584.406	29.87
584.745	29.83
585.083	29.55
585.422	29.86
585.761	29.94
586.1	29.77
586.438	29.88
586.777	30.05
587.115	29.81
587.454	30.12
587.792	30.15
588.13	30.02
588.469	30.3
588.807	29.94
589.145	30.17
589.483	30.15
589.821	30.11
590.159	30.05
590.497	30.3
590.835	30.03
591.173	30.05
591.511	30.3
591.849	29.97
592.187	30.15
592.524	30.23
592.862	30.31
593.2	30.58
593.537	30.21
593.875	30.46
594.212	30.64
594.55	30.57
594.887	30.54
595.224	30.23
595.561	30.54
595.899	30.41
596.236	30.58
596.573	30.86
596.91	30.73
597.247	30.76
597.584	30.7
597.921	30.78
598.258	30.82
598.594	30.81
598.931	30.57
599.268	30.5
599.604	30.54
599.941	30.74
600.277	30.62
600.614	30.81
600.95	30.76
601.287	30.82
601.623	31.38
601.959	31.12
602.296	31.29
602.632	31.44
602.968	30.97
603.304	31.28
603.64	31.18
603.976	31.47
604.312	31.77
604.648	31.4
604.984	31.64
605.319	31.38
605.655	31.36
605.991	31.22
606.326	31.3
606.662	31.43
606.998	31.01
607.333	31.23
607.668	31.18
608.004	31.51
608.339	31.62
608.674	31.67
609.01	31.78
609.345	32.14
609.68	31.99
610.015	32.05
610.35	31.79
610.685	32.21
611.02	31.86
611.355	31.85
611.689	31.78
612.024	31.86
612.359	31.88
612.694	31.88
613.028	31.9
613.363	32.03
613.697	32.12
614.032	32.18
614.366	32.4
614.7	32.37
615.035	32.33
615.369	32.33
615.703	32.37
616.037	32.72
616.371	32.43
616.705	32.56
617.039	32.47
617.373	32.51
617.707	32.79
618.041	32.86
618.375	32.94
618.709	32.55
619.042	32.72
619.376	33.24
619.71	32.89
620.043	32.65
620.377	32.87
620.71	32.8
621.043	33.32
621.377	32.77
621.71	32.88
622.043	33.08
622.376	33.04
622.709	33.18
623.043	33.28
623.376	32.9
623.709	32.86
624.041	32.91
624.374	33.24
624.707	33.17
625.04	33.35
625.373	33.26
625.705	33.25
626.038	33.53
626.37	33.16
626.703	33.41
627.035	33.14
627.368	33.45
627.7	33.35
628.032	33.14
628.365	33.44
628.697	33.51
629.029	33.4
629.361	33.08
629.693	33.33
630.025	33.64
630.357	33.54
630.689	33.16
631.021	33.81
631.353	33.92
631.684	33.8
632.016	33.56
632.348	33.56
632.679	33.36
633.011	34.12
633.342	33.83
633.674	34.44
634.005	34.1
634.336	34.07
634.668	33.91
634.999	33.61
635.33	34.03
635.661	34.75
635.992	33.96
636.323	34.08
636.654	34.32
636.985	34.13
637.316	34.06
637.647	34.23
637.977	34.42
638.308	34.5
638.639	34.43
638.969	34.52
639.3	34.59
639.63	34.59
639.961	34.09
640.291	34.58
640.622	34.91
640.952	34.91
641.282	34.96
641.612	34.5
641.943	34.92
642.273	34.36
642.603	35.06
642.933	34.76
643.263	34.95
643.592	34.65
643.922	35.44
644.252	35.08
644.582	35.42
644.911	35.18
645.241	35.54
645.571	35.39
645.9	34.61
646.23	34.88
646.559	35.17
646.888	35.45
647.218	35.46
647.547	35.21
647.876	34.99
648.205	35.47
648.534	35.3
648.863	35.48
649.192	35.22
649.521	35.3
649.85	35.26
650.179	35.06
650.508	35.95
650.837	35.82
651.165	35.57
651.494	34.96
651.822	35.5
652.151	35.55
652.479	35.6
652.808	35.98
653.136	35.64
653.465	35.87
653.793	35.85
654.121	35.91
654.449	35.55
654.777	35.23
655.105	35.35
655.433	36.66
655.761	35.65
656.089	35.68
656.417	36.13
656.745	36.17
657.073	36.36
657.4	36.49
657.728	35.49
658.056	36.18
658.383	35.71
658.711	36.32
659.038	36.59
659.365	36.94
659.693	36.11
660.02	36.04
660.347	36.41
660.674	36.51
661.001	36.43
661.329	36.47
661.656	35.81
661.982	36.26
662.309	36.33
662.636	36.26
662.963	35.95
663.29	36.72
663.616	36.72
663.943	36.54
664.27	36.49
664.596	36.58
664.923	35.89
665.249	36.58
665.576	36.3
665.902	37.14
666.228	37.11
666.554	36.55
666.881	35.93
667.207	36.83
667.533	36.85
667.859	37.35
668.185	36.79
668.511	37.03
668.837	37.46
669.162	37.07
669.488	36.38
669.814	36.96
670.139	37.34
670.465	37.32
670.791	37.49
671.116	36.88
671.442	37.16
671.767	37.5
672.092	37.14
