Data from 0263_chest_Reflection__3__141.txt Node

Date: Fri Oct 20 21:44:11 CDT 2023
User: ToomeyLab
Spectrometer: FLMS14357
Trigger mode: 0
Integration Time (sec): 1.000000E-2
Scans to average: 100
Electric dark correction enabled: true
Nonlinearity correction enabled: false
Boxcar width: 0
XAxis mode: Wavelengths
Number of Pixels in Spectrum: 2048
>>>>>Begin Spectral Data<<<<<
189.047	76.46
189.435	76.46
189.823	76.46
190.211	630.65
190.599	-145.79
190.987	3427.05
191.375	144.42
191.763	329.82
192.151	-261.35
192.538	12.49
192.926	49.58
193.314	42.36
193.702	50.93
194.089	95.85
194.477	-211.66
194.864	360.18
195.252	32.41
195.639	224.57
196.027	-1092.62
196.414	62.03
196.801	-1738.24
197.189	92.18
197.576	42.6
197.963	143.5
198.351	47.18
198.738	26.79
199.125	47.31
199.512	20.75
199.899	38.07
200.286	4.97
200.673	24.7
201.06	14.7
201.447	17.73
201.833	49.35
202.22	63.08
202.607	51.19
202.994	45.68
203.38	49.53
203.767	19.89
204.154	33.24
204.54	33.64
204.927	-5.22
205.313	17.49
205.699	45.91
206.086	42.31
206.472	41.51
206.858	38.75
207.245	9.9
207.631	37.01
208.017	54.11
208.403	33.12
208.789	52.53
209.175	36.19
209.561	24.15
209.947	39.63
210.333	52.23
210.719	39.56
211.105	19.16
211.491	41.29
211.876	59.3
212.262	55.16
212.648	24.3
213.034	10.57
213.419	-3.03
213.805	12.23
214.19	19.72
214.576	22.59
214.961	14.95
215.346	42.67
215.732	4.58
216.117	-7.3
216.502	19.21
216.888	16.57
217.273	19.48
217.658	16.54
218.043	41.13
218.428	33.92
218.813	21.4
219.198	8.18
219.583	-4.99
219.968	3.93
220.353	27.01
220.738	23.86
221.122	15.22
221.507	19.19
221.892	9.07
222.276	10.33
222.661	14.36
223.046	17.83
223.43	-4.06
223.815	23.3
224.199	18.63
224.583	-0.13
224.968	-5.04
225.352	2.88
225.736	10.35
226.121	12.19
226.505	-6.11
226.889	4.32
227.273	10.78
227.657	11.92
228.041	10.07
228.425	4.5
228.809	7.84
229.193	5.1
229.577	7.62
229.961	3.58
230.344	3.64
230.728	3.09
231.112	4.17
231.495	2.52
231.879	3.52
232.263	4.83
232.646	3.33
233.03	2.6
233.413	3.4
233.797	4.25
234.18	3.46
234.563	4.79
234.946	5.55
235.33	4.33
235.713	3.24
236.096	4.13
236.479	3.52
236.862	3.05
237.245	3.16
237.628	3.25
238.011	5.25
238.394	4.04
238.777	3.72
239.16	3.73
239.543	7.1
239.925	4.72
240.308	3.99
240.691	4.33
241.073	5.22
241.456	4.1
241.838	3.6
242.221	5.19
242.603	4.61
242.986	3.73
243.368	4.31
243.75	3.69
244.133	3.75
244.515	3.29
244.897	3.4
245.279	3.9
245.661	4.04
246.043	3.41
246.425	3.19
246.807	4.67
247.189	3.89
247.571	3.61
247.953	4.07
248.335	4.3
248.717	3.51
249.098	3.3
249.48	3.5
249.862	3.55
250.243	3.93
250.625	3.86
251.006	3.86
251.388	3.35
251.769	4.36
252.151	3.91
252.532	3.9
252.913	4.21
253.295	3.19
253.676	3.81
254.057	3.96
254.438	3.93
254.819	3.8
255.2	3.69
255.581	3.51
255.962	3.31
256.343	3.41
256.724	3.01
257.105	4.07
257.486	3.7
257.867	4.68
258.247	4.32
258.628	4.34
259.009	2.39
259.389	3.3
259.77	4.28
260.15	3.93
260.531	3.72
260.911	3.63
261.292	3
261.672	3.38
262.052	3.44
262.432	3.33
262.813	3.4
263.193	3.27
263.573	3.52
263.953	3.92
264.333	3.62
264.713	3.74
265.093	4.14
265.473	3.86
265.853	3.65
266.233	3.75
266.612	3.95
266.992	3.66
267.372	3.05
267.752	3.23
268.131	3.5
268.511	2.94
268.89	3.82
269.27	3.29
269.649	2.99
270.029	3.41
270.408	3.99
270.787	3.48
271.167	2.91
271.546	3.72
271.925	3.4
272.304	3.69
272.683	3.46
273.062	3.49
273.441	3.58
273.82	3.52
274.199	3.59
274.578	3.78
274.957	3.59
275.336	3.59
275.715	3.45
276.093	3.39
276.472	3.55
276.851	3.68
277.229	3.74
277.608	3.15
277.986	3.26
278.365	3.47
278.743	2.89
279.122	3.24
279.5	3.13
279.878	2.34
280.257	3.62
280.635	3.83
281.013	3.87
281.391	3.84
281.769	3.31
282.147	2.99
282.525	3.32
282.903	3.34
283.281	3.02
283.659	3.59
284.037	3.46
284.415	2.76
284.792	2.96
285.17	3.67
285.548	2.91
285.925	3.3
286.303	3.15
286.68	3.03
287.058	3.8
287.435	3.26
287.813	3.1
288.19	3.38
288.567	3.49
288.945	3.67
289.322	3.71
289.699	3.49
290.076	4.2
290.453	3.58
290.83	3.43
291.207	3.9
291.584	3.13
291.961	3.61
292.338	3.63
292.715	3.58
293.092	3.31
293.469	3.95
293.845	3.58
294.222	3.13
294.599	3.47
294.975	4.3
295.352	4.17
295.728	3.79
296.105	3.98
296.481	3.75
296.858	4.09
297.234	4.19
297.61	3.43
297.986	3.54
298.363	4
298.739	3.89
299.115	3.72
299.491	3.87
299.867	4.14
300.243	4.03
300.619	4
300.995	4
301.371	4.6
301.746	4.25
302.122	4.2
302.498	4.01
302.874	4.04
303.249	4.24
303.625	4.38
304	4.12
304.376	3.8
304.751	4.14
305.127	4.44
305.502	4.93
305.878	4.74
306.253	4.53
306.628	4.84
307.003	4.52
307.378	4.77
307.754	4.46
308.129	4.94
308.504	4.61
308.879	4.92
309.254	4.96
309.629	5.03
310.003	4.37
310.378	4.83
310.753	4.93
311.128	4.85
311.502	4.97
311.877	5
312.252	4.8
312.626	5
313.001	5
313.375	4.87
313.75	5.12
314.124	4.43
314.498	5.35
314.873	4.91
315.247	5.05
315.621	4.95
315.995	5.34
316.369	4.6
316.743	5.03
317.117	4.97
317.491	5
317.865	5.52
318.239	5.43
318.613	5.85
318.987	5.6
319.361	4.31
319.734	5.12
320.108	4.73
320.482	5.44
320.855	5.31
321.229	6.23
321.602	5.15
321.976	5.48
322.349	6.14
322.723	5.53
323.096	5.43
323.469	5.44
323.843	5.56
324.216	5.64
324.589	5.55
324.962	6.17
325.335	5.86
325.708	5.87
326.081	5.71
326.454	6.15
326.827	5.92
327.2	5.75
327.573	6.16
327.945	5.73
328.318	5
328.691	5.73
329.063	6.14
329.436	5.2
329.809	5.42
330.181	5.91
330.553	6.07
330.926	6.17
331.298	5.46
331.671	5.87
332.043	5.89
332.415	6.11
332.787	6.71
333.159	5.58
333.532	6.05
333.904	5.76
334.276	5.81
334.648	5.9
335.02	6.38
335.391	5.81
335.763	6.54
336.135	6.18
336.507	6.07
336.879	5.85
337.25	5.89
337.622	6.4
337.993	6.3
338.365	6.09
338.736	6.32
339.108	6.22
339.479	6.22
339.851	6.14
340.222	6.17
340.593	5.83
340.964	5.72
341.336	6.49
341.707	6.45
342.078	6.22
342.449	5.98
342.82	6.1
343.191	6.15
343.562	6.16
343.933	6.36
344.303	6.11
344.674	6.44
345.045	6.46
345.416	6.11
345.786	6.37
346.157	6.37
346.527	6.33
346.898	6.12
347.268	6.63
347.639	6.48
348.009	6.04
348.38	6.13
348.75	6.11
349.12	6.14
349.49	6.22
349.861	6.45
350.231	6.02
350.601	6.16
350.971	6.78
351.341	6.69
351.711	6.81
352.081	6.1
352.45	6.24
352.82	6.73
353.19	6.52
353.56	6.61
353.929	6.22
354.299	6.32
354.669	6.06
355.038	6.61
355.408	6.34
355.777	5.98
356.147	6.4
356.516	6.21
356.885	6.39
357.254	6.48
357.624	6.48
357.993	5.82
358.362	6.34
358.731	5.9
359.1	5.85
359.469	6.11
359.838	6.64
360.207	6.53
360.576	6.78
360.945	6.17
361.314	6.21
361.682	6.49
362.051	6.29
362.42	6.28
362.788	6.6
363.157	6.45
363.525	6.3
363.894	6.3
364.262	6.31
364.631	6.61
364.999	6.73
365.367	6.61
365.735	6.4
366.104	6.52
366.472	6.54
366.84	6.64
367.208	6.39
367.576	6.45
367.944	6.5
368.312	6.53
368.68	6.55
369.048	6.74
369.416	6.56
369.783	6.95
370.151	6.66
370.519	6.52
370.886	6.93
371.254	6.54
371.621	6.69
371.989	6.58
372.356	6.57
372.724	6.78
373.091	6.45
373.458	6.24
373.826	6.59
374.193	6.84
374.56	6.34
374.927	6.78
375.294	6.68
375.661	6.98
376.028	6.7
376.395	6.97
376.762	6.86
377.129	6.94
377.496	6.69
377.863	6.86
378.229	7.07
378.596	6.74
378.963	6.79
379.329	6.99
379.696	7.1
380.062	6.8
380.429	6.55
380.795	6.83
381.161	6.91
381.528	6.72
381.894	6.59
382.26	6.43
382.626	7.21
382.993	6.79
383.359	6.71
383.725	6.87
384.091	6.58
384.457	6.72
384.823	6.7
385.188	6.95
385.554	6.86
385.92	6.59
386.286	7.02
386.651	6.77
387.017	7.15
387.383	6.86
387.748	6.71
388.114	6.84
388.479	6.85
388.845	7.12
389.21	6.79
389.575	6.63
389.94	6.86
390.306	6.91
390.671	6.83
391.036	6.88
391.401	6.84
391.766	6.93
392.131	7.19
392.496	7.31
392.861	7.16
393.226	7.03
393.591	6.89
393.956	6.87
394.32	7.2
394.685	6.87
395.05	7.27
395.414	7.22
395.779	6.85
396.143	6.96
396.508	6.72
396.872	7.07
397.236	6.87
397.601	6.89
397.965	6.82
398.329	7.05
398.694	7.07
399.058	6.64
399.422	7.13
399.786	7.2
400.15	6.89
400.514	6.94
400.878	7.03
401.242	7.24
401.605	7.03
401.969	6.9
402.333	6.89
402.697	7.02
403.06	7.05
403.424	7.13
403.787	7.12
404.151	7.15
404.514	7.23
404.878	7.14
405.241	7.15
405.604	7.02
405.968	7.28
406.331	7.06
406.694	6.92
407.057	6.85
407.42	7.44
407.783	7.29
408.146	7.08
408.509	7.06
408.872	7.27
409.235	7.29
409.598	7.42
409.961	7.26
410.323	7.05
410.686	7.19
411.049	7.22
411.411	7.18
411.774	7.27
412.136	7.24
412.499	7.23
412.861	7.23
413.223	7.31
413.586	7.05
413.948	7.5
414.31	7.57
414.672	7.04
415.035	7.21
415.397	7.3
415.759	7.15
416.121	7.12
416.483	7.46
416.845	7.38
417.206	7.36
417.568	7.39
417.93	7.21
418.292	7.19
418.653	7.16
419.015	7.21
419.377	7.22
419.738	7.1
420.1	7.12
420.461	7.09
420.822	7.05
421.184	7.1
421.545	7.11
421.906	7.03
422.267	7.04
422.629	7.15
422.99	7.02
423.351	7.09
423.712	7.11
424.073	7.23
424.434	7.13
424.795	7.09
425.155	7.14
425.516	7.1
425.877	7.16
426.238	7.03
426.598	7.22
426.959	7.04
427.32	7.21
427.68	7.02
428.041	7.24
428.401	7.23
428.761	7.25
429.122	7.13
429.482	7.36
429.842	7.33
430.202	7.35
430.563	7.33
430.923	7.64
431.283	7.39
431.643	7.46
432.003	7.44
432.363	7.34
432.722	7.45
433.082	7.5
433.442	7.31
433.802	7.56
434.161	7.17
434.521	7.34
434.881	7.38
435.24	7.28
435.6	7.26
435.959	7.33
436.319	7.39
436.678	7.48
437.037	7.58
437.396	7.67
437.756	7.55
438.115	7.28
438.474	7.49
438.833	7.62
439.192	7.46
439.551	7.5
439.91	7.5
440.269	7.66
440.628	7.43
440.987	7.54
441.345	7.41
441.704	7.34
442.063	7.46
442.421	7.37
442.78	7.42
443.138	7.48
443.497	7.38
443.855	7.43
444.214	7.39
444.572	7.55
444.93	7.56
445.288	7.71
445.647	7.69
446.005	7.37
446.363	7.52
446.721	7.46
447.079	7.55
447.437	7.59
447.795	7.5
448.153	7.35
448.51	7.37
448.868	7.39
449.226	7.39
449.584	7.4
449.941	7.39
450.299	7.6
450.656	7.51
451.014	7.67
451.371	7.73
451.729	7.57
452.086	7.73
452.443	7.77
452.801	7.72
453.158	7.86
453.515	7.78
453.872	7.69
454.229	7.85
454.586	7.73
454.943	7.6
455.3	7.58
455.657	7.74
456.014	7.69
456.371	7.66
456.727	7.66
457.084	7.68
457.441	7.72
457.797	7.94
458.154	7.79
458.51	7.79
458.867	7.8
459.223	7.88
459.58	7.84
459.936	8
460.292	7.73
460.648	7.66
461.005	7.61
461.361	7.67
461.717	7.49
462.073	7.56
462.429	7.66
462.785	7.65
463.141	7.78
463.496	7.71
463.852	7.91
464.208	7.94
464.564	7.97
464.919	7.89
465.275	8.15
465.631	8.05
465.986	7.95
466.342	8
466.697	8.04
467.052	7.87
467.408	7.96
467.763	8.01
468.118	8.25
468.473	7.89
468.829	8
469.184	7.96
469.539	8.08
469.894	7.96
470.249	7.78
470.603	7.98
470.958	8
471.313	8.15
471.668	8.14
472.023	8.15
472.377	8.12
472.732	7.99
473.086	8.13
473.441	8.14
473.795	8.2
474.15	7.97
474.504	7.88
474.859	8.11
475.213	8.1
475.567	7.94
475.921	8.28
476.275	8.26
476.63	8.19
476.984	8.23
477.338	8.08
477.692	8.13
478.045	8.09
478.399	8.05
478.753	8.14
479.107	8.07
479.461	7.99
479.814	8.28
480.168	8.17
480.521	8.15
480.875	8.21
481.228	8.13
481.582	8.22
481.935	8.06
482.289	8.23
482.642	8.21
482.995	8.1
483.348	8.08
483.701	8.2
484.055	8.14
484.408	8.02
484.761	8
485.114	7.91
485.466	7.77
485.819	7.63
486.172	7.52
486.525	7.64
486.878	7.8
487.23	7.87
487.583	7.86
487.936	8.01
488.288	8.05
488.641	8.08
488.993	7.87
489.345	7.89
489.698	7.81
490.05	7.82
490.402	7.9
490.754	7.96
491.107	8.06
491.459	8.06
491.811	8.22
492.163	8.23
492.515	8.22
492.866	8.21
493.218	8.08
493.57	7.86
493.922	7.89
494.274	7.99
494.625	8.07
494.977	8.13
495.328	8.27
495.68	8.41
496.031	8.31
496.383	8.48
496.734	8.51
497.086	8.38
497.437	8.46
497.788	8.35
498.139	8.49
498.49	8.4
498.842	8.29
499.193	8.48
499.544	8.43
499.894	8.51
500.245	8.43
500.596	8.52
500.947	8.53
501.298	8.62
501.648	8.5
501.999	8.56
502.35	8.59
502.7	8.79
503.051	8.61
503.401	8.79
503.752	8.74
504.102	8.72
504.452	8.51
504.803	8.66
505.153	8.73
505.503	8.67
505.853	8.9
506.203	8.67
506.553	8.65
506.903	8.65
507.253	8.66
507.603	8.67
507.953	8.79
508.303	8.66
508.652	8.78
509.002	8.7
509.352	8.77
509.701	8.76
510.051	8.66
510.4	8.65
510.75	8.77
511.099	8.69
511.449	8.68
511.798	8.78
512.147	8.73
512.496	8.75
512.846	8.76
513.195	8.68
513.544	8.91
513.893	8.78
514.242	8.84
514.591	8.77
514.939	8.78
515.288	8.84
515.637	8.8
515.986	8.95
516.334	8.86
516.683	8.9
517.032	8.87
517.38	8.9
517.729	8.96
518.077	9.07
518.426	9.04
518.774	8.8
519.122	8.97
519.47	8.88
519.819	8.88
520.167	8.77
520.515	8.91
520.863	8.85
521.211	8.76
521.559	8.96
521.907	8.95
522.255	8.89
522.602	9.11
522.95	8.97
523.298	9.1
523.645	9.19
523.993	9.07
524.341	9.14
524.688	9.11
525.036	9.2
525.383	9.17
525.73	9.24
526.078	9.11
526.425	9.13
526.772	9.02
527.119	9.05
527.466	9.09
527.814	9.15
528.161	9
528.508	9
528.854	9.04
529.201	9.02
529.548	9.05
529.895	8.95
530.242	8.81
530.588	8.77
530.935	8.71
531.282	8.83
531.628	8.86
531.975	8.95
532.321	9
532.667	9.08
533.014	9.17
533.36	9.15
533.706	9.25
534.052	9.19
534.399	9.13
534.745	9.12
535.091	9.12
535.437	9.03
535.783	9.07
536.129	9.15
536.474	9.3
536.82	9.39
537.166	9.32
537.512	9.37
537.857	9.49
538.203	9.44
538.549	9.51
538.894	9.29
539.239	9.37
539.585	9.47
539.93	9.52
540.276	9.73
540.621	9.57
540.966	9.75
541.311	9.77
541.656	9.84
542.001	9.72
542.346	9.72
542.691	9.44
543.036	9.46
543.381	9.29
543.726	9.24
544.071	9.35
544.415	9.49
544.76	9.56
545.105	9.66
545.449	9.56
545.794	9.72
546.138	9.75
546.483	9.79
546.827	9.87
547.171	9.82
547.516	9.9
547.86	9.97
548.204	9.84
548.548	9.87
548.892	9.85
549.236	9.88
549.58	9.77
549.924	9.87
550.268	10.15
550.612	10.13
550.956	10.31
551.3	10.1
551.643	10.15
551.987	10.16
552.33	10.22
552.674	10.19
553.017	10.17
553.361	10.25
553.704	10.44
554.048	10.34
554.391	10.31
554.734	10.4
555.077	10.27
555.42	10.14
555.764	10.22
556.107	10.48
556.45	10.46
556.793	10.35
557.135	10.53
557.478	10.31
557.821	10.69
558.164	10.71
558.507	10.6
558.849	10.52
559.192	10.78
559.534	10.77
559.877	10.56
560.219	10.66
560.562	10.63
560.904	10.67
561.246	10.67
561.589	10.69
561.931	10.73
562.273	10.9
562.615	10.87
562.957	10.89
563.299	10.87
563.641	10.91
563.983	10.78
564.325	10.76
564.667	11.04
565.008	10.8
565.35	10.91
565.692	10.81
566.033	11.01
566.375	11.09
566.716	11.06
567.058	10.87
567.399	11
567.741	10.95
568.082	10.92
568.423	11.06
568.764	10.83
569.105	11.18
569.447	11.02
569.788	11.04
570.129	11.24
570.47	11.16
570.811	11.22
571.151	11.17
571.492	11.25
571.833	11.34
572.174	11.28
572.514	11.43
572.855	11.21
573.195	11.26
573.536	11.11
573.876	11.42
574.217	11.27
574.557	11.31
574.898	11.13
575.238	11.27
575.578	11.47
575.918	11.47
576.258	11.43
576.598	11.52
576.938	11.57
577.278	11.57
577.618	11.22
577.958	11.45
578.298	11.63
578.638	11.56
578.977	11.58
579.317	11.62
579.657	11.58
579.996	11.79
580.336	11.82
580.675	11.92
581.014	11.67
581.354	11.64
581.693	11.81
582.032	11.82
582.372	11.99
582.711	11.85
583.05	12.18
583.389	11.99
583.728	12.23
584.067	12.08
584.406	12.22
584.745	11.92
585.083	11.92
585.422	12.2
585.761	12.4
586.1	12.41
586.438	11.89
586.777	12.24
587.115	12.33
587.454	12.22
587.792	12.32
588.13	12.58
588.469	12.63
588.807	11.93
589.145	12.5
589.483	12.45
589.821	12.18
590.159	12.44
590.497	12.42
590.835	12.29
591.173	12.53
591.511	12.39
591.849	12.38
592.187	12.41
592.524	12.49
592.862	12.52
593.2	12.69
593.537	12.49
593.875	12.46
594.212	12.96
594.55	12.7
594.887	12.66
595.224	12.7
595.561	12.46
595.899	12.69
596.236	12.93
596.573	12.92
596.91	12.91
597.247	12.83
597.584	12.72
597.921	12.88
598.258	12.83
598.594	12.88
598.931	12.73
599.268	12.72
599.604	12.76
599.941	12.91
600.277	13.15
600.614	12.98
600.95	13.25
601.287	13.05
601.623	13.34
601.959	13.17
602.296	13.16
602.632	13.23
602.968	13.09
603.304	13.32
603.64	12.96
603.976	13.34
604.312	13.63
604.648	13.32
604.984	13.5
605.319	13.42
605.655	13.03
605.991	13.11
606.326	13.34
606.662	13.1
606.998	13.17
607.333	13.31
607.668	13.23
608.004	13.38
608.339	13.3
608.674	13.51
609.01	13.66
609.345	13.98
609.68	13.84
610.015	13.64
610.35	13.71
610.685	13.79
611.02	13.79
611.355	13.66
611.689	13.51
612.024	13.86
612.359	13.77
612.694	13.8
613.028	13.86
613.363	13.91
613.697	13.81
614.032	13.89
614.366	14.09
614.7	14.16
615.035	13.91
615.369	14.27
615.703	13.84
616.037	14.02
616.371	14.16
616.705	14.25
617.039	14.14
617.373	14.48
617.707	14.64
618.041	14.14
618.375	14.64
618.709	14.34
619.042	14.3
619.376	14.71
619.71	14.58
620.043	14.61
620.377	14.37
620.71	14.44
621.043	14.34
621.377	14.54
621.71	14.55
622.043	14.78
622.376	14.97
622.709	14.96
623.043	14.54
623.376	14.89
623.709	14.4
624.041	14.85
624.374	14.48
624.707	14.49
625.04	14.78
625.373	15.23
625.705	14.66
626.038	14.84
626.37	14.27
626.703	14.58
627.035	14.91
627.368	15.02
627.7	15.19
628.032	15.06
628.365	15.08
628.697	14.87
629.029	14.95
629.361	15.14
629.693	15
630.025	15.1
630.357	14.79
630.689	14.96
631.021	15.32
631.353	15.54
631.684	14.88
632.016	15.29
632.348	15.41
632.679	15.15
633.011	15.56
633.342	15.15
633.674	15.58
634.005	15.58
634.336	16.04
634.668	15.09
634.999	15.53
635.33	15.07
635.661	16.15
635.992	15.74
636.323	15.62
636.654	15.5
636.985	15.21
637.316	15.83
637.647	15.51
637.977	15.59
638.308	15.69
638.639	15.8
638.969	15.71
639.3	15.31
639.63	16.18
639.961	16.05
640.291	16.19
640.622	15.88
640.952	15.98
641.282	16.09
641.612	15.95
641.943	16.47
642.273	16.15
642.603	16.12
642.933	16.14
643.263	16.23
643.592	15.86
643.922	16.5
644.252	15.83
644.582	16.45
644.911	16.46
645.241	16.41
645.571	16.84
645.9	16.38
646.23	16.15
646.559	16.52
646.888	16.33
647.218	17
647.547	16.28
647.876	16.56
648.205	16.52
648.534	16.49
648.863	16.78
649.192	16.41
649.521	16.75
649.85	16.45
650.179	16.93
650.508	16.66
650.837	16.78
651.165	16.87
651.494	16.42
651.822	17.09
652.151	17.54
652.479	17.08
652.808	17.21
653.136	16.89
653.465	16.92
653.793	17.01
654.121	17.11
654.449	17.37
654.777	17.15
655.105	17.13
655.433	17.54
655.761	17.17
656.089	17.37
656.417	17.15
656.745	17.13
657.073	17.14
657.4	18.35
657.728	17.76
658.056	17.06
658.383	17.42
658.711	17.41
659.038	17.84
659.365	17.79
659.693	17.34
660.02	17.32
660.347	17.56
660.674	17.45
661.001	17.06
661.329	17.59
661.656	17.45
661.982	17.2
662.309	17.85
662.636	17.66
662.963	17.71
663.29	17.68
663.616	17.76
663.943	17.31
664.27	18.09
664.596	17.86
664.923	17.85
665.249	17.85
665.576	17.6
665.902	18.18
666.228	18.29
666.554	17.82
666.881	17.46
667.207	18.37
667.533	18.33
667.859	18.4
668.185	18.91
668.511	19
668.837	19.09
669.162	18.64
669.488	18.16
669.814	17.45
670.139	18.16
670.465	18.01
670.791	18.78
671.116	18.11
671.442	18.66
671.767	18.21
672.092	18.33
672.418	18.33
672.743	18.69
673.068	18.89
673.393	17.89
673.718	18.81
674.043	18.97
674.368	17.94
674.693	19.01
675.018	19.42
675.343	18.83
675.667	18.99
675.992	18.67
676.317	19.46
676.641	19.36
676.966	19.58
677.29	19.28
677.615	18.7
677.939	18.9
678.264	19.06
678.588	18.49
678.912	19.25
679.236	19.23
679.56	18.89
679.885	19.48
680.209	18.89
680.532	18.85
680.856	18.82
681.18	18.82
681.504	19.68
681.828	19.58
682.152	19.26
682.475	19
682.799	19.58
683.122	19.32
683.446	19.3
683.769	19.71
684.093	19.79
