Data from 0263_forehead_Reflection__4__152.txt Node

Date: Fri Oct 20 21:48:08 CDT 2023
User: ToomeyLab
Spectrometer: FLMS14357
Trigger mode: 0
Integration Time (sec): 1.000000E-2
Scans to average: 100
Electric dark correction enabled: true
Nonlinearity correction enabled: false
Boxcar width: 0
XAxis mode: Wavelengths
Number of Pixels in Spectrum: 2048
>>>>>Begin Spectral Data<<<<<
189.047	46.82
189.435	46.82
189.823	46.82
190.211	1633.33
190.599	98.11
190.987	5467.21
191.375	117.62
191.763	66.27
192.151	-113.69
192.538	-89.85
192.926	12.94
193.314	8.76
193.702	21.46
194.089	174.5
194.477	-283.38
194.864	605.96
195.252	-0.56
195.639	-25.18
196.027	50.21
196.414	50.58
196.801	-2325.88
197.189	34.02
197.576	85.93
197.963	-156.98
198.351	63.72
198.738	33.19
199.125	57.53
199.512	42.89
199.899	1.68
200.286	27.49
200.673	50.51
201.06	41.57
201.447	32.25
201.833	49.4
202.22	61.53
202.607	76.27
202.994	33.54
203.38	38.69
203.767	62.13
204.154	27.93
204.54	47.86
204.927	22.31
205.313	34.01
205.699	51.43
206.086	6.79
206.472	63.86
206.858	49.57
207.245	-11.94
207.631	87.53
208.017	51.57
208.403	20.98
208.789	51.79
209.175	76.49
209.561	31.41
209.947	-2.04
210.333	69.61
210.719	20.96
211.105	49.22
211.491	27.53
211.876	12.98
212.262	33.99
212.648	42.91
213.034	-0.45
213.419	35.91
213.805	18.16
214.19	29.92
214.576	32.65
214.961	40.78
215.346	41.32
215.732	16.35
216.117	-17.06
216.502	32.76
216.888	1.05
217.273	17.12
217.658	18.48
218.043	21.51
218.428	21.37
218.813	16.32
219.198	29.3
219.583	-16.68
219.968	-2.36
220.353	5.63
220.738	26.41
221.122	-1.4
221.507	14.64
221.892	16.79
222.276	39.1
222.661	21.34
223.046	22.24
223.43	4.8
223.815	23.7
224.199	20.13
224.583	0.49
224.968	-1.39
225.352	3.55
225.736	12.56
226.121	7.49
226.505	9.14
226.889	10.91
227.273	6.71
227.657	13.89
228.041	10.38
228.425	4.27
228.809	8.64
229.193	5.91
229.577	5.67
229.961	4.93
230.344	3.94
230.728	3.95
231.112	4.92
231.495	3.87
231.879	5.07
232.263	5.66
232.646	4.62
233.03	3.98
233.413	5.09
233.797	6.12
234.18	6.29
234.563	6.44
234.946	6.68
235.33	7.65
235.713	4.12
236.096	5.51
236.479	5.15
236.862	4.69
237.245	4.76
237.628	6.12
238.011	6.94
238.394	4.22
238.777	6.79
239.16	3.76
239.543	6.98
239.925	7.73
240.308	6.38
240.691	5.73
241.073	7.83
241.456	5.79
241.838	5.07
242.221	5.93
242.603	4.78
242.986	5.44
243.368	4.89
243.75	4.68
244.133	4.67
244.515	4.21
244.897	4.46
245.279	4.45
245.661	4.26
246.043	4.42
246.425	4.13
246.807	5.13
247.189	4.57
247.571	4.09
247.953	5.31
248.335	4.76
248.717	4.15
249.098	4.22
249.48	4.12
249.862	4.15
250.243	4.53
250.625	4.87
251.006	4.96
251.388	4.25
251.769	4.61
252.151	4.35
252.532	5.07
252.913	4.71
253.295	3.62
253.676	4.06
254.057	4.57
254.438	4.48
254.819	4.71
255.2	4.48
255.581	5.31
255.962	4.95
256.343	4.84
256.724	4.15
257.105	5.13
257.486	4
257.867	4.22
258.247	6.18
258.628	5.11
259.009	4.43
259.389	3.96
259.77	4.15
260.15	4.68
260.531	4.78
260.911	4.96
261.292	3.99
261.672	4.37
262.052	4.48
262.432	4.35
262.813	4.2
263.193	4.27
263.573	4.32
263.953	5.05
264.333	4.39
264.713	4.66
265.093	4.32
265.473	5.39
265.853	4.58
266.233	5.29
266.612	4.51
266.992	4.29
267.372	4.39
267.752	4.55
268.131	5.06
268.511	4.41
268.89	4.41
269.27	4
269.649	4.21
270.029	4.37
270.408	4.95
270.787	4.86
271.167	4.22
271.546	4.95
271.925	4.79
272.304	4.87
272.683	4.7
273.062	4.62
273.441	4.66
273.82	4.22
274.199	4.47
274.578	4.23
274.957	4.3
275.336	4.7
275.715	4.57
276.093	3.92
276.472	4.68
276.851	4.18
277.229	4.9
277.608	4.1
277.986	3.99
278.365	4.91
278.743	4.16
279.122	4.27
279.5	4.08
279.878	4
280.257	4.47
280.635	4.53
281.013	5.31
281.391	4.86
281.769	3.95
282.147	3.89
282.525	3.73
282.903	4.4
283.281	4.6
283.659	4.16
284.037	4.65
284.415	3.98
284.792	4.15
285.17	4.58
285.548	4.44
285.925	4.29
286.303	4.22
286.68	4.25
287.058	4.73
287.435	4.77
287.813	3.98
288.19	4.13
288.567	4.38
288.945	4.43
289.322	4.71
289.699	4.06
290.076	4.67
290.453	4.59
290.83	4.44
291.207	4.95
291.584	4.34
291.961	4.29
292.338	4.45
292.715	4.38
293.092	4.44
293.469	4.61
293.845	4.19
294.222	4.54
294.599	4.95
294.975	5.55
295.352	4.68
295.728	4.53
296.105	4.63
296.481	4.52
296.858	4.83
297.234	4.99
297.61	4.5
297.986	4.91
298.363	5.29
298.739	4.66
299.115	4.75
299.491	4.73
299.867	5.1
300.243	5.03
300.619	4.62
300.995	5.14
301.371	5.58
301.746	5.27
302.122	5.22
302.498	4.89
302.874	5.1
303.249	4.92
303.625	5.48
304	5.69
304.376	5.37
304.751	5.44
305.127	5.32
305.502	6.17
305.878	5.87
306.253	5.71
306.628	5.77
307.003	5.97
307.378	5.99
307.754	5.59
308.129	6.13
308.504	5.83
308.879	5.75
309.254	6.06
309.629	5.79
310.003	5.27
310.378	6.38
310.753	6.31
311.128	6.82
311.502	6.24
311.877	5.94
312.252	5.89
312.626	6.38
313.001	6.29
313.375	6.56
313.75	6.18
314.124	6.12
314.498	6.58
314.873	6.53
315.247	7.21
315.621	7.18
315.995	7.05
316.369	7.2
316.743	7.27
317.117	7.27
317.491	6.5
317.865	6.98
318.239	7.28
318.613	7.51
318.987	7.27
319.361	7.03
319.734	7.34
320.108	6.93
320.482	7.41
320.855	7.44
321.229	8.12
321.602	7.45
321.976	7.58
322.349	8.77
322.723	7.76
323.096	8.35
323.469	7.79
323.843	7.93
324.216	7.85
324.589	7.75
324.962	8.23
325.335	8.59
325.708	7.97
326.081	8.53
326.454	8.28
326.827	8.28
327.2	8.56
327.573	8.22
327.945	8.29
328.318	7.91
328.691	8.11
329.063	9.37
329.436	8.1
329.809	8.73
330.181	8.64
330.553	8.95
330.926	8.76
331.298	8.55
331.671	8.61
332.043	8.45
332.415	8.66
332.787	9.3
333.159	8.65
333.532	8.99
333.904	8.94
334.276	8.65
334.648	9.39
335.02	9.75
335.391	8.99
335.763	9.73
336.135	9.52
336.507	9.36
336.879	9.15
337.25	9.37
337.622	9.67
337.993	9.97
338.365	9.34
338.736	9.82
339.108	10.16
339.479	9.49
339.851	9.57
340.222	9.48
340.593	9.6
340.964	9.55
341.336	9.78
341.707	9.95
342.078	10
342.449	10.06
342.82	9.86
343.191	9.76
343.562	9.98
343.933	10.34
344.303	9.89
344.674	10.25
345.045	10.47
345.416	10.62
345.786	10.22
346.157	10.19
346.527	10.11
346.898	10.31
347.268	10.41
347.639	10.56
348.009	10.26
348.38	10.75
348.75	10.43
349.12	10.95
349.49	10.82
349.861	10.92
350.231	10.43
350.601	10.93
350.971	11.48
351.341	11.09
351.711	11.13
352.081	10.74
352.45	10.86
352.82	10.77
353.19	11.2
353.56	11.2
353.929	11.06
354.299	11.59
354.669	10.75
355.038	11.41
355.408	11.53
355.777	11.37
356.147	11.27
356.516	11.41
356.885	11.18
357.254	11.58
357.624	11.45
357.993	11.32
358.362	11.64
358.731	11.34
359.1	11.25
359.469	11.56
359.838	11.7
360.207	11.72
360.576	11.95
360.945	11.5
361.314	11.44
361.682	11.8
362.051	11.62
362.42	11.65
362.788	12.03
363.157	11.93
363.525	11.9
363.894	12.07
364.262	11.83
364.631	12.15
364.999	12.14
365.367	12.62
365.735	12.01
366.104	12.07
366.472	12.57
366.84	12.78
367.208	12.54
367.576	12.04
367.944	12.97
368.312	12.78
368.68	12.72
369.048	12.77
369.416	12.86
369.783	13.22
370.151	12.83
370.519	12.64
370.886	13.19
371.254	13.16
371.621	13.39
371.989	13.24
372.356	13.44
372.724	13.38
373.091	12.96
373.458	13.14
373.826	13.23
374.193	13.27
374.56	13.51
374.927	13.27
375.294	13.69
375.661	13.69
376.028	13.55
376.395	13.57
376.762	13.4
377.129	13.77
377.496	13.76
377.863	14.29
378.229	13.96
378.596	13.67
378.963	13.78
379.329	13.89
379.696	13.57
380.062	14.06
380.429	13.75
380.795	13.72
381.161	14.29
381.528	14.3
381.894	13.97
382.26	14.26
382.626	14.65
382.993	14.43
383.359	14.4
383.725	14.53
384.091	14.52
384.457	14.57
384.823	14.34
385.188	14.84
385.554	14.7
385.92	14.3
386.286	14.88
386.651	14.36
387.017	14.86
387.383	14.72
387.748	14.67
388.114	14.78
388.479	14.82
388.845	14.76
389.21	15.02
389.575	14.77
389.94	15.02
390.306	15.03
390.671	15.08
391.036	15.07
391.401	15.35
391.766	15.25
392.131	15.22
392.496	15.75
392.861	15.75
393.226	15.34
393.591	15.22
393.956	15.58
394.32	15.78
394.685	15.7
395.05	15.65
395.414	15.87
395.779	15.59
396.143	15.76
396.508	15.73
396.872	15.73
397.236	15.79
397.601	15.7
397.965	15.76
398.329	16.06
398.694	16.07
399.058	15.87
399.422	16.28
399.786	16.04
400.15	16.02
400.514	16.07
400.878	16.48
401.242	16.41
401.605	16.2
401.969	16.3
402.333	16.37
402.697	16.12
403.06	16.79
403.424	16.42
403.787	16.7
404.151	16.46
404.514	16.67
404.878	16.65
405.241	16.81
405.604	16.76
405.968	16.87
406.331	16.6
406.694	16.64
407.057	16.88
407.42	17.12
407.783	16.88
408.146	17.01
408.509	16.86
408.872	17.15
409.235	17.06
409.598	17.28
409.961	17.35
410.323	17.34
410.686	17.41
411.049	17.28
411.411	17.19
411.774	17.39
412.136	17.49
412.499	17.43
412.861	17.8
413.223	17.67
413.586	17.42
413.948	17.4
414.31	17.8
414.672	17.48
415.035	17.64
415.397	17.9
415.759	17.98
416.121	17.9
416.483	18.12
416.845	17.73
417.206	17.87
417.568	17.84
417.93	18.07
418.292	17.68
418.653	18.19
419.015	18.09
419.377	17.93
419.738	18.01
420.1	17.87
420.461	17.96
420.822	18.02
421.184	17.97
421.545	17.93
421.906	18.02
422.267	18.06
422.629	18.16
422.99	17.97
423.351	18.07
423.712	18.04
424.073	18.22
424.434	18.27
424.795	18.31
425.155	18.31
425.516	18.19
425.877	18.41
426.238	18.19
426.598	18.52
426.959	18.36
427.32	18.46
427.68	18.58
428.041	18.54
428.401	18.66
428.761	18.74
429.122	18.83
429.482	18.93
429.842	19.22
430.202	19.25
430.563	19.34
430.923	19.41
431.283	19.25
431.643	19.44
432.003	19.5
432.363	19.38
432.722	19.67
433.082	19.41
433.442	19.4
433.802	19.8
434.161	19.37
434.521	19.8
434.881	19.66
435.24	19.66
435.6	19.63
435.959	19.64
436.319	19.63
436.678	19.77
437.037	19.76
437.396	20.02
437.756	19.89
438.115	19.85
438.474	20.01
438.833	20.02
439.192	19.98
439.551	20.08
439.91	20.19
440.269	20.19
440.628	20.23
440.987	20.14
441.345	20.07
441.704	20.32
442.063	20.14
442.421	20.23
442.78	20.2
443.138	20.32
443.497	20.35
443.855	20.42
444.214	20.36
444.572	20.32
444.93	20.74
445.288	20.84
445.647	20.91
446.005	20.5
446.363	20.8
446.721	20.69
447.079	20.87
447.437	20.49
447.795	20.73
448.153	20.66
448.51	20.59
448.868	20.62
449.226	20.59
449.584	20.67
449.941	20.79
450.299	20.86
450.656	20.94
451.014	21.1
451.371	21.29
451.729	21.33
452.086	21.56
452.443	21.41
452.801	21.54
453.158	21.67
453.515	21.55
453.872	21.68
454.229	21.74
454.586	21.7
454.943	21.68
455.3	21.56
455.657	21.67
456.014	21.81
456.371	21.84
456.727	22.08
457.084	21.86
457.441	22.15
457.797	22.11
458.154	21.98
458.51	22.38
458.867	22.29
459.223	22.37
459.58	22.13
459.936	22.44
460.292	22.15
460.648	22.25
461.005	22.16
461.361	22.13
461.717	21.99
462.073	22.02
462.429	21.92
462.785	22.11
463.141	22.23
463.496	22.37
463.852	22.7
464.208	22.69
464.564	22.57
464.919	22.74
465.275	22.94
465.631	22.89
465.986	23.02
466.342	23.05
466.697	22.9
467.052	23.12
467.408	23.04
467.763	23.23
468.118	23.15
468.473	23.12
468.829	23.33
469.184	23.18
469.539	23.3
469.894	23.26
470.249	23.41
470.603	23.1
470.958	23.53
471.313	23.53
471.668	23.55
472.023	23.75
472.377	23.57
472.732	23.57
473.086	23.69
473.441	23.88
473.795	24.1
474.15	23.75
474.504	23.86
474.859	24.01
475.213	23.86
475.567	23.97
475.921	24.12
476.275	24.22
476.63	24.23
476.984	24.16
477.338	24.23
477.692	24.36
478.045	24.1
478.399	24.29
478.753	24.26
479.107	24.4
479.461	24.29
479.814	24.55
480.168	24.38
480.521	24.49
480.875	24.41
481.228	24.4
481.582	24.49
481.935	24.62
482.289	24.56
482.642	24.6
482.995	24.62
483.348	24.6
483.701	24.56
484.055	24.59
484.408	24.37
484.761	24.29
485.114	24.15
485.466	23.85
485.819	23.78
486.172	23.73
486.525	23.75
486.878	23.8
487.23	23.94
487.583	24.11
487.936	24.23
488.288	24.43
488.641	24.53
488.993	24.36
489.345	24.28
489.698	24.27
490.05	24.3
490.402	24.29
490.754	24.55
491.107	24.49
491.459	24.83
491.811	24.89
492.163	25.09
492.515	25.21
492.866	25.16
493.218	25.06
493.57	24.73
493.922	24.79
494.274	24.76
494.625	24.97
494.977	24.99
495.328	25.3
495.68	25.54
496.031	25.6
496.383	26.05
496.734	25.92
497.086	26.2
497.437	26.1
497.788	26.21
498.139	26.34
498.49	26.23
498.842	26.16
499.193	26.13
499.544	26.27
499.894	26.26
500.245	26.14
500.596	26.25
500.947	26.36
501.298	26.36
501.648	26.45
501.999	26.5
502.35	26.75
502.7	26.9
503.051	26.64
503.401	26.82
503.752	27.03
504.102	26.99
504.452	26.95
504.803	27.09
505.153	27.2
505.503	27.11
505.853	27.04
506.203	27.19
506.553	27.13
506.903	27.19
507.253	27.38
507.603	27.22
507.953	27.25
508.303	27.32
508.652	27.52
509.002	27.42
509.352	27.56
509.701	27.64
510.051	27.34
510.4	27.47
510.75	27.43
511.099	27.37
511.449	27.56
511.798	27.42
512.147	27.58
512.496	27.56
512.846	27.47
513.195	27.77
513.544	27.73
513.893	27.79
514.242	27.9
514.591	27.78
514.939	27.86
515.288	27.79
515.637	28.04
515.986	28.06
516.334	28.12
516.683	28.13
517.032	28.05
517.38	28.14
517.729	28.29
518.077	28.5
518.426	28.37
518.774	28.38
519.122	28.44
519.47	28.46
519.819	28.26
520.167	28.18
520.515	28.22
520.863	28.15
521.211	28.14
521.559	28.33
521.907	28.17
522.255	28.26
522.602	28.54
522.95	28.71
523.298	28.73
523.645	28.78
523.993	28.86
524.341	29.02
524.688	28.82
525.036	29.11
525.383	28.91
525.73	29.24
526.078	29.04
526.425	29.11
526.772	29.1
527.119	28.87
527.466	28.86
527.814	28.79
528.161	28.68
528.508	28.78
528.854	28.92
529.201	28.96
529.548	29.05
529.895	28.82
530.242	28.66
530.588	28.45
530.935	28.53
531.282	28.58
531.628	28.54
531.975	28.53
532.321	28.75
532.667	28.91
533.014	29.13
533.36	29.25
533.706	29.47
534.052	29.42
534.399	29.41
534.745	29.35
535.091	29.38
535.437	29.25
535.783	29.35
536.129	29.43
536.474	29.5
536.82	29.45
537.166	29.7
537.512	29.82
537.857	30.16
538.203	30.03
538.549	30.01
538.894	29.88
539.239	30.03
539.585	30.03
539.93	30.1
540.276	30.37
540.621	30.56
540.966	30.5
541.311	30.76
541.656	30.7
542.001	30.86
542.346	30.76
542.691	30.44
543.036	30.24
543.381	30.03
543.726	29.95
544.071	30.08
544.415	30.09
544.76	30.24
545.105	30.34
545.449	30.44
545.794	30.73
546.138	30.58
546.483	30.83
546.827	31.12
547.171	31.18
547.516	31.11
547.86	31.44
548.204	31.23
548.548	31.33
548.892	31.14
549.236	31.07
549.58	31.23
549.924	31.29
550.268	31.52
550.612	31.66
550.956	31.94
551.3	31.73
551.643	32.06
551.987	31.9
552.33	31.98
552.674	32.01
553.017	31.93
553.361	32.12
553.704	32.46
554.048	32.32
554.391	32.15
554.734	32.15
555.077	32.14
555.42	32.2
555.764	32.31
556.107	32.31
556.45	32.61
556.793	32.58
557.135	32.61
557.478	32.58
557.821	32.67
558.164	32.73
558.507	33.1
558.849	32.95
559.192	32.77
559.534	32.83
559.877	32.72
560.219	33.32
560.562	33.05
560.904	32.71
561.246	33.22
561.589	33.25
561.931	33.35
562.273	33.37
562.615	33.16
562.957	33.23
563.299	33.28
563.641	33.37
563.983	33.19
564.325	33.34
564.667	33.48
565.008	33.5
565.35	33.75
565.692	33.62
566.033	33.61
566.375	33.57
566.716	33.67
567.058	33.65
567.399	33.72
567.741	33.74
568.082	33.65
568.423	33.68
568.764	33.73
569.105	33.86
569.447	33.62
569.788	33.58
570.129	33.95
570.47	33.82
570.811	33.72
571.151	34.04
571.492	33.9
571.833	34.31
572.174	33.98
572.514	34.1
572.855	34.21
573.195	34.41
573.536	34.19
573.876	34.17
574.217	34.07
574.557	34.29
574.898	34.09
575.238	34.25
575.578	34.41
575.918	34.46
576.258	34.76
576.598	34.52
576.938	34.48
577.278	34.56
577.618	34.33
577.958	34.64
578.298	34.74
578.638	34.68
578.977	34.87
579.317	34.77
579.657	34.87
579.996	34.85
580.336	35
580.675	34.88
581.014	34.98
581.354	35.38
581.693	35.51
582.032	35.41
582.372	35.51
582.711	35.42
583.05	35.78
583.389	35.52
583.728	35.77
584.067	35.38
584.406	35.85
584.745	35.6
585.083	35.38
585.422	35.74
585.761	35.6
586.1	35.82
586.438	35.7
586.777	35.79
587.115	35.95
587.454	36.22
587.792	36.33
588.13	36.31
588.469	36.02
588.807	36.31
589.145	36.22
589.483	35.86
589.821	36.01
590.159	36.28
590.497	36.21
590.835	36.01
591.173	36.05
591.511	36.3
591.849	36.11
592.187	36.12
592.524	36.46
592.862	36.3
593.2	36.51
593.537	36.55
593.875	36.33
594.212	36.52
594.55	36.72
594.887	36.83
595.224	36.65
595.561	36.52
595.899	36.89
596.236	36.65
596.573	36.88
596.91	36.82
597.247	36.88
597.584	36.71
597.921	36.57
598.258	36.92
598.594	36.92
598.931	36.65
599.268	36.77
599.604	36.72
599.941	36.96
600.277	36.61
600.614	36.68
600.95	36.71
601.287	37.14
601.623	37.2
601.959	37.28
602.296	37.47
602.632	37.43
602.968	37.22
603.304	37.57
603.64	37.7
603.976	37.53
604.312	38
604.648	37.73
604.984	37.7
605.319	37.59
605.655	37.41
605.991	37.18
606.326	37.33
606.662	37.31
606.998	37.46
607.333	37.26
607.668	37.47
608.004	37.43
608.339	37.53
608.674	37.71
609.01	37.77
609.345	37.96
609.68	38.52
610.015	38.06
610.35	38.21
610.685	38.18
611.02	37.91
611.355	38.12
611.689	38.2
612.024	38.04
612.359	37.9
612.694	38.16
613.028	38.29
613.363	38.31
613.697	38.37
614.032	38.16
614.366	38.78
614.7	38.62
615.035	38.63
615.369	38.68
615.703	38.31
616.037	38.94
616.371	38.9
616.705	38.76
617.039	38.91
617.373	38.59
617.707	39.39
618.041	38.93
618.375	38.68
618.709	38.64
619.042	39.24
619.376	39.56
619.71	38.98
620.043	39.34
620.377	39.31
620.71	39.33
621.043	39.32
621.377	39.28
621.71	39.13
622.043	39.35
622.376	39.57
622.709	39.79
623.043	39.93
623.376	39.74
623.709	39.73
624.041	39.5
624.374	39.92
624.707	39.77
625.04	39.56
625.373	39.72
625.705	39.55
626.038	40.04
626.37	39.69
626.703	39.78
627.035	39.81
627.368	40.18
627.7	40.21
628.032	40.17
628.365	40.22
628.697	39.92
629.029	39.99
629.361	40.06
629.693	40.09
630.025	40.46
630.357	40.06
630.689	39.81
631.021	40.59
631.353	40.42
631.684	40.44
632.016	39.99
632.348	40.48
632.679	40.31
633.011	40.73
633.342	40.72
633.674	41.1
634.005	40.69
634.336	41.14
634.668	40.64
634.999	40.59
635.33	40.59
635.661	40.8
635.992	40.92
636.323	40.61
636.654	40.98
636.985	41.02
637.316	41.14
637.647	40.58
637.977	40.99
638.308	41.02
638.639	41.45
638.969	41.09
639.3	41.1
639.63	41.36
639.961	40.51
640.291	40.81
640.622	41.11
640.952	41.77
641.282	41.22
641.612	41.47
641.943	41.42
642.273	40.97
642.603	41.36
642.933	41.27
643.263	41.83
643.592	41.49
643.922	41.38
644.252	41.58
644.582	41.64
644.911	41.85
645.241	41.96
645.571	41.96
645.9	41.52
646.23	41.99
646.559	40.95
646.888	41.83
647.218	41.72
647.547	41.5
647.876	42.05
648.205	41.67
648.534	41.92
648.863	41.85
649.192	41.91
649.521	42.5
649.85	42.2
650.179	42.3
650.508	42.17
650.837	41.99
651.165	42.87
651.494	42.17
651.822	42.83
652.151	42.44
652.479	41.9
652.808	42.44
653.136	42.5
653.465	42.6
653.793	42.84
654.121	43.07
654.449	42.54
654.777	42.36
655.105	42.72
655.433	42.99
655.761	42.96
656.089	42.31
656.417	42.25
656.745	43.09
657.073	42.76
657.4	43.23
657.728	43.09
658.056	42.74
658.383	42.98
658.711	43.04
659.038	42.75
659.365	43.22
659.693	42.85
660.02	43.38
660.347	43.32
660.674	43.05
661.001	42.7
661.329	43.2
661.656	42.89
661.982	43.06
662.309	43.06
662.636	43.24
662.963	42.75
663.29	42.67
663.616	43.33
663.943	42.64
664.27	43.67
664.596	43.55
664.923	42.57
665.249	43.27
665.576	43.46
665.902	43.63
666.228	43.61
666.554	43.77
666.881	43.66
667.207	43.93
667.533	43.89
667.859	44.2
668.185	43.42
668.511	43.73
668.837	44.33
669.162	44.45
669.488	43.81
669.814	43.54
670.139	43.49
