Data from 0263_crown_Reflection__3__146.txt Node

Date: Fri Oct 20 21:46:33 CDT 2023
User: ToomeyLab
Spectrometer: FLMS14357
Trigger mode: 0
Integration Time (sec): 1.000000E-2
Scans to average: 100
Electric dark correction enabled: true
Nonlinearity correction enabled: false
Boxcar width: 0
XAxis mode: Wavelengths
Number of Pixels in Spectrum: 2048
>>>>>Begin Spectral Data<<<<<
189.047	80.48
189.435	80.48
189.823	80.48
190.211	-1329.57
190.599	105.91
190.987	2077.87
191.375	19.68
191.763	290.83
192.151	175.23
192.538	-40.32
192.926	-25.94
193.314	86.8
193.702	116.62
194.089	161.07
194.477	125.34
194.864	402.63
195.252	118.84
195.639	133.81
196.027	318.78
196.414	147.39
196.801	-1944.12
197.189	0.37
197.576	74.19
197.963	376.83
198.351	-4.35
198.738	-10.72
199.125	22.5
199.512	13.34
199.899	34.09
200.286	3.91
200.673	14.23
201.06	29.37
201.447	17.75
201.833	32.32
202.22	43.44
202.607	1.53
202.994	26.72
203.38	28.01
203.767	35.24
204.154	44.29
204.54	56.34
204.927	3.84
205.313	21.56
205.699	34.25
206.086	7.83
206.472	53.17
206.858	38.42
207.245	17.61
207.631	44.72
208.017	37.47
208.403	20.94
208.789	47.29
209.175	47.01
209.561	32.66
209.947	17.97
210.333	21.57
210.719	49.22
211.105	5.22
211.491	8.35
211.876	14.73
212.262	31.15
212.648	28.51
213.034	12.97
213.419	16.52
213.805	3.45
214.19	6.57
214.576	-7.58
214.961	9.37
215.346	14.32
215.732	24.95
216.117	17.33
216.502	16.5
216.888	20.24
217.273	2.45
217.658	-15.53
218.043	2.97
218.428	23.42
218.813	10.06
219.198	9.67
219.583	-14.21
219.968	-4.66
220.353	4.41
220.738	9.37
221.122	18.22
221.507	19.84
221.892	14.9
222.276	3.67
222.661	20.47
223.046	12.19
223.43	11.82
223.815	19.07
224.199	15.5
224.583	0.84
224.968	-0.15
225.352	3.26
225.736	3.61
226.121	7.29
226.505	11.77
226.889	13.91
227.273	9.68
227.657	15.6
228.041	11.52
228.425	7.78
228.809	11.04
229.193	10.34
229.577	11.22
229.961	10.67
230.344	10.2
230.728	9.13
231.112	9.69
231.495	8.8
231.879	9.83
232.263	9.54
232.646	7.56
233.03	7.57
233.413	7.99
233.797	9.09
234.18	9.3
234.563	10.76
234.946	10.78
235.33	11.36
235.713	8.42
236.096	9.67
236.479	9.62
236.862	8.22
237.245	8.61
237.628	9.91
238.011	7.47
238.394	8.22
238.777	9.69
239.16	7.97
239.543	9.3
239.925	11.11
240.308	8.4
240.691	9.24
241.073	10.46
241.456	9.24
241.838	8.8
242.221	9.07
242.603	8.66
242.986	8.56
243.368	8.76
243.75	8.3
244.133	8.23
244.515	7.86
244.897	8.12
245.279	8.55
245.661	8.03
246.043	7.71
246.425	8.42
246.807	7.7
247.189	8.68
247.571	7.11
247.953	7.73
248.335	7.85
248.717	7.63
249.098	7.53
249.48	7.5
249.862	7.78
250.243	7.97
250.625	8.03
251.006	7.84
251.388	7.84
251.769	7.87
252.151	6.82
252.532	7.58
252.913	7.12
253.295	6.71
253.676	7.43
254.057	7.25
254.438	7.7
254.819	7.45
255.2	6.94
255.581	6.61
255.962	6.97
256.343	7.52
256.724	7.2
257.105	7.11
257.486	6.84
257.867	8.1
258.247	7.52
258.628	7.5
259.009	6.57
259.389	6.98
259.77	6.75
260.15	6.57
260.531	7.38
260.911	7.24
261.292	7.04
261.672	6.91
262.052	6.99
262.432	6.77
262.813	6.6
263.193	6.4
263.573	6.66
263.953	6.64
264.333	6.74
264.713	7.03
265.093	6.9
265.473	7.02
265.853	6.46
266.233	6.72
266.612	6.86
266.992	5.86
267.372	6.7
267.752	6.37
268.131	6.88
268.511	6.72
268.89	6.8
269.27	6.4
269.649	6.27
270.029	6.78
270.408	6.7
270.787	6.65
271.167	6.51
271.546	6.48
271.925	7.36
272.304	7.03
272.683	7.11
273.062	6.9
273.441	7.06
273.82	6.79
274.199	7.11
274.578	6.43
274.957	6.73
275.336	6.49
275.715	6.02
276.093	6
276.472	6.32
276.851	6.56
277.229	6.51
277.608	6.23
277.986	6.14
278.365	6.86
278.743	6.4
279.122	6.25
279.5	6.82
279.878	5.94
280.257	6.34
280.635	5.63
281.013	6.27
281.391	7.17
281.769	6.41
282.147	6.28
282.525	6.17
282.903	6.08
283.281	6.95
283.659	5.86
284.037	6.57
284.415	6.02
284.792	6.26
285.17	6.36
285.548	6.11
285.925	6
286.303	6.2
286.68	6.01
287.058	6.61
287.435	6.37
287.813	5.99
288.19	6.09
288.567	6.15
288.945	6.56
289.322	6.21
289.699	5.62
290.076	6.73
290.453	5.87
290.83	5.9
291.207	6.61
291.584	5.73
291.961	5.8
292.338	6.26
292.715	6.33
293.092	5.99
293.469	6.61
293.845	5.7
294.222	5.8
294.599	6.04
294.975	7.13
295.352	6.13
295.728	6.26
296.105	5.57
296.481	6.03
296.858	6.07
297.234	6.62
297.61	5.97
297.986	5.88
298.363	6.2
298.739	6.22
299.115	6.22
299.491	6.07
299.867	6.23
300.243	6.12
300.619	6.08
300.995	6.08
301.371	5.99
301.746	5.77
302.122	6.48
302.498	5.7
302.874	5.74
303.249	6.18
303.625	6.52
304	6.71
304.376	5.67
304.751	5.86
305.127	5.62
305.502	6.57
305.878	5.89
306.253	5.83
306.628	6.18
307.003	6.11
307.378	5.79
307.754	6.11
308.129	6.3
308.504	6.41
308.879	6.01
309.254	6.1
309.629	6.07
310.003	5.27
310.378	6.4
310.753	5.62
311.128	6.1
311.502	6.08
311.877	6.48
312.252	6.36
312.626	6.61
313.001	6.3
313.375	6.46
313.75	6.37
314.124	6
314.498	6.34
314.873	5.7
315.247	5.36
315.621	5.77
315.995	6.19
316.369	5.81
316.743	6.72
317.117	6.54
317.491	6.11
317.865	6.15
318.239	6.42
318.613	6.04
318.987	5.88
319.361	5.16
319.734	5.81
320.108	6.03
320.482	5.94
320.855	6.14
321.229	6.54
321.602	6.24
321.976	5.93
322.349	6.21
322.723	6.35
323.096	6.47
323.469	6.48
323.843	6.04
324.216	6.5
324.589	5.96
324.962	6.19
325.335	6.5
325.708	6.79
326.081	6.13
326.454	6.22
326.827	6.64
327.2	6.35
327.573	6.66
327.945	6.26
328.318	6.39
328.691	6.19
329.063	6.46
329.436	6.41
329.809	6.5
330.181	6.53
330.553	6.28
330.926	6.51
331.298	5.92
331.671	6.11
332.043	6.19
332.415	6.15
332.787	6.69
333.159	6.02
333.532	6.72
333.904	6.78
334.276	5.44
334.648	6.11
335.02	6.94
335.391	6.37
335.763	6.78
336.135	6.6
336.507	6.11
336.879	6.42
337.25	6.69
337.622	6.81
337.993	7.07
338.365	6.96
338.736	6.3
339.108	6.65
339.479	6.67
339.851	6.98
340.222	6.7
340.593	6.62
340.964	6.24
341.336	6.87
341.707	6.33
342.078	6.78
342.449	6.29
342.82	6.55
343.191	6.4
343.562	6.66
343.933	6.73
344.303	6.75
344.674	6.84
345.045	7.1
345.416	6.6
345.786	6.51
346.157	6.79
346.527	6.88
346.898	6.74
347.268	6.43
347.639	6.98
348.009	6.49
348.38	6.55
348.75	6.57
349.12	6.31
349.49	6.31
349.861	6.65
350.231	6.5
350.601	6.28
350.971	6.98
351.341	6.27
351.711	7.29
352.081	6.76
352.45	6.58
352.82	6.62
353.19	6.75
353.56	7.17
353.929	6.41
354.299	6.49
354.669	6.55
355.038	7.2
355.408	6.68
355.777	6.68
356.147	6.32
356.516	6.6
356.885	6.68
357.254	6.52
357.624	6.6
357.993	6.49
358.362	7.04
358.731	6.37
359.1	6.23
359.469	6.79
359.838	6.96
360.207	6.88
360.576	7.03
360.945	6.46
361.314	6.69
361.682	6.86
362.051	6.81
362.42	6.57
362.788	6.95
363.157	6.81
363.525	6.77
363.894	6.98
364.262	6.76
364.631	6.7
364.999	6.77
365.367	6.78
365.735	7
366.104	6.89
366.472	6.97
366.84	6.93
367.208	6.98
367.576	6.9
367.944	7.13
368.312	6.55
368.68	7.08
369.048	6.69
369.416	7.16
369.783	6.94
370.151	7.13
370.519	6.84
370.886	6.94
371.254	7.25
371.621	7.24
371.989	6.75
372.356	7.09
372.724	7.06
373.091	7
373.458	6.75
373.826	6.66
374.193	7.01
374.56	6.74
374.927	7.03
375.294	6.97
375.661	7.36
376.028	7.08
376.395	7.1
376.762	7.07
377.129	6.9
377.496	7
377.863	7.37
378.229	7.07
378.596	7.07
378.963	6.88
379.329	7.26
379.696	7.28
380.062	7.01
380.429	6.72
380.795	6.78
381.161	6.88
381.528	7.26
381.894	6.89
382.26	7.11
382.626	7.39
382.993	6.85
383.359	6.92
383.725	7.1
384.091	6.88
384.457	6.85
384.823	7.02
385.188	6.99
385.554	7
385.92	6.96
386.286	7.37
386.651	6.9
387.017	7.21
387.383	6.82
387.748	6.86
388.114	6.85
388.479	7.04
388.845	7.33
389.21	6.62
389.575	6.79
389.94	7.13
390.306	7.1
390.671	6.92
391.036	6.88
391.401	7.03
391.766	6.98
392.131	7.12
392.496	7.2
392.861	7.04
393.226	7.08
393.591	7.01
393.956	7.09
394.32	7.23
394.685	6.93
395.05	7.2
395.414	7.22
395.779	6.89
396.143	7.04
396.508	6.9
396.872	7.21
397.236	7.07
397.601	6.84
397.965	6.96
398.329	6.87
398.694	7.06
399.058	6.97
399.422	7.01
399.786	6.94
400.15	7.07
400.514	7.06
400.878	7.1
401.242	7.19
401.605	7.09
401.969	6.81
402.333	7.09
402.697	7.3
403.06	7.01
403.424	6.92
403.787	6.9
404.151	7.09
404.514	7.26
404.878	6.98
405.241	7.14
405.604	6.85
405.968	7.11
406.331	7
406.694	7.16
407.057	7.11
407.42	7.23
407.783	7.12
408.146	7.1
408.509	6.96
408.872	7.05
409.235	7.14
409.598	7.09
409.961	7.24
410.323	7.04
410.686	7.19
411.049	6.99
411.411	6.92
411.774	7.13
412.136	7.08
412.499	7.12
412.861	7.09
413.223	7.2
413.586	6.97
413.948	7.36
414.31	7.25
414.672	7.06
415.035	7.01
415.397	7.08
415.759	6.93
416.121	7.01
416.483	7.22
416.845	7.05
417.206	7.13
417.568	7.04
417.93	7.15
418.292	6.77
418.653	7.09
419.015	7.02
419.377	6.94
419.738	6.91
420.1	6.96
420.461	6.96
420.822	6.92
421.184	7.03
421.545	6.93
421.906	6.99
422.267	6.92
422.629	6.98
422.99	6.84
423.351	6.87
423.712	6.79
424.073	6.92
424.434	6.87
424.795	6.8
425.155	6.88
425.516	6.83
425.877	6.91
426.238	6.71
426.598	6.81
426.959	6.76
427.32	6.88
427.68	6.91
428.041	6.81
428.401	6.98
428.761	6.92
429.122	6.93
429.482	6.86
429.842	6.9
430.202	6.95
430.563	7
430.923	7.15
431.283	6.91
431.643	6.97
432.003	7.16
432.363	6.88
432.722	7.09
433.082	7.06
433.442	6.94
433.802	6.99
434.161	6.99
434.521	7.13
434.881	6.94
435.24	7.01
435.6	6.92
435.959	6.91
436.319	6.84
436.678	6.98
437.037	6.86
437.396	7
437.756	6.93
438.115	6.87
438.474	7.04
438.833	6.88
439.192	6.86
439.551	7.01
439.91	6.84
440.269	7.07
440.628	6.98
440.987	6.79
441.345	6.82
441.704	6.83
442.063	6.87
442.421	6.76
442.78	6.86
443.138	6.88
443.497	6.79
443.855	6.8
444.214	6.74
444.572	6.76
444.93	6.83
445.288	6.87
445.647	7.08
446.005	6.74
446.363	6.8
446.721	6.84
447.079	6.92
447.437	6.84
447.795	6.71
448.153	6.71
448.51	6.77
448.868	6.67
449.226	6.76
449.584	6.77
449.941	6.75
450.299	6.7
450.656	6.66
451.014	6.84
451.371	6.87
451.729	6.73
452.086	6.9
452.443	6.81
452.801	6.69
453.158	6.84
453.515	6.85
453.872	6.81
454.229	6.99
454.586	6.85
454.943	6.84
455.3	6.63
455.657	6.78
456.014	6.73
456.371	6.78
456.727	6.82
457.084	6.85
457.441	6.76
457.797	6.95
458.154	6.68
458.51	6.64
458.867	6.87
459.223	6.65
459.58	6.71
459.936	6.7
460.292	6.58
460.648	6.64
461.005	6.59
461.361	6.7
461.717	6.57
462.073	6.68
462.429	6.59
462.785	6.69
463.141	6.62
463.496	6.62
463.852	6.67
464.208	6.69
464.564	6.87
464.919	6.66
465.275	6.88
465.631	6.64
465.986	6.63
466.342	6.72
466.697	6.54
467.052	6.64
467.408	6.57
467.763	6.79
468.118	6.83
468.473	6.7
468.829	6.64
469.184	6.58
469.539	6.66
469.894	6.66
470.249	6.63
470.603	6.63
470.958	6.77
471.313	6.88
471.668	6.65
472.023	6.7
472.377	6.66
472.732	6.63
473.086	6.83
473.441	6.75
473.795	6.89
474.15	6.59
474.504	6.53
474.859	6.72
475.213	6.54
475.567	6.8
475.921	6.85
476.275	6.6
476.63	6.75
476.984	6.61
477.338	6.58
477.692	6.67
478.045	6.52
478.399	6.51
478.753	6.62
479.107	6.57
479.461	6.58
479.814	6.6
480.168	6.69
480.521	6.62
480.875	6.6
481.228	6.52
481.582	6.68
481.935	6.54
482.289	6.59
482.642	6.48
482.995	6.46
483.348	6.5
483.701	6.52
484.055	6.52
484.408	6.35
484.761	6.38
485.114	6.34
485.466	6.26
485.819	6.2
486.172	6.14
486.525	6.12
486.878	6.19
487.23	6.15
487.583	6.22
487.936	6.26
488.288	6.29
488.641	6.38
488.993	6.29
489.345	6.25
489.698	6.21
490.05	6.25
490.402	6.25
490.754	6.24
491.107	6.17
491.459	6.27
491.811	6.37
492.163	6.32
492.515	6.45
492.866	6.37
493.218	6.27
493.57	6.25
493.922	6.27
494.274	6.24
494.625	6.18
494.977	6.18
495.328	6.27
495.68	6.33
496.031	6.35
496.383	6.51
496.734	6.43
497.086	6.37
497.437	6.31
497.788	6.43
498.139	6.53
498.49	6.39
498.842	6.32
499.193	6.41
499.544	6.37
499.894	6.45
500.245	6.28
500.596	6.36
500.947	6.41
501.298	6.3
501.648	6.29
501.999	6.32
502.35	6.3
502.7	6.46
503.051	6.43
503.401	6.36
503.752	6.35
504.102	6.31
504.452	6.22
504.803	6.24
505.153	6.46
505.503	6.36
505.853	6.43
506.203	6.28
506.553	6.21
506.903	6.35
507.253	6.37
507.603	6.29
507.953	6.31
508.303	6.3
508.652	6.31
509.002	6.26
509.352	6.29
509.701	6.42
510.051	6.13
510.4	6.35
510.75	6.26
511.099	6.23
511.449	6.32
511.798	6.23
512.147	6.27
512.496	6.27
512.846	6.19
513.195	6.28
513.544	6.17
513.893	6.21
514.242	6.22
514.591	6.28
514.939	6.13
515.288	6.06
515.637	6.28
515.986	6.41
516.334	6.23
516.683	6.23
517.032	6.09
517.38	6.1
517.729	6.23
518.077	6.35
518.426	6.26
518.774	6.01
519.122	6.08
519.47	6.12
519.819	6.01
520.167	6.12
520.515	6.11
520.863	6.09
521.211	6.09
521.559	6.11
521.907	6.03
522.255	6.09
522.602	6.18
522.95	6.1
523.298	6.19
523.645	6.14
523.993	6.11
524.341	6.17
524.688	6.16
525.036	6.06
525.383	6.07
525.73	6.25
526.078	6.14
526.425	6.2
526.772	5.98
527.119	6.07
527.466	6.07
527.814	6.07
528.161	6.02
528.508	6.06
528.854	6.09
529.201	5.97
529.548	6.15
529.895	6.03
530.242	5.98
530.588	5.86
530.935	5.82
531.282	5.87
531.628	5.83
531.975	5.85
532.321	5.83
532.667	5.93
533.014	6.02
533.36	6.02
533.706	5.98
534.052	5.98
534.399	5.86
534.745	5.92
535.091	5.99
535.437	5.9
535.783	5.89
536.129	5.93
536.474	5.93
536.82	5.93
537.166	5.89
537.512	5.99
537.857	6.12
538.203	5.94
538.549	6.06
538.894	5.95
539.239	6.04
539.585	5.83
539.93	5.84
540.276	6.13
540.621	6.02
540.966	6.05
541.311	6.08
541.656	5.97
542.001	5.97
542.346	6.03
542.691	5.87
543.036	5.94
543.381	5.78
543.726	5.8
544.071	5.82
544.415	5.74
544.76	5.72
545.105	5.91
545.449	5.85
545.794	5.86
546.138	5.87
546.483	5.88
546.827	5.93
547.171	5.94
547.516	5.88
547.86	5.96
548.204	5.83
548.548	5.78
548.892	5.77
549.236	5.94
549.58	5.92
549.924	5.84
550.268	5.82
550.612	6
550.956	5.97
551.3	6.01
551.643	5.84
551.987	6.07
552.33	5.9
552.674	5.85
553.017	5.95
553.361	5.97
553.704	6.02
554.048	5.95
554.391	6.05
554.734	6.08
555.077	5.94
555.42	5.82
555.764	5.82
556.107	6.01
556.45	5.89
556.793	5.83
557.135	5.89
557.478	5.78
557.821	5.82
558.164	6.12
558.507	5.96
558.849	5.83
559.192	5.92
559.534	5.88
559.877	5.71
560.219	6
560.562	5.96
560.904	5.76
561.246	5.99
561.589	5.66
561.931	5.87
562.273	5.91
562.615	5.94
562.957	5.9
563.299	5.82
563.641	5.83
563.983	5.89
564.325	5.81
564.667	5.95
565.008	6.03
565.35	5.76
565.692	5.75
566.033	5.85
566.375	5.78
566.716	5.86
567.058	5.64
567.399	5.83
567.741	5.75
568.082	5.83
568.423	5.84
568.764	5.8
569.105	5.86
569.447	5.67
569.788	5.81
570.129	5.68
570.47	5.91
570.811	5.84
571.151	5.73
571.492	5.97
571.833	6.05
572.174	5.88
572.514	5.65
572.855	5.6
573.195	5.81
573.536	5.68
573.876	5.85
574.217	5.58
574.557	5.72
574.898	5.53
575.238	5.77
575.578	5.79
575.918	5.75
576.258	5.66
576.598	5.89
576.938	5.85
577.278	5.76
577.618	5.6
577.958	5.72
578.298	5.63
578.638	5.74
578.977	5.74
579.317	5.69
579.657	5.63
579.996	5.62
580.336	5.77
580.675	5.76
581.014	5.68
581.354	5.74
581.693	5.71
582.032	5.66
582.372	5.73
582.711	5.81
583.05	5.99
583.389	5.52
583.728	5.74
584.067	5.74
584.406	5.85
584.745	5.59
585.083	5.66
585.422	5.56
585.761	5.64
586.1	5.63
586.438	5.4
586.777	5.68
587.115	5.84
587.454	5.93
587.792	5.67
588.13	5.65
588.469	5.78
588.807	5.34
589.145	5.58
589.483	5.42
589.821	5.66
590.159	5.82
590.497	5.85
590.835	5.67
591.173	5.73
591.511	5.51
591.849	5.45
592.187	5.73
592.524	5.6
592.862	5.71
593.2	5.59
593.537	5.56
593.875	5.52
594.212	5.56
594.55	5.68
594.887	5.65
595.224	5.61
595.561	5.6
595.899	5.47
596.236	5.57
596.573	5.67
596.91	5.79
597.247	5.66
597.584	5.54
597.921	5.48
598.258	5.75
598.594	5.81
598.931	5.59
599.268	5.54
599.604	5.55
599.941	5.38
600.277	5.47
600.614	5.72
600.95	5.59
601.287	5.52
601.623	5.64
601.959	5.48
602.296	5.57
602.632	5.76
602.968	5.51
603.304	5.61
603.64	5.32
603.976	5.6
604.312	5.78
604.648	5.74
604.984	5.96
605.319	5.53
605.655	5.33
605.991	5.54
606.326	5.39
606.662	5.46
606.998	5.4
607.333	5.42
607.668	5.37
608.004	5.51
608.339	5.54
608.674	5.58
609.01	5.55
609.345	5.83
609.68	5.83
610.015	5.48
610.35	5.57
610.685	5.68
611.02	5.42
611.355	5.29
611.689	5.55
612.024	5.58
612.359	5.41
612.694	5.36
613.028	5.66
613.363	5.6
613.697	5.55
614.032	5.51
614.366	5.33
614.7	5.7
615.035	5.32
615.369	5.55
615.703	5.34
616.037	5.5
616.371	5.44
616.705	5.53
617.039	5.21
617.373	5.63
617.707	5.91
618.041	5.59
618.375	5.26
618.709	5.58
619.042	5.4
619.376	5.74
619.71	5.86
620.043	5.54
620.377	5.56
620.71	5.43
621.043	5.78
621.377	5.68
621.71	5.37
622.043	5.34
622.376	5.47
622.709	5.82
623.043	5.5
623.376	5.59
623.709	5.15
624.041	5.56
624.374	5.51
624.707	5.55
625.04	5.69
625.373	5.46
625.705	5.46
626.038	5.66
626.37	5.57
626.703	5.29
627.035	5.31
627.368	5.34
627.7	5.54
628.032	5.42
628.365	5.71
628.697	5.55
629.029	5.51
629.361	5.6
629.693	5.31
630.025	5.5
630.357	5.48
630.689	5.13
631.021	5.84
631.353	5.6
631.684	5.37
632.016	5.62
632.348	5.31
632.679	5.01
633.011	5.67
633.342	4.98
633.674	5.4
634.005	5.38
634.336	5.61
634.668	5.65
634.999	5.51
635.33	5.23
635.661	5.68
635.992	5.55
636.323	5.84
636.654	5.64
636.985	5.31
637.316	5.47
637.647	5.06
637.977	5.01
638.308	5.25
638.639	5.8
638.969	5.42
639.3	5.34
639.63	5.5
639.961	5.41
640.291	5.76
640.622	5.53
640.952	5.74
641.282	5.59
641.612	5.57
641.943	5.52
642.273	5.11
642.603	5.79
642.933	5.65
643.263	5.36
643.592	5.24
643.922	6.04
644.252	5.06
644.582	5.42
644.911	5.64
645.241	5.5
645.571	5.85
645.9	5.14
646.23	5.8
646.559	5.28
646.888	5.62
647.218	5.67
647.547	5.42
647.876	5.28
648.205	5.59
648.534	5.72
648.863	5.51
649.192	5.16
649.521	5.27
649.85	5.32
650.179	5.35
650.508	5.56
650.837	5.45
651.165	5.89
651.494	4.9
651.822	5.44
652.151	5.83
652.479	5.32
652.808	5.7
653.136	5.4
653.465	5.63
653.793	5.85
654.121	5.69
654.449	5.44
654.777	5.38
655.105	5.54
655.433	5.69
655.761	5.86
656.089	5.61
656.417	5.35
656.745	5.38
657.073	5.56
657.4	6.19
657.728	5.96
658.056	5.45
658.383	5.75
658.711	4.86
659.038	5.64
659.365	6.07
659.693	5.5
660.02	5.88
660.347	5.14
660.674	5.71
661.001	5.17
661.329	5.4
661.656	5.57
661.982	5.75
662.309	5.75
662.636	5.32
662.963	6.02
663.29	5.11
663.616	6.36
663.943	5.09
664.27	5.71
664.596	5.42
664.923	5.39
665.249	5.67
665.576	5.47
665.902	5.52
666.228	5.61
666.554	5.76
666.881	5.42
667.207	5.72
667.533	5.88
667.859	5.68
668.185	5.72
668.511	6.35
668.837	5.82
669.162	6.23
669.488	5.56
669.814	4.84
670.139	5.89
670.465	5.4
670.791	5.79
671.116	5.26
671.442	5.65
671.767	5.38
672.092	5.67
672.418	5.07
672.743	5.44
673.068	5.73
673.393	5.49
673.718	5.59
674.043	5.3
674.368	5.56
674.693	5.78
675.018	6.3
675.343	6.09
675.667	5.9
675.992	6.03
676.317	5.64
676.641	5.97
676.966	6.11
677.29	5.27
677.615	5.81
677.939	5.77
678.264	5.66
678.588	4.59
678.912	6.04
679.236	5.85
679.56	5.88
679.885	5.49
680.209	5.81
680.532	5.13
680.856	5.79
681.18	5.47
681.504	5.87
681.828	6.6
682.152	5.64
682.475	5.83
682.799	5.54
683.122	5.18
683.446	5.84
683.769	5.34
684.093	6.27
684.416	5.53
684.739	5.96
685.062	4.79
685.386	5.35
685.709	5.69
686.032	5.88
686.355	6.61
686.678	6.02
687.001	5.83
687.324	5.49
687.646	5.85
687.969	6.65
688.292	6.09
688.614	5.77
688.937	5.33
689.26	5.43
689.582	5.38
689.904	4.89
690.227	5.97
690.549	5.72
690.871	5.72
691.194	5.82
691.516	5.9
691.838	6.59
692.16	5.61
692.482	5.72
692.804	6.03
