Data from 0099_forehead_Reflection__1__184.txt Node

Date: Fri Sep 22 22:20:12 CDT 2023
User: ToomeyLab
Spectrometer: FLMS14357
Trigger mode: 0
Integration Time (sec): 1.000000E-2
Scans to average: 100
Electric dark correction enabled: true
Nonlinearity correction enabled: false
Boxcar width: 0
XAxis mode: Wavelengths
Number of Pixels in Spectrum: 2048
>>>>>Begin Spectral Data<<<<<
189.047	-125.86
189.435	-125.86
189.823	-125.86
190.211	17.99
190.599	61.87
190.987	91.69
191.375	47.8
191.763	-17.1
192.151	196.26
192.538	-347.37
192.926	17.59
193.314	10.17
193.702	81.33
194.089	82.09
194.477	-22.59
194.864	933.66
195.252	-9.98
195.639	20.96
196.027	61.61
196.414	-193.54
196.801	70.56
197.189	-151.81
197.576	172.38
197.963	-102.57
198.351	24.69
198.738	72.86
199.125	7.59
199.512	36.09
199.899	64.32
200.286	34.59
200.673	53.28
201.06	32.64
201.447	88.99
201.833	-15.06
202.22	58.33
202.607	74.14
202.994	55.38
203.38	86.87
203.767	68.75
204.154	57.59
204.54	54.53
204.927	-9.81
205.313	43.32
205.699	60.25
206.086	58.31
206.472	51.69
206.858	35.13
207.245	-4.54
207.631	52.34
208.017	65.42
208.403	15.36
208.789	50.6
209.175	45.02
209.561	34.13
209.947	29.47
210.333	83.18
210.719	34.58
211.105	57.64
211.491	54.85
211.876	46.66
212.262	57.83
212.648	35.57
213.034	46.74
213.419	25.8
213.805	20.45
214.19	43.88
214.576	45.96
214.961	24.4
215.346	26.39
215.732	17.51
216.117	25.9
216.502	40.98
216.888	58.94
217.273	47.25
217.658	9.92
218.043	17.85
218.428	38.13
218.813	-1.51
219.198	24.8
219.583	25.98
219.968	16.04
220.353	33.52
220.738	27.04
221.122	22.52
221.507	6.19
221.892	12.83
222.276	6.96
222.661	-21.37
223.046	20.47
223.43	15.54
223.815	15.9
224.199	0.93
224.583	28.49
224.968	14.31
225.352	12.06
225.736	7.17
226.121	24.85
226.505	12.53
226.889	6.09
227.273	4.8
227.657	12.13
228.041	8.14
228.425	15.31
228.809	11.42
229.193	9.02
229.577	7.63
229.961	9.75
230.344	10.8
230.728	4.42
231.112	5.7
231.495	5.12
231.879	5.5
232.263	4.34
232.646	5.36
233.03	6.19
233.413	5.11
233.797	5.72
234.18	5.53
234.563	8.71
234.946	6.64
235.33	4.22
235.713	6.07
236.096	6.71
236.479	6.31
236.862	9.39
237.245	6.84
237.628	8.77
238.011	5.73
238.394	5.93
238.777	7.75
239.16	7.52
239.543	8.67
239.925	7.35
240.308	6.03
240.691	8.68
241.073	7.13
241.456	7.95
241.838	6.37
242.221	6.48
242.603	5.59
242.986	6.05
243.368	4.55
243.75	6.22
244.133	5.71
244.515	5.54
244.897	5.26
245.279	5.22
245.661	4.94
246.043	5.18
246.425	6.23
246.807	6.04
247.189	4.34
247.571	6.81
247.953	6.32
248.335	5.57
248.717	5.42
249.098	5.31
249.48	5.21
249.862	5.21
250.243	5.2
250.625	5.17
251.006	5.52
251.388	5.33
251.769	6.38
252.151	5.63
252.532	5.63
252.913	6.54
253.295	6.31
253.676	6.09
254.057	6.19
254.438	5.97
254.819	5.57
255.2	5.88
255.581	6.33
255.962	6.33
256.343	5.92
256.724	4.99
257.105	5.19
257.486	6.25
257.867	5.96
258.247	6.43
258.628	6.54
259.009	5.4
259.389	5.72
259.77	6.24
260.15	5.78
260.531	5.5
260.911	5.56
261.292	5.42
261.672	5.08
262.052	5.28
262.432	4.98
262.813	5.22
263.193	4.73
263.573	5.92
263.953	5.26
264.333	5.46
264.713	4.88
265.093	5.54
265.473	5.47
265.853	5.24
266.233	5.29
266.612	5.19
266.992	6.21
267.372	5.53
267.752	6.46
268.131	5.52
268.511	5.28
268.89	5.59
269.27	5.8
269.649	5.39
270.029	4.9
270.408	4.74
270.787	5.08
271.167	5.08
271.546	5.1
271.925	5.65
272.304	5.06
272.683	5.29
273.062	5.35
273.441	5.37
273.82	5.21
274.199	5.04
274.578	5.02
274.957	5.24
275.336	5.06
275.715	5.07
276.093	5.02
276.472	5.44
276.851	5.06
277.229	4.54
277.608	5.78
277.986	4.87
278.365	5.49
278.743	5.43
279.122	5.35
279.5	5.51
279.878	5.04
280.257	6.04
280.635	5.49
281.013	5.88
281.391	5.17
281.769	5.14
282.147	6.44
282.525	5.96
282.903	5.42
283.281	5.74
283.659	5.35
284.037	5.51
284.415	5.38
284.792	5.05
285.17	5.23
285.548	5.51
285.925	5.03
286.303	4.81
286.68	4.69
287.058	5.04
287.435	5.19
287.813	4.88
288.19	4.82
288.567	5.25
288.945	5.15
289.322	5.3
289.699	5.26
290.076	5.01
290.453	5.02
290.83	5.24
291.207	5.39
291.584	4.67
291.961	5.55
292.338	5.59
292.715	5.77
293.092	5.29
293.469	5.44
293.845	5.6
294.222	5.87
294.599	6.33
294.975	5.99
295.352	6.3
295.728	5.81
296.105	5.93
296.481	5.18
296.858	5.94
297.234	6.07
297.61	6.01
297.986	5.96
298.363	5.47
298.739	5.75
299.115	6.07
299.491	6.08
299.867	6.02
300.243	5.92
300.619	6.31
300.995	5.65
301.371	6.38
301.746	6.12
302.122	6.33
302.498	6.45
302.874	5.91
303.249	6.46
303.625	5.74
304	6.75
304.376	6.87
304.751	6.54
305.127	6.93
305.502	6.8
305.878	6.74
306.253	6.88
306.628	6.48
307.003	6.87
307.378	6.7
307.754	6.77
308.129	6.64
308.504	6.82
308.879	7.43
309.254	7.21
309.629	6.73
310.003	7.81
310.378	7.22
310.753	6.96
311.128	6.89
311.502	7.45
311.877	7.31
312.252	7.15
312.626	7.12
313.001	7.25
313.375	7.63
313.75	7.89
314.124	7.79
314.498	7.25
314.873	7.5
315.247	7.94
315.621	7.76
315.995	7.44
316.369	7.58
316.743	7.99
317.117	8.21
317.491	8.23
317.865	7.53
318.239	8.26
318.613	8.22
318.987	7.67
319.361	7.89
319.734	8.24
320.108	8.37
320.482	8.06
320.855	7.84
321.229	8.97
321.602	8.64
321.976	8.15
322.349	8.01
322.723	8.52
323.096	8.49
323.469	8.75
323.843	7.97
324.216	8.87
324.589	9
324.962	8.06
325.335	8.45
325.708	8.62
326.081	8.81
326.454	8.25
326.827	8.68
327.2	8.54
327.573	9.34
327.945	9.34
328.318	8.62
328.691	9.07
329.063	8.89
329.436	9.68
329.809	9.45
330.181	9.43
330.553	8.93
330.926	9.53
331.298	10.01
331.671	9.27
332.043	8.6
332.415	9.18
332.787	9.71
333.159	9.07
333.532	9.28
333.904	9.23
334.276	8.8
334.648	9.1
335.02	9.86
335.391	9.89
335.763	9.86
336.135	9.81
336.507	9.92
336.879	9.42
337.25	9.77
337.622	9.53
337.993	9.43
338.365	9.76
338.736	10.12
339.108	10.07
339.479	9.92
339.851	9.8
340.222	9.83
340.593	9.99
340.964	9.75
341.336	10.13
341.707	10.03
342.078	10.11
342.449	10.18
342.82	10.28
343.191	9.97
343.562	10.4
343.933	10.5
344.303	10.49
344.674	11.14
345.045	10.54
345.416	10.91
345.786	10.25
346.157	10.68
346.527	10.45
346.898	10.25
347.268	10.84
347.639	10.64
348.009	10.67
348.38	10.76
348.75	11.06
349.12	11.46
349.49	11.22
349.861	10.85
350.231	11.57
350.601	11.27
350.971	11.57
351.341	11.45
351.711	11.28
352.081	10.98
352.45	11.05
352.82	11.15
353.19	11.22
353.56	11.14
353.929	12.09
354.299	11.75
354.669	11.02
355.038	11.72
355.408	11.76
355.777	11.83
356.147	12
356.516	11.66
356.885	11.72
357.254	11.69
357.624	11.72
357.993	11.83
358.362	12.07
358.731	11.84
359.1	11.35
359.469	11.95
359.838	11.81
360.207	11.9
360.576	12.1
360.945	12.17
361.314	11.86
361.682	12.18
362.051	12.38
362.42	11.92
362.788	12.17
363.157	12.41
363.525	12.27
363.894	12.36
364.262	12.14
364.631	12.33
364.999	12.23
365.367	12.78
365.735	12.69
366.104	12.44
366.472	12.95
366.84	12.39
367.208	13.1
367.576	12.98
367.944	12.75
368.312	13.09
368.68	13.06
369.048	13.07
369.416	12.94
369.783	12.97
370.151	13.1
370.519	12.93
370.886	13.47
371.254	13.56
371.621	13.19
371.989	13.2
372.356	13.32
372.724	13.57
373.091	13.38
373.458	13.39
373.826	13.48
374.193	13.88
374.56	13.9
374.927	13.79
375.294	13.89
375.661	13.69
376.028	13.85
376.395	14.16
376.762	14.03
377.129	13.94
377.496	14.52
377.863	14.11
378.229	14.03
378.596	14.17
378.963	14.34
379.329	14.16
379.696	14.52
380.062	14.06
380.429	14.64
380.795	14.45
381.161	14.13
381.528	14.25
381.894	14.05
382.26	14.34
382.626	14.64
382.993	14.83
383.359	14.52
383.725	14.9
384.091	15.12
384.457	14.93
384.823	14.86
385.188	15.03
385.554	14.98
385.92	15.22
386.286	15.14
386.651	15.1
387.017	15.14
387.383	15.26
387.748	15.14
388.114	15.26
388.479	15.27
388.845	15
389.21	14.92
389.575	15.8
389.94	15.34
390.306	15.4
390.671	15.88
391.036	15.31
391.401	15.61
391.766	15.41
392.131	15.67
392.496	15.91
392.861	15.68
393.226	15.94
393.591	15.66
393.956	15.87
394.32	15.55
394.685	15.76
395.05	16.06
395.414	16.1
395.779	16
396.143	16.17
396.508	16.19
396.872	16.23
397.236	16.09
397.601	16.14
397.965	16.26
398.329	16.36
398.694	16.44
399.058	16.49
399.422	16.57
399.786	16.74
400.15	16.75
400.514	16.62
400.878	16.51
401.242	17
401.605	16.7
401.969	16.55
402.333	16.94
402.697	16.65
403.06	17.07
403.424	16.85
403.787	16.96
404.151	17.05
404.514	17.37
404.878	17.18
405.241	17.65
405.604	17.05
405.968	17.32
406.331	17.39
406.694	17.24
407.057	16.82
407.42	17.37
407.783	17.3
408.146	17.46
408.509	17.29
408.872	17.3
409.235	17.45
409.598	17.7
409.961	18.05
410.323	17.82
410.686	17.8
411.049	18.01
411.411	17.97
411.774	17.99
412.136	17.9
412.499	17.78
412.861	18
413.223	18.12
413.586	17.97
413.948	18.26
414.31	17.89
414.672	17.94
415.035	18.3
415.397	18.4
415.759	18.72
416.121	18.46
416.483	18.43
416.845	18.25
417.206	18.28
417.568	18.27
417.93	18.59
418.292	18.55
418.653	18.31
419.015	18.45
419.377	18.52
419.738	18.69
420.1	18.42
420.461	18.59
420.822	18.54
421.184	18.66
421.545	18.62
421.906	18.59
422.267	18.64
422.629	18.67
422.99	18.67
423.351	18.53
423.712	18.66
424.073	18.71
424.434	18.79
424.795	18.86
425.155	18.89
425.516	18.97
425.877	18.96
426.238	18.91
426.598	19.09
426.959	18.91
427.32	19.14
427.68	18.95
428.041	19.23
428.401	19.42
428.761	19.35
429.122	19.44
429.482	19.8
429.842	19.84
430.202	19.66
430.563	19.76
430.923	19.83
431.283	20.01
431.643	20.03
432.003	20.13
432.363	20.2
432.722	20.2
433.082	20.14
433.442	20.04
433.802	20.14
434.161	20.28
434.521	20.35
434.881	20.32
435.24	20.37
435.6	20.48
435.959	20.27
436.319	20.24
436.678	20.58
437.037	20.63
437.396	20.57
437.756	20.87
438.115	20.77
438.474	20.92
438.833	20.87
439.192	20.81
439.551	20.75
439.91	20.85
440.269	20.88
440.628	20.8
440.987	21.14
441.345	21.04
441.704	21.08
442.063	21.02
442.421	21.07
442.78	21.1
443.138	20.95
443.497	20.98
443.855	21.13
444.214	21.1
444.572	21.43
444.93	21.4
445.288	21.5
445.647	21.58
446.005	21.71
446.363	21.63
446.721	21.55
447.079	21.62
447.437	21.51
447.795	21.72
448.153	21.48
448.51	21.52
448.868	21.44
449.226	21.62
449.584	21.61
449.941	21.6
450.299	21.77
450.656	21.9
451.014	22.14
451.371	22.15
451.729	22.32
452.086	22.06
452.443	22.34
452.801	22.43
453.158	22.56
453.515	22.5
453.872	22.69
454.229	22.65
454.586	22.53
454.943	22.6
455.3	22.71
455.657	22.61
456.014	22.82
456.371	23.01
456.727	22.86
457.084	22.89
457.441	22.88
457.797	22.98
458.154	23.27
458.51	22.96
458.867	23.36
459.223	23.48
459.58	23.33
459.936	23.34
460.292	23.41
460.648	23.36
461.005	23.06
461.361	23.43
461.717	23.1
462.073	23.13
462.429	22.93
462.785	23.05
463.141	23.32
463.496	23.63
463.852	23.64
464.208	23.65
464.564	23.93
464.919	23.76
465.275	24.11
465.631	24.08
465.986	23.89
466.342	24.02
466.697	24.19
467.052	24.14
467.408	24.17
467.763	24.46
468.118	24.27
468.473	24.5
468.829	24.57
469.184	24.34
469.539	24.52
469.894	24.39
470.249	24.79
470.603	24.76
470.958	24.73
471.313	24.78
471.668	24.93
472.023	24.79
472.377	24.94
472.732	24.93
473.086	25.14
473.441	24.73
473.795	25.19
474.15	25.01
474.504	25.41
474.859	25.29
475.213	25.02
475.567	25.22
475.921	25.26
476.275	25.33
476.63	25.5
476.984	25.27
477.338	25.74
477.692	25.77
478.045	25.64
478.399	25.74
478.753	25.54
479.107	25.82
479.461	25.66
479.814	25.83
480.168	25.87
480.521	25.72
480.875	25.88
481.228	25.87
481.582	25.83
481.935	25.8
482.289	26.09
482.642	25.96
482.995	26.16
483.348	26.03
483.701	26.26
484.055	26.1
484.408	25.99
484.761	26
485.114	25.72
485.466	25.61
485.819	25.31
486.172	25.27
486.525	25.44
486.878	25.41
487.23	25.65
487.583	25.7
487.936	25.82
488.288	26.09
488.641	26.08
488.993	26.15
489.345	25.89
489.698	25.95
490.05	26.03
490.402	25.97
490.754	26.1
491.107	26.25
491.459	26.41
491.811	26.56
492.163	26.88
492.515	26.86
492.866	26.94
493.218	27.03
493.57	26.78
493.922	26.78
494.274	26.69
494.625	26.73
494.977	26.97
495.328	27.24
495.68	27.32
496.031	27.51
496.383	27.71
496.734	27.96
497.086	28.04
497.437	28.15
497.788	28.2
498.139	28.19
498.49	28.21
498.842	28.07
499.193	28.18
499.544	28.1
499.894	28.25
500.245	28.26
500.596	28.2
500.947	28.46
501.298	28.43
501.648	28.64
501.999	28.61
502.35	28.56
502.7	28.88
503.051	28.88
503.401	28.97
503.752	29.12
504.102	29.1
504.452	29.13
504.803	29.09
505.153	29.25
505.503	29.28
505.853	29.4
506.203	29.32
506.553	29.44
506.903	29.41
507.253	29.37
507.603	29.52
507.953	29.72
508.303	29.47
508.652	29.71
509.002	29.64
509.352	29.81
509.701	29.7
510.051	29.83
510.4	29.91
510.75	29.91
511.099	29.9
511.449	29.82
511.798	30
512.147	30.04
512.496	30.05
512.846	30.14
513.195	30.35
513.544	30.38
513.893	30.4
514.242	30.31
514.591	30.48
514.939	30.34
515.288	30.62
515.637	30.72
515.986	30.63
516.334	30.72
516.683	30.63
517.032	31.07
517.38	30.81
517.729	30.77
518.077	31.06
518.426	31.27
518.774	31.15
519.122	31.13
519.47	31.2
519.819	31.12
520.167	31.23
520.515	30.96
520.863	30.95
521.211	30.99
521.559	31.11
521.907	31.06
522.255	31.29
522.602	31.46
522.95	31.7
523.298	31.7
523.645	31.84
523.993	31.7
524.341	32.11
524.688	32.1
525.036	31.87
525.383	32.15
525.73	32.21
526.078	32.03
526.425	32.17
526.772	32.24
527.119	32.07
527.466	31.94
527.814	32.07
528.161	31.99
528.508	32.02
528.854	32.17
529.201	32.13
529.548	32.23
529.895	32.04
530.242	32.04
530.588	31.76
530.935	31.79
531.282	31.8
531.628	31.99
531.975	31.92
532.321	32.03
532.667	32.23
533.014	32.63
533.36	32.61
533.706	32.87
534.052	32.89
534.399	32.91
534.745	33.01
535.091	32.78
535.437	32.77
535.783	32.71
536.129	32.88
536.474	33.03
536.82	33.12
537.166	33.3
537.512	33.4
537.857	33.66
538.203	33.82
538.549	33.65
538.894	33.57
539.239	33.72
539.585	33.58
539.93	34.05
540.276	33.94
540.621	34.31
540.966	34.31
541.311	34.5
541.656	34.57
542.001	34.49
542.346	34.49
542.691	34.65
543.036	34.37
543.381	33.95
543.726	33.91
544.071	33.95
544.415	34.13
544.76	34.25
545.105	34.48
545.449	34.39
545.794	34.73
546.138	34.67
546.483	34.9
546.827	35.06
547.171	35.33
547.516	35.14
547.86	35.46
548.204	35.39
548.548	35.66
548.892	35.41
549.236	35.32
549.58	35.46
549.924	35.54
550.268	35.9
550.612	36.03
550.956	36.18
551.3	36.33
551.643	36.36
551.987	36.47
552.33	36.66
552.674	36.39
553.017	36.42
553.361	36.99
553.704	36.62
554.048	36.56
554.391	36.67
554.734	36.81
555.077	36.92
555.42	37.01
555.764	36.93
556.107	37.12
556.45	37.08
556.793	37.02
557.135	37.16
557.478	37.34
557.821	37.35
558.164	37.39
558.507	37.7
558.849	37.67
559.192	37.88
559.534	37.82
559.877	37.78
560.219	38
560.562	37.89
560.904	38.29
561.246	38.2
561.589	38.3
561.931	38.03
562.273	37.94
562.615	38.53
562.957	38.36
563.299	38.35
563.641	38.33
563.983	38.14
564.325	38.53
564.667	38.76
565.008	38.59
565.35	38.92
565.692	38.8
566.033	38.82
566.375	39.14
566.716	38.9
567.058	38.98
567.399	39
567.741	39
568.082	39.11
568.423	39.17
568.764	39.03
569.105	38.86
569.447	38.99
569.788	39.08
570.129	39.35
570.47	39.65
570.811	39.45
571.151	39.6
571.492	39.73
571.833	39.49
572.174	39.82
572.514	40
572.855	39.77
573.195	40.19
573.536	40.05
573.876	39.86
574.217	39.97
574.557	40.07
574.898	40.09
575.238	40.08
575.578	40.28
575.918	40.2
576.258	40.17
576.598	40.43
576.938	40.67
577.278	40.43
577.618	40.24
577.958	40.6
578.298	40.81
578.638	40.69
578.977	40.88
579.317	40.79
579.657	40.89
579.996	41.3
580.336	41.04
580.675	41.16
581.014	41.42
581.354	41.36
581.693	41.84
582.032	41.58
582.372	41.71
582.711	41.63
583.05	41.78
583.389	41.76
583.728	41.87
584.067	42.11
584.406	41.9
584.745	41.97
585.083	42.57
585.422	42.28
585.761	42.27
586.1	42.46
586.438	42.35
586.777	42.14
587.115	42.46
587.454	42.4
587.792	42.7
588.13	42.92
588.469	42.77
588.807	43.04
589.145	42.9
589.483	43.19
589.821	43.04
590.159	43.05
590.497	43.12
590.835	43.23
591.173	43.02
591.511	43.33
591.849	43.11
592.187	43.15
592.524	43.51
592.862	43.61
593.2	43.04
593.537	43.23
593.875	43.56
594.212	43.49
594.55	43.79
594.887	43.68
595.224	43.92
595.561	43.79
595.899	43.7
596.236	44.33
596.573	44.17
596.91	44.27
597.247	44.19
597.584	44.09
597.921	43.81
598.258	44.51
598.594	44.08
598.931	44.24
599.268	43.98
599.604	44.47
599.941	44.2
600.277	43.82
600.614	44.06
600.95	44.64
601.287	44.71
601.623	44.81
601.959	44.55
602.296	44.79
602.632	44.89
602.968	45.12
603.304	45.06
603.64	44.68
603.976	45.61
604.312	45.46
604.648	45.38
604.984	45.33
605.319	45.45
605.655	45.43
605.991	45.28
606.326	45.37
606.662	45.37
606.998	45.02
607.333	45.43
607.668	45.48
608.004	45.68
608.339	45.63
608.674	45.64
609.01	45.77
609.345	46.27
609.68	46.04
610.015	46.04
610.35	46.14
610.685	46.61
611.02	46.43
611.355	46.26
611.689	46.19
612.024	46.41
612.359	46.18
612.694	46.25
613.028	46.16
613.363	46.72
613.697	46.5
614.032	47.01
614.366	46.32
614.7	47.3
615.035	47.31
615.369	46.8
615.703	46.85
616.037	47.01
616.371	47.62
616.705	47.67
617.039	47.91
617.373	47.4
617.707	47.39
618.041	47.97
618.375	47.61
618.709	47.52
619.042	48.32
619.376	47.71
619.71	48.3
620.043	47.57
620.377	47.56
620.71	47.93
621.043	48.68
621.377	47.93
621.71	48.09
622.043	48.35
622.376	48.39
622.709	48.44
623.043	48.49
623.376	48.44
623.709	48.59
624.041	48.45
624.374	48.61
624.707	49
625.04	49.05
625.373	48.66
625.705	49.16
626.038	48.77
626.37	48.73
626.703	48.71
627.035	48.8
627.368	48.93
627.7	49.55
628.032	49.48
628.365	49.61
628.697	49.26
629.029	49.07
629.361	49.2
629.693	49.25
630.025	49.33
630.357	49.35
630.689	49.26
631.021	49.83
631.353	49.77
631.684	49.93
632.016	49.89
632.348	49.77
632.679	49.71
633.011	49.59
633.342	50.02
633.674	50.01
634.005	49.91
634.336	50.33
634.668	50.14
634.999	50.29
635.33	50.69
635.661	50.14
635.992	50.7
636.323	50.25
636.654	50.66
636.985	50.21
637.316	50.18
637.647	50.47
637.977	50.36
638.308	50.89
638.639	50.78
638.969	51.04
639.3	51.34
639.63	51.42
639.961	50.87
640.291	51.56
640.622	51.78
640.952	51.29
641.282	51.58
641.612	51.5
641.943	51.57
642.273	51.1
642.603	51
642.933	51.17
643.263	51.24
643.592	51.38
643.922	51.31
644.252	51.47
644.582	52.04
644.911	52.28
645.241	52.04
645.571	51.88
645.9	51.87
646.23	51.97
646.559	51.6
646.888	52.34
647.218	52.59
647.547	52.19
647.876	52.61
648.205	52.49
648.534	52.39
648.863	52.19
649.192	52.37
649.521	51.95
649.85	52.95
650.179	52.74
650.508	52.58
650.837	52.78
651.165	52.79
651.494	52.47
651.822	52.43
652.151	52.48
652.479	53.58
652.808	53.13
653.136	53.04
653.465	53.15
653.793	53.13
654.121	53.57
654.449	52.95
654.777	53.89
655.105	53.39
655.433	53.02
655.761	53.48
656.089	53.54
656.417	53.63
656.745	53.67
657.073	53.31
657.4	53.91
657.728	53.78
658.056	53.16
658.383	54.16
658.711	53.51
659.038	53.89
659.365	54.31
659.693	54.23
660.02	53.83
660.347	54.23
660.674	54.05
661.001	53.89
661.329	54.15
661.656	54.19
661.982	54.27
662.309	54.53
662.636	54.13
662.963	54.53
663.29	54.13
663.616	54.44
663.943	54.27
664.27	54.58
664.596	54.6
664.923	54.43
665.249	54.66
665.576	54.69
665.902	55.48
666.228	54.99
666.554	54.66
666.881	55.2
667.207	55.08
667.533	54.6
667.859	55.28
668.185	55.09
668.511	55.98
668.837	55.55
669.162	55.35
669.488	55.04
669.814	55.52
670.139	55.94
670.465	56.13
