Data from 0099_forehead_Reflection__0__183.txt Node

Date: Fri Sep 22 22:20:00 CDT 2023
User: ToomeyLab
Spectrometer: FLMS14357
Trigger mode: 0
Integration Time (sec): 1.000000E-2
Scans to average: 100
Electric dark correction enabled: true
Nonlinearity correction enabled: false
Boxcar width: 0
XAxis mode: Wavelengths
Number of Pixels in Spectrum: 2048
>>>>>Begin Spectral Data<<<<<
189.047	-81.06
189.435	-81.06
189.823	-81.06
190.211	23.5
190.599	123.01
190.987	51.72
191.375	129.63
191.763	141.13
192.151	77.43
192.538	-106.05
192.926	63.74
193.314	25.13
193.702	40.02
194.089	152.63
194.477	74.58
194.864	229.15
195.252	24.39
195.639	152.36
196.027	114.45
196.414	15.23
196.801	-96.09
197.189	1217.17
197.576	183.86
197.963	-276.29
198.351	14.62
198.738	2.96
199.125	-14.94
199.512	7.98
199.899	13.55
200.286	10.95
200.673	-26.13
201.06	28.85
201.447	80.4
201.833	-23.65
202.22	23.48
202.607	49.59
202.994	61.92
203.38	51.2
203.767	51.4
204.154	52.94
204.54	29.93
204.927	-34.87
205.313	49.79
205.699	54.12
206.086	40.69
206.472	27.02
206.858	40.73
207.245	-12.96
207.631	43.57
208.017	33.04
208.403	16.48
208.789	25.93
209.175	19.69
209.561	27.56
209.947	39.68
210.333	14
210.719	11.2
211.105	34.62
211.491	44.3
211.876	55.22
212.262	-7.44
212.648	2.07
213.034	35.9
213.419	14.07
213.805	34.69
214.19	8.58
214.576	9.86
214.961	15.45
215.346	6.07
215.732	48.27
216.117	-11.95
216.502	29.83
216.888	18.39
217.273	56.41
217.658	8.92
218.043	2.41
218.428	29.97
218.813	-36.76
219.198	-18.96
219.583	7.86
219.968	1.61
220.353	40.82
220.738	9.5
221.122	-8.42
221.507	-17.5
221.892	-5.36
222.276	4.1
222.661	-11.45
223.046	11.7
223.43	22.99
223.815	3.25
224.199	1.73
224.583	4.2
224.968	7.14
225.352	10.32
225.736	6.49
226.121	4.53
226.505	2.17
226.889	12.87
227.273	-1.77
227.657	-0.75
228.041	6.13
228.425	10.1
228.809	1.71
229.193	7.52
229.577	6.23
229.961	5
230.344	3.69
230.728	0.51
231.112	3.46
231.495	2.6
231.879	2.81
232.263	1.83
232.646	1.59
233.03	1.4
233.413	3.57
233.797	3.26
234.18	3.59
234.563	5.59
234.946	4.11
235.33	0.76
235.713	2.05
236.096	1.85
236.479	2.13
236.862	5.59
237.245	2.86
237.628	4.62
238.011	3.85
238.394	4.48
238.777	4.57
239.16	2.72
239.543	4.49
239.925	3.8
240.308	2.87
240.691	4.26
241.073	2.65
241.456	1.8
241.838	3.05
242.221	4.66
242.603	4.61
242.986	3
243.368	2.86
243.75	2.32
244.133	3.25
244.515	2.62
244.897	1.92
245.279	2.82
245.661	2.9
246.043	2.53
246.425	2.37
246.807	4.06
247.189	1.17
247.571	3.07
247.953	2.63
248.335	2.94
248.717	3.04
249.098	2.82
249.48	2.64
249.862	2.63
250.243	2.87
250.625	2.81
251.006	2.29
251.388	2.9
251.769	3.27
252.151	2.67
252.532	2.27
252.913	2.33
253.295	3.23
253.676	3.16
254.057	2.29
254.438	3.34
254.819	2.72
255.2	3.04
255.581	2.44
255.962	3.64
256.343	2.23
256.724	2.22
257.105	3.19
257.486	2.66
257.867	2.47
258.247	3.26
258.628	3.8
259.009	2.26
259.389	3.63
259.77	3.6
260.15	3.78
260.531	2.3
260.911	3.15
261.292	2.81
261.672	2.34
262.052	2.56
262.432	2.67
262.813	2.75
263.193	2.42
263.573	3.21
263.953	2.83
264.333	2.83
264.713	2.7
265.093	2.63
265.473	2.6
265.853	2.65
266.233	2.82
266.612	3.63
266.992	3.12
267.372	3.24
267.752	3.61
268.131	2.6
268.511	2.39
268.89	3.47
269.27	2.8
269.649	2.87
270.029	2.37
270.408	2.34
270.787	3.05
271.167	2.75
271.546	2.25
271.925	2.96
272.304	2.9
272.683	2.84
273.062	2.84
273.441	2.96
273.82	2.57
274.199	3.11
274.578	2.99
274.957	2.54
275.336	2.2
275.715	2.65
276.093	2.64
276.472	2.81
276.851	2.2
277.229	1.94
277.608	3.25
277.986	2.85
278.365	2.87
278.743	2.91
279.122	2.67
279.5	2.87
279.878	2.94
280.257	3.25
280.635	2.5
281.013	3.49
281.391	2.43
281.769	2.8
282.147	2.13
282.525	2.7
282.903	2.64
283.281	3.01
283.659	2.61
284.037	2.86
284.415	2.42
284.792	2.5
285.17	2.92
285.548	3.07
285.925	2.91
286.303	2.4
286.68	2.39
287.058	2.52
287.435	2.64
287.813	2.78
288.19	2.23
288.567	3.09
288.945	2.52
289.322	2.59
289.699	2.77
290.076	2.86
290.453	2.82
290.83	2.23
291.207	2.79
291.584	2.21
291.961	2.7
292.338	2.73
292.715	3.29
293.092	2.96
293.469	2.85
293.845	2.82
294.222	3.35
294.599	3.3
294.975	3.21
295.352	3.38
295.728	3.04
296.105	3.03
296.481	2.95
296.858	3.04
297.234	3.11
297.61	3.2
297.986	3.23
298.363	3.25
298.739	3.23
299.115	3.08
299.491	3.49
299.867	3.26
300.243	3.2
300.619	3.2
300.995	2.95
301.371	3.81
301.746	3.62
302.122	3.02
302.498	3.18
302.874	3.44
303.249	3.38
303.625	3.56
304	3.83
304.376	3.75
304.751	3.44
305.127	3.28
305.502	4.18
305.878	3.79
306.253	3.62
306.628	3.15
307.003	3.96
307.378	3.82
307.754	3.54
308.129	3.85
308.504	3.83
308.879	4.44
309.254	4.59
309.629	3.96
310.003	4.45
310.378	4.74
310.753	3.91
311.128	3.63
311.502	3.79
311.877	3.56
312.252	4.19
312.626	3.65
313.001	4.22
313.375	3.9
313.75	4.49
314.124	4.73
314.498	4.18
314.873	4.58
315.247	4.43
315.621	4.45
315.995	4.41
316.369	4.2
316.743	4.65
317.117	4.53
317.491	4.66
317.865	4
318.239	4.61
318.613	5.05
318.987	5.01
319.361	4.42
319.734	4.53
320.108	4.67
320.482	4.55
320.855	4.46
321.229	5.59
321.602	5.02
321.976	5.07
322.349	4.96
322.723	5.15
323.096	4.96
323.469	4.77
323.843	5.04
324.216	5.6
324.589	4.38
324.962	4.59
325.335	4.82
325.708	5.15
326.081	5.5
326.454	4.87
326.827	5.13
327.2	4.84
327.573	5.43
327.945	5.04
328.318	4.78
328.691	5.64
329.063	5.25
329.436	5.6
329.809	5.14
330.181	5.77
330.553	5.2
330.926	5.35
331.298	5.6
331.671	5.42
332.043	4.87
332.415	5.79
332.787	6.18
333.159	4.76
333.532	5.51
333.904	5.84
334.276	5.26
334.648	5.34
335.02	5.26
335.391	5.87
335.763	6
336.135	5.66
336.507	5.67
336.879	5.87
337.25	6.27
337.622	6.18
337.993	5.32
338.365	5.92
338.736	6.2
339.108	6.54
339.479	6.53
339.851	5.26
340.222	6.03
340.593	5.96
340.964	5.6
341.336	5.83
341.707	5.58
342.078	6.38
342.449	6.2
342.82	5.9
343.191	5.37
343.562	6.22
343.933	5.92
344.303	5.69
344.674	6.37
345.045	6.08
345.416	6.88
345.786	5.74
346.157	6.49
346.527	6.03
346.898	5.97
347.268	6.31
347.639	6.05
348.009	6.23
348.38	6.78
348.75	6.89
349.12	6.27
349.49	6.67
349.861	6.5
350.231	6.6
350.601	6.79
350.971	6.88
351.341	6.37
351.711	6.63
352.081	6.62
352.45	6.78
352.82	6.92
353.19	7.22
353.56	6.56
353.929	7.11
354.299	7.07
354.669	7.22
355.038	7.2
355.408	6.97
355.777	7.36
356.147	7.31
356.516	7.08
356.885	7.28
357.254	7.24
357.624	6.89
357.993	7.02
358.362	7.18
358.731	7.01
359.1	6.92
359.469	7.24
359.838	6.79
360.207	6.93
360.576	7.41
360.945	7.3
361.314	7.25
361.682	7.42
362.051	7.56
362.42	7.28
362.788	7.29
363.157	7.37
363.525	7.27
363.894	7.3
364.262	7.34
364.631	7.34
364.999	7.35
365.367	7.5
365.735	7.63
366.104	7.77
366.472	7.94
366.84	7.77
367.208	7.95
367.576	7.81
367.944	7.81
368.312	7.75
368.68	7.67
369.048	7.79
369.416	7.63
369.783	7.91
370.151	7.8
370.519	7.9
370.886	7.86
371.254	8.24
371.621	7.6
371.989	8.32
372.356	8.06
372.724	8.34
373.091	7.98
373.458	8.13
373.826	8.29
374.193	8.26
374.56	8.5
374.927	7.99
375.294	8.5
375.661	8.18
376.028	8.56
376.395	8.59
376.762	8.42
377.129	8.38
377.496	8.96
377.863	8.64
378.229	8.56
378.596	8.28
378.963	8.75
379.329	8.49
379.696	8.6
380.062	8.53
380.429	8.75
380.795	8.78
381.161	8.89
381.528	8.66
381.894	8.46
382.26	8.75
382.626	8.92
382.993	8.9
383.359	8.78
383.725	8.75
384.091	8.71
384.457	8.91
384.823	8.9
385.188	8.96
385.554	8.98
385.92	9.2
386.286	8.94
386.651	9.29
387.017	9.39
387.383	8.97
387.748	9.29
388.114	9.04
388.479	9.17
388.845	9.04
389.21	9.18
389.575	9.64
389.94	8.93
390.306	9.39
390.671	9.65
391.036	9.12
391.401	9.56
391.766	9.21
392.131	9.32
392.496	9.62
392.861	9.61
393.226	9.66
393.591	9.87
393.956	9.6
394.32	9.6
394.685	9.69
395.05	10.04
395.414	9.6
395.779	9.84
396.143	9.86
396.508	9.64
396.872	9.77
397.236	9.86
397.601	9.74
397.965	10.06
398.329	10.06
398.694	9.98
399.058	10.04
399.422	9.9
399.786	9.9
400.15	10.08
400.514	10.31
400.878	10.27
401.242	10.17
401.605	10.15
401.969	10.1
402.333	10.54
402.697	10.25
403.06	10.3
403.424	10.24
403.787	10.3
404.151	10.59
404.514	10.51
404.878	10.63
405.241	10.64
405.604	10.63
405.968	10.47
406.331	10.66
406.694	10.49
407.057	10.31
407.42	10.51
407.783	10.49
408.146	10.52
408.509	10.55
408.872	10.41
409.235	10.84
409.598	10.72
409.961	10.62
410.323	10.84
410.686	10.95
411.049	11.12
411.411	10.88
411.774	10.8
412.136	11.05
412.499	10.91
412.861	10.98
413.223	11.07
413.586	10.99
413.948	11.12
414.31	10.99
414.672	11.22
415.035	11.35
415.397	11.29
415.759	11.68
416.121	11.22
416.483	11.25
416.845	11.22
417.206	11.03
417.568	11.36
417.93	11.26
418.292	11.27
418.653	11.15
419.015	11.21
419.377	11.36
419.738	11.44
420.1	11.2
420.461	11.29
420.822	11.24
421.184	11.3
421.545	11.39
421.906	11.48
422.267	11.31
422.629	11.44
422.99	11.46
423.351	11.27
423.712	11.29
424.073	11.41
424.434	11.65
424.795	11.56
425.155	11.58
425.516	11.6
425.877	11.61
426.238	11.51
426.598	11.59
426.959	11.53
427.32	11.77
427.68	11.65
428.041	11.69
428.401	11.97
428.761	12.07
429.122	11.97
429.482	12.05
429.842	12.05
430.202	12.04
430.563	12.28
430.923	12.19
431.283	12.26
431.643	12.27
432.003	12.24
432.363	12.39
432.722	12.37
433.082	12.47
433.442	12.33
433.802	12.58
434.161	12.43
434.521	12.24
434.881	12.41
435.24	12.34
435.6	12.23
435.959	12.48
436.319	12.32
436.678	12.59
437.037	12.54
437.396	12.51
437.756	12.7
438.115	12.84
438.474	12.66
438.833	12.83
439.192	12.83
439.551	12.9
439.91	12.77
440.269	13.01
440.628	12.69
440.987	12.89
441.345	12.94
441.704	12.95
442.063	12.96
442.421	12.81
442.78	12.87
443.138	12.86
443.497	12.93
443.855	13
444.214	12.92
444.572	13.2
444.93	13.1
445.288	12.98
445.647	13.29
446.005	13.28
446.363	13.2
446.721	13.26
447.079	13.13
447.437	13.18
447.795	13.29
448.153	13.13
448.51	13.16
448.868	13.13
449.226	13.19
449.584	13.22
449.941	13.21
450.299	13.44
450.656	13.43
451.014	13.59
451.371	13.65
451.729	13.62
452.086	13.7
452.443	13.76
452.801	13.84
453.158	13.78
453.515	14.06
453.872	13.81
454.229	13.87
454.586	13.83
454.943	13.89
455.3	13.83
455.657	13.88
456.014	13.77
456.371	14.16
456.727	14.26
457.084	14.15
457.441	14.04
457.797	14.15
458.154	14.12
458.51	14.24
458.867	14.09
459.223	14.08
459.58	14.33
459.936	14.39
460.292	14.26
460.648	14.27
461.005	14.27
461.361	14.31
461.717	14.04
462.073	14.09
462.429	14.02
462.785	14.12
463.141	14.36
463.496	14.42
463.852	14.55
464.208	14.56
464.564	14.75
464.919	14.64
465.275	14.9
465.631	15
465.986	14.78
466.342	15.03
466.697	14.93
467.052	14.68
467.408	14.69
467.763	14.74
468.118	15.07
468.473	14.77
468.829	14.9
469.184	15.02
469.539	15.11
469.894	15.13
470.249	15.2
470.603	15.03
470.958	15.22
471.313	15.27
471.668	15.12
472.023	15.03
472.377	15.26
472.732	15.2
473.086	15.44
473.441	15.22
473.795	15.44
474.15	15.43
474.504	15.56
474.859	15.46
475.213	15.24
475.567	15.49
475.921	15.5
476.275	15.6
476.63	15.44
476.984	15.66
477.338	15.82
477.692	15.82
478.045	15.75
478.399	15.82
478.753	15.7
479.107	15.79
479.461	15.68
479.814	15.72
480.168	15.86
480.521	15.89
480.875	15.91
481.228	15.86
481.582	15.94
481.935	16.08
482.289	16.07
482.642	15.95
482.995	16.05
483.348	16.12
483.701	16.02
484.055	16.03
484.408	15.84
484.761	15.88
485.114	15.74
485.466	15.55
485.819	15.33
486.172	15.23
486.525	15.3
486.878	15.39
487.23	15.55
487.583	15.63
487.936	15.86
488.288	16.02
488.641	16.07
488.993	15.98
489.345	15.77
489.698	15.72
490.05	15.71
490.402	15.75
490.754	15.85
491.107	15.96
491.459	16.19
491.811	16.28
492.163	16.49
492.515	16.55
492.866	16.52
493.218	16.49
493.57	16.41
493.922	16.17
494.274	16.18
494.625	16.33
494.977	16.51
495.328	16.71
495.68	16.77
496.031	16.94
496.383	16.93
496.734	17.2
497.086	17.1
497.437	17.2
497.788	17.24
498.139	17.33
498.49	17.46
498.842	17.13
499.193	17.26
499.544	17.27
499.894	17.28
500.245	17.49
500.596	17.34
500.947	17.44
501.298	17.53
501.648	17.64
501.999	17.7
502.35	17.63
502.7	17.84
503.051	17.69
503.401	17.79
503.752	17.84
504.102	17.75
504.452	17.88
504.803	17.91
505.153	17.82
505.503	18.01
505.853	18.28
506.203	18.02
506.553	18.09
506.903	17.94
507.253	17.96
507.603	18.32
507.953	18.24
508.303	18.28
508.652	18.17
509.002	18.33
509.352	18.21
509.701	18.35
510.051	18.28
510.4	18.26
510.75	18.29
511.099	18.27
511.449	18.31
511.798	18.47
512.147	18.65
512.496	18.4
512.846	18.37
513.195	18.51
513.544	18.73
513.893	18.57
514.242	18.51
514.591	18.62
514.939	18.74
515.288	18.72
515.637	18.84
515.986	18.89
516.334	18.97
516.683	18.91
517.032	19.13
517.38	19.03
517.729	18.97
518.077	19.02
518.426	19.17
518.774	19.18
519.122	19.28
519.47	19.05
519.819	19.09
520.167	19.15
520.515	18.9
520.863	18.96
521.211	19.03
521.559	19.04
521.907	19.19
522.255	19.13
522.602	19.28
522.95	19.26
523.298	19.48
523.645	19.6
523.993	19.56
524.341	19.59
524.688	19.71
525.036	19.63
525.383	19.76
525.73	19.76
526.078	19.73
526.425	19.82
526.772	19.75
527.119	19.7
527.466	19.55
527.814	19.6
528.161	19.54
528.508	19.66
528.854	19.73
529.201	19.69
529.548	19.7
529.895	19.65
530.242	19.54
530.588	19.26
530.935	19.17
531.282	19.24
531.628	19.45
531.975	19.49
532.321	19.65
532.667	19.78
533.014	19.92
533.36	20.08
533.706	20.18
534.052	20.25
534.399	20.33
534.745	20.17
535.091	20.09
535.437	19.95
535.783	19.8
536.129	20.08
536.474	20.1
536.82	20.27
537.166	20.4
537.512	20.64
537.857	20.62
538.203	20.65
538.549	20.65
538.894	20.56
539.239	20.53
539.585	20.53
539.93	20.8
540.276	20.78
540.621	21.04
540.966	21.15
541.311	21.26
541.656	21.15
542.001	21.23
542.346	21.23
542.691	21.21
543.036	20.99
543.381	20.67
543.726	20.44
544.071	20.59
544.415	20.72
544.76	20.88
545.105	20.94
545.449	21.05
545.794	21.15
546.138	21.24
546.483	21.34
546.827	21.36
547.171	21.65
547.516	21.68
547.86	21.78
548.204	21.52
548.548	21.8
548.892	21.7
549.236	21.68
549.58	21.68
549.924	21.9
550.268	22.03
550.612	22.04
550.956	22.19
551.3	22.24
551.643	22.15
551.987	22.45
552.33	22.5
552.674	22.37
553.017	22.56
553.361	22.67
553.704	22.54
554.048	22.6
554.391	22.54
554.734	22.59
555.077	22.75
555.42	22.62
555.764	22.67
556.107	22.68
556.45	22.82
556.793	22.95
557.135	22.95
557.478	22.82
557.821	23.05
558.164	23.02
558.507	23.12
558.849	23.11
559.192	23.33
559.534	23.25
559.877	23.21
560.219	23.43
560.562	22.93
560.904	23.46
561.246	23.47
561.589	23.28
561.931	23.46
562.273	23.57
562.615	23.61
562.957	23.57
563.299	23.59
563.641	23.62
563.983	23.57
564.325	23.82
564.667	23.85
565.008	23.55
565.35	23.79
565.692	23.81
566.033	24.04
566.375	23.94
566.716	23.95
567.058	24
567.399	24.02
567.741	24.23
568.082	24.07
568.423	23.93
568.764	23.87
569.105	23.88
569.447	23.93
569.788	24.06
570.129	24.28
570.47	24.29
570.811	24.28
571.151	24.22
571.492	24.15
571.833	24.32
572.174	24.33
572.514	24.41
572.855	24.48
573.195	24.43
573.536	24.44
573.876	24.4
574.217	24.52
574.557	24.33
574.898	24.39
575.238	24.62
575.578	24.8
575.918	24.75
576.258	24.67
576.598	24.71
576.938	24.84
577.278	24.8
577.618	24.66
577.958	24.9
578.298	24.98
578.638	25.06
578.977	25.1
579.317	25.03
579.657	25.11
579.996	25.16
580.336	25.18
580.675	25.08
581.014	25.41
581.354	25.31
581.693	25.64
582.032	25.44
582.372	25.56
582.711	25.5
583.05	25.67
583.389	25.47
583.728	25.52
584.067	25.53
584.406	25.44
584.745	25.66
585.083	25.98
585.422	25.71
585.761	26.06
586.1	25.84
586.438	25.97
586.777	25.78
587.115	25.95
587.454	25.96
587.792	25.97
588.13	26.18
588.469	25.92
588.807	26.26
589.145	26.13
589.483	26.31
589.821	26.28
590.159	26.26
590.497	26.41
590.835	26.27
591.173	26.03
591.511	26.16
591.849	26.63
592.187	26.16
592.524	26.49
592.862	26.86
593.2	26.44
593.537	26.29
593.875	26.41
594.212	26.75
594.55	26.64
594.887	26.48
595.224	26.97
595.561	26.98
595.899	26.82
596.236	27.04
596.573	27.05
596.91	27.22
597.247	26.84
597.584	27.11
597.921	26.91
598.258	27.06
598.594	26.91
598.931	27.1
599.268	26.56
599.604	27.07
599.941	27.13
600.277	26.93
600.614	26.99
600.95	27.32
601.287	27.17
601.623	26.94
601.959	27.5
602.296	27.33
602.632	27.49
602.968	27.56
603.304	27.46
603.64	27.29
603.976	27.63
604.312	27.6
604.648	27.55
604.984	27.54
605.319	27.33
605.655	27.78
605.991	27.64
606.326	27.69
606.662	27.48
606.998	27.37
607.333	27.66
607.668	27.41
608.004	27.7
608.339	27.77
608.674	27.8
609.01	27.94
609.345	28.05
609.68	28.19
610.015	28.06
610.35	28.34
610.685	28.48
611.02	28.1
611.355	28.25
611.689	28.01
612.024	28.16
612.359	28.22
612.694	28.06
613.028	28.36
613.363	28.42
613.697	28.59
614.032	28.53
614.366	28.43
614.7	28.46
615.035	29
615.369	28.45
615.703	28.37
616.037	28.65
616.371	28.78
616.705	29.01
617.039	28.98
617.373	28.74
617.707	28.56
618.041	28.87
618.375	29.11
618.709	29.14
619.042	29.08
619.376	29.21
619.71	29.44
620.043	29.28
620.377	28.99
620.71	29.09
621.043	29.5
621.377	29.19
621.71	29.38
622.043	28.95
622.376	29.75
622.709	29.54
623.043	29.74
623.376	29.5
623.709	29.6
624.041	29.33
624.374	29.45
624.707	29.44
625.04	29.53
625.373	29.11
625.705	29.76
626.038	29.58
626.37	30
626.703	29.5
627.035	29.51
627.368	29.72
627.7	29.75
628.032	30.03
628.365	30.21
628.697	29.85
629.029	29.49
629.361	29.48
629.693	29.95
630.025	29.9
630.357	29.73
630.689	30.02
631.021	30.11
631.353	30.01
631.684	29.86
632.016	30.05
632.348	30.15
632.679	30.08
633.011	30.1
633.342	30.4
633.674	30.61
634.005	30.2
634.336	30.87
634.668	30.57
634.999	30.25
635.33	30.16
635.661	30.77
635.992	30.65
636.323	30.33
636.654	30.6
636.985	30.33
637.316	30.39
637.647	30.54
637.977	30.37
638.308	31.05
638.639	30.47
638.969	30.72
639.3	30.54
639.63	30.96
639.961	30.63
640.291	30.78
640.622	31.05
640.952	31.09
641.282	31.57
641.612	31.1
641.943	31.16
642.273	30.75
642.603	31.08
642.933	31.27
643.263	31.01
643.592	31.32
643.922	31.26
644.252	31.56
644.582	31.91
644.911	31.82
645.241	31.24
645.571	31.33
645.9	31.26
646.23	31.27
646.559	31.06
646.888	31.81
647.218	31.17
647.547	31.55
647.876	31.57
648.205	31.47
648.534	31.88
648.863	31.56
649.192	31.39
649.521	31.88
649.85	31.95
650.179	31.08
650.508	31.62
650.837	31.98
651.165	32.11
651.494	31.82
651.822	32.07
652.151	31.48
652.479	31.65
652.808	31.57
653.136	31.81
653.465	32.05
653.793	32.15
654.121	32.07
654.449	31.69
654.777	32.42
655.105	31.84
655.433	32.08
655.761	32.3
656.089	32.28
656.417	31.79
656.745	32.32
657.073	31.74
657.4	32.72
657.728	32.55
658.056	32.43
658.383	32.71
658.711	32.17
659.038	32.23
659.365	32.69
659.693	32.41
660.02	32.72
660.347	33.14
660.674	32.47
661.001	32.63
661.329	32.47
661.656	32.53
661.982	32.5
662.309	32.78
662.636	32.17
662.963	32.85
663.29	32.95
663.616	32.69
663.943	32.97
664.27	32.84
664.596	33.01
664.923	33.12
665.249	32.93
665.576	32.67
665.902	33.04
666.228	33.03
666.554	32.71
666.881	33.06
667.207	33.02
667.533	32.94
667.859	33.09
668.185	33.39
668.511	33.4
668.837	33.02
669.162	33.45
669.488	33.34
669.814	33.29
670.139	32.56
670.465	33.88
670.791	33.01
671.116	33.25
671.442	33.42
671.767	32.99
672.092	34.4
672.418	34.05
672.743	33.36
673.068	33.77
673.393	33.31
673.718	34.17
674.043	34.37
674.368	33.89
