Data from 0099_forehead_Reflection__3__186.txt Node

Date: Fri Sep 22 22:20:39 CDT 2023
User: ToomeyLab
Spectrometer: FLMS14357
Trigger mode: 0
Integration Time (sec): 1.000000E-2
Scans to average: 100
Electric dark correction enabled: true
Nonlinearity correction enabled: false
Boxcar width: 0
XAxis mode: Wavelengths
Number of Pixels in Spectrum: 2048
>>>>>Begin Spectral Data<<<<<
189.047	180.26
189.435	180.26
189.823	180.26
190.211	3.11
190.599	64.22
190.987	166.21
191.375	234.02
191.763	52.42
192.151	198.93
192.538	-172.72
192.926	77.39
193.314	-12.15
193.702	89.17
194.089	109.6
194.477	180.86
194.864	530.61
195.252	44.83
195.639	67.76
196.027	71.66
196.414	-104
196.801	136.8
197.189	1238.86
197.576	40.02
197.963	27.8
198.351	48.17
198.738	119.85
199.125	-16.9
199.512	12.69
199.899	59.34
200.286	32.64
200.673	46.95
201.06	47.25
201.447	59.2
201.833	17.45
202.22	54.33
202.607	58.01
202.994	51.09
203.38	78.37
203.767	16.8
204.154	55.7
204.54	45.98
204.927	23.53
205.313	27.39
205.699	67.19
206.086	42.38
206.472	72.32
206.858	40.31
207.245	12.49
207.631	67.05
208.017	85.03
208.403	28.66
208.789	58.27
209.175	41.06
209.561	42.96
209.947	48.72
210.333	70.4
210.719	54.72
211.105	63.24
211.491	63.24
211.876	49.64
212.262	58.68
212.648	52.8
213.034	32.44
213.419	33.65
213.805	40.88
214.19	45.82
214.576	31.78
214.961	6.99
215.346	29.26
215.732	33.35
216.117	34.99
216.502	26.28
216.888	26.73
217.273	31.96
217.658	-7
218.043	3.31
218.428	27.59
218.813	0.38
219.198	19.57
219.583	17.78
219.968	22.11
220.353	42.06
220.738	32.1
221.122	31.4
221.507	19.15
221.892	2.59
222.276	28.54
222.661	3.8
223.046	19.59
223.43	27.44
223.815	19.06
224.199	16.77
224.583	17.8
224.968	21.32
225.352	21.88
225.736	10.91
226.121	27.42
226.505	11.41
226.889	28.82
227.273	16.9
227.657	16.61
228.041	16.77
228.425	12.03
228.809	7.42
229.193	6.04
229.577	10.77
229.961	9.52
230.344	8.4
230.728	4.66
231.112	6.18
231.495	4.98
231.879	5.8
232.263	5.64
232.646	6.81
233.03	4.8
233.413	5.75
233.797	6.58
234.18	6.04
234.563	10.46
234.946	7.75
235.33	5.62
235.713	4.14
236.096	7.52
236.479	5.34
236.862	8.35
237.245	8.77
237.628	9.15
238.011	6.58
238.394	8.18
238.777	7.21
239.16	8.14
239.543	9.02
239.925	8.85
240.308	6.23
240.691	7.33
241.073	7.63
241.456	6.87
241.838	6.48
242.221	6.14
242.603	5.83
242.986	6.12
243.368	5.34
243.75	5.39
244.133	5.55
244.515	5.31
244.897	5.13
245.279	5.51
245.661	5.57
246.043	6.16
246.425	6.06
246.807	6.63
247.189	4.82
247.571	5.72
247.953	6.06
248.335	5.68
248.717	5.46
249.098	5.35
249.48	4.95
249.862	5.08
250.243	5.27
250.625	5.27
251.006	5.29
251.388	5.81
251.769	5.88
252.151	5.68
252.532	5.34
252.913	7.29
253.295	6.87
253.676	5.66
254.057	6.25
254.438	6.39
254.819	5.52
255.2	5.73
255.581	5.81
255.962	6.26
256.343	5.21
256.724	5.48
257.105	6.35
257.486	6.36
257.867	6.69
258.247	6.46
258.628	6.04
259.009	5.62
259.389	6
259.77	6.04
260.15	6.38
260.531	5.56
260.911	5.58
261.292	5.66
261.672	4.93
262.052	5.1
262.432	5.36
262.813	5.18
263.193	4.9
263.573	5.59
263.953	5.42
264.333	5.62
264.713	5.63
265.093	6.2
265.473	5.26
265.853	5.1
266.233	5.55
266.612	5.24
266.992	6.29
267.372	5.89
267.752	6.41
268.131	5.1
268.511	4.89
268.89	5.73
269.27	5.46
269.649	5.75
270.029	5.6
270.408	5.56
270.787	5.53
271.167	5.35
271.546	4.83
271.925	5.94
272.304	4.84
272.683	5.4
273.062	6.2
273.441	5.2
273.82	5.38
274.199	5.44
274.578	5.5
274.957	4.8
275.336	5.3
275.715	5.27
276.093	5.38
276.472	5.09
276.851	5.03
277.229	5.14
277.608	5.14
277.986	5.15
278.365	5.28
278.743	5.26
279.122	5.15
279.5	5.82
279.878	4.82
280.257	5.47
280.635	5.05
281.013	5.37
281.391	5.57
281.769	5.56
282.147	5.25
282.525	5.27
282.903	5.65
283.281	5.09
283.659	5.66
284.037	5.03
284.415	5.54
284.792	5.15
285.17	5.58
285.548	6.32
285.925	5.77
286.303	5.19
286.68	5
287.058	4.96
287.435	5.54
287.813	5.34
288.19	4.56
288.567	4.99
288.945	4.96
289.322	5.31
289.699	5.2
290.076	5.29
290.453	4.87
290.83	4.94
291.207	5.22
291.584	5.09
291.961	5.36
292.338	5.59
292.715	5.23
293.092	5.78
293.469	5.68
293.845	5.61
294.222	5.64
294.599	5.97
294.975	6.33
295.352	5.67
295.728	5.56
296.105	6.14
296.481	6.09
296.858	6.08
297.234	6.2
297.61	5.99
297.986	6.06
298.363	5.71
298.739	5.73
299.115	6.12
299.491	5.65
299.867	6.1
300.243	5.54
300.619	5.99
300.995	5.71
301.371	6.2
301.746	6.73
302.122	6.39
302.498	6
302.874	6.24
303.249	5.8
303.625	5.9
304	6.78
304.376	6.75
304.751	6.7
305.127	7.13
305.502	6.77
305.878	6.26
306.253	6.83
306.628	7.12
307.003	6.55
307.378	6.98
307.754	6.57
308.129	6.94
308.504	6.85
308.879	6.74
309.254	7
309.629	7.21
310.003	7.6
310.378	7.26
310.753	7.46
311.128	7.11
311.502	7.28
311.877	6.69
312.252	6.9
312.626	7.2
313.001	7.66
313.375	7.54
313.75	7.49
314.124	7.47
314.498	6.93
314.873	7.55
315.247	7.73
315.621	7.82
315.995	7.63
316.369	7.71
316.743	7.5
317.117	7.77
317.491	8.16
317.865	7.93
318.239	7.82
318.613	8.61
318.987	8.46
319.361	7.32
319.734	8.03
320.108	8.73
320.482	7.82
320.855	8.04
321.229	8.58
321.602	8.69
321.976	8.15
322.349	8.27
322.723	8.66
323.096	8.54
323.469	8.47
323.843	8.71
324.216	8.61
324.589	8.35
324.962	8.65
325.335	8.81
325.708	8.07
326.081	9.39
326.454	8.11
326.827	8.83
327.2	8.58
327.573	9.11
327.945	8.72
328.318	8.7
328.691	8.54
329.063	9.16
329.436	9.38
329.809	9.43
330.181	9.17
330.553	8.99
330.926	9.4
331.298	9.43
331.671	9.9
332.043	8.81
332.415	8.9
332.787	10.07
333.159	9.1
333.532	9.26
333.904	9.86
334.276	9.24
334.648	9.24
335.02	8.63
335.391	9.53
335.763	10.09
336.135	9.99
336.507	9.67
336.879	9.3
337.25	9.66
337.622	10.49
337.993	9.78
338.365	10.15
338.736	9.92
339.108	10.39
339.479	10.27
339.851	9.64
340.222	9.9
340.593	9.85
340.964	9.61
341.336	10.3
341.707	9.8
342.078	10.26
342.449	10.04
342.82	10.18
343.191	9.88
343.562	10.24
343.933	10.38
344.303	10.45
344.674	10.21
345.045	10.28
345.416	10.7
345.786	9.58
346.157	10.41
346.527	10.46
346.898	10.08
347.268	10.57
347.639	10.63
348.009	10.85
348.38	10.52
348.75	11.32
349.12	10.63
349.49	10.96
349.861	10.56
350.231	10.75
350.601	11.19
350.971	10.96
351.341	10.72
351.711	10.81
352.081	10.68
352.45	10.95
352.82	10.93
353.19	10.95
353.56	11.27
353.929	11.29
354.299	11.12
354.669	11.21
355.038	11.22
355.408	11.08
355.777	11.4
356.147	11.42
356.516	11.64
356.885	11.56
357.254	11.75
357.624	11.37
357.993	11.64
358.362	11.78
358.731	11.86
359.1	11.27
359.469	11.85
359.838	11.42
360.207	11.64
360.576	12.12
360.945	11.81
361.314	12.02
361.682	11.88
362.051	12.13
362.42	12.04
362.788	11.93
363.157	12.25
363.525	11.81
363.894	11.91
364.262	11.92
364.631	11.93
364.999	11.97
365.367	12.27
365.735	12.62
366.104	12.35
366.472	12.75
366.84	12.35
367.208	12.49
367.576	12.72
367.944	12.5
368.312	12.61
368.68	12.55
369.048	13.07
369.416	12.72
369.783	12.72
370.151	12.79
370.519	12.89
370.886	12.85
371.254	13.28
371.621	12.77
371.989	13.03
372.356	12.97
372.724	13.16
373.091	13.41
373.458	13.16
373.826	13.37
374.193	13.25
374.56	13.46
374.927	13.2
375.294	13.38
375.661	13.31
376.028	13.8
376.395	13.44
376.762	13.59
377.129	14.04
377.496	13.98
377.863	13.95
378.229	13.82
378.596	13.7
378.963	13.98
379.329	14.09
379.696	14.09
380.062	13.8
380.429	14.11
380.795	13.84
381.161	13.95
381.528	13.75
381.894	13.99
382.26	14.05
382.626	14.12
382.993	14.28
383.359	14.35
383.725	14.16
384.091	14.7
384.457	14.38
384.823	14.56
385.188	14.59
385.554	14.84
385.92	14.7
386.286	14.62
386.651	14.73
387.017	15.12
387.383	14.46
387.748	14.53
388.114	14.77
388.479	14.99
388.845	14.85
389.21	14.66
389.575	15.35
389.94	14.76
390.306	15.38
390.671	15.29
391.036	14.72
391.401	15.06
391.766	15.09
392.131	15.08
392.496	15.27
392.861	15.31
393.226	15.47
393.591	15.58
393.956	15.6
394.32	15.38
394.685	15.3
395.05	15.8
395.414	15.55
395.779	15.49
396.143	15.78
396.508	15.52
396.872	15.6
397.236	15.84
397.601	15.68
397.965	16.07
398.329	15.95
398.694	15.82
399.058	16.06
399.422	15.97
399.786	16.08
400.15	16.21
400.514	15.97
400.878	16.15
401.242	16.28
401.605	16.32
401.969	16.03
402.333	16.65
402.697	16.42
403.06	16.41
403.424	16.36
403.787	16.72
404.151	16.76
404.514	16.73
404.878	16.83
405.241	16.97
405.604	16.88
405.968	16.91
406.331	16.74
406.694	16.62
407.057	16.66
407.42	16.99
407.783	17.04
408.146	16.94
408.509	17.05
408.872	16.63
409.235	17.15
409.598	17.22
409.961	17.44
410.323	17.18
410.686	17.21
411.049	17.42
411.411	17.58
411.774	17.49
412.136	17.25
412.499	17.3
412.861	17.33
413.223	17.46
413.586	17.46
413.948	17.55
414.31	17.49
414.672	17.72
415.035	17.64
415.397	18.19
415.759	18.03
416.121	17.91
416.483	18.03
416.845	17.85
417.206	17.87
417.568	17.98
417.93	18.03
418.292	18.09
418.653	18.04
419.015	17.92
419.377	17.85
419.738	18.15
420.1	17.79
420.461	17.96
420.822	18.1
421.184	18.04
421.545	17.92
421.906	18.17
422.267	18.24
422.629	18.07
422.99	18.05
423.351	17.95
423.712	18.04
424.073	18.07
424.434	18.25
424.795	18.35
425.155	18.46
425.516	18.48
425.877	18.4
426.238	18.41
426.598	18.4
426.959	18.55
427.32	18.67
427.68	18.56
428.041	18.67
428.401	18.83
428.761	18.96
429.122	18.89
429.482	19.02
429.842	19.11
430.202	19.21
430.563	19.32
430.923	19.26
431.283	19.33
431.643	19.51
432.003	19.59
432.363	19.54
432.722	19.81
433.082	19.66
433.442	19.5
433.802	19.72
434.161	19.68
434.521	19.81
434.881	19.66
435.24	19.83
435.6	19.59
435.959	19.47
436.319	19.63
436.678	19.69
437.037	19.98
437.396	19.9
437.756	20.01
438.115	20.05
438.474	20.16
438.833	20.14
439.192	20.18
439.551	20.18
439.91	20.35
440.269	20.45
440.628	20.06
440.987	20.46
441.345	20.49
441.704	20.56
442.063	20.5
442.421	20.33
442.78	20.38
443.138	20.26
443.497	20.33
443.855	20.51
444.214	20.57
444.572	20.75
444.93	20.68
445.288	20.71
445.647	21
446.005	21.01
446.363	20.97
446.721	20.72
447.079	20.82
447.437	20.96
447.795	20.95
448.153	20.81
448.51	20.98
448.868	20.84
449.226	20.84
449.584	20.89
449.941	20.91
450.299	21.27
450.656	21.35
451.014	21.29
451.371	21.39
451.729	21.58
452.086	21.56
452.443	21.64
452.801	21.81
453.158	21.84
453.515	22.17
453.872	21.63
454.229	22.06
454.586	21.94
454.943	21.91
455.3	21.92
455.657	21.98
456.014	22.03
456.371	22.12
456.727	22.33
457.084	22.24
457.441	22.24
457.797	22.36
458.154	22.48
458.51	22.22
458.867	22.32
459.223	22.25
459.58	22.4
459.936	22.75
460.292	22.49
460.648	22.69
461.005	22.51
461.361	22.59
461.717	22.25
462.073	22.29
462.429	22.28
462.785	22.38
463.141	22.52
463.496	22.74
463.852	23.09
464.208	22.89
464.564	23.26
464.919	23.03
465.275	23.42
465.631	23.5
465.986	23.45
466.342	23.29
466.697	23.36
467.052	23.3
467.408	23.45
467.763	23.42
468.118	23.55
468.473	23.56
468.829	23.78
469.184	23.64
469.539	23.74
469.894	23.85
470.249	23.75
470.603	23.67
470.958	23.72
471.313	23.94
471.668	24.03
472.023	23.77
472.377	23.95
472.732	24.19
473.086	24.49
473.441	23.87
473.795	24.37
474.15	24.18
474.504	24.21
474.859	24.45
475.213	24.37
475.567	24.25
475.921	24.56
476.275	24.57
476.63	24.64
476.984	24.49
477.338	24.67
477.692	24.84
478.045	24.8
478.399	24.8
478.753	24.94
479.107	24.73
479.461	24.7
479.814	24.89
480.168	24.86
480.521	24.98
480.875	24.99
481.228	24.96
481.582	25.04
481.935	25.04
482.289	25.22
482.642	25.09
482.995	25.2
483.348	25.32
483.701	25.23
484.055	25.14
484.408	25.16
484.761	25.08
485.114	24.79
485.466	24.72
485.819	24.39
486.172	24.42
486.525	24.53
486.878	24.56
487.23	24.69
487.583	24.82
487.936	25.03
488.288	25.18
488.641	25.23
488.993	25.2
489.345	25.01
489.698	25.09
490.05	25.1
490.402	25.07
490.754	25.17
491.107	25.36
491.459	25.45
491.811	25.7
492.163	25.79
492.515	26.03
492.866	26.03
493.218	26.01
493.57	25.76
493.922	25.67
494.274	25.76
494.625	25.84
494.977	25.96
495.328	26.24
495.68	26.45
496.031	26.58
496.383	26.85
496.734	26.87
497.086	26.89
497.437	27.06
497.788	27.09
498.139	27.06
498.49	27.29
498.842	27.15
499.193	27.1
499.544	26.89
499.894	27.26
500.245	27.2
500.596	27.45
500.947	27.48
501.298	27.71
501.648	27.69
501.999	27.58
502.35	27.89
502.7	27.89
503.051	27.74
503.401	27.83
503.752	28.07
504.102	27.96
504.452	28.17
504.803	28.14
505.153	28.19
505.503	28.21
505.853	28.43
506.203	28.31
506.553	28.36
506.903	28.31
507.253	28.53
507.603	28.39
507.953	28.51
508.303	28.67
508.652	28.54
509.002	28.78
509.352	28.84
509.701	28.86
510.051	28.75
510.4	28.73
510.75	28.65
511.099	28.72
511.449	28.84
511.798	29.03
512.147	29.07
512.496	29.12
512.846	28.99
513.195	29.24
513.544	29.18
513.893	29.22
514.242	29.08
514.591	29.31
514.939	29.36
515.288	29.41
515.637	29.66
515.986	29.67
516.334	29.71
516.683	29.65
517.032	29.92
517.38	29.78
517.729	29.65
518.077	29.86
518.426	29.99
518.774	30.05
519.122	30.02
519.47	30.05
519.819	30.04
520.167	30.01
520.515	29.93
520.863	29.94
521.211	29.9
521.559	30.07
521.907	30.17
522.255	30.2
522.602	30.19
522.95	30.38
523.298	30.67
523.645	30.7
523.993	30.74
524.341	31.04
524.688	30.97
525.036	30.99
525.383	31.19
525.73	31.02
526.078	31.08
526.425	31.01
526.772	31.23
527.119	31.11
527.466	30.87
527.814	30.92
528.161	30.98
528.508	31
528.854	31.08
529.201	31.16
529.548	31.13
529.895	31.01
530.242	30.86
530.588	30.64
530.935	30.5
531.282	30.79
531.628	30.89
531.975	30.92
532.321	31.11
532.667	31.26
533.014	31.37
533.36	31.63
533.706	31.79
534.052	31.79
534.399	31.82
534.745	31.79
535.091	31.76
535.437	31.68
535.783	31.61
536.129	31.67
536.474	31.84
536.82	31.85
537.166	32.32
537.512	32.39
537.857	32.53
538.203	32.57
538.549	32.51
538.894	32.49
539.239	32.31
539.585	32.51
539.93	32.61
540.276	33
540.621	33.13
540.966	33.27
541.311	33.31
541.656	33.38
542.001	33.42
542.346	33.67
542.691	33.42
543.036	33.19
543.381	32.85
543.726	32.64
544.071	32.7
544.415	32.97
544.76	33.14
545.105	33.3
545.449	33.38
545.794	33.55
546.138	33.66
546.483	33.79
546.827	33.88
547.171	34.12
547.516	34.2
547.86	34.25
548.204	34.27
548.548	34.38
548.892	34.27
549.236	34.23
549.58	34.35
549.924	34.52
550.268	34.83
550.612	34.86
550.956	35.06
551.3	35.05
551.643	35.18
551.987	35.25
552.33	35.56
552.674	35.34
553.017	35.54
553.361	35.6
553.704	35.57
554.048	35.49
554.391	35.62
554.734	35.55
555.077	35.51
555.42	35.71
555.764	35.87
556.107	35.94
556.45	35.79
556.793	36
557.135	36.04
557.478	35.9
557.821	36.17
558.164	36.43
558.507	36.7
558.849	36.59
559.192	36.43
559.534	36.6
559.877	36.62
560.219	36.87
560.562	36.85
560.904	37
561.246	37.06
561.589	36.94
561.931	36.69
562.273	37.07
562.615	37.04
562.957	36.8
563.299	37.04
563.641	37.29
563.983	37.35
564.325	37.47
564.667	37.64
565.008	37.36
565.35	37.64
565.692	37.38
566.033	37.75
566.375	37.67
566.716	37.98
567.058	37.71
567.399	37.87
567.741	37.97
568.082	37.71
568.423	37.87
568.764	37.71
569.105	37.98
569.447	37.93
569.788	37.92
570.129	38.12
570.47	38.21
570.811	38.09
571.151	38.32
571.492	38.6
571.833	38.63
572.174	38.42
572.514	38.61
572.855	38.49
573.195	38.86
573.536	38.7
573.876	38.66
574.217	38.61
574.557	38.79
574.898	38.68
575.238	38.77
575.578	39.24
575.918	39.12
576.258	39.08
576.598	39.24
576.938	39.19
577.278	39.45
577.618	39.27
577.958	39.4
578.298	39.42
578.638	39.59
578.977	39.68
579.317	39.65
579.657	39.94
579.996	40.2
580.336	39.98
580.675	39.87
581.014	39.98
581.354	40.22
581.693	40.5
582.032	40.51
582.372	40.33
582.711	40.4
583.05	40.35
583.389	40.52
583.728	40.78
584.067	40.64
584.406	40.87
584.745	40.66
585.083	41.05
585.422	41.21
585.761	41.18
586.1	41.51
586.438	41.02
586.777	40.98
587.115	41.08
587.454	41.31
587.792	41.61
588.13	41.94
588.469	41.58
588.807	41.76
589.145	41.72
589.483	41.58
589.821	41.77
590.159	42.05
590.497	42.03
590.835	41.51
591.173	41.87
591.511	42.07
591.849	42.12
592.187	41.92
592.524	42.1
592.862	42.21
593.2	42.12
593.537	42.11
593.875	42.24
594.212	42.31
594.55	42.55
594.887	42.12
595.224	42.68
595.561	42.67
595.899	42.68
596.236	42.78
596.573	42.57
596.91	42.74
597.247	42.96
597.584	43.24
597.921	42.86
598.258	42.94
598.594	42.85
598.931	42.78
599.268	42.66
599.604	42.91
599.941	42.96
600.277	42.99
600.614	43.23
600.95	43.17
601.287	43.63
601.623	43.31
601.959	43.6
602.296	43.38
602.632	44
602.968	43.77
603.304	44.13
603.64	43.65
603.976	43.95
604.312	44.08
604.648	44
604.984	44.02
605.319	44.09
605.655	44.22
605.991	44.44
606.326	44.25
606.662	44.06
606.998	43.9
607.333	44.18
607.668	44.28
608.004	44.35
608.339	44.32
608.674	44.39
609.01	44.88
609.345	44.97
609.68	45.09
610.015	44.78
610.35	45
610.685	45.35
611.02	44.75
611.355	45.05
611.689	44.96
612.024	45.03
612.359	44.73
612.694	45.13
613.028	45.18
613.363	45.41
613.697	45.4
614.032	45.48
614.366	45.3
614.7	45.38
615.035	45.93
615.369	46.05
615.703	45.9
616.037	46.05
616.371	46.19
616.705	46.4
617.039	46.28
617.373	46.11
617.707	46.32
618.041	46.48
618.375	46.42
618.709	46.16
619.042	46.89
619.376	46.38
619.71	46.85
620.043	46.45
620.377	46.93
620.71	46.94
621.043	46.83
621.377	46.86
621.71	46.89
622.043	46.96
622.376	47.4
622.709	47.04
623.043	47.68
623.376	46.91
623.709	47.49
624.041	47.28
624.374	47.61
624.707	47.88
625.04	47.7
625.373	47.64
625.705	47.69
626.038	47.73
626.37	47.86
626.703	47.57
627.035	47.88
627.368	47.89
627.7	48.11
628.032	47.98
628.365	48.17
628.697	47.9
629.029	47.48
629.361	47.99
629.693	48.19
630.025	47.92
630.357	48.37
630.689	48.05
631.021	48.16
631.353	48.31
631.684	48.52
632.016	49.14
632.348	48.23
632.679	48
633.011	48.86
633.342	48.59
633.674	48.72
634.005	48.88
634.336	49.28
634.668	49.04
634.999	49.02
635.33	48.9
635.661	49.17
635.992	49.35
636.323	49.47
636.654	49.23
636.985	49.27
637.316	49.12
637.647	49.32
637.977	49.31
638.308	49.97
638.639	49.71
638.969	50.05
639.3	49.75
639.63	50.12
639.961	49.54
640.291	50.08
640.622	50.31
640.952	49.94
641.282	51.12
641.612	50.3
641.943	50.55
642.273	49.76
642.603	49.95
642.933	49.97
643.263	49.81
643.592	50.9
643.922	50.77
644.252	50.06
644.582	50.71
644.911	50.71
645.241	49.99
645.571	50.83
645.9	51.11
646.23	50.74
646.559	50.51
646.888	50.84
647.218	50.89
647.547	51.24
647.876	50.93
648.205	51.15
648.534	51.37
648.863	51.24
649.192	51.4
649.521	51.47
649.85	51.33
650.179	51.11
650.508	51.56
650.837	51.48
651.165	52.27
651.494	51.77
651.822	51.65
652.151	51.24
652.479	51.82
652.808	51.51
653.136	51.77
653.465	52.11
653.793	52
654.121	51.75
654.449	51.57
654.777	52.27
655.105	52.03
655.433	52.49
655.761	52.45
656.089	52.6
656.417	51.83
656.745	52.69
657.073	52.24
657.4	53.15
657.728	52.48
658.056	52.32
658.383	52.51
658.711	52.38
659.038	52.41
659.365	52.76
659.693	52.83
660.02	53.04
660.347	53.93
660.674	53.12
661.001	52.66
661.329	53.17
661.656	52.78
661.982	53.38
662.309	52.79
662.636	53.43
662.963	53.04
663.29	53.39
663.616	53.66
663.943	53.26
664.27	53.12
664.596	54.02
664.923	53.37
665.249	54.07
665.576	53.41
665.902	53.79
666.228	54.29
666.554	53.29
666.881	54.06
667.207	53.59
667.533	53.59
667.859	54.21
668.185	54.77
668.511	54.2
668.837	54.1
669.162	54.1
669.488	54.15
669.814	54.37
670.139	54.45
670.465	54.76
670.791	54.3
