Data from 0099_crown_Reflection__1__178.txt Node

Date: Fri Sep 22 22:18:21 CDT 2023
User: ToomeyLab
Spectrometer: FLMS14357
Trigger mode: 0
Integration Time (sec): 1.000000E-2
Scans to average: 100
Electric dark correction enabled: true
Nonlinearity correction enabled: false
Boxcar width: 0
XAxis mode: Wavelengths
Number of Pixels in Spectrum: 2048
>>>>>Begin Spectral Data<<<<<
189.047	171.62
189.435	171.62
189.823	171.62
190.211	44.39
190.599	93.2
190.987	344.42
191.375	47.8
191.763	107.41
192.151	135.7
192.538	-42.81
192.926	40.96
193.314	38.72
193.702	92.55
194.089	114.69
194.477	-15.9
194.864	379.51
195.252	70.81
195.639	69.6
196.027	135.66
196.414	81.1
196.801	189.39
197.189	-166.27
197.576	99.19
197.963	-143.72
198.351	12.23
198.738	15.8
199.125	33.86
199.512	21.89
199.899	54.57
200.286	28.99
200.673	54.22
201.06	9.84
201.447	58.44
201.833	4
202.22	50.6
202.607	31.63
202.994	51.49
203.38	27.48
203.767	10.28
204.154	0.05
204.54	-7.93
204.927	34.74
205.313	2.47
205.699	54.65
206.086	28.89
206.472	37.29
206.858	66.63
207.245	-22.03
207.631	17.48
208.017	79.75
208.403	8.27
208.789	34.22
209.175	28.19
209.561	32.17
209.947	48.44
210.333	55.96
210.719	6.26
211.105	53.67
211.491	25.31
211.876	39.45
212.262	20.79
212.648	16
213.034	26.42
213.419	10.47
213.805	41.76
214.19	46.93
214.576	11.14
214.961	12.35
215.346	22.52
215.732	57.11
216.117	13.91
216.502	37.54
216.888	17.96
217.273	2.79
217.658	22.4
218.043	31.95
218.428	13.1
218.813	8.45
219.198	12.52
219.583	12.89
219.968	1.09
220.353	39.82
220.738	-14.63
221.122	-20.64
221.507	7.62
221.892	-27.38
222.276	11.98
222.661	-18.19
223.046	15.57
223.43	19.66
223.815	4.59
224.199	-5.36
224.583	19.31
224.968	13.81
225.352	0.44
225.736	12.05
226.121	7.94
226.505	7.47
226.889	11.02
227.273	1.12
227.657	-4.89
228.041	-0.17
228.425	9.09
228.809	4.03
229.193	4.06
229.577	6.94
229.961	5.01
230.344	4.79
230.728	2.9
231.112	2.57
231.495	2.58
231.879	2.92
232.263	3.34
232.646	2.62
233.03	2.9
233.413	1.68
233.797	1.88
234.18	2.66
234.563	5.53
234.946	3.73
235.33	-0.81
235.713	0.53
236.096	1.78
236.479	3.88
236.862	4.91
237.245	4.1
237.628	2.4
238.011	3.66
238.394	4.61
238.777	3.97
239.16	4.13
239.543	3.63
239.925	4.48
240.308	4.19
240.691	3.74
241.073	4.18
241.456	2.54
241.838	1.32
242.221	3.45
242.603	2.95
242.986	1.86
243.368	1.69
243.75	3.05
244.133	2.95
244.515	2.63
244.897	1.97
245.279	2.42
245.661	2.04
246.043	2.12
246.425	2.51
246.807	2.87
247.189	2.17
247.571	2.62
247.953	3.08
248.335	2.71
248.717	2.31
249.098	2.52
249.48	2.23
249.862	2.39
250.243	2.5
250.625	2.31
251.006	1.82
251.388	2.41
251.769	2.89
252.151	2.08
252.532	2.71
252.913	2.14
253.295	3.04
253.676	2.44
254.057	2.38
254.438	2.67
254.819	2.16
255.2	2.93
255.581	2.76
255.962	4.23
256.343	3
256.724	1.18
257.105	1.91
257.486	2.29
257.867	2.45
258.247	2.34
258.628	2.52
259.009	2.16
259.389	2.8
259.77	2.61
260.15	3.9
260.531	2.82
260.911	2.76
261.292	2.3
261.672	2.04
262.052	2.25
262.432	2.1
262.813	2.27
263.193	2.02
263.573	2.51
263.953	2.17
264.333	2.31
264.713	1.9
265.093	1.86
265.473	2
265.853	1.91
266.233	2.65
266.612	2.15
266.992	2.92
267.372	2.45
267.752	2.64
268.131	2.35
268.511	1.63
268.89	2.75
269.27	2.37
269.649	2.1
270.029	2.76
270.408	2.3
270.787	2.4
271.167	2.1
271.546	1.87
271.925	3.06
272.304	1.71
272.683	2.71
273.062	3.34
273.441	1.75
273.82	2.66
274.199	2.57
274.578	2.25
274.957	2.5
275.336	1.94
275.715	2.25
276.093	2.13
276.472	2.44
276.851	2.23
277.229	2.17
277.608	2.53
277.986	2.13
278.365	2.31
278.743	1.82
279.122	2.01
279.5	2.38
279.878	1.93
280.257	2.82
280.635	2.36
281.013	2.31
281.391	2.03
281.769	2.02
282.147	3.26
282.525	2.68
282.903	2.58
283.281	2.49
283.659	1.96
284.037	2.1
284.415	2.21
284.792	2.5
285.17	2.38
285.548	2.48
285.925	2.31
286.303	2.1
286.68	2.11
287.058	2.2
287.435	2.12
287.813	1.89
288.19	1.59
288.567	2.28
288.945	1.96
289.322	2.21
289.699	2.17
290.076	2.48
290.453	2.23
290.83	1.71
291.207	1.96
291.584	2.03
291.961	1.65
292.338	2.02
292.715	2.63
293.092	2.34
293.469	1.9
293.845	1.88
294.222	2.09
294.599	1.91
294.975	2.71
295.352	2.4
295.728	1.84
296.105	2.05
296.481	2.23
296.858	2.04
297.234	2.17
297.61	2.33
297.986	1.94
298.363	1.88
298.739	1.75
299.115	2.3
299.491	2.22
299.867	2.06
300.243	2.1
300.619	2.17
300.995	1.69
301.371	2.03
301.746	2.07
302.122	1.66
302.498	1.82
302.874	1.98
303.249	1.73
303.625	1.58
304	2.28
304.376	2.42
304.751	2.05
305.127	2.43
305.502	2.49
305.878	2.16
306.253	2.03
306.628	1.98
307.003	2.16
307.378	1.76
307.754	2.11
308.129	2.25
308.504	1.94
308.879	2.2
309.254	2.34
309.629	1.49
310.003	2.31
310.378	2.45
310.753	2.39
311.128	2.09
311.502	2.46
311.877	1.75
312.252	2.22
312.626	2.35
313.001	2.2
313.375	2.06
313.75	2.57
314.124	2.55
314.498	2.02
314.873	2.11
315.247	2.05
315.621	1.95
315.995	1.91
316.369	1.8
316.743	2.36
317.117	2.25
317.491	2.69
317.865	1.83
318.239	2.31
318.613	2.37
318.987	1.83
319.361	2.05
319.734	1.68
320.108	2
320.482	2.17
320.855	1.9
321.229	2.21
321.602	2.71
321.976	2.04
322.349	2.01
322.723	2.21
323.096	2.29
323.469	2.16
323.843	1.83
324.216	2.79
324.589	2.09
324.962	2.05
325.335	2.1
325.708	1.89
326.081	2.48
326.454	1.68
326.827	2.07
327.2	2.3
327.573	2.73
327.945	1.65
328.318	2.21
328.691	2.21
329.063	2.15
329.436	2.19
329.809	2.26
330.181	2.06
330.553	1.72
330.926	2.06
331.298	2.31
331.671	1.95
332.043	1.52
332.415	1.94
332.787	2.54
333.159	1.36
333.532	1.89
333.904	2.07
334.276	1.72
334.648	1.58
335.02	1.91
335.391	2.23
335.763	2.64
336.135	2.15
336.507	1.99
336.879	1.77
337.25	1.75
337.622	2.47
337.993	1.59
338.365	2.75
338.736	1.77
339.108	2.11
339.479	1.98
339.851	1.91
340.222	1.73
340.593	1.4
340.964	1.42
341.336	2.12
341.707	1.84
342.078	2.09
342.449	1.94
342.82	1.64
343.191	1.53
343.562	1.62
343.933	1.92
344.303	2
344.674	2.1
345.045	2.38
345.416	2.24
345.786	2.16
346.157	1.81
346.527	1.92
346.898	1.61
347.268	1.6
347.639	2.17
348.009	1.88
348.38	2.16
348.75	2.14
349.12	1.63
349.49	2.46
349.861	1.82
350.231	2.32
350.601	2.18
350.971	2.18
351.341	2.1
351.711	1.69
352.081	1.58
352.45	2.17
352.82	1.97
353.19	2.03
353.56	1.67
353.929	2.16
354.299	2.27
354.669	1.85
355.038	1.67
355.408	1.83
355.777	2.04
356.147	1.68
356.516	2.04
356.885	2.42
357.254	2.35
357.624	1.8
357.993	1.93
358.362	1.88
358.731	2
359.1	1.96
359.469	2.09
359.838	1.62
360.207	1.82
360.576	1.86
360.945	2.17
361.314	2.02
361.682	2.12
362.051	1.98
362.42	2.1
362.788	1.71
363.157	1.81
363.525	1.92
363.894	1.88
364.262	1.9
364.631	1.67
364.999	1.74
365.367	2.07
365.735	1.92
366.104	1.71
366.472	2.19
366.84	1.95
367.208	2.38
367.576	2.09
367.944	1.64
368.312	2.09
368.68	2.01
369.048	2.11
369.416	1.88
369.783	1.77
370.151	2.01
370.519	2.01
370.886	1.95
371.254	1.73
371.621	1.6
371.989	2.17
372.356	2.12
372.724	2.06
373.091	1.81
373.458	1.86
373.826	1.93
374.193	2.19
374.56	2.06
374.927	2.17
375.294	1.61
375.661	1.9
376.028	2.01
376.395	2.15
376.762	1.96
377.129	2.1
377.496	2.22
377.863	1.97
378.229	2.05
378.596	2.18
378.963	2.35
379.329	2.07
379.696	2.31
380.062	1.8
380.429	1.99
380.795	2.15
381.161	1.73
381.528	1.71
381.894	1.82
382.26	1.67
382.626	1.81
382.993	2.02
383.359	1.78
383.725	1.82
384.091	1.7
384.457	1.76
384.823	1.83
385.188	2.03
385.554	1.91
385.92	2.26
386.286	1.89
386.651	1.95
387.017	1.96
387.383	1.83
387.748	1.95
388.114	2.06
388.479	1.88
388.845	1.73
389.21	1.89
389.575	2
389.94	1.8
390.306	1.91
390.671	2.28
391.036	1.44
391.401	1.92
391.766	1.93
392.131	1.88
392.496	1.98
392.861	1.98
393.226	2.05
393.591	2.21
393.956	2.04
394.32	2.04
394.685	1.76
395.05	2.58
395.414	2.09
395.779	2.13
396.143	1.93
396.508	1.91
396.872	1.9
397.236	2.24
397.601	1.99
397.965	2.02
398.329	2.02
398.694	1.81
399.058	1.77
399.422	1.99
399.786	2.26
400.15	2.16
400.514	2.23
400.878	2.22
401.242	2.23
401.605	2
401.969	1.69
402.333	2.24
402.697	2.1
403.06	1.98
403.424	1.92
403.787	2.22
404.151	2.11
404.514	2.16
404.878	2.2
405.241	2.1
405.604	2.23
405.968	2.13
406.331	2.13
406.694	2.26
407.057	1.97
407.42	2.03
407.783	2.13
408.146	2.08
408.509	1.97
408.872	1.85
409.235	2
409.598	1.98
409.961	2.11
410.323	2.03
410.686	2.08
411.049	2.27
411.411	2.3
411.774	2.04
412.136	1.88
412.499	1.85
412.861	1.95
413.223	2.24
413.586	2.07
413.948	2.13
414.31	2.19
414.672	2.06
415.035	2.09
415.397	2.27
415.759	2.44
416.121	2.06
416.483	2.07
416.845	1.9
417.206	1.92
417.568	2.03
417.93	2.19
418.292	2.2
418.653	1.98
419.015	2.04
419.377	2.04
419.738	2.17
420.1	2.09
420.461	2.08
420.822	2.02
421.184	2.01
421.545	2.1
421.906	2.06
422.267	2
422.629	2.1
422.99	1.95
423.351	1.93
423.712	2.02
424.073	1.94
424.434	2
424.795	1.93
425.155	2.07
425.516	2.03
425.877	1.94
426.238	1.91
426.598	1.9
426.959	1.96
427.32	2.06
427.68	1.99
428.041	2.01
428.401	2.11
428.761	2.2
429.122	2.09
429.482	2.17
429.842	1.98
430.202	2.01
430.563	2.19
430.923	2.17
431.283	2.13
431.643	2.24
432.003	2.18
432.363	2.37
432.722	2.26
433.082	2.21
433.442	2.2
433.802	2.24
434.161	2.15
434.521	2.13
434.881	2.23
435.24	2.13
435.6	2.07
435.959	1.94
436.319	2.01
436.678	2.13
437.037	2.15
437.396	2
437.756	2.13
438.115	2.11
438.474	1.99
438.833	2.14
439.192	2.04
439.551	2.02
439.91	2.2
440.269	2.23
440.628	1.98
440.987	2.16
441.345	2.24
441.704	2.15
442.063	2.09
442.421	2.18
442.78	2.11
443.138	2.04
443.497	2.1
443.855	2.15
444.214	2.1
444.572	2.24
444.93	2.1
445.288	2.2
445.647	2.07
446.005	2.14
446.363	1.95
446.721	2.1
447.079	1.98
447.437	2.22
447.795	2.18
448.153	2
448.51	2.11
448.868	1.98
449.226	2.15
449.584	2.17
449.941	2.02
450.299	2.16
450.656	2.07
451.014	2.19
451.371	2.06
451.729	2.21
452.086	2.18
452.443	2.22
452.801	2.11
453.158	2.18
453.515	2.35
453.872	2.15
454.229	2.24
454.586	2.19
454.943	2.14
455.3	2.11
455.657	2
456.014	2.15
456.371	2.37
456.727	2.31
457.084	2.1
457.441	2.05
457.797	2.2
458.154	2.15
458.51	1.96
458.867	2.21
459.223	2.26
459.58	2.36
459.936	2.26
460.292	2.33
460.648	2.32
461.005	2.27
461.361	2.17
461.717	2.02
462.073	2.12
462.429	1.94
462.785	2.17
463.141	2.12
463.496	2.2
463.852	2.14
464.208	2.27
464.564	2.42
464.919	2.08
465.275	2.13
465.631	2.29
465.986	2.3
466.342	2.3
466.697	2.38
467.052	2.2
467.408	2.23
467.763	2.15
468.118	2.4
468.473	2.26
468.829	2.23
469.184	2.18
469.539	2.29
469.894	2.21
470.249	2.28
470.603	2.29
470.958	2.28
471.313	2.39
471.668	2.41
472.023	2.29
472.377	2.33
472.732	2.26
473.086	2.4
473.441	1.97
473.795	2.41
474.15	2.12
474.504	2.17
474.859	2.38
475.213	2.08
475.567	2.12
475.921	2.39
476.275	2.34
476.63	2.37
476.984	2.22
477.338	2.38
477.692	2.36
478.045	2.29
478.399	2.33
478.753	2.28
479.107	2.39
479.461	2.12
479.814	2.29
480.168	2.27
480.521	2.39
480.875	2.42
481.228	2.33
481.582	2.17
481.935	2.31
482.289	2.26
482.642	2.13
482.995	2.22
483.348	2.24
483.701	2.2
484.055	2.19
484.408	2.32
484.761	2.28
485.114	2.08
485.466	2.07
485.819	2.04
486.172	2.02
486.525	2.05
486.878	2.09
487.23	2.12
487.583	2.16
487.936	2.17
488.288	2.18
488.641	2.17
488.993	2.17
489.345	2.12
489.698	2.1
490.05	2.12
490.402	2.11
490.754	2.12
491.107	2.15
491.459	2.22
491.811	2.2
492.163	2.25
492.515	2.18
492.866	2.26
493.218	2.26
493.57	2.17
493.922	2.12
494.274	2.14
494.625	2.21
494.977	2.26
495.328	2.34
495.68	2.23
496.031	2.35
496.383	2.31
496.734	2.22
497.086	2.26
497.437	2.26
497.788	2.3
498.139	2.29
498.49	2.43
498.842	2.23
499.193	2.28
499.544	2.25
499.894	2.34
500.245	2.28
500.596	2.32
500.947	2.35
501.298	2.31
501.648	2.44
501.999	2.34
502.35	2.38
502.7	2.38
503.051	2.29
503.401	2.35
503.752	2.33
504.102	2.36
504.452	2.3
504.803	2.25
505.153	2.34
505.503	2.29
505.853	2.42
506.203	2.34
506.553	2.41
506.903	2.37
507.253	2.32
507.603	2.52
507.953	2.5
508.303	2.43
508.652	2.39
509.002	2.47
509.352	2.31
509.701	2.33
510.051	2.43
510.4	2.38
510.75	2.35
511.099	2.24
511.449	2.34
511.798	2.37
512.147	2.36
512.496	2.32
512.846	2.3
513.195	2.36
513.544	2.44
513.893	2.4
514.242	2.31
514.591	2.49
514.939	2.36
515.288	2.27
515.637	2.42
515.986	2.31
516.334	2.34
516.683	2.33
517.032	2.5
517.38	2.46
517.729	2.36
518.077	2.38
518.426	2.44
518.774	2.48
519.122	2.41
519.47	2.41
519.819	2.45
520.167	2.36
520.515	2.31
520.863	2.27
521.211	2.26
521.559	2.37
521.907	2.43
522.255	2.42
522.602	2.34
522.95	2.32
523.298	2.39
523.645	2.39
523.993	2.47
524.341	2.45
524.688	2.38
525.036	2.38
525.383	2.38
525.73	2.55
526.078	2.48
526.425	2.53
526.772	2.55
527.119	2.27
527.466	2.26
527.814	2.3
528.161	2.24
528.508	2.4
528.854	2.42
529.201	2.34
529.548	2.36
529.895	2.33
530.242	2.25
530.588	2.25
530.935	2.17
531.282	2.24
531.628	2.3
531.975	2.27
532.321	2.29
532.667	2.38
533.014	2.4
533.36	2.38
533.706	2.32
534.052	2.46
534.399	2.35
534.745	2.31
535.091	2.33
535.437	2.29
535.783	2.25
536.129	2.31
536.474	2.42
536.82	2.32
537.166	2.45
537.512	2.47
537.857	2.34
538.203	2.47
538.549	2.4
538.894	2.32
539.239	2.29
539.585	2.35
539.93	2.5
540.276	2.51
540.621	2.41
540.966	2.48
541.311	2.55
541.656	2.31
542.001	2.38
542.346	2.46
542.691	2.54
543.036	2.4
543.381	2.31
543.726	2.31
544.071	2.35
544.415	2.32
544.76	2.33
545.105	2.35
545.449	2.36
545.794	2.36
546.138	2.37
546.483	2.5
546.827	2.4
547.171	2.47
547.516	2.52
547.86	2.53
548.204	2.41
548.548	2.5
548.892	2.49
549.236	2.48
549.58	2.42
549.924	2.44
550.268	2.58
550.612	2.43
550.956	2.48
551.3	2.53
551.643	2.64
551.987	2.58
552.33	2.59
552.674	2.57
553.017	2.55
553.361	2.58
553.704	2.69
554.048	2.58
554.391	2.63
554.734	2.68
555.077	2.57
555.42	2.43
555.764	2.5
556.107	2.59
556.45	2.54
556.793	2.59
557.135	2.67
557.478	2.48
557.821	2.54
558.164	2.65
558.507	2.79
558.849	2.45
559.192	2.65
559.534	2.65
559.877	2.6
560.219	2.63
560.562	2.72
560.904	2.53
561.246	2.81
561.589	2.65
561.931	2.46
562.273	2.52
562.615	2.48
562.957	2.51
563.299	2.67
563.641	2.46
563.983	2.64
564.325	2.57
564.667	2.67
565.008	2.54
565.35	2.68
565.692	2.68
566.033	2.69
566.375	2.77
566.716	2.51
567.058	2.77
567.399	2.76
567.741	2.78
568.082	2.56
568.423	2.57
568.764	2.86
569.105	2.47
569.447	2.57
569.788	2.36
570.129	2.63
570.47	2.78
570.811	2.6
571.151	2.59
571.492	2.72
571.833	2.47
572.174	2.72
572.514	2.73
572.855	2.76
573.195	2.53
573.536	2.6
573.876	2.49
574.217	2.53
574.557	2.57
574.898	2.56
575.238	2.53
575.578	2.73
575.918	2.69
576.258	2.49
576.598	2.54
576.938	2.6
577.278	2.68
577.618	2.46
577.958	2.74
578.298	2.55
578.638	2.57
578.977	2.61
579.317	2.65
579.657	2.7
579.996	2.72
580.336	2.56
580.675	2.74
581.014	2.52
581.354	2.72
581.693	2.82
582.032	2.67
582.372	2.55
582.711	2.75
583.05	2.72
583.389	2.67
583.728	2.58
584.067	2.7
584.406	2.58
584.745	2.48
585.083	3.1
585.422	2.75
585.761	2.64
586.1	2.66
586.438	2.52
586.777	2.64
587.115	2.72
587.454	2.51
587.792	2.89
588.13	2.7
588.469	2.65
588.807	2.68
589.145	2.73
589.483	2.78
589.821	2.67
590.159	2.78
590.497	2.84
590.835	2.66
591.173	2.63
591.511	2.87
591.849	2.7
592.187	2.76
592.524	2.71
592.862	2.89
593.2	2.63
593.537	2.53
593.875	2.66
594.212	2.77
594.55	3.07
594.887	2.74
595.224	2.85
595.561	3.05
595.899	2.66
596.236	2.99
596.573	2.99
596.91	2.84
597.247	2.77
597.584	3.05
597.921	2.8
598.258	2.9
598.594	2.82
598.931	2.79
599.268	2.9
599.604	2.82
599.941	2.76
600.277	2.69
600.614	2.78
600.95	2.9
601.287	2.61
601.623	2.86
601.959	2.95
602.296	2.98
602.632	2.76
602.968	2.8
603.304	2.75
603.64	2.68
603.976	2.54
604.312	2.7
604.648	2.91
604.984	2.9
605.319	2.77
605.655	2.6
605.991	2.65
606.326	2.83
606.662	2.7
606.998	2.52
607.333	2.7
607.668	2.66
608.004	2.87
608.339	2.5
608.674	2.95
609.01	2.69
609.345	2.71
609.68	2.95
610.015	2.91
610.35	2.99
610.685	3.04
611.02	3
611.355	2.74
611.689	2.77
612.024	2.85
612.359	2.74
612.694	2.93
613.028	2.76
613.363	2.82
613.697	2.75
614.032	2.61
614.366	2.64
614.7	2.67
615.035	3.03
615.369	2.81
615.703	2.9
616.037	2.84
616.371	3.26
616.705	3.29
617.039	2.69
617.373	2.82
617.707	2.73
618.041	3.01
618.375	2.84
618.709	2.87
619.042	3.09
619.376	2.86
619.71	2.92
620.043	2.69
620.377	2.65
620.71	2.74
621.043	3.16
621.377	3.04
621.71	2.54
622.043	2.89
622.376	3.1
622.709	2.96
623.043	2.84
623.376	2.81
623.709	2.96
624.041	2.88
624.374	2.79
624.707	3.18
625.04	3.24
625.373	2.43
625.705	2.98
626.038	2.87
626.37	3.19
626.703	2.96
627.035	3.03
627.368	2.91
627.7	3.38
628.032	3.2
628.365	3.14
628.697	2.93
629.029	2.9
629.361	2.75
629.693	3.08
630.025	3.03
630.357	2.62
630.689	2.82
631.021	2.58
631.353	3.17
631.684	2.89
632.016	3.32
632.348	3.05
632.679	3.14
633.011	2.88
633.342	3.19
633.674	3.2
634.005	2.47
634.336	3.07
634.668	2.94
634.999	2.89
635.33	3.26
635.661	2.98
635.992	2.74
636.323	2.87
636.654	2.74
636.985	2.78
637.316	2.89
637.647	3.08
637.977	2.44
638.308	3.65
638.639	2.67
638.969	2.94
639.3	2.82
639.63	3.43
639.961	2.73
640.291	3.32
640.622	3.33
640.952	2.87
641.282	3.08
641.612	3.14
641.943	3.28
642.273	3.17
642.603	2.88
642.933	2.83
643.263	2.34
643.592	3.15
643.922	3.11
644.252	3.26
644.582	3.22
644.911	3.36
645.241	3.5
645.571	2.58
645.9	3.05
646.23	3.34
646.559	3.21
646.888	3.45
647.218	3.18
647.547	2.65
647.876	3.23
648.205	3.11
648.534	3.67
648.863	2.98
649.192	2.73
649.521	3.24
649.85	3.33
650.179	2.79
650.508	3.19
650.837	3.16
651.165	2.81
651.494	3.04
651.822	3.01
652.151	2.82
652.479	2.99
652.808	3.12
653.136	3.41
653.465	2.66
653.793	2.81
654.121	3.6
654.449	2.79
654.777	3.15
655.105	3.08
655.433	3.43
655.761	3.5
656.089	3
656.417	2.72
656.745	2.71
657.073	2.75
657.4	3.51
657.728	3.05
658.056	2.94
658.383	3.32
658.711	3.19
659.038	2.94
659.365	2.74
659.693	3.01
660.02	3.37
660.347	3.3
660.674	2.82
661.001	2.99
661.329	2.73
661.656	3.07
661.982	3.04
662.309	3.14
662.636	3.18
662.963	3.35
663.29	3.16
663.616	3.29
663.943	3.47
664.27	3.36
664.596	2.85
664.923	2.95
665.249	2.89
665.576	2.88
665.902	2.87
666.228	3.47
666.554	3.13
666.881	3.99
667.207	3.26
667.533	2.75
667.859	3.11
668.185	3.61
668.511	3.38
668.837	2.86
669.162	3.56
669.488	2.92
669.814	3.17
670.139	3.29
670.465	3.75
670.791	3.58
671.116	2.98
671.442	3.3
671.767	2.62
672.092	3.94
672.418	3.24
672.743	3.46
673.068	3.6
673.393	2.56
673.718	3.31
674.043	3.28
674.368	3.08
674.693	3.12
675.018	3.14
675.343	3.33
675.667	3.13
675.992	2.44
676.317	3.67
676.641	3.06
676.966	3.67
677.29	2.35
677.615	3.74
677.939	3.86
678.264	3.55
678.588	3.77
678.912	3.78
679.236	3.56
679.56	3.41
679.885	3.07
680.209	4.17
680.532	2.76
680.856	3.23
681.18	3.66
681.504	3.52
681.828	3.27
682.152	3.28
682.475	3.45
682.799	3.59
683.122	3.11
683.446	3.36
683.769	2.99
684.093	3.52
684.416	3.04
684.739	3.46
685.062	3.88
685.386	3.13
685.709	3.66
686.032	3.08
686.355	3.32
686.678	3.42
687.001	3.12
687.324	3.77
687.646	3.22
687.969	3.74
688.292	3.17
688.614	3.46
688.937	3.55
689.26	2.99
689.582	3.33
689.904	3.39
690.227	3.67
690.549	4.07
690.871	3.07
691.194	3.63
691.516	3.75
691.838	3.59
692.16	3.14
692.482	3.06
692.804	2.85
693.126	2.8
693.448	3.59
