Data from 0099_forehead_Reflection__4__187.txt Node

Date: Fri Sep 22 22:20:49 CDT 2023
User: ToomeyLab
Spectrometer: FLMS14357
Trigger mode: 0
Integration Time (sec): 1.000000E-2
Scans to average: 100
Electric dark correction enabled: true
Nonlinearity correction enabled: false
Boxcar width: 0
XAxis mode: Wavelengths
Number of Pixels in Spectrum: 2048
>>>>>Begin Spectral Data<<<<<
189.047	-200.4
189.435	-200.4
189.823	-200.4
190.211	24.31
190.599	40.02
190.987	123.57
191.375	954.27
191.763	59.78
192.151	248.18
192.538	63.25
192.926	78.27
193.314	61.4
193.702	21.53
194.089	155.05
194.477	324.58
194.864	199.15
195.252	117.72
195.639	41.95
196.027	131.07
196.414	-7.79
196.801	151.79
197.189	231.02
197.576	162.05
197.963	200.34
198.351	69.95
198.738	104.56
199.125	34.47
199.512	50.51
199.899	52.5
200.286	48.67
200.673	82.99
201.06	2.9
201.447	55.57
201.833	-23.85
202.22	49.81
202.607	27.34
202.994	44.2
203.38	17.61
203.767	49.9
204.154	28.58
204.54	55.83
204.927	32.66
205.313	77.39
205.699	58.32
206.086	62.72
206.472	53.06
206.858	80.17
207.245	20.79
207.631	33.3
208.017	32.83
208.403	52.2
208.789	49.62
209.175	43.25
209.561	39.28
209.947	37.77
210.333	36.83
210.719	46.49
211.105	36.5
211.491	32.91
211.876	49.5
212.262	45.34
212.648	39.24
213.034	33.39
213.419	54.8
213.805	31.4
214.19	33.3
214.576	35.62
214.961	51.72
215.346	33.95
215.732	45.73
216.117	19.37
216.502	48.45
216.888	58.99
217.273	17.98
217.658	20.23
218.043	42.04
218.428	62.43
218.813	2.89
219.198	22.65
219.583	21.75
219.968	21.68
220.353	27.46
220.738	-3.93
221.122	50.23
221.507	-0.27
221.892	15.92
222.276	3.29
222.661	-17.29
223.046	26.38
223.43	25.91
223.815	15.1
224.199	21.56
224.583	20.84
224.968	15.05
225.352	5.02
225.736	17.93
226.121	10.02
226.505	16.89
226.889	8.41
227.273	5.61
227.657	9.6
228.041	11.69
228.425	8.41
228.809	5.29
229.193	8.19
229.577	6.86
229.961	6.19
230.344	6.06
230.728	3.42
231.112	4.98
231.495	4.07
231.879	4.37
232.263	2.71
232.646	3.31
233.03	4.05
233.413	4.83
233.797	4.25
234.18	6.38
234.563	7.9
234.946	5.55
235.33	1.67
235.713	5.32
236.096	5.75
236.479	3.42
236.862	6.46
237.245	3.41
237.628	6.36
238.011	6.57
238.394	5.94
238.777	7.89
239.16	6.91
239.543	8.64
239.925	6.28
240.308	5.43
240.691	4.77
241.073	6.22
241.456	5.67
241.838	2.34
242.221	4.72
242.603	4.66
242.986	4.4
243.368	3.52
243.75	4.51
244.133	4.46
244.515	3.76
244.897	3.5
245.279	4.12
245.661	3.84
246.043	4.88
246.425	4.07
246.807	3.76
247.189	2.76
247.571	4.51
247.953	4.97
248.335	3.91
248.717	3.79
249.098	3.87
249.48	3.48
249.862	3.61
250.243	4.09
250.625	4.2
251.006	3.58
251.388	3.79
251.769	4.95
252.151	3.73
252.532	4.37
252.913	4.54
253.295	5.23
253.676	3.94
254.057	3.96
254.438	4.78
254.819	3.95
255.2	4.39
255.581	4.16
255.962	4.97
256.343	4.02
256.724	3.52
257.105	4.3
257.486	4.71
257.867	4.12
258.247	4.82
258.628	5.15
259.009	5.32
259.389	4.07
259.77	4.98
260.15	4.79
260.531	3.98
260.911	4.76
261.292	4.23
261.672	3.68
262.052	3.85
262.432	3.84
262.813	3.87
263.193	3.67
263.573	4.57
263.953	4.19
264.333	4.6
264.713	4.6
265.093	3.8
265.473	3.89
265.853	4.25
266.233	4.8
266.612	4.06
266.992	5.26
267.372	5.21
267.752	5.27
268.131	3.48
268.511	3.47
268.89	4.38
269.27	4.13
269.649	4.12
270.029	3.86
270.408	3.66
270.787	4.07
271.167	4.21
271.546	3.69
271.925	4.55
272.304	3.3
272.683	3.96
273.062	4.35
273.441	3.83
273.82	4.26
274.199	4.03
274.578	4.61
274.957	3.83
275.336	3.63
275.715	4
276.093	3.6
276.472	3.82
276.851	4.16
277.229	3.24
277.608	4.68
277.986	3.27
278.365	4.44
278.743	3.91
279.122	4.44
279.5	4.01
279.878	4.01
280.257	4.68
280.635	3.57
281.013	3.9
281.391	4.21
281.769	3.96
282.147	4.02
282.525	3.74
282.903	4.04
283.281	4.17
283.659	4.4
284.037	3.52
284.415	3.82
284.792	3.79
285.17	3.84
285.548	4.03
285.925	4.06
286.303	3.34
286.68	3.41
287.058	3.5
287.435	3.84
287.813	3.81
288.19	3.84
288.567	4.33
288.945	3.52
289.322	3.72
289.699	3.77
290.076	4.26
290.453	3.91
290.83	3.7
291.207	3.84
291.584	3.45
291.961	3.76
292.338	4.08
292.715	3.77
293.092	3.85
293.469	4.2
293.845	3.75
294.222	4.34
294.599	4.57
294.975	4.39
295.352	4.53
295.728	4.42
296.105	4.36
296.481	4.37
296.858	4.98
297.234	4.41
297.61	3.8
297.986	4.56
298.363	4.24
298.739	4.1
299.115	4.47
299.491	4.29
299.867	4.39
300.243	4.06
300.619	4.72
300.995	4.69
301.371	4.99
301.746	4.65
302.122	4.86
302.498	4.59
302.874	5
303.249	4.73
303.625	4.4
304	5.12
304.376	5.02
304.751	4.84
305.127	5.27
305.502	5.6
305.878	5.1
306.253	5.52
306.628	4.84
307.003	5.3
307.378	5.1
307.754	5.01
308.129	5.44
308.504	4.94
308.879	4.68
309.254	5.87
309.629	5.39
310.003	5.54
310.378	5.82
310.753	5.39
311.128	5.53
311.502	5.82
311.877	4.96
312.252	5.31
312.626	5.78
313.001	5.97
313.375	5.58
313.75	6.02
314.124	5.63
314.498	5.3
314.873	5.79
315.247	6.14
315.621	5.77
315.995	5.57
316.369	5.99
316.743	6.12
317.117	6.31
317.491	6.45
317.865	5.56
318.239	6.08
318.613	6.09
318.987	6.36
319.361	5.52
319.734	5.95
320.108	6.24
320.482	6.23
320.855	6.03
321.229	6.62
321.602	6.65
321.976	6.31
322.349	6.55
322.723	6.47
323.096	6.93
323.469	6.72
323.843	7.48
324.216	6.83
324.589	6.43
324.962	6.41
325.335	6.98
325.708	7.2
326.081	7
326.454	6.24
326.827	6.84
327.2	6.93
327.573	7.31
327.945	7.23
328.318	7.18
328.691	7.46
329.063	7.12
329.436	7.36
329.809	7.18
330.181	7.84
330.553	7.4
330.926	7.05
331.298	7.73
331.671	7.6
332.043	6.67
332.415	7.64
332.787	7.57
333.159	7.58
333.532	7.45
333.904	7.7
334.276	7.22
334.648	7.46
335.02	7.45
335.391	7.06
335.763	7.48
336.135	7.97
336.507	8.11
336.879	7.5
337.25	8
337.622	8.18
337.993	8.03
338.365	8.4
338.736	7.81
339.108	8.53
339.479	7.87
339.851	7.55
340.222	7.85
340.593	7.75
340.964	7.75
341.336	8.11
341.707	7.95
342.078	8.27
342.449	8.38
342.82	8.4
343.191	7.98
343.562	8.2
343.933	8.36
344.303	8.33
344.674	8.58
345.045	8.64
345.416	8.61
345.786	8.11
346.157	8.15
346.527	8.48
346.898	8.42
347.268	8.4
347.639	8.13
348.009	8.25
348.38	8.62
348.75	9.08
349.12	8.82
349.49	8.93
349.861	9.02
350.231	8.87
350.601	9.14
350.971	9.14
351.341	8.56
351.711	8.6
352.081	8.8
352.45	8.85
352.82	8.94
353.19	9.42
353.56	9.04
353.929	9.2
354.299	9.79
354.669	8.94
355.038	8.93
355.408	9.07
355.777	9.83
356.147	9.31
356.516	9.66
356.885	9.29
357.254	9.93
357.624	9.15
357.993	9.39
358.362	9.3
358.731	9.47
359.1	9.72
359.469	9.92
359.838	9.21
360.207	9.38
360.576	9.76
360.945	9.7
361.314	9.76
361.682	9.49
362.051	9.8
362.42	9.6
362.788	9.72
363.157	9.97
363.525	9.83
363.894	9.65
364.262	9.82
364.631	9.97
364.999	9.62
365.367	10.16
365.735	9.98
366.104	10.1
366.472	10.42
366.84	9.91
367.208	10.33
367.576	10.46
367.944	9.79
368.312	10.58
368.68	10.25
369.048	10.75
369.416	10.39
369.783	10.28
370.151	10.26
370.519	10.54
370.886	10.57
371.254	10.9
371.621	10.71
371.989	10.7
372.356	10.42
372.724	11.05
373.091	11.16
373.458	10.7
373.826	10.98
374.193	10.88
374.56	11.03
374.927	10.71
375.294	10.99
375.661	10.95
376.028	11.1
376.395	11.17
376.762	11.1
377.129	11.46
377.496	11.62
377.863	11.57
378.229	11.28
378.596	11.37
378.963	11.38
379.329	11.39
379.696	11.38
380.062	11.12
380.429	11.47
380.795	11.36
381.161	11.72
381.528	11.54
381.894	11.63
382.26	11.44
382.626	11.79
382.993	11.88
383.359	11.51
383.725	11.56
384.091	11.69
384.457	11.8
384.823	12.23
385.188	12.03
385.554	11.92
385.92	12.29
386.286	11.75
386.651	11.91
387.017	12.26
387.383	12.08
387.748	12.28
388.114	12.13
388.479	12.36
388.845	12.06
389.21	12.17
389.575	12.4
389.94	12.58
390.306	12.47
390.671	12.64
391.036	12.18
391.401	12.3
391.766	12.49
392.131	12.41
392.496	12.87
392.861	12.63
393.226	12.66
393.591	12.73
393.956	12.62
394.32	12.69
394.685	12.7
395.05	12.8
395.414	12.99
395.779	13.22
396.143	13.05
396.508	12.93
396.872	12.93
397.236	13.07
397.601	13.01
397.965	13.48
398.329	13.35
398.694	13.2
399.058	13.12
399.422	13.24
399.786	13.47
400.15	13.49
400.514	13.29
400.878	13.31
401.242	13.5
401.605	13.37
401.969	13.36
402.333	13.42
402.697	13.3
403.06	13.69
403.424	13.56
403.787	13.68
404.151	13.71
404.514	13.98
404.878	13.99
405.241	14.01
405.604	13.7
405.968	13.87
406.331	13.85
406.694	13.72
407.057	13.97
407.42	14.08
407.783	13.97
408.146	14.15
408.509	14.22
408.872	14.08
409.235	14.08
409.598	14.1
409.961	14.43
410.323	14.26
410.686	14.45
411.049	14.49
411.411	14.45
411.774	14.5
412.136	14.35
412.499	14.65
412.861	14.64
413.223	14.52
413.586	14.61
413.948	14.49
414.31	14.53
414.672	14.71
415.035	14.67
415.397	15.12
415.759	15.1
416.121	14.81
416.483	14.87
416.845	14.46
417.206	14.76
417.568	14.83
417.93	14.89
418.292	14.89
418.653	14.69
419.015	14.91
419.377	14.63
419.738	15.07
420.1	15.03
420.461	15.04
420.822	14.93
421.184	14.88
421.545	14.95
421.906	14.91
422.267	15
422.629	15.1
422.99	14.98
423.351	14.81
423.712	14.9
424.073	15.05
424.434	15.27
424.795	15.33
425.155	15.35
425.516	15.35
425.877	15.34
426.238	15.18
426.598	15.32
426.959	15.26
427.32	15.46
427.68	15.48
428.041	15.45
428.401	15.66
428.761	15.91
429.122	15.76
429.482	15.81
429.842	15.98
430.202	16.08
430.563	16.3
430.923	16.28
431.283	16.2
431.643	16.23
432.003	16.23
432.363	16.14
432.722	16.58
433.082	16.3
433.442	16.3
433.802	16.43
434.161	16.44
434.521	16.39
434.881	16.24
435.24	16.34
435.6	16.28
435.959	16.24
436.319	16.42
436.678	16.47
437.037	16.51
437.396	16.53
437.756	16.7
438.115	16.59
438.474	16.7
438.833	16.7
439.192	16.75
439.551	16.83
439.91	16.94
440.269	17.08
440.628	16.89
440.987	17
441.345	16.97
441.704	16.99
442.063	17.07
442.421	16.87
442.78	16.98
443.138	16.95
443.497	17.02
443.855	17.04
444.214	17.1
444.572	17.24
444.93	17.34
445.288	17.3
445.647	17.52
446.005	17.42
446.363	17.44
446.721	17.4
447.079	17.18
447.437	17.35
447.795	17.45
448.153	17.17
448.51	17.37
448.868	17.24
449.226	17.29
449.584	17.37
449.941	17.53
450.299	17.53
450.656	17.77
451.014	17.96
451.371	17.85
451.729	18.05
452.086	18.17
452.443	18.05
452.801	18.16
453.158	18.09
453.515	18.19
453.872	18.05
454.229	18.29
454.586	18.32
454.943	18.15
455.3	18.26
455.657	18.28
456.014	18.33
456.371	18.54
456.727	18.69
457.084	18.58
457.441	18.54
457.797	18.69
458.154	18.66
458.51	18.47
458.867	18.7
459.223	18.74
459.58	18.9
459.936	18.95
460.292	18.89
460.648	18.82
461.005	18.85
461.361	18.93
461.717	18.59
462.073	18.59
462.429	18.37
462.785	18.73
463.141	18.85
463.496	18.95
463.852	18.97
464.208	19.17
464.564	19.4
464.919	19.19
465.275	19.35
465.631	19.59
465.986	19.36
466.342	19.66
466.697	19.52
467.052	19.47
467.408	19.48
467.763	19.72
468.118	19.59
468.473	19.78
468.829	19.72
469.184	19.75
469.539	19.79
469.894	19.83
470.249	19.85
470.603	19.94
470.958	19.97
471.313	20.1
471.668	20.15
472.023	19.92
472.377	20.13
472.732	20.18
473.086	20.32
473.441	19.98
473.795	20.23
474.15	20.01
474.504	20.31
474.859	20.46
475.213	20.25
475.567	20.46
475.921	20.55
476.275	20.39
476.63	20.51
476.984	20.5
477.338	20.6
477.692	20.45
478.045	20.66
478.399	20.69
478.753	20.68
479.107	20.77
479.461	20.71
479.814	20.85
480.168	20.85
480.521	20.88
480.875	20.97
481.228	20.92
481.582	20.79
481.935	20.98
482.289	21.02
482.642	21.16
482.995	21.17
483.348	21.24
483.701	21
484.055	21.03
484.408	20.92
484.761	20.89
485.114	20.65
485.466	20.52
485.819	20.26
486.172	20.22
486.525	20.26
486.878	20.27
487.23	20.49
487.583	20.56
487.936	20.88
488.288	21.05
488.641	21.04
488.993	20.88
489.345	20.77
489.698	20.78
490.05	20.74
490.402	20.75
490.754	20.88
491.107	20.94
491.459	21.15
491.811	21.45
492.163	21.54
492.515	21.72
492.866	21.68
493.218	21.64
493.57	21.43
493.922	21.3
494.274	21.27
494.625	21.46
494.977	21.69
495.328	21.9
495.68	21.94
496.031	21.98
496.383	22.3
496.734	22.52
497.086	22.64
497.437	22.52
497.788	22.61
498.139	22.59
498.49	22.86
498.842	22.56
499.193	22.49
499.544	22.47
499.894	22.76
500.245	22.63
500.596	22.86
500.947	22.84
501.298	23.02
501.648	22.9
501.999	23.09
502.35	23.02
502.7	23.18
503.051	23.22
503.401	23.37
503.752	23.3
504.102	23.46
504.452	23.31
504.803	23.56
505.153	23.55
505.503	23.49
505.853	23.69
506.203	23.69
506.553	23.76
506.903	23.83
507.253	23.69
507.603	23.8
507.953	23.77
508.303	24.04
508.652	23.84
509.002	23.83
509.352	23.92
509.701	24.12
510.051	23.96
510.4	23.95
510.75	23.98
511.099	23.95
511.449	24.07
511.798	24.06
512.147	24.09
512.496	24.26
512.846	24.14
513.195	24.35
513.544	24.14
513.893	24.34
514.242	24.28
514.591	24.3
514.939	24.38
515.288	24.55
515.637	24.67
515.986	24.58
516.334	24.63
516.683	24.63
517.032	24.85
517.38	24.87
517.729	24.84
518.077	24.89
518.426	25.15
518.774	24.89
519.122	25.09
519.47	24.91
519.819	24.96
520.167	24.88
520.515	24.94
520.863	24.8
521.211	24.84
521.559	24.8
521.907	25.11
522.255	25.1
522.602	25.23
522.95	25.51
523.298	25.58
523.645	25.61
523.993	25.53
524.341	25.61
524.688	25.71
525.036	25.48
525.383	25.87
525.73	25.93
526.078	25.76
526.425	25.85
526.772	25.78
527.119	25.84
527.466	25.72
527.814	25.58
528.161	25.59
528.508	25.73
528.854	25.68
529.201	25.69
529.548	25.73
529.895	25.73
530.242	25.54
530.588	25.17
530.935	25.07
531.282	25.27
531.628	25.41
531.975	25.43
532.321	25.53
532.667	25.77
533.014	26.04
533.36	26.16
533.706	26.23
534.052	26.33
534.399	26.36
534.745	26.39
535.091	26.24
535.437	26.1
535.783	25.98
536.129	26.16
536.474	26.25
536.82	26.39
537.166	26.61
537.512	26.88
537.857	26.93
538.203	27.1
538.549	27.04
538.894	26.72
539.239	26.72
539.585	26.9
539.93	27.11
540.276	27.22
540.621	27.28
540.966	27.35
541.311	27.73
541.656	27.59
542.001	27.69
542.346	27.7
542.691	27.64
543.036	27.42
543.381	26.97
543.726	26.98
544.071	26.95
544.415	27.08
544.76	27.22
545.105	27.33
545.449	27.36
545.794	27.52
546.138	27.68
546.483	27.94
546.827	27.78
547.171	28.17
547.516	28.26
547.86	28.18
548.204	28.22
548.548	28.28
548.892	28.23
549.236	28.15
549.58	28.25
549.924	28.54
550.268	28.68
550.612	28.73
550.956	28.78
551.3	28.94
551.643	28.93
551.987	29.31
552.33	29.46
552.674	29.13
553.017	29.15
553.361	29.31
553.704	29.36
554.048	29.46
554.391	29.29
554.734	29.45
555.077	29.23
555.42	29.16
555.764	29.51
556.107	29.59
556.45	29.54
556.793	29.57
557.135	29.69
557.478	29.52
557.821	29.9
558.164	29.89
558.507	30.26
558.849	30.01
559.192	30.11
559.534	30.25
559.877	30.06
560.219	30.42
560.562	30.15
560.904	30.49
561.246	30.71
561.589	30.42
561.931	30.13
562.273	30.51
562.615	30.63
562.957	30.6
563.299	30.64
563.641	30.55
563.983	30.42
564.325	30.59
564.667	30.9
565.008	30.69
565.35	30.93
565.692	30.78
566.033	31.21
566.375	31.15
566.716	31
567.058	30.74
567.399	31.12
567.741	31.08
568.082	31.03
568.423	30.99
568.764	31.16
569.105	30.99
569.447	31
569.788	30.97
570.129	31.47
570.47	31.31
570.811	31.39
571.151	31.53
571.492	31.61
571.833	31.35
572.174	31.62
572.514	31.68
572.855	31.54
573.195	31.66
573.536	31.61
573.876	31.71
574.217	31.61
574.557	31.85
574.898	31.7
575.238	31.73
575.578	31.87
575.918	31.95
576.258	31.91
576.598	32.04
576.938	32.2
577.278	32.13
577.618	31.92
577.958	32.29
578.298	32.19
578.638	32.44
578.977	32.26
579.317	32.35
579.657	32.37
579.996	32.59
580.336	32.57
580.675	32.75
581.014	32.55
581.354	32.89
581.693	33.29
582.032	33.17
582.372	33.38
582.711	33.14
583.05	33.03
583.389	33.1
583.728	33.16
584.067	33.18
584.406	33.27
584.745	33.44
585.083	33.61
585.422	33.57
585.761	33.79
586.1	33.87
586.438	33.68
586.777	33.69
587.115	33.56
587.454	33.34
587.792	33.91
588.13	33.84
588.469	33.94
588.807	33.99
589.145	34.12
589.483	34.07
589.821	34.19
590.159	34.02
590.497	34.13
590.835	33.9
591.173	33.96
591.511	34.26
591.849	34.25
592.187	33.99
592.524	34.22
592.862	34.47
593.2	34.09
593.537	34.41
593.875	34.4
594.212	34.47
594.55	34.59
594.887	34.55
595.224	34.65
595.561	35.08
595.899	34.58
596.236	34.84
596.573	34.75
596.91	34.86
597.247	34.81
597.584	35.16
597.921	34.96
598.258	34.93
598.594	34.76
598.931	34.94
599.268	34.65
599.604	34.88
599.941	34.94
600.277	34.91
600.614	35
600.95	35.1
601.287	35.52
601.623	35.25
601.959	35.35
602.296	35.57
602.632	35.24
602.968	35.73
603.304	35.9
603.64	35.58
603.976	35.83
604.312	35.7
604.648	35.89
604.984	35.53
605.319	35.95
605.655	35.75
605.991	35.88
606.326	35.87
606.662	35.65
606.998	35.54
607.333	35.68
607.668	35.74
608.004	35.86
608.339	35.87
608.674	36.31
609.01	35.85
609.345	36.25
609.68	36.42
610.015	36.15
610.35	36.71
610.685	36.43
611.02	36.27
611.355	36.6
611.689	36.29
612.024	36.36
612.359	36.42
612.694	36.5
613.028	36.3
613.363	36.9
613.697	36.58
614.032	36.89
614.366	36.84
614.7	36.99
615.035	36.93
615.369	36.93
615.703	37.21
616.037	37.22
616.371	37.06
616.705	37.77
617.039	37.41
617.373	37.18
617.707	37.25
618.041	37.05
618.375	37.32
618.709	37.96
619.042	37.69
619.376	37.61
619.71	37.73
620.043	37.53
620.377	37.07
620.71	37.84
621.043	37.85
621.377	37.29
621.71	37.97
622.043	37.84
622.376	37.98
622.709	37.88
623.043	37.94
623.376	37.94
623.709	37.81
624.041	37.56
624.374	38.4
624.707	38.71
625.04	38.43
625.373	38.09
625.705	38.47
626.038	38.29
626.37	38.89
626.703	38.85
627.035	38.56
627.368	38.38
627.7	38.98
628.032	38.58
628.365	38.87
628.697	38.56
629.029	38.56
629.361	38.48
629.693	38.85
630.025	38.61
630.357	38.88
630.689	39.02
631.021	38.87
631.353	39.22
631.684	38.96
632.016	39
632.348	39
632.679	38.75
633.011	39.14
633.342	39.25
633.674	39.6
634.005	39.24
634.336	39.62
634.668	39.5
634.999	39.58
635.33	39.47
635.661	39.55
635.992	39.7
636.323	39.33
636.654	39.53
636.985	39.46
637.316	39.52
637.647	39.55
637.977	39.35
638.308	39.52
638.639	39.53
638.969	39.89
639.3	39.84
639.63	39.99
639.961	40.49
640.291	40.1
640.622	40.26
640.952	40.01
641.282	40.42
641.612	39.71
641.943	39.97
642.273	40.04
642.603	40.36
642.933	40.09
643.263	39.57
643.592	39.68
643.922	40.71
644.252	39.74
644.582	40.58
644.911	40.69
645.241	40.74
645.571	40.34
645.9	40.5
646.23	40.81
646.559	40.87
646.888	40.79
647.218	40.75
647.547	40.87
647.876	41.43
648.205	40.98
648.534	41
648.863	40.29
649.192	40.72
649.521	40.88
649.85	41.49
650.179	40.89
650.508	41.4
650.837	41.55
651.165	41.41
651.494	41.11
651.822	41.09
652.151	41.32
652.479	41.63
652.808	41.1
653.136	41.27
653.465	41.32
653.793	40.97
654.121	41.44
654.449	41.18
654.777	42.09
655.105	42.07
655.433	41.55
655.761	41.85
656.089	41.61
656.417	41.97
656.745	41.71
657.073	41.28
657.4	42.45
657.728	41.47
658.056	42.02
658.383	42.25
658.711	41.83
659.038	41.57
659.365	42.22
659.693	42.37
660.02	42.39
660.347	42.18
660.674	41.73
661.001	41.45
661.329	41.84
661.656	41.79
661.982	41.92
662.309	42.36
662.636	41.89
662.963	42.16
663.29	41.97
663.616	42.64
663.943	42.69
664.27	43.13
664.596	42.19
664.923	42.12
665.249	42.38
665.576	42.1
665.902	42.59
666.228	42.74
666.554	42.3
666.881	42.9
667.207	42.72
667.533	43.08
667.859	42.64
668.185	42.72
668.511	42.99
668.837	42.8
669.162	43.36
669.488	43.01
669.814	42.97
670.139	43.16
670.465	43.26
670.791	43.76
671.116	42.68
671.442	43.59
671.767	43.13
672.092	43.76
672.418	44.11
