Data from 0099_crown_Reflection__3__180.txt Node

Date: Fri Sep 22 22:18:42 CDT 2023
User: ToomeyLab
Spectrometer: FLMS14357
Trigger mode: 0
Integration Time (sec): 1.000000E-2
Scans to average: 100
Electric dark correction enabled: true
Nonlinearity correction enabled: false
Boxcar width: 0
XAxis mode: Wavelengths
Number of Pixels in Spectrum: 2048
>>>>>Begin Spectral Data<<<<<
189.047	-15.79
189.435	-15.79
189.823	-15.79
190.211	-50.99
190.599	75.61
190.987	31.12
191.375	426.83
191.763	58.27
192.151	123.55
192.538	-136.49
192.926	78.18
193.314	-20.43
193.702	33.14
194.089	112.32
194.477	-79.92
194.864	159.51
195.252	41.95
195.639	65.59
196.027	36.57
196.414	57.67
196.801	98.41
197.189	-71.08
197.576	185.85
197.963	-88.5
198.351	49.19
198.738	35.76
199.125	0.81
199.512	48.82
199.899	57.59
200.286	26.08
200.673	18.25
201.06	3.42
201.447	53.42
201.833	-20.84
202.22	37.01
202.607	27.75
202.994	45.06
203.38	77.88
203.767	19.45
204.154	23.81
204.54	14.85
204.927	-10.66
205.313	19.63
205.699	31.9
206.086	58.24
206.472	49.71
206.858	63.67
207.245	8.91
207.631	77.27
208.017	21.75
208.403	16.52
208.789	31.98
209.175	49.1
209.561	12.48
209.947	18.29
210.333	37.8
210.719	-28.91
211.105	51.09
211.491	-0.72
211.876	43.64
212.262	25.98
212.648	30.75
213.034	22.09
213.419	14.4
213.805	22.68
214.19	-7.19
214.576	36.63
214.961	10.78
215.346	16.14
215.732	28.97
216.117	17.57
216.502	42.99
216.888	23.86
217.273	-5.23
217.658	-3.28
218.043	19.38
218.428	35.35
218.813	-53.1
219.198	4.58
219.583	33.25
219.968	-1.07
220.353	30.36
220.738	3.23
221.122	24.67
221.507	0.52
221.892	-3.78
222.276	26.44
222.661	-2.97
223.046	20.84
223.43	14.24
223.815	9.82
224.199	10.41
224.583	14.58
224.968	14.35
225.352	2.38
225.736	7.48
226.121	11.86
226.505	12.27
226.889	-0.1
227.273	12.9
227.657	3.97
228.041	8.45
228.425	12.26
228.809	4.95
229.193	5.57
229.577	6.64
229.961	5.91
230.344	5
230.728	3.51
231.112	3.78
231.495	3.08
231.879	3.32
232.263	3.01
232.646	3.22
233.03	4.15
233.413	5.12
233.797	3.75
234.18	2.16
234.563	6.82
234.946	6.03
235.33	2.4
235.713	3.41
236.096	3.73
236.479	1.88
236.862	4.81
237.245	2.41
237.628	4.37
238.011	5.06
238.394	5.64
238.777	5.91
239.16	4.05
239.543	6.08
239.925	3.75
240.308	4.5
240.691	3.43
241.073	4.1
241.456	4.78
241.838	2.79
242.221	4.14
242.603	3.95
242.986	2.99
243.368	2.89
243.75	3.66
244.133	3.47
244.515	2.9
244.897	3.19
245.279	3
245.661	2.94
246.043	2.88
246.425	3.1
246.807	3.43
247.189	1.59
247.571	3.68
247.953	3.38
248.335	2.99
248.717	3.08
249.098	3.13
249.48	2.71
249.862	3
250.243	2.67
250.625	3.2
251.006	2.7
251.388	2.89
251.769	3.3
252.151	2.34
252.532	3.58
252.913	3.16
253.295	4.23
253.676	3.48
254.057	3.02
254.438	3.11
254.819	2.6
255.2	3.13
255.581	3.69
255.962	3.45
256.343	2.39
256.724	1.68
257.105	2.91
257.486	2.73
257.867	2.59
258.247	2.97
258.628	3.23
259.009	3.74
259.389	2.68
259.77	2.73
260.15	4.39
260.531	2.64
260.911	2.66
261.292	2.6
261.672	2.6
262.052	2.72
262.432	2.87
262.813	2.88
263.193	2.71
263.573	3.7
263.953	2.79
264.333	2.85
264.713	2.76
265.093	2.46
265.473	2.59
265.853	2.44
266.233	2.49
266.612	2.96
266.992	4.07
267.372	2.96
267.752	2.98
268.131	3.27
268.511	2.29
268.89	3.2
269.27	2.79
269.649	3.2
270.029	3.11
270.408	2.86
270.787	2.78
271.167	3.76
271.546	2.46
271.925	3.17
272.304	2.42
272.683	2.71
273.062	2.89
273.441	2.93
273.82	3.14
274.199	2.85
274.578	2.96
274.957	2.59
275.336	2.93
275.715	2.86
276.093	2.31
276.472	2.48
276.851	3.03
277.229	2.04
277.608	3.28
277.986	2.83
278.365	2.89
278.743	3.18
279.122	2.7
279.5	3.74
279.878	2.8
280.257	3.38
280.635	2.52
281.013	3.09
281.391	2.59
281.769	2.6
282.147	3.12
282.525	2.99
282.903	3.08
283.281	2.41
283.659	2.61
284.037	2.08
284.415	2.99
284.792	2.98
285.17	2.97
285.548	2.95
285.925	2.63
286.303	2.69
286.68	2.38
287.058	2.71
287.435	2.62
287.813	2.38
288.19	2.38
288.567	2.77
288.945	2.53
289.322	2.83
289.699	2.5
290.076	2.74
290.453	2.67
290.83	2.14
291.207	2.75
291.584	2.26
291.961	2.22
292.338	2.46
292.715	2.92
293.092	2.81
293.469	2.73
293.845	2.6
294.222	3.05
294.599	2.82
294.975	2.73
295.352	2.32
295.728	2.24
296.105	3.01
296.481	2.66
296.858	2.72
297.234	2.49
297.61	2.51
297.986	3.01
298.363	2.51
298.739	2.73
299.115	2.58
299.491	2.46
299.867	2.73
300.243	2.1
300.619	2.69
300.995	2.51
301.371	3.08
301.746	2.4
302.122	2.24
302.498	2.36
302.874	2.29
303.249	2.39
303.625	2.18
304	2.98
304.376	2.59
304.751	2.41
305.127	2.7
305.502	2.54
305.878	2.46
306.253	2.74
306.628	2.58
307.003	3.09
307.378	2.4
307.754	2.55
308.129	2.62
308.504	2.4
308.879	2.51
309.254	2.64
309.629	2.76
310.003	3.1
310.378	2.74
310.753	2.69
311.128	2.59
311.502	2.49
311.877	1.87
312.252	2.26
312.626	2.34
313.001	2.58
313.375	2.72
313.75	2.81
314.124	3.14
314.498	2.25
314.873	2.65
315.247	2.69
315.621	2.17
315.995	2.5
316.369	1.9
316.743	2.24
317.117	2.76
317.491	3.02
317.865	2.63
318.239	2.49
318.613	2.25
318.987	2.65
319.361	2.59
319.734	2.12
320.108	3.07
320.482	2.63
320.855	2.63
321.229	2.66
321.602	2.85
321.976	2.09
322.349	2.31
322.723	2.71
323.096	2.25
323.469	2.62
323.843	2.96
324.216	2.93
324.589	2.61
324.962	2.38
325.335	2.57
325.708	2.4
326.081	2.53
326.454	1.88
326.827	2.39
327.2	2.34
327.573	3.04
327.945	2.8
328.318	2.53
328.691	2.44
329.063	2.06
329.436	2.68
329.809	2.52
330.181	2.3
330.553	2.04
330.926	2.51
331.298	2.45
331.671	2.39
332.043	1.81
332.415	2.24
332.787	2.55
333.159	2.36
333.532	1.91
333.904	2.55
334.276	2.26
334.648	1.96
335.02	2.17
335.391	1.98
335.763	2.77
336.135	2.78
336.507	2.86
336.879	2.18
337.25	2.06
337.622	2.84
337.993	2.5
338.365	2.16
338.736	2.42
339.108	2.56
339.479	2.51
339.851	2.24
340.222	2.61
340.593	2.19
340.964	1.81
341.336	2.04
341.707	1.95
342.078	2.39
342.449	2.38
342.82	1.95
343.191	1.91
343.562	2.81
343.933	2.43
344.303	2.52
344.674	2.88
345.045	1.86
345.416	2.41
345.786	2.28
346.157	2.57
346.527	2.16
346.898	2.29
347.268	1.88
347.639	2.1
348.009	2.25
348.38	2.76
348.75	2.55
349.12	2.02
349.49	2.79
349.861	2.34
350.231	2.54
350.601	2.25
350.971	2.67
351.341	2.24
351.711	2.27
352.081	2.47
352.45	2.17
352.82	2.41
353.19	2.67
353.56	2.45
353.929	2.39
354.299	2.15
354.669	2.12
355.038	2.4
355.408	2.08
355.777	2.29
356.147	2.09
356.516	2.35
356.885	2.17
357.254	2.45
357.624	1.91
357.993	2.2
358.362	2.32
358.731	2.12
359.1	2.29
359.469	2.57
359.838	2.15
360.207	2.19
360.576	2.4
360.945	2.34
361.314	2.17
361.682	2.2
362.051	2.78
362.42	2.18
362.788	2.05
363.157	2.58
363.525	2.2
363.894	2.28
364.262	2.33
364.631	2.13
364.999	2.2
365.367	2.45
365.735	2.29
366.104	2.46
366.472	2.57
366.84	2.17
367.208	2.53
367.576	2.4
367.944	2.42
368.312	2.48
368.68	2.31
369.048	2.48
369.416	2.27
369.783	2.22
370.151	2.27
370.519	2.47
370.886	2.52
371.254	3.14
371.621	2.32
371.989	2.44
372.356	2.43
372.724	2.29
373.091	2.33
373.458	2.42
373.826	2.5
374.193	2.7
374.56	2.51
374.927	2.32
375.294	2.09
375.661	2.19
376.028	3
376.395	2.58
376.762	2.19
377.129	2.3
377.496	2.45
377.863	2.43
378.229	2.5
378.596	2.48
378.963	2.68
379.329	2.2
379.696	2.59
380.062	2
380.429	2.48
380.795	2.23
381.161	2.36
381.528	2.19
381.894	1.88
382.26	2.49
382.626	2.53
382.993	2.41
383.359	2.07
383.725	2.12
384.091	2.39
384.457	2.14
384.823	2.32
385.188	2.57
385.554	2.32
385.92	2.53
386.286	2.12
386.651	2.42
387.017	2.29
387.383	2.36
387.748	2.32
388.114	2.28
388.479	2.78
388.845	2.26
389.21	2.14
389.575	2.4
389.94	2.2
390.306	2.56
390.671	3.06
391.036	2.09
391.401	2.28
391.766	2.29
392.131	2.43
392.496	2.21
392.861	2.23
393.226	2.75
393.591	2.59
393.956	2.2
394.32	2.39
394.685	2.19
395.05	2.63
395.414	2.58
395.779	2.26
396.143	2.31
396.508	2.32
396.872	2.25
397.236	2.63
397.601	2.4
397.965	2.62
398.329	2.51
398.694	2.36
399.058	2.3
399.422	2.39
399.786	2.5
400.15	2.66
400.514	2.45
400.878	2.35
401.242	2.54
401.605	2.48
401.969	2.24
402.333	2.53
402.697	2.32
403.06	2.41
403.424	2.19
403.787	2.71
404.151	2.61
404.514	2.46
404.878	2.59
405.241	2.61
405.604	2.46
405.968	2.71
406.331	2.4
406.694	2.49
407.057	2.24
407.42	2.54
407.783	2.54
408.146	2.5
408.509	2.46
408.872	2.23
409.235	2.41
409.598	2.38
409.961	2.57
410.323	2.39
410.686	2.41
411.049	2.56
411.411	2.66
411.774	2.34
412.136	2.33
412.499	2.48
412.861	2.44
413.223	2.53
413.586	2.5
413.948	2.48
414.31	2.33
414.672	2.4
415.035	2.47
415.397	2.66
415.759	2.56
416.121	2.32
416.483	2.52
416.845	2.47
417.206	2.58
417.568	2.6
417.93	2.47
418.292	2.61
418.653	2.42
419.015	2.4
419.377	2.36
419.738	2.4
420.1	2.34
420.461	2.4
420.822	2.34
421.184	2.4
421.545	2.5
421.906	2.35
422.267	2.36
422.629	2.42
422.99	2.33
423.351	2.33
423.712	2.34
424.073	2.4
424.434	2.43
424.795	2.39
425.155	2.53
425.516	2.42
425.877	2.41
426.238	2.21
426.598	2.3
426.959	2.42
427.32	2.43
427.68	2.38
428.041	2.39
428.401	2.47
428.761	2.55
429.122	2.36
429.482	2.42
429.842	2.34
430.202	2.42
430.563	2.55
430.923	2.53
431.283	2.72
431.643	2.61
432.003	2.51
432.363	2.76
432.722	2.71
433.082	2.69
433.442	2.46
433.802	2.54
434.161	2.52
434.521	2.46
434.881	2.58
435.24	2.34
435.6	2.39
435.959	2.38
436.319	2.44
436.678	2.58
437.037	2.49
437.396	2.48
437.756	2.57
438.115	2.51
438.474	2.63
438.833	2.56
439.192	2.47
439.551	2.63
439.91	2.68
440.269	2.54
440.628	2.36
440.987	2.46
441.345	2.49
441.704	2.7
442.063	2.48
442.421	2.56
442.78	2.55
443.138	2.46
443.497	2.46
443.855	2.48
444.214	2.33
444.572	2.52
444.93	2.57
445.288	2.59
445.647	2.56
446.005	2.44
446.363	2.38
446.721	2.45
447.079	2.35
447.437	2.53
447.795	2.44
448.153	2.41
448.51	2.52
448.868	2.38
449.226	2.47
449.584	2.47
449.941	2.33
450.299	2.51
450.656	2.54
451.014	2.54
451.371	2.56
451.729	2.6
452.086	2.56
452.443	2.63
452.801	2.61
453.158	2.49
453.515	2.63
453.872	2.51
454.229	2.67
454.586	2.45
454.943	2.68
455.3	2.61
455.657	2.45
456.014	2.59
456.371	2.61
456.727	2.69
457.084	2.62
457.441	2.48
457.797	2.5
458.154	2.52
458.51	2.54
458.867	2.63
459.223	2.58
459.58	2.53
459.936	2.66
460.292	2.69
460.648	2.72
461.005	2.51
461.361	2.69
461.717	2.43
462.073	2.59
462.429	2.35
462.785	2.53
463.141	2.57
463.496	2.66
463.852	2.67
464.208	2.59
464.564	2.68
464.919	2.51
465.275	2.74
465.631	2.64
465.986	2.66
466.342	2.6
466.697	2.76
467.052	2.55
467.408	2.64
467.763	2.63
468.118	2.88
468.473	2.75
468.829	2.58
469.184	2.7
469.539	2.64
469.894	2.66
470.249	2.61
470.603	2.53
470.958	2.76
471.313	2.72
471.668	2.71
472.023	2.71
472.377	2.63
472.732	2.58
473.086	2.8
473.441	2.42
473.795	2.72
474.15	2.62
474.504	2.58
474.859	2.67
475.213	2.41
475.567	2.48
475.921	2.67
476.275	2.65
476.63	2.59
476.984	2.54
477.338	2.67
477.692	2.59
478.045	2.85
478.399	2.62
478.753	2.6
479.107	2.67
479.461	2.59
479.814	2.71
480.168	2.59
480.521	2.77
480.875	2.81
481.228	2.74
481.582	2.52
481.935	2.51
482.289	2.66
482.642	2.59
482.995	2.65
483.348	2.71
483.701	2.55
484.055	2.64
484.408	2.59
484.761	2.67
485.114	2.53
485.466	2.44
485.819	2.42
486.172	2.39
486.525	2.41
486.878	2.42
487.23	2.5
487.583	2.57
487.936	2.6
488.288	2.59
488.641	2.6
488.993	2.46
489.345	2.51
489.698	2.48
490.05	2.53
490.402	2.52
490.754	2.47
491.107	2.47
491.459	2.56
491.811	2.57
492.163	2.56
492.515	2.65
492.866	2.65
493.218	2.59
493.57	2.53
493.922	2.45
494.274	2.51
494.625	2.54
494.977	2.68
495.328	2.68
495.68	2.69
496.031	2.7
496.383	2.69
496.734	2.64
497.086	2.62
497.437	2.71
497.788	2.73
498.139	2.65
498.49	2.77
498.842	2.64
499.193	2.55
499.544	2.78
499.894	2.66
500.245	2.71
500.596	2.69
500.947	2.7
501.298	2.67
501.648	2.72
501.999	2.71
502.35	2.73
502.7	2.81
503.051	2.68
503.401	2.65
503.752	2.81
504.102	2.63
504.452	2.72
504.803	2.75
505.153	2.74
505.503	2.71
505.853	2.76
506.203	2.64
506.553	2.74
506.903	2.86
507.253	2.64
507.603	2.89
507.953	2.78
508.303	2.78
508.652	2.69
509.002	2.77
509.352	2.79
509.701	2.78
510.051	2.78
510.4	2.72
510.75	2.69
511.099	2.62
511.449	2.7
511.798	2.88
512.147	2.81
512.496	2.74
512.846	2.75
513.195	2.79
513.544	2.8
513.893	2.86
514.242	2.8
514.591	2.79
514.939	2.83
515.288	2.69
515.637	2.87
515.986	2.82
516.334	2.66
516.683	2.77
517.032	2.79
517.38	2.83
517.729	2.77
518.077	2.73
518.426	2.86
518.774	2.76
519.122	2.77
519.47	2.77
519.819	2.81
520.167	2.8
520.515	2.8
520.863	2.65
521.211	2.72
521.559	2.76
521.907	2.83
522.255	2.7
522.602	2.83
522.95	2.75
523.298	2.85
523.645	2.89
523.993	2.86
524.341	2.7
524.688	2.89
525.036	2.87
525.383	2.87
525.73	2.92
526.078	2.8
526.425	2.73
526.772	2.9
527.119	2.81
527.466	2.67
527.814	2.64
528.161	2.64
528.508	2.77
528.854	2.81
529.201	2.82
529.548	2.72
529.895	2.72
530.242	2.67
530.588	2.63
530.935	2.56
531.282	2.56
531.628	2.67
531.975	2.63
532.321	2.69
532.667	2.68
533.014	2.72
533.36	2.76
533.706	2.81
534.052	2.83
534.399	2.77
534.745	2.8
535.091	2.69
535.437	2.67
535.783	2.61
536.129	2.68
536.474	2.78
536.82	2.75
537.166	2.9
537.512	2.81
537.857	2.79
538.203	2.88
538.549	2.77
538.894	2.73
539.239	2.75
539.585	2.81
539.93	2.93
540.276	2.79
540.621	2.85
540.966	2.75
541.311	2.96
541.656	2.89
542.001	2.92
542.346	2.82
542.691	2.9
543.036	2.77
543.381	2.67
543.726	2.75
544.071	2.7
544.415	2.69
544.76	2.74
545.105	2.7
545.449	2.71
545.794	2.82
546.138	2.84
546.483	2.77
546.827	2.83
547.171	2.83
547.516	2.92
547.86	2.86
548.204	2.85
548.548	2.8
548.892	2.85
549.236	2.79
549.58	2.85
549.924	2.85
550.268	2.9
550.612	2.83
550.956	2.88
551.3	3.06
551.643	2.98
551.987	2.93
552.33	2.86
552.674	2.9
553.017	2.78
553.361	2.93
553.704	3.07
554.048	2.91
554.391	2.98
554.734	2.98
555.077	2.87
555.42	2.87
555.764	2.89
556.107	3
556.45	2.92
556.793	2.95
557.135	3.06
557.478	2.92
557.821	3.1
558.164	3.13
558.507	3.1
558.849	3
559.192	3.13
559.534	3.06
559.877	3.06
560.219	3.09
560.562	3.11
560.904	3.07
561.246	3.19
561.589	3.05
561.931	2.92
562.273	2.97
562.615	3.04
562.957	3.11
563.299	2.95
563.641	3
563.983	3.05
564.325	3.02
564.667	3.13
565.008	2.87
565.35	2.97
565.692	3.02
566.033	3.06
566.375	3.11
566.716	3.09
567.058	2.95
567.399	3.18
567.741	3.12
568.082	2.87
568.423	3.02
568.764	3.24
569.105	2.9
569.447	3.04
569.788	2.92
570.129	3.05
570.47	3.15
570.811	3.14
571.151	3.2
571.492	2.99
571.833	2.9
572.174	3.03
572.514	3
572.855	3.08
573.195	2.96
573.536	2.97
573.876	3.02
574.217	2.93
574.557	3.04
574.898	2.99
575.238	2.98
575.578	3.13
575.918	3.04
576.258	2.81
576.598	3.06
576.938	3.01
577.278	3.13
577.618	2.86
577.958	3.11
578.298	3.1
578.638	2.93
578.977	3.11
579.317	3.01
579.657	3.05
579.996	3.23
580.336	3.11
580.675	3.09
581.014	2.91
581.354	3.01
581.693	3.17
582.032	3.12
582.372	3.28
582.711	3.24
583.05	3.2
583.389	3.16
583.728	3.15
584.067	3.39
584.406	3.12
584.745	2.9
585.083	3.25
585.422	3.34
585.761	3.28
586.1	3.22
586.438	2.92
586.777	3.19
587.115	3.24
587.454	3.03
587.792	3.28
588.13	3.16
588.469	3.15
588.807	3.38
589.145	3.24
589.483	3.04
589.821	3.04
590.159	3.16
590.497	3.32
590.835	3.22
591.173	3.07
591.511	3.05
591.849	3.18
592.187	3.02
592.524	3.16
592.862	3.29
593.2	3.09
593.537	2.9
593.875	3.42
594.212	3.28
594.55	3.53
594.887	3.12
595.224	3.19
595.561	3.44
595.899	3.55
596.236	3.46
596.573	3.37
596.91	3.42
597.247	3.17
597.584	3.56
597.921	3.49
598.258	3.27
598.594	3.06
598.931	3.14
599.268	3.25
599.604	3.31
599.941	3.25
600.277	3.14
600.614	3.09
600.95	3.24
601.287	3.23
601.623	3.18
601.959	3.27
602.296	3.25
602.632	3.01
602.968	3.31
603.304	3.32
603.64	3.4
603.976	3.23
604.312	3.43
604.648	3.26
604.984	3.02
605.319	2.89
605.655	3.15
605.991	3.07
606.326	3.27
606.662	3.05
606.998	3.02
607.333	3.28
607.668	3.13
608.004	3.25
608.339	3.04
608.674	3.46
609.01	3.27
609.345	3.4
609.68	3.58
610.015	3.34
610.35	3.26
610.685	3.28
611.02	3.35
611.355	3.3
611.689	3.21
612.024	3.25
612.359	3.12
612.694	3.2
613.028	3.35
613.363	3.19
613.697	3.19
614.032	3.37
614.366	3.11
614.7	3.07
615.035	3.32
615.369	3.11
615.703	3.25
616.037	3.39
616.371	3.54
616.705	3.54
617.039	3.17
617.373	3.17
617.707	3.13
618.041	3.39
618.375	3.4
618.709	3.2
619.042	3.84
619.376	3.42
619.71	3.61
620.043	3.09
620.377	3.13
620.71	3.44
621.043	3.38
621.377	3.22
621.71	3.22
622.043	3.3
622.376	3.62
622.709	3.23
623.043	3.2
623.376	3.33
623.709	3.65
624.041	3.33
624.374	3.44
624.707	3.47
625.04	3.69
625.373	2.95
625.705	3.61
626.038	2.99
626.37	3.61
626.703	3.43
627.035	3.33
627.368	3.41
627.7	3.63
628.032	3.46
628.365	3.39
628.697	3.44
629.029	3.51
629.361	3.25
629.693	3.67
630.025	3.31
630.357	3.41
630.689	3.37
631.021	3.27
631.353	3.49
631.684	3.36
632.016	3.65
632.348	3.76
632.679	3.33
633.011	3.45
633.342	3.39
633.674	3.52
634.005	3.29
634.336	3.73
634.668	3.57
634.999	3.32
635.33	3.74
635.661	3.61
635.992	3.08
636.323	3.4
636.654	3.68
636.985	3.24
637.316	3.57
637.647	3.43
637.977	2.78
638.308	3.72
638.639	3.63
638.969	3.56
639.3	3.33
639.63	3.65
639.961	3.28
640.291	2.85
640.622	3.85
640.952	3.65
641.282	3.7
641.612	3.17
641.943	3.46
642.273	3.48
642.603	3.31
642.933	3.21
643.263	3.15
643.592	3.08
643.922	3.83
644.252	3.55
644.582	3.83
644.911	3.85
645.241	3.71
645.571	3.2
645.9	3.41
646.23	3.84
646.559	3.54
646.888	3.77
647.218	3.48
647.547	3.37
647.876	3.29
648.205	3.28
648.534	3.63
648.863	3.63
649.192	3.19
649.521	3.72
649.85	4.05
650.179	3.33
650.508	3.41
650.837	3.75
651.165	3.93
651.494	3.37
651.822	3.47
652.151	3.21
652.479	3.63
652.808	3.44
653.136	3.84
653.465	3.85
653.793	3.2
654.121	4.02
654.449	3.03
654.777	3.47
655.105	3.97
655.433	3.8
655.761	3.65
656.089	3.35
656.417	3.32
656.745	3.45
657.073	3.85
657.4	4.69
657.728	3.84
658.056	3.61
658.383	4.19
658.711	3.71
659.038	3.55
659.365	4.18
659.693	3.41
660.02	4.1
660.347	4.24
660.674	3.36
661.001	3.36
661.329	3.39
661.656	3.8
661.982	3.39
662.309	3.56
662.636	3.35
662.963	3.2
663.29	3.72
663.616	3.66
663.943	3.83
664.27	3.85
664.596	3.68
664.923	3.56
665.249	3.91
665.576	3.11
665.902	3.67
666.228	3.47
666.554	3.07
666.881	4.47
667.207	3.69
667.533	3.4
667.859	3.87
668.185	3.57
668.511	3.74
668.837	3.2
669.162	3.42
669.488	3.38
669.814	3.58
670.139	3.54
670.465	4.43
670.791	3.39
671.116	3.41
671.442	3.87
671.767	3.43
672.092	4
672.418	4.3
672.743	3.83
673.068	4.5
673.393	3.21
673.718	3.7
674.043	4.18
674.368	4
674.693	4
675.018	3.31
675.343	3.95
675.667	3.86
675.992	3.98
676.317	3.98
676.641	3.79
676.966	4.27
677.29	3.62
677.615	3.69
677.939	3.76
678.264	4.05
678.588	4.82
678.912	3.7
679.236	4.06
679.56	3.68
679.885	4.2
680.209	4.62
680.532	3.58
680.856	3.75
681.18	4.09
681.504	4
681.828	3.87
682.152	3.65
682.475	4.36
682.799	4.03
683.122	3.42
683.446	3.98
683.769	4.1
684.093	3.94
684.416	3.73
684.739	3.54
685.062	4.63
685.386	3.91
685.709	3.59
686.032	3.76
686.355	4.16
686.678	4.51
687.001	4.04
687.324	4.31
687.646	4.19
687.969	4.11
688.292	4.12
688.614	4.54
688.937	3.53
689.26	3.19
689.582	3.86
689.904	4.21
690.227	4.66
690.549	3.84
690.871	3.72
691.194	3.9
691.516	3.81
691.838	4.61
692.16	3.98
692.482	4.34
692.804	2.99
693.126	4.09
