Data from 0099_crown_Reflection__4__181.txt Node

Date: Fri Sep 22 22:18:51 CDT 2023
User: ToomeyLab
Spectrometer: FLMS14357
Trigger mode: 0
Integration Time (sec): 1.000000E-2
Scans to average: 100
Electric dark correction enabled: true
Nonlinearity correction enabled: false
Boxcar width: 0
XAxis mode: Wavelengths
Number of Pixels in Spectrum: 2048
>>>>>Begin Spectral Data<<<<<
189.047	144.79
189.435	144.79
189.823	144.79
190.211	114.07
190.599	223.78
190.987	314.67
191.375	170.12
191.763	105.44
192.151	351.26
192.538	188.33
192.926	110.12
193.314	-7.43
193.702	115.07
194.089	77.65
194.477	-15.38
194.864	218.9
195.252	77.13
195.639	-3.53
196.027	211.72
196.414	-106.74
196.801	228.32
197.189	-285.24
197.576	150.6
197.963	49.74
198.351	-13.18
198.738	36.99
199.125	59.22
199.512	-3.56
199.899	39.78
200.286	7.65
200.673	56.8
201.06	36.16
201.447	24.69
201.833	-21.94
202.22	19.89
202.607	30.59
202.994	54.82
203.38	44.12
203.767	25.6
204.154	45.55
204.54	53.02
204.927	-5.67
205.313	19.56
205.699	49.01
206.086	49.18
206.472	40.21
206.858	33.54
207.245	-1.82
207.631	59.51
208.017	27.48
208.403	35.06
208.789	59.33
209.175	44.35
209.561	40.15
209.947	44.41
210.333	52.02
210.719	-30.91
211.105	13.17
211.491	28.17
211.876	35.49
212.262	-8.18
212.648	19.59
213.034	22.13
213.419	20.25
213.805	9.06
214.19	-17.15
214.576	-1.98
214.961	-0.78
215.346	-2.25
215.732	18.73
216.117	-15.12
216.502	39.72
216.888	30.58
217.273	17.89
217.658	44.58
218.043	34.1
218.428	21.55
218.813	-40.46
219.198	-9.96
219.583	-1.22
219.968	5
220.353	15.07
220.738	4.84
221.122	-27.38
221.507	13.21
221.892	9.43
222.276	-10.36
222.661	-19.07
223.046	19.74
223.43	11.27
223.815	4.67
224.199	-9.01
224.583	3.82
224.968	6.97
225.352	1.9
225.736	9.66
226.121	15.07
226.505	11.54
226.889	3.01
227.273	3.8
227.657	-0.05
228.041	4.31
228.425	9.93
228.809	-0.84
229.193	0.97
229.577	1.26
229.961	4.4
230.344	2.45
230.728	2.34
231.112	2.58
231.495	2.04
231.879	2.28
232.263	1.79
232.646	3.04
233.03	0.34
233.413	1.4
233.797	2.32
234.18	0.77
234.563	2.64
234.946	3.59
235.33	1.2
235.713	0.28
236.096	3.38
236.479	0.78
236.862	3.18
237.245	0.85
237.628	2.81
238.011	2.85
238.394	2.87
238.777	3.4
239.16	1.6
239.543	3.16
239.925	2.87
240.308	1.67
240.691	2.38
241.073	3.58
241.456	2.6
241.838	1.62
242.221	2.28
242.603	2.17
242.986	1.56
243.368	0.99
243.75	2.74
244.133	2.44
244.515	1.72
244.897	0.94
245.279	1.44
245.661	1.59
246.043	1.4
246.425	1.95
246.807	2.94
247.189	0.66
247.571	2.86
247.953	1.71
248.335	2
248.717	1.85
249.098	1.77
249.48	1.62
249.862	1.44
250.243	1.53
250.625	1.68
251.006	1.66
251.388	2.19
251.769	1.94
252.151	2.14
252.532	1.55
252.913	2.06
253.295	2.86
253.676	2.18
254.057	1.73
254.438	2.07
254.819	1.31
255.2	1.7
255.581	1.63
255.962	2.37
256.343	1.26
256.724	0.26
257.105	1.7
257.486	1.7
257.867	1.19
258.247	1.45
258.628	2.21
259.009	1.25
259.389	1.79
259.77	2.11
260.15	2.49
260.531	1.75
260.911	1.68
261.292	1.74
261.672	1.42
262.052	1.57
262.432	1.66
262.813	1.71
263.193	1.39
263.573	2.09
263.953	1.54
264.333	0.96
264.713	1.28
265.093	1.73
265.473	2.23
265.853	1.23
266.233	1.85
266.612	1.45
266.992	1.98
267.372	1.96
267.752	1.74
268.131	1.49
268.511	1.59
268.89	2.03
269.27	1.49
269.649	1.62
270.029	1.67
270.408	1.83
270.787	1.24
271.167	1.72
271.546	0.86
271.925	1.41
272.304	1.49
272.683	1.73
273.062	2.11
273.441	1.16
273.82	2.02
274.199	1.75
274.578	1.8
274.957	1.6
275.336	1.26
275.715	2.09
276.093	1.92
276.472	1.45
276.851	2.04
277.229	1.21
277.608	1.79
277.986	1.35
278.365	2
278.743	1.5
279.122	1.75
279.5	1.71
279.878	1.43
280.257	2.67
280.635	1.54
281.013	1.86
281.391	1.14
281.769	1.81
282.147	1.76
282.525	1.24
282.903	1.33
283.281	1.56
283.659	1.65
284.037	1.66
284.415	1.63
284.792	1.8
285.17	1.59
285.548	2.08
285.925	1.69
286.303	1.24
286.68	0.82
287.058	0.89
287.435	1.54
287.813	1.21
288.19	1.31
288.567	1.62
288.945	1.54
289.322	1.55
289.699	1.64
290.076	1.48
290.453	1.01
290.83	1.39
291.207	1.41
291.584	0.72
291.961	1.19
292.338	1.52
292.715	1.96
293.092	1.55
293.469	1.42
293.845	0.93
294.222	1.5
294.599	1.89
294.975	2.07
295.352	1.5
295.728	1.62
296.105	1.62
296.481	1.6
296.858	1.25
297.234	1.71
297.61	1.55
297.986	1.7
298.363	1.94
298.739	1.17
299.115	1.6
299.491	1.42
299.867	1.51
300.243	1.45
300.619	1.52
300.995	1.24
301.371	1.59
301.746	1.78
302.122	0.87
302.498	1.16
302.874	1.17
303.249	1.08
303.625	1.3
304	1.88
304.376	1.5
304.751	1.73
305.127	1.37
305.502	1.73
305.878	1.23
306.253	1.75
306.628	1.58
307.003	1
307.378	1.22
307.754	1.11
308.129	1.39
308.504	1.61
308.879	1.98
309.254	1.53
309.629	1.6
310.003	1.77
310.378	1.88
310.753	1.91
311.128	1.1
311.502	1.95
311.877	1.12
312.252	1.47
312.626	1.24
313.001	2
313.375	1.83
313.75	1.72
314.124	1.9
314.498	1.12
314.873	1.37
315.247	1.86
315.621	1.58
315.995	1.34
316.369	1.77
316.743	1.12
317.117	1.8
317.491	1.59
317.865	0.9
318.239	1.62
318.613	2.47
318.987	1.2
319.361	1.4
319.734	1.27
320.108	1.47
320.482	1.08
320.855	1.52
321.229	1.62
321.602	1.74
321.976	0.91
322.349	1.61
322.723	1.81
323.096	0.94
323.469	1.91
323.843	1.81
324.216	1.85
324.589	1.57
324.962	1.34
325.335	1.45
325.708	1.33
326.081	2.12
326.454	0.98
326.827	1.61
327.2	1.08
327.573	1.82
327.945	1.91
328.318	1.53
328.691	1.95
329.063	1.82
329.436	1.44
329.809	1.45
330.181	1.3
330.553	1.82
330.926	1.48
331.298	1.66
331.671	1.7
332.043	0.76
332.415	1.58
332.787	1.81
333.159	1.61
333.532	1.57
333.904	0.98
334.276	1.62
334.648	0.82
335.02	1.23
335.391	1.65
335.763	1.72
336.135	1.4
336.507	1.81
336.879	1.38
337.25	1.68
337.622	1.64
337.993	1.43
338.365	1.57
338.736	1.7
339.108	1.6
339.479	1.74
339.851	0.95
340.222	1.44
340.593	1.32
340.964	1.01
341.336	1.09
341.707	1.38
342.078	1.32
342.449	1.6
342.82	1.07
343.191	1.46
343.562	1.3
343.933	1.77
344.303	1.35
344.674	1.8
345.045	1.68
345.416	1.58
345.786	1.3
346.157	1.27
346.527	1.19
346.898	1.44
347.268	1.32
347.639	1.29
348.009	1.43
348.38	1.39
348.75	1.83
349.12	1.62
349.49	1.64
349.861	1.52
350.231	1.61
350.601	1.08
350.971	1.64
351.341	1.25
351.711	1.28
352.081	1.48
352.45	1.57
352.82	1.69
353.19	1.58
353.56	1.46
353.929	1.38
354.299	1.89
354.669	1.51
355.038	1.25
355.408	1.54
355.777	1.48
356.147	1.32
356.516	1.6
356.885	1.87
357.254	1.53
357.624	1.33
357.993	1.3
358.362	1.78
358.731	1.7
359.1	1.42
359.469	1.65
359.838	0.9
360.207	1.28
360.576	1.27
360.945	1.27
361.314	1.31
361.682	1.42
362.051	1.93
362.42	1.38
362.788	1.37
363.157	1.59
363.525	1.27
363.894	1.35
364.262	1.44
364.631	1.36
364.999	1.04
365.367	1.63
365.735	1.29
366.104	1.5
366.472	1.45
366.84	1.28
367.208	1.61
367.576	1.26
367.944	1.8
368.312	1.57
368.68	1.28
369.048	1.84
369.416	1.39
369.783	1.41
370.151	1.2
370.519	1.55
370.886	1.55
371.254	1.59
371.621	1.51
371.989	1.47
372.356	1.18
372.724	1.86
373.091	1.49
373.458	1.46
373.826	1.43
374.193	1.54
374.56	1.28
374.927	1.74
375.294	1.59
375.661	1.49
376.028	1.51
376.395	1.8
376.762	1.16
377.129	1.95
377.496	1.99
377.863	1.68
378.229	1.76
378.596	1.22
378.963	1.66
379.329	1.52
379.696	1.8
380.062	1.2
380.429	1.33
380.795	1.46
381.161	1.35
381.528	1.46
381.894	0.93
382.26	1.67
382.626	1.51
382.993	1.51
383.359	1.22
383.725	1.36
384.091	1.7
384.457	1.32
384.823	1.31
385.188	1.35
385.554	1.22
385.92	1.87
386.286	1.6
386.651	1.7
387.017	1.75
387.383	1.49
387.748	1.31
388.114	1.55
388.479	1.74
388.845	1.37
389.21	1.4
389.575	1.85
389.94	1.21
390.306	1.43
390.671	1.55
391.036	1.29
391.401	1.43
391.766	1.35
392.131	1.32
392.496	1.53
392.861	1.4
393.226	1.62
393.591	1.65
393.956	1.7
394.32	1.66
394.685	1.58
395.05	1.55
395.414	1.48
395.779	1.58
396.143	1.54
396.508	1.64
396.872	1.47
397.236	1.46
397.601	1.42
397.965	1.68
398.329	1.61
398.694	1.38
399.058	1.51
399.422	1.7
399.786	1.48
400.15	1.65
400.514	1.67
400.878	1.47
401.242	1.6
401.605	1.5
401.969	1.13
402.333	1.59
402.697	1.5
403.06	1.44
403.424	1.54
403.787	1.52
404.151	1.7
404.514	1.58
404.878	1.63
405.241	1.68
405.604	1.73
405.968	1.72
406.331	1.51
406.694	1.47
407.057	1.34
407.42	1.58
407.783	1.63
408.146	1.59
408.509	1.4
408.872	1.39
409.235	1.39
409.598	1.3
409.961	1.66
410.323	1.59
410.686	1.55
411.049	1.67
411.411	1.64
411.774	1.32
412.136	1.51
412.499	1.67
412.861	1.52
413.223	1.5
413.586	1.44
413.948	1.79
414.31	1.45
414.672	1.59
415.035	1.47
415.397	1.66
415.759	1.84
416.121	1.38
416.483	1.3
416.845	1.44
417.206	1.5
417.568	1.6
417.93	1.51
418.292	1.64
418.653	1.35
419.015	1.51
419.377	1.43
419.738	1.64
420.1	1.39
420.461	1.46
420.822	1.51
421.184	1.48
421.545	1.57
421.906	1.54
422.267	1.47
422.629	1.59
422.99	1.6
423.351	1.39
423.712	1.39
424.073	1.42
424.434	1.5
424.795	1.49
425.155	1.51
425.516	1.43
425.877	1.5
426.238	1.43
426.598	1.44
426.959	1.46
427.32	1.57
427.68	1.46
428.041	1.41
428.401	1.49
428.761	1.67
429.122	1.54
429.482	1.59
429.842	1.53
430.202	1.51
430.563	1.62
430.923	1.57
431.283	1.74
431.643	1.51
432.003	1.51
432.363	1.69
432.722	1.68
433.082	1.78
433.442	1.55
433.802	1.63
434.161	1.39
434.521	1.56
434.881	1.6
435.24	1.52
435.6	1.43
435.959	1.43
436.319	1.62
436.678	1.69
437.037	1.65
437.396	1.43
437.756	1.63
438.115	1.57
438.474	1.45
438.833	1.61
439.192	1.47
439.551	1.51
439.91	1.77
440.269	1.7
440.628	1.54
440.987	1.63
441.345	1.76
441.704	1.67
442.063	1.57
442.421	1.52
442.78	1.65
443.138	1.55
443.497	1.55
443.855	1.65
444.214	1.45
444.572	1.69
444.93	1.47
445.288	1.46
445.647	1.67
446.005	1.62
446.363	1.5
446.721	1.69
447.079	1.54
447.437	1.58
447.795	1.66
448.153	1.47
448.51	1.59
448.868	1.51
449.226	1.55
449.584	1.61
449.941	1.48
450.299	1.57
450.656	1.69
451.014	1.64
451.371	1.56
451.729	1.52
452.086	1.64
452.443	1.68
452.801	1.6
453.158	1.48
453.515	1.75
453.872	1.6
454.229	1.7
454.586	1.52
454.943	1.53
455.3	1.57
455.657	1.53
456.014	1.69
456.371	1.65
456.727	1.66
457.084	1.58
457.441	1.5
457.797	1.64
458.154	1.48
458.51	1.57
458.867	1.47
459.223	1.73
459.58	1.69
459.936	1.64
460.292	1.73
460.648	1.72
461.005	1.67
461.361	1.67
461.717	1.46
462.073	1.56
462.429	1.48
462.785	1.59
463.141	1.59
463.496	1.71
463.852	1.7
464.208	1.6
464.564	1.89
464.919	1.56
465.275	1.78
465.631	1.79
465.986	1.66
466.342	1.68
466.697	1.68
467.052	1.63
467.408	1.78
467.763	1.69
468.118	1.77
468.473	1.79
468.829	1.67
469.184	1.46
469.539	1.65
469.894	1.72
470.249	1.7
470.603	1.71
470.958	1.67
471.313	1.7
471.668	1.65
472.023	1.72
472.377	1.63
472.732	1.69
473.086	1.9
473.441	1.45
473.795	1.9
474.15	1.66
474.504	1.58
474.859	1.74
475.213	1.33
475.567	1.48
475.921	1.62
476.275	1.68
476.63	1.59
476.984	1.65
477.338	1.76
477.692	1.7
478.045	1.91
478.399	1.76
478.753	1.66
479.107	1.65
479.461	1.53
479.814	1.76
480.168	1.68
480.521	1.65
480.875	1.85
481.228	1.78
481.582	1.64
481.935	1.75
482.289	1.53
482.642	1.49
482.995	1.62
483.348	1.73
483.701	1.69
484.055	1.6
484.408	1.6
484.761	1.65
485.114	1.52
485.466	1.56
485.819	1.5
486.172	1.5
486.525	1.48
486.878	1.53
487.23	1.57
487.583	1.58
487.936	1.59
488.288	1.64
488.641	1.59
488.993	1.54
489.345	1.56
489.698	1.56
490.05	1.57
490.402	1.57
490.754	1.54
491.107	1.58
491.459	1.59
491.811	1.65
492.163	1.57
492.515	1.63
492.866	1.61
493.218	1.58
493.57	1.67
493.922	1.54
494.274	1.55
494.625	1.65
494.977	1.74
495.328	1.79
495.68	1.63
496.031	1.65
496.383	1.67
496.734	1.8
497.086	1.62
497.437	1.76
497.788	1.72
498.139	1.65
498.49	1.74
498.842	1.61
499.193	1.65
499.544	1.72
499.894	1.6
500.245	1.77
500.596	1.63
500.947	1.71
501.298	1.73
501.648	1.69
501.999	1.75
502.35	1.69
502.7	1.81
503.051	1.73
503.401	1.79
503.752	1.88
504.102	1.68
504.452	1.8
504.803	1.82
505.153	1.71
505.503	1.87
505.853	1.87
506.203	1.57
506.553	1.71
506.903	1.71
507.253	1.73
507.603	1.81
507.953	1.8
508.303	1.74
508.652	1.69
509.002	1.79
509.352	1.71
509.701	1.81
510.051	1.72
510.4	1.74
510.75	1.66
511.099	1.56
511.449	1.73
511.798	1.72
512.147	1.75
512.496	1.65
512.846	1.68
513.195	1.79
513.544	1.85
513.893	1.87
514.242	1.74
514.591	1.78
514.939	1.82
515.288	1.78
515.637	1.79
515.986	1.61
516.334	1.77
516.683	1.76
517.032	1.84
517.38	1.88
517.729	1.76
518.077	1.8
518.426	1.79
518.774	1.84
519.122	1.64
519.47	1.76
519.819	1.7
520.167	1.78
520.515	1.81
520.863	1.69
521.211	1.77
521.559	1.77
521.907	1.73
522.255	1.76
522.602	1.84
522.95	1.86
523.298	1.83
523.645	1.87
523.993	1.83
524.341	1.68
524.688	1.78
525.036	1.72
525.383	1.76
525.73	1.85
526.078	1.91
526.425	1.71
526.772	1.9
527.119	1.73
527.466	1.7
527.814	1.76
528.161	1.68
528.508	1.8
528.854	1.82
529.201	1.79
529.548	1.72
529.895	1.69
530.242	1.67
530.588	1.65
530.935	1.6
531.282	1.66
531.628	1.72
531.975	1.66
532.321	1.72
532.667	1.74
533.014	1.72
533.36	1.77
533.706	1.79
534.052	1.84
534.399	1.8
534.745	1.79
535.091	1.76
535.437	1.65
535.783	1.63
536.129	1.7
536.474	1.76
536.82	1.71
537.166	1.93
537.512	1.83
537.857	1.75
538.203	1.87
538.549	1.75
538.894	1.74
539.239	1.74
539.585	1.72
539.93	1.88
540.276	1.85
540.621	1.82
540.966	1.76
541.311	1.83
541.656	1.71
542.001	1.86
542.346	1.83
542.691	1.9
543.036	1.83
543.381	1.72
543.726	1.67
544.071	1.76
544.415	1.76
544.76	1.71
545.105	1.73
545.449	1.78
545.794	1.86
546.138	1.85
546.483	1.79
546.827	1.81
547.171	1.77
547.516	1.91
547.86	1.86
548.204	1.9
548.548	1.77
548.892	1.91
549.236	1.73
549.58	1.81
549.924	1.9
550.268	1.95
550.612	1.95
550.956	1.82
551.3	1.91
551.643	1.94
551.987	1.8
552.33	2.12
552.674	1.98
553.017	1.75
553.361	1.89
553.704	2.03
554.048	1.95
554.391	1.91
554.734	1.8
555.077	1.93
555.42	1.88
555.764	1.73
556.107	1.93
556.45	1.98
556.793	1.85
557.135	1.89
557.478	1.69
557.821	1.89
558.164	2.06
558.507	1.97
558.849	1.9
559.192	2.08
559.534	1.94
559.877	1.95
560.219	1.83
560.562	1.99
560.904	2.13
561.246	2.04
561.589	2.01
561.931	1.87
562.273	2
562.615	1.87
562.957	1.97
563.299	1.99
563.641	2.05
563.983	2.05
564.325	2.02
564.667	1.92
565.008	1.79
565.35	2.01
565.692	2.06
566.033	1.87
566.375	1.96
566.716	1.89
567.058	1.88
567.399	2.18
567.741	2.1
568.082	2
568.423	1.94
568.764	2.16
569.105	1.83
569.447	1.97
569.788	1.88
570.129	2
570.47	2.02
570.811	1.94
571.151	2.21
571.492	2.04
571.833	1.92
572.174	1.89
572.514	1.97
572.855	2.04
573.195	1.9
573.536	1.91
573.876	1.93
574.217	1.79
574.557	1.88
574.898	2.11
575.238	1.91
575.578	2.06
575.918	1.95
576.258	1.85
576.598	1.92
576.938	1.97
577.278	2.14
577.618	1.83
577.958	1.91
578.298	2.11
578.638	1.9
578.977	2.01
579.317	2.1
579.657	2.09
579.996	2.02
580.336	2.13
580.675	2.34
581.014	1.85
581.354	1.92
581.693	2.08
582.032	1.98
582.372	1.99
582.711	2.01
583.05	2.07
583.389	2.13
583.728	1.98
584.067	2.18
584.406	1.84
584.745	1.64
585.083	2.46
585.422	2.07
585.761	1.83
586.1	1.96
586.438	2.07
586.777	1.96
587.115	2.1
587.454	1.96
587.792	2.03
588.13	2.09
588.469	2.16
588.807	2.04
589.145	2.14
589.483	1.91
589.821	1.93
590.159	2.03
590.497	2.4
590.835	2.06
591.173	1.93
591.511	1.92
591.849	2.33
592.187	2.04
592.524	2.13
592.862	2.25
593.2	2.1
593.537	1.93
593.875	2.01
594.212	2.06
594.55	2.41
594.887	2.29
595.224	2.19
595.561	2.23
595.899	2.31
596.236	2.43
596.573	2.21
596.91	2.11
597.247	2.08
597.584	2.1
597.921	2.08
598.258	2.15
598.594	2.01
598.931	2.08
599.268	2.09
599.604	2.25
599.941	2.26
600.277	2.04
600.614	2.04
600.95	2.13
601.287	1.97
601.623	2.14
601.959	2.12
602.296	2.3
602.632	2.01
602.968	2.17
603.304	2.14
603.64	2.11
603.976	2.1
604.312	2.27
604.648	2.16
604.984	2.17
605.319	2.07
605.655	1.86
605.991	2.13
606.326	2.14
606.662	2.11
606.998	2.04
607.333	2.17
607.668	2.08
608.004	2.37
608.339	2.12
608.674	2.03
609.01	2.15
609.345	2.21
609.68	2.41
610.015	2.1
610.35	2.11
610.685	2.05
611.02	2.31
611.355	2.15
611.689	2.24
612.024	2.29
612.359	2.09
612.694	2.11
613.028	2.21
613.363	2.12
613.697	2.16
614.032	2.18
614.366	2.09
614.7	2.25
615.035	2.65
615.369	2.19
615.703	1.98
616.037	2.12
616.371	2.3
616.705	2.59
617.039	2.2
617.373	2.07
617.707	2.2
618.041	2.08
618.375	2.13
618.709	2.03
619.042	2.37
619.376	2.48
619.71	2.25
620.043	2.1
620.377	1.87
620.71	2.18
621.043	2.42
621.377	2.13
621.71	2.06
622.043	2.46
622.376	2.43
622.709	2.54
623.043	2.2
623.376	2.3
623.709	2.18
624.041	2.3
624.374	2.08
624.707	2.49
625.04	2.23
625.373	1.58
625.705	2.5
626.038	2.2
626.37	2.36
626.703	2.36
627.035	2.29
627.368	2.13
627.7	2.49
628.032	2.38
628.365	2.13
628.697	2.23
629.029	2.44
629.361	2.37
629.693	2.53
630.025	2.23
630.357	2.21
630.689	2.47
631.021	2.15
631.353	2.31
631.684	2.33
632.016	2.46
632.348	2.12
632.679	2.23
633.011	2.39
633.342	2.48
633.674	2.66
634.005	2.33
634.336	2.46
634.668	2.61
634.999	2.23
635.33	2.35
635.661	2.34
635.992	2.14
636.323	2.21
636.654	2.26
636.985	2.1
637.316	2.42
637.647	2.18
637.977	2.37
638.308	2.8
638.639	2.27
638.969	2.59
639.3	1.94
639.63	2.5
639.961	2.14
640.291	2.13
640.622	2.57
640.952	2.08
641.282	2.5
641.612	1.78
641.943	2.79
642.273	2.17
642.603	2.07
642.933	2.5
643.263	1.71
643.592	2.48
643.922	2.52
644.252	2.12
644.582	2.66
644.911	2.39
645.241	2.62
645.571	2.05
645.9	2.48
646.23	2.76
646.559	2.45
646.888	2.61
647.218	2.4
647.547	2.05
647.876	2.19
648.205	2.01
648.534	2.57
648.863	2.37
649.192	1.89
649.521	2.43
649.85	2.67
650.179	2.77
650.508	2.65
650.837	2.88
651.165	2.15
651.494	2.62
651.822	2.08
652.151	2.54
652.479	2.73
652.808	2.26
653.136	2.99
653.465	2.58
653.793	2.53
654.121	2.71
654.449	2.05
654.777	2.47
655.105	3.11
655.433	2.58
655.761	2.44
656.089	2.46
656.417	2.5
656.745	2.59
657.073	2.43
657.4	3.31
657.728	2.85
658.056	2.39
658.383	2.89
658.711	2.33
659.038	2.52
659.365	2.28
659.693	2.32
660.02	2.89
660.347	2.42
660.674	2.23
661.001	2.09
661.329	2.02
661.656	2.45
661.982	2.41
662.309	2.5
662.636	2.6
662.963	2.79
663.29	2.64
663.616	1.83
663.943	2.8
664.27	2.54
664.596	2.2
664.923	2.17
665.249	2.65
665.576	1.9
665.902	2.3
666.228	2.18
666.554	2.55
666.881	2.88
667.207	2.2
667.533	2.45
667.859	3.1
668.185	2.73
668.511	3.26
668.837	2.11
669.162	2.72
669.488	2.53
669.814	2.27
670.139	2.17
670.465	3.29
670.791	2.82
671.116	2.8
671.442	2.91
671.767	2.13
672.092	3.32
672.418	2.87
672.743	2.65
673.068	2.78
673.393	2.42
673.718	2.96
674.043	3.14
674.368	2.78
674.693	2.97
675.018	2.25
675.343	2.77
675.667	3.37
675.992	2.29
676.317	3.22
676.641	2.54
676.966	3.35
677.29	2.54
677.615	2.78
677.939	2.6
678.264	2.68
678.588	3.41
678.912	3.04
679.236	2.63
679.56	2.39
679.885	2.34
680.209	3.12
680.532	2.61
680.856	2.14
681.18	3.45
681.504	2.7
681.828	2.66
682.152	2.66
682.475	3.4
682.799	2.61
683.122	2.74
683.446	2.49
683.769	2.9
684.093	3.15
684.416	2.7
684.739	2.8
685.062	3.71
685.386	3.07
685.709	2.96
686.032	2.82
686.355	2.31
686.678	2.73
687.001	2.93
687.324	3.18
687.646	2.55
687.969	3.98
688.292	3
688.614	3.18
688.937	2.47
689.26	2.69
689.582	3.11
689.904	2.84
690.227	3.1
690.549	3.09
690.871	2.6
691.194	3.19
691.516	2.16
691.838	2.95
692.16	2.79
692.482	2.64
692.804	2.92
693.126	3.23
