Data from 0099_chest_Reflection__3__175.txt Node

Date: Fri Sep 22 22:17:04 CDT 2023
User: ToomeyLab
Spectrometer: FLMS14357
Trigger mode: 0
Integration Time (sec): 1.000000E-2
Scans to average: 100
Electric dark correction enabled: true
Nonlinearity correction enabled: false
Boxcar width: 0
XAxis mode: Wavelengths
Number of Pixels in Spectrum: 2048
>>>>>Begin Spectral Data<<<<<
189.047	93.76
189.435	93.76
189.823	93.76
190.211	70.12
190.599	43.42
190.987	-81.29
191.375	330.61
191.763	3.85
192.151	114.81
192.538	-341.84
192.926	105.68
193.314	85.44
193.702	48.28
194.089	21.45
194.477	37.76
194.864	531.59
195.252	113.68
195.639	139.42
196.027	83.5
196.414	8.76
196.801	-117.31
197.189	-16.57
197.576	202.73
197.963	-58.43
198.351	-12.39
198.738	20.96
199.125	-5.04
199.512	-5.61
199.899	67.98
200.286	-4.75
200.673	24.22
201.06	52.65
201.447	46.69
201.833	-11.14
202.22	39.55
202.607	-1.96
202.994	53.96
203.38	34.36
203.767	39.24
204.154	43.64
204.54	52.19
204.927	25.62
205.313	52.32
205.699	58.09
206.086	45.53
206.472	48.55
206.858	41.33
207.245	37.02
207.631	31.68
208.017	6.18
208.403	34.88
208.789	53.8
209.175	31.67
209.561	29.11
209.947	36.33
210.333	33.41
210.719	17.8
211.105	56.61
211.491	14.07
211.876	37.33
212.262	32.73
212.648	26.14
213.034	46.48
213.419	13.37
213.805	26.93
214.19	-7.64
214.576	33.89
214.961	21.82
215.346	-8.63
215.732	23.64
216.117	-11.07
216.502	39.46
216.888	59.74
217.273	37.31
217.658	15.66
218.043	3.64
218.428	49.71
218.813	3.07
219.198	-2.45
219.583	0.61
219.968	7.9
220.353	38.35
220.738	12.45
221.122	18.05
221.507	15.87
221.892	5.23
222.276	9.72
222.661	-8.42
223.046	12.92
223.43	23.25
223.815	10.2
224.199	4.71
224.583	5.68
224.968	23.6
225.352	9.32
225.736	9.88
226.121	10.03
226.505	3.55
226.889	10.28
227.273	3.98
227.657	5.27
228.041	9.64
228.425	12.75
228.809	5.43
229.193	2.98
229.577	7.41
229.961	6.86
230.344	6.97
230.728	3.45
231.112	5.25
231.495	5.15
231.879	5.07
232.263	4.66
232.646	4.61
233.03	4.75
233.413	6.29
233.797	4.86
234.18	5.11
234.563	4.52
234.946	7.56
235.33	1.19
235.713	3.55
236.096	5.23
236.479	6.56
236.862	6.74
237.245	5.31
237.628	6.05
238.011	7.18
238.394	4.35
238.777	5.67
239.16	7.57
239.543	7.89
239.925	4.12
240.308	5.41
240.691	6.65
241.073	6.42
241.456	3.59
241.838	4.12
242.221	5.22
242.603	5.55
242.986	4.38
243.368	3.83
243.75	4.07
244.133	4.69
244.515	4.03
244.897	4.49
245.279	4.42
245.661	4.27
246.043	4.45
246.425	4.19
246.807	4.22
247.189	3.84
247.571	3.88
247.953	5.58
248.335	4.72
248.717	4.33
249.098	4.54
249.48	3.85
249.862	4.06
250.243	3.98
250.625	4.32
251.006	3.89
251.388	4.15
251.769	4.62
252.151	4.15
252.532	4.04
252.913	4.29
253.295	4.84
253.676	4.86
254.057	4.49
254.438	4.76
254.819	4.07
255.2	4.64
255.581	3.29
255.962	4.91
256.343	3.91
256.724	4.24
257.105	3.35
257.486	4.43
257.867	4.17
258.247	4.7
258.628	4.13
259.009	3.81
259.389	4.02
259.77	4.14
260.15	4.1
260.531	4.65
260.911	3.94
261.292	4.05
261.672	3.74
262.052	3.86
262.432	4.05
262.813	3.85
263.193	3.54
263.573	4.34
263.953	3.58
264.333	4.33
264.713	3.45
265.093	3.37
265.473	3.6
265.853	3.7
266.233	4.31
266.612	3.35
266.992	4.71
267.372	3.99
267.752	4.44
268.131	3.11
268.511	3.64
268.89	3.9
269.27	3.96
269.649	3.85
270.029	3.76
270.408	4.35
270.787	4.25
271.167	3.98
271.546	3.92
271.925	3.83
272.304	3.51
272.683	4.21
273.062	4.59
273.441	3.68
273.82	4.29
274.199	4.32
274.578	4.18
274.957	3.62
275.336	3.9
275.715	3.6
276.093	3.65
276.472	3.56
276.851	4.25
277.229	3.48
277.608	3.88
277.986	3.31
278.365	3.38
278.743	3.5
279.122	3.67
279.5	4.52
279.878	3.75
280.257	3.84
280.635	3.85
281.013	4.38
281.391	3.04
281.769	3.67
282.147	4.05
282.525	3.51
282.903	3.79
283.281	3.73
283.659	4.28
284.037	3.81
284.415	3.84
284.792	3.75
285.17	3.95
285.548	3.61
285.925	4.41
286.303	4.06
286.68	3.72
287.058	3.52
287.435	3.72
287.813	4.06
288.19	3.38
288.567	3.56
288.945	3.42
289.322	3.73
289.699	4.06
290.076	4
290.453	3.68
290.83	3.15
291.207	3.14
291.584	3.54
291.961	3.71
292.338	4.1
292.715	4.1
293.092	3.69
293.469	3.55
293.845	3.46
294.222	3.78
294.599	3.7
294.975	4.27
295.352	3.57
295.728	3.81
296.105	4.08
296.481	4.11
296.858	4.04
297.234	3.72
297.61	3.86
297.986	3.64
298.363	3.45
298.739	3.72
299.115	4.08
299.491	3.68
299.867	3.97
300.243	3.6
300.619	3.74
300.995	3.65
301.371	3.9
301.746	4.04
302.122	3.93
302.498	3.34
302.874	3.11
303.249	3.47
303.625	3.18
304	3.55
304.376	4.04
304.751	3.83
305.127	3.55
305.502	4.43
305.878	4.04
306.253	4.02
306.628	3.51
307.003	3.55
307.378	3.5
307.754	3.34
308.129	3.99
308.504	4.14
308.879	3.85
309.254	4.06
309.629	3.79
310.003	3.59
310.378	3.75
310.753	3.61
311.128	3.9
311.502	3.51
311.877	3.38
312.252	3.48
312.626	3.7
313.001	3.84
313.375	4.01
313.75	3.73
314.124	3.95
314.498	3.75
314.873	3.53
315.247	3.49
315.621	3.88
315.995	3.92
316.369	3.58
316.743	3.58
317.117	4.04
317.491	4.05
317.865	3.5
318.239	3.49
318.613	4.14
318.987	3.54
319.361	3.34
319.734	3.79
320.108	4.23
320.482	3.52
320.855	3.78
321.229	4.19
321.602	4.16
321.976	3.8
322.349	3.77
322.723	3.58
323.096	3.85
323.469	2.88
323.843	3.5
324.216	3.95
324.589	3.67
324.962	3.34
325.335	3.5
325.708	3.49
326.081	3.77
326.454	3.17
326.827	3.65
327.2	3.41
327.573	3.6
327.945	4.02
328.318	3.58
328.691	3.77
329.063	3.74
329.436	3.7
329.809	4.17
330.181	3.78
330.553	3.54
330.926	3.62
331.298	4.07
331.671	3.7
332.043	3.14
332.415	3.45
332.787	3.86
333.159	3.9
333.532	3.22
333.904	3.32
334.276	3.56
334.648	2.95
335.02	3.32
335.391	2.96
335.763	3.52
336.135	4.04
336.507	3.93
336.879	3.12
337.25	3.77
337.622	4.04
337.993	3.97
338.365	3.6
338.736	4.01
339.108	3.97
339.479	3.66
339.851	3.2
340.222	3.63
340.593	3.41
340.964	3.22
341.336	3.69
341.707	3.68
342.078	3.69
342.449	3.66
342.82	3.41
343.191	3.31
343.562	3.54
343.933	3.47
344.303	3.48
344.674	3.9
345.045	3.82
345.416	3.72
345.786	3.51
346.157	3.7
346.527	3.53
346.898	3.28
347.268	3.85
347.639	3.62
348.009	3.48
348.38	3.91
348.75	3.96
349.12	3.46
349.49	3.92
349.861	3.58
350.231	3.35
350.601	3.55
350.971	3.59
351.341	3.63
351.711	3.53
352.081	3.21
352.45	2.93
352.82	3.16
353.19	3.35
353.56	3.22
353.929	3.64
354.299	3.95
354.669	3.17
355.038	3.16
355.408	3.47
355.777	3.82
356.147	3.85
356.516	3.77
356.885	3.57
357.254	4.05
357.624	3.31
357.993	3.59
358.362	3.42
358.731	3.51
359.1	3.08
359.469	3.26
359.838	3.36
360.207	3.49
360.576	3.52
360.945	3.57
361.314	3.66
361.682	3.47
362.051	3.73
362.42	3.16
362.788	3.25
363.157	3.66
363.525	3.55
363.894	3.42
364.262	3.23
364.631	3.38
364.999	3.19
365.367	3.62
365.735	3.54
366.104	3.24
366.472	3.77
366.84	3.52
367.208	3.72
367.576	3.57
367.944	3.32
368.312	3.89
368.68	3.54
369.048	3.91
369.416	3.75
369.783	3.19
370.151	3.54
370.519	3.7
370.886	3.13
371.254	4.17
371.621	3.68
371.989	3.66
372.356	3.37
372.724	3.55
373.091	3.6
373.458	3.75
373.826	3.94
374.193	3.74
374.56	3.57
374.927	3.64
375.294	3.42
375.661	3.46
376.028	3.58
376.395	3.8
376.762	3.2
377.129	3.52
377.496	3.78
377.863	3.69
378.229	3.65
378.596	3.66
378.963	3.76
379.329	3.49
379.696	3.55
380.062	3.23
380.429	3.5
380.795	3.56
381.161	3.62
381.528	3.36
381.894	3.19
382.26	3.58
382.626	3.64
382.993	3.65
383.359	3.54
383.725	3.17
384.091	3.33
384.457	3.27
384.823	3.54
385.188	3.54
385.554	3.68
385.92	3.97
386.286	3.51
386.651	3.37
387.017	3.76
387.383	3.64
387.748	3.58
388.114	3.55
388.479	3.77
388.845	3.38
389.21	3.34
389.575	3.62
389.94	3.55
390.306	3.57
390.671	3.72
391.036	3.31
391.401	3.37
391.766	3.45
392.131	3.5
392.496	3.69
392.861	3.69
393.226	3.6
393.591	3.53
393.956	3.65
394.32	3.49
394.685	3.48
395.05	3.82
395.414	3.75
395.779	3.46
396.143	3.62
396.508	3.66
396.872	3.39
397.236	3.69
397.601	3.39
397.965	3.66
398.329	3.82
398.694	3.55
399.058	3.61
399.422	3.69
399.786	3.59
400.15	3.8
400.514	3.6
400.878	3.76
401.242	3.67
401.605	3.55
401.969	3.25
402.333	3.85
402.697	3.83
403.06	3.63
403.424	3.72
403.787	3.64
404.151	3.71
404.514	3.7
404.878	3.74
405.241	3.67
405.604	3.72
405.968	3.74
406.331	3.64
406.694	3.75
407.057	3.45
407.42	3.6
407.783	3.51
408.146	3.7
408.509	3.55
408.872	3.5
409.235	3.65
409.598	3.64
409.961	3.79
410.323	3.64
410.686	3.83
411.049	3.79
411.411	3.74
411.774	3.7
412.136	3.67
412.499	3.58
412.861	3.7
413.223	3.74
413.586	3.6
413.948	3.73
414.31	3.64
414.672	3.71
415.035	3.42
415.397	3.9
415.759	4.17
416.121	3.51
416.483	3.8
416.845	3.51
417.206	3.6
417.568	3.57
417.93	3.83
418.292	3.73
418.653	3.44
419.015	3.67
419.377	3.57
419.738	3.75
420.1	3.42
420.461	3.69
420.822	3.56
421.184	3.62
421.545	3.62
421.906	3.59
422.267	3.66
422.629	3.63
422.99	3.53
423.351	3.51
423.712	3.5
424.073	3.54
424.434	3.57
424.795	3.58
425.155	3.6
425.516	3.58
425.877	3.53
426.238	3.47
426.598	3.54
426.959	3.6
427.32	3.69
427.68	3.67
428.041	3.49
428.401	3.61
428.761	3.64
429.122	3.59
429.482	3.68
429.842	3.7
430.202	3.62
430.563	3.66
430.923	3.85
431.283	3.8
431.643	3.79
432.003	3.85
432.363	3.75
432.722	3.66
433.082	3.77
433.442	3.67
433.802	3.82
434.161	3.72
434.521	3.79
434.881	3.84
435.24	3.64
435.6	3.48
435.959	3.56
436.319	3.73
436.678	3.87
437.037	3.87
437.396	3.7
437.756	3.78
438.115	3.74
438.474	3.7
438.833	3.85
439.192	3.68
439.551	3.58
439.91	3.77
440.269	3.79
440.628	3.67
440.987	3.74
441.345	3.81
441.704	3.69
442.063	3.74
442.421	3.73
442.78	3.82
443.138	3.65
443.497	3.54
443.855	3.73
444.214	3.56
444.572	3.83
444.93	3.79
445.288	3.79
445.647	3.74
446.005	3.72
446.363	3.64
446.721	3.74
447.079	3.6
447.437	3.73
447.795	3.76
448.153	3.73
448.51	3.72
448.868	3.72
449.226	3.8
449.584	3.71
449.941	3.62
450.299	3.76
450.656	3.76
451.014	3.8
451.371	3.84
451.729	3.8
452.086	3.61
452.443	3.79
452.801	3.78
453.158	3.72
453.515	3.81
453.872	3.71
454.229	3.74
454.586	3.86
454.943	3.83
455.3	3.84
455.657	3.71
456.014	3.84
456.371	3.85
456.727	3.9
457.084	3.75
457.441	3.92
457.797	3.83
458.154	3.79
458.51	3.75
458.867	3.68
459.223	3.85
459.58	3.98
459.936	3.99
460.292	3.99
460.648	3.84
461.005	3.96
461.361	3.93
461.717	3.67
462.073	3.78
462.429	3.67
462.785	3.74
463.141	3.82
463.496	3.89
463.852	3.79
464.208	3.8
464.564	3.9
464.919	3.8
465.275	3.93
465.631	3.92
465.986	3.83
466.342	3.78
466.697	3.94
467.052	3.82
467.408	4.06
467.763	3.9
468.118	4.06
468.473	4.01
468.829	3.9
469.184	3.91
469.539	4
469.894	3.96
470.249	4.08
470.603	3.91
470.958	3.93
471.313	4.05
471.668	4.01
472.023	4.07
472.377	4.01
472.732	3.95
473.086	4.19
473.441	3.75
473.795	4.25
474.15	3.85
474.504	4
474.859	4.08
475.213	3.81
475.567	3.78
475.921	3.89
476.275	3.95
476.63	4.02
476.984	3.87
477.338	4.21
477.692	3.9
478.045	4.1
478.399	4.08
478.753	4.01
479.107	4.09
479.461	3.94
479.814	4.1
480.168	3.99
480.521	4.02
480.875	4.13
481.228	3.98
481.582	3.93
481.935	3.99
482.289	3.95
482.642	4.02
482.995	4.06
483.348	4.07
483.701	3.93
484.055	3.92
484.408	4.01
484.761	3.94
485.114	3.79
485.466	3.79
485.819	3.72
486.172	3.73
486.525	3.75
486.878	3.76
487.23	3.78
487.583	3.84
487.936	3.86
488.288	3.89
488.641	3.89
488.993	3.82
489.345	3.82
489.698	3.87
490.05	3.82
490.402	3.84
490.754	3.84
491.107	3.86
491.459	3.91
491.811	3.92
492.163	3.9
492.515	3.94
492.866	4.07
493.218	4.02
493.57	4.03
493.922	3.86
494.274	3.9
494.625	3.92
494.977	3.97
495.328	4.1
495.68	3.94
496.031	4.06
496.383	4.04
496.734	4.15
497.086	4
497.437	4.19
497.788	4.12
498.139	4.21
498.49	4.24
498.842	4.11
499.193	3.99
499.544	4.25
499.894	4.08
500.245	4.18
500.596	4.15
500.947	4.25
501.298	4.18
501.648	4.25
501.999	4.26
502.35	4.2
502.7	4.26
503.051	4.35
503.401	4.2
503.752	4.3
504.102	4.24
504.452	4.27
504.803	4.19
505.153	4.35
505.503	4.19
505.853	4.3
506.203	4.25
506.553	4.31
506.903	4.24
507.253	4.27
507.603	4.34
507.953	4.4
508.303	4.32
508.652	4.17
509.002	4.37
509.352	4.25
509.701	4.29
510.051	4.32
510.4	4.33
510.75	4.41
511.099	4.29
511.449	4.36
511.798	4.43
512.147	4.33
512.496	4.33
512.846	4.29
513.195	4.39
513.544	4.34
513.893	4.43
514.242	4.32
514.591	4.22
514.939	4.28
515.288	4.29
515.637	4.35
515.986	4.32
516.334	4.41
516.683	4.41
517.032	4.38
517.38	4.41
517.729	4.43
518.077	4.4
518.426	4.47
518.774	4.45
519.122	4.5
519.47	4.47
519.819	4.54
520.167	4.54
520.515	4.46
520.863	4.38
521.211	4.39
521.559	4.46
521.907	4.5
522.255	4.46
522.602	4.52
522.95	4.45
523.298	4.66
523.645	4.49
523.993	4.53
524.341	4.32
524.688	4.47
525.036	4.53
525.383	4.48
525.73	4.62
526.078	4.49
526.425	4.56
526.772	4.58
527.119	4.52
527.466	4.56
527.814	4.45
528.161	4.46
528.508	4.56
528.854	4.53
529.201	4.62
529.548	4.57
529.895	4.45
530.242	4.48
530.588	4.43
530.935	4.36
531.282	4.41
531.628	4.47
531.975	4.44
532.321	4.51
532.667	4.56
533.014	4.61
533.36	4.67
533.706	4.73
534.052	4.73
534.399	4.72
534.745	4.69
535.091	4.57
535.437	4.56
535.783	4.56
536.129	4.64
536.474	4.69
536.82	4.65
537.166	4.8
537.512	4.78
537.857	4.74
538.203	4.84
538.549	4.74
538.894	4.67
539.239	4.74
539.585	4.68
539.93	4.89
540.276	4.95
540.621	4.9
540.966	4.9
541.311	4.92
541.656	4.88
542.001	5
542.346	4.84
542.691	5.01
543.036	4.91
543.381	4.74
543.726	4.77
544.071	4.8
544.415	4.79
544.76	4.74
545.105	4.82
545.449	4.86
545.794	4.95
546.138	5.04
546.483	5.01
546.827	4.98
547.171	5.14
547.516	5.18
547.86	5.13
548.204	5.07
548.548	5.15
548.892	5.17
549.236	5.06
549.58	5.09
549.924	5.16
550.268	5.19
550.612	5.2
550.956	5.28
551.3	5.35
551.643	5.36
551.987	5.35
552.33	5.46
552.674	5.39
553.017	5.31
553.361	5.3
553.704	5.51
554.048	5.44
554.391	5.39
554.734	5.49
555.077	5.34
555.42	5.37
555.764	5.36
556.107	5.47
556.45	5.6
556.793	5.53
557.135	5.56
557.478	5.42
557.821	5.57
558.164	5.6
558.507	5.8
558.849	5.57
559.192	5.72
559.534	5.83
559.877	5.8
560.219	5.63
560.562	5.73
560.904	5.8
561.246	5.86
561.589	5.89
561.931	5.74
562.273	5.69
562.615	5.68
562.957	5.92
563.299	5.94
563.641	5.83
563.983	5.85
564.325	5.92
564.667	5.93
565.008	5.83
565.35	5.98
565.692	5.98
566.033	6.07
566.375	5.93
566.716	6.05
567.058	5.84
567.399	6.06
567.741	6.24
568.082	5.86
568.423	5.91
568.764	6.15
569.105	5.92
569.447	6.08
569.788	5.95
570.129	6.15
570.47	6.26
570.811	6.29
571.151	6.2
571.492	6.11
571.833	6.09
572.174	6.12
572.514	6.28
572.855	6.28
573.195	6.09
573.536	6.28
573.876	6.16
574.217	6.23
574.557	6.21
574.898	6.41
575.238	6.28
575.578	6.55
575.918	6.39
576.258	6.26
576.598	6.57
576.938	6.62
577.278	6.62
577.618	6.26
577.958	6.57
578.298	6.77
578.638	6.47
578.977	6.56
579.317	6.52
579.657	6.79
579.996	6.69
580.336	6.77
580.675	6.76
581.014	6.57
581.354	6.71
581.693	6.9
582.032	6.91
582.372	6.9
582.711	6.77
583.05	6.91
583.389	6.82
583.728	7.04
584.067	7.11
584.406	6.87
584.745	6.83
585.083	7.31
585.422	7.08
585.761	7.22
586.1	7.13
586.438	7.19
586.777	7.07
587.115	7.2
587.454	6.97
587.792	7.21
588.13	7.18
588.469	7.04
588.807	7.34
589.145	7.6
589.483	7.42
589.821	7.36
590.159	7.41
590.497	7.73
590.835	7.6
591.173	7.37
591.511	7.49
591.849	7.57
592.187	7.5
592.524	7.51
592.862	7.61
593.2	7.57
593.537	7.5
593.875	7.7
594.212	7.88
594.55	7.91
594.887	7.68
595.224	7.89
595.561	7.9
595.899	8.06
596.236	8.04
596.573	8.12
596.91	7.82
597.247	7.75
597.584	8
597.921	8.1
598.258	8.09
598.594	8.08
598.931	7.86
599.268	7.89
599.604	8.09
599.941	7.96
600.277	7.79
600.614	8.1
600.95	8.14
601.287	8.02
601.623	8.16
601.959	8.14
602.296	8.23
602.632	8.21
602.968	8.25
603.304	8.47
603.64	8.28
603.976	8.39
604.312	8.49
604.648	8.41
604.984	8.32
605.319	8.36
605.655	8.3
605.991	8.59
606.326	8.6
606.662	8.45
606.998	8.42
607.333	8.45
607.668	8.43
608.004	8.78
608.339	8.54
608.674	8.71
609.01	8.6
609.345	8.76
609.68	8.85
610.015	8.86
610.35	8.88
610.685	8.71
611.02	8.93
611.355	8.91
611.689	8.85
612.024	8.85
612.359	9.05
612.694	9.06
613.028	8.95
613.363	8.9
613.697	9.05
614.032	9.14
614.366	9.01
614.7	8.99
615.035	8.98
615.369	9.4
615.703	9.13
616.037	9.31
616.371	9.43
616.705	9.68
617.039	9.37
617.373	9.28
617.707	9.2
618.041	9.53
618.375	9.46
618.709	9.17
619.042	9.59
619.376	9.75
619.71	9.56
620.043	9.37
620.377	9.28
620.71	9.62
621.043	10.02
621.377	9.35
621.71	10.01
622.043	10
622.376	10.01
622.709	10.06
623.043	10.08
623.376	9.87
623.709	10.31
624.041	9.88
624.374	10.16
624.707	10.4
625.04	10.07
625.373	9.46
625.705	10.48
626.038	10.04
626.37	10.36
626.703	10.08
627.035	10.19
627.368	10.22
627.7	10.51
628.032	10.38
628.365	10.58
628.697	10.39
629.029	10.55
629.361	10.49
629.693	10.25
630.025	10.29
630.357	10.37
630.689	10.59
631.021	10.46
631.353	10.46
631.684	10.4
632.016	10.88
632.348	10.76
632.679	10.56
633.011	10.62
633.342	10.74
633.674	10.91
634.005	10.55
634.336	11.02
634.668	11.15
634.999	11.06
635.33	11.07
635.661	10.63
635.992	11.36
636.323	10.98
636.654	10.83
636.985	10.79
637.316	11.18
637.647	10.98
637.977	10.78
638.308	11.56
638.639	11
638.969	11.43
639.3	11.38
639.63	11.39
639.961	10.79
640.291	11.28
640.622	11.4
640.952	11.52
641.282	11.38
641.612	11.18
641.943	11.85
642.273	11.36
642.603	11.47
642.933	11.3
643.263	11.23
643.592	12.01
643.922	11.75
644.252	11.24
644.582	12.14
644.911	11.9
645.241	11.81
645.571	11.66
645.9	12.18
646.23	12.11
646.559	12.2
646.888	11.99
647.218	12.58
647.547	11.67
647.876	11.44
648.205	12.14
648.534	12.25
648.863	11.92
649.192	12.03
649.521	12.41
649.85	12.83
650.179	12.38
650.508	12.04
650.837	12.4
651.165	12.22
651.494	12.27
651.822	12.62
652.151	12.32
652.479	12.6
652.808	12.67
653.136	13
653.465	12.97
653.793	12.53
654.121	12.64
654.449	12.32
654.777	12.87
655.105	12.97
655.433	12.88
655.761	13.11
656.089	12.95
656.417	13.12
656.745	13.35
657.073	12.98
657.4	13.63
657.728	13.44
658.056	13.18
658.383	13.38
658.711	12.52
659.038	13.14
659.365	13.35
659.693	13.58
660.02	13.3
660.347	13.58
660.674	12.9
661.001	13.07
661.329	13.07
661.656	13.43
661.982	13.33
662.309	13.34
662.636	13.25
662.963	13.48
663.29	13.4
663.616	13.41
663.943	13.51
664.27	13.54
664.596	13.66
664.923	13.41
665.249	13.43
665.576	13.17
665.902	13.8
666.228	13.69
666.554	14.03
666.881	13.64
667.207	14.42
667.533	14.08
667.859	14.33
668.185	14.38
668.511	14.21
668.837	13.42
669.162	14.32
669.488	14.35
669.814	14.11
670.139	14.45
670.465	14.56
670.791	14.53
671.116	13.96
671.442	15.18
671.767	14.03
672.092	14.87
672.418	15.48
672.743	14.39
673.068	14.78
673.393	14.36
673.718	15.03
674.043	14.92
674.368	15.23
674.693	14.34
675.018	14.96
675.343	14.38
675.667	14.3
675.992	15.04
676.317	14.92
676.641	15.62
676.966	15.43
677.29	14.71
677.615	15.6
677.939	15.58
678.264	15.02
678.588	15.93
678.912	15.52
679.236	15.76
679.56	15.52
679.885	15.05
680.209	15.99
680.532	14.72
680.856	15.12
681.18	16.03
681.504	15.01
681.828	15.39
682.152	15.61
682.475	16.73
682.799	15.53
683.122	15.6
683.446	15.88
683.769	15.58
684.093	15.62
684.416	16.01
684.739	14.9
685.062	16.56
685.386	15.48
685.709	15.86
686.032	15.81
686.355	16.64
686.678	16.08
687.001	16.35
687.324	16.24
687.646	16.5
687.969	16.4
688.292	16.46
