Data from 0099_chest_Reflection__2__174.txt Node

Date: Fri Sep 22 22:16:54 CDT 2023
User: ToomeyLab
Spectrometer: FLMS14357
Trigger mode: 0
Integration Time (sec): 1.000000E-2
Scans to average: 100
Electric dark correction enabled: true
Nonlinearity correction enabled: false
Boxcar width: 0
XAxis mode: Wavelengths
Number of Pixels in Spectrum: 2048
>>>>>Begin Spectral Data<<<<<
189.047	45.59
189.435	45.59
189.823	45.59
190.211	73.76
190.599	60.69
190.987	196.5
191.375	503.05
191.763	9.49
192.151	151.17
192.538	308.51
192.926	61.31
193.314	96.28
193.702	114
194.089	77.8
194.477	0.31
194.864	-138.9
195.252	154.44
195.639	100.81
196.027	113.01
196.414	9.81
196.801	160.01
197.189	511.75
197.576	221.78
197.963	-51.55
198.351	16.03
198.738	48.41
199.125	-41.82
199.512	-18.26
199.899	50.65
200.286	23.45
200.673	35.23
201.06	45.13
201.447	84.91
201.833	-36.99
202.22	9.54
202.607	47.18
202.994	65.93
203.38	58.6
203.767	23.75
204.154	41.35
204.54	43.14
204.927	-17.11
205.313	44.12
205.699	41.73
206.086	61.83
206.472	51.85
206.858	56.88
207.245	61.4
207.631	54.4
208.017	11.16
208.403	30.6
208.789	38.96
209.175	37.06
209.561	7.88
209.947	41.35
210.333	19.95
210.719	41.78
211.105	99.04
211.491	18.28
211.876	40.84
212.262	15.16
212.648	22.11
213.034	40.45
213.419	29.83
213.805	53.38
214.19	11.67
214.576	34.64
214.961	-1.26
215.346	6.52
215.732	40.3
216.117	0.77
216.502	47.19
216.888	31.26
217.273	54.84
217.658	28.68
218.043	17.88
218.428	58.92
218.813	-5.27
219.198	23.11
219.583	19.42
219.968	3.39
220.353	33.39
220.738	17.91
221.122	6.92
221.507	24.56
221.892	14.8
222.276	1.19
222.661	17.28
223.046	24.98
223.43	27.21
223.815	13.8
224.199	9.76
224.583	17.76
224.968	22.76
225.352	0.49
225.736	25.88
226.121	23.15
226.505	15.75
226.889	13.81
227.273	4.55
227.657	7.14
228.041	5.93
228.425	13.63
228.809	6.64
229.193	8.15
229.577	9.95
229.961	8.81
230.344	7.82
230.728	5.18
231.112	7.04
231.495	5.53
231.879	5.45
232.263	5.47
232.646	5.36
233.03	5.5
233.413	6.31
233.797	6.82
234.18	6.72
234.563	8.02
234.946	6.22
235.33	4.71
235.713	6.69
236.096	5.38
236.479	5.32
236.862	7.39
237.245	5.88
237.628	6.76
238.011	7.73
238.394	6.1
238.777	7.34
239.16	7.57
239.543	8.85
239.925	7.65
240.308	6.59
240.691	7.56
241.073	7.33
241.456	6.49
241.838	5.36
242.221	4.25
242.603	5.36
242.986	5.5
243.368	5.66
243.75	5.93
244.133	5.98
244.515	5.56
244.897	5.22
245.279	5.47
245.661	5.71
246.043	5.4
246.425	6
246.807	5.68
247.189	4.42
247.571	6.33
247.953	6.06
248.335	5.92
248.717	5.8
249.098	5.69
249.48	5.32
249.862	5.35
250.243	5.3
250.625	5.7
251.006	5.27
251.388	5.38
251.769	5.79
252.151	5.2
252.532	5.95
252.913	6.46
253.295	6.18
253.676	5.67
254.057	5.79
254.438	5.36
254.819	4.91
255.2	5.96
255.581	4.94
255.962	5.27
256.343	5.7
256.724	4.64
257.105	6.59
257.486	6.47
257.867	5.99
258.247	6
258.628	5.75
259.009	5.04
259.389	5.84
259.77	5.57
260.15	5.74
260.531	5.11
260.911	5.08
261.292	5.4
261.672	4.75
262.052	4.92
262.432	5.07
262.813	5.04
263.193	4.7
263.573	5.48
263.953	5.19
264.333	5.07
264.713	5.51
265.093	5.65
265.473	5.94
265.853	5.13
266.233	5.34
266.612	4.63
266.992	5.73
267.372	5.1
267.752	5.72
268.131	4.51
268.511	4.89
268.89	5.34
269.27	5.2
269.649	4.89
270.029	5.1
270.408	5.48
270.787	5.14
271.167	4.67
271.546	4.86
271.925	5.05
272.304	4.51
272.683	5.15
273.062	5.38
273.441	5.17
273.82	5.22
274.199	4.99
274.578	5.17
274.957	4.97
275.336	5.24
275.715	5.2
276.093	4.91
276.472	4.92
276.851	5.64
277.229	4.73
277.608	5.26
277.986	4.99
278.365	4.67
278.743	5
279.122	5.48
279.5	4.9
279.878	4.85
280.257	5.25
280.635	5
281.013	5.6
281.391	4.33
281.769	4.99
282.147	4.91
282.525	4.93
282.903	5.74
283.281	4.86
283.659	5.09
284.037	4.75
284.415	4.83
284.792	4.55
285.17	5.29
285.548	5.68
285.925	4.97
286.303	4.51
286.68	4.61
287.058	4.87
287.435	4.85
287.813	4.72
288.19	4.55
288.567	5.28
288.945	4.88
289.322	5.12
289.699	4.79
290.076	4.61
290.453	4.29
290.83	4.58
291.207	4.63
291.584	4.46
291.961	4.29
292.338	5.25
292.715	5.18
293.092	4.89
293.469	4.77
293.845	4.69
294.222	4.2
294.599	5.18
294.975	5.64
295.352	5.4
295.728	5.15
296.105	5.42
296.481	5.1
296.858	5.5
297.234	5.08
297.61	4.9
297.986	5.32
298.363	5.17
298.739	5.21
299.115	5.11
299.491	5.22
299.867	5.06
300.243	4.91
300.619	5.02
300.995	5.16
301.371	5.44
301.746	4.81
302.122	4.99
302.498	4.73
302.874	4.73
303.249	4.73
303.625	4.84
304	5.52
304.376	5.4
304.751	4.93
305.127	5.2
305.502	5.49
305.878	5.36
306.253	5.54
306.628	5.3
307.003	5.28
307.378	4.82
307.754	5.29
308.129	5.25
308.504	4.84
308.879	4.9
309.254	5.06
309.629	4.68
310.003	5.99
310.378	5.68
310.753	4.89
311.128	4.86
311.502	5.31
311.877	4.77
312.252	4.95
312.626	5.02
313.001	5.32
313.375	5.31
313.75	5.59
314.124	5.45
314.498	4.79
314.873	5.08
315.247	5.44
315.621	5.34
315.995	5.33
316.369	4.72
316.743	5.12
317.117	5.18
317.491	5.62
317.865	4.83
318.239	5.35
318.613	5.69
318.987	5.42
319.361	4.95
319.734	4.62
320.108	5.57
320.482	5.09
320.855	5.14
321.229	5.57
321.602	5.66
321.976	5.23
322.349	5.33
322.723	5.31
323.096	4.93
323.469	4.67
323.843	5.29
324.216	5.05
324.589	5.07
324.962	5.03
325.335	5.36
325.708	5.38
326.081	5.77
326.454	4.43
326.827	4.78
327.2	5.23
327.573	5.82
327.945	4.96
328.318	5.61
328.691	5.38
329.063	5.02
329.436	5.66
329.809	5.31
330.181	5.34
330.553	5.54
330.926	4.98
331.298	5.34
331.671	5.69
332.043	4.71
332.415	4.97
332.787	5.14
333.159	4.84
333.532	4.73
333.904	5.07
334.276	4.62
334.648	5.54
335.02	5.09
335.391	5.54
335.763	5.97
336.135	5.1
336.507	5.56
336.879	4.94
337.25	5.48
337.622	5.29
337.993	5.45
338.365	5.09
338.736	5.54
339.108	4.94
339.479	4.51
339.851	4.82
340.222	4.79
340.593	4.83
340.964	4.72
341.336	4.87
341.707	5.34
342.078	5.18
342.449	5.32
342.82	5.02
343.191	5.07
343.562	5.17
343.933	5.19
344.303	5.13
344.674	5.56
345.045	5.26
345.416	5.37
345.786	4.77
346.157	5.09
346.527	5.09
346.898	4.93
347.268	4.95
347.639	4.97
348.009	5.05
348.38	5.14
348.75	5.57
349.12	5.08
349.49	5.51
349.861	5.16
350.231	5.1
350.601	5.05
350.971	5.26
351.341	5.1
351.711	4.8
352.081	5.05
352.45	5.09
352.82	5.2
353.19	5.43
353.56	5.47
353.929	5.47
354.299	5.23
354.669	5.13
355.038	4.82
355.408	4.75
355.777	5.43
356.147	5.05
356.516	5.4
356.885	4.78
357.254	5.47
357.624	4.82
357.993	4.94
358.362	4.82
358.731	4.77
359.1	4.99
359.469	5.02
359.838	5.04
360.207	4.85
360.576	4.91
360.945	4.95
361.314	4.94
361.682	4.89
362.051	5.2
362.42	5
362.788	4.94
363.157	5.2
363.525	5.07
363.894	4.86
364.262	4.83
364.631	4.93
364.999	4.83
365.367	5.16
365.735	4.83
366.104	4.8
366.472	5.28
366.84	5.22
367.208	5.28
367.576	5.19
367.944	5
368.312	5.43
368.68	5.05
369.048	5.32
369.416	5.19
369.783	4.96
370.151	4.74
370.519	5.38
370.886	5.07
371.254	5.43
371.621	5.37
371.989	5.04
372.356	5.02
372.724	5.47
373.091	5.06
373.458	5.25
373.826	5.17
374.193	5.07
374.56	5.43
374.927	5.44
375.294	5.36
375.661	4.64
376.028	5.12
376.395	5.45
376.762	5.21
377.129	5.38
377.496	5.05
377.863	5.16
378.229	5.31
378.596	5.12
378.963	5.63
379.329	4.97
379.696	5.61
380.062	4.7
380.429	5.25
380.795	5.38
381.161	5.43
381.528	5.15
381.894	5.02
382.26	5.11
382.626	5.34
382.993	5.44
383.359	5.23
383.725	5.39
384.091	5.38
384.457	5.35
384.823	5.15
385.188	5.26
385.554	5.11
385.92	5.6
386.286	5.12
386.651	5.18
387.017	5.29
387.383	5.28
387.748	5.21
388.114	5.19
388.479	5.38
388.845	4.85
389.21	4.7
389.575	5.53
389.94	5.12
390.306	5.4
390.671	5.71
391.036	5.11
391.401	5.28
391.766	5.11
392.131	5.26
392.496	5.14
392.861	5.21
393.226	5.45
393.591	5.28
393.956	5.49
394.32	5.24
394.685	5.09
395.05	5.6
395.414	5.32
395.779	5.17
396.143	5.29
396.508	5.3
396.872	5.31
397.236	5.43
397.601	5.27
397.965	5.44
398.329	5.19
398.694	5.51
399.058	5.22
399.422	5.29
399.786	5.43
400.15	5.41
400.514	5.34
400.878	5.42
401.242	5.46
401.605	5.14
401.969	5.05
402.333	5.6
402.697	5.24
403.06	5.31
403.424	5.38
403.787	5.56
404.151	5.3
404.514	5.59
404.878	5.4
405.241	5.45
405.604	5.43
405.968	5.44
406.331	5.45
406.694	5.38
407.057	5.38
407.42	5.38
407.783	5.33
408.146	5.38
408.509	5.35
408.872	5.12
409.235	5.36
409.598	5.09
409.961	5.54
410.323	5.49
410.686	5.51
411.049	5.54
411.411	5.42
411.774	5.39
412.136	5.37
412.499	5.67
412.861	5.38
413.223	5.4
413.586	5.31
413.948	5.58
414.31	5.2
414.672	5.32
415.035	5.54
415.397	5.6
415.759	5.63
416.121	5.51
416.483	5.44
416.845	5.49
417.206	5.36
417.568	5.44
417.93	5.3
418.292	5.39
418.653	5.2
419.015	5.39
419.377	5.3
419.738	5.48
420.1	5.25
420.461	5.33
420.822	5.35
421.184	5.33
421.545	5.27
421.906	5.27
422.267	5.28
422.629	5.33
422.99	5.28
423.351	5.27
423.712	5.21
424.073	5.36
424.434	5.37
424.795	5.42
425.155	5.4
425.516	5.39
425.877	5.39
426.238	5.27
426.598	5.34
426.959	5.34
427.32	5.3
427.68	5.23
428.041	5.35
428.401	5.47
428.761	5.48
429.122	5.37
429.482	5.45
429.842	5.54
430.202	5.4
430.563	5.68
430.923	5.56
431.283	5.7
431.643	5.62
432.003	5.67
432.363	5.78
432.722	5.48
433.082	5.64
433.442	5.55
433.802	5.6
434.161	5.47
434.521	5.6
434.881	5.48
435.24	5.39
435.6	5.3
435.959	5.35
436.319	5.52
436.678	5.58
437.037	5.42
437.396	5.58
437.756	5.51
438.115	5.58
438.474	5.58
438.833	5.66
439.192	5.54
439.551	5.43
439.91	5.71
440.269	5.62
440.628	5.51
440.987	5.44
441.345	5.54
441.704	5.61
442.063	5.58
442.421	5.53
442.78	5.61
443.138	5.53
443.497	5.59
443.855	5.62
444.214	5.49
444.572	5.76
444.93	5.7
445.288	5.63
445.647	5.71
446.005	5.58
446.363	5.51
446.721	5.6
447.079	5.64
447.437	5.64
447.795	5.77
448.153	5.56
448.51	5.58
448.868	5.53
449.226	5.52
449.584	5.5
449.941	5.51
450.299	5.65
450.656	5.66
451.014	5.73
451.371	5.7
451.729	5.74
452.086	5.78
452.443	5.79
452.801	5.75
453.158	5.7
453.515	5.81
453.872	5.82
454.229	5.79
454.586	5.73
454.943	5.79
455.3	5.77
455.657	5.58
456.014	5.8
456.371	5.97
456.727	6.07
457.084	5.77
457.441	5.72
457.797	5.82
458.154	5.89
458.51	5.67
458.867	5.8
459.223	5.87
459.58	5.88
459.936	6
460.292	6.02
460.648	5.94
461.005	5.77
461.361	5.82
461.717	5.61
462.073	5.82
462.429	5.63
462.785	5.69
463.141	5.63
463.496	5.84
463.852	5.89
464.208	5.83
464.564	5.98
464.919	5.72
465.275	5.99
465.631	5.98
465.986	5.9
466.342	6.06
466.697	5.99
467.052	5.97
467.408	6.05
467.763	5.94
468.118	6.03
468.473	6.01
468.829	6.03
469.184	6.05
469.539	5.89
469.894	5.95
470.249	5.82
470.603	5.91
470.958	6.07
471.313	6.01
471.668	5.95
472.023	5.99
472.377	5.9
472.732	5.93
473.086	6.09
473.441	5.85
473.795	6.26
474.15	6.04
474.504	6.08
474.859	6.14
475.213	5.77
475.567	5.94
475.921	6.16
476.275	6.1
476.63	6.04
476.984	6.08
477.338	6.11
477.692	6.16
478.045	6.31
478.399	6.09
478.753	6.14
479.107	6.06
479.461	6.01
479.814	6.16
480.168	6.01
480.521	6.2
480.875	6.23
481.228	6.26
481.582	6.05
481.935	6.07
482.289	6.04
482.642	6.09
482.995	6.22
483.348	6.1
483.701	6.11
484.055	6.07
484.408	6.04
484.761	6.11
485.114	5.95
485.466	5.89
485.819	5.81
486.172	5.71
486.525	5.72
486.878	5.72
487.23	5.82
487.583	5.91
487.936	5.94
488.288	6.02
488.641	6.03
488.993	5.94
489.345	5.91
489.698	5.9
490.05	5.86
490.402	5.88
490.754	5.92
491.107	5.92
491.459	6.05
491.811	6.1
492.163	6.08
492.515	6.15
492.866	6.13
493.218	6.18
493.57	6.15
493.922	6.05
494.274	6
494.625	5.99
494.977	6.14
495.328	6.25
495.68	6.25
496.031	6.24
496.383	6.42
496.734	6.33
497.086	6.33
497.437	6.44
497.788	6.5
498.139	6.46
498.49	6.49
498.842	6.25
499.193	6.27
499.544	6.38
499.894	6.36
500.245	6.49
500.596	6.46
500.947	6.53
501.298	6.54
501.648	6.49
501.999	6.48
502.35	6.58
502.7	6.56
503.051	6.41
503.401	6.5
503.752	6.66
504.102	6.52
504.452	6.65
504.803	6.62
505.153	6.59
505.503	6.55
505.853	6.64
506.203	6.55
506.553	6.72
506.903	6.7
507.253	6.62
507.603	6.76
507.953	6.8
508.303	6.73
508.652	6.62
509.002	6.83
509.352	6.62
509.701	6.71
510.051	6.73
510.4	6.77
510.75	6.65
511.099	6.64
511.449	6.7
511.798	6.71
512.147	6.72
512.496	6.77
512.846	6.8
513.195	6.85
513.544	6.8
513.893	6.9
514.242	6.71
514.591	6.82
514.939	6.86
515.288	6.72
515.637	6.94
515.986	6.84
516.334	6.93
516.683	6.93
517.032	7.07
517.38	7.05
517.729	6.87
518.077	7.07
518.426	7.04
518.774	7.1
519.122	6.98
519.47	6.99
519.819	6.98
520.167	7.04
520.515	6.93
520.863	6.86
521.211	6.9
521.559	6.88
521.907	7
522.255	7.04
522.602	7.05
522.95	7.04
523.298	7.25
523.645	7.26
523.993	7.13
524.341	7.16
524.688	7.35
525.036	7.16
525.383	7.23
525.73	7.34
526.078	7.24
526.425	7.32
526.772	7.37
527.119	7.2
527.466	7.2
527.814	7.16
528.161	7.21
528.508	7.18
528.854	7.18
529.201	7.27
529.548	7.3
529.895	7.17
530.242	7.17
530.588	7.11
530.935	7.01
531.282	6.98
531.628	7.12
531.975	7.06
532.321	7.14
532.667	7.29
533.014	7.36
533.36	7.41
533.706	7.36
534.052	7.51
534.399	7.5
534.745	7.48
535.091	7.35
535.437	7.33
535.783	7.35
536.129	7.36
536.474	7.48
536.82	7.39
537.166	7.53
537.512	7.63
537.857	7.56
538.203	7.72
538.549	7.61
538.894	7.57
539.239	7.64
539.585	7.66
539.93	7.82
540.276	7.76
540.621	7.77
540.966	7.94
541.311	7.94
541.656	7.87
542.001	7.75
542.346	7.93
542.691	8
543.036	7.87
543.381	7.69
543.726	7.65
544.071	7.75
544.415	7.82
544.76	7.8
545.105	7.77
545.449	7.83
545.794	8.01
546.138	8.05
546.483	7.97
546.827	8.03
547.171	8.09
547.516	8.22
547.86	8.21
548.204	8.26
548.548	8.28
548.892	8.24
549.236	8.13
549.58	8.32
549.924	8.36
550.268	8.4
550.612	8.44
550.956	8.44
551.3	8.55
551.643	8.53
551.987	8.47
552.33	8.8
552.674	8.54
553.017	8.47
553.361	8.56
553.704	8.83
554.048	8.81
554.391	8.77
554.734	8.79
555.077	8.73
555.42	8.75
555.764	8.77
556.107	8.96
556.45	8.85
556.793	8.96
557.135	8.91
557.478	8.78
557.821	9.04
558.164	9.2
558.507	9.24
558.849	9.03
559.192	9.18
559.534	9.21
559.877	9.19
560.219	9.17
560.562	9.3
560.904	9.37
561.246	9.4
561.589	9.43
561.931	9.44
562.273	9.22
562.615	9.46
562.957	9.43
563.299	9.4
563.641	9.48
563.983	9.39
564.325	9.67
564.667	9.61
565.008	9.51
565.35	9.57
565.692	9.76
566.033	9.73
566.375	9.74
566.716	9.59
567.058	9.78
567.399	9.71
567.741	9.91
568.082	9.84
568.423	9.86
568.764	10
569.105	9.8
569.447	9.83
569.788	9.73
570.129	10.02
570.47	9.95
570.811	9.98
571.151	10.23
571.492	10.08
571.833	10.15
572.174	10.08
572.514	10.1
572.855	10.21
573.195	10.09
573.536	10.1
573.876	10.24
574.217	10.21
574.557	10.38
574.898	10.28
575.238	10.41
575.578	10.39
575.918	10.3
576.258	10.39
576.598	10.59
576.938	10.51
577.278	10.67
577.618	10.33
577.958	10.49
578.298	10.73
578.638	10.54
578.977	10.71
579.317	10.89
579.657	10.73
579.996	10.9
580.336	10.85
580.675	10.85
581.014	10.97
581.354	11.04
581.693	11.26
582.032	11.29
582.372	11.15
582.711	11.06
583.05	11.27
583.389	11.2
583.728	11.46
584.067	11.57
584.406	11.31
584.745	11.11
585.083	11.53
585.422	11.58
585.761	11.39
586.1	11.52
586.438	11.54
586.777	11.74
587.115	11.74
587.454	11.48
587.792	11.85
588.13	11.66
588.469	11.64
588.807	11.87
589.145	11.98
589.483	11.8
589.821	11.88
590.159	11.81
590.497	12.11
590.835	12.07
591.173	11.94
591.511	11.97
591.849	12.29
592.187	12.21
592.524	12.52
592.862	12.32
593.2	12.07
593.537	12.3
593.875	12.29
594.212	12.48
594.55	12.73
594.887	12.49
595.224	12.52
595.561	12.86
595.899	12.63
596.236	12.79
596.573	12.65
596.91	12.72
597.247	12.66
597.584	12.73
597.921	12.95
598.258	12.87
598.594	12.88
598.931	12.9
599.268	12.91
599.604	12.99
599.941	13
600.277	12.74
600.614	13.01
600.95	13.07
601.287	13.01
601.623	13.25
601.959	13.4
602.296	13.41
602.632	13.28
602.968	13.58
603.304	13.39
603.64	13.42
603.976	13.64
604.312	13.58
604.648	13.46
604.984	13.56
605.319	13.39
605.655	13.37
605.991	13.7
606.326	13.69
606.662	13.44
606.998	13.65
607.333	13.66
607.668	13.58
608.004	13.91
608.339	13.77
608.674	14.05
609.01	13.97
609.345	14.1
609.68	14.35
610.015	14.01
610.35	14.2
610.685	14.44
611.02	14.22
611.355	14.24
611.689	14.21
612.024	14.04
612.359	14.15
612.694	14.15
613.028	14.29
613.363	14.27
613.697	14.42
614.032	14.6
614.366	14.62
614.7	14.62
615.035	14.75
615.369	14.47
615.703	14.6
616.037	14.95
616.371	15.05
616.705	15.34
617.039	15.18
617.373	15.06
617.707	14.73
618.041	15.16
618.375	15.09
618.709	15.43
619.042	15.38
619.376	15.55
619.71	15.29
620.043	14.92
620.377	15.27
620.71	15.41
621.043	15.58
621.377	15.22
621.71	15.4
622.043	15.77
622.376	15.95
622.709	15.67
623.043	15.56
623.376	15.83
623.709	16.24
624.041	15.79
624.374	16.09
624.707	16.12
625.04	16.17
625.373	15.49
625.705	15.96
626.038	15.92
626.37	16.2
626.703	16.22
627.035	15.99
627.368	16.08
627.7	16.24
628.032	16.24
628.365	16.47
628.697	16.55
629.029	16.37
629.361	16.53
629.693	16.13
630.025	16.3
630.357	16.34
630.689	16.39
631.021	16.33
631.353	16.67
631.684	16.42
632.016	16.91
632.348	16.81
632.679	16.6
633.011	16.69
633.342	17
633.674	17.27
634.005	17.02
634.336	16.87
634.668	17.38
634.999	16.92
635.33	17.01
635.661	17.08
635.992	17
636.323	16.75
636.654	17.16
636.985	17.05
637.316	16.98
637.647	17.42
637.977	16.87
638.308	18.03
638.639	17.38
638.969	17.52
639.3	17.42
639.63	17.78
639.961	17.46
640.291	17.75
640.622	17.66
640.952	17.74
641.282	17.82
641.612	17.7
641.943	17.95
642.273	18.04
642.603	17.73
642.933	17.76
643.263	17.52
643.592	18
643.922	18.32
644.252	18.27
644.582	18.43
644.911	18.13
645.241	18.35
645.571	18.16
645.9	18.27
646.23	18.83
646.559	18.45
646.888	18.3
647.218	18.58
647.547	18.16
647.876	18.57
648.205	18.43
648.534	18.97
648.863	18.6
649.192	18.62
649.521	18.8
649.85	19.03
650.179	18.88
650.508	18.7
650.837	18.94
651.165	19.24
651.494	19.17
651.822	19.07
652.151	19.2
652.479	19.45
652.808	19.43
653.136	19.53
653.465	19.47
653.793	18.93
654.121	19.48
654.449	19.1
654.777	19.03
655.105	19.42
655.433	19.52
655.761	20.06
656.089	19.76
656.417	19.5
656.745	19.45
657.073	19.49
657.4	20.11
657.728	19.5
658.056	19.46
658.383	20.17
658.711	19.8
659.038	19.59
659.365	20.25
659.693	19.72
660.02	20.31
660.347	20.57
660.674	19.87
661.001	19.71
661.329	19.91
661.656	19.89
661.982	19.7
662.309	20.38
662.636	20.07
662.963	20.38
663.29	19.98
663.616	20.54
663.943	20.6
664.27	20.24
664.596	20.41
664.923	20.62
665.249	20.31
665.576	20.52
665.902	20.64
666.228	21.01
666.554	20.35
666.881	21.22
667.207	20.62
667.533	20.69
667.859	20.66
668.185	21.04
668.511	21.25
668.837	20.63
669.162	21.47
669.488	21.18
669.814	21.58
670.139	21.47
670.465	21.56
670.791	21.24
671.116	20.8
671.442	21.71
671.767	21.01
672.092	21.59
672.418	21.64
672.743	21.52
673.068	21.84
673.393	21.31
673.718	21.95
674.043	21.23
674.368	21.65
674.693	21.58
675.018	21.85
675.343	22.07
675.667	21.86
675.992	21.79
676.317	21.97
676.641	22.12
676.966	22.36
677.29	21.82
677.615	22.18
677.939	23.03
678.264	22.23
678.588	22.51
678.912	22.55
679.236	22.55
679.56	23.15
679.885	22.73
680.209	22.67
680.532	21.76
680.856	22.56
681.18	22.61
681.504	22.75
681.828	22.82
682.152	22.59
682.475	22.89
682.799	22.93
683.122	22.58
683.446	22.78
683.769	23.03
684.093	22.56
684.416	22.86
684.739	22.7
685.062	23.4
685.386	22.43
