Data from 0099_chest_Reflection__0__172.txt Node

Date: Fri Sep 22 22:16:31 CDT 2023
User: ToomeyLab
Spectrometer: FLMS14357
Trigger mode: 0
Integration Time (sec): 1.000000E-2
Scans to average: 100
Electric dark correction enabled: true
Nonlinearity correction enabled: false
Boxcar width: 0
XAxis mode: Wavelengths
Number of Pixels in Spectrum: 2048
>>>>>Begin Spectral Data<<<<<
189.047	32.61
189.435	32.61
189.823	32.61
190.211	52.91
190.599	-4.94
190.987	86.1
191.375	206.1
191.763	-29.82
192.151	101.96
192.538	218.42
192.926	100.11
193.314	79.08
193.702	77.16
194.089	106.68
194.477	305.23
194.864	799.27
195.252	111
195.639	141.07
196.027	138.01
196.414	-41.76
196.801	-193.5
197.189	1331.93
197.576	113.52
197.963	56.05
198.351	31.91
198.738	12.95
199.125	38.14
199.512	10.55
199.899	19.46
200.286	23.42
200.673	54.43
201.06	30.43
201.447	54.35
201.833	5.18
202.22	64.84
202.607	51.84
202.994	22.24
203.38	28.87
203.767	-7.93
204.154	62.06
204.54	31.8
204.927	15.39
205.313	36.87
205.699	26.28
206.086	59.77
206.472	52.03
206.858	46.6
207.245	8.24
207.631	63.33
208.017	47.69
208.403	14.76
208.789	30.37
209.175	53.08
209.561	33.73
209.947	57.19
210.333	58.09
210.719	31.99
211.105	32.15
211.491	42.12
211.876	48.33
212.262	28.8
212.648	45.02
213.034	53.07
213.419	8.98
213.805	-3.75
214.19	18.71
214.576	26.96
214.961	19.27
215.346	28.28
215.732	11.29
216.117	22.38
216.502	50.41
216.888	23.22
217.273	15.48
217.658	13.68
218.043	11.7
218.428	42.5
218.813	-3.59
219.198	25.97
219.583	5.24
219.968	-3.62
220.353	42.55
220.738	23.11
221.122	32.3
221.507	11.75
221.892	6.28
222.276	19.95
222.661	-7.01
223.046	19.31
223.43	5.24
223.815	8.09
224.199	-8.03
224.583	9.02
224.968	13.82
225.352	3.3
225.736	15.57
226.121	20.27
226.505	13.67
226.889	13.52
227.273	8.48
227.657	10.73
228.041	11.32
228.425	13.54
228.809	8.67
229.193	11.1
229.577	9.51
229.961	8.84
230.344	7.46
230.728	5.72
231.112	6.71
231.495	6.19
231.879	6.86
232.263	6.24
232.646	5.06
233.03	7.05
233.413	6.64
233.797	7.12
234.18	6.69
234.563	9.19
234.946	7.48
235.33	6.63
235.713	3.86
236.096	6.04
236.479	5.53
236.862	6.84
237.245	5.31
237.628	8.51
238.011	8.11
238.394	7.31
238.777	7.08
239.16	6.41
239.543	6.67
239.925	6.91
240.308	7.63
240.691	6.32
241.073	7.54
241.456	6.68
241.838	5.9
242.221	6.41
242.603	6.52
242.986	5.78
243.368	5.37
243.75	5.85
244.133	6.8
244.515	5.81
244.897	5.63
245.279	5.94
245.661	5.29
246.043	6.32
246.425	5.88
246.807	6.49
247.189	5.55
247.571	6.6
247.953	6.8
248.335	5.28
248.717	5.93
249.098	5.62
249.48	5.22
249.862	5.08
250.243	5.63
250.625	5.87
251.006	5.76
251.388	6.08
251.769	5.9
252.151	5.4
252.532	6.22
252.913	6.42
253.295	7.59
253.676	5.53
254.057	5.27
254.438	5.78
254.819	5.01
255.2	5.38
255.581	4.9
255.962	6.14
256.343	5.69
256.724	4.01
257.105	6.08
257.486	4.6
257.867	6.29
258.247	5.29
258.628	5.08
259.009	6.04
259.389	5.01
259.77	6.36
260.15	5.38
260.531	5.38
260.911	5.3
261.292	5.34
261.672	4.89
262.052	5.06
262.432	5.22
262.813	5.34
263.193	4.89
263.573	5.77
263.953	5.47
264.333	5.04
264.713	4.96
265.093	5
265.473	5.52
265.853	5.24
266.233	6.04
266.612	4.77
266.992	6.1
267.372	5.29
267.752	5.5
268.131	5.12
268.511	4.58
268.89	5.24
269.27	4.63
269.649	5.27
270.029	5.2
270.408	5.23
270.787	5.39
271.167	4.84
271.546	4.82
271.925	5.08
272.304	4.75
272.683	5.23
273.062	5.48
273.441	5.01
273.82	5.14
274.199	5.04
274.578	5.53
274.957	5.04
275.336	4.91
275.715	5.47
276.093	4.66
276.472	4.86
276.851	4.77
277.229	5.34
277.608	5.39
277.986	4.88
278.365	5.82
278.743	4.61
279.122	5.19
279.5	5.6
279.878	4.49
280.257	5.45
280.635	4.7
281.013	6.62
281.391	4.83
281.769	4.69
282.147	5.44
282.525	5.21
282.903	4.97
283.281	4.74
283.659	4.91
284.037	4.77
284.415	5.26
284.792	5.04
285.17	5.17
285.548	5.3
285.925	4.95
286.303	4.92
286.68	4.24
287.058	4.63
287.435	4.87
287.813	4.88
288.19	4.41
288.567	4.83
288.945	4.68
289.322	4.9
289.699	5.12
290.076	4.99
290.453	5.22
290.83	4.83
291.207	4.94
291.584	4.6
291.961	4.69
292.338	4.79
292.715	4.89
293.092	5.01
293.469	4.69
293.845	4.72
294.222	4.76
294.599	4.96
294.975	5.44
295.352	5.2
295.728	4.73
296.105	4.74
296.481	4.74
296.858	4.7
297.234	4.87
297.61	4.84
297.986	5.08
298.363	4.15
298.739	4.95
299.115	4.57
299.491	4.6
299.867	4.67
300.243	4.56
300.619	4.32
300.995	4.31
301.371	5.04
301.746	5.11
302.122	5.03
302.498	4.59
302.874	4.72
303.249	4.47
303.625	4.81
304	5.15
304.376	4.67
304.751	4.68
305.127	4.49
305.502	4.93
305.878	4.76
306.253	5.04
306.628	4.64
307.003	5.05
307.378	4.62
307.754	4.63
308.129	4.88
308.504	5.03
308.879	4.87
309.254	4.61
309.629	5.29
310.003	4.77
310.378	5.2
310.753	4.26
311.128	4.48
311.502	4.83
311.877	4.08
312.252	5.01
312.626	4.6
313.001	5.12
313.375	4.85
313.75	5
314.124	4.79
314.498	4.03
314.873	4.35
315.247	4.89
315.621	4.76
315.995	4.62
316.369	4.7
316.743	4.55
317.117	4.96
317.491	5.41
317.865	4.2
318.239	4.87
318.613	5.27
318.987	4.06
319.361	4.54
319.734	4.39
320.108	5.22
320.482	4.59
320.855	4.04
321.229	5.04
321.602	4.97
321.976	4.33
322.349	4.56
322.723	4.97
323.096	5.26
323.469	4.99
323.843	4.12
324.216	4.45
324.589	4.5
324.962	4.18
325.335	4.82
325.708	4.86
326.081	5.06
326.454	4.4
326.827	4.75
327.2	4.78
327.573	5.12
327.945	4.37
328.318	5.05
328.691	4.57
329.063	4.58
329.436	4.23
329.809	4.94
330.181	4.21
330.553	4.41
330.926	4.71
331.298	4.64
331.671	4.36
332.043	4.49
332.415	4.6
332.787	5.18
333.159	4.31
333.532	4.17
333.904	4.4
334.276	4.36
334.648	4.52
335.02	4.9
335.391	4.87
335.763	4.84
336.135	4.27
336.507	4.96
336.879	4.32
337.25	4.39
337.622	4.69
337.993	4.49
338.365	4.46
338.736	4.36
339.108	4.58
339.479	4.49
339.851	4.31
340.222	4.57
340.593	4.44
340.964	4.17
341.336	4.34
341.707	4.62
342.078	4.76
342.449	4.28
342.82	4.06
343.191	4.27
343.562	4.26
343.933	4.64
344.303	4.6
344.674	4.38
345.045	4.68
345.416	4.88
345.786	4.22
346.157	4.23
346.527	4.41
346.898	4.24
347.268	4.22
347.639	4.43
348.009	4.12
348.38	4.53
348.75	4.57
349.12	4.34
349.49	4.78
349.861	4.21
350.231	4.69
350.601	4.34
350.971	4.8
351.341	4.19
351.711	4.43
352.081	4.29
352.45	4.43
352.82	4.81
353.19	5.08
353.56	4.2
353.929	4.37
354.299	4.63
354.669	4.43
355.038	4.25
355.408	4.02
355.777	4.46
356.147	4.27
356.516	4.67
356.885	4.47
357.254	4.93
357.624	4.18
357.993	4.2
358.362	4.41
358.731	4.32
359.1	4.5
359.469	4.42
359.838	4.16
360.207	4.3
360.576	4.54
360.945	4.37
361.314	4.58
361.682	4.34
362.051	4.47
362.42	4.25
362.788	3.95
363.157	4.66
363.525	4.56
363.894	4.29
364.262	4.16
364.631	4.25
364.999	4.06
365.367	4.61
365.735	4.49
366.104	4.45
366.472	4.36
366.84	4.35
367.208	4.63
367.576	4.58
367.944	4.22
368.312	4.46
368.68	4.42
369.048	4.32
369.416	4.31
369.783	4.2
370.151	4.18
370.519	4.43
370.886	4.42
371.254	4.59
371.621	4.29
371.989	4.37
372.356	4.1
372.724	4.47
373.091	4.55
373.458	4.59
373.826	3.92
374.193	4.75
374.56	4.59
374.927	4.43
375.294	4.37
375.661	4.38
376.028	4.78
376.395	4.48
376.762	4.44
377.129	4.81
377.496	4.91
377.863	4.51
378.229	4.52
378.596	4.39
378.963	4.59
379.329	4.58
379.696	4.92
380.062	4.31
380.429	4.55
380.795	4.25
381.161	4.49
381.528	4.36
381.894	4.18
382.26	4.47
382.626	4.83
382.993	4.48
383.359	4.18
383.725	4.3
384.091	4.77
384.457	4.47
384.823	4.28
385.188	4.59
385.554	4.52
385.92	4.54
386.286	4.8
386.651	4.28
387.017	4.55
387.383	4.33
387.748	4.34
388.114	4.15
388.479	4.56
388.845	4.45
389.21	4.07
389.575	4.54
389.94	4.49
390.306	4.44
390.671	4.9
391.036	4.37
391.401	4.51
391.766	4.25
392.131	4.44
392.496	4.61
392.861	4.39
393.226	4.61
393.591	4.52
393.956	4.47
394.32	4.37
394.685	4.55
395.05	4.51
395.414	4.51
395.779	4.95
396.143	4.43
396.508	4.57
396.872	4.38
397.236	4.64
397.601	4.39
397.965	4.83
398.329	4.62
398.694	4.37
399.058	4.59
399.422	4.37
399.786	4.81
400.15	4.69
400.514	4.63
400.878	4.71
401.242	4.54
401.605	4.37
401.969	4.2
402.333	4.73
402.697	4.38
403.06	4.36
403.424	4.53
403.787	4.54
404.151	4.53
404.514	4.56
404.878	4.53
405.241	4.83
405.604	4.54
405.968	4.58
406.331	4.54
406.694	4.61
407.057	4.32
407.42	4.53
407.783	4.39
408.146	4.57
408.509	4.49
408.872	4.49
409.235	4.6
409.598	4.25
409.961	4.94
410.323	4.7
410.686	4.86
411.049	4.53
411.411	4.53
411.774	4.51
412.136	4.41
412.499	4.38
412.861	4.49
413.223	4.63
413.586	4.52
413.948	4.53
414.31	4.48
414.672	4.66
415.035	4.64
415.397	4.81
415.759	4.74
416.121	4.49
416.483	4.4
416.845	4.32
417.206	4.53
417.568	4.64
417.93	4.64
418.292	4.59
418.653	4.43
419.015	4.49
419.377	4.47
419.738	4.58
420.1	4.43
420.461	4.62
420.822	4.43
421.184	4.38
421.545	4.52
421.906	4.38
422.267	4.38
422.629	4.51
422.99	4.42
423.351	4.29
423.712	4.35
424.073	4.42
424.434	4.44
424.795	4.42
425.155	4.53
425.516	4.46
425.877	4.46
426.238	4.37
426.598	4.37
426.959	4.42
427.32	4.47
427.68	4.43
428.041	4.46
428.401	4.61
428.761	4.62
429.122	4.48
429.482	4.54
429.842	4.54
430.202	4.33
430.563	4.62
430.923	4.69
431.283	4.79
431.643	4.59
432.003	4.63
432.363	4.84
432.722	4.71
433.082	4.61
433.442	4.64
433.802	4.78
434.161	4.51
434.521	4.66
434.881	4.67
435.24	4.5
435.6	4.44
435.959	4.4
436.319	4.51
436.678	4.64
437.037	4.5
437.396	4.42
437.756	4.53
438.115	4.62
438.474	4.48
438.833	4.73
439.192	4.63
439.551	4.66
439.91	4.74
440.269	4.74
440.628	4.55
440.987	4.53
441.345	4.68
441.704	4.62
442.063	4.56
442.421	4.47
442.78	4.63
443.138	4.63
443.497	4.6
443.855	4.62
444.214	4.45
444.572	4.76
444.93	4.69
445.288	4.59
445.647	4.78
446.005	4.65
446.363	4.49
446.721	4.69
447.079	4.43
447.437	4.56
447.795	4.67
448.153	4.57
448.51	4.68
448.868	4.49
449.226	4.56
449.584	4.54
449.941	4.57
450.299	4.66
450.656	4.62
451.014	4.77
451.371	4.67
451.729	4.78
452.086	4.79
452.443	4.67
452.801	4.75
453.158	4.79
453.515	4.69
453.872	4.67
454.229	4.79
454.586	4.75
454.943	4.61
455.3	4.74
455.657	4.63
456.014	4.61
456.371	4.85
456.727	4.93
457.084	4.86
457.441	4.69
457.797	4.76
458.154	4.77
458.51	4.64
458.867	4.72
459.223	4.77
459.58	4.76
459.936	4.85
460.292	4.72
460.648	4.9
461.005	4.79
461.361	4.76
461.717	4.62
462.073	4.65
462.429	4.54
462.785	4.65
463.141	4.7
463.496	4.76
463.852	4.74
464.208	4.73
464.564	4.78
464.919	4.73
465.275	4.98
465.631	4.88
465.986	4.87
466.342	5
466.697	4.96
467.052	4.75
467.408	4.96
467.763	4.86
468.118	5.02
468.473	4.72
468.829	4.9
469.184	4.92
469.539	4.88
469.894	4.9
470.249	4.81
470.603	4.74
470.958	4.97
471.313	4.79
471.668	4.92
472.023	4.92
472.377	4.91
472.732	4.89
473.086	5.09
473.441	4.61
473.795	5
474.15	4.81
474.504	4.73
474.859	4.95
475.213	4.74
475.567	4.73
475.921	4.81
476.275	5.03
476.63	4.66
476.984	4.79
477.338	5.07
477.692	4.92
478.045	4.92
478.399	4.89
478.753	4.87
479.107	4.94
479.461	4.87
479.814	4.98
480.168	4.96
480.521	5.01
480.875	4.93
481.228	5
481.582	4.89
481.935	4.96
482.289	4.97
482.642	4.87
482.995	4.92
483.348	4.96
483.701	4.85
484.055	4.97
484.408	4.83
484.761	4.88
485.114	4.74
485.466	4.73
485.819	4.63
486.172	4.65
486.525	4.58
486.878	4.57
487.23	4.65
487.583	4.73
487.936	4.86
488.288	4.79
488.641	4.79
488.993	4.79
489.345	4.75
489.698	4.69
490.05	4.72
490.402	4.73
490.754	4.69
491.107	4.73
491.459	4.82
491.811	4.85
492.163	4.94
492.515	4.93
492.866	4.88
493.218	4.93
493.57	4.88
493.922	4.76
494.274	4.81
494.625	4.85
494.977	4.9
495.328	4.96
495.68	5.06
496.031	4.94
496.383	5.1
496.734	5.09
497.086	5.08
497.437	5.19
497.788	5.02
498.139	5.15
498.49	5.21
498.842	4.98
499.193	5.01
499.544	5.08
499.894	5.08
500.245	5.15
500.596	5.08
500.947	5.15
501.298	5.12
501.648	5.14
501.999	5.2
502.35	5.17
502.7	5.27
503.051	5.09
503.401	5.26
503.752	5.26
504.102	5.22
504.452	5.19
504.803	5.17
505.153	5.22
505.503	5.17
505.853	5.26
506.203	5.16
506.553	5.29
506.903	5.17
507.253	5.22
507.603	5.26
507.953	5.38
508.303	5.33
508.652	5.21
509.002	5.23
509.352	5.29
509.701	5.28
510.051	5.34
510.4	5.35
510.75	5.2
511.099	5.15
511.449	5.34
511.798	5.37
512.147	5.27
512.496	5.16
512.846	5.28
513.195	5.31
513.544	5.34
513.893	5.37
514.242	5.24
514.591	5.4
514.939	5.38
515.288	5.22
515.637	5.31
515.986	5.3
516.334	5.31
516.683	5.48
517.032	5.53
517.38	5.37
517.729	5.43
518.077	5.42
518.426	5.37
518.774	5.5
519.122	5.42
519.47	5.47
519.819	5.36
520.167	5.46
520.515	5.38
520.863	5.32
521.211	5.36
521.559	5.47
521.907	5.41
522.255	5.36
522.602	5.48
522.95	5.44
523.298	5.62
523.645	5.57
523.993	5.47
524.341	5.56
524.688	5.55
525.036	5.54
525.383	5.57
525.73	5.55
526.078	5.55
526.425	5.51
526.772	5.67
527.119	5.56
527.466	5.42
527.814	5.47
528.161	5.45
528.508	5.5
528.854	5.51
529.201	5.52
529.548	5.51
529.895	5.45
530.242	5.37
530.588	5.36
530.935	5.31
531.282	5.38
531.628	5.39
531.975	5.39
532.321	5.47
532.667	5.52
533.014	5.55
533.36	5.57
533.706	5.65
534.052	5.82
534.399	5.69
534.745	5.68
535.091	5.63
535.437	5.57
535.783	5.57
536.129	5.62
536.474	5.65
536.82	5.6
537.166	5.72
537.512	5.75
537.857	5.83
538.203	5.88
538.549	5.75
538.894	5.76
539.239	5.78
539.585	5.86
539.93	5.9
540.276	5.84
540.621	5.92
540.966	5.94
541.311	6.04
541.656	6.05
542.001	6.05
542.346	5.93
542.691	6.01
543.036	5.91
543.381	5.83
543.726	5.8
544.071	5.79
544.415	5.78
544.76	5.8
545.105	5.86
545.449	5.94
545.794	6.02
546.138	6.12
546.483	6.15
546.827	6.09
547.171	6.13
547.516	6.29
547.86	6.24
548.204	6.19
548.548	6.21
548.892	6.21
549.236	6.06
549.58	6.22
549.924	6.36
550.268	6.32
550.612	6.28
550.956	6.32
551.3	6.35
551.643	6.41
551.987	6.43
552.33	6.62
552.674	6.48
553.017	6.36
553.361	6.54
553.704	6.77
554.048	6.51
554.391	6.67
554.734	6.66
555.077	6.48
555.42	6.53
555.764	6.57
556.107	6.68
556.45	6.66
556.793	6.49
557.135	6.82
557.478	6.52
557.821	6.85
558.164	6.76
558.507	6.86
558.849	6.59
559.192	6.89
559.534	7.03
559.877	6.89
560.219	6.94
560.562	6.92
560.904	7
561.246	7.1
561.589	7.02
561.931	6.7
562.273	6.89
562.615	6.99
562.957	6.83
563.299	7.13
563.641	7.07
563.983	7.11
564.325	7.1
564.667	7.32
565.008	7.17
565.35	7.16
565.692	7.16
566.033	7.15
566.375	7.26
566.716	7.13
567.058	7.15
567.399	7.32
567.741	7.35
568.082	7.02
568.423	7.38
568.764	7.56
569.105	7.25
569.447	7.45
569.788	7.26
570.129	7.43
570.47	7.48
570.811	7.38
571.151	7.55
571.492	7.42
571.833	7.44
572.174	7.52
572.514	7.6
572.855	7.51
573.195	7.54
573.536	7.6
573.876	7.52
574.217	7.53
574.557	7.61
574.898	7.78
575.238	7.56
575.578	7.77
575.918	7.81
576.258	7.67
576.598	7.79
576.938	7.78
577.278	7.96
577.618	7.68
577.958	8
578.298	8.13
578.638	7.9
578.977	8
579.317	8.02
579.657	8.02
579.996	8.1
580.336	8.25
580.675	8.13
581.014	8.01
581.354	8.04
581.693	8.35
582.032	8.2
582.372	8.37
582.711	8.38
583.05	8.34
583.389	8.4
583.728	8.4
584.067	8.54
584.406	8.49
584.745	8.17
585.083	8.61
585.422	8.67
585.761	8.55
586.1	8.64
586.438	8.72
586.777	8.63
587.115	8.72
587.454	8.54
587.792	8.73
588.13	8.96
588.469	8.86
588.807	8.92
589.145	8.76
589.483	8.99
589.821	8.66
590.159	9.02
590.497	9.15
590.835	9.06
591.173	8.88
591.511	9.2
591.849	9.18
592.187	9.1
592.524	9.26
592.862	9.13
593.2	9.11
593.537	9.13
593.875	9.15
594.212	9.31
594.55	9.28
594.887	9.37
595.224	9.52
595.561	9.51
595.899	9.71
596.236	9.61
596.573	9.55
596.91	9.65
597.247	9.79
597.584	9.63
597.921	9.63
598.258	9.54
598.594	9.73
598.931	9.5
599.268	9.4
599.604	9.84
599.941	9.73
600.277	9.57
600.614	9.65
600.95	9.84
601.287	9.92
601.623	9.56
601.959	9.96
602.296	9.93
602.632	9.92
602.968	10.16
603.304	10.1
603.64	9.97
603.976	10.37
604.312	10.07
604.648	10.05
604.984	10.3
605.319	10.2
605.655	10.07
605.991	10.17
606.326	10.36
606.662	10.09
606.998	10.19
607.333	10.3
607.668	10.3
608.004	10.43
608.339	10.38
608.674	10.66
609.01	10.56
609.345	10.6
609.68	10.57
610.015	10.59
610.35	11.06
610.685	10.92
611.02	10.68
611.355	11.13
611.689	10.74
612.024	10.99
612.359	10.81
612.694	10.69
613.028	10.78
613.363	10.9
613.697	10.72
614.032	10.97
614.366	11.2
614.7	11.07
615.035	11.26
615.369	11.18
615.703	11.14
616.037	11.38
616.371	11.31
616.705	11.79
617.039	11.7
617.373	11.34
617.707	11.49
618.041	11.27
618.375	11.36
618.709	11.62
619.042	11.77
619.376	11.76
619.71	11.9
620.043	11.51
620.377	11.45
620.71	11.78
621.043	12.38
621.377	11.82
621.71	11.86
622.043	11.95
622.376	12.4
622.709	12.28
623.043	12.54
623.376	12.33
623.709	12.1
624.041	11.93
624.374	12.04
624.707	12.61
625.04	12.8
625.373	12.01
625.705	12.2
626.038	12.44
626.37	12.78
626.703	12.16
627.035	12.79
627.368	12.6
627.7	13.06
628.032	12.7
628.365	12.54
628.697	12.8
629.029	12.46
629.361	12.73
629.693	12.93
630.025	12.74
630.357	12.77
630.689	12.91
631.021	12.82
631.353	12.98
631.684	12.98
632.016	12.97
632.348	12.79
632.679	13.13
633.011	13.24
633.342	13.21
633.674	13.55
634.005	13.24
634.336	13.73
634.668	13.43
634.999	13.49
635.33	13.56
635.661	13.76
635.992	13.58
636.323	13.47
636.654	13.73
636.985	13.65
637.316	13.49
637.647	13.79
637.977	13.36
638.308	13.93
638.639	13.34
638.969	13.9
639.3	13.94
639.63	14.15
639.961	13.89
640.291	14.08
640.622	14.39
640.952	13.94
641.282	14.21
641.612	13.9
641.943	14.47
642.273	14.25
642.603	14.39
642.933	13.92
643.263	13.82
643.592	14.07
643.922	14.42
644.252	14.55
644.582	14.97
644.911	14.71
645.241	14.88
645.571	14.33
645.9	14.71
646.23	14.89
646.559	14.68
646.888	15.18
647.218	15.36
647.547	15.07
647.876	15.04
648.205	14.84
648.534	15.7
648.863	14.87
649.192	15.31
649.521	14.85
649.85	15.27
650.179	15.19
650.508	15.17
650.837	15.41
651.165	15.93
651.494	15.37
651.822	15.29
652.151	15.62
652.479	15.54
652.808	15.41
653.136	15.43
653.465	15.28
653.793	15.76
654.121	15.89
654.449	15.47
654.777	15.73
655.105	16.32
655.433	16.04
655.761	16.44
656.089	15.94
656.417	15.82
656.745	16.32
657.073	15.77
657.4	16.57
657.728	15.96
658.056	16.14
658.383	16.67
658.711	16.15
659.038	16.28
659.365	16.18
659.693	16.21
660.02	16.76
660.347	17.12
660.674	16.16
661.001	16.19
661.329	16.34
661.656	16.27
661.982	16.18
662.309	16.64
662.636	16.8
662.963	16.83
663.29	16.51
663.616	17.13
663.943	17.29
664.27	16.9
664.596	17.21
664.923	17.39
665.249	17.17
665.576	16.7
665.902	17.46
666.228	17.28
666.554	17.05
666.881	17.81
667.207	17.04
667.533	17.61
667.859	17.24
668.185	17.85
668.511	18.1
668.837	17.33
669.162	17.38
669.488	17.92
669.814	18.06
670.139	17.77
670.465	18.18
670.791	17.79
671.116	17.47
671.442	18.1
671.767	17.41
672.092	18.81
672.418	18.59
672.743	18.23
673.068	18.68
673.393	17.5
673.718	18.31
674.043	18.35
674.368	18.1
674.693	18.3
675.018	18.32
675.343	18.87
675.667	18.73
675.992	18.23
676.317	18.14
676.641	18.88
676.966	19.23
677.29	18.74
677.615	19.2
677.939	19.63
678.264	18.66
678.588	19.48
678.912	19.61
679.236	19.28
679.56	18.68
679.885	19.15
680.209	19.23
680.532	18.88
680.856	18.96
681.18	19.47
681.504	19.54
681.828	19.82
682.152	19.21
682.475	20.05
682.799	19.32
683.122	19.17
683.446	19.41
683.769	19.44
684.093	20.34
684.416	19.84
684.739	19.78
685.062	20.31
685.386	19.66
685.709	19.71
686.032	19.41
686.355	20.15
686.678	19.71
