Data from 0099_chest_Reflection__1__173.txt Node

Date: Fri Sep 22 22:16:41 CDT 2023
User: ToomeyLab
Spectrometer: FLMS14357
Trigger mode: 0
Integration Time (sec): 1.000000E-2
Scans to average: 100
Electric dark correction enabled: true
Nonlinearity correction enabled: false
Boxcar width: 0
XAxis mode: Wavelengths
Number of Pixels in Spectrum: 2048
>>>>>Begin Spectral Data<<<<<
189.047	28.15
189.435	28.15
189.823	28.15
190.211	44.99
190.599	22.21
190.987	147.98
191.375	270.73
191.763	13.11
192.151	341.12
192.538	212.98
192.926	119
193.314	151.56
193.702	116.68
194.089	134.31
194.477	-717.57
194.864	274.63
195.252	64.51
195.639	48.51
196.027	127.01
196.414	152.02
196.801	-146.68
197.189	984.34
197.576	201.96
197.963	-60.67
198.351	-66.08
198.738	27.33
199.125	47.21
199.512	0.56
199.899	53.34
200.286	22.5
200.673	16.74
201.06	31.55
201.447	92.42
201.833	-7.02
202.22	40.69
202.607	42.82
202.994	42.5
203.38	63.8
203.767	-13.28
204.154	47.44
204.54	51.49
204.927	-4.21
205.313	46.27
205.699	52.43
206.086	31.43
206.472	42.58
206.858	50.91
207.245	-16.74
207.631	47.2
208.017	40.99
208.403	32.55
208.789	45.45
209.175	40.9
209.561	20.72
209.947	42.9
210.333	53.97
210.719	-9.52
211.105	49.16
211.491	12.02
211.876	29.39
212.262	40.96
212.648	23.78
213.034	19.87
213.419	21.81
213.805	-13.7
214.19	-0.66
214.576	29.61
214.961	7.86
215.346	29.1
215.732	16.71
216.117	26.71
216.502	43.27
216.888	22.52
217.273	26.46
217.658	3.96
218.043	40.12
218.428	40.64
218.813	33.9
219.198	16.67
219.583	32.1
219.968	-7.45
220.353	27.19
220.738	6.87
221.122	19.61
221.507	11.9
221.892	5.31
222.276	-7.89
222.661	-28.25
223.046	11.04
223.43	25.15
223.815	5.04
224.199	4.37
224.583	16.72
224.968	8.8
225.352	8.06
225.736	9.38
226.121	10.86
226.505	10.89
226.889	14
227.273	5.54
227.657	5.17
228.041	6.95
228.425	10.93
228.809	6.37
229.193	4.15
229.577	7.35
229.961	8.39
230.344	6.5
230.728	2.89
231.112	5.13
231.495	4.16
231.879	5.04
232.263	4.52
232.646	6.39
233.03	3.39
233.413	6.05
233.797	6.53
234.18	4.25
234.563	6.88
234.946	5.69
235.33	4.93
235.713	4.36
236.096	5.24
236.479	3.99
236.862	6.64
237.245	4.89
237.628	5.31
238.011	5
238.394	6.43
238.777	5.52
239.16	4.28
239.543	6.19
239.925	4.51
240.308	6.29
240.691	6.27
241.073	5.76
241.456	5.14
241.838	4.69
242.221	4.53
242.603	4.59
242.986	3.95
243.368	4.9
243.75	5.35
244.133	4.87
244.515	4.36
244.897	4.11
245.279	4.32
245.661	4.29
246.043	5.47
246.425	4.3
246.807	4.2
247.189	3.26
247.571	5.68
247.953	5.61
248.335	4.69
248.717	4.3
249.098	4.35
249.48	4.09
249.862	3.8
250.243	4.01
250.625	4.35
251.006	4.17
251.388	4.11
251.769	4.26
252.151	3.89
252.532	4.21
252.913	4.71
253.295	5.23
253.676	4.81
254.057	4.21
254.438	4.2
254.819	3.85
255.2	4.99
255.581	3.98
255.962	3.99
256.343	4.12
256.724	4.08
257.105	5.19
257.486	4.31
257.867	4.1
258.247	3.89
258.628	5.46
259.009	3.79
259.389	3.46
259.77	4.41
260.15	4.94
260.531	4.45
260.911	4.33
261.292	4.08
261.672	3.55
262.052	4.03
262.432	3.85
262.813	4.11
263.193	3.71
263.573	4.39
263.953	3.87
264.333	4.05
264.713	4.25
265.093	3.92
265.473	3.83
265.853	3.73
266.233	3.92
266.612	4.29
266.992	4.58
267.372	4.65
267.752	4.7
268.131	3.83
268.511	3.46
268.89	4.27
269.27	3.62
269.649	4.13
270.029	3.73
270.408	3.66
270.787	4.21
271.167	4.22
271.546	3.52
271.925	4.05
272.304	3.45
272.683	4.17
273.062	4.09
273.441	3.85
273.82	4.23
274.199	3.84
274.578	4.41
274.957	3.67
275.336	3.73
275.715	3.72
276.093	3.39
276.472	3.33
276.851	3.68
277.229	3.9
277.608	4.02
277.986	4.18
278.365	3.68
278.743	4.35
279.122	3.64
279.5	4.23
279.878	3.55
280.257	4.37
280.635	3.71
281.013	4.34
281.391	4
281.769	3.63
282.147	4.2
282.525	4.24
282.903	4.02
283.281	4.06
283.659	4.2
284.037	4.08
284.415	3.79
284.792	4
285.17	4.53
285.548	4.83
285.925	3.81
286.303	4
286.68	3.69
287.058	3.27
287.435	3.84
287.813	3.41
288.19	3.28
288.567	3.79
288.945	3.36
289.322	3.99
289.699	3.56
290.076	3.65
290.453	3.21
290.83	3.7
291.207	3.52
291.584	3.44
291.961	3.49
292.338	3.84
292.715	3.51
293.092	3.48
293.469	3.26
293.845	3.43
294.222	3.98
294.599	3.95
294.975	4
295.352	3.7
295.728	3.57
296.105	3.9
296.481	3.76
296.858	3.77
297.234	3.94
297.61	4.04
297.986	3.89
298.363	3.67
298.739	3.61
299.115	3.97
299.491	3.74
299.867	3.83
300.243	3.52
300.619	3.49
300.995	3.59
301.371	3.65
301.746	4.11
302.122	3.88
302.498	3.92
302.874	3.44
303.249	3.39
303.625	3.84
304	3.89
304.376	3.9
304.751	3.77
305.127	3.6
305.502	3.87
305.878	3.68
306.253	3.79
306.628	3.73
307.003	3.9
307.378	4.12
307.754	3.51
308.129	3.3
308.504	3.52
308.879	3.9
309.254	3.87
309.629	4.13
310.003	4.07
310.378	3.92
310.753	3.73
311.128	3.97
311.502	4.08
311.877	3.36
312.252	3.96
312.626	3.72
313.001	4.12
313.375	3.44
313.75	3.91
314.124	4.15
314.498	3.17
314.873	3.45
315.247	4.2
315.621	3.54
315.995	3.37
316.369	3.62
316.743	4.26
317.117	3.3
317.491	4.03
317.865	3.18
318.239	3.5
318.613	3.29
318.987	3.5
319.361	3.62
319.734	3.59
320.108	3.94
320.482	3.25
320.855	3.78
321.229	4.64
321.602	4.23
321.976	3.02
322.349	4.13
322.723	3.6
323.096	3.71
323.469	3.22
323.843	3.49
324.216	4.2
324.589	3.22
324.962	3.53
325.335	3.24
325.708	3.41
326.081	4.29
326.454	3.37
326.827	3.43
327.2	3.64
327.573	4.15
327.945	3.79
328.318	3.91
328.691	3.91
329.063	3.8
329.436	3.8
329.809	3.89
330.181	3.75
330.553	3.52
330.926	3.46
331.298	3.4
331.671	4.21
332.043	3.5
332.415	3.02
332.787	4.29
333.159	3.4
333.532	3.04
333.904	4.18
334.276	3.6
334.648	3.5
335.02	3.19
335.391	3.68
335.763	4.03
336.135	3.96
336.507	3.59
336.879	3.43
337.25	3.35
337.622	4.18
337.993	3.52
338.365	3.73
338.736	3.82
339.108	4.21
339.479	3.51
339.851	3.6
340.222	3.45
340.593	3.51
340.964	3.12
341.336	3.28
341.707	3.76
342.078	3.33
342.449	3.79
342.82	3.92
343.191	3.1
343.562	3.42
343.933	3.38
344.303	3.3
344.674	3.64
345.045	3.79
345.416	3.55
345.786	3.27
346.157	3.16
346.527	3.58
346.898	3.59
347.268	3.6
347.639	3.63
348.009	3.36
348.38	3.76
348.75	3.7
349.12	3.28
349.49	3.76
349.861	3.38
350.231	3.84
350.601	3.98
350.971	2.96
351.341	3.39
351.711	3.75
352.081	3.22
352.45	3.84
352.82	4.01
353.19	3.56
353.56	3.41
353.929	3.99
354.299	3.95
354.669	3.25
355.038	3.58
355.408	3.7
355.777	3.79
356.147	3.47
356.516	4.19
356.885	3.39
357.254	3.86
357.624	3.24
357.993	3.6
358.362	3.5
358.731	3.19
359.1	3.46
359.469	3.32
359.838	3.25
360.207	3.44
360.576	3.36
360.945	3.3
361.314	3.78
361.682	3.91
362.051	3.6
362.42	3.2
362.788	3.22
363.157	3.71
363.525	3.29
363.894	3.43
364.262	3.46
364.631	3.44
364.999	3.35
365.367	3.45
365.735	3.39
366.104	3.53
366.472	3.78
366.84	3.4
367.208	3.81
367.576	3.71
367.944	3.48
368.312	3.85
368.68	3.6
369.048	3.51
369.416	3.37
369.783	3.39
370.151	3.45
370.519	4.04
370.886	3.75
371.254	3.84
371.621	3.36
371.989	3.61
372.356	3.6
372.724	3.6
373.091	3.53
373.458	3.69
373.826	3.79
374.193	3.77
374.56	3.55
374.927	3.87
375.294	3.46
375.661	3.65
376.028	4
376.395	3.59
376.762	3.45
377.129	3.74
377.496	3.84
377.863	3.68
378.229	3.66
378.596	3.38
378.963	4.14
379.329	3.73
379.696	3.91
380.062	3.45
380.429	3.67
380.795	3.71
381.161	3.45
381.528	3.49
381.894	3.36
382.26	3.47
382.626	3.34
382.993	3.7
383.359	3.61
383.725	3.53
384.091	3.63
384.457	3.69
384.823	3.76
385.188	3.93
385.554	3.58
385.92	3.92
386.286	3.7
386.651	3.36
387.017	3.9
387.383	3.6
387.748	3.66
388.114	3.48
388.479	3.79
388.845	3.46
389.21	3.23
389.575	4.05
389.94	3.6
390.306	3.88
390.671	3.93
391.036	3.24
391.401	3.7
391.766	3.47
392.131	3.71
392.496	3.72
392.861	3.57
393.226	3.84
393.591	3.69
393.956	3.52
394.32	3.54
394.685	3.55
395.05	3.92
395.414	3.76
395.779	3.47
396.143	3.56
396.508	3.46
396.872	3.42
397.236	3.62
397.601	3.72
397.965	3.83
398.329	3.57
398.694	3.62
399.058	3.59
399.422	3.67
399.786	3.86
400.15	3.77
400.514	3.59
400.878	3.52
401.242	3.86
401.605	3.72
401.969	3.5
402.333	3.65
402.697	3.59
403.06	3.87
403.424	3.59
403.787	3.93
404.151	3.89
404.514	3.92
404.878	3.68
405.241	3.99
405.604	3.88
405.968	3.69
406.331	3.66
406.694	3.73
407.057	3.5
407.42	3.75
407.783	3.68
408.146	3.73
408.509	3.52
408.872	3.83
409.235	3.79
409.598	3.91
409.961	3.99
410.323	3.8
410.686	3.71
411.049	3.97
411.411	3.85
411.774	3.82
412.136	3.69
412.499	3.7
412.861	3.74
413.223	3.83
413.586	3.68
413.948	3.8
414.31	3.66
414.672	3.62
415.035	3.87
415.397	4.06
415.759	4.01
416.121	3.63
416.483	3.77
416.845	3.79
417.206	3.81
417.568	3.72
417.93	3.66
418.292	3.77
418.653	3.52
419.015	3.84
419.377	3.69
419.738	3.8
420.1	3.52
420.461	3.67
420.822	3.7
421.184	3.66
421.545	3.66
421.906	3.62
422.267	3.73
422.629	3.8
422.99	3.65
423.351	3.57
423.712	3.49
424.073	3.51
424.434	3.71
424.795	3.64
425.155	3.75
425.516	3.65
425.877	3.63
426.238	3.52
426.598	3.58
426.959	3.54
427.32	3.65
427.68	3.59
428.041	3.64
428.401	3.75
428.761	3.85
429.122	3.63
429.482	3.84
429.842	3.77
430.202	3.72
430.563	3.9
430.923	3.66
431.283	3.77
431.643	3.93
432.003	3.8
432.363	3.87
432.722	3.84
433.082	3.83
433.442	3.77
433.802	3.92
434.161	3.67
434.521	3.84
434.881	3.83
435.24	3.8
435.6	3.78
435.959	3.49
436.319	3.75
436.678	3.84
437.037	3.72
437.396	3.77
437.756	3.82
438.115	3.66
438.474	3.86
438.833	3.88
439.192	3.8
439.551	3.95
439.91	3.86
440.269	3.86
440.628	3.65
440.987	3.84
441.345	3.79
441.704	3.99
442.063	3.81
442.421	3.79
442.78	3.82
443.138	3.79
443.497	3.77
443.855	3.86
444.214	3.69
444.572	3.82
444.93	3.95
445.288	3.94
445.647	3.92
446.005	3.71
446.363	3.76
446.721	3.82
447.079	3.69
447.437	3.76
447.795	3.9
448.153	3.69
448.51	3.83
448.868	3.76
449.226	3.79
449.584	3.67
449.941	3.7
450.299	3.81
450.656	3.79
451.014	3.92
451.371	3.93
451.729	3.92
452.086	3.85
452.443	3.8
452.801	3.97
453.158	3.86
453.515	3.99
453.872	3.79
454.229	3.95
454.586	3.88
454.943	3.75
455.3	3.92
455.657	3.85
456.014	3.95
456.371	4.05
456.727	4.06
457.084	3.82
457.441	3.85
457.797	3.92
458.154	3.84
458.51	3.85
458.867	3.87
459.223	3.94
459.58	4.01
459.936	3.93
460.292	3.97
460.648	3.94
461.005	4.01
461.361	3.84
461.717	3.72
462.073	3.87
462.429	3.71
462.785	3.9
463.141	3.82
463.496	3.98
463.852	4.07
464.208	3.86
464.564	4.02
464.919	3.96
465.275	4.23
465.631	4.08
465.986	3.96
466.342	4.12
466.697	4.19
467.052	4
467.408	3.93
467.763	3.98
468.118	4.13
468.473	4.14
468.829	4.05
469.184	4.11
469.539	4.1
469.894	4
470.249	4.09
470.603	4.06
470.958	4.09
471.313	4.04
471.668	3.93
472.023	4.11
472.377	4.12
472.732	3.84
473.086	4.19
473.441	3.95
473.795	4.29
474.15	3.89
474.504	4.03
474.859	4.31
475.213	3.78
475.567	4.01
475.921	4.15
476.275	4.04
476.63	3.94
476.984	4.08
477.338	4.18
477.692	4.08
478.045	4.14
478.399	4.07
478.753	4.09
479.107	4
479.461	4.08
479.814	4.11
480.168	3.96
480.521	4.19
480.875	4.2
481.228	4
481.582	4
481.935	3.91
482.289	4.03
482.642	4.01
482.995	4.04
483.348	4.12
483.701	4.11
484.055	3.98
484.408	4.07
484.761	4.06
485.114	3.97
485.466	3.85
485.819	3.77
486.172	3.74
486.525	3.72
486.878	3.81
487.23	3.8
487.583	3.91
487.936	4.02
488.288	3.97
488.641	4.01
488.993	3.92
489.345	3.89
489.698	3.86
490.05	3.87
490.402	3.89
490.754	3.86
491.107	3.86
491.459	4
491.811	3.99
492.163	4.05
492.515	4.06
492.866	4.09
493.218	4.05
493.57	4.08
493.922	3.92
494.274	3.98
494.625	3.96
494.977	4.05
495.328	4.08
495.68	4.21
496.031	4.11
496.383	4.18
496.734	4.18
497.086	4.17
497.437	4.26
497.788	4.24
498.139	4.17
498.49	4.33
498.842	4.14
499.193	4.17
499.544	4.21
499.894	4.21
500.245	4.16
500.596	4.2
500.947	4.28
501.298	4.25
501.648	4.2
501.999	4.36
502.35	4.32
502.7	4.39
503.051	4.35
503.401	4.31
503.752	4.39
504.102	4.24
504.452	4.15
504.803	4.37
505.153	4.27
505.503	4.36
505.853	4.49
506.203	4.22
506.553	4.49
506.903	4.39
507.253	4.3
507.603	4.51
507.953	4.31
508.303	4.41
508.652	4.39
509.002	4.52
509.352	4.43
509.701	4.52
510.051	4.47
510.4	4.39
510.75	4.46
511.099	4.26
511.449	4.36
511.798	4.51
512.147	4.38
512.496	4.38
512.846	4.35
513.195	4.47
513.544	4.44
513.893	4.51
514.242	4.43
514.591	4.38
514.939	4.41
515.288	4.38
515.637	4.43
515.986	4.39
516.334	4.54
516.683	4.54
517.032	4.55
517.38	4.52
517.729	4.54
518.077	4.62
518.426	4.52
518.774	4.59
519.122	4.61
519.47	4.47
519.819	4.49
520.167	4.56
520.515	4.49
520.863	4.38
521.211	4.41
521.559	4.57
521.907	4.61
522.255	4.53
522.602	4.5
522.95	4.55
523.298	4.65
523.645	4.7
523.993	4.66
524.341	4.6
524.688	4.6
525.036	4.63
525.383	4.67
525.73	4.8
526.078	4.71
526.425	4.65
526.772	4.67
527.119	4.51
527.466	4.51
527.814	4.43
528.161	4.63
528.508	4.61
528.854	4.65
529.201	4.69
529.548	4.66
529.895	4.53
530.242	4.51
530.588	4.48
530.935	4.38
531.282	4.44
531.628	4.5
531.975	4.5
532.321	4.54
532.667	4.58
533.014	4.67
533.36	4.7
533.706	4.76
534.052	4.89
534.399	4.81
534.745	4.81
535.091	4.66
535.437	4.68
535.783	4.58
536.129	4.64
536.474	4.75
536.82	4.69
537.166	4.89
537.512	4.83
537.857	4.87
538.203	4.86
538.549	4.86
538.894	4.83
539.239	4.75
539.585	4.84
539.93	4.87
540.276	4.95
540.621	5.05
540.966	5.01
541.311	5.04
541.656	5.12
542.001	4.96
542.346	5.12
542.691	5.07
543.036	4.92
543.381	4.82
543.726	4.84
544.071	4.86
544.415	4.88
544.76	4.9
545.105	4.87
545.449	4.95
545.794	4.98
546.138	5.08
546.483	5.08
546.827	4.99
547.171	5.11
547.516	5.27
547.86	5.33
548.204	5.27
548.548	5.17
548.892	5.26
549.236	5.12
549.58	5.28
549.924	5.35
550.268	5.37
550.612	5.26
550.956	5.29
551.3	5.52
551.643	5.42
551.987	5.44
552.33	5.45
552.674	5.51
553.017	5.43
553.361	5.35
553.704	5.47
554.048	5.65
554.391	5.52
554.734	5.54
555.077	5.4
555.42	5.33
555.764	5.42
556.107	5.66
556.45	5.61
556.793	5.56
557.135	5.61
557.478	5.49
557.821	5.7
558.164	5.69
558.507	5.8
558.849	5.64
559.192	5.84
559.534	5.89
559.877	5.64
560.219	5.79
560.562	5.82
560.904	6.08
561.246	5.92
561.589	5.93
561.931	5.77
562.273	5.76
562.615	6.08
562.957	6.03
563.299	6
563.641	5.86
563.983	5.96
564.325	6.02
564.667	6.07
565.008	5.92
565.35	6.24
565.692	6.09
566.033	6.19
566.375	6.15
566.716	5.99
567.058	6.18
567.399	6.03
567.741	6.18
568.082	6.13
568.423	6.13
568.764	6.28
569.105	5.93
569.447	6.18
569.788	5.97
570.129	6.24
570.47	6.21
570.811	6.24
571.151	6.4
571.492	6.38
571.833	6.32
572.174	6.52
572.514	6.28
572.855	6.36
573.195	6.28
573.536	6.48
573.876	6.4
574.217	6.46
574.557	6.49
574.898	6.51
575.238	6.37
575.578	6.59
575.918	6.45
576.258	6.36
576.598	6.52
576.938	6.6
577.278	6.76
577.618	6.4
577.958	6.75
578.298	6.64
578.638	6.64
578.977	6.81
579.317	6.8
579.657	6.95
579.996	6.9
580.336	6.82
580.675	6.99
581.014	6.95
581.354	6.93
581.693	7.19
582.032	7.03
582.372	7.02
582.711	7.09
583.05	7.05
583.389	7.11
583.728	7.09
584.067	7.19
584.406	7.2
584.745	6.94
585.083	7.39
585.422	7.5
585.761	7.15
586.1	7.26
586.438	7.27
586.777	7.3
587.115	7.37
587.454	7.26
587.792	7.61
588.13	7.52
588.469	7.45
588.807	7.67
589.145	7.44
589.483	7.65
589.821	7.3
590.159	7.47
590.497	7.78
590.835	7.82
591.173	7.35
591.511	7.66
591.849	7.61
592.187	7.75
592.524	7.66
592.862	7.78
593.2	7.59
593.537	7.8
593.875	7.71
594.212	7.77
594.55	8.06
594.887	7.73
595.224	8.22
595.561	8.18
595.899	7.95
596.236	8.13
596.573	8.03
596.91	8
597.247	8.13
597.584	8.2
597.921	8.26
598.258	8.21
598.594	8.15
598.931	8.28
599.268	8.01
599.604	8.22
599.941	8.07
600.277	8.02
600.614	8.24
600.95	8.28
601.287	8.17
601.623	8.34
601.959	8.48
602.296	8.45
602.632	7.89
602.968	8.68
603.304	8.37
603.64	8.71
603.976	8.5
604.312	8.59
604.648	8.48
604.984	8.71
605.319	8.48
605.655	8.51
605.991	8.56
606.326	8.7
606.662	8.61
606.998	8.52
607.333	8.86
607.668	8.56
608.004	8.85
608.339	8.72
608.674	8.92
609.01	8.88
609.345	8.92
609.68	9.01
610.015	9
610.35	8.84
610.685	9.37
611.02	8.96
611.355	9.04
611.689	9
612.024	9.13
612.359	9.2
612.694	9.09
613.028	9.1
613.363	9.1
613.697	9.2
614.032	9.35
614.366	9.34
614.7	9.12
615.035	9.57
615.369	9.34
615.703	9.42
616.037	9.62
616.371	9.62
616.705	9.85
617.039	10.01
617.373	9.44
617.707	9.22
618.041	9.72
618.375	9.8
618.709	9.59
619.042	9.79
619.376	9.74
619.71	9.85
620.043	9.71
620.377	9.72
620.71	9.88
621.043	10.2
621.377	9.95
621.71	9.87
622.043	10.12
622.376	10.14
622.709	10.34
623.043	10.09
623.376	9.86
623.709	10.64
624.041	10.11
624.374	10.21
624.707	10.68
625.04	10.31
625.373	10.23
625.705	10.43
626.038	10.37
626.37	10.43
626.703	10.53
627.035	10.37
627.368	10.72
627.7	11.12
628.032	10.92
628.365	10.68
628.697	10.37
629.029	10.63
629.361	10.68
629.693	11.01
630.025	10.92
630.357	10.65
630.689	11.07
631.021	10.61
631.353	10.78
631.684	10.9
632.016	11.2
632.348	11.23
632.679	10.75
633.011	10.9
633.342	11.15
633.674	11.3
634.005	10.74
634.336	11.45
634.668	11.4
634.999	11.21
635.33	11.4
635.661	11.41
635.992	11.72
636.323	11.36
636.654	11.09
636.985	11.25
637.316	11.21
637.647	11.19
637.977	10.9
638.308	11.51
638.639	11.47
638.969	11.49
639.3	11.55
639.63	11.99
639.961	11.75
640.291	11.82
640.622	12.06
640.952	11.52
641.282	12
641.612	11.52
641.943	11.84
642.273	11.83
642.603	11.99
642.933	11.69
643.263	11.54
643.592	11.37
643.922	12.09
644.252	11.98
644.582	12.62
644.911	12.36
645.241	12.17
645.571	12.49
645.9	12.39
646.23	12.67
646.559	12.31
646.888	12.51
647.218	12.48
647.547	12.04
647.876	12.95
648.205	12.33
648.534	12.86
648.863	12.59
649.192	12.57
649.521	12.92
649.85	13.07
650.179	12.78
650.508	12.93
650.837	13.09
651.165	12.88
651.494	12.72
651.822	13.36
652.151	12.67
652.479	13.21
652.808	13.21
653.136	13.34
653.465	12.82
653.793	12.94
654.121	12.9
654.449	12.76
654.777	12.94
655.105	13.29
655.433	13.69
655.761	13.77
656.089	13.28
656.417	13.39
656.745	13.38
657.073	13.01
657.4	14.2
657.728	13.66
658.056	13.81
658.383	13.45
658.711	13.15
659.038	13.15
659.365	13.81
659.693	13.01
660.02	14.09
660.347	13.86
660.674	13.8
661.001	13.76
661.329	13.79
661.656	13.73
661.982	13.76
662.309	14.21
662.636	14
662.963	13.87
663.29	13.97
663.616	13.64
663.943	13.91
664.27	14.63
664.596	14.09
664.923	14.19
665.249	14.11
665.576	14.14
665.902	14.09
666.228	14.44
666.554	13.98
666.881	14.15
667.207	14.13
667.533	14.73
667.859	14.82
668.185	14.85
668.511	14.85
668.837	14.39
669.162	15
669.488	14.49
669.814	15.04
670.139	14.85
670.465	15.31
670.791	14.87
671.116	14.32
671.442	15.19
671.767	14.52
672.092	14.97
672.418	15.15
672.743	15.11
673.068	15.5
673.393	14.82
673.718	15.59
674.043	15.3
674.368	15.32
674.693	15.52
675.018	15.24
675.343	15.54
675.667	15.26
675.992	15.46
676.317	15.87
676.641	15.54
676.966	15.44
677.29	14.52
677.615	15.63
677.939	16.31
678.264	15.43
678.588	16.1
678.912	15.61
679.236	16.73
679.56	15.76
679.885	15.83
680.209	16.53
680.532	15.83
680.856	16.08
681.18	16.14
681.504	15.78
681.828	16.11
682.152	15.83
682.475	16.57
682.799	16.05
683.122	15.67
683.446	15.96
683.769	16.54
684.093	16.37
684.416	16.53
684.739	16.1
685.062	17.02
685.386	15.82
685.709	15.85
686.032	16.25
686.355	15.92
686.678	16.32
687.001	16.85
687.324	17.22
687.646	16.56
687.969	17.51
688.292	16.83
688.614	17.04
688.937	16.52
