Data from 0099_forehead_Reflection__2__185.txt Node

Date: Fri Sep 22 22:20:26 CDT 2023
User: ToomeyLab
Spectrometer: FLMS14357
Trigger mode: 0
Integration Time (sec): 1.000000E-2
Scans to average: 100
Electric dark correction enabled: true
Nonlinearity correction enabled: false
Boxcar width: 0
XAxis mode: Wavelengths
Number of Pixels in Spectrum: 2048
>>>>>Begin Spectral Data<<<<<
189.047	118.25
189.435	118.25
189.823	118.25
190.211	21.19
190.599	149.33
190.987	-35.93
191.375	320.37
191.763	62.12
192.151	304.16
192.538	-165.35
192.926	66.2
193.314	90.7
193.702	-44.63
194.089	91.68
194.477	-55.54
194.864	97.93
195.252	-22.96
195.639	102.04
196.027	266.96
196.414	-11.11
196.801	-68.77
197.189	437.65
197.576	90.77
197.963	-206.24
198.351	27.8
198.738	-4.37
199.125	14.36
199.512	20.65
199.899	50.39
200.286	18.22
200.673	-1.66
201.06	30.05
201.447	55.35
201.833	-1.28
202.22	54.12
202.607	44.76
202.994	48.19
203.38	93.25
203.767	43.66
204.154	32.57
204.54	32.98
204.927	12.05
205.313	37.32
205.699	43.58
206.086	58.28
206.472	40.14
206.858	22.93
207.245	17.12
207.631	44.93
208.017	0.48
208.403	36.08
208.789	38.71
209.175	25.19
209.561	23.86
209.947	39.09
210.333	34.83
210.719	-25.14
211.105	53.97
211.491	33.62
211.876	45.49
212.262	30.48
212.648	32.37
213.034	28.62
213.419	10.54
213.805	12.76
214.19	17.82
214.576	29.96
214.961	5.86
215.346	54.42
215.732	44.29
216.117	16.63
216.502	47.01
216.888	21.67
217.273	7.21
217.658	40.21
218.043	10.15
218.428	35.39
218.813	15.09
219.198	-6.79
219.583	23.07
219.968	15.4
220.353	8.62
220.738	5.83
221.122	13.08
221.507	5.36
221.892	-4.93
222.276	22.42
222.661	-2.16
223.046	18.7
223.43	21.05
223.815	0.96
224.199	-5.08
224.583	18.11
224.968	11.57
225.352	6.92
225.736	7.16
226.121	11.76
226.505	13.24
226.889	12.19
227.273	7.63
227.657	4.8
228.041	-0.99
228.425	9.88
228.809	0.67
229.193	5.01
229.577	3.69
229.961	3.25
230.344	6.36
230.728	2.47
231.112	3.93
231.495	3.17
231.879	3.85
232.263	2.12
232.646	3.63
233.03	2.36
233.413	2.5
233.797	3.03
234.18	4.17
234.563	5.87
234.946	4.09
235.33	0.63
235.713	1.02
236.096	3.99
236.479	2.77
236.862	4.7
237.245	2.54
237.628	4.79
238.011	4.18
238.394	3.72
238.777	6.18
239.16	4.22
239.543	5.26
239.925	4.39
240.308	6.93
240.691	4.35
241.073	4.72
241.456	3.44
241.838	4.93
242.221	4.29
242.603	4.42
242.986	4.16
243.368	2.9
243.75	3.33
244.133	3.89
244.515	3.67
244.897	3.34
245.279	3.16
245.661	3.58
246.043	4.04
246.425	3.13
246.807	3.96
247.189	3.05
247.571	3.92
247.953	2.96
248.335	3.7
248.717	3.58
249.098	3.8
249.48	3.51
249.862	3.51
250.243	3.57
250.625	3.87
251.006	3.15
251.388	4.1
251.769	3.79
252.151	3.16
252.532	3.84
252.913	4.64
253.295	4.53
253.676	3.93
254.057	4.1
254.438	4.31
254.819	3.05
255.2	3.68
255.581	3.36
255.962	4.55
256.343	4.6
256.724	4.36
257.105	3.31
257.486	3.78
257.867	5.35
258.247	3.73
258.628	5.13
259.009	4.26
259.389	4.33
259.77	4.01
260.15	4.11
260.531	3.27
260.911	3.29
261.292	3.69
261.672	3.19
262.052	3.26
262.432	3.26
262.813	3.51
263.193	3.51
263.573	4.24
263.953	3.6
264.333	4.08
264.713	3.16
265.093	3.15
265.473	3.81
265.853	3.52
266.233	3.02
266.612	2.86
266.992	3.71
267.372	2.93
267.752	4.33
268.131	3.43
268.511	3.15
268.89	3.46
269.27	3.29
269.649	3.86
270.029	3.54
270.408	3.24
270.787	3.9
271.167	3.97
271.546	3.74
271.925	3.59
272.304	3.19
272.683	3.43
273.062	4.11
273.441	3.74
273.82	3.93
274.199	3.47
274.578	3.77
274.957	3.2
275.336	3.4
275.715	3.37
276.093	2.71
276.472	3.3
276.851	3.91
277.229	2.9
277.608	3.94
277.986	3.65
278.365	3.29
278.743	3.37
279.122	3.45
279.5	3.71
279.878	3.2
280.257	3.97
280.635	3.23
281.013	3.6
281.391	3.04
281.769	3.45
282.147	2.7
282.525	3.5
282.903	3.23
283.281	3.43
283.659	3.69
284.037	2.56
284.415	3.7
284.792	3.69
285.17	3.67
285.548	3.89
285.925	3.8
286.303	3.08
286.68	3.13
287.058	3.25
287.435	3.27
287.813	3.24
288.19	3.02
288.567	3.49
288.945	3.17
289.322	3.55
289.699	3.4
290.076	3.47
290.453	3.51
290.83	3.39
291.207	3.16
291.584	3.32
291.961	3.45
292.338	3.35
292.715	3.59
293.092	3.52
293.469	4
293.845	3.49
294.222	4.02
294.599	3.9
294.975	4.16
295.352	4.09
295.728	4.15
296.105	4.01
296.481	4.04
296.858	4.49
297.234	3.94
297.61	4.37
297.986	4.31
298.363	4.4
298.739	3.78
299.115	4.33
299.491	3.91
299.867	3.94
300.243	4
300.619	3.94
300.995	4.25
301.371	4.92
301.746	4.44
302.122	4.21
302.498	4.11
302.874	4.19
303.249	4.4
303.625	4.54
304	4.77
304.376	4.95
304.751	4.86
305.127	4.77
305.502	5.27
305.878	4.82
306.253	4.92
306.628	4.56
307.003	5.07
307.378	4.68
307.754	4.58
308.129	5.03
308.504	4.81
308.879	4.41
309.254	5.16
309.629	4.89
310.003	5.15
310.378	5.75
310.753	5.12
311.128	5.37
311.502	5.05
311.877	4.62
312.252	4.99
312.626	4.95
313.001	5.26
313.375	5.33
313.75	5.44
314.124	5.49
314.498	5.19
314.873	5.15
315.247	5.65
315.621	4.94
315.995	5.91
316.369	5.49
316.743	5.37
317.117	5.89
317.491	6.07
317.865	5.58
318.239	5.26
318.613	5.99
318.987	5.82
319.361	5.92
319.734	6.05
320.108	6.26
320.482	6.06
320.855	5.52
321.229	6.42
321.602	6.73
321.976	5.92
322.349	6.35
322.723	5.98
323.096	5.99
323.469	6.25
323.843	6.04
324.216	6.14
324.589	6.11
324.962	5.62
325.335	5.91
325.708	6.39
326.081	6.53
326.454	6.02
326.827	6.21
327.2	5.84
327.573	6.72
327.945	6.68
328.318	6.39
328.691	6.42
329.063	6.19
329.436	6.05
329.809	6.46
330.181	6.62
330.553	6.49
330.926	5.93
331.298	7.4
331.671	7.04
332.043	6.3
332.415	6.21
332.787	6.83
333.159	6.55
333.532	6.41
333.904	5.75
334.276	6.89
334.648	6.21
335.02	6.42
335.391	6.37
335.763	7.33
336.135	6.97
336.507	6.34
336.879	6.29
337.25	7.11
337.622	7.06
337.993	7.16
338.365	7.38
338.736	6.7
339.108	7.22
339.479	7.33
339.851	6.54
340.222	6.89
340.593	6.81
340.964	6.57
341.336	6.47
341.707	6.86
342.078	6.96
342.449	6.86
342.82	7.14
343.191	6.75
343.562	6.99
343.933	7.36
344.303	6.85
344.674	7.21
345.045	7.36
345.416	7.26
345.786	6.9
346.157	6.94
346.527	7.32
346.898	6.92
347.268	7.03
347.639	6.93
348.009	7.12
348.38	7.25
348.75	7.44
349.12	7.09
349.49	7.67
349.861	7.61
350.231	7.22
350.601	7.38
350.971	7.57
351.341	7.16
351.711	7.49
352.081	7.2
352.45	7.46
352.82	7.75
353.19	7.65
353.56	7.17
353.929	7.72
354.299	7.59
354.669	7.45
355.038	7.55
355.408	7.77
355.777	7.91
356.147	7.61
356.516	8.03
356.885	7.62
357.254	8.2
357.624	7.35
357.993	7.95
358.362	7.66
358.731	7.88
359.1	7.41
359.469	7.86
359.838	7.69
360.207	7.71
360.576	7.96
360.945	7.9
361.314	7.99
361.682	8.15
362.051	7.87
362.42	7.73
362.788	7.86
363.157	7.87
363.525	7.72
363.894	7.88
364.262	7.91
364.631	7.89
364.999	8.01
365.367	8.17
365.735	8.23
366.104	8.12
366.472	8.4
366.84	7.84
367.208	8.23
367.576	8.23
367.944	7.96
368.312	8.65
368.68	8.26
369.048	8.53
369.416	8.52
369.783	8.27
370.151	7.86
370.519	8.5
370.886	8.43
371.254	8.53
371.621	8.42
371.989	8.63
372.356	8.68
372.724	8.64
373.091	8.82
373.458	8.24
373.826	8.63
374.193	8.98
374.56	8.87
374.927	8.65
375.294	8.49
375.661	8.52
376.028	8.72
376.395	8.98
376.762	8.78
377.129	8.68
377.496	8.72
377.863	8.91
378.229	8.98
378.596	8.92
378.963	8.91
379.329	9.2
379.696	8.93
380.062	8.79
380.429	9.06
380.795	8.69
381.161	8.97
381.528	8.97
381.894	8.82
382.26	9.09
382.626	8.98
382.993	9.05
383.359	8.99
383.725	9.07
384.091	9.61
384.457	9.12
384.823	9.05
385.188	9.43
385.554	9.01
385.92	9.43
386.286	9.3
386.651	9.17
387.017	9.34
387.383	9.03
387.748	9.43
388.114	9.17
388.479	9.34
388.845	9.17
389.21	9.25
389.575	9.63
389.94	9.23
390.306	9.28
390.671	9.92
391.036	9.41
391.401	9.59
391.766	9.52
392.131	9.76
392.496	9.73
392.861	9.51
393.226	9.78
393.591	9.66
393.956	9.69
394.32	9.68
394.685	9.54
395.05	9.82
395.414	9.71
395.779	9.53
396.143	9.89
396.508	9.69
396.872	9.55
397.236	9.97
397.601	9.86
397.965	9.96
398.329	10.08
398.694	9.83
399.058	10.1
399.422	9.93
399.786	9.92
400.15	10.07
400.514	10.21
400.878	9.87
401.242	10.16
401.605	9.8
401.969	9.86
402.333	10.33
402.697	10.03
403.06	10.1
403.424	10.18
403.787	10.09
404.151	10.32
404.514	10.42
404.878	10.64
405.241	10.45
405.604	10.34
405.968	10.3
406.331	10.41
406.694	10.2
407.057	10.13
407.42	10.32
407.783	10.44
408.146	10.36
408.509	10.58
408.872	10.42
409.235	10.52
409.598	10.54
409.961	10.51
410.323	10.71
410.686	10.65
411.049	10.83
411.411	10.79
411.774	10.57
412.136	10.81
412.499	10.86
412.861	10.76
413.223	10.71
413.586	10.53
413.948	10.86
414.31	10.77
414.672	10.77
415.035	10.66
415.397	11.04
415.759	11.17
416.121	10.6
416.483	10.69
416.845	10.75
417.206	10.74
417.568	11.03
417.93	10.72
418.292	10.91
418.653	10.77
419.015	10.89
419.377	10.72
419.738	11.08
420.1	10.79
420.461	10.96
420.822	10.9
421.184	10.98
421.545	10.86
421.906	10.86
422.267	10.87
422.629	11.07
422.99	10.85
423.351	10.71
423.712	10.89
424.073	10.89
424.434	11.07
424.795	11.07
425.155	11.16
425.516	11.13
425.877	11.24
426.238	10.86
426.598	10.95
426.959	11.02
427.32	11.15
427.68	11.14
428.041	11.16
428.401	11.25
428.761	11.31
429.122	11.45
429.482	11.43
429.842	11.38
430.202	11.42
430.563	11.58
430.923	11.64
431.283	11.71
431.643	11.68
432.003	11.48
432.363	11.89
432.722	11.78
433.082	11.75
433.442	11.74
433.802	11.64
434.161	11.76
434.521	11.73
434.881	11.8
435.24	11.67
435.6	11.72
435.959	11.5
436.319	11.7
436.678	11.81
437.037	11.95
437.396	11.85
437.756	11.98
438.115	11.91
438.474	11.97
438.833	11.94
439.192	11.91
439.551	11.89
439.91	12.08
440.269	12.12
440.628	11.69
440.987	12.01
441.345	12.13
441.704	12.1
442.063	11.91
442.421	11.96
442.78	11.94
443.138	11.95
443.497	11.95
443.855	12.07
444.214	11.99
444.572	12.16
444.93	12.36
445.288	12.15
445.647	12.19
446.005	12.39
446.363	12.32
446.721	12.33
447.079	12.27
447.437	12.34
447.795	12.33
448.153	12.17
448.51	12.23
448.868	12.23
449.226	12.25
449.584	12.25
449.941	12.25
450.299	12.41
450.656	12.39
451.014	12.52
451.371	12.59
451.729	12.57
452.086	12.55
452.443	12.68
452.801	12.79
453.158	12.73
453.515	12.85
453.872	12.77
454.229	12.87
454.586	12.82
454.943	12.77
455.3	12.79
455.657	12.8
456.014	12.75
456.371	13.02
456.727	12.97
457.084	12.94
457.441	12.92
457.797	12.77
458.154	13.04
458.51	13.07
458.867	12.98
459.223	12.98
459.58	13.06
459.936	13.27
460.292	13.05
460.648	13.11
461.005	13.11
461.361	13.07
461.717	12.8
462.073	12.96
462.429	12.76
462.785	12.84
463.141	13.04
463.496	13.22
463.852	13.15
464.208	13.34
464.564	13.45
464.919	13.2
465.275	13.49
465.631	13.65
465.986	13.5
466.342	13.26
466.697	13.5
467.052	13.48
467.408	13.69
467.763	13.49
468.118	13.6
468.473	13.57
468.829	13.46
469.184	13.49
469.539	13.69
469.894	13.59
470.249	13.69
470.603	13.69
470.958	13.67
471.313	13.72
471.668	13.73
472.023	13.82
472.377	13.9
472.732	13.89
473.086	13.94
473.441	13.75
473.795	13.89
474.15	13.75
474.504	14.08
474.859	14
475.213	13.75
475.567	13.81
475.921	14.01
476.275	13.88
476.63	14.12
476.984	13.87
477.338	14.19
477.692	14.1
478.045	14.16
478.399	14.18
478.753	14.15
479.107	14.22
479.461	14.19
479.814	14.21
480.168	14.24
480.521	14.21
480.875	14.21
481.228	14.2
481.582	14.16
481.935	14.14
482.289	14.19
482.642	14.14
482.995	14.23
483.348	14.36
483.701	14.24
484.055	14.27
484.408	14.28
484.761	14.22
485.114	14.1
485.466	13.9
485.819	13.76
486.172	13.63
486.525	13.65
486.878	13.72
487.23	13.83
487.583	13.98
487.936	14.12
488.288	14.2
488.641	14.26
488.993	14.16
489.345	14.1
489.698	14.06
490.05	14.04
490.402	14.08
490.754	14.1
491.107	14.18
491.459	14.31
491.811	14.42
492.163	14.57
492.515	14.65
492.866	14.62
493.218	14.7
493.57	14.56
493.922	14.31
494.274	14.31
494.625	14.4
494.977	14.56
495.328	14.75
495.68	14.85
496.031	14.91
496.383	14.96
496.734	15.03
497.086	15.1
497.437	15.25
497.788	15.12
498.139	15.2
498.49	15.37
498.842	15.08
499.193	15.08
499.544	15.17
499.894	15.21
500.245	15.24
500.596	15.25
500.947	15.33
501.298	15.45
501.648	15.54
501.999	15.44
502.35	15.26
502.7	15.42
503.051	15.51
503.401	15.61
503.752	15.66
504.102	15.63
504.452	15.61
504.803	15.57
505.153	15.7
505.503	15.57
505.853	15.88
506.203	15.7
506.553	15.82
506.903	15.76
507.253	15.78
507.603	15.83
507.953	15.92
508.303	15.88
508.652	15.87
509.002	16.07
509.352	16.02
509.701	16.09
510.051	15.98
510.4	15.94
510.75	15.87
511.099	15.97
511.449	15.88
511.798	16.12
512.147	16.11
512.496	16.01
512.846	16.02
513.195	16.15
513.544	16.14
513.893	16.3
514.242	16.14
514.591	16.27
514.939	16.12
515.288	16.3
515.637	16.23
515.986	16.44
516.334	16.33
516.683	16.35
517.032	16.63
517.38	16.56
517.729	16.43
518.077	16.66
518.426	16.56
518.774	16.64
519.122	16.58
519.47	16.49
519.819	16.53
520.167	16.53
520.515	16.46
520.863	16.33
521.211	16.43
521.559	16.45
521.907	16.49
522.255	16.42
522.602	16.63
522.95	16.77
523.298	16.79
523.645	16.78
523.993	16.89
524.341	16.86
524.688	16.94
525.036	16.93
525.383	17.02
525.73	17.14
526.078	17.04
526.425	17.02
526.772	17.09
527.119	16.97
527.466	16.87
527.814	16.81
528.161	16.78
528.508	16.83
528.854	16.94
529.201	16.93
529.548	16.87
529.895	16.81
530.242	16.74
530.588	16.59
530.935	16.37
531.282	16.44
531.628	16.6
531.975	16.57
532.321	16.74
532.667	16.94
533.014	16.95
533.36	17.14
533.706	17.27
534.052	17.3
534.399	17.32
534.745	17.25
535.091	17.14
535.437	17.05
535.783	16.93
536.129	16.99
536.474	17.14
536.82	17.17
537.166	17.39
537.512	17.42
537.857	17.63
538.203	17.71
538.549	17.52
538.894	17.39
539.239	17.51
539.585	17.41
539.93	17.63
540.276	17.67
540.621	17.81
540.966	17.89
541.311	17.99
541.656	17.89
542.001	18.01
542.346	17.98
542.691	18.11
543.036	17.9
543.381	17.54
543.726	17.42
544.071	17.45
544.415	17.63
544.76	17.59
545.105	17.71
545.449	17.76
545.794	17.89
546.138	18.04
546.483	17.98
546.827	18.03
547.171	18.3
547.516	18.29
547.86	18.26
548.204	18.28
548.548	18.35
548.892	18.34
549.236	18.27
549.58	18.43
549.924	18.53
550.268	18.56
550.612	18.52
550.956	18.69
551.3	18.61
551.643	18.7
551.987	18.8
552.33	18.94
552.674	18.8
553.017	18.84
553.361	19.02
553.704	18.88
554.048	19.03
554.391	18.92
554.734	19.19
555.077	18.93
555.42	18.81
555.764	19.02
556.107	19.04
556.45	18.85
556.793	19.01
557.135	19.19
557.478	19.06
557.821	19.21
558.164	19.33
558.507	19.44
558.849	19.26
559.192	19.28
559.534	19.52
559.877	19.15
560.219	19.56
560.562	19.41
560.904	19.36
561.246	19.64
561.589	19.45
561.931	19.57
562.273	19.71
562.615	19.64
562.957	19.54
563.299	19.53
563.641	19.56
563.983	19.56
564.325	19.73
564.667	19.84
565.008	19.78
565.35	19.92
565.692	19.72
566.033	19.63
566.375	20.04
566.716	19.95
567.058	19.84
567.399	19.81
567.741	20.17
568.082	19.72
568.423	19.74
568.764	20.13
569.105	19.82
569.447	19.99
569.788	19.92
570.129	20.13
570.47	20.17
570.811	20.02
571.151	20.08
571.492	20.26
571.833	20.08
572.174	20.13
572.514	20.08
572.855	20.13
573.195	20.06
573.536	20.26
573.876	20.22
574.217	20.06
574.557	20.3
574.898	20.16
575.238	20.28
575.578	20.3
575.918	20.41
576.258	20.21
576.598	20.36
576.938	20.4
577.278	20.55
577.618	20.35
577.958	20.62
578.298	20.57
578.638	20.57
578.977	20.71
579.317	20.44
579.657	20.77
579.996	20.94
580.336	20.73
580.675	20.63
581.014	20.91
581.354	20.66
581.693	21.01
582.032	21.06
582.372	21.07
582.711	20.94
583.05	21.17
583.389	21.32
583.728	20.92
584.067	21.22
584.406	21.21
584.745	20.8
585.083	21.23
585.422	21.39
585.761	21.47
586.1	21.37
586.438	21.32
586.777	21.39
587.115	21.36
587.454	21.26
587.792	21.58
588.13	21.51
588.469	21.1
588.807	21.43
589.145	21.44
589.483	21.65
589.821	21.39
590.159	21.53
590.497	21.47
590.835	21.55
591.173	21.32
591.511	21.63
591.849	21.7
592.187	21.45
592.524	21.68
592.862	21.76
593.2	21.74
593.537	21.59
593.875	21.44
594.212	21.73
594.55	22.09
594.887	21.66
595.224	22.17
595.561	22.19
595.899	21.86
596.236	22.15
596.573	22.19
596.91	21.94
597.247	21.74
597.584	22.16
597.921	22.03
598.258	21.91
598.594	21.83
598.931	21.91
599.268	21.91
599.604	21.91
599.941	22.1
600.277	21.84
600.614	22.12
600.95	22.17
601.287	22.03
601.623	21.97
601.959	22.24
602.296	22.29
602.632	22.22
602.968	22.25
603.304	22.51
603.64	22.11
603.976	22.67
604.312	22.62
604.648	22.31
604.984	22.39
605.319	22.63
605.655	22.47
605.991	22.53
606.326	22.62
606.662	22.33
606.998	22.53
607.333	22.5
607.668	22.45
608.004	22.67
608.339	22.68
608.674	22.92
609.01	22.63
609.345	22.83
609.68	23.04
610.015	22.92
610.35	22.96
610.685	22.82
611.02	22.88
611.355	23.12
611.689	22.81
612.024	22.94
612.359	22.86
612.694	22.98
613.028	22.92
613.363	23.01
613.697	22.93
614.032	23.08
614.366	23.16
614.7	23.11
615.035	23.51
615.369	23.17
615.703	23.28
616.037	23.52
616.371	23.5
616.705	23.75
617.039	23.53
617.373	23.56
617.707	23.05
618.041	23.54
618.375	23.53
618.709	23.33
619.042	23.92
619.376	23.7
619.71	23.63
620.043	23.11
620.377	23.57
620.71	23.65
621.043	23.89
621.377	23.52
621.71	23.74
622.043	23.6
622.376	24.39
622.709	23.82
623.043	24.13
623.376	24.04
623.709	24.19
624.041	23.55
624.374	23.79
624.707	24.29
625.04	24.07
625.373	23.78
625.705	23.98
626.038	23.85
626.37	24
626.703	23.94
627.035	23.71
627.368	24.12
627.7	24.19
628.032	24.08
628.365	24.19
628.697	23.89
629.029	23.87
629.361	23.97
629.693	23.95
630.025	23.99
630.357	24.06
630.689	24.25
631.021	23.99
631.353	24.35
631.684	24.57
632.016	24.49
632.348	24.35
632.679	24.2
633.011	24.23
633.342	24.74
633.674	24.72
634.005	24.35
634.336	24.7
634.668	24.66
634.999	24.9
635.33	24.6
635.661	24.78
635.992	24.79
636.323	24.55
636.654	24.44
636.985	24.48
637.316	24.59
637.647	24.78
637.977	24.69
638.308	25.05
638.639	24.33
638.969	25.08
639.3	24.98
639.63	24.78
639.961	24.92
640.291	25.16
640.622	25.23
640.952	24.65
641.282	25.23
641.612	24.78
641.943	25.21
642.273	24.7
642.603	24.93
642.933	25.22
643.263	24.91
643.592	25.01
643.922	25.49
644.252	24.87
644.582	24.91
644.911	25.35
645.241	25.88
645.571	24.88
645.9	25.37
646.23	25.57
646.559	25.15
646.888	25.35
647.218	25.59
647.547	25.25
647.876	25.22
648.205	25.03
648.534	24.95
648.863	25.34
649.192	25.73
649.521	25.42
649.85	25.75
650.179	25.21
650.508	25.33
650.837	25.76
651.165	25.6
651.494	25.54
651.822	25.44
652.151	25.07
652.479	25.43
652.808	25.97
653.136	25.92
653.465	25.87
653.793	25.96
654.121	25.52
654.449	25.47
654.777	25.38
655.105	25.81
655.433	25.71
655.761	26.37
656.089	26.23
656.417	25.85
656.745	25.94
657.073	26.54
657.4	26.39
657.728	26.27
658.056	25.74
658.383	26.45
658.711	25.99
659.038	25.76
659.365	25.75
659.693	26
660.02	26.51
660.347	26.06
660.674	26.03
661.001	25.9
661.329	26.04
661.656	25.78
661.982	25.91
662.309	26.27
662.636	26.51
662.963	26.14
663.29	26.36
663.616	26.4
663.943	26.56
664.27	26.7
664.596	26.48
664.923	26.83
665.249	26.9
665.576	25.95
665.902	26.19
666.228	26.5
666.554	26.36
666.881	26.87
667.207	25.94
667.533	26.11
667.859	26.43
668.185	26.82
668.511	27.24
668.837	26.6
669.162	26.59
669.488	26.52
669.814	26.95
670.139	26.82
670.465	27.17
670.791	27
671.116	26.45
671.442	27.38
671.767	26.39
672.092	27.46
672.418	27.44
672.743	26.71
673.068	26.96
673.393	26.6
