Data from 0412_chest_Reflection__3__33.txt Node

Date: Fri Dec 15 16:39:56 CST 2023
User: ToomeyLab
Spectrometer: FLMS14357
Trigger mode: 0
Integration Time (sec): 1.000000E-2
Scans to average: 100
Electric dark correction enabled: true
Nonlinearity correction enabled: false
Boxcar width: 0
XAxis mode: Wavelengths
Number of Pixels in Spectrum: 2048
>>>>>Begin Spectral Data<<<<<
189.047	19.29
189.435	19.29
189.823	19.29
190.211	-180.71
190.599	-364.82
190.987	110.4
191.375	-66.48
191.763	37.31
192.151	-9.02
192.538	169.97
192.926	31.3
193.314	139.62
193.702	45.16
194.089	-103.73
194.477	-50.06
194.864	-137.76
195.252	46.19
195.639	105.75
196.027	99.29
196.414	-429.7
196.801	-82.3
197.189	492.11
197.576	241.83
197.963	73
198.351	41.42
198.738	4.84
199.125	41.79
199.512	45.83
199.899	18.77
200.286	39.23
200.673	6.72
201.06	38.28
201.447	29.6
201.833	-7.37
202.22	45.5
202.607	24.42
202.994	27.35
203.38	49.23
203.767	51.99
204.154	20.82
204.54	57.01
204.927	52.83
205.313	6.57
205.699	23.63
206.086	58
206.472	21.35
206.858	24.49
207.245	14.65
207.631	22.77
208.017	16.12
208.403	12.19
208.789	45.82
209.175	44.46
209.561	5.75
209.947	13.3
210.333	21.95
210.719	23.12
211.105	17.56
211.491	24.76
211.876	16.16
212.262	71.41
212.648	33.86
213.034	26.7
213.419	-11.16
213.805	-1.67
214.19	-9.59
214.576	10.72
214.961	-3.58
215.346	-87.33
215.732	10.64
216.117	50.95
216.502	10.92
216.888	23.92
217.273	41.84
217.658	17.61
218.043	16.87
218.428	-23.73
218.813	-24.95
219.198	8.97
219.583	16.55
219.968	10.16
220.353	15.17
220.738	23.12
221.122	15.29
221.507	-9.76
221.892	-16.72
222.276	1.01
222.661	12.69
223.046	22.44
223.43	12.45
223.815	14.06
224.199	-13.72
224.583	10.96
224.968	2.21
225.352	9.09
225.736	-3.3
226.121	-4.04
226.505	8.21
226.889	8.48
227.273	4.91
227.657	8.09
228.041	7.55
228.425	-0.25
228.809	4.01
229.193	2.73
229.577	-0.55
229.961	2.73
230.344	1.06
230.728	1.46
231.112	1.6
231.495	1.27
231.879	-0.12
232.263	2.09
232.646	2.5
233.03	1.41
233.413	-0.32
233.797	2.9
234.18	0.4
234.563	1.58
234.946	0.47
235.33	5.97
235.713	3.42
236.096	2.04
236.479	2.58
236.862	0.19
237.245	2.67
237.628	1.81
238.011	1.12
238.394	4.26
238.777	2.3
239.16	1.78
239.543	1.77
239.925	4.95
240.308	2.31
240.691	3.1
241.073	3.13
241.456	1.04
241.838	0.72
242.221	1.16
242.603	1.7
242.986	1.69
243.368	1.71
243.75	2.25
244.133	1.4
244.515	1.37
244.897	1.88
245.279	1.75
245.661	2.1
246.043	1.27
246.425	0.42
246.807	3.28
247.189	2.57
247.571	1.25
247.953	2.33
248.335	1.31
248.717	1.34
249.098	1.06
249.48	1.31
249.862	0.97
250.243	1.21
250.625	1.2
251.006	1.39
251.388	0.78
251.769	0.72
252.151	2.43
252.532	0.44
252.913	0.68
253.295	1.44
253.676	1.04
254.057	1.66
254.438	1.14
254.819	0.86
255.2	1.15
255.581	0.89
255.962	2.03
256.343	2.61
256.724	0.59
257.105	0.52
257.486	1.17
257.867	1.89
258.247	1.92
258.628	1.34
259.009	0.44
259.389	2.21
259.77	1.73
260.15	0.44
260.531	0.96
260.911	1.43
261.292	1.09
261.672	1.34
262.052	1.17
262.432	1.29
262.813	1.26
263.193	1.07
263.573	1.28
263.953	0.96
264.333	2.02
264.713	0.98
265.093	0.75
265.473	1.53
265.853	-0.54
266.233	1.38
266.612	-0.97
266.992	-0.02
267.372	1.98
267.752	1.54
268.131	1.47
268.511	2.05
268.89	1.5
269.27	0.93
269.649	1.37
270.029	0.76
270.408	2.76
270.787	2.3
271.167	2.84
271.546	1.8
271.925	0.82
272.304	1.7
272.683	1.99
273.062	1.23
273.441	1.16
273.82	0.68
274.199	1.27
274.578	1.5
274.957	0.67
275.336	1.33
275.715	0.69
276.093	1.08
276.472	1.73
276.851	1.42
277.229	1.18
277.608	0.58
277.986	1.3
278.365	0.76
278.743	1.14
279.122	1.33
279.5	1.82
279.878	1.78
280.257	1.71
280.635	1.51
281.013	1.39
281.391	1.97
281.769	1.39
282.147	1.22
282.525	1.79
282.903	1.21
283.281	1.48
283.659	2.04
284.037	1.28
284.415	1.37
284.792	1.24
285.17	0.36
285.548	1.34
285.925	1.56
286.303	1.24
286.68	1
287.058	0.95
287.435	1.12
287.813	1.6
288.19	1.18
288.567	1.3
288.945	1.77
289.322	1.03
289.699	1.27
290.076	0.72
290.453	1.15
290.83	1
291.207	1.32
291.584	1.63
291.961	1.08
292.338	1.14
292.715	1.64
293.092	1.16
293.469	1.28
293.845	1.32
294.222	0.63
294.599	1.36
294.975	0.64
295.352	1.56
295.728	1.13
296.105	1.31
296.481	1.66
296.858	1.86
297.234	1.27
297.61	1.2
297.986	1.38
298.363	1.62
298.739	1.11
299.115	1.08
299.491	0.75
299.867	1.28
300.243	1.44
300.619	0.85
300.995	1.46
301.371	1.25
301.746	1.26
302.122	1.81
302.498	1.2
302.874	1.36
303.249	1.86
303.625	1.39
304	1.82
304.376	1.43
304.751	0.77
305.127	2.26
305.502	1.48
305.878	0.51
306.253	1.46
306.628	1.94
307.003	1.07
307.378	1.37
307.754	1.58
308.129	0.98
308.504	0.88
308.879	1.47
309.254	2.13
309.629	2.27
310.003	1.42
310.378	1.5
310.753	1.79
311.128	1.41
311.502	1.76
311.877	1.79
312.252	1.42
312.626	1.61
313.001	1.22
313.375	1.71
313.75	1.34
314.124	1.26
314.498	1.57
314.873	1.02
315.247	1.32
315.621	1.22
315.995	0.82
316.369	1.51
316.743	1.09
317.117	1.61
317.491	1.26
317.865	1.13
318.239	1.82
318.613	1.52
318.987	2.06
319.361	1.35
319.734	2.01
320.108	1.81
320.482	1.71
320.855	2.11
321.229	1.25
321.602	1.62
321.976	2.07
322.349	1.5
322.723	2.36
323.096	1.86
323.469	1.66
323.843	1.1
324.216	1.59
324.589	0.95
324.962	1.85
325.335	1.24
325.708	1.34
326.081	1.38
326.454	2.05
326.827	1.67
327.2	1.81
327.573	2.08
327.945	1.52
328.318	1.48
328.691	1.23
329.063	1.8
329.436	1.37
329.809	1.88
330.181	1.21
330.553	1.22
330.926	1.98
331.298	2.07
331.671	1.46
332.043	2.42
332.415	1.86
332.787	2.02
333.159	1.78
333.532	1.74
333.904	1.4
334.276	1.51
334.648	1.37
335.02	1.5
335.391	1.07
335.763	1.42
336.135	1.53
336.507	2.04
336.879	1.74
337.25	1.19
337.622	1.37
337.993	1.9
338.365	1.59
338.736	1.99
339.108	1.36
339.479	1.31
339.851	1.82
340.222	1.78
340.593	1.71
340.964	1.26
341.336	2.36
341.707	1.48
342.078	1.97
342.449	1.79
342.82	1.34
343.191	2.01
343.562	1.35
343.933	1.85
344.303	1.72
344.674	1.85
345.045	1.74
345.416	1.92
345.786	1.73
346.157	1.8
346.527	1.21
346.898	1.26
347.268	1.54
347.639	1.93
348.009	1.93
348.38	1.05
348.75	1.54
349.12	1.61
349.49	2.01
349.861	1.65
350.231	1.84
350.601	2.18
350.971	1.98
351.341	1.93
351.711	1.73
352.081	1.92
352.45	1.8
352.82	2.11
353.19	1.68
353.56	1.66
353.929	2.09
354.299	1.52
354.669	1.72
355.038	1.87
355.408	1.53
355.777	1.68
356.147	1.66
356.516	2.02
356.885	1.9
357.254	1.84
357.624	2.11
357.993	1.63
358.362	1.31
358.731	1.5
359.1	1.35
359.469	1.63
359.838	2.1
360.207	2.01
360.576	1.46
360.945	1.54
361.314	2.13
361.682	1.29
362.051	1.27
362.42	1.73
362.788	1.53
363.157	1.53
363.525	1.82
363.894	1.73
364.262	1.47
364.631	1.64
364.999	1.73
365.367	1.24
365.735	2.34
366.104	1.61
366.472	1.96
366.84	1.53
367.208	1.72
367.576	1.98
367.944	1.93
368.312	1.54
368.68	1.18
369.048	1.7
369.416	1.79
369.783	1.52
370.151	2.26
370.519	2.2
370.886	1.82
371.254	1.27
371.621	1.82
371.989	1.86
372.356	1.27
372.724	1.85
373.091	1.29
373.458	1.71
373.826	1.72
374.193	1.7
374.56	1.73
374.927	1.67
375.294	1.58
375.661	1.71
376.028	1.55
376.395	1.68
376.762	1.87
377.129	1.74
377.496	2.01
377.863	1.74
378.229	1.13
378.596	1.73
378.963	1.45
379.329	1.52
379.696	2.07
380.062	1.73
380.429	1.72
380.795	1.41
381.161	1.9
381.528	1.94
381.894	1.69
382.26	1.61
382.626	1.81
382.993	1.41
383.359	2.27
383.725	1.85
384.091	1.73
384.457	2.01
384.823	1.61
385.188	1.79
385.554	1.78
385.92	1.92
386.286	1.86
386.651	2.33
387.017	1.95
387.383	1.99
387.748	1.42
388.114	1.98
388.479	1.67
388.845	2.17
389.21	2.14
389.575	2.05
389.94	2.02
390.306	1.97
390.671	1.91
391.036	1.27
391.401	1.5
391.766	1.72
392.131	1.68
392.496	1.8
392.861	1.85
393.226	2.23
393.591	1.91
393.956	1.85
394.32	2.03
394.685	2.02
395.05	1.63
395.414	1.87
395.779	2.03
396.143	1.66
396.508	1.76
396.872	2.04
397.236	1.95
397.601	1.54
397.965	1.72
398.329	2.01
398.694	1.9
399.058	1.98
399.422	1.86
399.786	1.95
400.15	2.18
400.514	2.06
400.878	1.83
401.242	2.35
401.605	2.04
401.969	1.78
402.333	1.96
402.697	1.92
403.06	1.76
403.424	1.93
403.787	1.72
404.151	2.07
404.514	2.02
404.878	1.86
405.241	1.92
405.604	1.85
405.968	2.04
406.331	2.14
406.694	1.97
407.057	1.97
407.42	2.08
407.783	1.67
408.146	1.98
408.509	1.85
408.872	1.78
409.235	2.07
409.598	2.1
409.961	1.88
410.323	2.09
410.686	2.05
411.049	1.8
411.411	1.73
411.774	1.94
412.136	1.72
412.499	1.96
412.861	2.03
413.223	1.84
413.586	2.05
413.948	1.75
414.31	2.04
414.672	1.85
415.035	1.82
415.397	2.18
415.759	1.85
416.121	1.93
416.483	1.96
416.845	1.74
417.206	1.83
417.568	1.96
417.93	1.67
418.292	1.81
418.653	2
419.015	2.08
419.377	1.89
419.738	2.01
420.1	1.89
420.461	1.93
420.822	1.97
421.184	1.89
421.545	1.91
421.906	1.8
422.267	1.89
422.629	1.86
422.99	1.82
423.351	1.75
423.712	1.97
424.073	1.91
424.434	1.85
424.795	1.82
425.155	1.83
425.516	1.77
425.877	1.83
426.238	1.84
426.598	2.02
426.959	1.89
427.32	1.85
427.68	1.87
428.041	1.89
428.401	1.95
428.761	1.93
429.122	2.11
429.482	1.84
429.842	2.07
430.202	1.91
430.563	2.06
430.923	1.89
431.283	2.07
431.643	1.97
432.003	2.01
432.363	2.02
432.722	2.09
433.082	2.01
433.442	1.93
433.802	1.81
434.161	1.87
434.521	2.23
434.881	2.01
435.24	1.91
435.6	2.01
435.959	2.07
436.319	1.92
436.678	2.11
437.037	2.06
437.396	1.97
437.756	2.16
438.115	2.01
438.474	2.2
438.833	2.02
439.192	1.88
439.551	2.1
439.91	2.05
440.269	2.01
440.628	1.91
440.987	2.03
441.345	1.74
441.704	1.97
442.063	1.96
442.421	1.89
442.78	2.01
443.138	1.98
443.497	1.96
443.855	1.89
444.214	1.97
444.572	2.14
444.93	2
445.288	2.1
445.647	2.27
446.005	2.05
446.363	2.04
446.721	2.01
447.079	1.73
447.437	1.92
447.795	2.06
448.153	1.88
448.51	1.95
448.868	1.95
449.226	2
449.584	1.99
449.941	2.12
450.299	1.96
450.656	2.09
451.014	2
451.371	2.01
451.729	1.94
452.086	2.17
452.443	1.99
452.801	2.06
453.158	2.08
453.515	1.87
453.872	2.34
454.229	1.95
454.586	1.95
454.943	2.04
455.3	2.05
455.657	1.93
456.014	2.07
456.371	2.2
456.727	2.12
457.084	2.13
457.441	2.04
457.797	2.11
458.154	2.21
458.51	2.18
458.867	2.24
459.223	2.16
459.58	2.22
459.936	2.17
460.292	2.15
460.648	2.04
461.005	2.12
461.361	2.23
461.717	2.04
462.073	2.01
462.429	2.12
462.785	2.02
463.141	2.15
463.496	2.18
463.852	2.21
464.208	2.14
464.564	2.24
464.919	2.19
465.275	2.27
465.631	2.42
465.986	2.08
466.342	2.25
466.697	1.94
467.052	2.16
467.408	2.21
467.763	2.26
468.118	2.14
468.473	2.17
468.829	2.17
469.184	2.06
469.539	2.23
469.894	2.14
470.249	2.32
470.603	2.24
470.958	2.3
471.313	2.49
471.668	2.42
472.023	2.22
472.377	2.27
472.732	2.28
473.086	2.09
473.441	2.02
473.795	2.33
474.15	2.2
474.504	2.25
474.859	2.34
475.213	2.11
475.567	2.21
475.921	2.05
476.275	2.2
476.63	2.24
476.984	2.46
477.338	2.35
477.692	2.19
478.045	2.07
478.399	2.28
478.753	2.25
479.107	2.25
479.461	2.23
479.814	2.13
480.168	2.06
480.521	2.34
480.875	2.2
481.228	2.13
481.582	2.12
481.935	2.2
482.289	2.29
482.642	2.22
482.995	2.2
483.348	2.21
483.701	2.17
484.055	2.31
484.408	2.28
484.761	2.1
485.114	2.16
485.466	2.06
485.819	2.07
486.172	2.03
486.525	2.05
486.878	2.09
487.23	2.15
487.583	2.14
487.936	2.21
488.288	2.2
488.641	2.27
488.993	2.17
489.345	2.09
489.698	2.1
490.05	2.13
490.402	2.14
490.754	2.16
491.107	2.23
491.459	2.18
491.811	2.24
492.163	2.23
492.515	2.27
492.866	2.25
493.218	2.24
493.57	2.21
493.922	2.2
494.274	2.27
494.625	2.34
494.977	2.31
495.328	2.27
495.68	2.33
496.031	2.41
496.383	2.24
496.734	2.48
497.086	2.41
497.437	2.43
497.788	2.53
498.139	2.33
498.49	2.47
498.842	2.14
499.193	2.26
499.544	2.34
499.894	2.4
500.245	2.44
500.596	2.32
500.947	2.38
501.298	2.29
501.648	2.48
501.999	2.51
502.35	2.36
502.7	2.43
503.051	2.28
503.401	2.4
503.752	2.56
504.102	2.49
504.452	2.48
504.803	2.44
505.153	2.39
505.503	2.47
505.853	2.48
506.203	2.36
506.553	2.45
506.903	2.25
507.253	2.39
507.603	2.41
507.953	2.55
508.303	2.55
508.652	2.37
509.002	2.54
509.352	2.61
509.701	2.43
510.051	2.36
510.4	2.54
510.75	2.41
511.099	2.57
511.449	2.37
511.798	2.36
512.147	2.37
512.496	2.32
512.846	2.46
513.195	2.5
513.544	2.42
513.893	2.57
514.242	2.54
514.591	2.66
514.939	2.48
515.288	2.47
515.637	2.56
515.986	2.48
516.334	2.62
516.683	2.51
517.032	2.63
517.38	2.6
517.729	2.6
518.077	2.41
518.426	2.7
518.774	2.61
519.122	2.49
519.47	2.5
519.819	2.37
520.167	2.5
520.515	2.55
520.863	2.54
521.211	2.55
521.559	2.69
521.907	2.52
522.255	2.53
522.602	2.58
522.95	2.55
523.298	2.66
523.645	2.65
523.993	2.63
524.341	2.67
524.688	2.63
525.036	2.65
525.383	2.68
525.73	2.81
526.078	2.65
526.425	2.58
526.772	2.68
527.119	2.62
527.466	2.66
527.814	2.66
528.161	2.62
528.508	2.68
528.854	2.64
529.201	2.58
529.548	2.61
529.895	2.63
530.242	2.52
530.588	2.55
530.935	2.58
531.282	2.58
531.628	2.57
531.975	2.66
532.321	2.69
532.667	2.69
533.014	2.7
533.36	2.77
533.706	2.75
534.052	2.71
534.399	2.62
534.745	2.65
535.091	2.74
535.437	2.7
535.783	2.72
536.129	2.76
536.474	2.69
536.82	2.81
537.166	2.79
537.512	2.78
537.857	2.8
538.203	2.75
538.549	2.76
538.894	2.78
539.239	2.87
539.585	2.84
539.93	2.82
540.276	2.96
540.621	2.98
540.966	2.91
541.311	2.79
541.656	2.82
542.001	2.83
542.346	2.99
542.691	2.9
543.036	2.81
543.381	2.72
543.726	2.84
544.071	2.92
544.415	2.91
544.76	2.87
545.105	2.92
545.449	2.91
545.794	3.06
546.138	2.92
546.483	2.96
546.827	3.02
547.171	3.01
547.516	3.09
547.86	3.02
548.204	3.03
548.548	3.06
548.892	3.02
549.236	3.07
549.58	3.03
549.924	3.09
550.268	3.19
550.612	3.19
550.956	3.4
551.3	3.17
551.643	3.36
551.987	3.19
552.33	3.19
552.674	3.27
553.017	3.17
553.361	3.1
553.704	3.35
554.048	3.11
554.391	3.23
554.734	3.21
555.077	3.27
555.42	3.24
555.764	3.18
556.107	3.35
556.45	3.08
556.793	3.25
557.135	3.36
557.478	3.63
557.821	3.38
558.164	3.29
558.507	3.33
558.849	3.41
559.192	3.54
559.534	3.26
559.877	3.52
560.219	3.38
560.562	3.7
560.904	3.58
561.246	3.5
561.589	3.6
561.931	3.54
562.273	3.42
562.615	3.6
562.957	3.53
563.299	3.36
563.641	3.55
563.983	3.71
564.325	3.38
564.667	3.36
565.008	3.38
565.35	3.68
565.692	3.49
566.033	3.55
566.375	3.87
566.716	3.79
567.058	3.42
567.399	3.6
567.741	3.38
568.082	3.54
568.423	3.6
568.764	3.69
569.105	3.63
569.447	3.68
569.788	3.67
570.129	3.81
570.47	3.72
570.811	3.87
571.151	3.82
571.492	3.96
571.833	3.91
572.174	3.85
572.514	3.87
572.855	3.86
573.195	3.86
573.536	3.89
573.876	3.77
574.217	3.82
574.557	3.9
574.898	3.92
575.238	3.87
575.578	3.67
575.918	4.03
576.258	3.91
576.598	4.03
576.938	3.87
577.278	3.98
577.618	3.82
577.958	3.93
578.298	4.09
578.638	3.85
578.977	4.12
579.317	3.99
579.657	4.1
579.996	3.97
580.336	4.14
580.675	4.03
581.014	4.27
581.354	4.1
581.693	4.31
582.032	4.33
582.372	4.13
582.711	4.12
583.05	4.05
583.389	4.31
583.728	4.11
584.067	4.45
584.406	4.47
584.745	4.52
585.083	4.36
585.422	4.31
585.761	4.46
586.1	4.7
586.438	4.56
586.777	4.72
587.115	4.45
587.454	4.54
587.792	4.47
588.13	4.45
588.469	4.38
588.807	4.4
589.145	3.95
589.483	4.61
589.821	4.65
590.159	4.55
590.497	4.88
590.835	4.89
591.173	4.71
591.511	4.81
591.849	4.47
592.187	4.73
592.524	4.57
592.862	4.72
593.2	4.69
593.537	4.72
593.875	4.72
594.212	4.4
594.55	4.76
594.887	4.9
595.224	4.87
595.561	5.04
595.899	4.87
596.236	5.03
596.573	4.91
596.91	4.37
597.247	4.84
597.584	5.08
597.921	4.82
598.258	4.44
598.594	4.97
598.931	4.73
599.268	4.95
599.604	4.93
599.941	5
600.277	4.86
600.614	4.92
600.95	5.04
601.287	5.13
601.623	5.19
601.959	4.97
602.296	5.14
602.632	5.08
602.968	5.27
603.304	5.18
603.64	5.06
603.976	5.41
604.312	4.96
604.648	4.98
604.984	5.29
605.319	5.36
605.655	5.28
605.991	5.18
606.326	5.34
606.662	5.31
606.998	5.09
607.333	5.26
607.668	5.18
608.004	5.4
608.339	5.5
608.674	5.64
609.01	5.47
609.345	5.28
609.68	5.59
610.015	5.55
610.35	5.41
610.685	5.63
611.02	5.37
611.355	5.71
611.689	5.67
612.024	5.56
612.359	5.55
612.694	5.64
613.028	5.39
613.363	5.81
613.697	5.83
614.032	5.87
614.366	5.55
614.7	5.74
615.035	6.07
615.369	5.86
615.703	5.81
616.037	5.78
616.371	5.56
616.705	5.64
617.039	5.93
617.373	5.62
617.707	5.87
618.041	5.59
618.375	5.93
618.709	6.27
619.042	5.81
619.376	6.03
619.71	6.5
620.043	6.01
620.377	6.05
620.71	6.24
621.043	6.13
621.377	6.29
621.71	6.11
622.043	5.96
622.376	5.84
622.709	6.11
623.043	6.48
623.376	6.23
623.709	6.56
624.041	6.43
624.374	6.26
624.707	6.15
625.04	6.63
625.373	6.01
625.705	6.49
626.038	6.47
626.37	6.35
626.703	6.24
627.035	6.4
627.368	6.73
627.7	6.55
628.032	6.36
628.365	6.67
628.697	6.56
629.029	6.29
629.361	6.43
629.693	6.46
630.025	6.59
630.357	6.73
630.689	6.95
631.021	6.62
631.353	6.98
631.684	6.72
632.016	6.46
632.348	6.91
632.679	7.04
633.011	7
633.342	6.99
633.674	6.85
634.005	7.02
634.336	7.11
634.668	6.91
634.999	6.97
635.33	7.25
635.661	7.36
635.992	7.14
636.323	7.19
636.654	7.29
636.985	7.11
637.316	7.22
637.647	6.97
637.977	7.33
638.308	7.24
638.639	6.71
638.969	6.94
639.3	7.18
639.63	6.74
639.961	7.29
640.291	7.04
640.622	7.72
640.952	7.09
641.282	7.53
641.612	7.13
641.943	7.15
642.273	7
642.603	7.39
642.933	7.44
643.263	7.55
643.592	7.16
643.922	7.49
644.252	7.23
644.582	7.49
644.911	7.09
645.241	7.4
645.571	7.51
645.9	7.23
646.23	7.57
646.559	8
646.888	7.76
647.218	7.29
647.547	7.76
647.876	7.64
648.205	7.82
648.534	7.69
648.863	7.47
649.192	8.01
649.521	7.89
649.85	7.12
650.179	8.1
650.508	7.86
650.837	7.74
651.165	7.64
651.494	7.87
651.822	8.02
652.151	8.02
652.479	8.22
652.808	8.04
653.136	8.46
653.465	7.42
653.793	7.52
654.121	7.7
654.449	8.02
654.777	8.06
655.105	8.2
655.433	7.88
655.761	7.79
656.089	7.91
656.417	7.95
656.745	8.16
657.073	8.22
657.4	8.71
657.728	8.24
658.056	8.45
658.383	8.55
658.711	8.22
659.038	8.54
659.365	8.25
659.693	8.55
660.02	8.62
660.347	8.47
660.674	8.63
661.001	8.68
661.329	7.91
661.656	8.22
661.982	8.58
662.309	8.49
662.636	8.34
662.963	8.6
663.29	8.56
663.616	9.1
663.943	8.18
664.27	8.72
664.596	8.9
664.923	8.74
665.249	8.85
665.576	8.91
665.902	9.84
666.228	9.32
666.554	8.99
666.881	8.62
667.207	9.28
667.533	9.07
667.859	8.66
668.185	9.23
668.511	8.58
668.837	8.3
669.162	8.59
669.488	8.42
669.814	9.49
670.139	9.69
670.465	9.71
670.791	9.32
671.116	9.56
671.442	8.89
671.767	9.36
672.092	9.43
672.418	9.52
672.743	9.56
673.068	9.52
673.393	9.28
673.718	9.37
674.043	9.2
674.368	9.23
674.693	9.85
675.018	8.63
675.343	9
675.667	9.02
675.992	9.88
676.317	10.16
676.641	9.27
676.966	10.14
677.29	9.57
677.615	9.72
677.939	9.99
678.264	10.39
678.588	9.8
678.912	10.17
679.236	10.14
679.56	9.36
679.885	10.52
680.209	10.69
680.532	9.61
680.856	10.34
681.18	9.84
681.504	9.88
681.828	10.3
682.152	10.06
682.475	10.26
682.799	9.79
683.122	10.11
683.446	9.4
683.769	10.34
684.093	9.61
684.416	10.31
684.739	10.54
685.062	10.03
685.386	10.01
685.709	9.36
686.032	10.44
686.355	9.99
686.678	9.41
687.001	10.33
687.324	9.81
687.646	10.21
687.969	9.82
688.292	10.35
688.614	10.12
688.937	11.31
689.26	10.48
689.582	10.93
689.904	10.52
690.227	11.05
690.549	10.93
690.871	11.67
691.194	10.57
691.516	9.96
