Data from 0412_forehead_Reflection__5__45.txt Node

Date: Fri Dec 15 16:43:04 CST 2023
User: ToomeyLab
Spectrometer: FLMS14357
Trigger mode: 0
Integration Time (sec): 1.000000E-2
Scans to average: 100
Electric dark correction enabled: true
Nonlinearity correction enabled: false
Boxcar width: 0
XAxis mode: Wavelengths
Number of Pixels in Spectrum: 2048
>>>>>Begin Spectral Data<<<<<
189.047	54.69
189.435	54.69
189.823	54.69
190.211	132.88
190.599	100.3
190.987	64.68
191.375	132.24
191.763	52.02
192.151	17.08
192.538	163.78
192.926	-93.01
193.314	116.89
193.702	73.52
194.089	-282.36
194.477	134.38
194.864	294.35
195.252	105.93
195.639	155.05
196.027	161.62
196.414	-54.53
196.801	-94.58
197.189	56.71
197.576	-53.76
197.963	33.5
198.351	-35.29
198.738	26.64
199.125	30.02
199.512	30.03
199.899	57.74
200.286	60.99
200.673	-4.56
201.06	59.15
201.447	-10.91
201.833	20.22
202.22	44.77
202.607	93.67
202.994	23.38
203.38	26.11
203.767	71.04
204.154	43.76
204.54	28.61
204.927	43.23
205.313	50.14
205.699	38.08
206.086	30.94
206.472	22.91
206.858	38.48
207.245	29.56
207.631	47.77
208.017	28.08
208.403	3.83
208.789	50.69
209.175	38.16
209.561	12.39
209.947	61.78
210.333	24.39
210.719	37.62
211.105	39.07
211.491	23.08
211.876	47.07
212.262	52.12
212.648	20.2
213.034	61.92
213.419	34.55
213.805	-0.1
214.19	-16.4
214.576	23.94
214.961	3.94
215.346	-9.78
215.732	30.14
216.117	12.33
216.502	4.05
216.888	20.83
217.273	65.22
217.658	18.3
218.043	20.47
218.428	-9.77
218.813	32.93
219.198	12.07
219.583	18.43
219.968	27.19
220.353	18.45
220.738	38.75
221.122	36.92
221.507	6.86
221.892	3.9
222.276	6.55
222.661	23.64
223.046	31.98
223.43	20.92
223.815	13.07
224.199	-6.18
224.583	16.48
224.968	14.37
225.352	29.43
225.736	5.84
226.121	11.15
226.505	15.24
226.889	16.58
227.273	11.99
227.657	12.14
228.041	14.12
228.425	10.85
228.809	13.4
229.193	12.73
229.577	5.79
229.961	7.51
230.344	5.66
230.728	5.28
231.112	6.22
231.495	5.44
231.879	3.47
232.263	6.44
232.646	7.62
233.03	4.69
233.413	3.57
233.797	5.32
234.18	4.74
234.563	7.36
234.946	7.93
235.33	7.81
235.713	4.79
236.096	7.92
236.479	7.04
236.862	8.5
237.245	7.04
237.628	7.02
238.011	7.95
238.394	8.68
238.777	6.38
239.16	5.22
239.543	4.96
239.925	9.15
240.308	4.84
240.691	7.75
241.073	7.03
241.456	5.94
241.838	5.74
242.221	6.07
242.603	6.65
242.986	6.05
243.368	5.81
243.75	5.64
244.133	5.12
244.515	5.56
244.897	5.94
245.279	4.84
245.661	4.86
246.043	3.82
246.425	5.15
246.807	6.76
247.189	6.46
247.571	5.08
247.953	5.54
248.335	5.56
248.717	5.27
249.098	5.02
249.48	5.07
249.862	5.4
250.243	5.15
250.625	5.49
251.006	6.46
251.388	4.73
251.769	6.11
252.151	6.14
252.532	6.93
252.913	6.06
253.295	4.61
253.676	5.81
254.057	5.88
254.438	5.76
254.819	4.59
255.2	5.98
255.581	5.78
255.962	5.4
256.343	5.97
256.724	6.96
257.105	5.7
257.486	6.01
257.867	6.44
258.247	6.32
258.628	5.13
259.009	5.51
259.389	5.86
259.77	5.08
260.15	4.87
260.531	5.08
260.911	5.39
261.292	5.57
261.672	5.3
262.052	5.42
262.432	5.51
262.813	5.27
263.193	5.97
263.573	5.44
263.953	5.51
264.333	6.23
264.713	6.02
265.093	4.94
265.473	4.76
265.853	3.95
266.233	6.01
266.612	3.98
266.992	4.09
267.372	6.47
267.752	5.7
268.131	5.84
268.511	6.07
268.89	6.09
269.27	5.71
269.649	5.43
270.029	5.04
270.408	6.59
270.787	5.77
271.167	5.69
271.546	5.61
271.925	5.33
272.304	5.05
272.683	5.68
273.062	5.06
273.441	5.59
273.82	4.73
274.199	5.86
274.578	5.42
274.957	5.43
275.336	5.29
275.715	5.21
276.093	5.27
276.472	5.91
276.851	5.45
277.229	5.23
277.608	4.5
277.986	5.26
278.365	6.23
278.743	4.4
279.122	5.23
279.5	5.98
279.878	5.79
280.257	5.66
280.635	5.42
281.013	5.34
281.391	5.81
281.769	6.07
282.147	5.9
282.525	5.96
282.903	5.48
283.281	5.22
283.659	5.53
284.037	5.2
284.415	5.83
284.792	6.05
285.17	5.05
285.548	5.55
285.925	5.82
286.303	5.96
286.68	5.5
287.058	5.68
287.435	5.54
287.813	5.57
288.19	5.26
288.567	5.53
288.945	6.07
289.322	5.61
289.699	5.69
290.076	5.84
290.453	5.6
290.83	5.64
291.207	5.57
291.584	6.17
291.961	6.01
292.338	6.04
292.715	6.42
293.092	5.69
293.469	5.82
293.845	6.49
294.222	5.58
294.599	6.61
294.975	6.27
295.352	6.68
295.728	6.24
296.105	6.27
296.481	6.96
296.858	6.96
297.234	6.39
297.61	6.93
297.986	6.7
298.363	6.72
298.739	7.04
299.115	6.44
299.491	6.85
299.867	6.82
300.243	6.91
300.619	6.82
300.995	7.22
301.371	7.62
301.746	6.79
302.122	7.73
302.498	7.55
302.874	7.17
303.249	7.75
303.625	7.48
304	8.29
304.376	7.76
304.751	7.2
305.127	8.4
305.502	7.62
305.878	7.35
306.253	7.93
306.628	8.35
307.003	8.11
307.378	8.76
307.754	8.24
308.129	8.38
308.504	8.77
308.879	8.79
309.254	9.67
309.629	9.35
310.003	9.03
310.378	8.94
310.753	9.2
311.128	9.08
311.502	9.21
311.877	9.44
312.252	8.99
312.626	9.09
313.001	9.27
313.375	9.76
313.75	9.19
314.124	9.53
314.498	9.57
314.873	9.52
315.247	9.75
315.621	9.97
315.995	9.01
316.369	9.69
316.743	10.03
317.117	9.95
317.491	10.02
317.865	10.59
318.239	10.86
318.613	10.37
318.987	10.75
319.361	10.17
319.734	11.04
320.108	11.34
320.482	10.57
320.855	10.77
321.229	11.04
321.602	10.35
321.976	11.12
322.349	11.52
322.723	10.96
323.096	11.35
323.469	11.29
323.843	10.86
324.216	11.82
324.589	11.83
324.962	12.17
325.335	11.82
325.708	11.61
326.081	11.88
326.454	12.17
326.827	11.02
327.2	12.06
327.573	12.32
327.945	11.99
328.318	12.28
328.691	11.49
329.063	12.51
329.436	11.84
329.809	12.87
330.181	12.33
330.553	12.84
330.926	12.77
331.298	12.37
331.671	12.21
332.043	13.22
332.415	13.34
332.787	13.11
333.159	13.84
333.532	13.14
333.904	13.34
334.276	13.15
334.648	13.15
335.02	12.64
335.391	12.59
335.763	13.31
336.135	13.36
336.507	14.06
336.879	13.11
337.25	12.72
337.622	13.66
337.993	13.27
338.365	13.44
338.736	13.77
339.108	13.89
339.479	13.86
339.851	13.55
340.222	14.12
340.593	14.01
340.964	13.96
341.336	14.69
341.707	13.94
342.078	14.45
342.449	14.61
342.82	14.18
343.191	14.36
343.562	14.58
343.933	14.33
344.303	14.44
344.674	14.74
345.045	14.47
345.416	14.9
345.786	14.83
346.157	14.69
346.527	14.43
346.898	14.13
347.268	15.05
347.639	15.02
348.009	15.17
348.38	14.86
348.75	15.32
349.12	14.99
349.49	15.96
349.861	15.5
350.231	15.11
350.601	15.75
350.971	15.74
351.341	15.67
351.711	15.64
352.081	15.58
352.45	14.81
352.82	16.01
353.19	15.33
353.56	15.82
353.929	16.17
354.299	15.23
354.669	15.52
355.038	15.87
355.408	16.28
355.777	16.1
356.147	15.89
356.516	16.24
356.885	16.29
357.254	16.3
357.624	16.29
357.993	16.87
358.362	16.47
358.731	16.49
359.1	16.51
359.469	16.7
359.838	16.64
360.207	16.19
360.576	16.39
360.945	16.56
361.314	17.02
361.682	16.3
362.051	16.65
362.42	16.8
362.788	16.93
363.157	16.93
363.525	17.2
363.894	16.83
364.262	16.99
364.631	16.78
364.999	16.84
365.367	17.02
365.735	17.77
366.104	17.49
366.472	17.11
366.84	17.26
367.208	17.5
367.576	17.92
367.944	17.62
368.312	17.52
368.68	17.31
369.048	17.9
369.416	17.68
369.783	17.52
370.151	18.01
370.519	18.12
370.886	18.21
371.254	17.89
371.621	18.16
371.989	18.45
372.356	18.16
372.724	18.47
373.091	18.15
373.458	18.38
373.826	18.55
374.193	18.5
374.56	18.02
374.927	19.39
375.294	18.73
375.661	18.68
376.028	18.45
376.395	18.87
376.762	18.48
377.129	18.6
377.496	18.45
377.863	18.98
378.229	18.65
378.596	19.02
378.963	18.94
379.329	18.81
379.696	19.6
380.062	19.11
380.429	18.87
380.795	19.27
381.161	19.48
381.528	19.44
381.894	19.79
382.26	19.11
382.626	19.59
382.993	19.15
383.359	19.93
383.725	19.41
384.091	19.97
384.457	19.77
384.823	19.78
385.188	19.55
385.554	19.44
385.92	20.01
386.286	20.27
386.651	20.06
387.017	20.39
387.383	20.02
387.748	19.93
388.114	20.52
388.479	20.17
388.845	20.39
389.21	20.45
389.575	20.55
389.94	20.34
390.306	20.27
390.671	20.77
391.036	20.2
391.401	20.58
391.766	20.92
392.131	20.68
392.496	21.19
392.861	20.57
393.226	20.99
393.591	20.61
393.956	20.53
394.32	21
394.685	20.88
395.05	20.98
395.414	21.19
395.779	21.07
396.143	21.23
396.508	21.16
396.872	21.32
397.236	21.27
397.601	21.16
397.965	21.69
398.329	21.14
398.694	21.34
399.058	21.35
399.422	21.57
399.786	21.71
400.15	21.57
400.514	21.65
400.878	21.99
401.242	22.15
401.605	21.74
401.969	21.92
402.333	22.08
402.697	21.91
403.06	22
403.424	22.18
403.787	22.2
404.151	22.17
404.514	22.59
404.878	22.48
405.241	22.61
405.604	22.34
405.968	22.54
406.331	22.18
406.694	22.61
407.057	22.23
407.42	22.72
407.783	22.28
408.146	22.49
408.509	22.78
408.872	22.76
409.235	22.96
409.598	22.98
409.961	22.9
410.323	22.81
410.686	22.88
411.049	23.17
411.411	22.82
411.774	23.11
412.136	23.21
412.499	22.95
412.861	22.88
413.223	23.11
413.586	23.14
413.948	23.47
414.31	23.24
414.672	23.27
415.035	23.12
415.397	23.56
415.759	23.1
416.121	23.69
416.483	23.5
416.845	23.39
417.206	23.64
417.568	23.95
417.93	23.47
418.292	23.38
418.653	23.77
419.015	23.71
419.377	23.63
419.738	23.9
420.1	23.6
420.461	23.77
420.822	23.6
421.184	23.68
421.545	23.71
421.906	23.93
422.267	23.91
422.629	23.82
422.99	23.81
423.351	23.72
423.712	23.83
424.073	23.79
424.434	24.03
424.795	24.08
425.155	24.18
425.516	24.1
425.877	24.12
426.238	24.05
426.598	24.06
426.959	24.29
427.32	24.24
427.68	24.24
428.041	24.47
428.401	24.6
428.761	24.59
429.122	24.85
429.482	25.06
429.842	25.07
430.202	25.09
430.563	25.09
430.923	25.16
431.283	25.1
431.643	25.21
432.003	25.4
432.363	25.37
432.722	25.42
433.082	25.57
433.442	25.55
433.802	25.48
434.161	25.54
434.521	25.56
434.881	25.44
435.24	25.59
435.6	25.56
435.959	25.38
436.319	25.63
436.678	25.59
437.037	25.49
437.396	25.84
437.756	26.07
438.115	26.3
438.474	26.15
438.833	25.93
439.192	26.05
439.551	26.45
439.91	26.11
440.269	26.2
440.628	26.25
440.987	26.34
441.345	26.24
441.704	26.27
442.063	26.29
442.421	26
442.78	25.96
443.138	26.11
443.497	26.29
443.855	26.36
444.214	26.4
444.572	26.6
444.93	26.68
445.288	26.61
445.647	26.73
446.005	26.77
446.363	26.94
446.721	27
447.079	26.64
447.437	26.61
447.795	26.77
448.153	26.62
448.51	26.59
448.868	26.71
449.226	26.64
449.584	26.68
449.941	26.97
450.299	27.06
450.656	26.89
451.014	27.25
451.371	27.36
451.729	27.25
452.086	27.34
452.443	27.46
452.801	27.57
453.158	27.83
453.515	27.66
453.872	27.74
454.229	27.66
454.586	27.8
454.943	27.82
455.3	27.87
455.657	27.84
456.014	27.89
456.371	27.94
456.727	27.93
457.084	27.88
457.441	27.92
457.797	28.19
458.154	28.67
458.51	28.39
458.867	28.39
459.223	28.34
459.58	28.46
459.936	28.38
460.292	28.63
460.648	28.25
461.005	28.51
461.361	28.44
461.717	28.36
462.073	28.04
462.429	28.19
462.785	28.13
463.141	28.22
463.496	28.55
463.852	28.8
464.208	28.76
464.564	29.1
464.919	28.84
465.275	29.01
465.631	29.25
465.986	28.99
466.342	29.33
466.697	28.89
467.052	29.24
467.408	29.11
467.763	29.16
468.118	29.29
468.473	29.45
468.829	29.41
469.184	29.41
469.539	29.6
469.894	29.3
470.249	29.43
470.603	29.67
470.958	29.63
471.313	29.72
471.668	29.79
472.023	29.88
472.377	29.72
472.732	29.84
473.086	29.74
473.441	29.68
473.795	30.08
474.15	29.82
474.504	30.11
474.859	30.09
475.213	29.83
475.567	30.02
475.921	30.06
476.275	30.22
476.63	30.4
476.984	30.45
477.338	30.41
477.692	30.29
478.045	30.58
478.399	30.3
478.753	30.44
479.107	30.53
479.461	30.36
479.814	30.42
480.168	30.58
480.521	30.5
480.875	30.43
481.228	30.54
481.582	30.55
481.935	30.87
482.289	30.77
482.642	30.63
482.995	30.72
483.348	30.84
483.701	30.91
484.055	30.69
484.408	30.74
484.761	30.58
485.114	30.41
485.466	30.04
485.819	30.06
486.172	29.76
486.525	29.65
486.878	29.66
487.23	29.89
487.583	30.13
487.936	30.31
488.288	30.71
488.641	30.66
488.993	30.6
489.345	30.39
489.698	30.34
490.05	30.31
490.402	30.36
490.754	30.4
491.107	30.6
491.459	30.76
491.811	30.92
492.163	31.11
492.515	31.33
492.866	31.52
493.218	31.16
493.57	31.07
493.922	30.9
494.274	30.73
494.625	30.92
494.977	31.2
495.328	31.54
495.68	31.67
496.031	32.15
496.383	32.07
496.734	32.37
497.086	32.28
497.437	32.4
497.788	31.98
498.139	32.07
498.49	32.41
498.842	32.08
499.193	32.23
499.544	32.07
499.894	32.3
500.245	32.28
500.596	32.48
500.947	32.44
501.298	32.38
501.648	32.51
501.999	32.76
502.35	32.72
502.7	32.77
503.051	32.69
503.401	32.93
503.752	32.74
504.102	33.25
504.452	33.14
504.803	33.1
505.153	33
505.503	33.16
505.853	33.09
506.203	33.11
506.553	33.24
506.903	32.97
507.253	33.32
507.603	33.27
507.953	33.4
508.303	33.62
508.652	33.46
509.002	33.5
509.352	33.44
509.701	33.45
510.051	33.61
510.4	33.48
510.75	33.45
511.099	33.56
511.449	33.38
511.798	33.54
512.147	33.42
512.496	33.6
512.846	33.6
513.195	33.73
513.544	33.88
513.893	33.69
514.242	33.82
514.591	33.89
514.939	33.82
515.288	33.71
515.637	33.98
515.986	34.06
516.334	34.1
516.683	34.23
517.032	34.24
517.38	34.4
517.729	34.27
518.077	34.49
518.426	34.75
518.774	34.58
519.122	34.4
519.47	34.6
519.819	34.18
520.167	34.16
520.515	34.15
520.863	34.36
521.211	33.92
521.559	34.21
521.907	34.12
522.255	34.31
522.602	34.33
522.95	34.58
523.298	34.75
523.645	34.73
523.993	34.81
524.341	35.13
524.688	34.94
525.036	35
525.383	35.13
525.73	35.41
526.078	35.18
526.425	35.07
526.772	35.14
527.119	35.09
527.466	34.94
527.814	34.84
528.161	34.72
528.508	34.73
528.854	34.74
529.201	34.93
529.548	34.94
529.895	34.8
530.242	34.64
530.588	34.61
530.935	34.38
531.282	34.21
531.628	34.22
531.975	34.37
532.321	34.63
532.667	34.79
533.014	35.15
533.36	35.12
533.706	35.29
534.052	35.43
534.399	35.44
534.745	35.48
535.091	35.37
535.437	35.26
535.783	35.19
536.129	35.16
536.474	35.12
536.82	35.44
537.166	35.66
537.512	35.92
537.857	36.03
538.203	36.08
538.549	35.88
538.894	35.83
539.239	35.76
539.585	35.77
539.93	35.9
540.276	36.15
540.621	36.59
540.966	36.43
541.311	36.48
541.656	36.71
542.001	36.78
542.346	36.65
542.691	36.18
543.036	36.12
543.381	35.89
543.726	35.78
544.071	35.8
544.415	35.84
544.76	35.9
545.105	36.15
545.449	36.34
545.794	36.52
546.138	36.48
546.483	36.69
546.827	36.78
547.171	36.74
547.516	37.14
547.86	36.94
548.204	37.04
548.548	37.01
548.892	37.06
549.236	37.06
549.58	36.95
549.924	37.11
550.268	37.33
550.612	37.43
550.956	37.52
551.3	37.32
551.643	37.59
551.987	38.06
552.33	37.79
552.674	37.85
553.017	37.73
553.361	37.86
553.704	38.13
554.048	38.05
554.391	37.82
554.734	37.88
555.077	38
555.42	37.82
555.764	37.7
556.107	37.89
556.45	37.96
556.793	38.12
557.135	37.98
557.478	38.36
557.821	38.25
558.164	38.27
558.507	38.48
558.849	38.48
559.192	38.68
559.534	38.54
559.877	38.59
560.219	38.37
560.562	38.89
560.904	38.53
561.246	38.62
561.589	38.94
561.931	39.01
562.273	38.48
562.615	38.81
562.957	38.7
563.299	38.73
563.641	38.86
563.983	38.75
564.325	38.68
564.667	39.01
565.008	38.77
565.35	39.18
565.692	38.98
566.033	38.76
566.375	39.33
566.716	39.33
567.058	39.23
567.399	39.1
567.741	39.28
568.082	39.27
568.423	39.27
568.764	39.19
569.105	39.27
569.447	39.07
569.788	39.15
570.129	39.26
570.47	39.4
570.811	39.65
571.151	39.73
571.492	39.51
571.833	39.35
572.174	39.48
572.514	39.63
572.855	39.51
573.195	39.74
573.536	39.49
573.876	39.15
574.217	39.58
574.557	39.57
574.898	39.71
575.238	39.75
575.578	39.5
575.918	39.74
576.258	39.96
576.598	39.99
576.938	39.68
577.278	39.62
577.618	39.87
577.958	39.87
578.298	40.02
578.638	39.86
578.977	40.22
579.317	39.83
579.657	40.38
579.996	40.64
580.336	40.25
580.675	40.19
581.014	40.68
581.354	40.8
581.693	40.54
582.032	40.52
582.372	40.73
582.711	41.03
583.05	40.52
583.389	40.89
583.728	40.67
584.067	40.79
584.406	40.98
584.745	41.03
585.083	41.02
585.422	40.82
585.761	41.3
586.1	41.44
586.438	41.25
586.777	41.53
587.115	41.14
587.454	41.3
587.792	40.99
588.13	41.53
588.469	40.93
588.807	41.37
589.145	41.09
589.483	41.2
589.821	41.09
590.159	41.23
590.497	41.45
590.835	41.83
591.173	41.43
591.511	41.54
591.849	41.63
592.187	41.52
592.524	41.3
592.862	41.31
593.2	41.58
593.537	41.37
593.875	41.7
594.212	41.64
594.55	41.81
594.887	41.91
595.224	41.83
595.561	41.95
595.899	42.05
596.236	41.68
596.573	42.12
596.91	41.66
597.247	41.65
597.584	42.11
597.921	42.18
598.258	41.91
598.594	41.85
598.931	42.21
599.268	41.82
599.604	41.56
599.941	41.67
600.277	42.2
600.614	42.03
600.95	41.74
601.287	42.22
601.623	42.14
601.959	42.46
602.296	42.27
602.632	42.18
602.968	42.6
603.304	42.7
603.64	42.61
603.976	42.68
604.312	42.57
604.648	42.71
604.984	42.85
605.319	42.8
605.655	42.45
605.991	42.65
606.326	42.45
606.662	42.64
606.998	42.34
607.333	42.38
607.668	42.21
608.004	42.36
608.339	42.69
608.674	42.43
609.01	42.58
609.345	42.99
609.68	43.19
610.015	43.17
610.35	42.91
610.685	42.97
611.02	43.21
611.355	42.72
611.689	43.05
612.024	43.09
612.359	43.1
612.694	42.88
613.028	42.59
613.363	43.13
613.697	43.6
614.032	43.36
614.366	43.68
614.7	43.93
615.035	43.5
615.369	43.11
615.703	43.45
616.037	44.15
616.371	43.11
616.705	43.48
617.039	43.68
617.373	43.81
617.707	43.54
618.041	43.28
618.375	43.59
618.709	43.77
619.042	43.51
619.376	43.73
619.71	43.77
620.043	43.85
620.377	43.65
620.71	44.55
621.043	43.83
621.377	44.26
621.71	43.54
622.043	44.34
622.376	43.79
622.709	43.71
623.043	44.16
623.376	43.84
623.709	43.65
624.041	44.27
624.374	44.28
624.707	44.15
625.04	44.63
625.373	44.28
625.705	44.27
626.038	44.25
626.37	44.26
626.703	44.26
627.035	44.32
627.368	45.03
627.7	44.48
628.032	44.58
628.365	44.49
628.697	44.71
629.029	44.68
629.361	44.5
629.693	44.53
630.025	44.53
630.357	44.36
630.689	44.49
631.021	44.45
631.353	44.67
631.684	44.81
632.016	44.59
632.348	44.69
632.679	45.02
633.011	44.63
633.342	45.51
633.674	44.88
634.005	45.28
634.336	44.61
634.668	45.35
634.999	44.7
635.33	45.19
635.661	45.03
635.992	44.68
636.323	44.99
636.654	45
636.985	45.11
637.316	45.23
637.647	44.91
637.977	44.9
638.308	44.98
638.639	44.82
638.969	45.21
639.3	45.38
639.63	44.75
639.961	45.34
640.291	45.69
640.622	45.46
640.952	45.55
641.282	45.5
641.612	45.77
641.943	45.95
642.273	45.65
642.603	45.55
642.933	45.4
643.263	45.1
643.592	45.43
643.922	45.56
644.252	45.94
644.582	45.78
644.911	45.33
645.241	45.21
645.571	46
645.9	45.88
646.23	45.81
646.559	45.68
646.888	45.95
647.218	45.65
647.547	46.19
647.876	46.17
648.205	46.35
648.534	45.95
648.863	45.63
649.192	46.6
649.521	46.59
649.85	46.49
650.179	46.1
650.508	46.03
650.837	46.12
651.165	46
651.494	46.69
651.822	46.85
652.151	45.93
652.479	46.12
652.808	46.44
653.136	46.56
653.465	46.27
653.793	45.83
654.121	45.77
654.449	46.46
654.777	46.19
655.105	46.26
655.433	46.21
655.761	46.52
656.089	46.31
656.417	47
656.745	46.58
657.073	46.3
657.4	47.01
657.728	46.99
658.056	46.21
658.383	46.89
658.711	46.59
659.038	46.14
659.365	46.78
659.693	46.62
660.02	46.66
660.347	46.54
660.674	47.11
661.001	47.16
661.329	46.19
661.656	47.37
661.982	46.68
662.309	46.61
662.636	46.62
662.963	46.62
663.29	47.14
663.616	46.92
663.943	46.83
664.27	46.79
664.596	46.83
664.923	47.31
665.249	47.53
665.576	47.61
665.902	47.63
666.228	47.32
666.554	47.16
666.881	47.24
667.207	46.7
667.533	48.04
667.859	47.17
668.185	47.5
668.511	46.91
668.837	46.8
