Data from 0412_crown_Reflection__4__39.txt Node

Date: Fri Dec 15 16:41:34 CST 2023
User: ToomeyLab
Spectrometer: FLMS14357
Trigger mode: 0
Integration Time (sec): 1.000000E-2
Scans to average: 100
Electric dark correction enabled: true
Nonlinearity correction enabled: false
Boxcar width: 0
XAxis mode: Wavelengths
Number of Pixels in Spectrum: 2048
>>>>>Begin Spectral Data<<<<<
189.047	-119.57
189.435	-119.57
189.823	-119.57
190.211	-186.26
190.599	273.65
190.987	82.79
191.375	167.64
191.763	-56.16
192.151	-48.55
192.538	89.25
192.926	-117.08
193.314	79.36
193.702	76.83
194.089	362.55
194.477	262.7
194.864	10.46
195.252	120.28
195.639	102.12
196.027	127.05
196.414	-161.32
196.801	46.1
197.189	106.71
197.576	116.24
197.963	37.26
198.351	-18.69
198.738	8.08
199.125	47.38
199.512	-0.67
199.899	117.69
200.286	35.94
200.673	7.25
201.06	-6.57
201.447	22.76
201.833	12.77
202.22	24.87
202.607	72.67
202.994	22.13
203.38	12.53
203.767	42.24
204.154	35.43
204.54	39.89
204.927	3.96
205.313	17.26
205.699	31.37
206.086	25.2
206.472	25.37
206.858	51
207.245	-36.9
207.631	29.37
208.017	13.47
208.403	9.93
208.789	49.34
209.175	40.86
209.561	39
209.947	-1.28
210.333	-53.95
210.719	45.59
211.105	14.23
211.491	12.91
211.876	44.92
212.262	17
212.648	36.51
213.034	35.13
213.419	21.52
213.805	10.94
214.19	16.21
214.576	27.77
214.961	-7.47
215.346	-42
215.732	21.93
216.117	16.77
216.502	27.2
216.888	-6.41
217.273	53.23
217.658	12.34
218.043	38.19
218.428	3.68
218.813	-4.08
219.198	-10.01
219.583	16.96
219.968	15.97
220.353	3.85
220.738	22.75
221.122	19.55
221.507	-6.36
221.892	-9.71
222.276	-2.61
222.661	23.1
223.046	28.26
223.43	20.09
223.815	11.43
224.199	-0.29
224.583	8.29
224.968	15.73
225.352	10.85
225.736	6.32
226.121	6.43
226.505	23.47
226.889	9.44
227.273	6.12
227.657	13.27
228.041	9.76
228.425	14.68
228.809	12.97
229.193	14.18
229.577	7.56
229.961	8.21
230.344	9.55
230.728	8.27
231.112	9.38
231.495	9.52
231.879	7.06
232.263	8.85
232.646	9.15
233.03	9.78
233.413	8.04
233.797	8.63
234.18	5.06
234.563	10.78
234.946	8.36
235.33	10.54
235.713	9.6
236.096	8.41
236.479	9.44
236.862	6.96
237.245	9.75
237.628	8.64
238.011	9.92
238.394	9.35
238.777	8.72
239.16	6.49
239.543	9.16
239.925	9.98
240.308	7.99
240.691	9.43
241.073	8.64
241.456	8.6
241.838	7.85
242.221	8.7
242.603	8.31
242.986	7.02
243.368	7.57
243.75	8.55
244.133	7.37
244.515	7.96
244.897	8.03
245.279	7.89
245.661	8.21
246.043	7.64
246.425	7.55
246.807	8.41
247.189	8.93
247.571	7.67
247.953	7.69
248.335	7.82
248.717	7.58
249.098	7.85
249.48	7.84
249.862	7.9
250.243	7.57
250.625	7.59
251.006	8.11
251.388	7.39
251.769	8.01
252.151	8.9
252.532	8.33
252.913	7.45
253.295	7.51
253.676	7.35
254.057	7.66
254.438	8.02
254.819	7.61
255.2	7.55
255.581	8.23
255.962	7.09
256.343	7.56
256.724	6.65
257.105	6.69
257.486	7.25
257.867	8.89
258.247	7.89
258.628	6.56
259.009	7.65
259.389	7.09
259.77	7.91
260.15	6.91
260.531	6.24
260.911	7.58
261.292	7.25
261.672	7.39
262.052	6.99
262.432	7.42
262.813	7.63
263.193	7.27
263.573	6.84
263.953	7.27
264.333	7.44
264.713	7.44
265.093	6.73
265.473	6.91
265.853	5.89
266.233	7.11
266.612	6.09
266.992	5.24
267.372	7.56
267.752	7.77
268.131	6.44
268.511	7.5
268.89	7.03
269.27	6.42
269.649	7.26
270.029	6.06
270.408	7.86
270.787	7.45
271.167	7.71
271.546	7.97
271.925	5.98
272.304	7.03
272.683	7.44
273.062	6.89
273.441	7.03
273.82	6.18
274.199	6.45
274.578	6.93
274.957	5.96
275.336	6.38
275.715	6.47
276.093	6.27
276.472	7.28
276.851	6.77
277.229	6.09
277.608	6.53
277.986	7.18
278.365	7.19
278.743	5.67
279.122	6.72
279.5	7.01
279.878	6.81
280.257	6.45
280.635	6.4
281.013	6.32
281.391	6.95
281.769	7.21
282.147	7.31
282.525	7.17
282.903	6.35
283.281	6.64
283.659	6.86
284.037	6.69
284.415	6.81
284.792	6.69
285.17	6.02
285.548	5.72
285.925	6.29
286.303	6.29
286.68	6.37
287.058	6.45
287.435	5.82
287.813	6.18
288.19	5.97
288.567	6.01
288.945	6.43
289.322	6.33
289.699	6.29
290.076	6.36
290.453	5.9
290.83	6.06
291.207	6.17
291.584	6.11
291.961	6.7
292.338	6.1
292.715	6.68
293.092	6.17
293.469	5.58
293.845	6.33
294.222	5.72
294.599	6.1
294.975	5.87
295.352	6.45
295.728	5.71
296.105	5.71
296.481	6.46
296.858	6.08
297.234	5.89
297.61	6.26
297.986	5.85
298.363	6.03
298.739	5.79
299.115	5.39
299.491	5.52
299.867	5.73
300.243	5.77
300.619	5.53
300.995	5.87
301.371	6.17
301.746	5.41
302.122	5.86
302.498	5.57
302.874	6.31
303.249	5.66
303.625	5.96
304	6.27
304.376	5.9
304.751	5.39
305.127	6.28
305.502	5.34
305.878	4.77
306.253	5.26
306.628	5.83
307.003	5.48
307.378	5.67
307.754	6.17
308.129	5.05
308.504	5.43
308.879	5.5
309.254	6.5
309.629	6.04
310.003	5.62
310.378	5.92
310.753	5.74
311.128	5.64
311.502	5.65
311.877	6.12
312.252	5.09
312.626	5.76
313.001	5.29
313.375	5.86
313.75	5.37
314.124	5.71
314.498	5.54
314.873	5.58
315.247	5.1
315.621	5.51
315.995	4.93
316.369	5.27
316.743	5.18
317.117	5.88
317.491	4.86
317.865	5.08
318.239	5.4
318.613	5.78
318.987	5.31
319.361	4.64
319.734	6.24
320.108	5.46
320.482	5.15
320.855	5.56
321.229	5.06
321.602	4.65
321.976	5.93
322.349	4.98
322.723	5.61
323.096	5.34
323.469	4.83
323.843	5.35
324.216	5.96
324.589	5.02
324.962	5.06
325.335	5.2
325.708	5.24
326.081	5.45
326.454	5.77
326.827	4.93
327.2	5.32
327.573	5.66
327.945	5.19
328.318	4.51
328.691	4.75
329.063	5.22
329.436	5.04
329.809	5.16
330.181	4.97
330.553	4.92
330.926	5.35
331.298	5.48
331.671	5.06
332.043	5.81
332.415	5.82
332.787	5.37
333.159	6.03
333.532	5.86
333.904	5.23
334.276	4.8
334.648	5.58
335.02	4.96
335.391	5.27
335.763	5.25
336.135	5.34
336.507	5.57
336.879	5.18
337.25	5.1
337.622	5.29
337.993	4.97
338.365	5.44
338.736	5.32
339.108	4.92
339.479	4.78
339.851	5.51
340.222	5.16
340.593	5.3
340.964	4.99
341.336	5.24
341.707	5.07
342.078	5.63
342.449	5.21
342.82	4.84
343.191	5.32
343.562	5.61
343.933	5.09
344.303	5.35
344.674	4.76
345.045	5
345.416	5.28
345.786	5.15
346.157	5.29
346.527	4.71
346.898	5
347.268	5.06
347.639	5.21
348.009	5.14
348.38	5.25
348.75	5.07
349.12	5.04
349.49	5.14
349.861	5.14
350.231	5.01
350.601	5.35
350.971	5.47
351.341	5.27
351.711	5.5
352.081	4.76
352.45	4.81
352.82	5.66
353.19	5.11
353.56	5
353.929	5.22
354.299	4.93
354.669	4.83
355.038	5.29
355.408	5.31
355.777	5.05
356.147	5.04
356.516	5.28
356.885	5.58
357.254	4.92
357.624	5.35
357.993	5.2
358.362	4.99
358.731	4.85
359.1	4.97
359.469	5.05
359.838	5.28
360.207	5.3
360.576	5.27
360.945	5.49
361.314	5.39
361.682	5.36
362.051	4.93
362.42	5.4
362.788	5.53
363.157	5.26
363.525	5.37
363.894	5.5
364.262	5.35
364.631	5.15
364.999	5.02
365.367	4.75
365.735	5.91
366.104	5.33
366.472	5.37
366.84	5.15
367.208	5.38
367.576	5.58
367.944	5.59
368.312	5.44
368.68	5.39
369.048	5.46
369.416	5.36
369.783	5.46
370.151	5.68
370.519	5.72
370.886	5.76
371.254	5.29
371.621	5.66
371.989	5.87
372.356	4.7
372.724	5.7
373.091	5.43
373.458	5.46
373.826	5.46
374.193	5.73
374.56	5.62
374.927	5.43
375.294	5.55
375.661	5.57
376.028	5.09
376.395	5.28
376.762	5.6
377.129	5.56
377.496	5.37
377.863	5.77
378.229	5.21
378.596	5.79
378.963	5.72
379.329	5.27
379.696	5.72
380.062	5.63
380.429	5.52
380.795	5.51
381.161	5.39
381.528	5.59
381.894	5.72
382.26	5.53
382.626	5.73
382.993	5.4
383.359	5.98
383.725	5.58
384.091	5.79
384.457	5.72
384.823	5.91
385.188	5.48
385.554	5.61
385.92	5.72
386.286	6.06
386.651	5.91
387.017	5.89
387.383	5.48
387.748	5.61
388.114	5.81
388.479	5.81
388.845	5.89
389.21	5.86
389.575	5.77
389.94	5.69
390.306	5.81
390.671	6
391.036	5.39
391.401	5.86
391.766	5.86
392.131	5.59
392.496	5.99
392.861	5.74
393.226	5.91
393.591	5.89
393.956	5.54
394.32	5.85
394.685	5.83
395.05	5.73
395.414	5.65
395.779	5.78
396.143	5.48
396.508	5.73
396.872	5.96
397.236	5.97
397.601	5.71
397.965	6.14
398.329	6.07
398.694	6.12
399.058	5.98
399.422	5.63
399.786	6.06
400.15	6.18
400.514	5.88
400.878	6.24
401.242	6
401.605	5.97
401.969	6.06
402.333	6.05
402.697	5.74
403.06	5.91
403.424	6.02
403.787	5.85
404.151	6.19
404.514	5.83
404.878	5.84
405.241	6.27
405.604	6.01
405.968	6.17
406.331	6.07
406.694	6.22
407.057	6.07
407.42	6.1
407.783	5.91
408.146	5.94
408.509	5.99
408.872	5.93
409.235	5.94
409.598	6.24
409.961	6.1
410.323	6.32
410.686	6.12
411.049	5.76
411.411	5.82
411.774	6.18
412.136	5.94
412.499	5.82
412.861	5.97
413.223	6.01
413.586	6.09
413.948	5.98
414.31	5.89
414.672	5.89
415.035	5.78
415.397	6.62
415.759	5.83
416.121	6.18
416.483	5.9
416.845	6.06
417.206	5.93
417.568	6.22
417.93	5.84
418.292	6.02
418.653	6.09
419.015	6.13
419.377	6.11
419.738	6.26
420.1	6.01
420.461	6.18
420.822	6.21
421.184	6
421.545	6.01
421.906	5.91
422.267	5.95
422.629	6
422.99	6.01
423.351	5.78
423.712	6.01
424.073	6.04
424.434	5.98
424.795	6.08
425.155	6.13
425.516	5.97
425.877	6.05
426.238	5.99
426.598	6.06
426.959	6
427.32	6.03
427.68	6.06
428.041	6.04
428.401	6.17
428.761	6.14
429.122	6.19
429.482	6.08
429.842	6.39
430.202	6.2
430.563	6.42
430.923	6.21
431.283	6.2
431.643	6.21
432.003	6.29
432.363	6.28
432.722	6.2
433.082	6.16
433.442	6.26
433.802	6.13
434.161	6.32
434.521	6.35
434.881	6.27
435.24	6.15
435.6	6.13
435.959	6.19
436.319	6.15
436.678	6.12
437.037	6.27
437.396	6.3
437.756	6.4
438.115	6.31
438.474	6.39
438.833	6.24
439.192	6.17
439.551	6.5
439.91	6.14
440.269	6.2
440.628	6.21
440.987	6.35
441.345	6.14
441.704	6.22
442.063	6.14
442.421	6.22
442.78	6.16
443.138	6.23
443.497	6.24
443.855	6.17
444.214	6.22
444.572	6.37
444.93	6.35
445.288	6.47
445.647	6.46
446.005	6.3
446.363	6.39
446.721	6.4
447.079	6.08
447.437	6.24
447.795	6.35
448.153	6.1
448.51	6.25
448.868	6.34
449.226	6.33
449.584	6.32
449.941	6.41
450.299	6.43
450.656	6.31
451.014	6.41
451.371	6.41
451.729	6.22
452.086	6.63
452.443	6.51
452.801	6.52
453.158	6.42
453.515	6.31
453.872	6.55
454.229	6.5
454.586	6.43
454.943	6.34
455.3	6.58
455.657	6.31
456.014	6.55
456.371	6.42
456.727	6.4
457.084	6.54
457.441	6.47
457.797	6.51
458.154	6.55
458.51	6.54
458.867	6.48
459.223	6.49
459.58	6.47
459.936	6.59
460.292	6.37
460.648	6.53
461.005	6.44
461.361	6.36
461.717	6.32
462.073	6.27
462.429	6.41
462.785	6.36
463.141	6.36
463.496	6.54
463.852	6.62
464.208	6.72
464.564	6.64
464.919	6.29
465.275	6.48
465.631	6.69
465.986	6.56
466.342	6.61
466.697	6.34
467.052	6.46
467.408	6.62
467.763	6.59
468.118	6.64
468.473	6.43
468.829	6.52
469.184	6.62
469.539	6.73
469.894	6.44
470.249	6.65
470.603	6.62
470.958	6.74
471.313	6.74
471.668	6.59
472.023	6.62
472.377	6.62
472.732	6.59
473.086	6.62
473.441	6.47
473.795	6.64
474.15	6.46
474.504	6.49
474.859	6.69
475.213	6.56
475.567	6.55
475.921	6.51
476.275	6.72
476.63	6.62
476.984	6.75
477.338	6.6
477.692	6.38
478.045	6.56
478.399	6.45
478.753	6.61
479.107	6.62
479.461	6.59
479.814	6.57
480.168	6.56
480.521	6.62
480.875	6.56
481.228	6.57
481.582	6.45
481.935	6.65
482.289	6.74
482.642	6.53
482.995	6.59
483.348	6.45
483.701	6.52
484.055	6.59
484.408	6.61
484.761	6.33
485.114	6.3
485.466	6.14
485.819	6.12
486.172	6.14
486.525	6.17
486.878	6.28
487.23	6.35
487.583	6.33
487.936	6.38
488.288	6.39
488.641	6.4
488.993	6.26
489.345	6.22
489.698	6.24
490.05	6.27
490.402	6.28
490.754	6.3
491.107	6.36
491.459	6.44
491.811	6.44
492.163	6.5
492.515	6.44
492.866	6.48
493.218	6.35
493.57	6.34
493.922	6.34
494.274	6.38
494.625	6.49
494.977	6.48
495.328	6.63
495.68	6.64
496.031	6.67
496.383	6.68
496.734	6.72
497.086	6.66
497.437	6.76
497.788	6.62
498.139	6.53
498.49	6.68
498.842	6.55
499.193	6.69
499.544	6.5
499.894	6.56
500.245	6.57
500.596	6.68
500.947	6.74
501.298	6.58
501.648	6.78
501.999	6.82
502.35	6.75
502.7	6.74
503.051	6.54
503.401	6.56
503.752	6.77
504.102	6.65
504.452	6.63
504.803	6.68
505.153	6.66
505.503	6.73
505.853	6.71
506.203	6.61
506.553	6.55
506.903	6.68
507.253	6.7
507.603	6.42
507.953	6.74
508.303	6.89
508.652	6.57
509.002	6.66
509.352	6.65
509.701	6.71
510.051	6.71
510.4	6.7
510.75	6.56
511.099	6.71
511.449	6.59
511.798	6.63
512.147	6.55
512.496	6.58
512.846	6.57
513.195	6.59
513.544	6.52
513.893	6.63
514.242	6.49
514.591	6.77
514.939	6.59
515.288	6.62
515.637	6.72
515.986	6.71
516.334	6.65
516.683	6.76
517.032	6.65
517.38	6.82
517.729	6.59
518.077	6.73
518.426	6.76
518.774	6.73
519.122	6.58
519.47	6.56
519.819	6.5
520.167	6.56
520.515	6.58
520.863	6.59
521.211	6.61
521.559	6.72
521.907	6.64
522.255	6.67
522.602	6.66
522.95	6.68
523.298	6.62
523.645	6.86
523.993	6.69
524.341	6.94
524.688	6.83
525.036	6.67
525.383	6.63
525.73	6.93
526.078	6.6
526.425	6.63
526.772	6.82
527.119	6.6
527.466	6.63
527.814	6.53
528.161	6.57
528.508	6.55
528.854	6.59
529.201	6.6
529.548	6.57
529.895	6.54
530.242	6.32
530.588	6.28
530.935	6.31
531.282	6.33
531.628	6.36
531.975	6.43
532.321	6.49
532.667	6.53
533.014	6.56
533.36	6.65
533.706	6.63
534.052	6.6
534.399	6.47
534.745	6.48
535.091	6.44
535.437	6.5
535.783	6.41
536.129	6.48
536.474	6.51
536.82	6.62
537.166	6.66
537.512	6.64
537.857	6.57
538.203	6.69
538.549	6.52
538.894	6.58
539.239	6.53
539.585	6.62
539.93	6.53
540.276	6.63
540.621	6.88
540.966	6.74
541.311	6.58
541.656	6.55
542.001	6.69
542.346	6.7
542.691	6.45
543.036	6.46
543.381	6.33
543.726	6.39
544.071	6.39
544.415	6.49
544.76	6.47
545.105	6.59
545.449	6.54
545.794	6.66
546.138	6.53
546.483	6.65
546.827	6.68
547.171	6.7
547.516	6.83
547.86	6.7
548.204	6.57
548.548	6.55
548.892	6.71
549.236	6.6
549.58	6.55
549.924	6.64
550.268	6.74
550.612	6.84
550.956	6.9
551.3	6.68
551.643	6.85
551.987	6.86
552.33	6.81
552.674	6.82
553.017	6.86
553.361	6.66
553.704	6.96
554.048	6.74
554.391	6.74
554.734	6.72
555.077	6.77
555.42	6.54
555.764	6.57
556.107	6.6
556.45	6.57
556.793	6.66
557.135	6.69
557.478	6.75
557.821	6.65
558.164	6.66
558.507	6.76
558.849	6.69
559.192	6.73
559.534	6.63
559.877	6.72
560.219	6.72
560.562	6.9
560.904	6.65
561.246	6.74
561.589	6.71
561.931	6.87
562.273	6.69
562.615	6.74
562.957	6.72
563.299	6.56
563.641	6.77
563.983	6.7
564.325	6.62
564.667	6.61
565.008	6.69
565.35	6.78
565.692	6.65
566.033	6.66
566.375	6.86
566.716	6.86
567.058	6.61
567.399	6.6
567.741	6.51
568.082	6.66
568.423	6.61
568.764	6.61
569.105	6.64
569.447	6.65
569.788	6.69
570.129	6.65
570.47	6.54
570.811	6.85
571.151	6.6
571.492	6.59
571.833	6.68
572.174	6.62
572.514	6.59
572.855	6.73
573.195	6.58
573.536	6.58
573.876	6.59
574.217	6.41
574.557	6.65
574.898	6.67
575.238	6.49
575.578	6.52
575.918	6.79
576.258	6.6
576.598	6.66
576.938	6.49
577.278	6.59
577.618	6.74
577.958	6.61
578.298	6.73
578.638	6.51
578.977	6.51
579.317	6.34
579.657	6.59
579.996	6.53
580.336	6.76
580.675	6.41
581.014	6.68
581.354	6.66
581.693	6.69
582.032	6.62
582.372	6.66
582.711	6.74
583.05	6.66
583.389	6.79
583.728	6.54
584.067	6.79
584.406	6.64
584.745	6.74
585.083	6.66
585.422	6.73
585.761	6.86
586.1	6.65
586.438	6.46
586.777	6.9
587.115	6.75
587.454	6.43
587.792	6.52
588.13	6.83
588.469	6.41
588.807	6.53
589.145	6.17
589.483	6.45
589.821	6.72
590.159	6.63
590.497	6.81
590.835	7.07
591.173	6.71
591.511	6.63
591.849	6.78
592.187	6.63
592.524	6.57
592.862	6.77
593.2	6.51
593.537	6.66
593.875	6.58
594.212	6.44
594.55	6.55
594.887	6.58
595.224	6.22
595.561	6.5
595.899	6.69
596.236	6.28
596.573	6.7
596.91	6.12
597.247	6.27
597.584	6.73
597.921	6.57
598.258	6.12
598.594	6.33
598.931	6.58
599.268	6.49
599.604	6.4
599.941	6.49
600.277	6.62
600.614	6.41
600.95	6.29
601.287	6.77
601.623	6.46
601.959	6.22
602.296	6.51
602.632	6.38
602.968	6.6
603.304	6.66
603.64	6.51
603.976	6.74
604.312	6.39
604.648	6.37
604.984	6.76
605.319	6.42
605.655	6.4
605.991	6.52
606.326	6.57
606.662	6.29
606.998	6.22
607.333	6.33
607.668	6.41
608.004	6.45
608.339	6.59
608.674	6.56
609.01	6.21
609.345	6.2
609.68	6.54
610.015	6.34
610.35	6.25
610.685	6.52
611.02	6.6
611.355	6.45
611.689	6.14
612.024	6.46
612.359	6.37
612.694	6.47
613.028	6.35
613.363	6.46
613.697	6.76
614.032	6.55
614.366	6.46
614.7	6.69
615.035	6.52
615.369	6.22
615.703	6.51
616.037	6.41
616.371	5.92
616.705	6.35
617.039	6.51
617.373	6.44
617.707	6.11
618.041	6.47
618.375	6.92
618.709	6.59
619.042	6.24
619.376	6.64
619.71	6.6
620.043	6.5
620.377	6.3
620.71	6.78
621.043	6.2
621.377	6.49
621.71	6.37
622.043	6.54
622.376	6.01
622.709	6.52
623.043	6.27
623.376	6.46
623.709	6.19
624.041	6.37
624.374	6.86
624.707	6.31
625.04	6.7
625.373	6.25
625.705	6.44
626.038	6.26
626.37	6.31
626.703	6.29
627.035	6.48
627.368	7.11
627.7	6.41
628.032	6.38
628.365	6.6
628.697	6.48
629.029	6.26
629.361	6.29
629.693	6.44
630.025	6.35
630.357	6.71
630.689	6.55
631.021	6.22
631.353	6.46
631.684	6.26
632.016	5.99
632.348	6.63
632.679	6.2
633.011	6.76
633.342	7.12
633.674	6.12
634.005	6.52
634.336	6.39
634.668	6.89
634.999	6.32
635.33	6.26
635.661	6.57
635.992	6.36
636.323	6.17
636.654	6.58
636.985	6.21
637.316	6.31
637.647	6.17
637.977	6.44
638.308	6.48
638.639	6.19
638.969	6.02
639.3	6.11
639.63	6.09
639.961	6.47
640.291	5.97
640.622	6.34
640.952	5.9
641.282	6.48
641.612	6.39
641.943	6.41
642.273	6.68
642.603	6.59
642.933	6.66
643.263	6.28
643.592	6.57
643.922	6.24
644.252	6.37
644.582	6.49
644.911	6.37
645.241	6.44
645.571	6.62
645.9	6.3
646.23	6.21
646.559	6.42
646.888	6.46
647.218	6.4
647.547	6.62
647.876	6.44
648.205	6.42
648.534	6
648.863	6.31
649.192	6.26
649.521	6.22
649.85	6.09
650.179	5.93
650.508	6.69
650.837	5.81
651.165	6.07
651.494	6.28
651.822	6.57
652.151	6.1
652.479	6.23
652.808	6.12
653.136	6.5
653.465	6.26
653.793	6.13
654.121	6.08
654.449	6.36
654.777	6.39
655.105	6.3
655.433	6.06
655.761	6.44
656.089	6.43
656.417	6.42
656.745	5.75
657.073	6.44
657.4	7.23
657.728	6.29
658.056	6.48
658.383	6.26
658.711	6.63
659.038	6.57
659.365	6.75
659.693	6.48
660.02	5.93
660.347	6.27
660.674	6.32
661.001	6.63
661.329	5.55
661.656	6.21
661.982	6.64
662.309	5.82
662.636	6.01
662.963	6.61
663.29	6.64
663.616	6.46
663.943	6.12
664.27	6.62
664.596	6.81
664.923	6.27
665.249	6.18
665.576	6.19
665.902	6.77
666.228	6.14
666.554	6.65
666.881	6.3
667.207	6.63
667.533	6.2
667.859	6.15
668.185	6.93
668.511	5.81
668.837	4.97
669.162	6.23
669.488	5.55
669.814	6.89
670.139	6.97
670.465	6.58
670.791	6.25
671.116	7.38
671.442	6.7
671.767	6.57
672.092	6.95
672.418	6.26
672.743	6.19
673.068	6.23
673.393	6.12
673.718	6.34
674.043	6.05
674.368	6.64
674.693	7.51
675.018	6.72
675.343	6.07
675.667	6.43
675.992	6.54
676.317	6.46
676.641	7.39
676.966	6.38
677.29	5.92
677.615	6.6
677.939	6.61
678.264	7.27
678.588	6.23
678.912	6.13
679.236	7.08
679.56	5.1
679.885	6.65
680.209	6.69
680.532	6.25
680.856	6.7
681.18	6.26
681.504	6.35
681.828	6.78
682.152	6.09
682.475	6.43
682.799	6.67
683.122	6.83
683.446	6.39
683.769	6.73
684.093	5.66
684.416	6.21
684.739	6.25
685.062	6.56
685.386	7.1
685.709	6.32
686.032	6.54
686.355	6.17
686.678	6.21
687.001	6.82
687.324	6.27
687.646	6.14
687.969	6.15
688.292	6.35
688.614	6.43
688.937	7.49
689.26	6.7
689.582	6.68
689.904	6.82
690.227	6.48
690.549	6.79
690.871	7
691.194	6.1
691.516	6.2
691.838	6.75
692.16	6.22
