Data from 0412_chest_Reflection__0__30.txt Node

Date: Fri Dec 15 16:39:13 CST 2023
User: ToomeyLab
Spectrometer: FLMS14357
Trigger mode: 0
Integration Time (sec): 1.000000E-2
Scans to average: 100
Electric dark correction enabled: true
Nonlinearity correction enabled: false
Boxcar width: 0
XAxis mode: Wavelengths
Number of Pixels in Spectrum: 2048
>>>>>Begin Spectral Data<<<<<
189.047	-102.24
189.435	-102.24
189.823	-102.24
190.211	-80.97
190.599	392.22
190.987	129.04
191.375	157.42
191.763	-13.32
192.151	-100.28
192.538	217.3
192.926	-131.38
193.314	85.47
193.702	-3.98
194.089	-68.73
194.477	8.62
194.864	133.47
195.252	89.04
195.639	168.54
196.027	-13.52
196.414	-298.61
196.801	208.82
197.189	682.55
197.576	19.21
197.963	7.79
198.351	-68.59
198.738	14.48
199.125	40.54
199.512	20.11
199.899	93.51
200.286	30.83
200.673	29.67
201.06	33.63
201.447	14.03
201.833	25.6
202.22	45.19
202.607	52.3
202.994	34.65
203.38	50.97
203.767	46.96
204.154	64.72
204.54	23.58
204.927	-15.06
205.313	-31.67
205.699	38.16
206.086	50.27
206.472	48.54
206.858	19.76
207.245	3.55
207.631	20.24
208.017	38.7
208.403	64.95
208.789	38.99
209.175	31.54
209.561	11.66
209.947	51.87
210.333	-0.23
210.719	37.28
211.105	28.94
211.491	14.19
211.876	32.65
212.262	21.32
212.648	47.45
213.034	27.7
213.419	7.97
213.805	-15.77
214.19	4.07
214.576	0.38
214.961	13.64
215.346	-29.84
215.732	18.13
216.117	28.51
216.502	14.04
216.888	25.55
217.273	53.67
217.658	6.72
218.043	31.86
218.428	1.2
218.813	9.88
219.198	-1.05
219.583	13.18
219.968	47.55
220.353	10.04
220.738	11.64
221.122	25
221.507	-10.16
221.892	10.63
222.276	5.92
222.661	17.86
223.046	11.22
223.43	13.18
223.815	22.69
224.199	-4.1
224.583	16.23
224.968	16.86
225.352	9.22
225.736	5
226.121	-0.33
226.505	5.29
226.889	18.02
227.273	9.42
227.657	12.93
228.041	6.17
228.425	4.01
228.809	8.78
229.193	5.97
229.577	3.1
229.961	4.95
230.344	2.71
230.728	2.13
231.112	3.76
231.495	3.21
231.879	3.26
232.263	5.7
232.646	6.12
233.03	5.16
233.413	3.32
233.797	5.38
234.18	2.73
234.563	4.54
234.946	3.23
235.33	6.76
235.713	4.54
236.096	4.2
236.479	3.53
236.862	1.51
237.245	5.92
237.628	2
238.011	5.09
238.394	5.33
238.777	5.9
239.16	4.43
239.543	2.8
239.925	3.2
240.308	3.82
240.691	5.51
241.073	4.94
241.456	4.52
241.838	2.68
242.221	3.36
242.603	4.65
242.986	3.76
243.368	3.85
243.75	3.21
244.133	2.97
244.515	3.68
244.897	3.24
245.279	3.79
245.661	3.23
246.043	2.71
246.425	2.77
246.807	5.84
247.189	4.65
247.571	3.59
247.953	3.36
248.335	2.91
248.717	3.05
249.098	3.07
249.48	3.19
249.862	3.01
250.243	3.21
250.625	2.74
251.006	3.58
251.388	2.42
251.769	3.25
252.151	4.04
252.532	2.5
252.913	3.76
253.295	2.49
253.676	2.91
254.057	3.35
254.438	3.08
254.819	3.32
255.2	2.8
255.581	4.35
255.962	3.86
256.343	3.81
256.724	2.58
257.105	3.48
257.486	3.49
257.867	5.18
258.247	2.84
258.628	3.92
259.009	3.45
259.389	2.93
259.77	2.76
260.15	3.07
260.531	2.49
260.911	3.54
261.292	2.99
261.672	2.84
262.052	3.03
262.432	3.21
262.813	3.18
263.193	3.21
263.573	2.76
263.953	3.1
264.333	3.81
264.713	3.42
265.093	2.74
265.473	3.49
265.853	2.02
266.233	3.18
266.612	1.73
266.992	2.44
267.372	3.2
267.752	2.66
268.131	3.08
268.511	3.69
268.89	3.44
269.27	2.56
269.649	2.75
270.029	2.88
270.408	3.85
270.787	2.76
271.167	4.02
271.546	3.82
271.925	2.57
272.304	2.84
272.683	3.07
273.062	2.6
273.441	2.92
273.82	2.55
274.199	2.69
274.578	2.69
274.957	2.37
275.336	2.72
275.715	2.85
276.093	3.22
276.472	2.91
276.851	2.64
277.229	2.79
277.608	2.9
277.986	2.78
278.365	3.09
278.743	2.34
279.122	2.87
279.5	2.72
279.878	3.21
280.257	3.12
280.635	2.59
281.013	2.71
281.391	2.86
281.769	3.08
282.147	3.52
282.525	3.57
282.903	2.71
283.281	3.39
283.659	3.26
284.037	3.22
284.415	3.09
284.792	3.37
285.17	2.21
285.548	2.4
285.925	3.14
286.303	3.18
286.68	2.79
287.058	2.9
287.435	2.84
287.813	2.67
288.19	2.96
288.567	2.55
288.945	3.42
289.322	3.06
289.699	3.14
290.076	3.1
290.453	3.06
290.83	2.44
291.207	3.08
291.584	2.86
291.961	3.22
292.338	2.78
292.715	3.01
293.092	3.02
293.469	2.69
293.845	3.45
294.222	2.71
294.599	2.92
294.975	3.16
295.352	3.07
295.728	2.95
296.105	3.19
296.481	3.07
296.858	3.58
297.234	3.6
297.61	2.81
297.986	3.51
298.363	3.58
298.739	3.46
299.115	3.01
299.491	2.92
299.867	3.43
300.243	3.57
300.619	3.28
300.995	3.47
301.371	3.23
301.746	3.03
302.122	3.67
302.498	3.46
302.874	3.89
303.249	3.87
303.625	3.18
304	3.87
304.376	3.99
304.751	2.49
305.127	3.58
305.502	3.43
305.878	3.13
306.253	3.54
306.628	4.27
307.003	3.85
307.378	4.16
307.754	3.77
308.129	3.19
308.504	4.62
308.879	4.01
309.254	4.76
309.629	4.43
310.003	4.02
310.378	4.28
310.753	4.36
311.128	4.22
311.502	4.11
311.877	4.13
312.252	3.61
312.626	3.57
313.001	3.69
313.375	4.01
313.75	3.51
314.124	4.45
314.498	3.86
314.873	4.34
315.247	3.98
315.621	4.29
315.995	3.82
316.369	4.06
316.743	4.09
317.117	3.97
317.491	4.05
317.865	4.04
318.239	3.74
318.613	4.28
318.987	4.52
319.361	3.71
319.734	4.61
320.108	4.86
320.482	3.69
320.855	4.11
321.229	4.13
321.602	4.66
321.976	4.2
322.349	4.6
322.723	4.77
323.096	4.88
323.469	3.83
323.843	4.4
324.216	4.92
324.589	3.66
324.962	4.47
325.335	4.57
325.708	4.46
326.081	4.7
326.454	4.55
326.827	4.28
327.2	4.28
327.573	5.04
327.945	4.38
328.318	4.75
328.691	4.08
329.063	4.38
329.436	3.97
329.809	4.87
330.181	4.45
330.553	4.44
330.926	4.57
331.298	4.6
331.671	4.57
332.043	5.36
332.415	5.27
332.787	4.47
333.159	5.64
333.532	5.08
333.904	4.63
334.276	4.63
334.648	4.63
335.02	4.48
335.391	4.57
335.763	4.89
336.135	4.61
336.507	5.4
336.879	4.54
337.25	4.11
337.622	4.75
337.993	5.23
338.365	4.79
338.736	5.02
339.108	4.79
339.479	4.34
339.851	4.54
340.222	4.91
340.593	4.83
340.964	4.44
341.336	5.31
341.707	4.35
342.078	5.36
342.449	5.21
342.82	5.05
343.191	4.78
343.562	4.78
343.933	4.86
344.303	4.99
344.674	5.11
345.045	4.94
345.416	5.16
345.786	4.68
346.157	5.04
346.527	4.84
346.898	4.39
347.268	5.11
347.639	5.05
348.009	4.62
348.38	4.56
348.75	5.06
349.12	4.96
349.49	5.13
349.861	5.24
350.231	4.85
350.601	5.36
350.971	5.29
351.341	5.14
351.711	4.91
352.081	5.02
352.45	4.63
352.82	5.06
353.19	4.73
353.56	5.08
353.929	4.81
354.299	5.23
354.669	5.17
355.038	5.35
355.408	4.86
355.777	5.4
356.147	4.89
356.516	5.12
356.885	4.69
357.254	4.82
357.624	5.33
357.993	5.1
358.362	4.63
358.731	5.1
359.1	5
359.469	5.23
359.838	4.85
360.207	4.96
360.576	4.66
360.945	4.95
361.314	5.46
361.682	4.8
362.051	4.74
362.42	4.95
362.788	4.81
363.157	5.05
363.525	5.13
363.894	5.17
364.262	4.82
364.631	4.99
364.999	4.95
365.367	4.68
365.735	5.87
366.104	5.23
366.472	5.36
366.84	5.08
367.208	4.83
367.576	5.33
367.944	5.27
368.312	4.98
368.68	4.93
369.048	4.93
369.416	5.24
369.783	4.82
370.151	4.97
370.519	5.56
370.886	5.44
371.254	5.17
371.621	5.27
371.989	5.45
372.356	4.84
372.724	5.39
373.091	4.91
373.458	5.16
373.826	5.45
374.193	5.26
374.56	5.5
374.927	5.44
375.294	5.14
375.661	5.01
376.028	5.15
376.395	4.84
376.762	5.39
377.129	4.91
377.496	5.29
377.863	5.13
378.229	4.73
378.596	5.29
378.963	5.18
379.329	5.17
379.696	5.53
380.062	5.26
380.429	5.46
380.795	5.44
381.161	5.43
381.528	5.46
381.894	5.46
382.26	5.25
382.626	5.31
382.993	4.92
383.359	5.59
383.725	5.51
384.091	5.56
384.457	5.44
384.823	5.27
385.188	5.64
385.554	5.43
385.92	5.68
386.286	6.04
386.651	5.52
387.017	5.54
387.383	5.56
387.748	5.43
388.114	5.4
388.479	5.26
388.845	5.55
389.21	5.73
389.575	5.47
389.94	5.4
390.306	5.39
390.671	5.68
391.036	4.99
391.401	5.28
391.766	5.35
392.131	5.42
392.496	5.69
392.861	5.24
393.226	5.31
393.591	5.52
393.956	5.27
394.32	5.57
394.685	5.26
395.05	5.36
395.414	5.39
395.779	5.27
396.143	5.42
396.508	5.6
396.872	5.5
397.236	5.6
397.601	5.26
397.965	5.83
398.329	5.64
398.694	5.84
399.058	5.58
399.422	5.24
399.786	5.71
400.15	5.73
400.514	5.7
400.878	5.69
401.242	5.65
401.605	5.68
401.969	5.56
402.333	5.57
402.697	5.56
403.06	5.85
403.424	5.56
403.787	5.53
404.151	5.77
404.514	5.76
404.878	5.58
405.241	5.89
405.604	5.76
405.968	5.64
406.331	5.51
406.694	5.8
407.057	5.49
407.42	5.74
407.783	5.51
408.146	5.85
408.509	5.67
408.872	5.49
409.235	5.57
409.598	5.85
409.961	5.87
410.323	5.8
410.686	5.73
411.049	5.49
411.411	5.69
411.774	5.71
412.136	5.67
412.499	5.64
412.861	5.82
413.223	5.64
413.586	5.77
413.948	5.94
414.31	5.51
414.672	5.55
415.035	5.59
415.397	6
415.759	5.61
416.121	5.89
416.483	5.56
416.845	5.78
417.206	5.86
417.568	5.83
417.93	5.53
418.292	5.68
418.653	5.8
419.015	6.04
419.377	5.76
419.738	5.93
420.1	5.76
420.461	5.98
420.822	5.8
421.184	5.72
421.545	5.73
421.906	5.69
422.267	5.84
422.629	5.64
422.99	5.74
423.351	5.62
423.712	5.71
424.073	5.79
424.434	5.74
424.795	5.72
425.155	5.67
425.516	5.83
425.877	5.78
426.238	5.81
426.598	5.85
426.959	5.74
427.32	5.69
427.68	5.81
428.041	5.78
428.401	5.9
428.761	5.89
429.122	6
429.482	5.98
429.842	6.07
430.202	5.96
430.563	5.91
430.923	5.87
431.283	6.18
431.643	6.15
432.003	6.07
432.363	6.03
432.722	6.01
433.082	6.09
433.442	6.11
433.802	5.96
434.161	6.16
434.521	6.17
434.881	6.17
435.24	6.06
435.6	6.12
435.959	6.12
436.319	6.18
436.678	6.19
437.037	6.19
437.396	6.2
437.756	6.2
438.115	6.14
438.474	6.21
438.833	6.16
439.192	6.25
439.551	6.3
439.91	6.15
440.269	6.16
440.628	6.08
440.987	6.19
441.345	6.16
441.704	6.26
442.063	6.06
442.421	6.23
442.78	6.12
443.138	6.13
443.497	6.21
443.855	6.05
444.214	6.17
444.572	6.33
444.93	6.32
445.288	6.12
445.647	6.34
446.005	6.23
446.363	6.29
446.721	6.45
447.079	6.23
447.437	6.24
447.795	6.26
448.153	6.18
448.51	6.13
448.868	6.29
449.226	6.31
449.584	6.14
449.941	6.37
450.299	6.28
450.656	6.34
451.014	6.46
451.371	6.42
451.729	6.29
452.086	6.61
452.443	6.4
452.801	6.46
453.158	6.45
453.515	6.3
453.872	6.61
454.229	6.58
454.586	6.34
454.943	6.44
455.3	6.64
455.657	6.47
456.014	6.47
456.371	6.65
456.727	6.62
457.084	6.75
457.441	6.45
457.797	6.57
458.154	6.7
458.51	6.75
458.867	6.65
459.223	6.78
459.58	6.67
459.936	6.61
460.292	6.64
460.648	6.7
461.005	6.55
461.361	6.72
461.717	6.55
462.073	6.49
462.429	6.54
462.785	6.6
463.141	6.54
463.496	6.54
463.852	6.67
464.208	6.77
464.564	6.82
464.919	6.81
465.275	6.78
465.631	6.93
465.986	6.7
466.342	6.9
466.697	6.76
467.052	6.8
467.408	6.89
467.763	6.57
468.118	6.8
468.473	6.81
468.829	6.93
469.184	6.9
469.539	6.74
469.894	6.78
470.249	7.05
470.603	7.04
470.958	7.07
471.313	6.89
471.668	6.86
472.023	6.96
472.377	6.8
472.732	6.99
473.086	6.84
473.441	6.98
473.795	7.14
474.15	6.99
474.504	6.89
474.859	7.16
475.213	6.87
475.567	7.11
475.921	7.07
476.275	7.1
476.63	7.21
476.984	7.23
477.338	7.15
477.692	6.67
478.045	6.83
478.399	7.05
478.753	7.14
479.107	7.15
479.461	6.92
479.814	7.02
480.168	7.01
480.521	6.94
480.875	6.98
481.228	7.09
481.582	7.17
481.935	7.21
482.289	6.98
482.642	7.22
482.995	7.03
483.348	7.07
483.701	7.04
484.055	7.21
484.408	7.12
484.761	7.07
485.114	7.08
485.466	6.83
485.819	6.83
486.172	6.74
486.525	6.69
486.878	6.68
487.23	6.78
487.583	6.87
487.936	6.91
488.288	7.03
488.641	7.11
488.993	7.03
489.345	6.99
489.698	6.95
490.05	6.89
490.402	6.95
490.754	6.96
491.107	6.99
491.459	7.14
491.811	7.18
492.163	7.25
492.515	7.28
492.866	7.27
493.218	7.27
493.57	7.17
493.922	7.07
494.274	7.12
494.625	7.21
494.977	7.27
495.328	7.38
495.68	7.39
496.031	7.46
496.383	7.37
496.734	7.62
497.086	7.62
497.437	7.6
497.788	7.63
498.139	7.46
498.49	7.63
498.842	7.44
499.193	7.57
499.544	7.58
499.894	7.52
500.245	7.61
500.596	7.46
500.947	7.71
501.298	7.48
501.648	7.57
501.999	7.79
502.35	7.71
502.7	7.72
503.051	7.57
503.401	7.72
503.752	7.87
504.102	7.86
504.452	7.9
504.803	7.78
505.153	7.78
505.503	7.84
505.853	7.78
506.203	7.81
506.553	7.93
506.903	7.88
507.253	7.77
507.603	7.87
507.953	7.97
508.303	8.04
508.652	7.95
509.002	7.82
509.352	7.88
509.701	7.91
510.051	7.92
510.4	7.96
510.75	7.86
511.099	8.01
511.449	7.96
511.798	7.9
512.147	7.94
512.496	7.87
512.846	8.04
513.195	8.09
513.544	8.1
513.893	7.99
514.242	7.91
514.591	8.13
514.939	7.92
515.288	7.98
515.637	8.17
515.986	8.21
516.334	8.22
516.683	8.37
517.032	8.19
517.38	8.37
517.729	8.26
518.077	8.09
518.426	8.29
518.774	8.16
519.122	8.3
519.47	8.24
519.819	8.05
520.167	8.25
520.515	8.18
520.863	8.23
521.211	8.21
521.559	8.26
521.907	8.29
522.255	8.3
522.602	8.2
522.95	8.34
523.298	8.49
523.645	8.55
523.993	8.49
524.341	8.6
524.688	8.57
525.036	8.38
525.383	8.56
525.73	8.67
526.078	8.57
526.425	8.56
526.772	8.56
527.119	8.52
527.466	8.43
527.814	8.45
528.161	8.44
528.508	8.52
528.854	8.47
529.201	8.51
529.548	8.38
529.895	8.5
530.242	8.36
530.588	8.31
530.935	8.31
531.282	8.26
531.628	8.19
531.975	8.29
532.321	8.47
532.667	8.53
533.014	8.64
533.36	8.68
533.706	8.77
534.052	8.81
534.399	8.64
534.745	8.72
535.091	8.72
535.437	8.7
535.783	8.64
536.129	8.59
536.474	8.7
536.82	8.8
537.166	8.86
537.512	8.97
537.857	8.94
538.203	9.05
538.549	8.95
538.894	8.89
539.239	8.94
539.585	8.89
539.93	8.95
540.276	8.98
540.621	9.21
540.966	9.26
541.311	9.28
541.656	9.32
542.001	9.28
542.346	9.33
542.691	9.09
543.036	9.05
543.381	9.04
543.726	8.95
544.071	9.03
544.415	9.01
544.76	9.08
545.105	9.18
545.449	9.26
545.794	9.3
546.138	9.26
546.483	9.37
546.827	9.38
547.171	9.38
547.516	9.52
547.86	9.44
548.204	9.47
548.548	9.46
548.892	9.6
549.236	9.47
549.58	9.49
549.924	9.55
550.268	9.71
550.612	9.67
550.956	9.85
551.3	9.69
551.643	9.77
551.987	9.98
552.33	9.77
552.674	9.84
553.017	9.8
553.361	9.92
553.704	10.03
554.048	9.95
554.391	10
554.734	10.04
555.077	9.93
555.42	9.84
555.764	9.96
556.107	9.92
556.45	10.01
556.793	10.1
557.135	9.96
557.478	10.25
557.821	10.26
558.164	10.18
558.507	10.42
558.849	10.05
559.192	10.49
559.534	10.25
559.877	10.4
560.219	10.26
560.562	10.62
560.904	10.46
561.246	10.51
561.589	10.53
561.931	10.61
562.273	10.46
562.615	10.52
562.957	10.55
563.299	10.32
563.641	10.58
563.983	10.51
564.325	10.48
564.667	10.55
565.008	10.52
565.35	10.63
565.692	10.44
566.033	10.64
566.375	10.9
566.716	10.97
567.058	11.06
567.399	10.85
567.741	10.64
568.082	10.72
568.423	10.89
568.764	10.78
569.105	10.95
569.447	10.87
569.788	10.92
570.129	11.02
570.47	10.9
570.811	10.89
571.151	10.99
571.492	11.06
571.833	11.07
572.174	11.07
572.514	10.98
572.855	11.19
573.195	11.18
573.536	11.16
573.876	11.12
574.217	11.09
574.557	11.2
574.898	11.39
575.238	11.24
575.578	11.19
575.918	11.33
576.258	11.39
576.598	11.54
576.938	11.42
577.278	11.32
577.618	11.49
577.958	11.52
578.298	11.34
578.638	11.36
578.977	11.55
579.317	11.59
579.657	11.61
579.996	11.66
580.336	11.69
580.675	11.76
581.014	11.87
581.354	11.81
581.693	11.87
582.032	11.71
582.372	11.78
582.711	12.14
583.05	11.65
583.389	12.17
583.728	11.56
584.067	12.06
584.406	11.86
584.745	12.2
585.083	12.44
585.422	12.28
585.761	12.17
586.1	12.41
586.438	12.29
586.777	12.46
587.115	12.32
587.454	12.13
587.792	12.38
588.13	12.35
588.469	12.35
588.807	12.35
589.145	12.17
589.483	12.34
589.821	12.3
590.159	12.26
590.497	12.58
590.835	12.8
591.173	12.41
591.511	12.62
591.849	12.59
592.187	12.57
592.524	12.8
592.862	12.58
593.2	12.74
593.537	12.74
593.875	12.58
594.212	12.64
594.55	12.83
594.887	13.05
595.224	12.86
595.561	12.85
595.899	13.09
596.236	12.96
596.573	12.95
596.91	12.75
597.247	12.52
597.584	13.14
597.921	13.04
598.258	12.92
598.594	13.01
598.931	12.97
599.268	13.07
599.604	13.16
599.941	13.15
600.277	13.25
600.614	13.04
600.95	12.87
601.287	13.3
601.623	13.29
601.959	13.22
602.296	13.02
602.632	13.2
602.968	13.43
603.304	13.3
603.64	13.41
603.976	13.62
604.312	13.36
604.648	13.42
604.984	13.67
605.319	13.7
605.655	13.57
605.991	13.49
606.326	13.59
606.662	13.63
606.998	13.39
607.333	13.69
607.668	13.51
608.004	13.65
608.339	13.77
608.674	13.63
609.01	13.96
609.345	13.88
609.68	14.18
610.015	13.64
610.35	14
610.685	13.95
611.02	13.83
611.355	14.1
611.689	14.06
612.024	14.21
612.359	13.9
612.694	13.97
613.028	13.84
613.363	14.42
613.697	14.32
614.032	14.51
614.366	14.26
614.7	14.5
615.035	14.45
615.369	14.15
615.703	14.49
616.037	14.41
616.371	14.19
616.705	14.5
617.039	14.44
617.373	14.6
617.707	14.72
618.041	14.46
618.375	14.63
618.709	15
619.042	14.54
619.376	15.11
619.71	15.03
620.043	14.73
620.377	14.74
620.71	14.88
621.043	14.85
621.377	14.74
621.71	14.69
622.043	14.73
622.376	15.26
622.709	14.64
623.043	14.8
623.376	15.04
623.709	14.87
624.041	15.25
624.374	14.88
624.707	15.08
625.04	15.25
625.373	14.7
625.705	14.9
626.038	15.14
626.37	15.03
626.703	15.04
627.035	15.4
627.368	15.63
627.7	15.45
628.032	15.03
628.365	15.4
628.697	15.48
629.029	15.23
629.361	15.57
629.693	15.49
630.025	15.32
630.357	15.42
630.689	15.51
631.021	15.61
631.353	15.92
631.684	15.81
632.016	15.48
632.348	15.97
632.679	16.03
633.011	15.92
633.342	16.1
633.674	15.98
634.005	16.19
634.336	15.88
634.668	16.1
634.999	15.61
635.33	16.01
635.661	16.66
635.992	15.9
636.323	16.12
636.654	16.32
636.985	16.28
637.316	16.03
637.647	16.16
637.977	16.15
638.308	16.45
638.639	15.93
638.969	16.12
639.3	15.87
639.63	15.92
639.961	16.24
640.291	16.03
640.622	17.08
640.952	16.13
641.282	16.66
641.612	16.96
641.943	16.29
642.273	16.85
642.603	16.76
642.933	16.56
643.263	17.09
643.592	16.58
643.922	16.73
644.252	16.81
644.582	17.14
644.911	16.56
645.241	16.32
645.571	17.02
645.9	16.52
646.23	16.59
646.559	17.16
646.888	16.56
647.218	17.04
647.547	17.24
647.876	16.57
648.205	16.48
648.534	16.93
648.863	16.59
649.192	17.31
649.521	17.37
649.85	16.75
650.179	17.37
650.508	16.68
650.837	17.53
651.165	17.21
651.494	17.45
651.822	17.37
652.151	17.12
652.479	17.46
652.808	17.15
653.136	17.3
653.465	16.99
653.793	17.12
654.121	17.27
654.449	17.81
654.777	17.48
655.105	17.28
655.433	17.42
655.761	16.85
656.089	17.64
656.417	17.33
656.745	17.16
657.073	17.7
657.4	17.59
657.728	18.17
658.056	17.91
658.383	17.95
658.711	17.58
659.038	17.63
659.365	18.2
659.693	17.33
660.02	17.84
660.347	18.14
660.674	17.65
661.001	18.19
661.329	17.71
661.656	17.78
661.982	17.87
662.309	17.88
662.636	17.58
662.963	17.71
663.29	18.4
663.616	18.33
663.943	17.91
664.27	17.61
664.596	18.15
664.923	18.35
665.249	18.1
665.576	18.21
665.902	18.91
666.228	18.57
666.554	18.76
666.881	17.94
667.207	18.34
667.533	18.18
667.859	18.52
668.185	18.35
668.511	17.9
668.837	17.45
669.162	18.97
669.488	18.25
669.814	18.99
670.139	19.48
670.465	19.01
670.791	18.8
671.116	19.32
671.442	18.37
671.767	18.4
672.092	18.96
672.418	18.93
672.743	19.09
673.068	18.19
673.393	18.34
673.718	19.08
674.043	18.66
674.368	18.86
674.693	20.2
675.018	19.53
675.343	18.57
675.667	18.77
675.992	19.26
676.317	19.46
676.641	19.44
676.966	19.51
677.29	18.79
677.615	19.49
677.939	20.03
678.264	19.62
678.588	19.21
678.912	19.5
679.236	19.85
679.56	18.7
679.885	19.75
680.209	19.78
680.532	19.33
680.856	20.3
681.18	19.96
681.504	19.7
681.828	19.98
682.152	18.76
682.475	19.34
682.799	20.01
683.122	19.53
683.446	19.83
