Data from 0412_forehead_Reflection__1__41.txt Node

Date: Fri Dec 15 16:42:21 CST 2023
User: ToomeyLab
Spectrometer: FLMS14357
Trigger mode: 0
Integration Time (sec): 1.000000E-2
Scans to average: 100
Electric dark correction enabled: true
Nonlinearity correction enabled: false
Boxcar width: 0
XAxis mode: Wavelengths
Number of Pixels in Spectrum: 2048
>>>>>Begin Spectral Data<<<<<
189.047	-102.68
189.435	-102.68
189.823	-102.68
190.211	-204.49
190.599	-335.78
190.987	106.02
191.375	335.58
191.763	144.48
192.151	70.16
192.538	92.99
192.926	41.49
193.314	106.96
193.702	-54.53
194.089	-105
194.477	-60.43
194.864	198.85
195.252	77.5
195.639	90.26
196.027	55
196.414	-67.16
196.801	130.16
197.189	-18.29
197.576	279.75
197.963	36.1
198.351	46.86
198.738	23.07
199.125	69.49
199.512	36.67
199.899	110.06
200.286	84.64
200.673	34.68
201.06	60.69
201.447	33
201.833	97.42
202.22	46.58
202.607	73.99
202.994	70.97
203.38	55.44
203.767	110.84
204.154	19.86
204.54	44.77
204.927	-25.82
205.313	97.52
205.699	44.74
206.086	70.88
206.472	56.28
206.858	54.87
207.245	2.19
207.631	48.59
208.017	21.85
208.403	76.14
208.789	56.03
209.175	70.51
209.561	20.17
209.947	87.32
210.333	27.52
210.719	42.65
211.105	50.88
211.491	2.04
211.876	36.93
212.262	29.65
212.648	34.29
213.034	65.3
213.419	12.4
213.805	-15.94
214.19	43.16
214.576	-6.88
214.961	11.42
215.346	-14.58
215.732	10.98
216.117	26.59
216.502	3
216.888	12.23
217.273	55.62
217.658	9.8
218.043	33.94
218.428	6.34
218.813	15.09
219.198	-1.56
219.583	10.93
219.968	26.83
220.353	8.84
220.738	34.04
221.122	23.99
221.507	9.14
221.892	-3
222.276	-6.71
222.661	18.03
223.046	20.6
223.43	22.81
223.815	22.98
224.199	6.43
224.583	19.09
224.968	27.28
225.352	28.94
225.736	9.23
226.121	2.92
226.505	12.7
226.889	13.32
227.273	10.56
227.657	10.73
228.041	5.7
228.425	5.21
228.809	9.98
229.193	7.67
229.577	4.46
229.961	5.74
230.344	4.78
230.728	4.09
231.112	4.22
231.495	4.23
231.879	3.8
232.263	6.2
232.646	5.12
233.03	4.16
233.413	5.02
233.797	4.71
234.18	6.24
234.563	7.39
234.946	3.87
235.33	6.68
235.713	7.04
236.096	4.42
236.479	5.22
236.862	4.75
237.245	5.81
237.628	2.73
238.011	8.43
238.394	7.75
238.777	6.85
239.16	6.33
239.543	6.69
239.925	7.04
240.308	4.43
240.691	7.28
241.073	6.55
241.456	4.51
241.838	3.01
242.221	4.62
242.603	4.63
242.986	4.98
243.368	4.1
243.75	4.57
244.133	3.44
244.515	4.22
244.897	4.18
245.279	4.56
245.661	4.34
246.043	2.59
246.425	3.26
246.807	5.09
247.189	4.96
247.571	4.47
247.953	4.31
248.335	4.07
248.717	3.91
249.098	3.64
249.48	3.89
249.862	3.79
250.243	4.19
250.625	4.25
251.006	4.47
251.388	3.95
251.769	4.18
252.151	5.04
252.532	5.33
252.913	3.12
253.295	3.46
253.676	3.95
254.057	3.61
254.438	4.12
254.819	4.06
255.2	3.89
255.581	4.6
255.962	4.79
256.343	5.8
256.724	4.96
257.105	4.67
257.486	4.06
257.867	5.75
258.247	3.94
258.628	3.73
259.009	4.34
259.389	4.55
259.77	4.51
260.15	3.51
260.531	3.75
260.911	4.39
261.292	3.57
261.672	3.93
262.052	3.93
262.432	4.07
262.813	4.16
263.193	4.3
263.573	3.67
263.953	4.11
264.333	4.12
264.713	4.16
265.093	4.07
265.473	4.11
265.853	2.49
266.233	4.82
266.612	2.81
266.992	2.22
267.372	4.87
267.752	4.02
268.131	4.21
268.511	4.54
268.89	4.13
269.27	3.83
269.649	3.99
270.029	3.6
270.408	5.2
270.787	4.38
271.167	4.69
271.546	4.3
271.925	3.28
272.304	4.11
272.683	4.14
273.062	3.69
273.441	4.35
273.82	3.46
274.199	4.19
274.578	3.61
274.957	4.03
275.336	3.94
275.715	4.05
276.093	3.04
276.472	4.45
276.851	3.73
277.229	3.09
277.608	3.19
277.986	4.09
278.365	4.27
278.743	4.2
279.122	3.55
279.5	4.04
279.878	4.56
280.257	3.93
280.635	3.48
281.013	3.45
281.391	4.17
281.769	4.22
282.147	3.81
282.525	4.62
282.903	4.15
283.281	4.48
283.659	4.38
284.037	4.59
284.415	4.52
284.792	4.49
285.17	2.99
285.548	3.94
285.925	3.97
286.303	4.25
286.68	3.61
287.058	4.19
287.435	3.88
287.813	3.73
288.19	3.96
288.567	3.65
288.945	4.12
289.322	3.96
289.699	4.34
290.076	4.65
290.453	4.6
290.83	4.04
291.207	4.26
291.584	4.46
291.961	4.7
292.338	4.71
292.715	4.71
293.092	4.39
293.469	4.23
293.845	4.8
294.222	3.84
294.599	4.58
294.975	4.65
295.352	4.53
295.728	4.59
296.105	4.54
296.481	4.88
296.858	5.15
297.234	4.17
297.61	4.85
297.986	4.37
298.363	4.8
298.739	5.06
299.115	4.54
299.491	4.39
299.867	4.77
300.243	5.04
300.619	4.89
300.995	4.82
301.371	5.34
301.746	4.78
302.122	5.63
302.498	4.61
302.874	5.26
303.249	5.49
303.625	5.54
304	5.53
304.376	5.31
304.751	4.81
305.127	5.76
305.502	5.32
305.878	5.06
306.253	5.72
306.628	6.07
307.003	5.6
307.378	6.13
307.754	6.44
308.129	5.73
308.504	6.11
308.879	5.83
309.254	6.74
309.629	6.3
310.003	5.89
310.378	6.58
310.753	6.7
311.128	6.6
311.502	6.49
311.877	6.63
312.252	6.01
312.626	6.43
313.001	6.56
313.375	7.25
313.75	6.26
314.124	6.92
314.498	6.25
314.873	7.19
315.247	6.43
315.621	6.88
315.995	6.98
316.369	7.17
316.743	6.69
317.117	7.17
317.491	7.24
317.865	7.08
318.239	7.53
318.613	7.53
318.987	8.03
319.361	7.01
319.734	8.28
320.108	7.31
320.482	7.57
320.855	7.7
321.229	7.96
321.602	8.19
321.976	8.41
322.349	7.43
322.723	7.86
323.096	8.19
323.469	7.34
323.843	8.28
324.216	9.13
324.589	8.29
324.962	7.8
325.335	8.21
325.708	8.22
326.081	8.33
326.454	8.63
326.827	8.22
327.2	8.91
327.573	8.68
327.945	8.52
328.318	8.09
328.691	8.3
329.063	8.35
329.436	8.58
329.809	9.04
330.181	8.57
330.553	8.68
330.926	8.68
331.298	9.23
331.671	9.32
332.043	9.51
332.415	9.61
332.787	9.48
333.159	9.72
333.532	9.4
333.904	9.58
334.276	9.24
334.648	9.31
335.02	10.19
335.391	9.22
335.763	9.25
336.135	10.04
336.507	10.47
336.879	10.09
337.25	9.95
337.622	9.76
337.993	9.53
338.365	9.82
338.736	10.24
339.108	10.16
339.479	9.27
339.851	10.15
340.222	9.77
340.593	10.14
340.964	10.01
341.336	10.82
341.707	10.27
342.078	10.19
342.449	10.28
342.82	10.19
343.191	10.36
343.562	9.93
343.933	10.85
344.303	10.36
344.674	10.82
345.045	10.43
345.416	10.82
345.786	9.59
346.157	10.66
346.527	10.45
346.898	10.23
347.268	10.93
347.639	10.28
348.009	10.96
348.38	10.85
348.75	10.95
349.12	11.13
349.49	11.9
349.861	10.99
350.231	11.11
350.601	11.32
350.971	11
351.341	11.16
351.711	10.89
352.081	11.44
352.45	11.07
352.82	11.1
353.19	11.09
353.56	11.2
353.929	11.65
354.299	11.3
354.669	11.3
355.038	11.31
355.408	11.36
355.777	11.53
356.147	11.68
356.516	11.6
356.885	12.13
357.254	11.88
357.624	11.68
357.993	11.58
358.362	11.29
358.731	11.38
359.1	11.74
359.469	12.35
359.838	12.23
360.207	11.84
360.576	12.07
360.945	12.24
361.314	12.21
361.682	12.12
362.051	12.03
362.42	12.48
362.788	12.64
363.157	12.56
363.525	12.5
363.894	12.23
364.262	12.45
364.631	12.38
364.999	12.55
365.367	12.38
365.735	13.02
366.104	12.92
366.472	13.09
366.84	12.42
367.208	13.04
367.576	13.15
367.944	13.15
368.312	12.96
368.68	12.94
369.048	13.82
369.416	12.78
369.783	13.19
370.151	13.5
370.519	13.74
370.886	13.4
371.254	13.26
371.621	13.52
371.989	13.64
372.356	13.43
372.724	13.78
373.091	13.55
373.458	13.66
373.826	13.51
374.193	13.38
374.56	13.81
374.927	14.23
375.294	14.03
375.661	14.13
376.028	14.06
376.395	13.8
376.762	14.1
377.129	14.13
377.496	14.18
377.863	14.24
378.229	14.25
378.596	14.39
378.963	14.2
379.329	14.28
379.696	14.59
380.062	14.25
380.429	14.44
380.795	14.35
381.161	14.67
381.528	14.91
381.894	14.75
382.26	14.74
382.626	14.95
382.993	14.6
383.359	14.87
383.725	14.67
384.091	14.98
384.457	15.31
384.823	15.01
385.188	15.08
385.554	15.1
385.92	15.43
386.286	15.19
386.651	15.58
387.017	15.23
387.383	15.12
387.748	15.25
388.114	15.41
388.479	15.26
388.845	15.56
389.21	15.69
389.575	15.73
389.94	15.87
390.306	15.53
390.671	15.93
391.036	15.6
391.401	15.52
391.766	15.73
392.131	16.3
392.496	16.01
392.861	15.83
393.226	16.32
393.591	16.01
393.956	15.95
394.32	16.06
394.685	16.17
395.05	16.17
395.414	16
395.779	16
396.143	16.26
396.508	16.09
396.872	16.47
397.236	16.39
397.601	16.4
397.965	16.41
398.329	16.59
398.694	16.9
399.058	16.59
399.422	16.7
399.786	16.74
400.15	16.66
400.514	16.63
400.878	17.14
401.242	16.78
401.605	16.93
401.969	17.01
402.333	17.06
402.697	16.86
403.06	17.11
403.424	17.05
403.787	17.2
404.151	17.35
404.514	17.22
404.878	17.3
405.241	17.3
405.604	17.33
405.968	17.31
406.331	17.31
406.694	17.34
407.057	17.36
407.42	17.54
407.783	17.33
408.146	17.61
408.509	17.69
408.872	17.77
409.235	17.77
409.598	18.08
409.961	17.92
410.323	17.83
410.686	17.98
411.049	17.66
411.411	17.69
411.774	17.82
412.136	17.74
412.499	18.14
412.861	17.91
413.223	18.06
413.586	18.31
413.948	18.42
414.31	18.4
414.672	18.41
415.035	18.17
415.397	18.44
415.759	18.38
416.121	18.67
416.483	18.06
416.845	18.54
417.206	18.62
417.568	18.46
417.93	18.57
418.292	18.5
418.653	18.67
419.015	18.49
419.377	18.64
419.738	18.7
420.1	18.45
420.461	18.72
420.822	18.84
421.184	18.65
421.545	18.75
421.906	18.62
422.267	18.79
422.629	18.68
422.99	18.72
423.351	18.75
423.712	18.88
424.073	18.94
424.434	18.97
424.795	18.84
425.155	18.96
425.516	19
425.877	19.1
426.238	19
426.598	19.27
426.959	19.23
427.32	19.27
427.68	19.31
428.041	19.64
428.401	19.79
428.761	19.76
429.122	19.9
429.482	19.99
429.842	19.95
430.202	20.24
430.563	20.25
430.923	20.13
431.283	20.43
431.643	20.38
432.003	20.34
432.363	20.34
432.722	20.58
433.082	20.45
433.442	20.48
433.802	20.28
434.161	20.76
434.521	20.84
434.881	20.71
435.24	20.5
435.6	20.59
435.959	20.52
436.319	20.79
436.678	20.66
437.037	20.72
437.396	20.74
437.756	21.13
438.115	21.07
438.474	21.32
438.833	21.12
439.192	20.92
439.551	21.36
439.91	21.28
440.269	21.25
440.628	21.23
440.987	21.19
441.345	21.09
441.704	21.38
442.063	21.31
442.421	21.15
442.78	21.38
443.138	21.3
443.497	21.49
443.855	21.7
444.214	21.68
444.572	21.9
444.93	22.05
445.288	21.98
445.647	21.91
446.005	21.85
446.363	22.19
446.721	22.15
447.079	21.95
447.437	21.7
447.795	22
448.153	21.88
448.51	21.83
448.868	21.86
449.226	21.89
449.584	22
449.941	22.27
450.299	22.3
450.656	22.42
451.014	22.69
451.371	22.6
451.729	22.58
452.086	22.86
452.443	22.86
452.801	23.12
453.158	23.12
453.515	22.96
453.872	23.05
454.229	22.95
454.586	23.08
454.943	23.11
455.3	23.32
455.657	23.13
456.014	23.24
456.371	23.27
456.727	23.56
457.084	23.58
457.441	23.34
457.797	23.56
458.154	23.68
458.51	23.82
458.867	23.89
459.223	23.74
459.58	23.78
459.936	23.68
460.292	23.95
460.648	23.71
461.005	23.71
461.361	23.67
461.717	23.5
462.073	23.39
462.429	23.69
462.785	23.56
463.141	23.9
463.496	23.86
463.852	23.91
464.208	24.26
464.564	24.47
464.919	24.33
465.275	24.33
465.631	24.57
465.986	24.5
466.342	24.68
466.697	24.41
467.052	24.89
467.408	24.7
467.763	24.79
468.118	24.65
468.473	24.71
468.829	24.8
469.184	24.98
469.539	24.95
469.894	25
470.249	25.29
470.603	25.45
470.958	25.09
471.313	25.17
471.668	25.5
472.023	25.51
472.377	25.32
472.732	25.5
473.086	25.4
473.441	25.37
473.795	25.49
474.15	25.6
474.504	25.44
474.859	25.66
475.213	25.43
475.567	25.69
475.921	25.83
476.275	25.84
476.63	26.17
476.984	25.98
477.338	26
477.692	25.98
478.045	26.06
478.399	26.13
478.753	26.1
479.107	26.08
479.461	26.04
479.814	26.16
480.168	26.24
480.521	26.18
480.875	26.17
481.228	26.22
481.582	26.04
481.935	26.35
482.289	26.44
482.642	26.31
482.995	26.5
483.348	26.31
483.701	26.45
484.055	26.41
484.408	26.38
484.761	26.14
485.114	25.98
485.466	25.63
485.819	25.56
486.172	25.46
486.525	25.46
486.878	25.56
487.23	25.79
487.583	26.01
487.936	26.28
488.288	26.33
488.641	26.53
488.993	26.4
489.345	26.11
489.698	26.23
490.05	26.09
490.402	26.26
490.754	26.31
491.107	26.55
491.459	26.75
491.811	27.04
492.163	27.07
492.515	27.17
492.866	27.21
493.218	26.89
493.57	26.83
493.922	26.74
494.274	26.8
494.625	26.89
494.977	27.05
495.328	27.43
495.68	27.45
496.031	27.97
496.383	27.94
496.734	28.32
497.086	28.16
497.437	28.42
497.788	28.02
498.139	28.23
498.49	28.28
498.842	27.92
499.193	28.16
499.544	28.18
499.894	28.25
500.245	28.32
500.596	28.39
500.947	28.51
501.298	28.36
501.648	28.74
501.999	28.72
502.35	28.83
502.7	28.81
503.051	28.67
503.401	28.96
503.752	28.99
504.102	29.06
504.452	29.34
504.803	29.18
505.153	29.08
505.503	29.17
505.853	29.3
506.203	29.29
506.553	29.2
506.903	29.25
507.253	29.23
507.603	29.44
507.953	29.64
508.303	29.61
508.652	29.45
509.002	29.71
509.352	29.51
509.701	29.58
510.051	29.58
510.4	29.55
510.75	29.48
511.099	29.52
511.449	29.54
511.798	29.51
512.147	29.5
512.496	29.45
512.846	29.76
513.195	29.9
513.544	29.86
513.893	30
514.242	30.01
514.591	30
514.939	29.93
515.288	30.14
515.637	30.2
515.986	30.18
516.334	30.41
516.683	30.43
517.032	30.5
517.38	30.68
517.729	30.69
518.077	30.53
518.426	30.8
518.774	30.71
519.122	30.8
519.47	30.68
519.819	30.41
520.167	30.53
520.515	30.39
520.863	30.29
521.211	30.56
521.559	30.58
521.907	30.57
522.255	30.68
522.602	30.64
522.95	30.78
523.298	31.28
523.645	31.34
523.993	31.36
524.341	31.39
524.688	31.46
525.036	31.47
525.383	31.42
525.73	31.56
526.078	31.37
526.425	31.54
526.772	31.69
527.119	31.48
527.466	31.25
527.814	31.15
528.161	31.1
528.508	31.27
528.854	31.17
529.201	31.24
529.548	31.29
529.895	31.01
530.242	30.83
530.588	30.76
530.935	30.73
531.282	30.72
531.628	30.8
531.975	30.89
532.321	31.14
532.667	31.36
533.014	31.61
533.36	31.68
533.706	31.85
534.052	31.89
534.399	31.82
534.745	31.83
535.091	31.8
535.437	31.67
535.783	31.5
536.129	31.64
536.474	31.8
536.82	32.01
537.166	32.18
537.512	32.49
537.857	32.42
538.203	32.55
538.549	32.32
538.894	32.38
539.239	32.34
539.585	32.38
539.93	32.6
540.276	32.79
540.621	32.96
540.966	33.08
541.311	32.97
541.656	33.23
542.001	33.21
542.346	33.09
542.691	32.8
543.036	32.57
543.381	32.39
543.726	32.32
544.071	32.54
544.415	32.6
544.76	32.67
545.105	32.74
545.449	33.01
545.794	33.16
546.138	33.29
546.483	33.39
546.827	33.57
547.171	33.47
547.516	33.9
547.86	33.49
548.204	33.62
548.548	33.69
548.892	33.85
549.236	33.75
549.58	33.76
549.924	33.93
550.268	33.85
550.612	34.17
550.956	34.35
551.3	34.31
551.643	34.41
551.987	34.57
552.33	34.63
552.674	34.79
553.017	34.8
553.361	34.91
553.704	34.7
554.048	34.7
554.391	34.89
554.734	34.73
555.077	34.65
555.42	34.81
555.764	34.78
556.107	34.8
556.45	35.03
556.793	35.1
557.135	35.07
557.478	35.43
557.821	35.3
558.164	35.18
558.507	35.67
558.849	35.4
559.192	35.66
559.534	35.57
559.877	35.46
560.219	35.63
560.562	35.91
560.904	35.62
561.246	35.62
561.589	35.76
561.931	35.76
562.273	35.71
562.615	35.96
562.957	35.83
563.299	35.74
563.641	36.11
563.983	36.13
564.325	35.75
564.667	36.25
565.008	35.97
565.35	36.49
565.692	36.12
566.033	36.27
566.375	36.2
566.716	36.55
567.058	36.35
567.399	36.44
567.741	36.32
568.082	36.23
568.423	36.21
568.764	36.16
569.105	36.36
569.447	36.34
569.788	36.43
570.129	36.29
570.47	36.5
570.811	36.68
571.151	37.08
571.492	36.86
571.833	36.82
572.174	36.86
572.514	36.82
572.855	36.74
573.195	37.14
573.536	37
573.876	36.66
574.217	36.74
574.557	36.93
574.898	36.97
575.238	36.94
575.578	36.81
575.918	37.06
576.258	37.23
576.598	37.25
576.938	37.13
577.278	37.47
577.618	37.26
577.958	37.12
578.298	37.48
578.638	37.29
578.977	37.5
579.317	37.64
579.657	37.68
579.996	37.69
580.336	37.98
580.675	38.08
581.014	38.23
581.354	38.29
581.693	38.23
582.032	38.39
582.372	38.43
582.711	38.23
583.05	38.35
583.389	38.33
583.728	38.08
584.067	38.52
584.406	38.5
584.745	38.56
585.083	38.4
585.422	38.32
585.761	39
586.1	38.99
586.438	38.71
586.777	38.73
587.115	39.13
587.454	39.12
587.792	38.56
588.13	39.14
588.469	38.91
588.807	38.92
589.145	38.81
589.483	38.99
589.821	38.97
590.159	38.99
590.497	39.19
590.835	39.28
591.173	39.05
591.511	39.41
591.849	39.26
592.187	39.38
592.524	39.02
592.862	39.48
593.2	39.54
593.537	39.29
593.875	39.45
594.212	39.37
594.55	39.46
594.887	40.01
595.224	39.77
595.561	39.63
595.899	39.68
596.236	39.96
596.573	39.52
596.91	39.6
597.247	39.64
597.584	39.85
597.921	40.06
598.258	40.09
598.594	39.65
598.931	39.6
599.268	39.49
599.604	39.3
599.941	39.81
600.277	39.68
600.614	39.49
600.95	39.56
601.287	40.17
601.623	39.92
601.959	40.45
602.296	40.17
602.632	40.3
602.968	40.28
603.304	40.8
603.64	40.77
603.976	40.46
604.312	40.7
604.648	40.53
604.984	40.57
605.319	40.51
605.655	40.79
605.991	40.52
606.326	40.41
606.662	40.39
606.998	40.32
607.333	40.32
607.668	40.24
608.004	40.57
608.339	40.87
608.674	40.7
609.01	40.7
609.345	40.58
609.68	40.85
610.015	41.28
610.35	41.23
610.685	41.17
611.02	41.42
611.355	41
611.689	41.24
612.024	41.13
612.359	41.05
612.694	41.08
613.028	41.19
613.363	41.65
613.697	41.44
614.032	41.69
614.366	41.53
614.7	42.23
615.035	41.83
615.369	41.58
615.703	41.81
616.037	41.93
616.371	41.43
616.705	41.92
617.039	41.87
617.373	41.92
617.707	41.9
618.041	42.16
618.375	41.95
618.709	42.29
619.042	41.99
619.376	42.09
619.71	42.41
620.043	42.22
620.377	42.1
620.71	42.6
621.043	42.34
621.377	42.53
621.71	42.17
622.043	42.56
622.376	42.3
622.709	42.3
623.043	42.43
623.376	42.54
623.709	42.59
624.041	42.81
624.374	42.39
624.707	42.94
625.04	42.91
625.373	42.61
625.705	43.18
626.038	43.05
626.37	42.69
626.703	42.86
627.035	43.32
627.368	42.87
627.7	43.1
628.032	43.08
628.365	43.07
628.697	43.01
629.029	43.01
629.361	42.91
629.693	43.26
630.025	43.07
630.357	43.23
630.689	43.03
631.021	42.99
631.353	43.24
631.684	43.58
632.016	43.51
632.348	43.69
632.679	43.6
633.011	43.8
633.342	44
633.674	43.87
634.005	43.96
634.336	44.01
634.668	43.97
634.999	43.6
635.33	43.96
635.661	44.11
635.992	43.4
636.323	43.76
636.654	43.77
636.985	43.86
637.316	43.61
637.647	43.91
637.977	43.95
638.308	44.13
638.639	44.05
638.969	43.96
639.3	44.3
639.63	43.91
639.961	44.49
640.291	44.57
640.622	44.41
640.952	44.34
641.282	44.32
641.612	44
641.943	44.1
642.273	44.56
642.603	44.54
642.933	44.34
643.263	44.32
643.592	44.26
643.922	44.73
644.252	44.97
644.582	44.36
644.911	44.59
645.241	44.61
645.571	45.3
645.9	45.37
646.23	44.57
646.559	43.99
646.888	45.49
647.218	45.03
647.547	45.12
647.876	44.71
648.205	45.36
648.534	44.41
648.863	44.81
649.192	45.46
649.521	44.96
649.85	45.02
650.179	45.75
650.508	45.3
650.837	45.82
651.165	44.88
651.494	45.84
651.822	45.28
652.151	45.34
652.479	45.79
652.808	45.31
653.136	45.56
653.465	45.35
653.793	45.15
654.121	45.57
654.449	45.79
654.777	45.29
655.105	45.34
655.433	44.86
655.761	45.78
656.089	45.6
656.417	46.18
656.745	45.72
657.073	45.63
657.4	46.37
657.728	46.66
658.056	45.84
658.383	46.8
658.711	45.41
659.038	45.68
659.365	46.04
659.693	45.92
660.02	45.73
660.347	45.89
660.674	45.93
661.001	46.66
661.329	45.74
661.656	46.03
661.982	46.12
662.309	46.16
662.636	46.25
662.963	46
663.29	46.15
663.616	46.81
663.943	46.32
664.27	46.24
664.596	46.56
664.923	46.64
665.249	46.63
665.576	46.14
665.902	46.92
666.228	47.21
666.554	46.99
666.881	46.68
667.207	46.75
667.533	46.63
667.859	46.37
668.185	47.14
668.511	45.61
668.837	45.34
669.162	45.8
669.488	46.14
669.814	47.44
670.139	47.36
670.465	46.84
670.791	47.5
671.116	47.55
