Data from 0412_crown_Reflection__1__36.txt Node

Date: Fri Dec 15 16:41:08 CST 2023
User: ToomeyLab
Spectrometer: FLMS14357
Trigger mode: 0
Integration Time (sec): 1.000000E-2
Scans to average: 100
Electric dark correction enabled: true
Nonlinearity correction enabled: false
Boxcar width: 0
XAxis mode: Wavelengths
Number of Pixels in Spectrum: 2048
>>>>>Begin Spectral Data<<<<<
189.047	-150.23
189.435	-150.23
189.823	-150.23
190.211	43.6
190.599	-106.74
190.987	102.43
191.375	56.87
191.763	-133.18
192.151	82.12
192.538	111.61
192.926	0.67
193.314	123.68
193.702	45.42
194.089	-9.55
194.477	118.01
194.864	-74.58
195.252	139.27
195.639	155.16
196.027	-30.81
196.414	134.41
196.801	128.53
197.189	514.26
197.576	128.76
197.963	-6.96
198.351	-40.81
198.738	-13.93
199.125	61.73
199.512	-23.31
199.899	93.45
200.286	53.61
200.673	19.85
201.06	32.2
201.447	-34.27
201.833	42.95
202.22	16.36
202.607	34.29
202.994	22.27
203.38	6.37
203.767	72.62
204.154	13.15
204.54	55.18
204.927	20.14
205.313	-30.65
205.699	3.45
206.086	30.59
206.472	25.87
206.858	46.69
207.245	-46.27
207.631	43.19
208.017	38.37
208.403	1.68
208.789	39.46
209.175	10.5
209.561	10.09
209.947	15.07
210.333	-6.58
210.719	54.94
211.105	-2.98
211.491	-18.3
211.876	18.52
212.262	5.88
212.648	14.66
213.034	55.89
213.419	2.32
213.805	-11.88
214.19	-2.58
214.576	-7.74
214.961	-13.12
215.346	-33.63
215.732	18.76
216.117	17.35
216.502	-5.62
216.888	45.36
217.273	29.22
217.658	20.84
218.043	3.46
218.428	-0.57
218.813	-11.06
219.198	-6.39
219.583	3.86
219.968	22.1
220.353	11.04
220.738	32.12
221.122	36.12
221.507	5.43
221.892	-5.63
222.276	-9.36
222.661	9.96
223.046	33.81
223.43	22.03
223.815	16.87
224.199	-1.88
224.583	14.14
224.968	8.41
225.352	20.83
225.736	10.6
226.121	1.71
226.505	4.69
226.889	7.64
227.273	6.59
227.657	12.35
228.041	14.49
228.425	7.09
228.809	11.25
229.193	8.84
229.577	8.96
229.961	7.86
230.344	8.54
230.728	8.61
231.112	8.91
231.495	7.74
231.879	7.62
232.263	10.07
232.646	9.33
233.03	8.94
233.413	7.3
233.797	8.72
234.18	9.32
234.563	7.96
234.946	7.24
235.33	10.4
235.713	7.41
236.096	8.72
236.479	10.64
236.862	6.55
237.245	9.72
237.628	8.58
238.011	10.13
238.394	9.08
238.777	8.76
239.16	5.85
239.543	8.71
239.925	8.74
240.308	9.8
240.691	9.64
241.073	10.67
241.456	7.45
241.838	8.37
242.221	6
242.603	8.65
242.986	8.41
243.368	8.27
243.75	8
244.133	7.68
244.515	8.23
244.897	8.45
245.279	8.29
245.661	8.04
246.043	7.28
246.425	6.74
246.807	7.9
247.189	9.26
247.571	8.76
247.953	7.64
248.335	8.06
248.717	7.78
249.098	7.61
249.48	7.48
249.862	7.51
250.243	7.92
250.625	7.55
251.006	8.11
251.388	6.04
251.769	8.66
252.151	9.04
252.532	7.52
252.913	7.65
253.295	7.16
253.676	7.67
254.057	7.94
254.438	7.33
254.819	6.82
255.2	6.36
255.581	8.02
255.962	8.18
256.343	8.2
256.724	7.57
257.105	7.16
257.486	8.21
257.867	8.23
258.247	6.14
258.628	7.11
259.009	8.25
259.389	7.86
259.77	7.5
260.15	6.8
260.531	6.84
260.911	8.37
261.292	7.17
261.672	7.36
262.052	7.07
262.432	7.17
262.813	7.36
263.193	6.74
263.573	7.01
263.953	7.07
264.333	7.28
264.713	6.96
265.093	8.02
265.473	6.83
265.853	6.31
266.233	6.82
266.612	5.94
266.992	6.6
267.372	6.16
267.752	7.59
268.131	7.33
268.511	7.4
268.89	6.96
269.27	7.41
269.649	6.66
270.029	6.44
270.408	8.15
270.787	7.08
271.167	7.91
271.546	6.51
271.925	6.14
272.304	7.46
272.683	6.8
273.062	7
273.441	7.07
273.82	6.53
274.199	6.39
274.578	7.23
274.957	7.11
275.336	7.1
275.715	6.61
276.093	6.62
276.472	6.84
276.851	6.88
277.229	6.32
277.608	6.4
277.986	7.17
278.365	6.82
278.743	6.3
279.122	6.58
279.5	6.92
279.878	6.9
280.257	7.03
280.635	6.05
281.013	6.69
281.391	7.22
281.769	7.16
282.147	6.12
282.525	7.91
282.903	6.44
283.281	7.04
283.659	6.48
284.037	7.07
284.415	6.81
284.792	7.04
285.17	6.27
285.548	6.1
285.925	6.51
286.303	6.66
286.68	6.18
287.058	6.5
287.435	6.35
287.813	6.8
288.19	6.31
288.567	6.33
288.945	7
289.322	6.31
289.699	6.4
290.076	6.68
290.453	6.36
290.83	5.72
291.207	6.42
291.584	6.63
291.961	6.82
292.338	6.84
292.715	6.81
293.092	6.87
293.469	6.41
293.845	5.92
294.222	5.81
294.599	6.16
294.975	5.83
295.352	6.74
295.728	5.9
296.105	6.02
296.481	6.34
296.858	6.39
297.234	6.43
297.61	5.86
297.986	5.81
298.363	6.53
298.739	6.5
299.115	5.99
299.491	5.65
299.867	6.24
300.243	5.79
300.619	5.93
300.995	6.05
301.371	6.53
301.746	5.27
302.122	6.29
302.498	5.92
302.874	5.88
303.249	5.72
303.625	6.06
304	6.27
304.376	5.83
304.751	5.31
305.127	6.39
305.502	5.58
305.878	5.43
306.253	5.24
306.628	6.46
307.003	5.27
307.378	6.14
307.754	5.72
308.129	5.27
308.504	5.91
308.879	5.56
309.254	6.5
309.629	5.88
310.003	4.83
310.378	5.67
310.753	6.1
311.128	5.93
311.502	5.74
311.877	5.65
312.252	5.4
312.626	5.57
313.001	5.44
313.375	5.69
313.75	5.2
314.124	5.57
314.498	5.68
314.873	5.14
315.247	4.98
315.621	5.63
315.995	4.86
316.369	5.03
316.743	5.43
317.117	5.79
317.491	4.97
317.865	5.31
318.239	5.16
318.613	5.15
318.987	5.59
319.361	4.6
319.734	5.47
320.108	5.58
320.482	5.45
320.855	5.66
321.229	5.28
321.602	4.67
321.976	5.73
322.349	4.63
322.723	5.44
323.096	5.72
323.469	4.84
323.843	5.77
324.216	5.2
324.589	4.58
324.962	5.49
325.335	5.06
325.708	5.26
326.081	5.08
326.454	5.34
326.827	5.12
327.2	4.98
327.573	4.74
327.945	5.89
328.318	5.05
328.691	4.89
329.063	5.06
329.436	4.62
329.809	5.38
330.181	4.76
330.553	5.1
330.926	5.75
331.298	5.46
331.671	4.87
332.043	5.92
332.415	5.46
332.787	4.78
333.159	5.53
333.532	5.77
333.904	5.28
334.276	5.25
334.648	4.76
335.02	4.72
335.391	5.05
335.763	4.67
336.135	4.88
336.507	5.68
336.879	5.07
337.25	4.76
337.622	4.86
337.993	5.2
338.365	5.4
338.736	5.39
339.108	5.04
339.479	5.05
339.851	5.81
340.222	4.95
340.593	4.82
340.964	4.76
341.336	5.2
341.707	4.81
342.078	5.02
342.449	5.3
342.82	4.83
343.191	4.94
343.562	5.01
343.933	5.04
344.303	5
344.674	4.71
345.045	5.22
345.416	5.66
345.786	5.2
346.157	4.95
346.527	4.98
346.898	4.59
347.268	5.18
347.639	5.22
348.009	5.19
348.38	4.83
348.75	5.31
349.12	4.97
349.49	5.22
349.861	4.97
350.231	4.99
350.601	4.92
350.971	5.12
351.341	4.97
351.711	4.85
352.081	5.23
352.45	5.06
352.82	5.25
353.19	4.37
353.56	4.95
353.929	4.9
354.299	4.84
354.669	4.61
355.038	5.13
355.408	4.84
355.777	5.26
356.147	4.9
356.516	5.23
356.885	5.3
357.254	4.88
357.624	5.08
357.993	4.88
358.362	4.79
358.731	4.84
359.1	5.11
359.469	5.05
359.838	5.2
360.207	4.67
360.576	4.74
360.945	4.95
361.314	5.21
361.682	5.17
362.051	5.01
362.42	5.09
362.788	5.11
363.157	5.33
363.525	5.06
363.894	5.29
364.262	5.12
364.631	5.01
364.999	5.12
365.367	4.71
365.735	5.62
366.104	5.43
366.472	5.1
366.84	4.92
367.208	5.02
367.576	4.83
367.944	5.38
368.312	4.81
368.68	4.43
369.048	5.13
369.416	4.96
369.783	4.88
370.151	5.25
370.519	5.41
370.886	5.19
371.254	5.15
371.621	5.39
371.989	5.7
372.356	4.83
372.724	5.6
373.091	4.83
373.458	5.12
373.826	5.14
374.193	5.06
374.56	5.22
374.927	5.38
375.294	5.18
375.661	4.89
376.028	5.24
376.395	4.97
376.762	5.53
377.129	5.17
377.496	5.35
377.863	5.32
378.229	4.76
378.596	5.41
378.963	4.85
379.329	5.07
379.696	5.46
380.062	5.43
380.429	5.47
380.795	5.07
381.161	5.3
381.528	5.91
381.894	5.31
382.26	5.2
382.626	5.76
382.993	4.98
383.359	5.81
383.725	5.32
384.091	5.56
384.457	5.43
384.823	5.56
385.188	5.46
385.554	5.23
385.92	5.43
386.286	5.67
386.651	5.41
387.017	5.47
387.383	5.5
387.748	5.28
388.114	5.55
388.479	5.34
388.845	5.41
389.21	5.59
389.575	5.54
389.94	5.41
390.306	5.63
390.671	5.78
391.036	5.35
391.401	5.25
391.766	5.35
392.131	5.31
392.496	5.65
392.861	5.47
393.226	5.66
393.591	5.42
393.956	5.48
394.32	5.63
394.685	5.47
395.05	5.54
395.414	5.59
395.779	5.25
396.143	5.65
396.508	5.61
396.872	5.49
397.236	5.83
397.601	5.27
397.965	5.73
398.329	5.48
398.694	5.76
399.058	5.51
399.422	5.29
399.786	5.66
400.15	5.66
400.514	5.96
400.878	5.69
401.242	5.89
401.605	5.82
401.969	5.67
402.333	5.61
402.697	5.68
403.06	5.85
403.424	5.69
403.787	5.72
404.151	5.67
404.514	5.6
404.878	5.64
405.241	5.81
405.604	5.79
405.968	5.61
406.331	5.91
406.694	5.98
407.057	5.87
407.42	5.94
407.783	5.54
408.146	5.8
408.509	5.88
408.872	5.64
409.235	5.81
409.598	6.09
409.961	6.07
410.323	6.14
410.686	5.64
411.049	6.02
411.411	5.63
411.774	5.88
412.136	5.77
412.499	5.6
412.861	5.81
413.223	5.79
413.586	5.91
413.948	5.69
414.31	5.75
414.672	5.52
415.035	5.86
415.397	6.09
415.759	5.59
416.121	5.76
416.483	5.64
416.845	5.86
417.206	5.82
417.568	6.22
417.93	5.74
418.292	5.85
418.653	6.13
419.015	5.88
419.377	6.02
419.738	6.06
420.1	5.8
420.461	5.93
420.822	5.74
421.184	5.84
421.545	5.88
421.906	5.8
422.267	5.79
422.629	5.86
422.99	5.87
423.351	5.8
423.712	5.74
424.073	5.83
424.434	5.76
424.795	5.85
425.155	5.77
425.516	5.91
425.877	5.77
426.238	5.87
426.598	5.88
426.959	5.91
427.32	5.83
427.68	5.88
428.041	5.8
428.401	6.1
428.761	5.92
429.122	6.04
429.482	5.84
429.842	6.1
430.202	6.13
430.563	6.17
430.923	6.1
431.283	6.05
431.643	6.13
432.003	5.96
432.363	6.15
432.722	6.18
433.082	6.17
433.442	6.23
433.802	5.96
434.161	6.1
434.521	6.24
434.881	6.06
435.24	5.98
435.6	6.13
435.959	5.94
436.319	6.04
436.678	6.14
437.037	5.99
437.396	6.11
437.756	6.23
438.115	6.07
438.474	6.34
438.833	5.92
439.192	6.06
439.551	6.37
439.91	6.26
440.269	6.19
440.628	6.19
440.987	6.15
441.345	5.99
441.704	6.08
442.063	6.01
442.421	6.06
442.78	6.09
443.138	6.03
443.497	6.11
443.855	6.13
444.214	6.23
444.572	6.11
444.93	6.2
445.288	6.06
445.647	6.09
446.005	6.08
446.363	6.18
446.721	6.18
447.079	6.08
447.437	6.03
447.795	6.18
448.153	6.05
448.51	6.03
448.868	6.04
449.226	6.15
449.584	6.11
449.941	6.13
450.299	6.16
450.656	6.1
451.014	6.18
451.371	6.23
451.729	6.14
452.086	6.38
452.443	6.36
452.801	6.28
453.158	6.31
453.515	6.12
453.872	6.32
454.229	6.24
454.586	6.31
454.943	6.2
455.3	6.33
455.657	6.13
456.014	6.36
456.371	6.13
456.727	6.21
457.084	6.3
457.441	6.3
457.797	6.39
458.154	6.75
458.51	6.5
458.867	6.38
459.223	6.46
459.58	6.4
459.936	6.48
460.292	6.34
460.648	6.19
461.005	6.23
461.361	6.3
461.717	6.33
462.073	6.15
462.429	6.23
462.785	6.33
463.141	6.25
463.496	6.38
463.852	6.48
464.208	6.37
464.564	6.41
464.919	6.36
465.275	6.37
465.631	6.49
465.986	6.39
466.342	6.48
466.697	6.2
467.052	6.56
467.408	6.47
467.763	6.36
468.118	6.52
468.473	6.34
468.829	6.48
469.184	6.47
469.539	6.35
469.894	6.37
470.249	6.51
470.603	6.44
470.958	6.48
471.313	6.71
471.668	6.59
472.023	6.45
472.377	6.39
472.732	6.5
473.086	6.42
473.441	6.27
473.795	6.62
474.15	6.53
474.504	6.45
474.859	6.56
475.213	6.3
475.567	6.34
475.921	6.45
476.275	6.46
476.63	6.37
476.984	6.62
477.338	6.67
477.692	6.38
478.045	6.38
478.399	6.52
478.753	6.54
479.107	6.48
479.461	6.5
479.814	6.59
480.168	6.36
480.521	6.5
480.875	6.41
481.228	6.37
481.582	6.47
481.935	6.46
482.289	6.59
482.642	6.52
482.995	6.49
483.348	6.36
483.701	6.42
484.055	6.62
484.408	6.55
484.761	6.35
485.114	6.3
485.466	6.21
485.819	6.17
486.172	6.13
486.525	6.12
486.878	6.12
487.23	6.24
487.583	6.31
487.936	6.38
488.288	6.35
488.641	6.44
488.993	6.29
489.345	6.29
489.698	6.24
490.05	6.18
490.402	6.25
490.754	6.23
491.107	6.26
491.459	6.36
491.811	6.43
492.163	6.42
492.515	6.48
492.866	6.58
493.218	6.47
493.57	6.34
493.922	6.29
494.274	6.25
494.625	6.4
494.977	6.5
495.328	6.46
495.68	6.5
496.031	6.81
496.383	6.55
496.734	6.74
497.086	6.62
497.437	6.62
497.788	6.56
498.139	6.5
498.49	6.62
498.842	6.58
499.193	6.47
499.544	6.53
499.894	6.54
500.245	6.54
500.596	6.59
500.947	6.59
501.298	6.49
501.648	6.71
501.999	6.67
502.35	6.59
502.7	6.53
503.051	6.48
503.401	6.65
503.752	6.79
504.102	6.72
504.452	6.7
504.803	6.6
505.153	6.63
505.503	6.64
505.853	6.57
506.203	6.54
506.553	6.71
506.903	6.61
507.253	6.63
507.603	6.58
507.953	6.71
508.303	6.73
508.652	6.63
509.002	6.72
509.352	6.81
509.701	6.57
510.051	6.61
510.4	6.61
510.75	6.58
511.099	6.7
511.449	6.57
511.798	6.61
512.147	6.65
512.496	6.59
512.846	6.68
513.195	6.7
513.544	6.63
513.893	6.69
514.242	6.74
514.591	6.77
514.939	6.68
515.288	6.52
515.637	6.74
515.986	6.6
516.334	6.65
516.683	6.71
517.032	6.69
517.38	6.85
517.729	6.75
518.077	6.59
518.426	6.8
518.774	6.71
519.122	6.63
519.47	6.8
519.819	6.52
520.167	6.66
520.515	6.62
520.863	6.78
521.211	6.69
521.559	6.66
521.907	6.58
522.255	6.69
522.602	6.62
522.95	6.68
523.298	6.71
523.645	6.79
523.993	6.68
524.341	6.87
524.688	6.73
525.036	6.82
525.383	6.84
525.73	6.87
526.078	6.69
526.425	6.68
526.772	6.69
527.119	6.58
527.466	6.67
527.814	6.67
528.161	6.63
528.508	6.63
528.854	6.63
529.201	6.55
529.548	6.55
529.895	6.58
530.242	6.45
530.588	6.47
530.935	6.46
531.282	6.42
531.628	6.39
531.975	6.46
532.321	6.52
532.667	6.55
533.014	6.62
533.36	6.63
533.706	6.64
534.052	6.65
534.399	6.65
534.745	6.69
535.091	6.63
535.437	6.63
535.783	6.55
536.129	6.5
536.474	6.53
536.82	6.61
537.166	6.73
537.512	6.68
537.857	6.7
538.203	6.74
538.549	6.66
538.894	6.64
539.239	6.66
539.585	6.66
539.93	6.63
540.276	6.75
540.621	6.74
540.966	6.75
541.311	6.66
541.656	6.68
542.001	6.76
542.346	6.83
542.691	6.62
543.036	6.6
543.381	6.56
543.726	6.49
544.071	6.53
544.415	6.54
544.76	6.5
545.105	6.6
545.449	6.68
545.794	6.66
546.138	6.66
546.483	6.74
546.827	6.71
547.171	6.67
547.516	6.78
547.86	6.66
548.204	6.66
548.548	6.71
548.892	6.72
549.236	6.77
549.58	6.63
549.924	6.7
550.268	6.91
550.612	6.86
550.956	6.92
551.3	6.69
551.643	6.93
551.987	6.95
552.33	6.89
552.674	6.91
553.017	6.84
553.361	6.64
553.704	6.85
554.048	6.58
554.391	6.78
554.734	6.69
555.077	6.74
555.42	6.74
555.764	6.72
556.107	6.75
556.45	6.53
556.793	6.68
557.135	6.8
557.478	6.85
557.821	6.74
558.164	6.74
558.507	7.05
558.849	6.78
559.192	6.9
559.534	6.67
559.877	6.92
560.219	6.67
560.562	7.08
560.904	6.67
561.246	6.92
561.589	6.91
561.931	6.85
562.273	6.64
562.615	6.79
562.957	6.85
563.299	6.63
563.641	6.93
563.983	6.94
564.325	6.62
564.667	6.75
565.008	6.92
565.35	6.98
565.692	6.77
566.033	6.82
566.375	6.94
566.716	6.94
567.058	6.61
567.399	6.74
567.741	6.82
568.082	6.79
568.423	6.65
568.764	6.75
569.105	6.75
569.447	6.78
569.788	6.81
570.129	6.86
570.47	6.78
570.811	7.04
571.151	6.91
571.492	6.93
571.833	6.82
572.174	6.78
572.514	6.92
572.855	6.86
573.195	6.65
573.536	6.83
573.876	6.68
574.217	6.66
574.557	6.74
574.898	6.91
575.238	6.84
575.578	6.57
575.918	6.87
576.258	6.79
576.598	6.77
576.938	6.85
577.278	6.85
577.618	6.86
577.958	6.76
578.298	6.56
578.638	6.79
578.977	6.64
579.317	6.64
579.657	6.85
579.996	6.69
580.336	6.89
580.675	6.63
581.014	6.86
581.354	6.86
581.693	6.82
582.032	6.66
582.372	6.53
582.711	6.93
583.05	6.74
583.389	6.76
583.728	6.51
584.067	6.87
584.406	6.71
584.745	6.88
585.083	7.05
585.422	6.69
585.761	6.9
586.1	6.8
586.438	6.83
586.777	7.04
587.115	7.18
587.454	6.82
587.792	6.86
588.13	7.05
588.469	6.61
588.807	6.89
589.145	6.76
589.483	6.76
589.821	6.37
590.159	6.62
590.497	6.86
590.835	7.05
591.173	6.78
591.511	6.8
591.849	6.78
592.187	6.87
592.524	6.67
592.862	6.69
593.2	6.78
593.537	6.88
593.875	6.49
594.212	6.59
594.55	6.51
594.887	6.94
595.224	6.79
595.561	6.85
595.899	6.51
596.236	6.6
596.573	6.88
596.91	6.4
597.247	6.56
597.584	7.21
597.921	6.61
598.258	6.67
598.594	6.78
598.931	6.75
599.268	6.7
599.604	6.51
599.941	6.77
600.277	6.4
600.614	6.71
600.95	6.41
601.287	6.65
601.623	6.82
601.959	6.39
602.296	6.56
602.632	6.66
602.968	6.63
603.304	6.64
603.64	6.41
603.976	6.7
604.312	6.67
604.648	6.62
604.984	6.89
605.319	6.77
605.655	6.62
605.991	6.64
606.326	6.68
606.662	6.69
606.998	6.47
607.333	6.62
607.668	6.37
608.004	6.63
608.339	6.7
608.674	6.77
609.01	6.47
609.345	6.41
609.68	6.89
610.015	6.41
610.35	6.62
610.685	6.56
611.02	6.82
611.355	6.81
611.689	6.68
612.024	6.54
612.359	6.77
612.694	6.61
613.028	6.41
613.363	6.57
613.697	6.86
614.032	6.87
614.366	6.67
614.7	6.89
615.035	6.6
615.369	6.51
615.703	6.47
616.037	6.94
616.371	5.97
616.705	6.75
617.039	6.58
617.373	6.48
617.707	6.94
618.041	6.51
618.375	6.71
618.709	6.87
619.042	6.64
619.376	6.82
619.71	6.76
620.043	6.68
620.377	6.22
620.71	6.74
621.043	6.56
621.377	6.55
621.71	6.38
622.043	6.58
622.376	6.5
622.709	6.68
623.043	6.84
623.376	6.58
623.709	6.34
624.041	6.9
624.374	6.78
624.707	6.24
625.04	6.97
625.373	6.39
625.705	6.42
626.038	6.59
626.37	6.7
626.703	6.46
627.035	6.5
627.368	6.83
627.7	6.5
628.032	6.48
628.365	6.8
628.697	6.56
629.029	6.35
629.361	6.41
629.693	6.68
630.025	6.27
630.357	6.87
630.689	6.49
631.021	6.52
631.353	6.73
631.684	6.65
632.016	6.28
632.348	6.5
632.679	6.57
633.011	6.82
633.342	6.88
633.674	6.56
634.005	7.11
634.336	6.86
634.668	7.1
634.999	6.75
635.33	6.78
635.661	6.51
635.992	6.58
636.323	6.8
636.654	7.17
636.985	6.74
637.316	6.65
637.647	6.24
637.977	6.77
638.308	6.66
638.639	6.28
638.969	6.06
639.3	6.17
639.63	6.31
639.961	6.85
640.291	6.32
640.622	7.03
640.952	6.55
641.282	6.8
641.612	6.25
641.943	6.35
642.273	6.34
642.603	6.76
642.933	6.42
643.263	6.51
643.592	6.39
643.922	6.26
644.252	5.98
644.582	6.36
644.911	6.34
645.241	6.6
645.571	6.91
645.9	6.49
646.23	6.37
646.559	6.53
646.888	6.43
647.218	6.22
647.547	6.45
647.876	6.26
648.205	6.27
648.534	6.11
648.863	5.9
649.192	6.84
649.521	6.38
649.85	6.08
650.179	6.96
650.508	6.22
650.837	6.05
651.165	6.43
651.494	6.61
651.822	6.55
652.151	5.88
652.479	6.69
652.808	6.06
653.136	6.93
653.465	6.17
653.793	6.11
654.121	6.06
654.449	6.76
654.777	6.44
655.105	6.75
655.433	6.06
655.761	6.48
656.089	6.84
656.417	6.71
656.745	6.16
657.073	5.79
657.4	6.23
657.728	6.54
658.056	6.26
658.383	6.67
658.711	6.43
659.038	6.57
659.365	7.12
659.693	6.85
660.02	6.4
660.347	6.53
660.674	6.59
661.001	6.59
661.329	5.91
661.656	6.61
661.982	6.64
662.309	6.14
662.636	6.3
662.963	6.82
663.29	6.82
663.616	6.74
663.943	6.26
664.27	6.81
664.596	6.8
664.923	6.15
665.249	6.5
665.576	6.7
665.902	7.6
666.228	6.71
666.554	6.9
666.881	6.67
667.207	6.38
667.533	6.64
667.859	7.12
668.185	6.65
668.511	6.09
668.837	5.85
669.162	5.77
669.488	5.76
669.814	6.53
670.139	6.75
670.465	7.26
670.791	7.12
671.116	6.61
671.442	5.89
671.767	6.73
672.092	7.08
672.418	6.79
672.743	6.72
673.068	5.87
673.393	7.17
673.718	6.47
674.043	6.5
674.368	6.79
674.693	7.67
675.018	7.04
675.343	6.6
675.667	6.28
675.992	6.69
676.317	7.11
676.641	6.85
676.966	6.83
677.29	6.57
677.615	7.61
677.939	7.24
678.264	7.27
678.588	6.94
678.912	6.87
679.236	7.05
679.56	5.61
679.885	7.09
680.209	6.43
680.532	6.33
680.856	7.34
681.18	6.54
681.504	6.34
681.828	6.69
682.152	6.01
682.475	6.52
682.799	7.03
683.122	6.54
683.446	6.45
683.769	7.19
684.093	6.35
684.416	7.13
684.739	6.23
685.062	6.47
685.386	7.78
685.709	5.82
686.032	6.91
686.355	6.89
686.678	6.12
687.001	6.67
687.324	7.29
687.646	7.1
687.969	6.15
688.292	6.4
688.614	6.17
688.937	7.9
689.26	6.77
689.582	7.06
689.904	6.73
690.227	6.56
690.549	6.81
690.871	7.32
691.194	7.11
691.516	6.64
691.838	6.99
692.16	5.79
