Data from 0412_chest_Reflection__1__31.txt Node

Date: Fri Dec 15 16:39:27 CST 2023
User: ToomeyLab
Spectrometer: FLMS14357
Trigger mode: 0
Integration Time (sec): 1.000000E-2
Scans to average: 100
Electric dark correction enabled: true
Nonlinearity correction enabled: false
Boxcar width: 0
XAxis mode: Wavelengths
Number of Pixels in Spectrum: 2048
>>>>>Begin Spectral Data<<<<<
189.047	56.6
189.435	56.6
189.823	56.6
190.211	-37.37
190.599	-112.13
190.987	197.69
191.375	45.92
191.763	-101.31
192.151	-98.37
192.538	144.75
192.926	-97.84
193.314	85.28
193.702	11.38
194.089	122.45
194.477	161.13
194.864	261.4
195.252	91.65
195.639	198.08
196.027	47.86
196.414	-172.56
196.801	145.91
197.189	1280.03
197.576	79.06
197.963	54.8
198.351	-48.56
198.738	19.95
199.125	67.67
199.512	76.33
199.899	62.62
200.286	25.36
200.673	17.95
201.06	4.9
201.447	11.49
201.833	25
202.22	31.37
202.607	67.7
202.994	20.36
203.38	31.47
203.767	59.87
204.154	28.39
204.54	23.62
204.927	-5.35
205.313	-49.84
205.699	54.34
206.086	38.38
206.472	29.62
206.858	40.69
207.245	26.54
207.631	35.72
208.017	41.45
208.403	-9.29
208.789	45.67
209.175	23.3
209.561	1.2
209.947	59.03
210.333	11.5
210.719	19.85
211.105	1.26
211.491	17.89
211.876	52.07
212.262	40.55
212.648	12.98
213.034	24.85
213.419	-0.84
213.805	2.75
214.19	-2.82
214.576	0.33
214.961	8.52
215.346	-30.48
215.732	20.6
216.117	7.79
216.502	7.09
216.888	35.11
217.273	35.3
217.658	13.91
218.043	42.89
218.428	-7.04
218.813	13.5
219.198	5.07
219.583	-11.23
219.968	12.69
220.353	10.18
220.738	19.3
221.122	21.69
221.507	-14.79
221.892	-1.36
222.276	13.89
222.661	23.43
223.046	24.71
223.43	31.07
223.815	24.58
224.199	-3.02
224.583	14.41
224.968	8.84
225.352	5.88
225.736	15.43
226.121	2.12
226.505	11.93
226.889	5.52
227.273	-0.8
227.657	11.14
228.041	4.86
228.425	0.95
228.809	10.51
229.193	7.42
229.577	2.46
229.961	3.84
230.344	3.62
230.728	3.95
231.112	3.95
231.495	3.22
231.879	3.44
232.263	6.78
232.646	4.38
233.03	5.66
233.413	2.69
233.797	5.74
234.18	3.08
234.563	3.74
234.946	2.84
235.33	6.26
235.713	4.12
236.096	3.72
236.479	5.81
236.862	3.67
237.245	6.11
237.628	4.13
238.011	4.21
238.394	7.19
238.777	5.99
239.16	3.34
239.543	5.46
239.925	5.58
240.308	2.84
240.691	6.04
241.073	6.88
241.456	4.26
241.838	3.33
242.221	4.32
242.603	5.49
242.986	5.02
243.368	4.68
243.75	4.58
244.133	4.19
244.515	4.64
244.897	4.25
245.279	4.47
245.661	4.17
246.043	3.77
246.425	3.23
246.807	4.18
247.189	4.92
247.571	4.51
247.953	4.6
248.335	4.28
248.717	4.11
249.098	3.88
249.48	4.03
249.862	3.8
250.243	4.03
250.625	4.51
251.006	4.31
251.388	3.18
251.769	3.93
252.151	5.03
252.532	4.84
252.913	3.98
253.295	3.99
253.676	4.38
254.057	5.16
254.438	3.65
254.819	3.87
255.2	4.01
255.581	4.2
255.962	4.28
256.343	4.98
256.724	4.41
257.105	4.6
257.486	3.88
257.867	4.48
258.247	5.15
258.628	3.77
259.009	3.32
259.389	4.24
259.77	4.07
260.15	3.41
260.531	3.56
260.911	4.71
261.292	3.74
261.672	4.14
262.052	4.06
262.432	4.15
262.813	3.89
263.193	3.97
263.573	3.88
263.953	3.82
264.333	5
264.713	4.45
265.093	4.35
265.473	4.34
265.853	3.32
266.233	4.11
266.612	2.69
266.992	2.33
267.372	4.63
267.752	4.03
268.131	4.5
268.511	4.06
268.89	4.01
269.27	3.43
269.649	3.65
270.029	3.79
270.408	4.67
270.787	3.77
271.167	3.93
271.546	4.34
271.925	3.12
272.304	3.99
272.683	3.99
273.062	3.51
273.441	3.73
273.82	3.12
274.199	4.01
274.578	3.92
274.957	3.87
275.336	3.85
275.715	3.7
276.093	3.52
276.472	4.56
276.851	3.76
277.229	3.26
277.608	3.3
277.986	3.74
278.365	3.44
278.743	3.31
279.122	3.25
279.5	3.58
279.878	4.18
280.257	3.31
280.635	4.27
281.013	3.24
281.391	3.98
281.769	4.56
282.147	3.89
282.525	3.94
282.903	3.92
283.281	4.46
283.659	3.37
284.037	4.11
284.415	3.81
284.792	3.76
285.17	2.97
285.548	3.67
285.925	4.5
286.303	4.03
286.68	3.28
287.058	3.53
287.435	3.52
287.813	3.94
288.19	3.67
288.567	3.74
288.945	4.33
289.322	3.81
289.699	3.77
290.076	3.53
290.453	4.11
290.83	3.67
291.207	3.27
291.584	4
291.961	3.55
292.338	3.66
292.715	4.01
293.092	3.72
293.469	3.94
293.845	3.84
294.222	3.83
294.599	3.51
294.975	4.09
295.352	4.46
295.728	3.28
296.105	4.06
296.481	4.41
296.858	4.15
297.234	4.02
297.61	3.94
297.986	4.02
298.363	4.31
298.739	4.3
299.115	3.9
299.491	3.99
299.867	4.25
300.243	4.42
300.619	3.91
300.995	4.17
301.371	4.53
301.746	4.51
302.122	5
302.498	4.13
302.874	4.6
303.249	4.49
303.625	4.66
304	4.32
304.376	4.95
304.751	3.75
305.127	5.06
305.502	4.37
305.878	4.07
306.253	4.72
306.628	5.7
307.003	5.09
307.378	5.31
307.754	4.33
308.129	3.81
308.504	4.98
308.879	4
309.254	5.02
309.629	5.53
310.003	4.84
310.378	4.89
310.753	5.14
311.128	5
311.502	4.83
311.877	5.3
312.252	4.46
312.626	4.59
313.001	5.3
313.375	5.18
313.75	4.54
314.124	5.01
314.498	4.8
314.873	4.69
315.247	4.14
315.621	4.77
315.995	4.01
316.369	5.16
316.743	5.24
317.117	4.87
317.491	4.53
317.865	5.02
318.239	4.82
318.613	5.9
318.987	4.72
319.361	4.63
319.734	5.38
320.108	5.16
320.482	5.69
320.855	5.18
321.229	5.19
321.602	5.05
321.976	5.84
322.349	4.8
322.723	5.42
323.096	5.9
323.469	4.59
323.843	5.07
324.216	5.7
324.589	5.27
324.962	5.71
325.335	5.12
325.708	5.22
326.081	5.49
326.454	5.4
326.827	5.19
327.2	5.24
327.573	5.74
327.945	5.44
328.318	5.18
328.691	4.59
329.063	5.23
329.436	5.29
329.809	5.29
330.181	4.95
330.553	4.83
330.926	5.3
331.298	5.52
331.671	4.84
332.043	5.68
332.415	5.52
332.787	5.26
333.159	5.56
333.532	5.03
333.904	5.43
334.276	5.31
334.648	5.4
335.02	5.33
335.391	4.73
335.763	5.16
336.135	5.54
336.507	5.91
336.879	5.54
337.25	5.66
337.622	5.93
337.993	5.2
338.365	5.56
338.736	5.53
339.108	5.59
339.479	5.31
339.851	5.35
340.222	5.39
340.593	5.48
340.964	5.02
341.336	6.32
341.707	5.4
342.078	5.55
342.449	5.8
342.82	5.16
343.191	5.84
343.562	5.15
343.933	5.67
344.303	5.35
344.674	5.56
345.045	5.24
345.416	5.96
345.786	5.25
346.157	5.59
346.527	4.86
346.898	5.1
347.268	5.89
347.639	5.65
348.009	5.6
348.38	5.14
348.75	5.31
349.12	5.14
349.49	6.1
349.861	5.96
350.231	5.92
350.601	5.73
350.971	5.8
351.341	5.88
351.711	5.77
352.081	5.68
352.45	5.19
352.82	5.82
353.19	5.54
353.56	5.53
353.929	5.66
354.299	5.72
354.669	5.35
355.038	5.61
355.408	5.5
355.777	5.92
356.147	5.69
356.516	5.57
356.885	5.7
357.254	5.64
357.624	6.14
357.993	5.73
358.362	5.35
358.731	5.33
359.1	5.68
359.469	5.5
359.838	5.76
360.207	5.42
360.576	5.17
360.945	5.56
361.314	6.2
361.682	5.67
362.051	5.76
362.42	5.58
362.788	5.54
363.157	5.72
363.525	5.97
363.894	5.84
364.262	5.71
364.631	5.51
364.999	5.69
365.367	5.52
365.735	6.26
366.104	5.72
366.472	5.73
366.84	5.93
367.208	5.84
367.576	6.36
367.944	5.85
368.312	5.72
368.68	5.43
369.048	5.63
369.416	5.86
369.783	5.25
370.151	5.76
370.519	6.37
370.886	5.79
371.254	5.63
371.621	5.93
371.989	5.83
372.356	5.42
372.724	6.22
373.091	5.75
373.458	6.08
373.826	6
374.193	5.81
374.56	6.04
374.927	6.02
375.294	5.65
375.661	5.92
376.028	6.06
376.395	5.69
376.762	6.11
377.129	6.02
377.496	6.1
377.863	6.2
378.229	5.29
378.596	5.97
378.963	5.87
379.329	5.56
379.696	6.03
380.062	5.81
380.429	5.99
380.795	5.8
381.161	6.14
381.528	6.46
381.894	5.97
382.26	5.89
382.626	6.29
382.993	5.91
383.359	6.13
383.725	6.21
384.091	6.03
384.457	6.22
384.823	6.16
385.188	5.96
385.554	6
385.92	6.08
386.286	6.21
386.651	6.21
387.017	5.94
387.383	6.08
387.748	6.04
388.114	6.25
388.479	5.96
388.845	6.39
389.21	6.39
389.575	6.2
389.94	6.41
390.306	6.24
390.671	6.36
391.036	6.08
391.401	6.07
391.766	6.07
392.131	6.37
392.496	6.37
392.861	6.1
393.226	6.55
393.591	6.29
393.956	6.14
394.32	6.12
394.685	6.1
395.05	5.99
395.414	6.27
395.779	5.84
396.143	6.17
396.508	5.9
396.872	6.01
397.236	5.86
397.601	5.86
397.965	6.05
398.329	6.25
398.694	6.54
399.058	6.19
399.422	6.12
399.786	6.38
400.15	6.33
400.514	6.28
400.878	6.49
401.242	6.69
401.605	6.33
401.969	6.2
402.333	6.33
402.697	6.4
403.06	6.03
403.424	6.2
403.787	6.5
404.151	6.52
404.514	6.42
404.878	6.23
405.241	6.67
405.604	6.38
405.968	6.44
406.331	6.36
406.694	6.54
407.057	6.46
407.42	6.58
407.783	6.3
408.146	6.37
408.509	6.29
408.872	6.31
409.235	6.57
409.598	6.38
409.961	6.41
410.323	6.59
410.686	6.56
411.049	6.48
411.411	6.48
411.774	6.52
412.136	6.69
412.499	6.24
412.861	6.32
413.223	6.37
413.586	6.44
413.948	6.49
414.31	6.66
414.672	6.15
415.035	6.14
415.397	6.73
415.759	6.35
416.121	6.58
416.483	6.44
416.845	6.84
417.206	6.4
417.568	6.56
417.93	6.39
418.292	6.58
418.653	6.48
419.015	6.57
419.377	6.46
419.738	6.6
420.1	6.48
420.461	6.66
420.822	6.52
421.184	6.37
421.545	6.5
421.906	6.37
422.267	6.43
422.629	6.39
422.99	6.5
423.351	6.46
423.712	6.37
424.073	6.44
424.434	6.3
424.795	6.35
425.155	6.52
425.516	6.45
425.877	6.54
426.238	6.47
426.598	6.49
426.959	6.5
427.32	6.39
427.68	6.52
428.041	6.6
428.401	6.62
428.761	6.62
429.122	6.49
429.482	6.67
429.842	6.75
430.202	6.71
430.563	6.73
430.923	6.39
431.283	6.98
431.643	6.6
432.003	6.75
432.363	6.91
432.722	6.91
433.082	6.74
433.442	6.84
433.802	6.73
434.161	6.81
434.521	7.19
434.881	6.85
435.24	6.67
435.6	6.76
435.959	6.74
436.319	6.67
436.678	6.84
437.037	6.73
437.396	6.82
437.756	6.94
438.115	6.81
438.474	7.22
438.833	6.69
439.192	6.79
439.551	7.09
439.91	6.85
440.269	6.88
440.628	6.74
440.987	6.92
441.345	6.83
441.704	6.81
442.063	6.79
442.421	6.85
442.78	6.83
443.138	6.77
443.497	6.73
443.855	6.67
444.214	6.77
444.572	6.91
444.93	6.93
445.288	7
445.647	6.99
446.005	6.94
446.363	7.1
446.721	7.09
447.079	6.87
447.437	6.95
447.795	6.94
448.153	6.81
448.51	6.98
448.868	6.98
449.226	6.9
449.584	6.84
449.941	7.08
450.299	6.97
450.656	6.97
451.014	7.09
451.371	6.9
451.729	7
452.086	7.28
452.443	7.07
452.801	7.32
453.158	7.29
453.515	7
453.872	7.26
454.229	7.2
454.586	6.94
454.943	7.18
455.3	7.28
455.657	7.11
456.014	7.15
456.371	7.11
456.727	7.24
457.084	7.46
457.441	7.3
457.797	7.43
458.154	7.58
458.51	7.38
458.867	7.34
459.223	7.42
459.58	7.36
459.936	7.39
460.292	7.3
460.648	7.35
461.005	7.37
461.361	7.49
461.717	7.32
462.073	7.21
462.429	7.09
462.785	7.11
463.141	7.18
463.496	7.23
463.852	7.37
464.208	7.46
464.564	7.52
464.919	7.31
465.275	7.63
465.631	7.58
465.986	7.53
466.342	7.61
466.697	7.39
467.052	7.61
467.408	7.59
467.763	7.51
468.118	7.39
468.473	7.45
468.829	7.53
469.184	7.46
469.539	7.62
469.894	7.38
470.249	7.76
470.603	7.74
470.958	7.64
471.313	7.71
471.668	7.72
472.023	7.63
472.377	7.55
472.732	7.72
473.086	7.52
473.441	7.43
473.795	7.73
474.15	7.63
474.504	7.65
474.859	7.8
475.213	7.52
475.567	7.59
475.921	7.66
476.275	7.64
476.63	7.72
476.984	7.89
477.338	7.95
477.692	7.79
478.045	7.74
478.399	7.64
478.753	7.84
479.107	7.73
479.461	7.72
479.814	7.79
480.168	7.9
480.521	7.78
480.875	7.79
481.228	7.63
481.582	7.79
481.935	7.89
482.289	8.01
482.642	7.94
482.995	7.79
483.348	7.71
483.701	7.85
484.055	7.84
484.408	7.91
484.761	7.89
485.114	7.9
485.466	7.75
485.819	7.66
486.172	7.45
486.525	7.33
486.878	7.32
487.23	7.36
487.583	7.55
487.936	7.65
488.288	7.71
488.641	7.88
488.993	7.88
489.345	7.74
489.698	7.73
490.05	7.59
490.402	7.64
490.754	7.55
491.107	7.66
491.459	7.75
491.811	7.82
492.163	7.91
492.515	8.03
492.866	8.14
493.218	8.13
493.57	8.04
493.922	7.83
494.274	7.78
494.625	7.81
494.977	7.83
495.328	7.94
495.68	8
496.031	8.22
496.383	8.12
496.734	8.4
497.086	8.39
497.437	8.23
497.788	8.34
498.139	8.26
498.49	8.46
498.842	8.26
499.193	8.13
499.544	8.33
499.894	8.26
500.245	8.23
500.596	8.25
500.947	8.42
501.298	8.21
501.648	8.33
501.999	8.4
502.35	8.47
502.7	8.47
503.051	8.31
503.401	8.48
503.752	8.55
504.102	8.46
504.452	8.56
504.803	8.51
505.153	8.59
505.503	8.66
505.853	8.72
506.203	8.62
506.553	8.54
506.903	8.67
507.253	8.66
507.603	8.55
507.953	8.76
508.303	8.75
508.652	8.59
509.002	8.76
509.352	8.61
509.701	8.69
510.051	8.7
510.4	8.71
510.75	8.72
511.099	8.72
511.449	8.65
511.798	8.62
512.147	8.71
512.496	8.7
512.846	8.67
513.195	8.74
513.544	8.84
513.893	8.85
514.242	8.82
514.591	8.93
514.939	8.82
515.288	8.86
515.637	8.91
515.986	8.91
516.334	8.95
516.683	9
517.032	8.89
517.38	9.09
517.729	9.07
518.077	9.02
518.426	9.1
518.774	9.1
519.122	9.03
519.47	9.21
519.819	8.97
520.167	9.1
520.515	8.98
520.863	8.94
521.211	8.99
521.559	8.97
521.907	8.9
522.255	8.94
522.602	8.95
522.95	8.99
523.298	9.15
523.645	9.24
523.993	9.22
524.341	9.35
524.688	9.41
525.036	9.35
525.383	9.23
525.73	9.49
526.078	9.41
526.425	9.33
526.772	9.39
527.119	9.27
527.466	9.32
527.814	9.33
528.161	9.19
528.508	9.19
528.854	9.18
529.201	9.3
529.548	9.32
529.895	9.34
530.242	9.32
530.588	9.28
530.935	9.12
531.282	9.02
531.628	8.98
531.975	9.06
532.321	9.23
532.667	9.24
533.014	9.41
533.36	9.41
533.706	9.43
534.052	9.59
534.399	9.61
534.745	9.62
535.091	9.68
535.437	9.56
535.783	9.42
536.129	9.44
536.474	9.38
536.82	9.48
537.166	9.5
537.512	9.76
537.857	9.61
538.203	9.95
538.549	9.83
538.894	9.76
539.239	9.78
539.585	9.7
539.93	9.68
540.276	9.97
540.621	9.89
540.966	9.94
541.311	9.96
541.656	10.11
542.001	10.24
542.346	10.24
542.691	10.19
543.036	10.08
543.381	10.03
543.726	9.85
544.071	9.85
544.415	9.83
544.76	9.83
545.105	9.95
545.449	10
545.794	10.06
546.138	9.98
546.483	10.24
546.827	10.23
547.171	10.34
547.516	10.46
547.86	10.25
548.204	10.33
548.548	10.37
548.892	10.49
549.236	10.3
549.58	10.28
549.924	10.38
550.268	10.58
550.612	10.49
550.956	10.66
551.3	10.62
551.643	10.73
551.987	10.89
552.33	10.65
552.674	10.71
553.017	10.72
553.361	10.83
553.704	11.04
554.048	10.94
554.391	10.73
554.734	10.91
555.077	10.95
555.42	10.73
555.764	10.73
556.107	10.71
556.45	10.67
556.793	10.97
557.135	11.05
557.478	11.17
557.821	11.13
558.164	10.83
558.507	11.15
558.849	11
559.192	11.42
559.534	11.22
559.877	11.29
560.219	11.08
560.562	11.44
560.904	11.28
561.246	11.3
561.589	11.31
561.931	11.33
562.273	11.33
562.615	11.63
562.957	11.43
563.299	11.26
563.641	11.45
563.983	11.43
564.325	11.4
564.667	11.37
565.008	11.37
565.35	11.68
565.692	11.45
566.033	11.7
566.375	11.77
566.716	11.84
567.058	11.69
567.399	11.66
567.741	11.53
568.082	11.68
568.423	11.64
568.764	11.66
569.105	11.66
569.447	11.75
569.788	11.76
570.129	11.94
570.47	11.74
570.811	11.93
571.151	11.79
571.492	11.99
571.833	11.95
572.174	11.86
572.514	12.04
572.855	12.11
573.195	12.23
573.536	12.12
573.876	11.94
574.217	12.02
574.557	11.96
574.898	12.24
575.238	12.09
575.578	11.92
575.918	12.27
576.258	12.41
576.598	12.5
576.938	12.35
577.278	12.21
577.618	12.31
577.958	12.21
578.298	12.29
578.638	12.32
578.977	12.36
579.317	12.32
579.657	12.55
579.996	12.53
580.336	12.84
580.675	12.46
581.014	12.55
581.354	12.76
581.693	12.6
582.032	12.66
582.372	12.78
582.711	12.95
583.05	12.89
583.389	12.86
583.728	12.61
584.067	12.99
584.406	13.14
584.745	12.93
585.083	13.05
585.422	12.98
585.761	13
586.1	13.25
586.438	13.04
586.777	13.42
587.115	13.31
587.454	13.07
587.792	13.29
588.13	13.41
588.469	13.33
588.807	13.18
589.145	13.24
589.483	13.33
589.821	13.3
590.159	13.07
590.497	13.66
590.835	13.73
591.173	13.34
591.511	13.66
591.849	13.53
592.187	13.43
592.524	13.44
592.862	13.25
593.2	13.57
593.537	13.69
593.875	13.55
594.212	13.49
594.55	13.64
594.887	13.96
595.224	13.69
595.561	13.93
595.899	13.96
596.236	13.75
596.573	13.85
596.91	13.49
597.247	13.66
597.584	14.24
597.921	13.67
598.258	14
598.594	14.04
598.931	13.88
599.268	14.06
599.604	13.98
599.941	13.74
600.277	13.86
600.614	13.72
600.95	14.01
601.287	14.03
601.623	14.11
601.959	14.08
602.296	14.4
602.632	14.26
602.968	14.49
603.304	14.1
603.64	14.21
603.976	14.42
604.312	14.25
604.648	14.31
604.984	14.61
605.319	14.73
605.655	14.48
605.991	14.6
606.326	14.61
606.662	14.48
606.998	14.38
607.333	14.67
607.668	14.46
608.004	14.62
608.339	14.73
608.674	14.57
609.01	14.75
609.345	14.41
609.68	14.99
610.015	14.88
610.35	14.76
610.685	14.72
611.02	15.09
611.355	15.33
611.689	14.99
612.024	15.01
612.359	14.89
612.694	14.88
613.028	14.66
613.363	15.02
613.697	15.1
614.032	15.35
614.366	15.07
614.7	15.26
615.035	15.31
615.369	15.08
615.703	15.47
616.037	15.55
616.371	15.32
616.705	15.12
617.039	15.13
617.373	15.13
617.707	15.54
618.041	15.34
618.375	15.73
618.709	15.74
619.042	15.48
619.376	15.61
619.71	15.8
620.043	15.64
620.377	15.9
620.71	15.66
621.043	15.37
621.377	15.64
621.71	15.89
622.043	15.62
622.376	15.23
622.709	15.96
623.043	15.81
623.376	15.58
623.709	15.81
624.041	16.12
624.374	15.69
624.707	15.99
625.04	16.06
625.373	15.58
625.705	16.29
626.038	15.81
626.37	16
626.703	16.28
627.035	16.08
627.368	16.66
627.7	16.32
628.032	16.24
628.365	16.92
628.697	16.53
629.029	16.27
629.361	16.34
629.693	16.58
630.025	16.35
630.357	16.63
630.689	16.2
631.021	16.39
631.353	16.73
631.684	16.32
632.016	16.36
632.348	16.63
632.679	16.76
633.011	16.88
633.342	16.86
633.674	16.83
634.005	16.9
634.336	16.73
634.668	17.2
634.999	16.75
635.33	17.18
635.661	16.97
635.992	17.1
636.323	17.12
636.654	17.16
636.985	17.14
637.316	16.66
637.647	16.76
637.977	17.21
638.308	17.43
638.639	17.26
638.969	17.2
639.3	17.22
639.63	17.03
639.961	17.44
640.291	17.18
640.622	17.38
640.952	17.45
641.282	17.53
641.612	17.64
641.943	17.68
642.273	17.92
642.603	17.96
642.933	17.88
643.263	17.55
643.592	17.7
643.922	17.5
644.252	17.47
644.582	18.15
644.911	17.85
645.241	17.54
645.571	18.26
645.9	17.5
646.23	17.96
646.559	18.24
646.888	17.92
647.218	17.84
647.547	18.69
647.876	17.88
648.205	18.05
648.534	17.62
648.863	17.61
649.192	18.35
649.521	18.05
649.85	18
650.179	18.22
650.508	18.13
650.837	18.39
651.165	17.9
651.494	18.32
651.822	18.52
652.151	18.24
652.479	18.13
652.808	18.09
653.136	18.47
653.465	18.07
653.793	18.52
654.121	18.73
654.449	18.67
654.777	18.68
655.105	18.25
655.433	18.09
655.761	18.59
656.089	18.98
656.417	19.28
656.745	18.52
657.073	18.14
657.4	18.96
657.728	18.37
658.056	18.78
658.383	19.1
658.711	19.28
659.038	18.84
659.365	19.68
659.693	19.36
660.02	19.21
660.347	19.04
660.674	19.26
661.001	19.77
661.329	18.98
661.656	19.31
661.982	19.26
662.309	18.88
662.636	18.85
662.963	18.85
663.29	19.07
663.616	19.57
663.943	18.99
664.27	19.01
664.596	19.27
664.923	19.18
665.249	19.61
665.576	18.77
665.902	20.02
666.228	19.95
666.554	19.64
666.881	18.94
667.207	19.7
667.533	19.54
667.859	19.33
668.185	20.23
668.511	19.21
668.837	18.56
669.162	19.78
669.488	19.12
669.814	20.13
670.139	20.15
670.465	20.17
670.791	20.13
671.116	20.77
671.442	20.19
671.767	20.09
672.092	20.09
672.418	20.15
672.743	20.27
673.068	19.38
673.393	19.59
673.718	19.8
674.043	20.21
674.368	19.87
674.693	20.68
675.018	20.37
675.343	20.26
675.667	20.36
675.992	20.48
676.317	21.18
676.641	20.03
676.966	20.67
677.29	20.4
677.615	20.16
677.939	21.58
678.264	20.74
678.588	20.71
678.912	20.85
679.236	20.75
679.56	20.17
679.885	21.01
680.209	20.38
680.532	20.09
680.856	20.68
681.18	20.86
681.504	20.8
681.828	21.16
682.152	20.87
682.475	20.86
682.799	21.11
683.122	20.79
683.446	20.99
