Data from 0412_forehead_Reflection__4__44.txt Node

Date: Fri Dec 15 16:42:54 CST 2023
User: ToomeyLab
Spectrometer: FLMS14357
Trigger mode: 0
Integration Time (sec): 1.000000E-2
Scans to average: 100
Electric dark correction enabled: true
Nonlinearity correction enabled: false
Boxcar width: 0
XAxis mode: Wavelengths
Number of Pixels in Spectrum: 2048
>>>>>Begin Spectral Data<<<<<
189.047	-49.39
189.435	-49.39
189.823	-49.39
190.211	21.88
190.599	-272.75
190.987	49.92
191.375	103.28
191.763	116.61
192.151	113.49
192.538	125.95
192.926	-106.35
193.314	49.59
193.702	117.82
194.089	-4.18
194.477	58.62
194.864	319.87
195.252	129.34
195.639	142.52
196.027	-37.43
196.414	-321.78
196.801	50.25
197.189	971.48
197.576	278.71
197.963	44.04
198.351	4.3
198.738	45.28
199.125	35.41
199.512	47.71
199.899	79.98
200.286	45.05
200.673	21.56
201.06	7.81
201.447	13.16
201.833	95.38
202.22	31.68
202.607	84.26
202.994	-6.45
203.38	30.72
203.767	14.63
204.154	33.36
204.54	35.97
204.927	4.59
205.313	54.37
205.699	23.84
206.086	58.03
206.472	42.77
206.858	24.82
207.245	-19.99
207.631	48.8
208.017	14.26
208.403	31.57
208.789	48.94
209.175	48.94
209.561	26.71
209.947	46.99
210.333	37.01
210.719	25.85
211.105	45.67
211.491	22.87
211.876	62.69
212.262	33.94
212.648	3.54
213.034	42.5
213.419	22.27
213.805	3.56
214.19	58.96
214.576	15.68
214.961	0.22
215.346	-8.85
215.732	31.49
216.117	39.2
216.502	3.5
216.888	38.75
217.273	41.01
217.658	30.63
218.043	25.91
218.428	11.42
218.813	-3.4
219.198	2.67
219.583	26.18
219.968	37.57
220.353	-5.02
220.738	30.09
221.122	26.1
221.507	8.6
221.892	9.05
222.276	-2.55
222.661	20.49
223.046	21.22
223.43	22.47
223.815	18.48
224.199	12.31
224.583	11.8
224.968	9.63
225.352	15.17
225.736	12.37
226.121	5.9
226.505	13.88
226.889	11.29
227.273	11.09
227.657	11.6
228.041	7.81
228.425	9.67
228.809	9.01
229.193	8.57
229.577	5.22
229.961	6
230.344	3.94
230.728	3.73
231.112	4.35
231.495	3.7
231.879	3.27
232.263	5.7
232.646	6.54
233.03	6.59
233.413	4.39
233.797	7.08
234.18	4.78
234.563	4.26
234.946	8.2
235.33	5.86
235.713	4.64
236.096	2.02
236.479	5.58
236.862	2.5
237.245	4.45
237.628	5.39
238.011	5.34
238.394	6.35
238.777	5.69
239.16	3.88
239.543	5.35
239.925	6.9
240.308	4.96
240.691	6.56
241.073	4.9
241.456	5.87
241.838	3.44
242.221	3.15
242.603	5.16
242.986	3.57
243.368	4.34
243.75	4.81
244.133	4
244.515	4.19
244.897	4.07
245.279	3.82
245.661	3.03
246.043	4.76
246.425	4.18
246.807	4.74
247.189	5.93
247.571	4.93
247.953	5.1
248.335	4.06
248.717	4.11
249.098	3.82
249.48	3.93
249.862	4.06
250.243	4.53
250.625	3.78
251.006	4.73
251.388	3.23
251.769	3.82
252.151	5.13
252.532	4.76
252.913	3.53
253.295	4.5
253.676	4.55
254.057	4.44
254.438	3.7
254.819	3.53
255.2	3.5
255.581	5.19
255.962	5.59
256.343	3.93
256.724	4.25
257.105	4.88
257.486	4.19
257.867	4.47
258.247	4.51
258.628	4.77
259.009	4.9
259.389	5.26
259.77	4.45
260.15	3.56
260.531	3.63
260.911	4.48
261.292	4.03
261.672	4.38
262.052	3.92
262.432	4.18
262.813	4.13
263.193	4.01
263.573	3.91
263.953	4.35
264.333	4.68
264.713	4.6
265.093	3.37
265.473	3.61
265.853	3.6
266.233	4.59
266.612	3.26
266.992	3.61
267.372	4.7
267.752	4.64
268.131	3.97
268.511	4.58
268.89	4.66
269.27	4.12
269.649	3.61
270.029	3.66
270.408	5.39
270.787	4.41
271.167	4.72
271.546	5.26
271.925	4.36
272.304	4.06
272.683	4.56
273.062	4.21
273.441	4.11
273.82	3.95
274.199	3.61
274.578	3.93
274.957	4.22
275.336	3.93
275.715	3.68
276.093	4.21
276.472	4.6
276.851	4.02
277.229	3.17
277.608	3.65
277.986	3.89
278.365	4.33
278.743	3.57
279.122	3.77
279.5	4.42
279.878	4.31
280.257	4.57
280.635	4.04
281.013	4.33
281.391	5.07
281.769	4.79
282.147	4.52
282.525	4.82
282.903	3.79
283.281	4.93
283.659	4.76
284.037	4.59
284.415	4.83
284.792	4.01
285.17	3.78
285.548	3.63
285.925	4.42
286.303	4.41
286.68	3.87
287.058	3.89
287.435	4.52
287.813	4.28
288.19	4.03
288.567	3.94
288.945	4.57
289.322	4.16
289.699	4.32
290.076	4.79
290.453	4.08
290.83	4.08
291.207	4.35
291.584	4.67
291.961	4.91
292.338	4.56
292.715	5.03
293.092	4.37
293.469	4.76
293.845	4.96
294.222	4.78
294.599	4.42
294.975	4.76
295.352	5.19
295.728	4.69
296.105	5.39
296.481	5.44
296.858	4.99
297.234	5.39
297.61	5.01
297.986	5.35
298.363	5.61
298.739	5.33
299.115	5.21
299.491	5.09
299.867	5.2
300.243	5.58
300.619	5.06
300.995	5.67
301.371	5.59
301.746	5.63
302.122	6.08
302.498	5.71
302.874	6
303.249	5.91
303.625	5.48
304	6.37
304.376	6.33
304.751	5.63
305.127	6.17
305.502	6.26
305.878	5.13
306.253	6.43
306.628	7.35
307.003	5.93
307.378	6.51
307.754	6.68
308.129	6.06
308.504	7.03
308.879	6.68
309.254	7.51
309.629	7.15
310.003	6.93
310.378	7.41
310.753	7.67
311.128	7.39
311.502	7.39
311.877	7.65
312.252	6.92
312.626	6.78
313.001	7.08
313.375	7.15
313.75	6.79
314.124	7.43
314.498	7.88
314.873	8.06
315.247	7.46
315.621	7.62
315.995	7.43
316.369	8.37
316.743	7.98
317.117	8.36
317.491	7.43
317.865	8.03
318.239	8.66
318.613	8.7
318.987	8.76
319.361	7.71
319.734	8.67
320.108	8.54
320.482	8.56
320.855	9.06
321.229	9.39
321.602	8.26
321.976	9.61
322.349	9.64
322.723	9.36
323.096	9.37
323.469	8.73
323.843	9.16
324.216	9.83
324.589	9.53
324.962	9.37
325.335	8.98
325.708	9.48
326.081	9.98
326.454	9.22
326.827	9.11
327.2	9.32
327.573	9.69
327.945	9.9
328.318	9.35
328.691	9.25
329.063	9.73
329.436	9.24
329.809	10.23
330.181	9.7
330.553	10.29
330.926	10.11
331.298	10.61
331.671	10.03
332.043	10.76
332.415	9.72
332.787	10.61
333.159	11.5
333.532	11.15
333.904	10.73
334.276	10.43
334.648	10.79
335.02	10.91
335.391	10.84
335.763	10.38
336.135	11.08
336.507	11.11
336.879	11.15
337.25	10.63
337.622	10.68
337.993	11.27
338.365	11.54
338.736	11.5
339.108	11.38
339.479	11.01
339.851	11.75
340.222	11.07
340.593	11.82
340.964	11.77
341.336	12.03
341.707	11.18
342.078	11.89
342.449	12.1
342.82	11.49
343.191	11.55
343.562	11.78
343.933	11.55
344.303	11.9
344.674	11.93
345.045	11.66
345.416	12.55
345.786	11.69
346.157	12.47
346.527	12.2
346.898	11.77
347.268	12.53
347.639	12.27
348.009	12.64
348.38	12.34
348.75	12.3
349.12	12.41
349.49	12.82
349.861	12.66
350.231	12.68
350.601	12.7
350.971	12.74
351.341	13.04
351.711	12.46
352.081	13.01
352.45	12.57
352.82	13.25
353.19	13.02
353.56	12.95
353.929	12.98
354.299	12.89
354.669	12.96
355.038	13.11
355.408	12.98
355.777	13.11
356.147	13.24
356.516	13.2
356.885	13.64
357.254	13.39
357.624	13.73
357.993	13.59
358.362	13.49
358.731	13.12
359.1	13.34
359.469	13.62
359.838	13.77
360.207	13.94
360.576	13.88
360.945	13.83
361.314	14.71
361.682	13.99
362.051	14.02
362.42	14.16
362.788	14.41
363.157	13.82
363.525	14.17
363.894	13.89
364.262	14.34
364.631	14.35
364.999	14.53
365.367	14.13
365.735	15.1
366.104	14.56
366.472	14.74
366.84	14.65
367.208	14.69
367.576	14.85
367.944	15.11
368.312	14.72
368.68	14.47
369.048	15.07
369.416	15.03
369.783	14.93
370.151	15.28
370.519	15.79
370.886	15.7
371.254	15.29
371.621	15.51
371.989	15.42
372.356	14.88
372.724	15.6
373.091	15.47
373.458	15.53
373.826	15.53
374.193	15.49
374.56	15.62
374.927	16.08
375.294	15.73
375.661	15.48
376.028	15.78
376.395	15.89
376.762	16.04
377.129	15.88
377.496	15.82
377.863	16.13
378.229	16.4
378.596	16.2
378.963	16.2
379.329	16.05
379.696	16.39
380.062	16.26
380.429	16.22
380.795	16.4
381.161	16.72
381.528	16.71
381.894	16.89
382.26	16.43
382.626	16.77
382.993	16.57
383.359	17.12
383.725	16.61
384.091	16.78
384.457	17.27
384.823	16.9
385.188	17.02
385.554	17.06
385.92	16.99
386.286	17.09
386.651	17.67
387.017	17.31
387.383	17.25
387.748	17.07
388.114	17.88
388.479	17.63
388.845	17.53
389.21	17.92
389.575	17.8
389.94	17.65
390.306	17.76
390.671	17.6
391.036	17.61
391.401	17.83
391.766	17.88
392.131	18.03
392.496	18.02
392.861	17.83
393.226	18.02
393.591	18.12
393.956	17.91
394.32	18.14
394.685	18.36
395.05	18.08
395.414	18.38
395.779	18.44
396.143	18.25
396.508	18.43
396.872	18.7
397.236	18.84
397.601	18.44
397.965	18.83
398.329	18.62
398.694	18.98
399.058	18.76
399.422	18.82
399.786	19.17
400.15	19.06
400.514	19.19
400.878	18.92
401.242	19.31
401.605	19
401.969	19.38
402.333	19.6
402.697	19.15
403.06	19.48
403.424	19.32
403.787	19.55
404.151	19.58
404.514	19.77
404.878	19.44
405.241	19.66
405.604	19.63
405.968	19.68
406.331	19.38
406.694	19.88
407.057	19.62
407.42	19.9
407.783	19.58
408.146	19.83
408.509	19.82
408.872	20.02
409.235	20.36
409.598	20.2
409.961	20.38
410.323	20.34
410.686	19.98
411.049	20.04
411.411	20.12
411.774	20.18
412.136	20.24
412.499	20.23
412.861	20.41
413.223	20.49
413.586	20.57
413.948	20.77
414.31	20.56
414.672	20.69
415.035	20.96
415.397	21.09
415.759	20.77
416.121	20.94
416.483	20.92
416.845	20.82
417.206	20.79
417.568	21.1
417.93	20.6
418.292	20.68
418.653	21.13
419.015	20.95
419.377	21.05
419.738	21.26
420.1	20.91
420.461	21.03
420.822	21.15
421.184	21.18
421.545	21.1
421.906	21.12
422.267	21.07
422.629	21.06
422.99	21.06
423.351	21.08
423.712	21.13
424.073	21.43
424.434	21.48
424.795	21.3
425.155	21.57
425.516	21.24
425.877	21.43
426.238	21.41
426.598	21.54
426.959	21.71
427.32	21.7
427.68	21.73
428.041	22.01
428.401	22.11
428.761	22.12
429.122	22.23
429.482	22.22
429.842	22.5
430.202	22.35
430.563	22.64
430.923	22.53
431.283	22.73
431.643	22.55
432.003	22.83
432.363	22.87
432.722	22.71
433.082	22.55
433.442	22.74
433.802	22.74
434.161	22.78
434.521	23.08
434.881	22.81
435.24	22.81
435.6	22.76
435.959	22.96
436.319	22.81
436.678	23.07
437.037	23.02
437.396	23.26
437.756	23.39
438.115	23.38
438.474	23.46
438.833	23.45
439.192	23.33
439.551	23.69
439.91	23.53
440.269	23.58
440.628	23.29
440.987	23.51
441.345	23.43
441.704	23.41
442.063	23.34
442.421	23.44
442.78	23.57
443.138	23.53
443.497	23.8
443.855	23.88
444.214	24.02
444.572	24.14
444.93	24.25
445.288	24.5
445.647	24.35
446.005	24.18
446.363	24.02
446.721	24.11
447.079	23.96
447.437	24.08
447.795	24.15
448.153	23.83
448.51	23.9
448.868	24.02
449.226	24.2
449.584	24.26
449.941	24.4
450.299	24.53
450.656	24.91
451.014	24.81
451.371	24.9
451.729	24.89
452.086	24.89
452.443	25.25
452.801	25.24
453.158	25.08
453.515	25.11
453.872	25.33
454.229	25.15
454.586	25.02
454.943	25.31
455.3	25.66
455.657	25.25
456.014	25.39
456.371	25.49
456.727	25.47
457.084	25.5
457.441	25.64
457.797	25.74
458.154	26.08
458.51	25.85
458.867	26.13
459.223	25.95
459.58	25.91
459.936	25.74
460.292	25.85
460.648	25.68
461.005	25.76
461.361	25.58
461.717	25.46
462.073	25.51
462.429	25.88
462.785	25.93
463.141	26.08
463.496	26.2
463.852	26.35
464.208	26.3
464.564	26.59
464.919	26.41
465.275	26.47
465.631	26.71
465.986	26.65
466.342	26.71
466.697	26.73
467.052	26.8
467.408	26.92
467.763	26.87
468.118	26.85
468.473	26.84
468.829	26.86
469.184	26.86
469.539	27.03
469.894	26.82
470.249	27.16
470.603	27.27
470.958	27.16
471.313	27.3
471.668	27.26
472.023	27.48
472.377	27.27
472.732	27.41
473.086	27.57
473.441	27.51
473.795	27.67
474.15	27.58
474.504	27.74
474.859	27.78
475.213	27.75
475.567	27.99
475.921	27.86
476.275	27.84
476.63	28.04
476.984	28.1
477.338	28.01
477.692	28.02
478.045	28.01
478.399	28.01
478.753	28.1
479.107	28.12
479.461	28.05
479.814	28.15
480.168	28.31
480.521	28.29
480.875	28.18
481.228	28.3
481.582	28.35
481.935	28.4
482.289	28.47
482.642	28.45
482.995	28.23
483.348	28.36
483.701	28.28
484.055	28.43
484.408	28.26
484.761	28.06
485.114	27.7
485.466	27.21
485.819	27.2
486.172	27.32
486.525	27.7
486.878	27.85
487.23	28.14
487.583	28.42
487.936	28.43
488.288	28.39
488.641	28.32
488.993	28.08
489.345	27.98
489.698	28.03
490.05	28.17
490.402	28.33
490.754	28.51
491.107	28.67
491.459	28.91
491.811	29.1
492.163	29.18
492.515	29.11
492.866	28.96
493.218	28.53
493.57	28.49
493.922	28.69
494.274	28.86
494.625	29.14
494.977	29.51
495.328	29.72
495.68	29.69
496.031	29.94
496.383	29.88
496.734	30.2
497.086	30
497.437	29.98
497.788	30.05
498.139	29.98
498.49	30.08
498.842	30.08
499.193	30.12
499.544	30.25
499.894	30.27
500.245	30.31
500.596	30.26
500.947	30.29
501.298	30.42
501.648	30.55
501.999	30.66
502.35	30.72
502.7	30.81
503.051	30.67
503.401	30.84
503.752	30.8
504.102	30.93
504.452	31.05
504.803	31.03
505.153	30.97
505.503	31.13
505.853	31.07
506.203	31.11
506.553	31.15
506.903	31.04
507.253	31.19
507.603	31.36
507.953	31.33
508.303	31.43
508.652	31.37
509.002	31.37
509.352	31.34
509.701	31.27
510.051	31.26
510.4	31.27
510.75	31.21
511.099	31.49
511.449	31.63
511.798	31.31
512.147	31.48
512.496	31.57
512.846	31.75
513.195	31.82
513.544	31.69
513.893	31.78
514.242	31.93
514.591	31.98
514.939	31.94
515.288	31.94
515.637	32.07
515.986	32.17
516.334	32.24
516.683	32.45
517.032	32.38
517.38	32.48
517.729	32.38
518.077	32.33
518.426	32.45
518.774	32.58
519.122	32.3
519.47	32.43
519.819	32.14
520.167	32.15
520.515	31.97
520.863	32.07
521.211	32.26
521.559	32.4
521.907	32.47
522.255	32.52
522.602	32.78
522.95	32.66
523.298	33.18
523.645	33.18
523.993	33.02
524.341	33.16
524.688	33.25
525.036	33.26
525.383	33.17
525.73	33.22
526.078	33.04
526.425	33.1
526.772	33.29
527.119	33.08
527.466	32.81
527.814	32.77
528.161	32.83
528.508	33.07
528.854	33.12
529.201	32.92
529.548	32.9
529.895	32.65
530.242	32.22
530.588	32.19
530.935	32.46
531.282	32.63
531.628	32.8
531.975	33.02
532.321	33.27
532.667	33.41
533.014	33.51
533.36	33.6
533.706	33.42
534.052	33.57
534.399	33.57
534.745	33.48
535.091	33.12
535.437	33.19
535.783	33.37
536.129	33.56
536.474	33.81
536.82	33.99
537.166	34.07
537.512	34.29
537.857	34.29
538.203	33.99
538.549	33.84
538.894	33.97
539.239	34.16
539.585	34.4
539.93	34.38
540.276	34.66
540.621	34.78
540.966	34.93
541.311	34.77
541.656	34.83
542.001	34.8
542.346	34.74
542.691	34.19
543.036	33.94
543.381	33.74
543.726	33.99
544.071	34.27
544.415	34.43
544.76	34.43
545.105	34.61
545.449	34.74
545.794	34.89
546.138	34.95
546.483	35.19
546.827	35.26
547.171	35.22
547.516	35.4
547.86	35.29
548.204	35.29
548.548	35.27
548.892	35.4
549.236	35.45
549.58	35.6
549.924	35.76
550.268	35.99
550.612	36.22
550.956	36.15
551.3	36.15
551.643	36.18
551.987	36.36
552.33	36.09
552.674	36.12
553.017	36.55
553.361	36.34
553.704	36.52
554.048	36.53
554.391	36.29
554.734	36.14
555.077	36.42
555.42	36.35
555.764	36.23
556.107	36.63
556.45	36.69
556.793	36.83
557.135	36.68
557.478	36.94
557.821	37.04
558.164	36.87
558.507	36.93
558.849	36.75
559.192	37.19
559.534	37.1
559.877	37.05
560.219	37.03
560.562	37.48
560.904	37.23
561.246	37.45
561.589	37.32
561.931	37.39
562.273	37.32
562.615	37.31
562.957	37.33
563.299	37.23
563.641	37.66
563.983	37.27
564.325	37.77
564.667	37.44
565.008	37.75
565.35	37.79
565.692	37.45
566.033	37.74
566.375	37.67
566.716	37.76
567.058	37.73
567.399	37.67
567.741	37.75
568.082	37.28
568.423	37.5
568.764	37.55
569.105	37.91
569.447	37.78
569.788	38.14
570.129	37.9
570.47	38.16
570.811	38.11
571.151	38.07
571.492	38.17
571.833	38.27
572.174	38.17
572.514	38.35
572.855	38.27
573.195	38.52
573.536	38.21
573.876	37.99
574.217	38.2
574.557	38.16
574.898	38.6
575.238	38.4
575.578	38.59
575.918	38.6
576.258	38.57
576.598	38.67
576.938	38.65
577.278	38.63
577.618	38.65
577.958	38.51
578.298	38.99
578.638	38.55
578.977	39.14
579.317	38.9
579.657	39.17
579.996	39.18
580.336	39.45
580.675	39.18
581.014	39.59
581.354	39.55
581.693	39.56
582.032	39.83
582.372	39.43
582.711	39.79
583.05	39.36
583.389	39.83
583.728	39.63
584.067	39.98
584.406	39.75
584.745	39.85
585.083	40.03
585.422	39.86
585.761	40.11
586.1	40.13
586.438	40.23
586.777	40.21
587.115	40.19
587.454	40.27
587.792	40.11
588.13	40.28
588.469	40.2
588.807	40.09
589.145	40.21
589.483	40.62
589.821	40.34
590.159	40.29
590.497	40.37
590.835	40.81
591.173	40.16
591.511	40.65
591.849	40.17
592.187	40.63
592.524	40.37
592.862	40.42
593.2	40.62
593.537	40.41
593.875	40.69
594.212	40.85
594.55	40.53
594.887	40.84
595.224	40.92
595.561	40.78
595.899	40.99
596.236	41.01
596.573	41.08
596.91	40.79
597.247	40.82
597.584	40.94
597.921	40.88
598.258	40.81
598.594	41.06
598.931	40.81
599.268	40.9
599.604	40.8
599.941	40.91
600.277	41.31
600.614	41.19
600.95	41.2
601.287	41.51
601.623	41.13
601.959	41.36
602.296	41.55
602.632	41.45
602.968	41.45
603.304	41.62
603.64	41.12
603.976	41.64
604.312	41.84
604.648	41.62
604.984	41.61
605.319	41.31
605.655	41.45
605.991	41.59
606.326	41.43
606.662	41.27
606.998	41.14
607.333	41.35
607.668	41.46
608.004	41.85
608.339	42.1
608.674	41.83
609.01	42.22
609.345	42.11
609.68	42.29
610.015	41.94
610.35	42.34
610.685	41.95
611.02	41.99
611.355	42.02
611.689	42
612.024	42.01
612.359	41.94
612.694	42.27
613.028	42.08
613.363	42.37
613.697	42.17
614.032	42.62
614.366	42.88
614.7	43
615.035	42.76
615.369	42.94
615.703	42.91
616.037	43.02
616.371	42.52
616.705	43.06
617.039	42.92
617.373	42.91
617.707	42.92
618.041	43.32
618.375	43.1
618.709	43.25
619.042	42.91
619.376	43.02
619.71	43.19
620.043	43.53
620.377	42.93
620.71	43.28
621.043	43.02
621.377	43.09
621.71	43.21
622.043	43.22
622.376	43.4
622.709	43.36
623.043	43.77
623.376	43.65
623.709	43.4
624.041	43.96
624.374	43.42
624.707	43.49
625.04	44.06
625.373	43.04
625.705	43.96
626.038	43.85
626.37	43.45
626.703	43.49
627.035	43.78
627.368	43.71
627.7	43.78
628.032	43.77
628.365	43.74
628.697	43.58
629.029	43.59
629.361	43.87
629.693	43.79
630.025	43.76
630.357	44.63
630.689	44.21
631.021	43.88
631.353	44.09
631.684	44.2
632.016	43.69
632.348	43.99
632.679	44.04
633.011	44.53
633.342	44.31
633.674	44.16
634.005	44.44
634.336	44.6
634.668	45.3
634.999	44.33
635.33	44.53
635.661	44.87
635.992	44.36
636.323	44.9
636.654	45.1
636.985	44.55
637.316	44.63
637.647	44.64
637.977	44.81
638.308	44.72
638.639	44.31
638.969	44.96
639.3	44.75
639.63	44.98
639.961	45.03
640.291	44.8
640.622	45.11
640.952	44.74
641.282	45.13
641.612	44.9
641.943	45.38
642.273	45.02
642.603	45.38
642.933	45.27
643.263	45.68
643.592	45.22
643.922	44.71
644.252	45.37
644.582	45.61
644.911	45.34
645.241	44.47
645.571	45.77
645.9	45.41
646.23	45.89
646.559	45.29
646.888	45.55
647.218	45.65
647.547	45.73
647.876	45.34
648.205	45.92
648.534	45.66
648.863	45.49
649.192	45.77
649.521	46.11
649.85	45.89
650.179	45.61
650.508	46.09
650.837	46.47
651.165	45.72
651.494	46.17
651.822	46.01
652.151	45.48
652.479	45.81
652.808	46.14
653.136	45.86
653.465	46.56
653.793	46.08
654.121	45.91
654.449	46.19
654.777	46.03
655.105	46.21
655.433	46.43
655.761	46.28
656.089	46.48
656.417	46.13
656.745	45.84
657.073	46.31
657.4	46.56
657.728	46.42
658.056	46.14
658.383	46.98
658.711	46.03
659.038	46.75
659.365	46.61
659.693	46.54
660.02	46.68
660.347	46.89
660.674	46.59
661.001	46.81
661.329	45.99
661.656	46.68
661.982	46.12
662.309	46.76
662.636	46.56
662.963	46.6
663.29	46.69
663.616	46.66
663.943	46.54
664.27	47.22
664.596	46.57
664.923	46.91
665.249	47.05
665.576	47.25
665.902	46.91
666.228	47.17
666.554	47.6
666.881	47.15
667.207	47.1
667.533	47.1
667.859	47.68
668.185	47.74
668.511	46.89
668.837	46.54
669.162	46.88
669.488	47.39
669.814	47.69
