Data from 0412_crown_Reflection__0__35.txt Node

Date: Fri Dec 15 16:40:59 CST 2023
User: ToomeyLab
Spectrometer: FLMS14357
Trigger mode: 0
Integration Time (sec): 1.000000E-2
Scans to average: 100
Electric dark correction enabled: true
Nonlinearity correction enabled: false
Boxcar width: 0
XAxis mode: Wavelengths
Number of Pixels in Spectrum: 2048
>>>>>Begin Spectral Data<<<<<
189.047	47.35
189.435	47.35
189.823	47.35
190.211	218.29
190.599	71.56
190.987	7.85
191.375	32.97
191.763	-10.71
192.151	133.26
192.538	209.92
192.926	-5.5
193.314	127.46
193.702	35.32
194.089	-152.91
194.477	-248.83
194.864	282.64
195.252	71.72
195.639	148.57
196.027	115.14
196.414	-554.88
196.801	164.36
197.189	738.59
197.576	100.69
197.963	-39.06
198.351	-59.45
198.738	-15.85
199.125	-27.23
199.512	-16.58
199.899	15.88
200.286	20.4
200.673	3.71
201.06	18.86
201.447	12.18
201.833	5.39
202.22	-0.33
202.607	18.56
202.994	2.22
203.38	11
203.767	51.64
204.154	34.54
204.54	43.77
204.927	38
205.313	51.8
205.699	34.84
206.086	42.22
206.472	59.77
206.858	38.21
207.245	-30.63
207.631	22.88
208.017	21.76
208.403	1.38
208.789	28.81
209.175	25.24
209.561	29.86
209.947	18.27
210.333	-33.13
210.719	-0.01
211.105	24.24
211.491	24.05
211.876	40.32
212.262	73.48
212.648	11.6
213.034	45.36
213.419	33.58
213.805	-2.2
214.19	28.36
214.576	42.37
214.961	-0.52
215.346	-20.95
215.732	31.24
216.117	-0.65
216.502	4.61
216.888	11.22
217.273	49.52
217.658	4.4
218.043	28.28
218.428	1.38
218.813	-6.75
219.198	-33.52
219.583	13.79
219.968	33.21
220.353	-16.05
220.738	12.57
221.122	21.56
221.507	9.39
221.892	-16.78
222.276	-18.65
222.661	17.25
223.046	23.3
223.43	9.58
223.815	12.92
224.199	2.72
224.583	2.89
224.968	0.75
225.352	20.55
225.736	19.72
226.121	-9.75
226.505	11.11
226.889	11.62
227.273	2.07
227.657	13.87
228.041	8.44
228.425	6.93
228.809	12.3
229.193	10.04
229.577	6.98
229.961	9.16
230.344	7.49
230.728	7.42
231.112	8.28
231.495	7.06
231.879	5.44
232.263	9.29
232.646	8.24
233.03	8.77
233.413	8.88
233.797	8.67
234.18	8.93
234.563	7.05
234.946	6.38
235.33	7.49
235.713	8.25
236.096	6.39
236.479	8.01
236.862	5.83
237.245	8.88
237.628	6.82
238.011	8.62
238.394	9.25
238.777	7.93
239.16	4.61
239.543	6.14
239.925	8.3
240.308	7.15
240.691	9.27
241.073	9.01
241.456	6.81
241.838	7.17
242.221	7.03
242.603	7.46
242.986	6.81
243.368	7.56
243.75	7.03
244.133	6.6
244.515	7.42
244.897	6.86
245.279	7.16
245.661	6.31
246.043	6.19
246.425	4.68
246.807	8.08
247.189	7.49
247.571	6.42
247.953	6.35
248.335	6.91
248.717	6.62
249.098	6.34
249.48	6.97
249.862	6.32
250.243	6.49
250.625	6.46
251.006	7.3
251.388	5.94
251.769	6.81
252.151	6.87
252.532	6.45
252.913	5.59
253.295	6.09
253.676	6.45
254.057	5.83
254.438	6.13
254.819	6.12
255.2	5.5
255.581	7.51
255.962	6.29
256.343	5.88
256.724	5.68
257.105	7.43
257.486	6.18
257.867	6.66
258.247	6.07
258.628	6.16
259.009	5.24
259.389	6.81
259.77	6.66
260.15	5.54
260.531	4.89
260.911	6.29
261.292	6.03
261.672	6
262.052	6.16
262.432	6.38
262.813	6.02
263.193	6.62
263.573	5.65
263.953	5.65
264.333	6
264.713	6.84
265.093	5.63
265.473	6.68
265.853	5.25
266.233	5.58
266.612	4.78
266.992	4.94
267.372	6.29
267.752	5.57
268.131	5.9
268.511	6.43
268.89	6.02
269.27	5.83
269.649	6.14
270.029	5.54
270.408	6.22
270.787	6.15
271.167	6.55
271.546	6.54
271.925	5.42
272.304	6.07
272.683	6.29
273.062	5.36
273.441	6.43
273.82	4.89
274.199	5.95
274.578	5.92
274.957	5.68
275.336	5.66
275.715	5.15
276.093	5.22
276.472	5.62
276.851	4.89
277.229	5.28
277.608	4.73
277.986	5.23
278.365	5.8
278.743	4.85
279.122	5.47
279.5	5.59
279.878	5.88
280.257	5.31
280.635	4.75
281.013	5.79
281.391	5.69
281.769	6.03
282.147	5.49
282.525	5.52
282.903	4.79
283.281	5.43
283.659	5.35
284.037	5.09
284.415	5.53
284.792	5.42
285.17	4.54
285.548	5.06
285.925	5.01
286.303	5.54
286.68	5.09
287.058	5.53
287.435	5.01
287.813	5.33
288.19	5.31
288.567	5.19
288.945	5.57
289.322	5.23
289.699	5.29
290.076	4.9
290.453	5.26
290.83	4.6
291.207	4.9
291.584	5.24
291.961	4.9
292.338	4.77
292.715	5.61
293.092	4.7
293.469	5.04
293.845	5.22
294.222	4.49
294.599	4.8
294.975	4.57
295.352	5.2
295.728	4.23
296.105	4.58
296.481	4.5
296.858	4.95
297.234	4.54
297.61	4.79
297.986	4.81
298.363	5.09
298.739	4.87
299.115	4.58
299.491	4.47
299.867	4.89
300.243	4.95
300.619	4.5
300.995	4.36
301.371	4.94
301.746	4.24
302.122	5.25
302.498	4.29
302.874	4.53
303.249	5.05
303.625	4.8
304	5.58
304.376	4.56
304.751	4.13
305.127	5.51
305.502	4.33
305.878	3.66
306.253	4.37
306.628	5.26
307.003	4.86
307.378	5.3
307.754	4.88
308.129	3.62
308.504	4.8
308.879	4.78
309.254	4.74
309.629	5.62
310.003	4.63
310.378	4.87
310.753	5.08
311.128	4.38
311.502	4.44
311.877	5.02
312.252	4.51
312.626	4.4
313.001	4.04
313.375	4.91
313.75	4.23
314.124	4.68
314.498	4.33
314.873	4.32
315.247	4.72
315.621	4.3
315.995	4.36
316.369	4.29
316.743	4.21
317.117	4.68
317.491	4.1
317.865	4.14
318.239	4.42
318.613	4.43
318.987	5.07
319.361	4.23
319.734	4.41
320.108	4.91
320.482	4.36
320.855	4.7
321.229	4.55
321.602	4.48
321.976	4.8
322.349	4.3
322.723	4.46
323.096	5.17
323.469	4.2
323.843	4.29
324.216	5.16
324.589	4.27
324.962	4.22
325.335	4.25
325.708	4.28
326.081	4.31
326.454	4.72
326.827	4.31
327.2	4.57
327.573	4.82
327.945	4.53
328.318	3.94
328.691	3.74
329.063	4.35
329.436	4.36
329.809	4.57
330.181	4
330.553	3.97
330.926	4.35
331.298	4.77
331.671	4.27
332.043	5.07
332.415	4.82
332.787	4.26
333.159	4.99
333.532	4.37
333.904	4.76
334.276	5.2
334.648	4.52
335.02	4.34
335.391	3.9
335.763	4.03
336.135	4.93
336.507	4.56
336.879	4.49
337.25	4.47
337.622	4.34
337.993	4.72
338.365	4.23
338.736	4.49
339.108	4.41
339.479	4.07
339.851	4.27
340.222	4.29
340.593	4.54
340.964	4.19
341.336	5.34
341.707	4.58
342.078	4.33
342.449	4.5
342.82	4.34
343.191	4.05
343.562	4.62
343.933	4.27
344.303	4.59
344.674	4.35
345.045	4.6
345.416	4.47
345.786	3.75
346.157	4.36
346.527	4.16
346.898	4.18
347.268	4.15
347.639	4.23
348.009	4.25
348.38	4.5
348.75	4.9
349.12	4.54
349.49	5.24
349.861	4.23
350.231	4.26
350.601	4.05
350.971	4.4
351.341	4.59
351.711	5.17
352.081	4.56
352.45	4.65
352.82	4.85
353.19	4.31
353.56	4.15
353.929	4.55
354.299	4.68
354.669	3.82
355.038	4.83
355.408	4.47
355.777	4.22
356.147	4.19
356.516	4.36
356.885	4.16
357.254	4.53
357.624	4.87
357.993	4.46
358.362	4.17
358.731	3.98
359.1	4.45
359.469	4.41
359.838	4.63
360.207	4.52
360.576	4.36
360.945	4.47
361.314	4.97
361.682	4.08
362.051	4.36
362.42	4.76
362.788	4.63
363.157	4.49
363.525	4.68
363.894	4.49
364.262	4.44
364.631	4.49
364.999	4.6
365.367	3.96
365.735	5.32
366.104	4.61
366.472	4.52
366.84	4.16
367.208	4.54
367.576	4.48
367.944	4.88
368.312	4.48
368.68	4.61
369.048	4.76
369.416	4.73
369.783	4.61
370.151	4.52
370.519	4.96
370.886	4.68
371.254	4.72
371.621	4.5
371.989	4.79
372.356	3.95
372.724	4.84
373.091	4.7
373.458	4.58
373.826	5.13
374.193	4.46
374.56	4.89
374.927	4.95
375.294	4.81
375.661	4.57
376.028	4.66
376.395	4.59
376.762	5.14
377.129	4.56
377.496	4.88
377.863	4.89
378.229	4.56
378.596	4.85
378.963	4.56
379.329	4.82
379.696	4.87
380.062	4.6
380.429	4.82
380.795	4.73
381.161	4.53
381.528	5.09
381.894	4.93
382.26	4.89
382.626	5.03
382.993	4.77
383.359	5
383.725	5.01
384.091	4.8
384.457	4.88
384.823	4.82
385.188	5.28
385.554	4.99
385.92	5.02
386.286	5.11
386.651	5.11
387.017	5.11
387.383	5.02
387.748	4.9
388.114	5.24
388.479	4.78
388.845	5.5
389.21	5.61
389.575	4.87
389.94	4.8
390.306	4.92
390.671	5.16
391.036	4.67
391.401	4.94
391.766	5.16
392.131	4.68
392.496	5.06
392.861	4.76
393.226	5.11
393.591	4.99
393.956	4.87
394.32	5.09
394.685	5.09
395.05	4.98
395.414	5.16
395.779	5.1
396.143	4.94
396.508	4.87
396.872	5.14
397.236	5.07
397.601	4.91
397.965	5.1
398.329	5.26
398.694	5.1
399.058	4.96
399.422	4.88
399.786	5.15
400.15	4.98
400.514	5.02
400.878	5.33
401.242	5.4
401.605	5.23
401.969	5.3
402.333	5.01
402.697	4.98
403.06	5.18
403.424	5.01
403.787	5.1
404.151	5.33
404.514	5.32
404.878	4.96
405.241	5.24
405.604	5.16
405.968	5.17
406.331	5.07
406.694	5.37
407.057	5.32
407.42	5.17
407.783	4.83
408.146	5.4
408.509	5.18
408.872	5
409.235	4.95
409.598	5.46
409.961	5.29
410.323	5.52
410.686	5.54
411.049	5.16
411.411	5.24
411.774	5.31
412.136	5.26
412.499	5
412.861	5.14
413.223	5.21
413.586	5.3
413.948	5.23
414.31	5.26
414.672	5.06
415.035	5.08
415.397	5.45
415.759	5.25
416.121	5.39
416.483	5.31
416.845	5.38
417.206	5.33
417.568	5.41
417.93	5.1
418.292	5.07
418.653	5.23
419.015	5.49
419.377	5.24
419.738	5.23
420.1	5.15
420.461	5.13
420.822	5.16
421.184	5.03
421.545	5.25
421.906	5.17
422.267	5.08
422.629	5.1
422.99	5.13
423.351	5.16
423.712	5.22
424.073	5.27
424.434	5.13
424.795	5.11
425.155	5.19
425.516	5.06
425.877	5.19
426.238	5.1
426.598	5.21
426.959	5.27
427.32	5.21
427.68	5.17
428.041	5.23
428.401	5.25
428.761	5.23
429.122	5.48
429.482	5.25
429.842	5.47
430.202	5.36
430.563	5.36
430.923	5.14
431.283	5.31
431.643	5.11
432.003	5.21
432.363	5.38
432.722	5.2
433.082	5.36
433.442	5.26
433.802	5.31
434.161	5.48
434.521	5.45
434.881	5.22
435.24	5.22
435.6	5.3
435.959	5.33
436.319	5.35
436.678	5.44
437.037	5.47
437.396	5.29
437.756	5.36
438.115	5.21
438.474	5.62
438.833	5.27
439.192	5.33
439.551	5.6
439.91	5.18
440.269	5.44
440.628	5.26
440.987	5.33
441.345	5.16
441.704	5.24
442.063	5.24
442.421	5.26
442.78	5.32
443.138	5.2
443.497	5.26
443.855	5.37
444.214	5.34
444.572	5.54
444.93	5.44
445.288	5.55
445.647	5.56
446.005	5.31
446.363	5.52
446.721	5.42
447.079	5.25
447.437	5.31
447.795	5.29
448.153	5.14
448.51	5.24
448.868	5.3
449.226	5.41
449.584	5.36
449.941	5.48
450.299	5.53
450.656	5.47
451.014	5.46
451.371	5.34
451.729	5.36
452.086	5.58
452.443	5.52
452.801	5.72
453.158	5.52
453.515	5.34
453.872	5.65
454.229	5.24
454.586	5.44
454.943	5.51
455.3	5.45
455.657	5.38
456.014	5.28
456.371	5.58
456.727	5.43
457.084	5.53
457.441	5.59
457.797	5.45
458.154	5.66
458.51	5.55
458.867	5.49
459.223	5.77
459.58	5.5
459.936	5.42
460.292	5.44
460.648	5.34
461.005	5.34
461.361	5.31
461.717	5.26
462.073	5.35
462.429	5.39
462.785	5.43
463.141	5.53
463.496	5.55
463.852	5.59
464.208	5.45
464.564	5.54
464.919	5.66
465.275	5.55
465.631	5.71
465.986	5.41
466.342	5.51
466.697	5.07
467.052	5.44
467.408	5.62
467.763	5.64
468.118	5.63
468.473	5.49
468.829	5.53
469.184	5.41
469.539	5.55
469.894	5.38
470.249	5.7
470.603	5.7
470.958	5.59
471.313	5.7
471.668	5.63
472.023	5.35
472.377	5.4
472.732	5.4
473.086	5.45
473.441	5.29
473.795	5.56
474.15	5.57
474.504	5.62
474.859	5.51
475.213	5.53
475.567	5.38
475.921	5.66
476.275	5.46
476.63	5.47
476.984	5.66
477.338	5.56
477.692	5.29
478.045	5.37
478.399	5.59
478.753	5.48
479.107	5.53
479.461	5.42
479.814	5.48
480.168	5.47
480.521	5.43
480.875	5.48
481.228	5.64
481.582	5.49
481.935	5.49
482.289	5.49
482.642	5.51
482.995	5.31
483.348	5.39
483.701	5.41
484.055	5.53
484.408	5.32
484.761	5.29
485.114	5.21
485.466	4.94
485.819	4.96
486.172	5.03
486.525	5.22
486.878	5.27
487.23	5.31
487.583	5.37
487.936	5.4
488.288	5.27
488.641	5.25
488.993	5.18
489.345	5.15
489.698	5.16
490.05	5.19
490.402	5.28
490.754	5.3
491.107	5.41
491.459	5.38
491.811	5.42
492.163	5.45
492.515	5.34
492.866	5.41
493.218	5.18
493.57	5.15
493.922	5.15
494.274	5.3
494.625	5.45
494.977	5.54
495.328	5.65
495.68	5.55
496.031	5.59
496.383	5.48
496.734	5.68
497.086	5.5
497.437	5.5
497.788	5.39
498.139	5.39
498.49	5.43
498.842	5.23
499.193	5.4
499.544	5.49
499.894	5.44
500.245	5.39
500.596	5.41
500.947	5.61
501.298	5.38
501.648	5.58
501.999	5.46
502.35	5.6
502.7	5.48
503.051	5.43
503.401	5.5
503.752	5.5
504.102	5.38
504.452	5.52
504.803	5.43
505.153	5.51
505.503	5.43
505.853	5.47
506.203	5.4
506.553	5.49
506.903	5.52
507.253	5.54
507.603	5.43
507.953	5.61
508.303	5.5
508.652	5.41
509.002	5.48
509.352	5.55
509.701	5.42
510.051	5.45
510.4	5.24
510.75	5.38
511.099	5.44
511.449	5.41
511.798	5.4
512.147	5.48
512.496	5.41
512.846	5.5
513.195	5.39
513.544	5.47
513.893	5.43
514.242	5.32
514.591	5.56
514.939	5.37
515.288	5.28
515.637	5.49
515.986	5.38
516.334	5.54
516.683	5.46
517.032	5.45
517.38	5.45
517.729	5.41
518.077	5.34
518.426	5.44
518.774	5.52
519.122	5.38
519.47	5.32
519.819	5.14
520.167	5.27
520.515	5.24
520.863	5.36
521.211	5.44
521.559	5.44
521.907	5.23
522.255	5.36
522.602	5.33
522.95	5.57
523.298	5.46
523.645	5.42
523.993	5.42
524.341	5.59
524.688	5.55
525.036	5.38
525.383	5.44
525.73	5.59
526.078	5.28
526.425	5.33
526.772	5.41
527.119	5.25
527.466	5.24
527.814	5.29
528.161	5.22
528.508	5.3
528.854	5.28
529.201	5.21
529.548	5.18
529.895	5.14
530.242	4.88
530.588	4.91
530.935	5.04
531.282	5.2
531.628	5.17
531.975	5.28
532.321	5.31
532.667	5.4
533.014	5.34
533.36	5.36
533.706	5.27
534.052	5.27
534.399	5.15
534.745	5.22
535.091	5.13
535.437	5.13
535.783	5.19
536.129	5.24
536.474	5.37
536.82	5.31
537.166	5.35
537.512	5.25
537.857	5.33
538.203	5.29
538.549	5.06
538.894	5.21
539.239	5.38
539.585	5.27
539.93	5.2
540.276	5.37
540.621	5.45
540.966	5.34
541.311	5.31
541.656	5.31
542.001	5.22
542.346	5.26
542.691	5.11
543.036	4.99
543.381	4.95
543.726	5
544.071	5.18
544.415	5.22
544.76	5.17
545.105	5.25
545.449	5.2
545.794	5.32
546.138	5.26
546.483	5.26
546.827	5.34
547.171	5.32
547.516	5.44
547.86	5.17
548.204	5.11
548.548	5.07
548.892	5.31
549.236	5.25
549.58	5.07
549.924	5.29
550.268	5.46
550.612	5.43
550.956	5.4
551.3	5.18
551.643	5.5
551.987	5.35
552.33	5.18
552.674	5.38
553.017	5.34
553.361	5.27
553.704	5.49
554.048	5.3
554.391	5.35
554.734	5.18
555.077	5.28
555.42	5.11
555.764	5.19
556.107	5.25
556.45	5.09
556.793	5.28
557.135	5.19
557.478	5.48
557.821	5.19
558.164	5.16
558.507	5.18
558.849	5.25
559.192	5.27
559.534	5.51
559.877	5.38
560.219	5.28
560.562	5.46
560.904	5.19
561.246	5.25
561.589	5.39
561.931	5.24
562.273	5.13
562.615	5.18
562.957	5.06
563.299	5.15
563.641	5.19
563.983	5.16
564.325	5.28
564.667	5.13
565.008	5.24
565.35	5.02
565.692	5.02
566.033	5.26
566.375	5.21
566.716	5.37
567.058	5.16
567.399	5.11
567.741	5.18
568.082	5.08
568.423	5.05
568.764	5.06
569.105	5.27
569.447	5.41
569.788	5.16
570.129	5.16
570.47	5.11
570.811	5.41
571.151	5.32
571.492	5.14
571.833	5.13
572.174	5.02
572.514	5.18
572.855	5.1
573.195	5.16
573.536	5.05
573.876	4.9
574.217	4.97
574.557	5.1
574.898	5.36
575.238	5.23
575.578	4.98
575.918	5.21
576.258	4.93
576.598	5.13
576.938	5.04
577.278	5.02
577.618	4.96
577.958	4.98
578.298	5.2
578.638	5.21
578.977	4.94
579.317	5.23
579.657	5.11
579.996	5.16
580.336	5
580.675	5.06
581.014	5.08
581.354	5.23
581.693	5.15
582.032	4.93
582.372	4.9
582.711	5.21
583.05	5.34
583.389	5.34
583.728	4.87
584.067	5.33
584.406	5.41
584.745	5.06
585.083	5.47
585.422	5.2
585.761	5.31
586.1	5.44
586.438	5.03
586.777	5.15
587.115	5.23
587.454	4.97
587.792	4.95
588.13	5.2
588.469	5.04
588.807	5.07
589.145	5
589.483	5.29
589.821	5.12
590.159	5.04
590.497	5.43
590.835	5.36
591.173	5.13
591.511	5.31
591.849	5.21
592.187	4.98
592.524	5.05
592.862	5.03
593.2	5.14
593.537	5.15
593.875	4.94
594.212	5.08
594.55	4.85
594.887	4.96
595.224	4.99
595.561	5.19
595.899	4.99
596.236	5
596.573	5.14
596.91	4.56
597.247	4.8
597.584	5.3
597.921	4.99
598.258	4.82
598.594	5.03
598.931	4.8
599.268	4.88
599.604	4.97
599.941	5.09
600.277	4.99
600.614	4.93
600.95	4.77
601.287	5
601.623	4.86
601.959	5.19
602.296	5.17
602.632	4.63
602.968	4.96
603.304	4.82
603.64	4.91
603.976	4.9
604.312	4.89
604.648	4.76
604.984	4.97
605.319	4.96
605.655	4.84
605.991	4.82
606.326	4.83
606.662	4.8
606.998	4.73
607.333	4.93
607.668	4.98
608.004	4.97
608.339	5.2
608.674	4.98
609.01	4.67
609.345	4.66
609.68	5.23
610.015	4.74
610.35	4.68
610.685	4.74
611.02	4.97
611.355	4.98
611.689	4.86
612.024	4.87
612.359	4.97
612.694	4.96
613.028	4.55
613.363	5.11
613.697	5.05
614.032	5.02
614.366	4.8
614.7	5.19
615.035	4.95
615.369	4.84
615.703	5.08
616.037	4.66
616.371	4.61
616.705	4.84
617.039	5.04
617.373	4.86
617.707	4.77
618.041	4.89
618.375	5.07
618.709	5.02
619.042	4.64
619.376	5.09
619.71	5.05
620.043	5.35
620.377	4.76
620.71	5.04
621.043	5.19
621.377	5.06
621.71	4.99
622.043	4.98
622.376	4.74
622.709	4.88
623.043	5.1
623.376	5.01
623.709	4.88
624.041	5.3
624.374	4.83
624.707	4.64
625.04	5.16
625.373	4.87
625.705	4.99
626.038	4.58
626.37	4.57
626.703	4.68
627.035	4.85
627.368	5.43
627.7	4.88
628.032	4.64
628.365	5.1
628.697	4.65
629.029	4.48
629.361	4.77
629.693	4.92
630.025	4.44
630.357	5.01
630.689	4.98
631.021	4.9
631.353	4.78
631.684	4.72
632.016	4.49
632.348	5.06
632.679	4.76
633.011	4.92
633.342	5.23
633.674	4.73
634.005	4.96
634.336	5.03
634.668	5.25
634.999	4.55
635.33	5.35
635.661	5.17
635.992	4.89
636.323	5.18
636.654	5.09
636.985	4.4
637.316	4.81
637.647	4.66
637.977	5.03
638.308	4.99
638.639	4.65
638.969	4.91
639.3	4.79
639.63	4.32
639.961	4.64
640.291	4.77
640.622	5.46
640.952	4.3
641.282	5.26
641.612	4.97
641.943	5.06
642.273	5.07
642.603	5.17
642.933	5.09
643.263	4.96
643.592	4.45
643.922	4.51
644.252	4.89
644.582	4.93
644.911	4.93
645.241	5.03
645.571	5.35
645.9	4.12
646.23	4.69
646.559	5.24
646.888	4.67
647.218	4.61
647.547	4.68
647.876	4.3
648.205	5.05
648.534	4.76
648.863	4.35
649.192	5.44
649.521	4.64
649.85	4.95
650.179	4.64
650.508	4.43
650.837	4.52
651.165	4.52
651.494	5.07
651.822	4.87
652.151	4.66
652.479	4.54
652.808	4.45
653.136	4.6
653.465	4.59
653.793	4.32
654.121	4.35
654.449	4.78
654.777	5.14
655.105	4.97
655.433	4.52
655.761	4.69
656.089	4.81
656.417	4.96
656.745	4.52
657.073	4.58
657.4	5.73
657.728	4.95
658.056	4.45
658.383	4.71
658.711	5.04
659.038	5.21
659.365	4.8
659.693	4.84
660.02	4.64
660.347	4.76
660.674	4.95
661.001	4.85
661.329	4.27
661.656	4.64
661.982	4.94
662.309	4.64
662.636	4.46
662.963	5.61
663.29	5.1
663.616	5.28
663.943	4.61
664.27	4.23
664.596	4.7
664.923	4.86
665.249	4.76
665.576	4.69
665.902	5.38
666.228	5.4
666.554	5.03
666.881	4.69
667.207	4.65
667.533	4.46
667.859	5.3
668.185	4.92
668.511	4.04
668.837	3.76
669.162	5.22
669.488	4.72
669.814	5.08
670.139	5.1
670.465	5.01
670.791	4.55
671.116	5.61
671.442	4.58
671.767	5.11
672.092	5.16
672.418	4.97
672.743	5.34
673.068	4.57
673.393	4.53
673.718	5.73
674.043	5.39
674.368	5.24
674.693	5.58
675.018	4.51
675.343	4.59
675.667	5.11
675.992	4.57
676.317	5.01
676.641	4.53
676.966	5.3
677.29	4.77
677.615	5.01
677.939	5.24
678.264	5.57
678.588	4.64
678.912	5.08
679.236	5.85
679.56	4.67
679.885	5.8
680.209	4.98
680.532	5.04
680.856	5.31
681.18	4.32
681.504	4.71
681.828	5.01
682.152	4.42
682.475	5.05
682.799	5.04
683.122	4.79
683.446	4.64
683.769	5.52
684.093	4.65
684.416	5.39
684.739	4.57
685.062	4.73
685.386	5.69
685.709	4.51
686.032	5.31
686.355	5.02
686.678	4.54
687.001	5.1
687.324	5.24
687.646	4.46
687.969	4.81
688.292	4.76
688.614	5.56
688.937	5.84
689.26	4.61
689.582	5.2
689.904	4.88
690.227	5.86
690.549	4.61
690.871	5.71
691.194	4.82
691.516	4.83
691.838	4.87
692.16	4.57
692.482	5.03
692.804	5.1
