Data from 0412_chest_Reflection__4__34.txt Node

Date: Fri Dec 15 16:40:07 CST 2023
User: ToomeyLab
Spectrometer: FLMS14357
Trigger mode: 0
Integration Time (sec): 1.000000E-2
Scans to average: 100
Electric dark correction enabled: true
Nonlinearity correction enabled: false
Boxcar width: 0
XAxis mode: Wavelengths
Number of Pixels in Spectrum: 2048
>>>>>Begin Spectral Data<<<<<
189.047	130.96
189.435	130.96
189.823	130.96
190.211	-145.3
190.599	272.6
190.987	13.52
191.375	-42.03
191.763	-163.79
192.151	170.3
192.538	249.39
192.926	-36.63
193.314	62.37
193.702	97.55
194.089	31.73
194.477	117.66
194.864	212.24
195.252	124.21
195.639	138.36
196.027	-47.1
196.414	-598.17
196.801	193.64
197.189	564.26
197.576	111.04
197.963	-11.84
198.351	-28.77
198.738	-9.92
199.125	16.33
199.512	24.26
199.899	21.52
200.286	0.1
200.673	4.52
201.06	55.83
201.447	9.91
201.833	35.51
202.22	14.27
202.607	63.46
202.994	2.68
203.38	46.15
203.767	27.44
204.154	28.47
204.54	62.95
204.927	38.65
205.313	-9.75
205.699	39.62
206.086	36.85
206.472	15.17
206.858	37.52
207.245	14.16
207.631	48.22
208.017	-11.66
208.403	45.86
208.789	26.23
209.175	31.55
209.561	17.93
209.947	59.3
210.333	-32.21
210.719	40.4
211.105	35.07
211.491	-19.47
211.876	17.56
212.262	25.1
212.648	34.81
213.034	22.12
213.419	-4.02
213.805	2.53
214.19	27.82
214.576	36.43
214.961	1.2
215.346	-36.75
215.732	28.37
216.117	37.49
216.502	6.68
216.888	-2.73
217.273	25.18
217.658	19.12
218.043	29.31
218.428	1.81
218.813	7.32
219.198	-12.96
219.583	13.41
219.968	19.12
220.353	9.86
220.738	15.89
221.122	14.64
221.507	-2.88
221.892	5.42
222.276	-3.88
222.661	8.37
223.046	29.19
223.43	19.62
223.815	11.23
224.199	-0.92
224.583	4.97
224.968	22.41
225.352	15.45
225.736	7.92
226.121	-3.22
226.505	11.86
226.889	13.9
227.273	0.93
227.657	8.71
228.041	7.2
228.425	0.57
228.809	1.82
229.193	2.33
229.577	0.49
229.961	3
230.344	2.75
230.728	3.1
231.112	2.43
231.495	2.16
231.879	1.66
232.263	2.94
232.646	3.62
233.03	2.58
233.413	2.01
233.797	2.74
234.18	2.65
234.563	4.61
234.946	2.86
235.33	3.64
235.713	3.52
236.096	3.69
236.479	3.11
236.862	2.5
237.245	3.51
237.628	3.34
238.011	3.92
238.394	4.33
238.777	3.88
239.16	1.46
239.543	3.38
239.925	1.74
240.308	2.96
240.691	3.9
241.073	5.92
241.456	2.03
241.838	2.3
242.221	1.74
242.603	3.02
242.986	2.55
243.368	3.6
243.75	2.79
244.133	2.46
244.515	2.35
244.897	2.77
245.279	2.9
245.661	3.05
246.043	2.32
246.425	1.97
246.807	3.74
247.189	3.17
247.571	2.17
247.953	2.6
248.335	1.94
248.717	2.29
249.098	1.88
249.48	2.2
249.862	2.19
250.243	2.44
250.625	2.02
251.006	2.67
251.388	2.24
251.769	3.08
252.151	3.18
252.532	2.2
252.913	1.5
253.295	1.76
253.676	2.07
254.057	2.31
254.438	2.66
254.819	2.26
255.2	1.85
255.581	1.62
255.962	3.22
256.343	2.73
256.724	2.92
257.105	1.03
257.486	2.55
257.867	2.96
258.247	2.32
258.628	2.15
259.009	1.52
259.389	2.87
259.77	2.25
260.15	2.24
260.531	1.53
260.911	2.47
261.292	2.04
261.672	2.29
262.052	2.08
262.432	2.33
262.813	2.21
263.193	2.24
263.573	2.62
263.953	1.65
264.333	2.82
264.713	1.89
265.093	1.43
265.473	2.45
265.853	2.56
266.233	2.8
266.612	0.45
266.992	1.24
267.372	2.66
267.752	2.11
268.131	2.25
268.511	2.45
268.89	2.86
269.27	2.03
269.649	2.01
270.029	1.64
270.408	3.75
270.787	2.65
271.167	3.16
271.546	3.14
271.925	1.67
272.304	2.26
272.683	2.28
273.062	1.77
273.441	1.97
273.82	1.18
274.199	2
274.578	2.2
274.957	2.49
275.336	2.47
275.715	1.85
276.093	1.69
276.472	1.49
276.851	2.28
277.229	2.27
277.608	1.6
277.986	2.14
278.365	2.09
278.743	1.64
279.122	2.1
279.5	2.14
279.878	2.9
280.257	1.68
280.635	1.49
281.013	2.07
281.391	2.73
281.769	2.27
282.147	2.02
282.525	2.83
282.903	1.78
283.281	2.73
283.659	2.49
284.037	2.55
284.415	2.59
284.792	2.12
285.17	1.44
285.548	1.93
285.925	2.14
286.303	2.33
286.68	2.02
287.058	2.31
287.435	2.14
287.813	1.93
288.19	1.64
288.567	2.19
288.945	2.37
289.322	2.09
289.699	2.66
290.076	1.62
290.453	1.87
290.83	2.04
291.207	2
291.584	2.42
291.961	2.19
292.338	2.15
292.715	2.41
293.092	1.91
293.469	2.22
293.845	2.22
294.222	1.67
294.599	2.84
294.975	2.35
295.352	1.98
295.728	1.83
296.105	1.65
296.481	2.14
296.858	1.96
297.234	1.86
297.61	2.19
297.986	1.81
298.363	2
298.739	2.32
299.115	1.86
299.491	1.72
299.867	1.81
300.243	2.28
300.619	1.49
300.995	1.89
301.371	2.71
301.746	1.6
302.122	2.11
302.498	1.85
302.874	1.7
303.249	1.97
303.625	2.11
304	2.4
304.376	2.38
304.751	2.28
305.127	2.9
305.502	1.86
305.878	1.92
306.253	2.22
306.628	2.87
307.003	2.11
307.378	2.81
307.754	2.48
308.129	1.4
308.504	2.16
308.879	1.73
309.254	2.92
309.629	2.83
310.003	2.09
310.378	2.74
310.753	2.63
311.128	2.63
311.502	2.41
311.877	2.64
312.252	1.24
312.626	2.06
313.001	2.21
313.375	2.37
313.75	2.02
314.124	2.47
314.498	1.76
314.873	2.43
315.247	2.38
315.621	2.44
315.995	2.23
316.369	2.52
316.743	1.8
317.117	2.3
317.491	1.98
317.865	2.21
318.239	2.51
318.613	1.83
318.987	2.61
319.361	1.41
319.734	2.84
320.108	2.6
320.482	2.41
320.855	3.01
321.229	2.51
321.602	3.09
321.976	2.48
322.349	2.36
322.723	2.2
323.096	2.39
323.469	1.35
323.843	2
324.216	2.66
324.589	2.27
324.962	2.29
325.335	2.23
325.708	2.15
326.081	2.23
326.454	2.42
326.827	2.23
327.2	2.47
327.573	2.53
327.945	2.56
328.318	2.42
328.691	2.08
329.063	2.02
329.436	2.24
329.809	2.67
330.181	1.52
330.553	2.44
330.926	2.3
331.298	2.25
331.671	1.98
332.043	3.15
332.415	2.76
332.787	2.32
333.159	2.71
333.532	2.34
333.904	1.92
334.276	2.09
334.648	2.88
335.02	2.68
335.391	2.26
335.763	2
336.135	2.4
336.507	2.52
336.879	2.34
337.25	1.69
337.622	2.53
337.993	2.02
338.365	2.39
338.736	2.94
339.108	2.79
339.479	2.03
339.851	2.03
340.222	2
340.593	2.91
340.964	2.42
341.336	2.79
341.707	1.79
342.078	2.56
342.449	2.7
342.82	2.65
343.191	2.58
343.562	2.57
343.933	2.82
344.303	2.68
344.674	2.35
345.045	2.51
345.416	2.67
345.786	2.08
346.157	2.95
346.527	2.38
346.898	2
347.268	2.43
347.639	2.28
348.009	2.49
348.38	2.28
348.75	2.87
349.12	2.15
349.49	2.48
349.861	2.31
350.231	2.45
350.601	2.89
350.971	2.44
351.341	2.81
351.711	2.81
352.081	2.5
352.45	2.15
352.82	2.46
353.19	2.6
353.56	2.33
353.929	2.3
354.299	2.38
354.669	2.13
355.038	2.79
355.408	2.49
355.777	2.24
356.147	2.17
356.516	2.4
356.885	2.49
357.254	2.2
357.624	2.64
357.993	2.52
358.362	2.15
358.731	1.71
359.1	2.53
359.469	2.57
359.838	2.57
360.207	2.22
360.576	2.41
360.945	2.19
361.314	2.97
361.682	1.98
362.051	2.2
362.42	2.49
362.788	2.52
363.157	2.73
363.525	2.64
363.894	2.4
364.262	2.29
364.631	2.26
364.999	2.49
365.367	1.8
365.735	2.76
366.104	2.59
366.472	2.64
366.84	2.42
367.208	2.26
367.576	2.61
367.944	2.61
368.312	2.32
368.68	2.29
369.048	2.37
369.416	2.33
369.783	2.02
370.151	2.46
370.519	3.01
370.886	2.82
371.254	2.44
371.621	2.76
371.989	2.76
372.356	2.32
372.724	2.56
373.091	2.33
373.458	2.53
373.826	2.21
374.193	2.36
374.56	2.69
374.927	2.78
375.294	2.88
375.661	2.36
376.028	2.11
376.395	2.42
376.762	2.89
377.129	2.41
377.496	2.56
377.863	2.39
378.229	2.08
378.596	2.49
378.963	2.49
379.329	2.01
379.696	2.57
380.062	2.41
380.429	2.64
380.795	2.17
381.161	2.28
381.528	2.73
381.894	2.56
382.26	2.24
382.626	2.89
382.993	2.24
383.359	2.7
383.725	2.19
384.091	2.69
384.457	2.84
384.823	2.38
385.188	2.74
385.554	2.26
385.92	2.64
386.286	2.62
386.651	2.61
387.017	2.63
387.383	2.61
387.748	2.29
388.114	2.62
388.479	2.53
388.845	2.83
389.21	2.84
389.575	2.75
389.94	2.52
390.306	2.65
390.671	2.54
391.036	2.17
391.401	2.18
391.766	2.5
392.131	2.37
392.496	2.8
392.861	2.46
393.226	2.74
393.591	2.69
393.956	2.46
394.32	2.52
394.685	2.42
395.05	2.51
395.414	2.61
395.779	2.21
396.143	2.5
396.508	2.63
396.872	2.62
397.236	2.67
397.601	2.37
397.965	2.86
398.329	2.66
398.694	2.52
399.058	2.52
399.422	2.37
399.786	2.82
400.15	2.59
400.514	2.7
400.878	2.9
401.242	2.89
401.605	2.67
401.969	2.75
402.333	2.64
402.697	2.63
403.06	2.49
403.424	2.73
403.787	2.65
404.151	2.84
404.514	2.66
404.878	2.74
405.241	2.82
405.604	2.62
405.968	2.82
406.331	2.74
406.694	2.73
407.057	2.85
407.42	2.65
407.783	2.4
408.146	2.58
408.509	2.82
408.872	2.61
409.235	2.72
409.598	2.94
409.961	2.82
410.323	2.8
410.686	2.62
411.049	2.62
411.411	2.6
411.774	2.72
412.136	2.6
412.499	2.49
412.861	2.55
413.223	2.51
413.586	2.85
413.948	2.68
414.31	2.73
414.672	2.54
415.035	2.48
415.397	3.13
415.759	2.52
416.121	2.95
416.483	2.61
416.845	2.65
417.206	2.68
417.568	3
417.93	2.54
418.292	2.6
418.653	2.79
419.015	2.74
419.377	2.61
419.738	2.74
420.1	2.56
420.461	2.64
420.822	2.8
421.184	2.61
421.545	2.61
421.906	2.56
422.267	2.64
422.629	2.61
422.99	2.63
423.351	2.51
423.712	2.6
424.073	2.63
424.434	2.67
424.795	2.56
425.155	2.55
425.516	2.62
425.877	2.59
426.238	2.61
426.598	2.73
426.959	2.68
427.32	2.75
427.68	2.67
428.041	2.55
428.401	2.96
428.761	2.73
429.122	2.68
429.482	2.58
429.842	2.66
430.202	2.82
430.563	2.76
430.923	2.67
431.283	2.77
431.643	2.76
432.003	2.91
432.363	2.83
432.722	2.81
433.082	2.91
433.442	2.77
433.802	2.59
434.161	2.76
434.521	3.14
434.881	2.77
435.24	2.73
435.6	2.67
435.959	2.75
436.319	2.79
436.678	2.68
437.037	2.74
437.396	2.91
437.756	2.79
438.115	2.7
438.474	2.96
438.833	2.75
439.192	2.81
439.551	2.84
439.91	2.75
440.269	2.82
440.628	2.76
440.987	2.71
441.345	2.7
441.704	2.84
442.063	2.67
442.421	2.79
442.78	2.65
443.138	2.7
443.497	2.79
443.855	2.8
444.214	2.9
444.572	3
444.93	2.86
445.288	3.04
445.647	2.87
446.005	2.83
446.363	2.96
446.721	2.87
447.079	2.71
447.437	2.79
447.795	2.87
448.153	2.69
448.51	2.83
448.868	2.86
449.226	2.75
449.584	2.77
449.941	3
450.299	2.84
450.656	2.8
451.014	2.87
451.371	2.8
451.729	2.84
452.086	3.17
452.443	2.87
452.801	2.91
453.158	2.83
453.515	2.78
453.872	3.03
454.229	2.82
454.586	2.84
454.943	2.93
455.3	2.83
455.657	2.83
456.014	2.77
456.371	2.89
456.727	2.77
457.084	3.23
457.441	2.99
457.797	2.83
458.154	3.01
458.51	2.89
458.867	2.98
459.223	2.97
459.58	3.02
459.936	2.99
460.292	2.89
460.648	2.85
461.005	2.87
461.361	2.84
461.717	2.88
462.073	2.79
462.429	2.88
462.785	2.83
463.141	2.9
463.496	2.96
463.852	3.07
464.208	2.88
464.564	3.07
464.919	3.07
465.275	3.2
465.631	2.85
465.986	2.94
466.342	2.96
466.697	2.98
467.052	3.13
467.408	2.97
467.763	3
468.118	2.98
468.473	2.9
468.829	2.98
469.184	3.04
469.539	2.98
469.894	2.93
470.249	3.18
470.603	3.1
470.958	3.1
471.313	3.13
471.668	3.22
472.023	2.95
472.377	2.89
472.732	3.02
473.086	2.95
473.441	2.84
473.795	3.19
474.15	3.21
474.504	3.12
474.859	3.21
475.213	2.89
475.567	3.02
475.921	3.03
476.275	3.09
476.63	3.13
476.984	3.18
477.338	3.28
477.692	2.85
478.045	3.04
478.399	3
478.753	3.12
479.107	3.07
479.461	3.05
479.814	3.09
480.168	3
480.521	2.91
480.875	3.01
481.228	3.06
481.582	3.03
481.935	3.01
482.289	3.04
482.642	3.08
482.995	3.02
483.348	3.01
483.701	3
484.055	2.95
484.408	2.99
484.761	2.99
485.114	2.91
485.466	2.82
485.819	2.78
486.172	2.82
486.525	2.87
486.878	2.94
487.23	2.93
487.583	3.02
487.936	3.01
488.288	3.03
488.641	3
488.993	2.87
489.345	2.87
489.698	2.92
490.05	2.92
490.402	3.01
490.754	2.98
491.107	2.99
491.459	3.07
491.811	3.14
492.163	3.1
492.515	3.05
492.866	3.11
493.218	3.01
493.57	3
493.922	2.96
494.274	3.08
494.625	3.17
494.977	3.15
495.328	3.17
495.68	3.22
496.031	3.24
496.383	3.11
496.734	3.44
497.086	3.24
497.437	3.24
497.788	3.29
498.139	3.09
498.49	3.3
498.842	3.11
499.193	3.16
499.544	3.19
499.894	3.12
500.245	3.08
500.596	3.09
500.947	3.31
501.298	3.18
501.648	3.3
501.999	3.3
502.35	3.23
502.7	3.35
503.051	3.18
503.401	3.16
503.752	3.28
504.102	3.24
504.452	3.28
504.803	3.25
505.153	3.21
505.503	3.36
505.853	3.22
506.203	3.17
506.553	3.32
506.903	3.24
507.253	3.29
507.603	3.29
507.953	3.34
508.303	3.52
508.652	3.28
509.002	3.3
509.352	3.46
509.701	3.3
510.051	3.33
510.4	3.37
510.75	3.36
511.099	3.27
511.449	3.35
511.798	3.26
512.147	3.39
512.496	3.34
512.846	3.38
513.195	3.41
513.544	3.36
513.893	3.52
514.242	3.4
514.591	3.45
514.939	3.4
515.288	3.36
515.637	3.41
515.986	3.44
516.334	3.51
516.683	3.49
517.032	3.39
517.38	3.6
517.729	3.55
518.077	3.35
518.426	3.58
518.774	3.46
519.122	3.43
519.47	3.33
519.819	3.28
520.167	3.43
520.515	3.35
520.863	3.49
521.211	3.51
521.559	3.54
521.907	3.48
522.255	3.46
522.602	3.53
522.95	3.51
523.298	3.58
523.645	3.65
523.993	3.41
524.341	3.65
524.688	3.63
525.036	3.59
525.383	3.7
525.73	3.66
526.078	3.46
526.425	3.44
526.772	3.71
527.119	3.67
527.466	3.54
527.814	3.63
528.161	3.55
528.508	3.58
528.854	3.58
529.201	3.5
529.548	3.48
529.895	3.53
530.242	3.44
530.588	3.39
530.935	3.44
531.282	3.5
531.628	3.52
531.975	3.63
532.321	3.62
532.667	3.72
533.014	3.75
533.36	3.77
533.706	3.69
534.052	3.75
534.399	3.63
534.745	3.6
535.091	3.62
535.437	3.61
535.783	3.7
536.129	3.68
536.474	3.69
536.82	3.8
537.166	3.84
537.512	3.76
537.857	3.76
538.203	3.79
538.549	3.75
538.894	3.71
539.239	3.83
539.585	3.82
539.93	3.74
540.276	3.89
540.621	4.06
540.966	4.05
541.311	3.85
541.656	3.81
542.001	3.93
542.346	3.98
542.691	3.84
543.036	3.77
543.381	3.68
543.726	3.76
544.071	3.89
544.415	3.93
544.76	3.94
545.105	3.93
545.449	3.96
545.794	4.05
546.138	4.04
546.483	4.07
546.827	4.11
547.171	4.09
547.516	4.19
547.86	4.09
548.204	4.03
548.548	3.96
548.892	4.15
549.236	4.05
549.58	4.08
549.924	4.25
550.268	4.19
550.612	4.34
550.956	4.48
551.3	4.27
551.643	4.31
551.987	4.29
552.33	4.24
552.674	4.32
553.017	4.22
553.361	4.16
553.704	4.43
554.048	4.4
554.391	4.35
554.734	4.34
555.077	4.45
555.42	4.31
555.764	4.19
556.107	4.46
556.45	4.39
556.793	4.45
557.135	4.47
557.478	4.65
557.821	4.58
558.164	4.42
558.507	4.69
558.849	4.47
559.192	4.7
559.534	4.76
559.877	4.71
560.219	4.54
560.562	4.95
560.904	4.63
561.246	4.79
561.589	4.64
561.931	4.45
562.273	4.68
562.615	4.73
562.957	4.61
563.299	4.38
563.641	4.67
563.983	4.77
564.325	4.57
564.667	4.55
565.008	4.84
565.35	4.74
565.692	4.6
566.033	4.83
566.375	5.06
566.716	5.22
567.058	4.8
567.399	4.8
567.741	4.96
568.082	4.9
568.423	4.82
568.764	4.82
569.105	4.95
569.447	5.07
569.788	5.04
570.129	5.06
570.47	5.04
570.811	5.18
571.151	5.12
571.492	5.41
571.833	5.2
572.174	5.12
572.514	5.14
572.855	5.25
573.195	5.32
573.536	5.24
573.876	5.01
574.217	5.04
574.557	5.24
574.898	5.33
575.238	5.36
575.578	5.03
575.918	5.28
576.258	5.6
576.598	5.44
576.938	5.26
577.278	5.34
577.618	5.27
577.958	5.37
578.298	5.4
578.638	5.31
578.977	5.52
579.317	5.31
579.657	5.67
579.996	5.48
580.336	5.63
580.675	5.56
581.014	5.57
581.354	5.67
581.693	5.68
582.032	5.71
582.372	5.54
582.711	5.79
583.05	5.76
583.389	5.79
583.728	5.71
584.067	6.1
584.406	5.92
584.745	5.79
585.083	6.16
585.422	5.89
585.761	6.02
586.1	6.01
586.438	6.02
586.777	6.32
587.115	6.09
587.454	5.83
587.792	6.05
588.13	6.29
588.469	6.17
588.807	6.09
589.145	5.82
589.483	6.2
589.821	6.04
590.159	6.17
590.497	6.42
590.835	6.68
591.173	6.25
591.511	6.44
591.849	6.2
592.187	6.26
592.524	6.38
592.862	6.29
593.2	6.58
593.537	6.52
593.875	6.4
594.212	6.3
594.55	6.49
594.887	6.65
595.224	6.36
595.561	6.55
595.899	6.55
596.236	6.55
596.573	6.76
596.91	6.27
597.247	6.4
597.584	6.89
597.921	6.78
598.258	6.71
598.594	6.6
598.931	6.68
599.268	6.78
599.604	6.58
599.941	6.82
600.277	6.9
600.614	6.85
600.95	6.77
601.287	7.16
601.623	6.91
601.959	6.65
602.296	7.05
602.632	7.21
602.968	7.25
603.304	7.25
603.64	7.03
603.976	7.34
604.312	7.09
604.648	6.91
604.984	7.4
605.319	7.31
605.655	7.21
605.991	7.08
606.326	7.13
606.662	7.23
606.998	7.19
607.333	7.25
607.668	7.21
608.004	7.7
608.339	7.49
608.674	7.56
609.01	7.33
609.345	7.34
609.68	7.75
610.015	7.36
610.35	7.32
610.685	7.34
611.02	7.44
611.355	7.65
611.689	7.66
612.024	7.59
612.359	7.45
612.694	7.6
613.028	7.48
613.363	7.92
613.697	8.09
614.032	8.01
614.366	7.86
614.7	8.15
615.035	7.96
615.369	7.82
615.703	8.08
616.037	8.06
616.371	7.77
616.705	7.98
617.039	8.24
617.373	8.11
617.707	8.13
618.041	8.06
618.375	8.03
618.709	8.36
619.042	8.06
619.376	8.33
619.71	8.43
620.043	8.23
620.377	8.37
620.71	8.71
621.043	8.39
621.377	8.54
621.71	8.7
622.043	8.54
622.376	8.29
622.709	8.39
623.043	8.63
623.376	8.65
623.709	8.66
624.041	8.89
624.374	8.3
624.707	8.89
625.04	9.12
625.373	8.47
625.705	8.8
626.038	8.55
626.37	8.79
626.703	8.59
627.035	8.87
627.368	9.06
627.7	8.89
628.032	8.98
628.365	9.4
628.697	9.04
629.029	8.82
629.361	9.23
629.693	9.2
630.025	9.06
630.357	9.33
630.689	9.49
631.021	9.14
631.353	9.76
631.684	9.37
632.016	8.97
632.348	9.42
632.679	9.44
633.011	10.15
633.342	9.49
633.674	9.57
634.005	9.96
634.336	9.77
634.668	10.04
634.999	9.63
635.33	9.72
635.661	9.51
635.992	9.79
636.323	9.97
636.654	9.76
636.985	9.66
637.316	9.82
637.647	9.84
637.977	10.23
638.308	10.15
638.639	9.88
638.969	9.48
639.3	9.74
639.63	9.62
639.961	10.09
640.291	10.14
640.622	10.55
640.952	9.69
641.282	10.12
641.612	10.37
641.943	10.24
642.273	10.09
642.603	10.55
642.933	10.6
643.263	10.21
643.592	9.88
643.922	10.45
644.252	10.44
644.582	10.39
644.911	10.41
645.241	10.12
645.571	10.45
645.9	10.23
646.23	10.51
646.559	10.78
646.888	10.59
647.218	10.06
647.547	10.87
647.876	10.39
648.205	10.79
648.534	10.82
648.863	10.2
649.192	11.13
649.521	10.56
649.85	10.65
650.179	11.21
650.508	10.82
650.837	10.57
651.165	10.57
651.494	11.05
651.822	11.27
652.151	11.26
652.479	11.65
652.808	10.72
653.136	11.22
653.465	11.25
653.793	11.11
654.121	11.22
654.449	11.64
654.777	11.22
655.105	11.71
655.433	10.61
655.761	11.42
656.089	11.31
656.417	11.4
656.745	11.45
657.073	11.39
657.4	12.25
657.728	11.37
658.056	11.44
658.383	11.32
658.711	11.82
659.038	11.93
659.365	11.96
659.693	11.54
660.02	11.53
660.347	11.65
660.674	12.04
661.001	12.17
661.329	11.19
661.656	11.79
661.982	12.09
662.309	11.88
662.636	11.93
662.963	12.25
663.29	11.99
663.616	12.34
663.943	11.46
664.27	12.11
664.596	12.36
664.923	12.4
665.249	12.49
665.576	12.3
665.902	12.99
666.228	12.29
666.554	12.96
666.881	12.11
667.207	12.85
667.533	12.28
667.859	12.39
668.185	12.78
668.511	12.04
668.837	11.93
669.162	12.18
669.488	12.39
669.814	12.93
670.139	13.46
670.465	13.35
670.791	13
671.116	13.43
671.442	12.28
671.767	12.95
672.092	13
672.418	12.96
672.743	13.21
673.068	12.37
673.393	12.88
673.718	13.08
674.043	13.33
674.368	12.86
674.693	13.9
675.018	13.03
675.343	13.16
675.667	13.68
675.992	13.41
676.317	13.46
676.641	12.97
676.966	12.92
677.29	13.3
677.615	13.58
677.939	14.1
678.264	14.27
678.588	13.79
678.912	13.57
679.236	14.03
679.56	13.11
679.885	14.21
680.209	13.77
680.532	13.6
680.856	14.16
681.18	13.26
681.504	14.02
681.828	14.03
682.152	13.3
682.475	14.16
682.799	13.73
683.122	14.21
683.446	14.26
683.769	14.4
684.093	13.95
684.416	14.93
684.739	14.16
685.062	13.72
685.386	14.32
685.709	14.14
686.032	14.6
686.355	15.98
686.678	13.98
687.001	14.49
687.324	14.82
687.646	14.92
687.969	14.24
688.292	14.58
688.614	15.18
688.937	15.51
689.26	14.81
689.582	15.04
