Data from 0412_crown_Reflection__2__37.txt Node

Date: Fri Dec 15 16:41:17 CST 2023
User: ToomeyLab
Spectrometer: FLMS14357
Trigger mode: 0
Integration Time (sec): 1.000000E-2
Scans to average: 100
Electric dark correction enabled: true
Nonlinearity correction enabled: false
Boxcar width: 0
XAxis mode: Wavelengths
Number of Pixels in Spectrum: 2048
>>>>>Begin Spectral Data<<<<<
189.047	-33.46
189.435	-33.46
189.823	-33.46
190.211	70.14
190.599	335.48
190.987	34.43
191.375	90.57
191.763	-2.74
192.151	-69.67
192.538	190.84
192.926	-17.53
193.314	143.37
193.702	16.64
194.089	314.27
194.477	-9.38
194.864	-30.02
195.252	115.51
195.639	103.66
196.027	191.19
196.414	-232.67
196.801	-137.09
197.189	131.38
197.576	78.37
197.963	26.21
198.351	7.41
198.738	15.84
199.125	35.4
199.512	6.67
199.899	41.67
200.286	19.82
200.673	17.47
201.06	32.71
201.447	-17.26
201.833	9.67
202.22	42.45
202.607	77.75
202.994	-4.11
203.38	4.46
203.767	17.14
204.154	12.74
204.54	23.51
204.927	-12.88
205.313	68.49
205.699	34.09
206.086	44.61
206.472	12.1
206.858	20.07
207.245	8.9
207.631	23.63
208.017	30.71
208.403	26.79
208.789	35.36
209.175	56.43
209.561	12.05
209.947	59.67
210.333	10.37
210.719	3.12
211.105	25.85
211.491	19.33
211.876	22.16
212.262	84.34
212.648	28.3
213.034	30.02
213.419	-13.17
213.805	1.37
214.19	7.57
214.576	-22.82
214.961	-1.31
215.346	-17.37
215.732	25.98
216.117	26.77
216.502	6.14
216.888	9.69
217.273	24.24
217.658	9.74
218.043	25.59
218.428	0.88
218.813	15.45
219.198	-18.51
219.583	21.45
219.968	22.86
220.353	-19.1
220.738	22.45
221.122	9.48
221.507	1.07
221.892	-13.01
222.276	-6.69
222.661	12.55
223.046	17.87
223.43	22.91
223.815	22
224.199	-1.06
224.583	11.75
224.968	5.31
225.352	12.91
225.736	14.41
226.121	3.36
226.505	10.37
226.889	7.2
227.273	7.33
227.657	15.28
228.041	11.65
228.425	7.29
228.809	11.85
229.193	9.92
229.577	6.28
229.961	8.96
230.344	9.33
230.728	9.02
231.112	8.52
231.495	9.18
231.879	8.7
232.263	10.09
232.646	8.08
233.03	10.28
233.413	7.12
233.797	10.12
234.18	8.36
234.563	9.78
234.946	8.37
235.33	10.79
235.713	10.6
236.096	9.05
236.479	8.29
236.862	7.17
237.245	9.99
237.628	8.1
238.011	8.16
238.394	9.62
238.777	8.42
239.16	7.99
239.543	9.6
239.925	10.96
240.308	9.32
240.691	9.72
241.073	10.03
241.456	10.86
241.838	9.21
242.221	7.07
242.603	9.13
242.986	9.52
243.368	9.06
243.75	9.07
244.133	7.82
244.515	8.85
244.897	8.05
245.279	8.28
245.661	7.66
246.043	8.19
246.425	7.89
246.807	10.1
247.189	7.82
247.571	8.26
247.953	8.51
248.335	7.68
248.717	8.01
249.098	7.75
249.48	7.82
249.862	7.59
250.243	7.9
250.625	7.6
251.006	8.08
251.388	7.21
251.769	8.43
252.151	8.87
252.532	8.79
252.913	7.73
253.295	7.45
253.676	8.16
254.057	8.72
254.438	7.87
254.819	8.02
255.2	6.94
255.581	8.51
255.962	7.42
256.343	7.27
256.724	8.14
257.105	7.37
257.486	6.63
257.867	8.28
258.247	8.48
258.628	7.65
259.009	7.6
259.389	7.8
259.77	7.77
260.15	7.07
260.531	7.1
260.911	7.97
261.292	7.48
261.672	7.62
262.052	7.43
262.432	7.66
262.813	7.34
263.193	7.46
263.573	7.06
263.953	7.14
264.333	8.07
264.713	7.33
265.093	7.63
265.473	7.5
265.853	6.65
266.233	7.53
266.612	6.46
266.992	6.16
267.372	8.43
267.752	7.09
268.131	7.45
268.511	7.31
268.89	8.18
269.27	6.63
269.649	6.47
270.029	6.81
270.408	7.74
270.787	7.17
271.167	7.74
271.546	7.86
271.925	6.17
272.304	6.92
272.683	7.24
273.062	6.5
273.441	7.16
273.82	6.79
274.199	6.8
274.578	7.17
274.957	7.11
275.336	7.1
275.715	6.64
276.093	6.86
276.472	7.72
276.851	7.21
277.229	7.04
277.608	6.03
277.986	6.87
278.365	6.97
278.743	6.21
279.122	6.14
279.5	6.74
279.878	7.26
280.257	7.35
280.635	7.24
281.013	6.73
281.391	7.29
281.769	7.41
282.147	6.76
282.525	7.67
282.903	6.63
283.281	6.93
283.659	6.83
284.037	6.94
284.415	7.04
284.792	6.72
285.17	5.91
285.548	5.9
285.925	6.93
286.303	6.91
286.68	6.21
287.058	6.23
287.435	6.54
287.813	6.65
288.19	6.27
288.567	6.25
288.945	6.7
289.322	6.34
289.699	6.47
290.076	6.35
290.453	6.33
290.83	6.11
291.207	5.98
291.584	6.49
291.961	6.48
292.338	6.05
292.715	6.22
293.092	6.28
293.469	5.83
293.845	6.26
294.222	5.26
294.599	6.35
294.975	5.92
295.352	6.16
295.728	5.85
296.105	5.92
296.481	6.46
296.858	6.03
297.234	6.3
297.61	5.94
297.986	6.01
298.363	6.53
298.739	5.79
299.115	6.08
299.491	5.94
299.867	5.61
300.243	5.85
300.619	5.56
300.995	5.96
301.371	6.24
301.746	5.83
302.122	6.54
302.498	5.61
302.874	6.19
303.249	6.27
303.625	6.03
304	5.99
304.376	5.43
304.751	5.09
305.127	6.79
305.502	5.25
305.878	5.68
306.253	5.88
306.628	6.01
307.003	5.24
307.378	6.08
307.754	5.83
308.129	5.27
308.504	5.81
308.879	5.41
309.254	6.27
309.629	7.02
310.003	5.67
310.378	6.01
310.753	5.87
311.128	5.78
311.502	5.58
311.877	6.04
312.252	5.28
312.626	5.61
313.001	5.47
313.375	5.61
313.75	5.28
314.124	5.44
314.498	5.26
314.873	5.97
315.247	4.78
315.621	5.41
315.995	4.96
316.369	5.21
316.743	5.09
317.117	5.23
317.491	5.7
317.865	5.5
318.239	4.34
318.613	5.61
318.987	5.54
319.361	4.89
319.734	6.12
320.108	5.12
320.482	5.63
320.855	5.19
321.229	4.82
321.602	4.92
321.976	5.46
322.349	5.21
322.723	4.92
323.096	6.37
323.469	5.3
323.843	5.05
324.216	5.49
324.589	5.24
324.962	5.52
325.335	5.07
325.708	4.9
326.081	5.31
326.454	5.56
326.827	4.61
327.2	5.21
327.573	5.26
327.945	4.8
328.318	4.88
328.691	4.78
329.063	4.68
329.436	4.84
329.809	4.98
330.181	5.27
330.553	5.08
330.926	5
331.298	5.07
331.671	4.91
332.043	6.22
332.415	5.26
332.787	5.13
333.159	5.23
333.532	5.26
333.904	4.78
334.276	5.09
334.648	5.21
335.02	5.16
335.391	4.82
335.763	4.96
336.135	4.85
336.507	5.57
336.879	4.9
337.25	4.97
337.622	4.37
337.993	4.94
338.365	5.45
338.736	5.31
339.108	5.23
339.479	4.71
339.851	5.01
340.222	5.03
340.593	4.61
340.964	4.73
341.336	5.37
341.707	4.74
342.078	5.28
342.449	5.2
342.82	5.13
343.191	4.72
343.562	5.11
343.933	5.35
344.303	5.2
344.674	4.98
345.045	5.11
345.416	5.38
345.786	4.87
346.157	5.26
346.527	4.51
346.898	4.65
347.268	5.37
347.639	4.95
348.009	4.99
348.38	4.85
348.75	5.23
349.12	4.82
349.49	5.24
349.861	5.5
350.231	4.72
350.601	4.8
350.971	5.58
351.341	4.99
351.711	5.35
352.081	4.82
352.45	5.09
352.82	5.57
353.19	5.23
353.56	5.18
353.929	5.21
354.299	4.92
354.669	5.13
355.038	5.21
355.408	4.89
355.777	4.89
356.147	4.71
356.516	5.19
356.885	5.2
357.254	4.99
357.624	5.42
357.993	5.17
358.362	5.14
358.731	4.82
359.1	5.12
359.469	5.33
359.838	5.35
360.207	5.23
360.576	4.95
360.945	5.22
361.314	5.46
361.682	4.75
362.051	4.91
362.42	5.46
362.788	5.23
363.157	5.08
363.525	5.28
363.894	5.35
364.262	5.26
364.631	5.22
364.999	5.21
365.367	4.9
365.735	5.56
366.104	5.2
366.472	5.4
366.84	5.09
367.208	5.38
367.576	5.71
367.944	5.29
368.312	5.43
368.68	5.24
369.048	5.5
369.416	5.18
369.783	5.12
370.151	5.28
370.519	5.48
370.886	5.66
371.254	5.27
371.621	5.49
371.989	5.63
372.356	5.1
372.724	5.34
373.091	5.42
373.458	5.57
373.826	5.56
374.193	5.19
374.56	5.53
374.927	5.4
375.294	5.43
375.661	5.58
376.028	5.35
376.395	5.31
376.762	5.52
377.129	5.51
377.496	5.34
377.863	5.7
378.229	5.18
378.596	5.64
378.963	5.64
379.329	5.27
379.696	5.6
380.062	5.47
380.429	5.1
380.795	5.48
381.161	5.5
381.528	5.55
381.894	5.43
382.26	5.75
382.626	5.81
382.993	5.55
383.359	6.03
383.725	5.33
384.091	5.53
384.457	5.88
384.823	5.43
385.188	5.7
385.554	5.39
385.92	5.67
386.286	5.55
386.651	5.91
387.017	6.18
387.383	5.64
387.748	5.58
388.114	5.98
388.479	5.59
388.845	5.87
389.21	5.59
389.575	5.86
389.94	5.71
390.306	5.57
390.671	5.94
391.036	5.49
391.401	5.32
391.766	5.87
392.131	5.5
392.496	5.94
392.861	5.74
393.226	6.2
393.591	5.83
393.956	5.79
394.32	5.79
394.685	5.72
395.05	5.79
395.414	5.86
395.779	5.7
396.143	5.66
396.508	5.79
396.872	5.86
397.236	5.72
397.601	5.74
397.965	6.08
398.329	5.95
398.694	5.78
399.058	6.13
399.422	5.67
399.786	6.04
400.15	6.04
400.514	5.78
400.878	5.99
401.242	6.03
401.605	6.02
401.969	5.91
402.333	5.9
402.697	5.94
403.06	6.02
403.424	6.23
403.787	5.91
404.151	6.19
404.514	6.09
404.878	5.98
405.241	6.35
405.604	5.88
405.968	6.03
406.331	5.98
406.694	6.02
407.057	5.82
407.42	5.99
407.783	5.9
408.146	5.95
408.509	5.91
408.872	6.11
409.235	6.24
409.598	6.22
409.961	5.86
410.323	6.22
410.686	5.89
411.049	5.85
411.411	5.99
411.774	5.89
412.136	5.88
412.499	6
412.861	6.05
413.223	5.97
413.586	5.93
413.948	6.08
414.31	6.24
414.672	5.94
415.035	5.94
415.397	6.57
415.759	5.87
416.121	6.26
416.483	6.06
416.845	6.11
417.206	5.85
417.568	6.01
417.93	5.93
418.292	5.96
418.653	6.13
419.015	6.21
419.377	6.09
419.738	6.3
420.1	6.07
420.461	6.16
420.822	6.06
421.184	6.02
421.545	6.1
421.906	6.16
422.267	6.14
422.629	6.12
422.99	6.11
423.351	6.03
423.712	6.1
424.073	6.05
424.434	6.04
424.795	6.02
425.155	6.07
425.516	6.06
425.877	6.08
426.238	6.08
426.598	6.23
426.959	6.08
427.32	6.13
427.68	6.04
428.041	6.25
428.401	6.25
428.761	6.11
429.122	6.47
429.482	6.09
429.842	6.28
430.202	6.58
430.563	6.28
430.923	6.27
431.283	6.41
431.643	6.32
432.003	6.43
432.363	6.37
432.722	6.27
433.082	6.29
433.442	6.32
433.802	6.07
434.161	6.31
434.521	6.57
434.881	6.38
435.24	6.28
435.6	6.3
435.959	6.21
436.319	6.25
436.678	6.33
437.037	6.23
437.396	6.39
437.756	6.38
438.115	6.26
438.474	6.54
438.833	6.23
439.192	6.3
439.551	6.32
439.91	6.26
440.269	6.41
440.628	6.35
440.987	6.27
441.345	6.09
441.704	6.19
442.063	6.24
442.421	6.23
442.78	6.31
443.138	6.29
443.497	6.4
443.855	6.24
444.214	6.27
444.572	6.43
444.93	6.36
445.288	6.42
445.647	6.58
446.005	6.47
446.363	6.47
446.721	6.37
447.079	6.18
447.437	6.3
447.795	6.39
448.153	6.21
448.51	6.26
448.868	6.27
449.226	6.24
449.584	6.33
449.941	6.41
450.299	6.38
450.656	6.28
451.014	6.37
451.371	6.4
451.729	6.43
452.086	6.63
452.443	6.37
452.801	6.47
453.158	6.36
453.515	6.49
453.872	6.42
454.229	6.5
454.586	6.26
454.943	6.41
455.3	6.46
455.657	6.35
456.014	6.32
456.371	6.3
456.727	6.4
457.084	6.54
457.441	6.53
457.797	6.34
458.154	6.64
458.51	6.48
458.867	6.62
459.223	6.65
459.58	6.54
459.936	6.64
460.292	6.67
460.648	6.42
461.005	6.38
461.361	6.53
461.717	6.42
462.073	6.3
462.429	6.37
462.785	6.46
463.141	6.37
463.496	6.45
463.852	6.47
464.208	6.47
464.564	6.75
464.919	6.45
465.275	6.71
465.631	6.61
465.986	6.53
466.342	6.6
466.697	6.43
467.052	6.68
467.408	6.56
467.763	6.36
468.118	6.49
468.473	6.61
468.829	6.56
469.184	6.43
469.539	6.67
469.894	6.51
470.249	6.72
470.603	6.69
470.958	6.77
471.313	6.53
471.668	6.59
472.023	6.46
472.377	6.52
472.732	6.57
473.086	6.62
473.441	6.35
473.795	6.65
474.15	6.67
474.504	6.58
474.859	6.77
475.213	6.46
475.567	6.51
475.921	6.59
476.275	6.46
476.63	6.57
476.984	6.78
477.338	6.63
477.692	6.57
478.045	6.53
478.399	6.59
478.753	6.59
479.107	6.68
479.461	6.67
479.814	6.72
480.168	6.64
480.521	6.49
480.875	6.55
481.228	6.68
481.582	6.56
481.935	6.55
482.289	6.56
482.642	6.6
482.995	6.54
483.348	6.62
483.701	6.53
484.055	6.61
484.408	6.69
484.761	6.48
485.114	6.44
485.466	6.27
485.819	6.23
486.172	6.18
486.525	6.14
486.878	6.2
487.23	6.26
487.583	6.34
487.936	6.41
488.288	6.36
488.641	6.51
488.993	6.42
489.345	6.27
489.698	6.34
490.05	6.28
490.402	6.28
490.754	6.27
491.107	6.36
491.459	6.44
491.811	6.52
492.163	6.57
492.515	6.41
492.866	6.59
493.218	6.48
493.57	6.39
493.922	6.39
494.274	6.41
494.625	6.45
494.977	6.53
495.328	6.58
495.68	6.51
496.031	6.78
496.383	6.57
496.734	6.76
497.086	6.67
497.437	6.67
497.788	6.55
498.139	6.57
498.49	6.71
498.842	6.55
499.193	6.62
499.544	6.58
499.894	6.63
500.245	6.6
500.596	6.63
500.947	6.72
501.298	6.6
501.648	6.63
501.999	6.77
502.35	6.63
502.7	6.68
503.051	6.59
503.401	6.57
503.752	6.89
504.102	6.69
504.452	6.72
504.803	6.54
505.153	6.66
505.503	6.64
505.853	6.54
506.203	6.52
506.553	6.61
506.903	6.64
507.253	6.63
507.603	6.58
507.953	6.78
508.303	6.77
508.652	6.63
509.002	6.73
509.352	6.62
509.701	6.67
510.051	6.51
510.4	6.58
510.75	6.63
511.099	6.6
511.449	6.58
511.798	6.5
512.147	6.54
512.496	6.53
512.846	6.65
513.195	6.61
513.544	6.69
513.893	6.71
514.242	6.6
514.591	6.79
514.939	6.65
515.288	6.57
515.637	6.7
515.986	6.7
516.334	6.74
516.683	6.84
517.032	6.63
517.38	6.73
517.729	6.67
518.077	6.61
518.426	6.83
518.774	6.6
519.122	6.58
519.47	6.64
519.819	6.56
520.167	6.58
520.515	6.58
520.863	6.55
521.211	6.52
521.559	6.63
521.907	6.46
522.255	6.65
522.602	6.66
522.95	6.59
523.298	6.58
523.645	6.77
523.993	6.6
524.341	6.76
524.688	6.71
525.036	6.64
525.383	6.8
525.73	6.71
526.078	6.69
526.425	6.63
526.772	6.68
527.119	6.56
527.466	6.59
527.814	6.59
528.161	6.54
528.508	6.58
528.854	6.55
529.201	6.44
529.548	6.55
529.895	6.61
530.242	6.38
530.588	6.39
530.935	6.39
531.282	6.27
531.628	6.25
531.975	6.37
532.321	6.41
532.667	6.52
533.014	6.63
533.36	6.65
533.706	6.58
534.052	6.56
534.399	6.48
534.745	6.44
535.091	6.5
535.437	6.51
535.783	6.49
536.129	6.44
536.474	6.42
536.82	6.51
537.166	6.54
537.512	6.54
537.857	6.6
538.203	6.68
538.549	6.57
538.894	6.52
539.239	6.53
539.585	6.5
539.93	6.42
540.276	6.61
540.621	6.64
540.966	6.7
541.311	6.56
541.656	6.47
542.001	6.56
542.346	6.74
542.691	6.39
543.036	6.42
543.381	6.38
543.726	6.37
544.071	6.45
544.415	6.4
544.76	6.42
545.105	6.46
545.449	6.44
545.794	6.63
546.138	6.55
546.483	6.65
546.827	6.63
547.171	6.61
547.516	6.67
547.86	6.51
548.204	6.5
548.548	6.53
548.892	6.64
549.236	6.56
549.58	6.47
549.924	6.55
550.268	6.67
550.612	6.61
550.956	6.75
551.3	6.64
551.643	6.81
551.987	6.74
552.33	6.73
552.674	6.64
553.017	6.74
553.361	6.51
553.704	6.85
554.048	6.69
554.391	6.73
554.734	6.71
555.077	6.5
555.42	6.6
555.764	6.67
556.107	6.48
556.45	6.43
556.793	6.66
557.135	6.62
557.478	6.83
557.821	6.66
558.164	6.54
558.507	6.65
558.849	6.56
559.192	6.71
559.534	6.49
559.877	6.71
560.219	6.71
560.562	6.78
560.904	6.64
561.246	6.73
561.589	6.63
561.931	6.62
562.273	6.52
562.615	6.79
562.957	6.4
563.299	6.45
563.641	6.5
563.983	6.65
564.325	6.46
564.667	6.57
565.008	6.59
565.35	6.69
565.692	6.52
566.033	6.66
566.375	6.53
566.716	6.73
567.058	6.54
567.399	6.6
567.741	6.62
568.082	6.55
568.423	6.45
568.764	6.53
569.105	6.7
569.447	6.64
569.788	6.55
570.129	6.54
570.47	6.55
570.811	6.6
571.151	6.56
571.492	6.57
571.833	6.69
572.174	6.6
572.514	6.69
572.855	6.61
573.195	6.48
573.536	6.64
573.876	6.35
574.217	6.37
574.557	6.55
574.898	6.61
575.238	6.59
575.578	6.44
575.918	6.78
576.258	6.71
576.598	6.64
576.938	6.55
577.278	6.47
577.618	6.36
577.958	6.49
578.298	6.36
578.638	6.44
578.977	6.65
579.317	6.37
579.657	6.42
579.996	6.52
580.336	6.62
580.675	6.63
581.014	6.7
581.354	6.53
581.693	6.61
582.032	6.34
582.372	6.6
582.711	6.88
583.05	6.24
583.389	6.64
583.728	6.24
584.067	6.66
584.406	6.53
584.745	6.55
585.083	6.71
585.422	6.46
585.761	6.65
586.1	6.76
586.438	6.51
586.777	6.56
587.115	6.56
587.454	6.47
587.792	6.59
588.13	6.81
588.469	6.39
588.807	6.51
589.145	6.26
589.483	6.45
589.821	6.41
590.159	6.64
590.497	6.65
590.835	6.71
591.173	6.45
591.511	6.82
591.849	6.55
592.187	6.42
592.524	6.37
592.862	6.41
593.2	6.48
593.537	6.36
593.875	6.33
594.212	6.34
594.55	6.5
594.887	7.03
595.224	6.41
595.561	6.4
595.899	6.69
596.236	6.45
596.573	6.8
596.91	6.11
597.247	6.29
597.584	6.61
597.921	6.38
598.258	6.39
598.594	6.52
598.931	6.35
599.268	6.36
599.604	6.4
599.941	6.32
600.277	6.36
600.614	6.36
600.95	6.27
601.287	6.45
601.623	6.67
601.959	6.42
602.296	6.34
602.632	6.5
602.968	6.46
603.304	6.35
603.64	6.51
603.976	6.38
604.312	6.35
604.648	6.22
604.984	6.34
605.319	6.46
605.655	6.33
605.991	6.41
606.326	6.2
606.662	6.35
606.998	6.1
607.333	6.4
607.668	6.39
608.004	6.4
608.339	6.39
608.674	6.14
609.01	6.35
609.345	6.07
609.68	6.24
610.015	6.28
610.35	6.26
610.685	6.48
611.02	6.45
611.355	6.22
611.689	6.25
612.024	6.43
612.359	6.23
612.694	6.21
613.028	6.18
613.363	6.37
613.697	6.57
614.032	6.28
614.366	6.25
614.7	6.52
615.035	6.53
615.369	6.12
615.703	6.65
616.037	6.42
616.371	6.1
616.705	6.12
617.039	6.3
617.373	6.22
617.707	6.03
618.041	6.22
618.375	5.9
618.709	6.16
619.042	6.21
619.376	6.59
619.71	6.48
620.043	6.27
620.377	6.27
620.71	6.78
621.043	6.15
621.377	6.18
621.71	6.28
622.043	6.35
622.376	6.01
622.709	5.97
623.043	6.53
623.376	6.24
623.709	6.41
624.041	6.68
624.374	6.06
624.707	6.08
625.04	6.27
625.373	5.87
625.705	6.32
626.038	6.26
626.37	6.25
626.703	6.23
627.035	6.21
627.368	6.42
627.7	6.48
628.032	6.08
628.365	6.46
628.697	6.33
629.029	5.97
629.361	6.12
629.693	6.06
630.025	6.32
630.357	6.62
630.689	6.32
631.021	6.05
631.353	6.46
631.684	6.25
632.016	5.97
632.348	6.35
632.679	6.52
633.011	6.26
633.342	6.72
633.674	5.84
634.005	6.63
634.336	6.24
634.668	6.57
634.999	5.92
635.33	6.29
635.661	6.34
635.992	5.92
636.323	6.42
636.654	6.42
636.985	6.17
637.316	6.04
637.647	5.96
637.977	6.42
638.308	6.51
638.639	5.38
638.969	5.67
639.3	6.15
639.63	5.77
639.961	6.26
640.291	6.29
640.622	6.39
640.952	6.31
641.282	6.76
641.612	6.31
641.943	5.98
642.273	6.53
642.603	6.37
642.933	6.68
643.263	6.73
643.592	6.27
643.922	5.88
644.252	5.96
644.582	6.05
644.911	5.92
645.241	5.87
645.571	6.18
645.9	6
646.23	6.43
646.559	6
646.888	5.96
647.218	6
647.547	6.21
647.876	5.74
648.205	6.17
648.534	6.03
648.863	5.77
649.192	6.45
649.521	6.05
649.85	5.89
650.179	6.35
650.508	6.44
650.837	5.81
651.165	5.88
651.494	5.85
651.822	6.21
652.151	5.8
652.479	6.04
652.808	5.76
653.136	6.02
653.465	5.79
653.793	6.27
654.121	6.12
654.449	6.61
654.777	6.66
655.105	6.56
655.433	5.86
655.761	6.01
656.089	6.19
656.417	6.32
656.745	6.08
657.073	5.78
657.4	6.74
657.728	6.21
658.056	5.92
658.383	6.23
658.711	6.36
659.038	6.35
659.365	6.68
659.693	6.38
660.02	6.11
660.347	6.13
660.674	6.27
661.001	6.33
661.329	5.73
661.656	6.42
661.982	6.17
662.309	6.29
662.636	5.79
662.963	6.24
663.29	6.36
663.616	6.1
663.943	5.71
664.27	6.16
664.596	6.17
664.923	6.12
665.249	6.17
665.576	6.02
665.902	6.95
666.228	6.45
666.554	6.77
666.881	5.97
667.207	6.05
667.533	6.12
667.859	6.37
668.185	6.85
668.511	5.82
668.837	4.77
669.162	6.58
669.488	5.94
669.814	5.99
670.139	6.23
670.465	6.97
670.791	6.36
671.116	7.02
671.442	6.8
671.767	6.52
672.092	6.63
672.418	6.01
672.743	6.18
673.068	6.09
673.393	6.44
673.718	6.67
674.043	6.01
674.368	5.83
674.693	7.4
675.018	6.73
675.343	5.97
675.667	6.14
675.992	6.49
676.317	6.41
676.641	6.01
676.966	7.02
677.29	5.54
677.615	6.41
677.939	6.83
678.264	6.33
678.588	6.34
678.912	6.15
679.236	6.9
679.56	5.63
679.885	6.67
680.209	5.99
680.532	6.46
680.856	6.39
681.18	6.27
681.504	6.27
681.828	6.42
682.152	6.5
682.475	6.67
682.799	6.37
683.122	6.27
683.446	6.07
683.769	6.62
684.093	5.81
684.416	6.48
684.739	6.05
685.062	6.29
685.386	6.67
685.709	6.25
686.032	6.18
686.355	6.83
686.678	5.78
687.001	6.23
687.324	6.89
687.646	5.75
687.969	6.13
688.292	6.3
688.614	5.73
688.937	7.35
689.26	6.08
689.582	6.95
689.904	5.5
690.227	6.84
690.549	6.08
690.871	7.07
691.194	6.25
691.516	6.09
691.838	6.53
