Data from 0412_forehead_Reflection__2__42.txt Node

Date: Fri Dec 15 16:42:31 CST 2023
User: ToomeyLab
Spectrometer: FLMS14357
Trigger mode: 0
Integration Time (sec): 1.000000E-2
Scans to average: 100
Electric dark correction enabled: true
Nonlinearity correction enabled: false
Boxcar width: 0
XAxis mode: Wavelengths
Number of Pixels in Spectrum: 2048
>>>>>Begin Spectral Data<<<<<
189.047	-71.53
189.435	-71.53
189.823	-71.53
190.211	-212.63
190.599	-212.13
190.987	122.63
191.375	-5.41
191.763	63.79
192.151	-89.38
192.538	110.83
192.926	-95.81
193.314	72.81
193.702	39.77
194.089	-197.18
194.477	-29.31
194.864	-293.83
195.252	32.02
195.639	99.33
196.027	-61.29
196.414	-202.87
196.801	58
197.189	275.34
197.576	151.73
197.963	26.57
198.351	17.47
198.738	7.84
199.125	79.03
199.512	61.98
199.899	91.77
200.286	53.73
200.673	21.36
201.06	1.25
201.447	52.26
201.833	56.37
202.22	40.57
202.607	60.93
202.994	17.92
203.38	26.67
203.767	61.79
204.154	57.16
204.54	48.75
204.927	0.07
205.313	-15.96
205.699	29.42
206.086	32.16
206.472	38.74
206.858	24.05
207.245	44.88
207.631	48.37
208.017	31.14
208.403	15.89
208.789	16.88
209.175	43.05
209.561	41.74
209.947	51.49
210.333	14.69
210.719	48.4
211.105	22.6
211.491	37
211.876	25.07
212.262	42.16
212.648	21.81
213.034	58.18
213.419	28.24
213.805	-10.15
214.19	28.41
214.576	51.23
214.961	28.9
215.346	11.08
215.732	13.25
216.117	32.33
216.502	6.08
216.888	21.03
217.273	62.36
217.658	21.26
218.043	24.9
218.428	5.53
218.813	-1.5
219.198	-8.45
219.583	9.25
219.968	40.08
220.353	39.94
220.738	12.25
221.122	23.91
221.507	11.32
221.892	12.13
222.276	-18.26
222.661	16.01
223.046	19.59
223.43	15.77
223.815	25.76
224.199	-6.31
224.583	11.4
224.968	23.43
225.352	19.63
225.736	15.43
226.121	-5.63
226.505	8.98
226.889	16.51
227.273	11.51
227.657	16.56
228.041	1.19
228.425	7.86
228.809	8.12
229.193	9
229.577	6.67
229.961	4.71
230.344	4.25
230.728	3.73
231.112	4.09
231.495	4.4
231.879	5.3
232.263	5.81
232.646	5.25
233.03	5.25
233.413	4.25
233.797	3.71
234.18	4.01
234.563	3.62
234.946	3.51
235.33	7.14
235.713	5.04
236.096	5.07
236.479	6.03
236.862	2.02
237.245	5.46
237.628	3.82
238.011	7.05
238.394	5.32
238.777	4.95
239.16	3.58
239.543	6.88
239.925	6.79
240.308	5.95
240.691	6.18
241.073	5.3
241.456	5.51
241.838	3.13
242.221	4.05
242.603	4.84
242.986	3.33
243.368	4.54
243.75	3.51
244.133	3.57
244.515	3.84
244.897	3.82
245.279	4.65
245.661	4.07
246.043	3.26
246.425	3.85
246.807	5.11
247.189	5.67
247.571	4.58
247.953	4.09
248.335	3.16
248.717	3.76
249.098	3.39
249.48	3.83
249.862	3.57
250.243	3.86
250.625	3.3
251.006	4.15
251.388	3.06
251.769	4.08
252.151	4.78
252.532	4.68
252.913	4.26
253.295	2.78
253.676	3.31
254.057	3.97
254.438	3.67
254.819	3.64
255.2	4.1
255.581	3.42
255.962	3.17
256.343	4.32
256.724	4.85
257.105	5
257.486	5.07
257.867	5.43
258.247	4.28
258.628	4.85
259.009	4.23
259.389	4.05
259.77	3.03
260.15	3.7
260.531	3.59
260.911	4.14
261.292	3.77
261.672	3.79
262.052	3.73
262.432	3.87
262.813	4.16
263.193	3.88
263.573	4.07
263.953	3.81
264.333	3.98
264.713	3.28
265.093	3.6
265.473	4.79
265.853	3.04
266.233	4.84
266.612	3.31
266.992	3.05
267.372	4.52
267.752	3.45
268.131	3.81
268.511	4.17
268.89	3.96
269.27	3.25
269.649	3.47
270.029	3.67
270.408	5.67
270.787	4.7
271.167	4.78
271.546	4.55
271.925	4.09
272.304	3.73
272.683	4.35
273.062	3.22
273.441	3.72
273.82	3.3
274.199	3.6
274.578	4.05
274.957	3.46
275.336	3.33
275.715	3.65
276.093	3.84
276.472	3.71
276.851	3.5
277.229	3.87
277.608	3.03
277.986	3.73
278.365	3.71
278.743	3.69
279.122	4.03
279.5	4.39
279.878	4.71
280.257	3.89
280.635	3.66
281.013	3.76
281.391	4.59
281.769	4.47
282.147	4.6
282.525	4.49
282.903	3.67
283.281	3.97
283.659	4.1
284.037	4.21
284.415	4.03
284.792	4.22
285.17	3.2
285.548	4.33
285.925	3.92
286.303	4.12
286.68	3.85
287.058	3.75
287.435	3.69
287.813	3.99
288.19	3.74
288.567	4.09
288.945	4.68
289.322	4.44
289.699	4.25
290.076	4.17
290.453	4.06
290.83	4.28
291.207	3.76
291.584	4.69
291.961	4.22
292.338	4.28
292.715	4.56
293.092	4.85
293.469	4.4
293.845	5.07
294.222	4.44
294.599	4.43
294.975	4.92
295.352	5.22
295.728	4.31
296.105	4.76
296.481	5.27
296.858	4.92
297.234	4.49
297.61	4.69
297.986	4.88
298.363	5.11
298.739	5.08
299.115	5.12
299.491	4.42
299.867	5.48
300.243	5.54
300.619	5.17
300.995	5.27
301.371	5.84
301.746	4.85
302.122	5.81
302.498	5.76
302.874	6.22
303.249	6.09
303.625	5.54
304	6.19
304.376	5.5
304.751	5.55
305.127	6.7
305.502	5.72
305.878	5.33
306.253	5.91
306.628	6.73
307.003	6.22
307.378	6.29
307.754	6.25
308.129	5.88
308.504	6.97
308.879	6.86
309.254	7.63
309.629	7.66
310.003	6.95
310.378	7.4
310.753	7.23
311.128	7.2
311.502	7.2
311.877	7.36
312.252	6.94
312.626	7.05
313.001	7.58
313.375	7.18
313.75	7.31
314.124	8.07
314.498	7.68
314.873	7.99
315.247	7.84
315.621	8.04
315.995	8.03
316.369	8.22
316.743	8.37
317.117	8.33
317.491	8.37
317.865	7.85
318.239	8.5
318.613	8.79
318.987	9.09
319.361	8.02
319.734	8.85
320.108	8.74
320.482	8.91
320.855	9.14
321.229	9.01
321.602	8.69
321.976	9.69
322.349	9.13
322.723	9.41
323.096	9.32
323.469	8.71
323.843	8.77
324.216	9.64
324.589	9.24
324.962	9.27
325.335	9.6
325.708	8.86
326.081	9.85
326.454	9.77
326.827	9.19
327.2	9.85
327.573	10.62
327.945	9.85
328.318	9.57
328.691	9.59
329.063	9.85
329.436	9.79
329.809	10.75
330.181	10.09
330.553	10.5
330.926	10.46
331.298	10.78
331.671	10.14
332.043	11.24
332.415	10.88
332.787	10.39
333.159	11.06
333.532	11.25
333.904	10.67
334.276	10.68
334.648	11.21
335.02	10.75
335.391	10.62
335.763	10.31
336.135	10.8
336.507	11.21
336.879	11.16
337.25	10.88
337.622	11.17
337.993	10.94
338.365	11.49
338.736	11.2
339.108	10.93
339.479	11.48
339.851	11.23
340.222	11.08
340.593	11.37
340.964	11.29
341.336	12.51
341.707	11.41
342.078	11.76
342.449	11.8
342.82	11.68
343.191	12.03
343.562	11.85
343.933	11.75
344.303	12.24
344.674	11.93
345.045	12.13
345.416	12.48
345.786	12.31
346.157	12.33
346.527	12.03
346.898	12.01
347.268	12.57
347.639	12.45
348.009	12.72
348.38	12.43
348.75	12.49
349.12	12.22
349.49	12.98
349.861	12.83
350.231	13.07
350.601	12.86
350.971	12.75
351.341	12.86
351.711	12.66
352.081	12.78
352.45	12.94
352.82	13.45
353.19	12.98
353.56	13.27
353.929	12.82
354.299	13
354.669	13.03
355.038	13.49
355.408	13.11
355.777	13.36
356.147	13.26
356.516	13.45
356.885	13.42
357.254	13.13
357.624	13.66
357.993	13.87
358.362	13.57
358.731	13.55
359.1	13.4
359.469	13.6
359.838	13.94
360.207	13.27
360.576	13.73
360.945	13.57
361.314	14.15
361.682	13.75
362.051	13.89
362.42	14.36
362.788	13.89
363.157	14
363.525	14.19
363.894	14.18
364.262	14.15
364.631	14.36
364.999	14.54
365.367	13.9
365.735	15.04
366.104	14.82
366.472	14.47
366.84	14.21
367.208	14.69
367.576	15.01
367.944	14.95
368.312	14.52
368.68	14.53
369.048	14.89
369.416	14.95
369.783	14.67
370.151	15.39
370.519	15.26
370.886	15.15
371.254	15.09
371.621	15.52
371.989	15.57
372.356	14.58
372.724	15.28
373.091	15.42
373.458	15.27
373.826	15.17
374.193	15.44
374.56	15.98
374.927	15.54
375.294	15.52
375.661	15.83
376.028	15.12
376.395	15.57
376.762	15.8
377.129	15.79
377.496	15.71
377.863	16.04
378.229	15.47
378.596	16.07
378.963	15.65
379.329	15.88
379.696	15.95
380.062	16.02
380.429	15.93
380.795	15.77
381.161	16.37
381.528	16.85
381.894	15.98
382.26	16.04
382.626	16.56
382.993	15.88
383.359	16.8
383.725	16.5
384.091	16.6
384.457	16.78
384.823	16.66
385.188	16.87
385.554	16.47
385.92	16.95
386.286	17.28
386.651	16.87
387.017	17.15
387.383	16.82
387.748	16.89
388.114	17.11
388.479	17.12
388.845	17.45
389.21	17.18
389.575	17.06
389.94	17.34
390.306	17.48
390.671	17.4
391.036	17.26
391.401	17.54
391.766	17.49
392.131	17.37
392.496	17.83
392.861	17.23
393.226	17.78
393.591	17.45
393.956	17.32
394.32	17.73
394.685	17.7
395.05	17.77
395.414	17.87
395.779	17.25
396.143	17.72
396.508	17.93
396.872	17.87
397.236	18.1
397.601	17.85
397.965	18.08
398.329	18.25
398.694	18.21
399.058	17.95
399.422	17.91
399.786	18.07
400.15	18.51
400.514	18.18
400.878	18.78
401.242	18.75
401.605	18.55
401.969	18.62
402.333	18.47
402.697	18.71
403.06	18.37
403.424	18.64
403.787	18.54
404.151	18.91
404.514	18.99
404.878	18.93
405.241	19.1
405.604	18.69
405.968	18.79
406.331	18.89
406.694	19.18
407.057	18.9
407.42	19.05
407.783	19.12
408.146	19.08
408.509	19.41
408.872	18.9
409.235	19.38
409.598	19.64
409.961	19.48
410.323	19.41
410.686	19.49
411.049	19.29
411.411	19.37
411.774	19.62
412.136	19.28
412.499	19.74
412.861	19.65
413.223	19.72
413.586	19.85
413.948	19.81
414.31	19.78
414.672	19.86
415.035	19.73
415.397	20.33
415.759	19.5
416.121	20.17
416.483	19.78
416.845	20.06
417.206	20.02
417.568	20.09
417.93	19.78
418.292	19.96
418.653	19.93
419.015	20
419.377	19.9
419.738	19.87
420.1	19.86
420.461	20.08
420.822	19.97
421.184	20.04
421.545	19.94
421.906	19.98
422.267	19.98
422.629	20.07
422.99	19.96
423.351	19.89
423.712	20.28
424.073	20.3
424.434	20.25
424.795	20.4
425.155	20.53
425.516	20.17
425.877	20.4
426.238	20.22
426.598	20.57
426.959	20.57
427.32	20.6
427.68	20.73
428.041	20.86
428.401	21.03
428.761	21.11
429.122	21.24
429.482	21.03
429.842	21.32
430.202	21.23
430.563	21.53
430.923	21.19
431.283	21.63
431.643	21.47
432.003	21.53
432.363	21.44
432.722	21.53
433.082	21.63
433.442	21.61
433.802	21.43
434.161	21.59
434.521	21.75
434.881	21.67
435.24	21.41
435.6	21.59
435.959	21.69
436.319	21.95
436.678	22.05
437.037	21.89
437.396	22.11
437.756	22.03
438.115	22.08
438.474	22.26
438.833	22.13
439.192	21.94
439.551	22.28
439.91	22.12
440.269	22.32
440.628	22.13
440.987	22.29
441.345	22.04
441.704	22.15
442.063	22.15
442.421	22.02
442.78	22.24
443.138	22.15
443.497	22.4
443.855	22.4
444.214	22.81
444.572	22.6
444.93	22.63
445.288	22.83
445.647	22.72
446.005	22.7
446.363	22.66
446.721	22.78
447.079	22.46
447.437	22.43
447.795	22.56
448.153	22.66
448.51	22.66
448.868	22.6
449.226	22.77
449.584	22.82
449.941	23.25
450.299	23.15
450.656	23.21
451.014	23.42
451.371	23.33
451.729	23.4
452.086	23.48
452.443	23.56
452.801	23.69
453.158	23.78
453.515	23.56
453.872	23.68
454.229	23.51
454.586	23.6
454.943	23.54
455.3	23.89
455.657	23.67
456.014	23.78
456.371	23.93
456.727	23.95
457.084	24.11
457.441	24.02
457.797	24.12
458.154	24.44
458.51	24.47
458.867	24.31
459.223	24.35
459.58	24.43
459.936	24.2
460.292	24.25
460.648	24
461.005	24.03
461.361	23.96
461.717	23.8
462.073	23.88
462.429	24.17
462.785	24.3
463.141	24.54
463.496	24.66
463.852	24.73
464.208	24.87
464.564	24.89
464.919	24.99
465.275	24.84
465.631	25.07
465.986	24.96
466.342	24.98
466.697	24.95
467.052	25.31
467.408	25.23
467.763	25
468.118	25.13
468.473	25.05
468.829	25.02
469.184	25.03
469.539	25.29
469.894	25.31
470.249	25.6
470.603	25.68
470.958	25.6
471.313	25.36
471.668	25.59
472.023	25.66
472.377	25.56
472.732	25.74
473.086	25.58
473.441	25.38
473.795	25.7
474.15	25.91
474.504	25.76
474.859	26.05
475.213	25.83
475.567	25.86
475.921	25.83
476.275	26.2
476.63	26.07
476.984	26.04
477.338	26.12
477.692	25.92
478.045	26
478.399	26.02
478.753	26.3
479.107	26.25
479.461	26.1
479.814	26.17
480.168	26.32
480.521	26.21
480.875	26.31
481.228	26.52
481.582	26.3
481.935	26.33
482.289	26.29
482.642	26.51
482.995	26.35
483.348	26.15
483.701	26.14
484.055	26.19
484.408	26.07
484.761	25.88
485.114	25.36
485.466	24.8
485.819	24.93
486.172	25.21
486.525	25.65
486.878	25.89
487.23	26.2
487.583	26.28
487.936	26.39
488.288	26.27
488.641	26
488.993	25.68
489.345	25.59
489.698	25.69
490.05	25.89
490.402	26.19
490.754	26.4
491.107	26.55
491.459	26.81
491.811	26.94
492.163	27.04
492.515	26.74
492.866	26.56
493.218	26.13
493.57	25.98
493.922	26.29
494.274	26.73
494.625	27.09
494.977	27.27
495.328	27.73
495.68	27.57
496.031	27.89
496.383	27.75
496.734	27.8
497.086	28
497.437	27.78
497.788	27.82
498.139	27.63
498.49	27.49
498.842	27.54
499.193	27.81
499.544	27.78
499.894	27.77
500.245	27.74
500.596	27.93
500.947	28.19
501.298	28.06
501.648	28.19
501.999	28.22
502.35	28.4
502.7	28.61
503.051	28.26
503.401	28.24
503.752	28.33
504.102	28.62
504.452	28.44
504.803	28.2
505.153	28.56
505.503	28.37
505.853	28.56
506.203	28.65
506.553	28.58
506.903	28.45
507.253	28.66
507.603	28.54
507.953	28.8
508.303	28.98
508.652	28.91
509.002	28.84
509.352	28.84
509.701	28.67
510.051	28.79
510.4	28.68
510.75	28.74
511.099	28.97
511.449	28.82
511.798	28.87
512.147	28.9
512.496	28.85
512.846	29.03
513.195	29.08
513.544	29.12
513.893	29.01
514.242	28.99
514.591	29.16
514.939	29.25
515.288	29.39
515.637	29.32
515.986	29.35
516.334	29.28
516.683	29.73
517.032	29.49
517.38	29.8
517.729	29.72
518.077	29.68
518.426	29.69
518.774	29.74
519.122	29.62
519.47	29.53
519.819	29.28
520.167	29.21
520.515	29.07
520.863	29.32
521.211	29.41
521.559	29.59
521.907	29.64
522.255	29.66
522.602	29.87
522.95	29.9
523.298	30.2
523.645	30.07
523.993	30.29
524.341	30.46
524.688	30.04
525.036	30.15
525.383	30.26
525.73	30.52
526.078	30.16
526.425	30.19
526.772	30.11
527.119	30.01
527.466	29.63
527.814	29.66
528.161	29.73
528.508	29.98
528.854	30.05
529.201	29.93
529.548	29.71
529.895	29.32
530.242	28.8
530.588	28.83
530.935	29.18
531.282	29.56
531.628	29.84
531.975	30.05
532.321	30.25
532.667	30.25
533.014	30.64
533.36	30.44
533.706	30.5
534.052	30.28
534.399	30.27
534.745	29.99
535.091	29.68
535.437	29.78
535.783	30.07
536.129	30.32
536.474	30.67
536.82	30.99
537.166	30.97
537.512	31.01
537.857	30.9
538.203	30.59
538.549	30.45
538.894	30.64
539.239	30.83
539.585	30.92
539.93	31.25
540.276	31.36
540.621	31.57
540.966	31.33
541.311	31.31
541.656	31.61
542.001	31.43
542.346	31.15
542.691	30.65
543.036	30.25
543.381	30.19
543.726	30.48
544.071	30.88
544.415	31.07
544.76	31.07
545.105	31.09
545.449	31.27
545.794	31.57
546.138	31.72
546.483	31.81
546.827	31.82
547.171	31.61
547.516	31.89
547.86	31.81
548.204	31.77
548.548	31.58
548.892	31.76
549.236	31.99
549.58	31.95
549.924	32.26
550.268	32.37
550.612	32.72
550.956	32.68
551.3	32.47
551.643	32.73
551.987	32.81
552.33	32.68
552.674	32.71
553.017	32.75
553.361	32.59
553.704	32.8
554.048	32.66
554.391	32.61
554.734	32.47
555.077	32.84
555.42	32.69
555.764	32.82
556.107	32.87
556.45	33.04
556.793	33.01
557.135	33.04
557.478	33.44
557.821	33.29
558.164	33.18
558.507	33.43
558.849	32.97
559.192	33.4
559.534	33.47
559.877	33.39
560.219	33.29
560.562	33.86
560.904	33.26
561.246	33.37
561.589	33.48
561.931	33.59
562.273	33.21
562.615	33.54
562.957	33.4
563.299	33.12
563.641	33.74
563.983	33.6
564.325	33.69
564.667	33.73
565.008	33.6
565.35	33.85
565.692	33.61
566.033	33.88
566.375	34
566.716	33.74
567.058	33.86
567.399	33.57
567.741	33.4
568.082	33.48
568.423	33.46
568.764	33.65
569.105	33.96
569.447	33.87
569.788	33.87
570.129	34.01
570.47	34.09
570.811	34.33
571.151	34.05
571.492	34.11
571.833	34.2
572.174	34.16
572.514	33.99
572.855	34.28
573.195	34.44
573.536	33.75
573.876	33.83
574.217	33.85
574.557	34.13
574.898	34.32
575.238	34.32
575.578	34.2
575.918	34.53
576.258	34.38
576.598	34.34
576.938	34.17
577.278	34.44
577.618	34.31
577.958	34.5
578.298	34.57
578.638	34.46
578.977	34.68
579.317	34.51
579.657	35.04
579.996	34.85
580.336	35.28
580.675	34.95
581.014	35.46
581.354	35.13
581.693	35.05
582.032	35.72
582.372	35.19
582.711	35.54
583.05	35.32
583.389	35.15
583.728	35.06
584.067	35.47
584.406	35.22
584.745	35.38
585.083	35.72
585.422	35.09
585.761	35.78
586.1	35.69
586.438	35.85
586.777	35.54
587.115	35.72
587.454	35.72
587.792	35.57
588.13	35.69
588.469	35.51
588.807	35.64
589.145	35.43
589.483	35.43
589.821	35.77
590.159	35.9
590.497	35.75
590.835	35.8
591.173	35.85
591.511	36.01
591.849	35.97
592.187	35.98
592.524	35.98
592.862	35.83
593.2	36.1
593.537	36.02
593.875	35.86
594.212	36.02
594.55	36.16
594.887	36.18
595.224	35.94
595.561	36
595.899	36.14
596.236	36.07
596.573	36.31
596.91	35.8
597.247	36.22
597.584	36.34
597.921	36.49
598.258	36.02
598.594	35.78
598.931	35.56
599.268	36.01
599.604	35.86
599.941	36.28
600.277	36.2
600.614	36.34
600.95	36.38
601.287	36.45
601.623	36.41
601.959	36.35
602.296	36.56
602.632	36.53
602.968	36.55
603.304	36.66
603.64	36.82
603.976	36.87
604.312	36.51
604.648	36.53
604.984	36.55
605.319	36.45
605.655	36.82
605.991	36.38
606.326	36.22
606.662	36.26
606.998	36.13
607.333	36.58
607.668	36.39
608.004	37.01
608.339	37.22
608.674	36.86
609.01	37.06
609.345	36.89
609.68	37.15
610.015	37.18
610.35	36.99
610.685	36.44
611.02	36.88
611.355	36.89
611.689	36.81
612.024	36.86
612.359	37.23
612.694	37.21
613.028	36.97
613.363	37.02
613.697	37.44
614.032	37.83
614.366	37.53
614.7	37.73
615.035	37.52
615.369	37.41
615.703	37.96
616.037	37.79
616.371	36.98
616.705	37.39
617.039	37.62
617.373	37.6
617.707	37.55
618.041	37.26
618.375	37.98
618.709	37.98
619.042	37.79
619.376	37.77
619.71	37.73
620.043	37.88
620.377	37.89
620.71	37.88
621.043	38.13
621.377	37.59
621.71	37.84
622.043	37.79
622.376	37.62
622.709	37.79
623.043	38.26
623.376	37.52
623.709	37.76
624.041	38.17
624.374	37.44
624.707	37.93
625.04	38.33
625.373	37.6
625.705	38.19
626.038	37.88
626.37	37.86
626.703	37.93
627.035	38
627.368	38.38
627.7	37.69
628.032	38.16
628.365	38.08
628.697	37.88
629.029	37.63
629.361	38.14
629.693	38.11
630.025	38.33
630.357	38.5
630.689	38.49
631.021	38.4
631.353	38.55
631.684	38.3
632.016	38.21
632.348	38.52
632.679	38.49
633.011	38.37
633.342	39.16
633.674	38.49
634.005	39.08
634.336	38.76
634.668	39.4
634.999	38.11
635.33	38.35
635.661	38.69
635.992	38.91
636.323	38.6
636.654	38.85
636.985	38.85
637.316	38.56
637.647	38.71
637.977	38.53
638.308	38.75
638.639	38.94
638.969	38.97
639.3	38.87
639.63	39.05
639.961	39.28
640.291	38.94
640.622	39.33
640.952	39.05
641.282	39.94
641.612	39.01
641.943	39.4
642.273	39.25
642.603	39.84
642.933	39.68
643.263	39.05
643.592	39.26
643.922	39.42
644.252	39.11
644.582	38.92
644.911	39.69
645.241	38.85
645.571	39.77
645.9	39.25
646.23	39.28
646.559	38.82
646.888	39.77
647.218	39.06
647.547	40.12
647.876	39.67
648.205	39.27
648.534	39.27
648.863	38.95
649.192	39.49
649.521	39.48
649.85	39.48
650.179	40.11
650.508	39.71
650.837	39.62
651.165	39.81
651.494	39.82
651.822	39.52
652.151	39.67
652.479	40.1
652.808	40.07
653.136	39.95
653.465	39.76
653.793	39.34
654.121	39.58
654.449	39.6
654.777	39.76
655.105	40.03
655.433	39.68
655.761	39.66
656.089	39.88
656.417	40.51
656.745	40.03
657.073	39.81
657.4	40.45
657.728	39.83
658.056	40.51
658.383	40.08
658.711	40.1
659.038	40.09
659.365	40.53
659.693	39.61
660.02	40.03
660.347	39.69
660.674	39.71
661.001	40.02
661.329	38.94
661.656	40.26
661.982	39.93
662.309	40.25
662.636	40.11
662.963	40.25
663.29	40.41
663.616	40.25
663.943	39.92
664.27	40.33
664.596	40.03
664.923	40.36
665.249	39.77
665.576	40.85
665.902	40.91
666.228	40.38
666.554	40.76
666.881	40.32
667.207	40.29
667.533	39.87
667.859	40.46
668.185	40.52
668.511	39.83
668.837	39.19
669.162	40.41
669.488	40.36
669.814	40.24
