Data from 0412_crown_Reflection__3__38.txt Node

Date: Fri Dec 15 16:41:26 CST 2023
User: ToomeyLab
Spectrometer: FLMS14357
Trigger mode: 0
Integration Time (sec): 1.000000E-2
Scans to average: 100
Electric dark correction enabled: true
Nonlinearity correction enabled: false
Boxcar width: 0
XAxis mode: Wavelengths
Number of Pixels in Spectrum: 2048
>>>>>Begin Spectral Data<<<<<
189.047	43.3
189.435	43.3
189.823	43.3
190.211	9.46
190.599	-244.76
190.987	101.6
191.375	56.27
191.763	46.67
192.151	24.24
192.538	232.18
192.926	9.9
193.314	78.55
193.702	76.68
194.089	135
194.477	-178.85
194.864	-92.36
195.252	75
195.639	132.38
196.027	83.95
196.414	-216.29
196.801	425.38
197.189	481.04
197.576	-16.49
197.963	-1.1
198.351	-93.87
198.738	2.75
199.125	9.25
199.512	22.64
199.899	43.71
200.286	-8.31
200.673	-8.87
201.06	-38.97
201.447	-14.3
201.833	15.49
202.22	48.71
202.607	51.38
202.994	1.62
203.38	20.03
203.767	53.02
204.154	11.74
204.54	39.05
204.927	-28.92
205.313	-0.88
205.699	9.98
206.086	32.51
206.472	28.81
206.858	6.62
207.245	-9.61
207.631	29.14
208.017	-9.45
208.403	24.43
208.789	3.15
209.175	42
209.561	-12.19
209.947	5.74
210.333	-17.79
210.719	2.45
211.105	55.24
211.491	-7.56
211.876	37.63
212.262	15.83
212.648	-9.04
213.034	50.74
213.419	-28.11
213.805	31.47
214.19	-1.91
214.576	17.08
214.961	-18.75
215.346	-5
215.732	33.65
216.117	-4.9
216.502	-9.93
216.888	8.82
217.273	26.25
217.658	6.64
218.043	25.89
218.428	-2.02
218.813	5.96
219.198	5.64
219.583	8.91
219.968	24.26
220.353	7.81
220.738	8.77
221.122	16.97
221.507	-26.68
221.892	-1.47
222.276	-21.34
222.661	11.03
223.046	3.13
223.43	8.41
223.815	23.87
224.199	-7.32
224.583	0.48
224.968	1.38
225.352	17.42
225.736	12.96
226.121	-0.39
226.505	6.2
226.889	9.76
227.273	9.37
227.657	10.16
228.041	5.51
228.425	8.5
228.809	8.33
229.193	9.62
229.577	5.94
229.961	6.2
230.344	6.97
230.728	8.01
231.112	7.42
231.495	7.73
231.879	6.01
232.263	6.54
232.646	7.86
233.03	6.82
233.413	6.72
233.797	7.21
234.18	5.12
234.563	7.91
234.946	5.27
235.33	7.93
235.713	9.63
236.096	6.95
236.479	9.47
236.862	5.78
237.245	8.77
237.628	7.39
238.011	7.81
238.394	8.69
238.777	7.78
239.16	6.68
239.543	5.23
239.925	10.61
240.308	7.25
240.691	8.82
241.073	6.98
241.456	7.85
241.838	7.1
242.221	6.44
242.603	7.54
242.986	8.07
243.368	7.62
243.75	7.26
244.133	7
244.515	7.47
244.897	7.42
245.279	7.57
245.661	6.42
246.043	5.96
246.425	4.75
246.807	7.44
247.189	8.12
247.571	7.57
247.953	7.29
248.335	6.8
248.717	6.87
249.098	6.86
249.48	6.95
249.862	6.66
250.243	6.81
250.625	6.75
251.006	7.27
251.388	5.68
251.769	6.23
252.151	6.81
252.532	6.39
252.913	6.09
253.295	5.43
253.676	6.41
254.057	6.88
254.438	6.69
254.819	5.62
255.2	5.67
255.581	5.23
255.962	6.61
256.343	7.51
256.724	6.21
257.105	7.34
257.486	5.72
257.867	6.87
258.247	6.16
258.628	6.94
259.009	5.69
259.389	7.2
259.77	6.72
260.15	5.38
260.531	6.16
260.911	6.81
261.292	6.49
261.672	6.38
262.052	6
262.432	6.21
262.813	6.22
263.193	5.78
263.573	5.47
263.953	5.65
264.333	6.44
264.713	6.37
265.093	5.39
265.473	5.91
265.853	5.17
266.233	6.66
266.612	4.15
266.992	4.51
267.372	6.94
267.752	5.84
268.131	5.57
268.511	6.18
268.89	6.35
269.27	5.86
269.649	4.83
270.029	5.8
270.408	6.56
270.787	6.27
271.167	6
271.546	6.49
271.925	5.7
272.304	6.01
272.683	6.53
273.062	5.42
273.441	5.58
273.82	4.97
274.199	5.73
274.578	6.4
274.957	5.8
275.336	5.76
275.715	5.34
276.093	5.38
276.472	5.57
276.851	5.31
277.229	5.8
277.608	5.11
277.986	5.47
278.365	5.81
278.743	5.32
279.122	4.89
279.5	5.94
279.878	5.91
280.257	5.93
280.635	5.22
281.013	5.47
281.391	5.63
281.769	5.98
282.147	5.43
282.525	5.89
282.903	5.21
283.281	6.16
283.659	6.24
284.037	5.89
284.415	5.73
284.792	5.98
285.17	4.44
285.548	5.55
285.925	5.79
286.303	5.92
286.68	5.36
287.058	5.38
287.435	5.45
287.813	5.92
288.19	5.2
288.567	5.33
288.945	5.85
289.322	5.42
289.699	5.29
290.076	5.2
290.453	5.44
290.83	4.91
291.207	5.1
291.584	5.58
291.961	5.54
292.338	5.18
292.715	5.49
293.092	5.15
293.469	5.13
293.845	5.25
294.222	4.98
294.599	4.91
294.975	4.75
295.352	5.18
295.728	4.44
296.105	4.62
296.481	5.27
296.858	5.19
297.234	5.19
297.61	4.78
297.986	4.85
298.363	5
298.739	4.77
299.115	5.01
299.491	4.95
299.867	5.11
300.243	5.07
300.619	4.62
300.995	5.06
301.371	5.24
301.746	4.53
302.122	5.16
302.498	4.62
302.874	5.26
303.249	5.31
303.625	4.66
304	4.89
304.376	4.87
304.751	4.75
305.127	5.28
305.502	4.72
305.878	4.66
306.253	4.15
306.628	5.22
307.003	4.67
307.378	5.16
307.754	5.45
308.129	3.5
308.504	4.35
308.879	4.25
309.254	5.24
309.629	5.08
310.003	4.82
310.378	4.88
310.753	4.85
311.128	5.15
311.502	4.12
311.877	5.51
312.252	4.24
312.626	4.66
313.001	4.35
313.375	4.87
313.75	4.19
314.124	4.66
314.498	4.59
314.873	4.59
315.247	4.64
315.621	4.85
315.995	4.3
316.369	4.91
316.743	4.3
317.117	4.85
317.491	4.62
317.865	4.55
318.239	4.44
318.613	4.89
318.987	5.34
319.361	4.11
319.734	4.64
320.108	5.18
320.482	3.88
320.855	4.6
321.229	4.25
321.602	4.22
321.976	4.74
322.349	4.3
322.723	4.31
323.096	4.51
323.469	4.11
323.843	4.66
324.216	5
324.589	4.76
324.962	4.85
325.335	4.21
325.708	4.32
326.081	3.94
326.454	4.57
326.827	4.45
327.2	4.66
327.573	4.65
327.945	4.5
328.318	4.66
328.691	3.94
329.063	4.49
329.436	3.96
329.809	4.13
330.181	4.08
330.553	4.52
330.926	4.34
331.298	4.21
331.671	3.93
332.043	4.83
332.415	4.42
332.787	4.25
333.159	5.19
333.532	4.6
333.904	4.47
334.276	5.16
334.648	4.61
335.02	4.59
335.391	4.79
335.763	4.12
336.135	4.38
336.507	5.31
336.879	4.63
337.25	4.12
337.622	4.71
337.993	4.31
338.365	4.57
338.736	4.26
339.108	4.44
339.479	4.52
339.851	4.28
340.222	4.27
340.593	4.88
340.964	4.2
341.336	5.14
341.707	4.13
342.078	4.68
342.449	4.72
342.82	4.58
343.191	4.43
343.562	4.72
343.933	4.48
344.303	4.96
344.674	4.56
345.045	4.46
345.416	4.63
345.786	3.73
346.157	4.84
346.527	4.31
346.898	3.9
347.268	4.92
347.639	4.59
348.009	4.68
348.38	4.63
348.75	4.73
349.12	4.27
349.49	4.85
349.861	5.21
350.231	4
350.601	4.88
350.971	4.6
351.341	4.58
351.711	4.92
352.081	4.86
352.45	4.52
352.82	4.91
353.19	4.46
353.56	4.53
353.929	4.66
354.299	4.3
354.669	4.43
355.038	4.53
355.408	4.76
355.777	4.61
356.147	4.44
356.516	4.54
356.885	4.54
357.254	4.8
357.624	4.73
357.993	4.8
358.362	4.14
358.731	4.75
359.1	4.77
359.469	4.87
359.838	5.01
360.207	4.35
360.576	4.79
360.945	4.61
361.314	5.09
361.682	4.6
362.051	4.47
362.42	4.89
362.788	4.63
363.157	4.71
363.525	4.84
363.894	4.92
364.262	4.68
364.631	4.72
364.999	5.01
365.367	4.23
365.735	5.25
366.104	4.76
366.472	4.99
366.84	4.43
367.208	4.76
367.576	5.23
367.944	5.18
368.312	4.28
368.68	4.56
369.048	5.08
369.416	4.73
369.783	4.48
370.151	4.85
370.519	4.83
370.886	4.96
371.254	4.44
371.621	4.84
371.989	5.1
372.356	4.19
372.724	4.92
373.091	4.64
373.458	4.71
373.826	5.06
374.193	4.73
374.56	4.97
374.927	5.05
375.294	4.87
375.661	4.41
376.028	4.78
376.395	4.68
376.762	5.07
377.129	4.6
377.496	4.85
377.863	5.03
378.229	4.6
378.596	5.12
378.963	4.84
379.329	4.57
379.696	4.96
380.062	5.01
380.429	4.95
380.795	4.49
381.161	4.97
381.528	5
381.894	4.7
382.26	4.77
382.626	5.27
382.993	4.45
383.359	5.16
383.725	4.87
384.091	4.92
384.457	5.17
384.823	5.05
385.188	5.23
385.554	5.24
385.92	5.17
386.286	5.04
386.651	5.36
387.017	5.4
387.383	5.69
387.748	4.99
388.114	5.13
388.479	5.14
388.845	5.47
389.21	5.17
389.575	5.14
389.94	5
390.306	5.36
390.671	5.15
391.036	4.74
391.401	5.02
391.766	5.18
392.131	5.02
392.496	5.21
392.861	5.05
393.226	5.26
393.591	5.23
393.956	5.02
394.32	5.34
394.685	4.93
395.05	5.16
395.414	5.2
395.779	5.04
396.143	5.05
396.508	5.05
396.872	5.2
397.236	5.07
397.601	4.72
397.965	5.41
398.329	5.13
398.694	5.33
399.058	5.39
399.422	5.25
399.786	5.55
400.15	5.33
400.514	5.13
400.878	5.16
401.242	5.48
401.605	5.51
401.969	5.61
402.333	5.26
402.697	5
403.06	5.19
403.424	4.98
403.787	5.3
404.151	5.43
404.514	5.13
404.878	5.04
405.241	5.54
405.604	5.18
405.968	5.19
406.331	5.18
406.694	5.68
407.057	5.39
407.42	5.53
407.783	5.1
408.146	5.41
408.509	5.22
408.872	5.44
409.235	5.31
409.598	5.41
409.961	5.36
410.323	5.43
410.686	5.35
411.049	5.29
411.411	5.16
411.774	5.51
412.136	5.32
412.499	5.22
412.861	5.4
413.223	5.21
413.586	5.34
413.948	5.51
414.31	5.48
414.672	5.24
415.035	5.32
415.397	5.56
415.759	5.1
416.121	5.66
416.483	5.51
416.845	5.2
417.206	5.54
417.568	5.59
417.93	5.22
418.292	5.39
418.653	5.38
419.015	5.5
419.377	5.24
419.738	5.46
420.1	5.46
420.461	5.51
420.822	5.43
421.184	5.41
421.545	5.48
421.906	5.26
422.267	5.26
422.629	5.36
422.99	5.28
423.351	5.28
423.712	5.39
424.073	5.35
424.434	5.32
424.795	5.33
425.155	5.46
425.516	5.25
425.877	5.35
426.238	5.27
426.598	5.43
426.959	5.32
427.32	5.3
427.68	5.39
428.041	5.35
428.401	5.48
428.761	5.47
429.122	5.42
429.482	5.48
429.842	5.54
430.202	5.68
430.563	5.53
430.923	5.64
431.283	5.55
431.643	5.58
432.003	5.42
432.363	5.55
432.722	5.63
433.082	5.52
433.442	5.58
433.802	5.39
434.161	5.62
434.521	5.72
434.881	5.64
435.24	5.58
435.6	5.51
435.959	5.45
436.319	5.43
436.678	5.65
437.037	5.52
437.396	5.66
437.756	5.61
438.115	5.59
438.474	5.8
438.833	5.54
439.192	5.54
439.551	5.63
439.91	5.58
440.269	5.58
440.628	5.47
440.987	5.59
441.345	5.48
441.704	5.51
442.063	5.47
442.421	5.39
442.78	5.42
443.138	5.42
443.497	5.46
443.855	5.5
444.214	5.44
444.572	5.63
444.93	5.6
445.288	5.62
445.647	5.64
446.005	5.59
446.363	5.6
446.721	5.64
447.079	5.36
447.437	5.52
447.795	5.67
448.153	5.43
448.51	5.61
448.868	5.51
449.226	5.57
449.584	5.51
449.941	5.62
450.299	5.5
450.656	5.54
451.014	5.54
451.371	5.59
451.729	5.62
452.086	5.58
452.443	5.58
452.801	5.73
453.158	5.88
453.515	5.46
453.872	5.92
454.229	5.62
454.586	5.72
454.943	5.64
455.3	5.76
455.657	5.52
456.014	5.51
456.371	5.49
456.727	5.53
457.084	5.84
457.441	5.59
457.797	5.52
458.154	5.84
458.51	5.82
458.867	5.8
459.223	5.67
459.58	5.6
459.936	5.73
460.292	5.68
460.648	5.49
461.005	5.47
461.361	5.68
461.717	5.51
462.073	5.3
462.429	5.6
462.785	5.59
463.141	5.54
463.496	5.58
463.852	5.61
464.208	5.56
464.564	5.73
464.919	5.64
465.275	5.68
465.631	5.72
465.986	5.69
466.342	5.76
466.697	5.59
467.052	5.7
467.408	5.7
467.763	5.74
468.118	5.71
468.473	5.54
468.829	5.58
469.184	5.6
469.539	5.65
469.894	5.54
470.249	5.64
470.603	5.75
470.958	5.9
471.313	5.85
471.668	5.75
472.023	5.74
472.377	5.56
472.732	5.58
473.086	5.56
473.441	5.5
473.795	5.68
474.15	5.61
474.504	5.61
474.859	5.72
475.213	5.52
475.567	5.63
475.921	5.67
476.275	5.64
476.63	5.8
476.984	5.72
477.338	5.62
477.692	5.72
478.045	5.7
478.399	5.61
478.753	5.92
479.107	5.81
479.461	5.53
479.814	5.64
480.168	5.61
480.521	5.6
480.875	5.66
481.228	5.66
481.582	5.55
481.935	5.64
482.289	5.67
482.642	5.72
482.995	5.6
483.348	5.5
483.701	5.65
484.055	5.68
484.408	5.66
484.761	5.58
485.114	5.51
485.466	5.41
485.819	5.33
486.172	5.29
486.525	5.35
486.878	5.31
487.23	5.37
487.583	5.42
487.936	5.51
488.288	5.5
488.641	5.59
488.993	5.45
489.345	5.39
489.698	5.46
490.05	5.36
490.402	5.42
490.754	5.46
491.107	5.52
491.459	5.56
491.811	5.55
492.163	5.63
492.515	5.55
492.866	5.72
493.218	5.53
493.57	5.48
493.922	5.4
494.274	5.5
494.625	5.53
494.977	5.55
495.328	5.6
495.68	5.71
496.031	5.84
496.383	5.73
496.734	5.76
497.086	5.63
497.437	5.73
497.788	5.66
498.139	5.59
498.49	5.76
498.842	5.54
499.193	5.65
499.544	5.58
499.894	5.63
500.245	5.68
500.596	5.7
500.947	5.8
501.298	5.55
501.648	5.78
501.999	5.86
502.35	5.63
502.7	5.87
503.051	5.53
503.401	5.66
503.752	5.8
504.102	5.65
504.452	5.83
504.803	5.82
505.153	5.65
505.503	5.76
505.853	5.62
506.203	5.74
506.553	5.75
506.903	5.64
507.253	5.76
507.603	5.45
507.953	5.68
508.303	5.75
508.652	5.67
509.002	5.72
509.352	5.8
509.701	5.67
510.051	5.62
510.4	5.67
510.75	5.63
511.099	5.68
511.449	5.68
511.798	5.72
512.147	5.74
512.496	5.59
512.846	5.56
513.195	5.59
513.544	5.57
513.893	5.79
514.242	5.68
514.591	5.81
514.939	5.58
515.288	5.6
515.637	5.82
515.986	5.72
516.334	5.74
516.683	5.7
517.032	5.67
517.38	5.69
517.729	5.81
518.077	5.68
518.426	5.83
518.774	5.74
519.122	5.71
519.47	5.62
519.819	5.61
520.167	5.65
520.515	5.65
520.863	5.63
521.211	5.54
521.559	5.61
521.907	5.57
522.255	5.6
522.602	5.69
522.95	5.61
523.298	5.6
523.645	5.77
523.993	5.79
524.341	5.88
524.688	5.71
525.036	5.65
525.383	5.59
525.73	5.8
526.078	5.71
526.425	5.57
526.772	5.78
527.119	5.62
527.466	5.64
527.814	5.68
528.161	5.55
528.508	5.63
528.854	5.58
529.201	5.55
529.548	5.54
529.895	5.56
530.242	5.44
530.588	5.4
530.935	5.42
531.282	5.38
531.628	5.39
531.975	5.45
532.321	5.5
532.667	5.53
533.014	5.71
533.36	5.62
533.706	5.63
534.052	5.59
534.399	5.61
534.745	5.52
535.091	5.51
535.437	5.55
535.783	5.47
536.129	5.51
536.474	5.53
536.82	5.56
537.166	5.7
537.512	5.54
537.857	5.57
538.203	5.67
538.549	5.59
538.894	5.55
539.239	5.52
539.585	5.58
539.93	5.58
540.276	5.71
540.621	5.76
540.966	5.74
541.311	5.68
541.656	5.6
542.001	5.68
542.346	5.68
542.691	5.57
543.036	5.5
543.381	5.41
543.726	5.46
544.071	5.59
544.415	5.55
544.76	5.53
545.105	5.54
545.449	5.64
545.794	5.64
546.138	5.58
546.483	5.68
546.827	5.57
547.171	5.6
547.516	5.83
547.86	5.51
548.204	5.48
548.548	5.52
548.892	5.59
549.236	5.58
549.58	5.56
549.924	5.68
550.268	5.69
550.612	5.74
550.956	5.8
551.3	5.62
551.643	5.67
551.987	5.7
552.33	5.81
552.674	5.78
553.017	5.74
553.361	5.65
553.704	5.99
554.048	5.75
554.391	5.54
554.734	5.7
555.077	5.66
555.42	5.7
555.764	5.57
556.107	5.53
556.45	5.44
556.793	5.58
557.135	5.58
557.478	5.73
557.821	5.64
558.164	5.72
558.507	5.71
558.849	5.74
559.192	5.68
559.534	5.39
559.877	5.71
560.219	5.73
560.562	6.06
560.904	5.59
561.246	5.79
561.589	5.7
561.931	5.75
562.273	5.6
562.615	5.54
562.957	5.7
563.299	5.47
563.641	5.73
563.983	5.5
564.325	5.6
564.667	5.64
565.008	5.52
565.35	5.8
565.692	5.37
566.033	5.66
566.375	5.83
566.716	5.95
567.058	5.47
567.399	5.59
567.741	5.62
568.082	5.68
568.423	5.51
568.764	5.55
569.105	5.67
569.447	5.65
569.788	5.62
570.129	5.77
570.47	5.86
570.811	5.61
571.151	5.58
571.492	5.77
571.833	5.66
572.174	5.58
572.514	5.68
572.855	5.72
573.195	5.6
573.536	5.71
573.876	5.46
574.217	5.59
574.557	5.66
574.898	5.53
575.238	5.65
575.578	5.42
575.918	5.73
576.258	5.63
576.598	5.73
576.938	5.7
577.278	5.54
577.618	5.63
577.958	5.5
578.298	5.67
578.638	5.42
578.977	5.69
579.317	5.54
579.657	5.55
579.996	5.68
580.336	5.64
580.675	5.47
581.014	5.74
581.354	5.7
581.693	5.5
582.032	5.56
582.372	5.44
582.711	5.59
583.05	5.36
583.389	5.73
583.728	5.57
584.067	5.66
584.406	5.68
584.745	5.69
585.083	5.69
585.422	5.64
585.761	5.61
586.1	5.63
586.438	5.45
586.777	5.61
587.115	5.77
587.454	5.62
587.792	5.62
588.13	5.89
588.469	5.64
588.807	5.29
589.145	5.42
589.483	5.34
589.821	5.71
590.159	5.54
590.497	5.75
590.835	5.81
591.173	5.42
591.511	5.73
591.849	5.5
592.187	5.75
592.524	5.71
592.862	5.48
593.2	5.81
593.537	5.75
593.875	5.55
594.212	5.48
594.55	5.8
594.887	5.9
595.224	5.38
595.561	5.75
595.899	5.51
596.236	5.57
596.573	5.8
596.91	5.45
597.247	5.41
597.584	5.66
597.921	5.64
598.258	5.43
598.594	5.4
598.931	5.51
599.268	5.61
599.604	5.48
599.941	5.63
600.277	5.31
600.614	5.26
600.95	5.47
601.287	5.55
601.623	5.4
601.959	5.44
602.296	5.53
602.632	5.51
602.968	5.67
603.304	5.42
603.64	5.52
603.976	5.59
604.312	5.33
604.648	5.48
604.984	5.59
605.319	5.36
605.655	5.5
605.991	5.46
606.326	5.54
606.662	5.58
606.998	5.11
607.333	5.52
607.668	5.29
608.004	5.4
608.339	5.69
608.674	5.47
609.01	5.31
609.345	5.25
609.68	5.8
610.015	5.42
610.35	5.18
610.685	5.34
611.02	5.48
611.355	5.5
611.689	5.57
612.024	5.45
612.359	5.45
612.694	5.52
613.028	5.28
613.363	5.56
613.697	5.55
614.032	5.53
614.366	5.22
614.7	5.6
615.035	5.61
615.369	5.45
615.703	5.68
616.037	5.83
616.371	5.22
616.705	5.22
617.039	5.59
617.373	5.5
617.707	5.32
618.041	5.27
618.375	5.48
618.709	5.35
619.042	5.22
619.376	5.75
619.71	5.55
620.043	5.5
620.377	5.39
620.71	5.65
621.043	5.39
621.377	5.2
621.71	5.25
622.043	5.34
622.376	5.22
622.709	5.39
623.043	5.48
623.376	5.32
623.709	5.16
624.041	5.91
624.374	5.28
624.707	5.24
625.04	5.48
625.373	5.12
625.705	5.34
626.038	5.44
626.37	5.29
626.703	5.76
627.035	5.47
627.368	5.72
627.7	5.22
628.032	5.46
628.365	5.68
628.697	5.59
629.029	5.18
629.361	5.28
629.693	5.7
630.025	5.4
630.357	5.58
630.689	5.74
631.021	5.25
631.353	5.44
631.684	5.1
632.016	5.1
632.348	5.48
632.679	5.51
633.011	5.47
633.342	5.7
633.674	5.28
634.005	5.53
634.336	5.5
634.668	5.79
634.999	5.16
635.33	5.62
635.661	5.64
635.992	5.08
636.323	5.3
636.654	5.61
636.985	5.27
637.316	5.54
637.647	5.32
637.977	5.43
638.308	5.49
638.639	5.03
638.969	5.44
639.3	4.89
639.63	5.32
639.961	5.27
640.291	5.36
640.622	5.54
640.952	5.3
641.282	5.55
641.612	5.63
641.943	5.04
642.273	5.52
642.603	5.8
642.933	5.63
643.263	5.66
643.592	4.79
643.922	5.37
644.252	5.38
644.582	5.51
644.911	5.31
645.241	5.31
645.571	5.35
645.9	4.91
646.23	5.26
646.559	5.22
646.888	5.22
647.218	5.21
647.547	5.36
647.876	5.12
648.205	5.52
648.534	5.81
648.863	5.12
649.192	5.71
649.521	5.4
649.85	5.42
650.179	5.43
650.508	5.19
650.837	5.07
651.165	5.32
651.494	5.63
651.822	5.51
652.151	5.2
652.479	5.66
652.808	5.14
653.136	5.54
653.465	5.07
653.793	4.97
654.121	4.94
654.449	5.61
654.777	5.2
655.105	5
655.433	5.08
655.761	5.28
656.089	5.62
656.417	5.51
656.745	5.2
657.073	5.53
657.4	5.96
657.728	5.37
658.056	5.08
658.383	5.14
658.711	5.08
659.038	5.91
659.365	5.74
659.693	5.35
660.02	5.24
660.347	5.52
660.674	5.47
661.001	5.28
661.329	4.51
661.656	5.28
661.982	5.5
662.309	5.63
662.636	4.96
662.963	5.57
663.29	5.35
663.616	5.34
663.943	5.05
664.27	5.59
664.596	5.81
664.923	5.43
665.249	5.51
665.576	5.77
665.902	6.29
666.228	5.8
666.554	5.46
666.881	5.4
667.207	5.25
667.533	5.61
667.859	5.42
668.185	5.73
668.511	4.56
668.837	4.65
669.162	5.3
669.488	4.7
669.814	5.7
670.139	6.12
670.465	5.69
670.791	5.29
671.116	5.56
671.442	5.55
671.767	5.58
672.092	5.81
672.418	5.47
672.743	5.67
673.068	5.16
673.393	5.87
673.718	5.92
674.043	5.26
674.368	5.62
674.693	6.5
675.018	5.07
675.343	5.42
675.667	5.69
675.992	5.91
676.317	5.65
676.641	5.26
676.966	5.71
677.29	5.23
677.615	5.98
677.939	5.7
678.264	5.89
678.588	5.93
678.912	5.88
679.236	5.89
679.56	5.51
679.885	6.17
680.209	5.1
680.532	6.01
680.856	5.7
681.18	5.02
681.504	5.92
681.828	5.98
682.152	5.26
682.475	5.64
682.799	5.59
683.122	5.78
683.446	5.54
683.769	5.59
684.093	5.18
684.416	6.32
684.739	5.2
685.062	5.12
685.386	5.61
685.709	5.49
686.032	5.14
686.355	5.82
686.678	5.05
687.001	5.64
687.324	6.1
687.646	5.2
687.969	4.74
688.292	5.33
688.614	5.96
688.937	6.59
689.26	5.39
689.582	5.76
689.904	5.59
690.227	5.47
690.549	5.68
690.871	5.28
691.194	5.96
691.516	5.54
691.838	5.41
692.16	5.62
692.482	5.78
692.804	5.34
693.126	5.57
693.448	5.43
