Data from 0412_chest_Reflection__2__32.txt Node

Date: Fri Dec 15 16:39:39 CST 2023
User: ToomeyLab
Spectrometer: FLMS14357
Trigger mode: 0
Integration Time (sec): 1.000000E-2
Scans to average: 100
Electric dark correction enabled: true
Nonlinearity correction enabled: false
Boxcar width: 0
XAxis mode: Wavelengths
Number of Pixels in Spectrum: 2048
>>>>>Begin Spectral Data<<<<<
189.047	0.2
189.435	0.2
189.823	0.2
190.211	-68.92
190.599	-228.74
190.987	122.97
191.375	169.83
191.763	-73.19
192.151	8.02
192.538	40.47
192.926	-12.59
193.314	155.41
193.702	-46.15
194.089	-236.36
194.477	-222.38
194.864	-81.17
195.252	108.89
195.639	75.89
196.027	-27.81
196.414	-329.62
196.801	117.38
197.189	726.17
197.576	18.61
197.963	82.38
198.351	-26.01
198.738	-1.39
199.125	18.48
199.512	0.99
199.899	55.78
200.286	39.33
200.673	19.62
201.06	43.31
201.447	-46.83
201.833	-11.42
202.22	40.04
202.607	-17.73
202.994	10.52
203.38	4.39
203.767	22.87
204.154	7.58
204.54	37.41
204.927	25.05
205.313	-58.91
205.699	40.19
206.086	44.09
206.472	3.14
206.858	27.72
207.245	0.77
207.631	55.28
208.017	-13.39
208.403	0.76
208.789	24.71
209.175	14.25
209.561	-12.81
209.947	79.19
210.333	-23.58
210.719	40.36
211.105	28.65
211.491	-0.3
211.876	-22.3
212.262	6.83
212.648	18.09
213.034	42.93
213.419	13.34
213.805	-7.42
214.19	7.72
214.576	31.79
214.961	-5.82
215.346	-70.33
215.732	41.54
216.117	12.62
216.502	-19.11
216.888	4.92
217.273	42.31
217.658	32.24
218.043	33.03
218.428	-7.97
218.813	0.47
219.198	2.79
219.583	5.21
219.968	26.27
220.353	-29.04
220.738	23.45
221.122	23.02
221.507	-8.79
221.892	-14.74
222.276	-4.04
222.661	6.58
223.046	7.01
223.43	14.65
223.815	9.6
224.199	-5.28
224.583	10.06
224.968	8.06
225.352	8.44
225.736	3.44
226.121	-5.74
226.505	6
226.889	9.4
227.273	-7.21
227.657	8.55
228.041	-0.93
228.425	4.95
228.809	3.94
229.193	0.97
229.577	0.2
229.961	0.41
230.344	1.13
230.728	0.28
231.112	1.17
231.495	0.96
231.879	0.67
232.263	3.27
232.646	2.23
233.03	0.79
233.413	1.07
233.797	1.43
234.18	1.65
234.563	0.24
234.946	1.72
235.33	2.59
235.713	1.85
236.096	0.42
236.479	0.44
236.862	0.6
237.245	3.19
237.628	1.03
238.011	1.98
238.394	3.35
238.777	1.93
239.16	1.62
239.543	3.69
239.925	1.76
240.308	3.14
240.691	3.84
241.073	3.09
241.456	0.69
241.838	-0.28
242.221	-0.36
242.603	2.27
242.986	1.69
243.368	0.6
243.75	1.59
244.133	1.24
244.515	1.26
244.897	0.5
245.279	1.19
245.661	0.32
246.043	-0.71
246.425	1.16
246.807	2.38
247.189	1.02
247.571	0.84
247.953	1.47
248.335	0.66
248.717	1.12
249.098	0.48
249.48	0.83
249.862	0.71
250.243	1.06
250.625	0.73
251.006	0.63
251.388	0.15
251.769	0.75
252.151	2.25
252.532	1.53
252.913	1.03
253.295	0.63
253.676	0.92
254.057	1.1
254.438	1.06
254.819	1.36
255.2	-0.09
255.581	0.4
255.962	0.26
256.343	1.24
256.724	1.42
257.105	1.37
257.486	1.59
257.867	1.3
258.247	1.15
258.628	0.37
259.009	0.53
259.389	1.14
259.77	1.11
260.15	0.29
260.531	0.61
260.911	0.95
261.292	0.55
261.672	1.17
262.052	0.79
262.432	0.98
262.813	1.08
263.193	0.41
263.573	0.27
263.953	0.5
264.333	1.14
264.713	0.92
265.093	0.46
265.473	1.56
265.853	-0.01
266.233	1.96
266.612	-0.81
266.992	0.31
267.372	1.52
267.752	0.96
268.131	1.06
268.511	1.47
268.89	1.86
269.27	0.4
269.649	-0.14
270.029	0.6
270.408	2.15
270.787	2
271.167	1.19
271.546	1.79
271.925	0.39
272.304	0.61
272.683	1.32
273.062	0.74
273.441	0.58
273.82	0.38
274.199	0.74
274.578	0.99
274.957	0.91
275.336	0.58
275.715	0.58
276.093	0.88
276.472	1.01
276.851	0.48
277.229	1
277.608	0.63
277.986	1.24
278.365	1.49
278.743	1.01
279.122	1.08
279.5	1.3
279.878	1.95
280.257	0.69
280.635	0.87
281.013	1.64
281.391	1.12
281.769	1.13
282.147	1.8
282.525	1.26
282.903	0.63
283.281	1.79
283.659	1.11
284.037	1.18
284.415	1.21
284.792	1.16
285.17	0.49
285.548	0.5
285.925	0.91
286.303	1.46
286.68	0.95
287.058	0.95
287.435	0.84
287.813	1.11
288.19	1.11
288.567	0.99
288.945	1.44
289.322	1.23
289.699	0.29
290.076	1.11
290.453	0.81
290.83	0.82
291.207	0.82
291.584	1.01
291.961	1.59
292.338	1.33
292.715	1.49
293.092	1.47
293.469	1.7
293.845	1.28
294.222	0.46
294.599	1
294.975	0.82
295.352	1.38
295.728	0.7
296.105	1.33
296.481	1.2
296.858	0.81
297.234	1.11
297.61	0.92
297.986	1
298.363	1.37
298.739	1.02
299.115	1.08
299.491	1.07
299.867	0.97
300.243	1.27
300.619	0.76
300.995	1.72
301.371	1.17
301.746	0.29
302.122	1.48
302.498	1.13
302.874	1.38
303.249	1.55
303.625	1.02
304	1.16
304.376	1.3
304.751	0.63
305.127	1.92
305.502	0.34
305.878	0.34
306.253	0.95
306.628	2.04
307.003	1.64
307.378	1.95
307.754	1.3
308.129	0.18
308.504	0.99
308.879	1.42
309.254	2.15
309.629	1.9
310.003	1.62
310.378	1.74
310.753	1.36
311.128	1.45
311.502	1.23
311.877	1.66
312.252	0.72
312.626	1.24
313.001	1.14
313.375	1.64
313.75	0.96
314.124	1.16
314.498	1.04
314.873	0.72
315.247	0.97
315.621	0.88
315.995	0.81
316.369	0.75
316.743	0.9
317.117	1.58
317.491	0.89
317.865	1.47
318.239	1.44
318.613	1.95
318.987	1.98
319.361	1.14
319.734	1.43
320.108	1.52
320.482	1.55
320.855	1.21
321.229	1.58
321.602	1.4
321.976	1.33
322.349	1.16
322.723	1.65
323.096	1.9
323.469	1.17
323.843	1.26
324.216	1.93
324.589	1.12
324.962	1.36
325.335	1.18
325.708	1.44
326.081	1.15
326.454	1.27
326.827	1.03
327.2	1.79
327.573	1.65
327.945	1.42
328.318	1.37
328.691	1.01
329.063	1.57
329.436	1.22
329.809	1.21
330.181	0.82
330.553	1.2
330.926	1.28
331.298	1.26
331.671	1.54
332.043	2.15
332.415	1.39
332.787	1.69
333.159	2.43
333.532	2.45
333.904	1.28
334.276	1.55
334.648	1.76
335.02	1.58
335.391	1.88
335.763	1.52
336.135	1.33
336.507	2.3
336.879	1.23
337.25	1.5
337.622	1.88
337.993	1.73
338.365	1.81
338.736	1.34
339.108	1.93
339.479	1.63
339.851	1.6
340.222	1.4
340.593	1.39
340.964	0.99
341.336	2.23
341.707	0.73
342.078	1.72
342.449	1.78
342.82	1.65
343.191	1.74
343.562	1.51
343.933	1.59
344.303	1.77
344.674	1.5
345.045	1.36
345.416	2.15
345.786	0.94
346.157	1.65
346.527	1.14
346.898	1.35
347.268	1.46
347.639	1.9
348.009	1.63
348.38	1.26
348.75	1.53
349.12	1.57
349.49	2.43
349.861	1.61
350.231	1.4
350.601	1.52
350.971	1.71
351.341	1.42
351.711	1.71
352.081	1.88
352.45	1.29
352.82	1.8
353.19	1.64
353.56	1.45
353.929	1.93
354.299	1.79
354.669	1.32
355.038	1.86
355.408	1.47
355.777	1.76
356.147	1.47
356.516	1.26
356.885	1.72
357.254	1.63
357.624	1.64
357.993	1.53
358.362	1.1
358.731	1.21
359.1	1.64
359.469	1.53
359.838	1.36
360.207	1.06
360.576	1.35
360.945	1.44
361.314	2.1
361.682	1.6
362.051	1.49
362.42	1.8
362.788	1.87
363.157	1.42
363.525	1.72
363.894	1.82
364.262	1.65
364.631	1.64
364.999	1.69
365.367	1.39
365.735	2.55
366.104	1.81
366.472	1.68
366.84	1.46
367.208	1.49
367.576	1.57
367.944	1.88
368.312	1.5
368.68	1.63
369.048	1.62
369.416	1.74
369.783	1.22
370.151	1.62
370.519	2.17
370.886	1.88
371.254	1.47
371.621	1.86
371.989	2.12
372.356	1.25
372.724	1.91
373.091	1.26
373.458	1.52
373.826	1.64
374.193	1.41
374.56	1.86
374.927	1.95
375.294	1.78
375.661	1.46
376.028	1.35
376.395	1.53
376.762	2.15
377.129	1.68
377.496	1.57
377.863	1.44
378.229	1.24
378.596	1.76
378.963	1.77
379.329	1.38
379.696	1.63
380.062	1.69
380.429	1.42
380.795	1.59
381.161	1.84
381.528	1.93
381.894	1.58
382.26	1.54
382.626	1.84
382.993	1.46
383.359	1.96
383.725	1.88
384.091	1.73
384.457	1.91
384.823	1.67
385.188	1.72
385.554	1.77
385.92	1.85
386.286	1.84
386.651	2
387.017	1.91
387.383	1.67
387.748	1.63
388.114	2.07
388.479	1.5
388.845	1.68
389.21	1.77
389.575	1.61
389.94	1.57
390.306	1.78
390.671	1.71
391.036	1.56
391.401	1.58
391.766	1.86
392.131	1.65
392.496	1.74
392.861	1.55
393.226	1.73
393.591	1.68
393.956	1.7
394.32	1.8
394.685	1.65
395.05	1.75
395.414	1.78
395.779	1.45
396.143	1.66
396.508	1.75
396.872	1.81
397.236	1.91
397.601	1.47
397.965	1.84
398.329	1.86
398.694	1.81
399.058	1.95
399.422	1.43
399.786	1.96
400.15	1.72
400.514	1.87
400.878	1.88
401.242	1.95
401.605	1.92
401.969	1.92
402.333	1.63
402.697	1.92
403.06	1.89
403.424	1.97
403.787	1.65
404.151	2.17
404.514	1.72
404.878	1.57
405.241	2.12
405.604	1.71
405.968	1.99
406.331	1.75
406.694	2.05
407.057	1.53
407.42	2.21
407.783	1.65
408.146	1.83
408.509	1.74
408.872	1.78
409.235	1.78
409.598	2.39
409.961	1.97
410.323	2.26
410.686	1.79
411.049	1.63
411.411	1.68
411.774	1.78
412.136	1.9
412.499	1.72
412.861	1.88
413.223	1.75
413.586	2.07
413.948	2.03
414.31	1.81
414.672	1.84
415.035	1.71
415.397	2.11
415.759	1.63
416.121	1.8
416.483	1.88
416.845	1.85
417.206	2.06
417.568	2.11
417.93	1.74
418.292	1.85
418.653	1.81
419.015	1.84
419.377	1.98
419.738	1.94
420.1	1.89
420.461	1.87
420.822	1.89
421.184	1.92
421.545	1.99
421.906	1.77
422.267	1.79
422.629	1.88
422.99	1.82
423.351	1.69
423.712	1.78
424.073	1.86
424.434	1.82
424.795	1.76
425.155	1.84
425.516	1.68
425.877	1.86
426.238	1.8
426.598	1.9
426.959	1.79
427.32	1.8
427.68	1.86
428.041	1.72
428.401	1.79
428.761	1.88
429.122	1.95
429.482	1.67
429.842	2.06
430.202	1.93
430.563	2
430.923	1.81
431.283	1.92
431.643	1.91
432.003	1.76
432.363	2.07
432.722	2.03
433.082	1.93
433.442	1.85
433.802	1.91
434.161	1.82
434.521	2.07
434.881	1.94
435.24	1.71
435.6	1.96
435.959	1.85
436.319	1.76
436.678	1.99
437.037	1.74
437.396	2.1
437.756	2.19
438.115	1.9
438.474	2.18
438.833	1.62
439.192	1.95
439.551	2.05
439.91	2.05
440.269	2.07
440.628	1.73
440.987	1.87
441.345	1.83
441.704	1.94
442.063	1.96
442.421	1.83
442.78	1.88
443.138	1.87
443.497	1.89
443.855	2.03
444.214	1.95
444.572	1.9
444.93	1.9
445.288	2
445.647	2.12
446.005	1.99
446.363	2.06
446.721	2.01
447.079	1.82
447.437	1.91
447.795	1.95
448.153	1.92
448.51	1.97
448.868	1.91
449.226	1.87
449.584	1.99
449.941	2.07
450.299	2
450.656	1.96
451.014	2
451.371	2.04
451.729	1.82
452.086	2.21
452.443	2.1
452.801	2.25
453.158	2.18
453.515	1.84
453.872	2.18
454.229	2.09
454.586	2.02
454.943	2.01
455.3	2.13
455.657	2.02
456.014	1.94
456.371	1.91
456.727	1.9
457.084	2.19
457.441	1.96
457.797	1.98
458.154	2.19
458.51	2.2
458.867	1.95
459.223	2.12
459.58	2.08
459.936	2.18
460.292	2.05
460.648	2.11
461.005	2.07
461.361	2.11
461.717	2.09
462.073	2
462.429	2.06
462.785	2.06
463.141	2.07
463.496	2.04
463.852	2.13
464.208	2.22
464.564	2.23
464.919	2.14
465.275	2.02
465.631	2.23
465.986	2.12
466.342	2.11
466.697	2.14
467.052	2.22
467.408	2.21
467.763	2.29
468.118	2.06
468.473	2.09
468.829	2.23
469.184	2.18
469.539	2.16
469.894	1.98
470.249	2.51
470.603	2.14
470.958	2.25
471.313	2.25
471.668	2.2
472.023	2.23
472.377	2.19
472.732	2.17
473.086	2.22
473.441	1.97
473.795	2.32
474.15	2.21
474.504	2.1
474.859	2.2
475.213	2.06
475.567	2.05
475.921	2.36
476.275	2.33
476.63	2.14
476.984	2.2
477.338	2.32
477.692	2.12
478.045	2.11
478.399	2.05
478.753	2.46
479.107	2.17
479.461	2.19
479.814	2.1
480.168	2.18
480.521	2.2
480.875	2.22
481.228	2.17
481.582	2.1
481.935	2.21
482.289	2.04
482.642	2.24
482.995	2.15
483.348	1.96
483.701	2.24
484.055	2.25
484.408	2.25
484.761	2.12
485.114	2.07
485.466	2.03
485.819	2.05
486.172	2.05
486.525	2.02
486.878	2.09
487.23	2.12
487.583	2.13
487.936	2.16
488.288	2.11
488.641	2.2
488.993	2.06
489.345	2.08
489.698	2.1
490.05	2.07
490.402	2.13
490.754	2.09
491.107	2.14
491.459	2.19
491.811	2.27
492.163	2.23
492.515	2.14
492.866	2.19
493.218	2.16
493.57	2.18
493.922	2.11
494.274	2.17
494.625	2.25
494.977	2.27
495.328	2.33
495.68	2.27
496.031	2.32
496.383	2.21
496.734	2.44
497.086	2.47
497.437	2.4
497.788	2.37
498.139	2.35
498.49	2.34
498.842	2.2
499.193	2.25
499.544	2.32
499.894	2.17
500.245	2.32
500.596	2.35
500.947	2.29
501.298	2.25
501.648	2.4
501.999	2.52
502.35	2.35
502.7	2.25
503.051	2.25
503.401	2.28
503.752	2.41
504.102	2.31
504.452	2.35
504.803	2.4
505.153	2.46
505.503	2.39
505.853	2.42
506.203	2.32
506.553	2.31
506.903	2.37
507.253	2.45
507.603	2.32
507.953	2.54
508.303	2.55
508.652	2.35
509.002	2.5
509.352	2.3
509.701	2.37
510.051	2.34
510.4	2.38
510.75	2.44
511.099	2.48
511.449	2.42
511.798	2.37
512.147	2.5
512.496	2.41
512.846	2.51
513.195	2.38
513.544	2.47
513.893	2.49
514.242	2.43
514.591	2.63
514.939	2.36
515.288	2.37
515.637	2.52
515.986	2.4
516.334	2.52
516.683	2.58
517.032	2.52
517.38	2.55
517.729	2.6
518.077	2.42
518.426	2.67
518.774	2.66
519.122	2.57
519.47	2.45
519.819	2.33
520.167	2.49
520.515	2.46
520.863	2.47
521.211	2.55
521.559	2.63
521.907	2.49
522.255	2.49
522.602	2.6
522.95	2.49
523.298	2.62
523.645	2.72
523.993	2.56
524.341	2.78
524.688	2.71
525.036	2.51
525.383	2.58
525.73	2.8
526.078	2.57
526.425	2.5
526.772	2.76
527.119	2.74
527.466	2.57
527.814	2.52
528.161	2.53
528.508	2.61
528.854	2.59
529.201	2.63
529.548	2.56
529.895	2.61
530.242	2.47
530.588	2.51
530.935	2.52
531.282	2.54
531.628	2.57
531.975	2.59
532.321	2.65
532.667	2.75
533.014	2.69
533.36	2.71
533.706	2.68
534.052	2.75
534.399	2.64
534.745	2.66
535.091	2.62
535.437	2.66
535.783	2.69
536.129	2.68
536.474	2.72
536.82	2.72
537.166	2.8
537.512	2.74
537.857	2.69
538.203	2.84
538.549	2.73
538.894	2.79
539.239	2.87
539.585	2.73
539.93	2.72
540.276	2.93
540.621	2.86
540.966	2.81
541.311	2.85
541.656	2.78
542.001	2.88
542.346	2.9
542.691	2.72
543.036	2.75
543.381	2.75
543.726	2.74
544.071	2.86
544.415	2.81
544.76	2.85
545.105	2.88
545.449	2.84
545.794	2.98
546.138	2.93
546.483	2.91
546.827	2.99
547.171	2.93
547.516	3.1
547.86	2.99
548.204	2.94
548.548	2.89
548.892	3.04
549.236	2.95
549.58	2.94
549.924	3
550.268	3.1
550.612	3.18
550.956	3.37
551.3	3.12
551.643	3.4
551.987	3.34
552.33	3.1
552.674	3.27
553.017	3.23
553.361	3.15
553.704	3.37
554.048	3.06
554.391	3.26
554.734	3.34
555.077	3.24
555.42	3.14
555.764	3.15
556.107	3.2
556.45	3.15
556.793	3.3
557.135	3.38
557.478	3.36
557.821	3.21
558.164	3.25
558.507	3.39
558.849	3.22
559.192	3.25
559.534	3.18
559.877	3.41
560.219	3.22
560.562	3.47
560.904	3.36
561.246	3.33
561.589	3.55
561.931	3.33
562.273	3.26
562.615	3.54
562.957	3.59
563.299	3.41
563.641	3.61
563.983	3.51
564.325	3.37
564.667	3.37
565.008	3.55
565.35	3.5
565.692	3.29
566.033	3.41
566.375	3.85
566.716	3.78
567.058	3.53
567.399	3.58
567.741	3.4
568.082	3.59
568.423	3.59
568.764	3.51
569.105	3.65
569.447	3.63
569.788	3.59
570.129	3.73
570.47	3.58
570.811	3.77
571.151	3.72
571.492	3.82
571.833	3.61
572.174	3.8
572.514	3.75
572.855	3.69
573.195	3.84
573.536	3.66
573.876	3.75
574.217	3.78
574.557	3.86
574.898	3.86
575.238	4.08
575.578	3.79
575.918	4.03
576.258	3.87
576.598	4
576.938	3.77
577.278	3.84
577.618	3.91
577.958	3.88
578.298	3.79
578.638	3.86
578.977	3.99
579.317	3.9
579.657	4.11
579.996	4.02
580.336	4.1
580.675	4.1
581.014	4.11
581.354	4.17
581.693	4.24
582.032	4.19
582.372	4.19
582.711	4.2
583.05	4.13
583.389	4.26
583.728	3.98
584.067	4.2
584.406	4.41
584.745	4.18
585.083	4.18
585.422	4.33
585.761	4.28
586.1	4.34
586.438	4.17
586.777	4.56
587.115	4.4
587.454	4.39
587.792	4.23
588.13	4.56
588.469	4.42
588.807	4.37
589.145	3.96
589.483	4.29
589.821	4.3
590.159	4.39
590.497	4.72
590.835	4.83
591.173	4.41
591.511	4.68
591.849	4.53
592.187	4.82
592.524	4.64
592.862	4.68
593.2	4.77
593.537	4.33
593.875	4.4
594.212	4.64
594.55	4.51
594.887	5.01
595.224	4.62
595.561	4.45
595.899	4.75
596.236	4.55
596.573	5.15
596.91	4.46
597.247	4.59
597.584	4.99
597.921	4.9
598.258	4.59
598.594	4.72
598.931	4.69
599.268	4.8
599.604	4.72
599.941	4.87
600.277	4.75
600.614	4.95
600.95	4.8
601.287	5.03
601.623	4.73
601.959	4.93
602.296	5.05
602.632	4.61
602.968	4.95
603.304	5.17
603.64	4.98
603.976	5.32
604.312	5.1
604.648	4.97
604.984	5.16
605.319	5.14
605.655	5.17
605.991	5
606.326	5.2
606.662	5
606.998	4.89
607.333	5.07
607.668	5.15
608.004	5.17
608.339	5.45
608.674	5.31
609.01	5.2
609.345	5.21
609.68	5.46
610.015	5.25
610.35	5.36
610.685	5.47
611.02	5.5
611.355	5.46
611.689	5.39
612.024	5.42
612.359	5.47
612.694	5.48
613.028	5.24
613.363	5.79
613.697	5.79
614.032	5.64
614.366	5.49
614.7	5.94
615.035	6.17
615.369	5.26
615.703	5.98
616.037	5.8
616.371	5.28
616.705	5.5
617.039	5.34
617.373	5.66
617.707	5.75
618.041	5.88
618.375	5.65
618.709	5.98
619.042	5.72
619.376	5.88
619.71	6.01
620.043	5.72
620.377	5.61
620.71	5.98
621.043	5.88
621.377	5.83
621.71	5.97
622.043	5.72
622.376	6
622.709	5.84
623.043	6.23
623.376	6.03
623.709	5.7
624.041	6.15
624.374	6.05
624.707	6.13
625.04	6.12
625.373	5.71
625.705	6.13
626.038	5.91
626.37	5.81
626.703	6.24
627.035	6.27
627.368	6.54
627.7	6.39
628.032	5.87
628.365	6.38
628.697	6.45
629.029	6.09
629.361	6.52
629.693	6.68
630.025	6.11
630.357	6.61
630.689	6.63
631.021	6.55
631.353	6.71
631.684	6.51
632.016	6.16
632.348	6.81
632.679	6.56
633.011	7.01
633.342	6.79
633.674	6.62
634.005	7.1
634.336	6.79
634.668	7.18
634.999	6.54
635.33	6.91
635.661	6.95
635.992	7.01
636.323	6.78
636.654	7.32
636.985	6.72
637.316	6.99
637.647	6.62
637.977	6.94
638.308	7.19
638.639	6.69
638.969	6.71
639.3	6.79
639.63	6.71
639.961	7.27
640.291	6.97
640.622	7.36
640.952	6.81
641.282	7.05
641.612	7.29
641.943	7.06
642.273	7.42
642.603	7.47
642.933	7.01
643.263	6.97
643.592	7.17
643.922	7.28
644.252	7.32
644.582	7.51
644.911	7.08
645.241	7.41
645.571	7.5
645.9	7.09
646.23	7.55
646.559	7.42
646.888	7.17
647.218	7.57
647.547	7.78
647.876	7.39
648.205	7.59
648.534	7.63
648.863	7.79
649.192	7.79
649.521	7.3
649.85	7.23
650.179	7.79
650.508	7.43
650.837	6.99
651.165	7.78
651.494	8.23
651.822	7.91
652.151	7.51
652.479	7.96
652.808	7.39
653.136	8.06
653.465	7.68
653.793	7.5
654.121	7.16
654.449	7.94
654.777	8.14
655.105	7.91
655.433	7.62
655.761	7.98
656.089	8.42
656.417	8.32
656.745	8.01
657.073	7.81
657.4	8.9
657.728	7.82
658.056	8.21
658.383	8.24
658.711	8.8
659.038	8.05
659.365	8.91
659.693	8.44
660.02	8.07
660.347	8.03
660.674	8.46
661.001	8.53
661.329	7.93
661.656	8.57
661.982	8.65
662.309	8.38
662.636	7.99
662.963	8.74
663.29	8.7
663.616	8.99
663.943	8.05
664.27	8.58
664.596	9.08
664.923	8.78
665.249	8.9
665.576	8.34
665.902	9.19
666.228	9.21
666.554	8.9
666.881	8.9
667.207	9.29
667.533	8.96
667.859	9.06
668.185	8.95
668.511	8.74
668.837	8.08
669.162	9.04
669.488	8.11
669.814	9.53
670.139	8.98
670.465	9.28
670.791	9.56
671.116	9.82
671.442	8.59
671.767	9.11
672.092	9.71
672.418	9.34
672.743	9.29
673.068	8.71
673.393	8.9
673.718	9.5
674.043	9.2
674.368	8.63
674.693	9.61
675.018	9.42
675.343	9.45
675.667	9.2
675.992	9.77
676.317	9.4
676.641	9.23
676.966	9.44
677.29	9.07
677.615	9.58
677.939	9.74
678.264	10.66
678.588	9.88
678.912	9.75
679.236	10.08
679.56	9.07
679.885	9.74
680.209	10
680.532	9.44
680.856	10.89
681.18	9.71
681.504	9.52
681.828	10.25
682.152	9.51
682.475	10.12
682.799	9.93
683.122	10.2
683.446	10.08
683.769	10.78
684.093	10.15
684.416	10.24
684.739	9.81
685.062	9.96
685.386	10.64
685.709	10.39
686.032	10.75
686.355	10.85
686.678	9.81
687.001	10.89
687.324	10.81
687.646	10.59
687.969	10.01
688.292	10.19
688.614	9.94
688.937	11.29
689.26	10.33
689.582	10.14
689.904	10.69
690.227	10.39
690.549	10.52
690.871	10.97
691.194	9.91
691.516	9.57
691.838	11.26
692.16	9.78
692.482	10.66
