Data from 0141_crown_Reflection__3__08.txt Node

Date: Fri Sep 22 20:25:29 CDT 2023
User: ToomeyLab
Spectrometer: FLMS14357
Trigger mode: 0
Integration Time (sec): 1.000000E-2
Scans to average: 100
Electric dark correction enabled: true
Nonlinearity correction enabled: false
Boxcar width: 0
XAxis mode: Wavelengths
Number of Pixels in Spectrum: 2048
>>>>>Begin Spectral Data<<<<<
189.047	210.17
189.435	210.17
189.823	210.17
190.211	35.06
190.599	328.72
190.987	-267.92
191.375	-79.01
191.763	0.76
192.151	116.73
192.538	-1052.08
192.926	23.27
193.314	-17.75
193.702	-172.92
194.089	244.04
194.477	-473.52
194.864	49.43
195.252	-44.16
195.639	2.88
196.027	68.55
196.414	421.56
196.801	1014.11
197.189	957.81
197.576	57.73
197.963	-194.53
198.351	-19.14
198.738	-21.65
199.125	-4.87
199.512	-28.33
199.899	48.56
200.286	-0.43
200.673	42.53
201.06	40.61
201.447	18.8
201.833	-185.13
202.22	49.44
202.607	8.26
202.994	24.23
203.38	-5.9
203.767	4
204.154	29.91
204.54	30.12
204.927	-54.24
205.313	-0.6
205.699	31.57
206.086	54.47
206.472	38.05
206.858	35.65
207.245	-42.67
207.631	22.12
208.017	10.98
208.403	-21.57
208.789	2.48
209.175	25.29
209.561	71.68
209.947	38.06
210.333	16.12
210.719	-12.17
211.105	31.64
211.491	-3.68
211.876	22.83
212.262	54.27
212.648	6.46
213.034	29.35
213.419	11.69
213.805	-6.74
214.19	-9.79
214.576	24.99
214.961	2.46
215.346	-17.43
215.732	31.58
216.117	12.16
216.502	44.14
216.888	38.88
217.273	26.44
217.658	20.86
218.043	22.45
218.428	29.32
218.813	-6.09
219.198	27.14
219.583	8.39
219.968	2.02
220.353	35.4
220.738	1.24
221.122	1.78
221.507	4.57
221.892	11.57
222.276	16.22
222.661	-3.21
223.046	13.37
223.43	16.5
223.815	14.18
224.199	2.44
224.583	10
224.968	14.05
225.352	3.52
225.736	11.77
226.121	2.23
226.505	10.84
226.889	8.48
227.273	3.63
227.657	12.23
228.041	-0.44
228.425	6.64
228.809	3.17
229.193	6.88
229.577	7.62
229.961	7.48
230.344	5.94
230.728	4.92
231.112	6.17
231.495	4.88
231.879	5.76
232.263	4.39
232.646	4.8
233.03	4.38
233.413	5.95
233.797	6.42
234.18	6.6
234.563	7.9
234.946	6.44
235.33	4.28
235.713	4.78
236.096	5.12
236.479	4.09
236.862	6.28
237.245	3.64
237.628	7.8
238.011	5.52
238.394	5.1
238.777	5.96
239.16	5.55
239.543	7.77
239.925	5.75
240.308	5.27
240.691	4.78
241.073	6.03
241.456	5.64
241.838	3.57
242.221	4.38
242.603	5.36
242.986	4.99
243.368	4.37
243.75	5.22
244.133	5.28
244.515	4.9
244.897	4.51
245.279	4.98
245.661	4.76
246.043	5.23
246.425	4.31
246.807	5.46
247.189	3.58
247.571	5.41
247.953	5.2
248.335	5.09
248.717	4.71
249.098	4.43
249.48	4.46
249.862	4.51
250.243	4.4
250.625	4.53
251.006	4.29
251.388	4.7
251.769	4.92
252.151	3.88
252.532	3.85
252.913	4.18
253.295	5.29
253.676	4.37
254.057	4.37
254.438	4.89
254.819	4.3
255.2	4.82
255.581	4.91
255.962	5.69
256.343	4.61
256.724	4.3
257.105	5.15
257.486	5.06
257.867	4.52
258.247	4.83
258.628	4.5
259.009	5.13
259.389	3.76
259.77	4.42
260.15	4.72
260.531	4.27
260.911	4.05
261.292	3.99
261.672	3.9
262.052	4.07
262.432	4.1
262.813	4.49
263.193	4.14
263.573	4.58
263.953	4.43
264.333	4.01
264.713	4.18
265.093	3.66
265.473	4.25
265.853	3.99
266.233	4.31
266.612	3.65
266.992	3.6
267.372	4.74
267.752	4.43
268.131	4.34
268.511	4.28
268.89	4.61
269.27	4.25
269.649	3.95
270.029	4.32
270.408	4.23
270.787	3.7
271.167	4.09
271.546	3.3
271.925	4.15
272.304	4.13
272.683	4.24
273.062	4.9
273.441	3.96
273.82	4.2
274.199	4.31
274.578	3.91
274.957	3.66
275.336	4.13
275.715	3.92
276.093	3.68
276.472	3.74
276.851	3.96
277.229	3.55
277.608	4.61
277.986	4.14
278.365	4.17
278.743	3.93
279.122	4.24
279.5	4.44
279.878	3.77
280.257	4.26
280.635	3.73
281.013	3.99
281.391	3.45
281.769	4.02
282.147	4.43
282.525	3.8
282.903	3.99
283.281	3.87
283.659	3.87
284.037	3.6
284.415	3.98
284.792	3.68
285.17	3.77
285.548	4.14
285.925	3.77
286.303	3.88
286.68	3.7
287.058	3.32
287.435	3.83
287.813	3.67
288.19	3.39
288.567	3.74
288.945	3.9
289.322	4.12
289.699	4.02
290.076	3.72
290.453	3.58
290.83	3.66
291.207	3.85
291.584	3.42
291.961	3.6
292.338	3.49
292.715	3.88
293.092	3.79
293.469	3.61
293.845	3.69
294.222	4.04
294.599	4.22
294.975	4.17
295.352	3.88
295.728	3.72
296.105	4.26
296.481	3.57
296.858	3.75
297.234	3.75
297.61	3.68
297.986	3.35
298.363	3.79
298.739	3.66
299.115	3.64
299.491	3.89
299.867	3.77
300.243	3.6
300.619	3.56
300.995	3.49
301.371	3.81
301.746	3.96
302.122	3.6
302.498	3.76
302.874	3.36
303.249	3.74
303.625	3.53
304	4.01
304.376	4.01
304.751	3.8
305.127	3.68
305.502	4.21
305.878	3.79
306.253	3.82
306.628	3.03
307.003	4.03
307.378	3.36
307.754	3.78
308.129	3.55
308.504	3.31
308.879	3.99
309.254	3.96
309.629	3.53
310.003	4.16
310.378	4.24
310.753	4.18
311.128	3.91
311.502	3.64
311.877	3.27
312.252	3.65
312.626	3.86
313.001	4.09
313.375	3.77
313.75	3.71
314.124	4.29
314.498	3.42
314.873	3.9
315.247	4.36
315.621	3.53
315.995	3.61
316.369	3.5
316.743	3.16
317.117	3.58
317.491	4.2
317.865	3.31
318.239	4.06
318.613	4.09
318.987	3.61
319.361	3.45
319.734	4
320.108	4.19
320.482	3.21
320.855	3.36
321.229	4.3
321.602	4.15
321.976	3.61
322.349	3.78
322.723	4.4
323.096	3.23
323.469	3.73
323.843	3.59
324.216	4.07
324.589	3.66
324.962	3.64
325.335	3.81
325.708	3.59
326.081	4.29
326.454	3.29
326.827	3.58
327.2	3.15
327.573	3.93
327.945	3.53
328.318	3.88
328.691	4.16
329.063	3.88
329.436	4.02
329.809	3.94
330.181	3.7
330.553	3.7
330.926	3.71
331.298	4.22
331.671	3.85
332.043	3.27
332.415	3.53
332.787	3.95
333.159	3.54
333.532	3.55
333.904	3.71
334.276	3.55
334.648	3.46
335.02	3.81
335.391	4.04
335.763	4.31
336.135	3.59
336.507	3.74
336.879	3.61
337.25	3.83
337.622	3.76
337.993	3.66
338.365	4.23
338.736	3.6
339.108	3.88
339.479	3.59
339.851	3.28
340.222	3.41
340.593	3.48
340.964	3.28
341.336	3.53
341.707	3.63
342.078	3.9
342.449	3.76
342.82	3.47
343.191	3.44
343.562	3.47
343.933	3.86
344.303	3.82
344.674	3.55
345.045	3.84
345.416	3.78
345.786	3.4
346.157	3.59
346.527	3.64
346.898	3.86
347.268	3.73
347.639	3.62
348.009	3.99
348.38	3.81
348.75	4.19
349.12	3.6
349.49	4.06
349.861	3.84
350.231	3.89
350.601	3.81
350.971	4.03
351.341	3.84
351.711	3.81
352.081	3.7
352.45	3.62
352.82	4.02
353.19	4.18
353.56	3.91
353.929	3.78
354.299	4.09
354.669	3.39
355.038	4.03
355.408	3.96
355.777	4.07
356.147	3.56
356.516	3.82
356.885	3.65
357.254	4.25
357.624	3.3
357.993	3.78
358.362	3.81
358.731	3.65
359.1	4.06
359.469	3.6
359.838	3.58
360.207	3.77
360.576	3.99
360.945	3.67
361.314	3.62
361.682	4.06
362.051	3.82
362.42	3.69
362.788	3.7
363.157	4.03
363.525	3.94
363.894	3.64
364.262	3.54
364.631	3.54
364.999	3.85
365.367	4.12
365.735	3.55
366.104	3.7
366.472	4.1
366.84	3.78
367.208	4.24
367.576	3.74
367.944	4.05
368.312	4.05
368.68	3.84
369.048	3.85
369.416	3.91
369.783	3.52
370.151	3.64
370.519	3.77
370.886	3.78
371.254	3.88
371.621	3.66
371.989	3.94
372.356	3.6
372.724	4.11
373.091	4.02
373.458	3.67
373.826	4.11
374.193	4.02
374.56	4.23
374.927	4.11
375.294	3.61
375.661	3.7
376.028	3.86
376.395	3.71
376.762	3.77
377.129	4.22
377.496	4.23
377.863	4
378.229	4.11
378.596	3.9
378.963	4.14
379.329	3.9
379.696	4.21
380.062	3.53
380.429	3.89
380.795	3.91
381.161	3.59
381.528	3.96
381.894	3.46
382.26	3.92
382.626	3.67
382.993	4.06
383.359	3.6
383.725	3.7
384.091	4
384.457	3.89
384.823	3.99
385.188	4
385.554	4.01
385.92	4.26
386.286	4.11
386.651	3.92
387.017	3.98
387.383	3.86
387.748	3.93
388.114	3.92
388.479	4.06
388.845	3.61
389.21	3.8
389.575	4.04
389.94	3.56
390.306	3.93
390.671	4.14
391.036	3.52
391.401	4.01
391.766	3.81
392.131	3.93
392.496	3.89
392.861	3.55
393.226	4.1
393.591	4.02
393.956	3.79
394.32	3.83
394.685	3.96
395.05	4.08
395.414	3.98
395.779	3.94
396.143	3.96
396.508	3.81
396.872	3.72
397.236	3.95
397.601	3.8
397.965	4.2
398.329	3.95
398.694	3.89
399.058	4.01
399.422	3.89
399.786	4
400.15	4.11
400.514	3.91
400.878	3.86
401.242	4.1
401.605	3.89
401.969	3.51
402.333	4.15
402.697	3.86
403.06	3.73
403.424	3.72
403.787	3.65
404.151	4.02
404.514	3.88
404.878	4.05
405.241	4.23
405.604	3.91
405.968	4.01
406.331	3.89
406.694	3.79
407.057	3.63
407.42	3.89
407.783	4.03
408.146	3.85
408.509	3.91
408.872	3.74
409.235	3.98
409.598	3.96
409.961	4.01
410.323	3.93
410.686	4.04
411.049	4.13
411.411	4.05
411.774	4
412.136	3.94
412.499	3.76
412.861	3.91
413.223	3.9
413.586	3.81
413.948	3.89
414.31	3.86
414.672	3.81
415.035	3.7
415.397	4.05
415.759	4.17
416.121	3.89
416.483	3.96
416.845	3.98
417.206	4.12
417.568	3.79
417.93	3.8
418.292	4.02
418.653	3.88
419.015	3.79
419.377	3.73
419.738	3.88
420.1	3.78
420.461	3.76
420.822	3.89
421.184	3.81
421.545	3.78
421.906	3.78
422.267	3.74
422.629	3.92
422.99	3.75
423.351	3.77
423.712	3.68
424.073	3.79
424.434	3.94
424.795	3.79
425.155	3.83
425.516	3.81
425.877	3.85
426.238	3.71
426.598	3.74
426.959	3.73
427.32	3.81
427.68	3.79
428.041	3.81
428.401	3.98
428.761	3.96
429.122	3.83
429.482	3.92
429.842	3.89
430.202	3.9
430.563	3.91
430.923	3.95
431.283	3.94
431.643	4.01
432.003	4.01
432.363	4.13
432.722	3.91
433.082	3.81
433.442	3.88
433.802	3.96
434.161	3.91
434.521	3.77
434.881	3.99
435.24	3.79
435.6	3.76
435.959	3.78
436.319	3.9
436.678	4.01
437.037	3.8
437.396	3.89
437.756	3.76
438.115	3.81
438.474	3.81
438.833	4.14
439.192	3.86
439.551	3.89
439.91	3.95
440.269	3.86
440.628	3.74
440.987	3.67
441.345	3.87
441.704	3.74
442.063	3.77
442.421	3.81
442.78	3.75
443.138	3.82
443.497	3.84
443.855	3.9
444.214	3.77
444.572	4.01
444.93	3.94
445.288	3.79
445.647	3.86
446.005	3.98
446.363	3.77
446.721	3.83
447.079	3.64
447.437	3.83
447.795	3.91
448.153	3.65
448.51	3.78
448.868	3.75
449.226	3.89
449.584	3.81
449.941	3.81
450.299	3.92
450.656	3.84
451.014	4.07
451.371	3.86
451.729	3.87
452.086	3.96
452.443	3.97
452.801	3.92
453.158	3.85
453.515	3.84
453.872	3.9
454.229	3.96
454.586	3.78
454.943	3.84
455.3	3.87
455.657	3.85
456.014	3.83
456.371	3.89
456.727	4.13
457.084	3.88
457.441	3.8
457.797	3.97
458.154	3.87
458.51	3.76
458.867	3.77
459.223	3.8
459.58	3.9
459.936	3.91
460.292	3.97
460.648	4.05
461.005	3.64
461.361	3.94
461.717	3.66
462.073	3.77
462.429	3.61
462.785	3.75
463.141	3.76
463.496	3.9
463.852	3.9
464.208	3.89
464.564	3.93
464.919	3.78
465.275	3.97
465.631	4.06
465.986	3.78
466.342	3.95
466.697	3.89
467.052	3.92
467.408	3.92
467.763	3.88
468.118	4.17
468.473	3.86
468.829	3.76
469.184	3.73
469.539	3.92
469.894	4.01
470.249	3.96
470.603	3.68
470.958	3.91
471.313	4
471.668	3.94
472.023	3.93
472.377	3.8
472.732	3.73
473.086	4.01
473.441	3.61
473.795	3.98
474.15	3.74
474.504	3.84
474.859	3.98
475.213	3.72
475.567	3.86
475.921	3.78
476.275	3.9
476.63	3.82
476.984	3.84
477.338	4
477.692	3.92
478.045	4.14
478.399	3.98
478.753	3.91
479.107	3.87
479.461	3.81
479.814	3.9
480.168	3.94
480.521	3.87
480.875	3.94
481.228	3.84
481.582	3.77
481.935	3.9
482.289	3.77
482.642	3.82
482.995	3.75
483.348	3.8
483.701	3.81
484.055	3.77
484.408	3.71
484.761	3.77
485.114	3.64
485.466	3.61
485.819	3.47
486.172	3.49
486.525	3.57
486.878	3.61
487.23	3.66
487.583	3.7
487.936	3.82
488.288	3.82
488.641	3.74
488.993	3.66
489.345	3.6
489.698	3.59
490.05	3.59
490.402	3.66
490.754	3.66
491.107	3.7
491.459	3.78
491.811	3.8
492.163	3.87
492.515	3.79
492.866	3.78
493.218	3.75
493.57	3.67
493.922	3.59
494.274	3.66
494.625	3.71
494.977	3.8
495.328	3.83
495.68	3.83
496.031	3.8
496.383	3.91
496.734	3.9
497.086	3.91
497.437	3.87
497.788	3.96
498.139	3.88
498.49	3.89
498.842	3.74
499.193	3.72
499.544	3.89
499.894	3.73
500.245	3.84
500.596	3.75
500.947	3.93
501.298	3.73
501.648	3.89
501.999	3.88
502.35	3.85
502.7	4.02
503.051	3.9
503.401	3.85
503.752	3.92
504.102	3.86
504.452	3.8
504.803	3.86
505.153	3.89
505.503	3.74
505.853	3.97
506.203	3.78
506.553	3.87
506.903	3.89
507.253	3.67
507.603	3.92
507.953	3.85
508.303	3.87
508.652	3.83
509.002	3.86
509.352	3.8
509.701	3.94
510.051	3.85
510.4	3.81
510.75	3.75
511.099	3.72
511.449	3.89
511.798	3.94
512.147	3.81
512.496	3.77
512.846	3.77
513.195	3.87
513.544	3.86
513.893	3.94
514.242	3.77
514.591	3.84
514.939	3.82
515.288	3.75
515.637	3.89
515.986	3.71
516.334	3.98
516.683	3.87
517.032	4
517.38	3.94
517.729	3.84
518.077	3.92
518.426	3.87
518.774	3.85
519.122	3.83
519.47	3.87
519.819	3.86
520.167	3.85
520.515	3.75
520.863	3.77
521.211	3.71
521.559	3.87
521.907	3.89
522.255	3.83
522.602	3.9
522.95	3.86
523.298	3.95
523.645	3.92
523.993	3.91
524.341	3.92
524.688	3.81
525.036	3.9
525.383	3.81
525.73	3.95
526.078	3.84
526.425	3.76
526.772	3.93
527.119	3.74
527.466	3.72
527.814	3.7
528.161	3.75
528.508	3.81
528.854	3.84
529.201	3.82
529.548	3.82
529.895	3.75
530.242	3.64
530.588	3.59
530.935	3.54
531.282	3.56
531.628	3.68
531.975	3.68
532.321	3.69
532.667	3.79
533.014	3.76
533.36	3.87
533.706	3.78
534.052	3.86
534.399	3.72
534.745	3.83
535.091	3.69
535.437	3.62
535.783	3.59
536.129	3.73
536.474	3.82
536.82	3.73
537.166	3.82
537.512	3.87
537.857	3.8
538.203	3.93
538.549	3.74
538.894	3.74
539.239	3.69
539.585	3.75
539.93	3.92
540.276	3.87
540.621	3.91
540.966	3.88
541.311	3.92
541.656	3.8
542.001	3.82
542.346	3.88
542.691	3.89
543.036	3.72
543.381	3.68
543.726	3.6
544.071	3.69
544.415	3.73
544.76	3.66
545.105	3.68
545.449	3.64
545.794	3.81
546.138	3.86
546.483	3.83
546.827	3.87
547.171	3.82
547.516	3.9
547.86	3.93
548.204	3.76
548.548	3.86
548.892	3.76
549.236	3.75
549.58	3.82
549.924	3.92
550.268	3.89
550.612	3.95
550.956	3.87
551.3	3.99
551.643	4.06
551.987	3.93
552.33	4.06
552.674	3.84
553.017	3.89
553.361	3.72
553.704	4
554.048	4
554.391	4
554.734	3.95
555.077	3.78
555.42	3.84
555.764	3.74
556.107	3.88
556.45	3.91
556.793	3.88
557.135	3.92
557.478	3.76
557.821	3.9
558.164	4.06
558.507	3.97
558.849	3.97
559.192	4
559.534	4.12
559.877	3.84
560.219	4
560.562	4.07
560.904	4.1
561.246	4.15
561.589	3.97
561.931	3.95
562.273	3.84
562.615	3.77
562.957	3.86
563.299	3.93
563.641	4.11
563.983	3.92
564.325	3.87
564.667	4.06
565.008	3.95
565.35	3.95
565.692	4.1
566.033	4.01
566.375	3.93
566.716	3.98
567.058	3.93
567.399	3.97
567.741	4.13
568.082	3.93
568.423	3.99
568.764	3.96
569.105	3.87
569.447	3.92
569.788	3.8
570.129	4.17
570.47	4.06
570.811	3.97
571.151	3.91
571.492	3.92
571.833	3.93
572.174	4
572.514	3.94
572.855	4.04
573.195	3.85
573.536	3.87
573.876	3.77
574.217	3.83
574.557	3.85
574.898	3.96
575.238	3.88
575.578	4.06
575.918	3.94
576.258	3.78
576.598	4
576.938	3.83
577.278	4.09
577.618	3.67
577.958	4.12
578.298	4.01
578.638	3.88
578.977	3.98
579.317	4.02
579.657	4.09
579.996	3.94
580.336	3.96
580.675	3.99
581.014	3.93
581.354	4.04
581.693	4.12
582.032	4.08
582.372	4.09
582.711	4.09
583.05	3.98
583.389	4.07
583.728	3.88
584.067	4.03
584.406	4
584.745	3.86
585.083	4.18
585.422	4.16
585.761	3.86
586.1	3.94
586.438	3.95
586.777	3.88
587.115	3.93
587.454	3.82
587.792	4.25
588.13	4.06
588.469	3.88
588.807	4.03
589.145	4.05
589.483	3.87
589.821	3.98
590.159	4.09
590.497	4.2
590.835	4.01
591.173	3.9
591.511	3.97
591.849	4.18
592.187	3.96
592.524	4.25
592.862	4.19
593.2	4.03
593.537	3.9
593.875	3.88
594.212	3.78
594.55	4.2
594.887	3.97
595.224	4.17
595.561	4.07
595.899	4.07
596.236	4.1
596.573	4.12
596.91	4.13
597.247	3.91
597.584	4.18
597.921	4.17
598.258	4.1
598.594	3.83
598.931	4.02
599.268	3.88
599.604	4.19
599.941	4.12
600.277	3.99
600.614	3.99
600.95	4.02
601.287	4.08
601.623	4.16
601.959	4.14
602.296	4.21
602.632	4.03
602.968	4.22
603.304	4.04
603.64	3.9
603.976	4.05
604.312	4.17
604.648	4.18
604.984	4.08
605.319	3.9
605.655	4.01
605.991	4.15
606.326	4.14
606.662	3.98
606.998	3.78
607.333	4.15
607.668	4.04
608.004	4.24
608.339	3.99
608.674	4.15
609.01	4.16
609.345	4.12
609.68	4.33
610.015	4.06
610.35	4.1
610.685	4.28
611.02	3.98
611.355	4.16
611.689	4.09
612.024	4.13
612.359	3.9
612.694	4.07
613.028	3.92
613.363	4.02
613.697	3.99
614.032	4.07
614.366	4.11
614.7	4.13
615.035	4.28
615.369	3.89
615.703	4.09
616.037	4.07
616.371	4.06
616.705	4.25
617.039	4.01
617.373	4.16
617.707	3.84
618.041	4.17
618.375	3.98
618.709	3.7
619.042	4.17
619.376	4.3
619.71	4.3
620.043	3.75
620.377	4.04
620.71	4.1
621.043	4.59
621.377	3.77
621.71	4.5
622.043	4.26
622.376	4.59
622.709	4.06
623.043	4.04
623.376	4.06
623.709	4.31
624.041	4.45
624.374	4.08
624.707	4.46
625.04	4.07
625.373	3.9
625.705	4.34
626.038	4.2
626.37	4.63
626.703	4.34
627.035	4.12
627.368	4.19
627.7	4.14
628.032	4.42
628.365	4.06
628.697	4.2
629.029	4.03
629.361	4.13
629.693	4.2
630.025	4.32
630.357	4.08
630.689	4.21
631.021	4.02
631.353	4.03
631.684	3.98
632.016	4.26
632.348	4.08
632.679	3.97
633.011	4.24
633.342	4.24
633.674	4.76
634.005	3.96
634.336	4.31
634.668	4.42
634.999	4.11
635.33	4.4
635.661	4.43
635.992	3.95
636.323	4.15
636.654	4.28
636.985	3.8
637.316	4.19
637.647	4.3
637.977	3.86
638.308	4.58
638.639	4.34
638.969	4.42
639.3	4.4
639.63	4.69
639.961	4.15
640.291	4.15
640.622	4.24
640.952	4.23
641.282	4.48
641.612	4.13
641.943	4.38
642.273	4.09
642.603	4.31
642.933	4.11
643.263	3.77
643.592	4.2
643.922	4.43
644.252	4.39
644.582	4.37
644.911	4.01
645.241	4.41
645.571	4.31
645.9	4.39
646.23	4.79
646.559	4.38
646.888	4.5
647.218	4.49
647.547	4.31
647.876	4.15
648.205	3.88
648.534	4.73
648.863	4.45
649.192	4.03
649.521	4.13
649.85	4.47
650.179	3.96
650.508	4.14
650.837	4.41
651.165	4.46
651.494	4.34
651.822	4.32
652.151	4.12
652.479	4.4
652.808	4.52
653.136	4.67
653.465	4.25
653.793	4.25
654.121	4.28
654.449	4.12
654.777	4.25
655.105	4.59
655.433	4.29
655.761	4.44
656.089	4.25
656.417	4.13
656.745	4.23
657.073	4.56
657.4	5.02
657.728	4.44
658.056	4.5
658.383	5.06
658.711	4.05
659.038	3.98
659.365	4.19
659.693	4.01
660.02	4.48
660.347	4.9
660.674	4.33
661.001	4.17
661.329	4.27
661.656	4.44
661.982	4.21
662.309	4.59
662.636	4.31
662.963	4.45
663.29	4.62
663.616	4.79
663.943	5.01
664.27	4.59
664.596	4.35
664.923	3.89
665.249	4.43
665.576	4.15
665.902	4.44
666.228	4.15
666.554	4.45
666.881	4.97
667.207	4.46
667.533	4.27
667.859	4.01
668.185	4.22
668.511	4.47
668.837	3.95
669.162	4.33
669.488	4.42
669.814	4.31
670.139	4.27
670.465	5.09
670.791	4.56
671.116	4.05
671.442	4.75
671.767	4.13
672.092	4.66
672.418	5.14
672.743	4.75
673.068	4.46
673.393	4.75
673.718	5.2
674.043	4.93
674.368	4.46
674.693	4.6
675.018	4.81
675.343	4.31
675.667	4.43
675.992	4.12
676.317	4.76
676.641	4.64
676.966	4.39
677.29	4.03
677.615	4.24
677.939	5.04
678.264	4.18
678.588	5.12
678.912	4.69
679.236	4.42
679.56	4.63
679.885	4.5
680.209	5.12
680.532	4.84
680.856	4.1
681.18	4.71
681.504	4.22
681.828	4.6
682.152	4.74
682.475	4.98
682.799	4.78
683.122	4.65
683.446	4.68
683.769	4.22
684.093	5.18
684.416	4.25
684.739	4.91
685.062	5.02
685.386	4.82
685.709	4.63
686.032	3.97
686.355	4.35
686.678	4.63
687.001	5.09
687.324	5.06
687.646	4.56
687.969	4.75
688.292	4.21
688.614	5.59
688.937	4.54
689.26	5.18
689.582	4.94
689.904	4.75
690.227	5.41
690.549	5.3
690.871	4.17
691.194	4.35
691.516	4.97
691.838	5.17
692.16	3.84
692.482	4.66
692.804	4.22
693.126	3.74
693.448	4.67
