Data from 0141_forehead_Reflection__2__12.txt Node

Date: Fri Sep 22 20:27:26 CDT 2023
User: ToomeyLab
Spectrometer: FLMS14357
Trigger mode: 0
Integration Time (sec): 1.000000E-2
Scans to average: 100
Electric dark correction enabled: true
Nonlinearity correction enabled: false
Boxcar width: 0
XAxis mode: Wavelengths
Number of Pixels in Spectrum: 2048
>>>>>Begin Spectral Data<<<<<
189.047	-8.61
189.435	-8.61
189.823	-8.61
190.211	136.35
190.599	2.08
190.987	-196.19
191.375	-10.22
191.763	-142.54
192.151	66.81
192.538	-566.2
192.926	-8.19
193.314	200.11
193.702	-263.26
194.089	238.58
194.477	20.72
194.864	-21.12
195.252	1.94
195.639	-18.65
196.027	54.71
196.414	285.21
196.801	400.36
197.189	1042.71
197.576	89.28
197.963	122.4
198.351	37.08
198.738	44.77
199.125	47.99
199.512	39.08
199.899	64.36
200.286	55.5
200.673	6.17
201.06	-5.77
201.447	48.55
201.833	-36.12
202.22	62.62
202.607	38.59
202.994	52.52
203.38	20.29
203.767	115.01
204.154	53.25
204.54	52.09
204.927	-9.51
205.313	38.35
205.699	46.92
206.086	20.41
206.472	55.75
206.858	69.61
207.245	-14.06
207.631	35.71
208.017	24.34
208.403	39.17
208.789	67.67
209.175	42.51
209.561	49.71
209.947	37.39
210.333	33.68
210.719	2.05
211.105	33.76
211.491	16.6
211.876	39.21
212.262	24.43
212.648	25.5
213.034	35.86
213.419	18.24
213.805	20.93
214.19	5.72
214.576	34.38
214.961	30.21
215.346	44.75
215.732	30.11
216.117	15.01
216.502	54.59
216.888	32.49
217.273	26.91
217.658	10.08
218.043	18.26
218.428	36.5
218.813	24.84
219.198	10.05
219.583	28.81
219.968	6.63
220.353	34.43
220.738	6.99
221.122	8.94
221.507	13.71
221.892	14.19
222.276	1.65
222.661	-9.67
223.046	24.98
223.43	23.41
223.815	11.98
224.199	4.97
224.583	16.69
224.968	13.46
225.352	7.46
225.736	12.99
226.121	4.01
226.505	11.84
226.889	6.62
227.273	4.79
227.657	6.34
228.041	7.53
228.425	8.62
228.809	7.37
229.193	3.62
229.577	8.64
229.961	6.51
230.344	3.81
230.728	2.36
231.112	3.12
231.495	3.01
231.879	3.44
232.263	3.96
232.646	4.72
233.03	3.77
233.413	2.75
233.797	5.35
234.18	4.46
234.563	6.36
234.946	5.49
235.33	1.72
235.713	0.78
236.096	5.2
236.479	2.77
236.862	6.33
237.245	4.28
237.628	4.41
238.011	5.54
238.394	4.52
238.777	4.83
239.16	5.1
239.543	4.58
239.925	4.28
240.308	5.46
240.691	4.55
241.073	5.29
241.456	5.02
241.838	3.68
242.221	4.11
242.603	4.44
242.986	4.25
243.368	3.27
243.75	3.91
244.133	4.32
244.515	3.45
244.897	2.84
245.279	3.41
245.661	3.69
246.043	3.52
246.425	3.61
246.807	3.32
247.189	3.46
247.571	3.82
247.953	3.42
248.335	3.59
248.717	3.43
249.098	3.19
249.48	3.18
249.862	3.22
250.243	3.21
250.625	3.67
251.006	3.41
251.388	3.8
251.769	3.75
252.151	4.12
252.532	2.59
252.913	3.13
253.295	4.81
253.676	3.79
254.057	3.87
254.438	3.76
254.819	3.5
255.2	3.24
255.581	3.68
255.962	4.83
256.343	3.92
256.724	3.67
257.105	5.09
257.486	4.01
257.867	3.78
258.247	3.99
258.628	4.23
259.009	3.43
259.389	3.71
259.77	4.56
260.15	4.75
260.531	3.7
260.911	3.4
261.292	3.32
261.672	3.03
262.052	3.02
262.432	3.21
262.813	3.51
263.193	3.41
263.573	3.66
263.953	3.62
264.333	3.54
264.713	3.78
265.093	3
265.473	3.78
265.853	3.8
266.233	3.77
266.612	3.96
266.992	3.9
267.372	3.81
267.752	3.84
268.131	3.14
268.511	2.8
268.89	3.61
269.27	3.03
269.649	3.24
270.029	3.12
270.408	3.57
270.787	3.6
271.167	3.32
271.546	3.5
271.925	3.45
272.304	2.8
272.683	3.23
273.062	3.73
273.441	3.37
273.82	3.23
274.199	3.61
274.578	3.28
274.957	3.04
275.336	3.21
275.715	2.89
276.093	3.44
276.472	2.97
276.851	3.39
277.229	3.25
277.608	3.49
277.986	3.12
278.365	4.03
278.743	3.32
279.122	3.62
279.5	3.98
279.878	3.63
280.257	3.83
280.635	3.24
281.013	4.09
281.391	3.04
281.769	3.07
282.147	3.14
282.525	3.1
282.903	3.41
283.281	3.35
283.659	3.53
284.037	2.92
284.415	3.24
284.792	3.56
285.17	3.51
285.548	4.01
285.925	3.42
286.303	3.28
286.68	2.99
287.058	3.5
287.435	3.54
287.813	3.39
288.19	2.78
288.567	3.43
288.945	3.34
289.322	3.52
289.699	3.76
290.076	3.4
290.453	2.85
290.83	2.99
291.207	3.43
291.584	3.37
291.961	3.33
292.338	3.76
292.715	3.84
293.092	3.82
293.469	3.36
293.845	3.53
294.222	3.93
294.599	4.18
294.975	4.34
295.352	4.22
295.728	3.81
296.105	3.58
296.481	3.7
296.858	3.81
297.234	3.96
297.61	4.31
297.986	3.83
298.363	4.25
298.739	3.75
299.115	3.97
299.491	4.08
299.867	3.95
300.243	3.99
300.619	4
300.995	4.38
301.371	4.01
301.746	4.43
302.122	3.89
302.498	4.28
302.874	4.45
303.249	4.51
303.625	3.99
304	4.62
304.376	4.83
304.751	5.08
305.127	4.97
305.502	4.99
305.878	4.69
306.253	5.05
306.628	4.84
307.003	5.02
307.378	4.83
307.754	4.96
308.129	5.3
308.504	4.77
308.879	4.6
309.254	5.47
309.629	5.3
310.003	5.73
310.378	6.01
310.753	5.48
311.128	5.23
311.502	5.43
311.877	4.99
312.252	5.16
312.626	5.1
313.001	5.43
313.375	5.54
313.75	5.83
314.124	6.18
314.498	5.46
314.873	5.89
315.247	6.32
315.621	5.91
315.995	6.13
316.369	6.17
316.743	6.38
317.117	6.31
317.491	6.55
317.865	6.7
318.239	6.57
318.613	6.75
318.987	6.55
319.361	6.71
319.734	6.41
320.108	6.94
320.482	6.29
320.855	7.1
321.229	7.47
321.602	6.64
321.976	6.88
322.349	6.77
322.723	7.37
323.096	7.13
323.469	7.08
323.843	6.91
324.216	7.6
324.589	7.55
324.962	6.78
325.335	7.24
325.708	7.43
326.081	7.51
326.454	6.95
326.827	8.07
327.2	7.75
327.573	7.9
327.945	7.58
328.318	7.92
328.691	8.05
329.063	7.98
329.436	8.07
329.809	8.11
330.181	8.31
330.553	7.61
330.926	7.9
331.298	8.28
331.671	8.17
332.043	7.84
332.415	8.46
332.787	8.6
333.159	8.27
333.532	8.03
333.904	8.6
334.276	8.22
334.648	8.58
335.02	8.47
335.391	8.86
335.763	8.92
336.135	8.9
336.507	9.03
336.879	8.68
337.25	9
337.622	9.11
337.993	8.98
338.365	8.96
338.736	8.98
339.108	8.94
339.479	8.89
339.851	8.77
340.222	9.19
340.593	9.23
340.964	8.78
341.336	8.83
341.707	9.01
342.078	9.42
342.449	9.1
342.82	8.8
343.191	9.08
343.562	9.29
343.933	9.11
344.303	9.54
344.674	9.66
345.045	9.53
345.416	9.81
345.786	9.69
346.157	9.45
346.527	9.43
346.898	9.64
347.268	9.55
347.639	9.83
348.009	9.77
348.38	10.15
348.75	9.97
349.12	9.8
349.49	10.13
349.861	10.03
350.231	10.24
350.601	10.07
350.971	10.48
351.341	9.95
351.711	10.37
352.081	10.14
352.45	10.14
352.82	10.43
353.19	10.53
353.56	10.13
353.929	10.84
354.299	10.72
354.669	10.46
355.038	10.79
355.408	10.54
355.777	10.55
356.147	10.42
356.516	11
356.885	10.86
357.254	10.99
357.624	10.45
357.993	10.72
358.362	10.61
358.731	10.66
359.1	10.71
359.469	10.86
359.838	10.71
360.207	10.82
360.576	11.1
360.945	11.28
361.314	11.19
361.682	11.51
362.051	11.75
362.42	11.05
362.788	10.88
363.157	11.34
363.525	11.12
363.894	11.29
364.262	11.26
364.631	11.38
364.999	11.51
365.367	11.72
365.735	11.4
366.104	11.31
366.472	11.86
366.84	11.65
367.208	12.06
367.576	12.02
367.944	11.94
368.312	12.03
368.68	11.84
369.048	12.04
369.416	12.3
369.783	12.07
370.151	11.99
370.519	12.23
370.886	12.4
371.254	12.42
371.621	12.55
371.989	12.66
372.356	12.4
372.724	12.49
373.091	12.44
373.458	12.75
373.826	12.56
374.193	12.73
374.56	12.75
374.927	12.89
375.294	12.96
375.661	12.77
376.028	12.92
376.395	12.86
376.762	12.68
377.129	13.49
377.496	13.3
377.863	13.3
378.229	13.03
378.596	13
378.963	13.47
379.329	12.94
379.696	13.12
380.062	13.2
380.429	13.37
380.795	13.78
381.161	13.37
381.528	13.32
381.894	13.07
382.26	13.36
382.626	13.45
382.993	13.76
383.359	13.61
383.725	13.63
384.091	13.96
384.457	13.82
384.823	13.79
385.188	13.97
385.554	13.87
385.92	14.06
386.286	14.16
386.651	13.78
387.017	13.92
387.383	13.93
387.748	13.87
388.114	14.23
388.479	14.28
388.845	14.26
389.21	14.31
389.575	14.74
389.94	13.95
390.306	14.51
390.671	14.92
391.036	14.4
391.401	14.79
391.766	14.57
392.131	14.83
392.496	14.73
392.861	14.54
393.226	14.97
393.591	14.6
393.956	14.75
394.32	14.58
394.685	15.08
395.05	15.19
395.414	15
395.779	15.15
396.143	14.93
396.508	14.95
396.872	15.05
397.236	15.23
397.601	15.25
397.965	15.32
398.329	15.55
398.694	15.41
399.058	15.54
399.422	15.31
399.786	15.78
400.15	15.7
400.514	15.69
400.878	15.53
401.242	15.73
401.605	15.67
401.969	15.59
402.333	16.04
402.697	16.05
403.06	15.66
403.424	15.92
403.787	16.05
404.151	16.14
404.514	16.26
404.878	16.17
405.241	16.36
405.604	16.06
405.968	16.37
406.331	16.2
406.694	16.07
407.057	16.15
407.42	16.57
407.783	16.31
408.146	16.55
408.509	16.18
408.872	16.56
409.235	16.76
409.598	16.81
409.961	16.6
410.323	17.15
410.686	16.83
411.049	17
411.411	16.86
411.774	17.03
412.136	17.01
412.499	16.71
412.861	17.07
413.223	17.2
413.586	17.36
413.948	17.19
414.31	17.14
414.672	17.12
415.035	17.54
415.397	17.64
415.759	17.67
416.121	17.16
416.483	17.37
416.845	17.36
417.206	17.38
417.568	17.41
417.93	17.35
418.292	17.6
418.653	17.43
419.015	17.35
419.377	17.5
419.738	17.37
420.1	17.24
420.461	17.3
420.822	17.34
421.184	17.29
421.545	17.38
421.906	17.33
422.267	17.46
422.629	17.42
422.99	17.29
423.351	17.11
423.712	17.36
424.073	17.48
424.434	17.87
424.795	17.85
425.155	17.99
425.516	17.83
425.877	17.71
426.238	17.56
426.598	17.63
426.959	17.72
427.32	18.05
427.68	18.14
428.041	18.4
428.401	18.54
428.761	18.58
429.122	18.63
429.482	18.88
429.842	18.94
430.202	18.88
430.563	19.06
430.923	19.08
431.283	19.03
431.643	19.26
432.003	19.01
432.363	19.23
432.722	19.29
433.082	19.15
433.442	19.22
433.802	19.34
434.161	19.13
434.521	19
434.881	18.95
435.24	18.91
435.6	18.74
435.959	18.82
436.319	19.14
436.678	19.48
437.037	19.59
437.396	19.54
437.756	19.57
438.115	19.86
438.474	19.77
438.833	19.8
439.192	19.55
439.551	19.68
439.91	19.85
440.269	19.72
440.628	19.65
440.987	19.64
441.345	19.81
441.704	19.52
442.063	19.68
442.421	19.65
442.78	19.56
443.138	19.63
443.497	19.69
443.855	20.1
444.214	20.1
444.572	20.41
444.93	20.39
445.288	20.25
445.647	20.36
446.005	20.34
446.363	20.44
446.721	20.18
447.079	19.98
447.437	20.08
447.795	19.93
448.153	19.74
448.51	19.84
448.868	19.83
449.226	19.93
449.584	20.28
449.941	20.4
450.299	20.56
450.656	20.83
451.014	21.02
451.371	20.93
451.729	21.06
452.086	20.99
452.443	21.2
452.801	21.41
453.158	21.29
453.515	21.48
453.872	21.27
454.229	21.39
454.586	21.24
454.943	21.29
455.3	21.36
455.657	21.47
456.014	21.45
456.371	21.53
456.727	21.62
457.084	21.4
457.441	21.51
457.797	21.78
458.154	21.81
458.51	21.67
458.867	21.98
459.223	21.9
459.58	21.91
459.936	21.98
460.292	21.87
460.648	21.94
461.005	21.62
461.361	21.64
461.717	21.24
462.073	21.21
462.429	21.34
462.785	21.73
463.141	21.86
463.496	22.14
463.852	22.39
464.208	22.32
464.564	22.73
464.919	22.5
465.275	22.82
465.631	22.8
465.986	22.8
466.342	22.91
466.697	22.69
467.052	22.41
467.408	22.71
467.763	22.81
468.118	23.05
468.473	22.94
468.829	22.68
469.184	22.7
469.539	22.77
469.894	23.13
470.249	22.97
470.603	22.99
470.958	22.91
471.313	23.04
471.668	23.14
472.023	23.08
472.377	23.35
472.732	23.19
473.086	23.55
473.441	23.16
473.795	23.59
474.15	23.51
474.504	23.41
474.859	23.62
475.213	23.33
475.567	23.45
475.921	23.74
476.275	23.65
476.63	23.67
476.984	23.9
477.338	24.03
477.692	24.19
478.045	23.89
478.399	23.87
478.753	23.72
479.107	23.85
479.461	23.87
479.814	23.87
480.168	24.08
480.521	24.01
480.875	24.15
481.228	24.27
481.582	24.27
481.935	24.42
482.289	24.44
482.642	24.36
482.995	24.26
483.348	24.24
483.701	24.07
484.055	24.04
484.408	24.03
484.761	23.94
485.114	23.65
485.466	23.19
485.819	22.73
486.172	22.78
486.525	23.16
486.878	23.58
487.23	23.98
487.583	24.1
487.936	24.33
488.288	24.5
488.641	24.25
488.993	23.93
489.345	23.78
489.698	23.7
490.05	23.78
490.402	23.99
490.754	24.12
491.107	24.48
491.459	24.74
491.811	25.04
492.163	25.22
492.515	25.26
492.866	25.22
493.218	24.79
493.57	24.33
493.922	24.15
494.274	24.53
494.625	24.81
494.977	25.26
495.328	25.47
495.68	25.66
496.031	25.75
496.383	26.05
496.734	26.27
497.086	26.25
497.437	26.32
497.788	26.17
498.139	26.18
498.49	26.09
498.842	25.66
499.193	25.7
499.544	26.02
499.894	25.94
500.245	26.06
500.596	26.23
500.947	26.39
501.298	26.4
501.648	26.42
501.999	26.62
502.35	26.49
502.7	26.58
503.051	26.8
503.401	26.9
503.752	26.86
504.102	26.96
504.452	27.08
504.803	26.95
505.153	27.06
505.503	27.1
505.853	26.98
506.203	27.08
506.553	27.03
506.903	27.18
507.253	27.03
507.603	27.26
507.953	27.36
508.303	27.37
508.652	27.37
509.002	27.39
509.352	27.45
509.701	27.63
510.051	27.34
510.4	27.21
510.75	27.05
511.099	27.04
511.449	27.28
511.798	27.35
512.147	27.31
512.496	27.61
512.846	27.69
513.195	27.83
513.544	27.79
513.893	27.83
514.242	27.74
514.591	27.88
514.939	27.87
515.288	27.82
515.637	28.18
515.986	28.09
516.334	28.33
516.683	28.47
517.032	28.57
517.38	28.63
517.729	28.74
518.077	28.54
518.426	28.72
518.774	28.79
519.122	28.56
519.47	28.57
519.819	28.44
520.167	28.37
520.515	28.06
520.863	27.97
521.211	28.22
521.559	28.29
521.907	28.51
522.255	28.74
522.602	28.84
522.95	29.03
523.298	29.2
523.645	29.38
523.993	29.41
524.341	29.33
524.688	29.73
525.036	29.58
525.383	29.43
525.73	29.62
526.078	29.56
526.425	29.41
526.772	29.54
527.119	29.31
527.466	29.16
527.814	28.9
528.161	29.03
528.508	29.22
528.854	29.4
529.201	29.51
529.548	29.54
529.895	29.4
530.242	28.85
530.588	28.22
530.935	28.37
531.282	28.77
531.628	29
531.975	29.24
532.321	29.41
532.667	29.65
533.014	30
533.36	30.1
533.706	30.12
534.052	29.98
534.399	30.14
534.745	29.97
535.091	29.48
535.437	29.22
535.783	29.46
536.129	29.73
536.474	30.2
536.82	30.44
537.166	30.7
537.512	30.75
537.857	30.85
538.203	30.87
538.549	30.47
538.894	30.21
539.239	30.45
539.585	30.63
539.93	30.96
540.276	31.05
540.621	31.28
540.966	31.27
541.311	31.67
541.656	31.66
542.001	31.58
542.346	31.45
542.691	31.23
543.036	30.5
543.381	30
543.726	30.1
544.071	30.6
544.415	30.82
544.76	31
545.105	31.21
545.449	31.2
545.794	31.52
546.138	31.56
546.483	31.88
546.827	31.92
547.171	31.94
547.516	31.96
547.86	32.01
548.204	31.94
548.548	32.03
548.892	31.82
549.236	31.8
549.58	32.05
549.924	32.28
550.268	32.67
550.612	32.71
550.956	32.82
551.3	32.98
551.643	32.94
551.987	33.03
552.33	33.19
552.674	33.21
553.017	33.27
553.361	33.31
553.704	33.21
554.048	33.06
554.391	33.21
554.734	33.14
555.077	32.85
555.42	33.07
555.764	33.36
556.107	33.43
556.45	33.65
556.793	33.6
557.135	33.79
557.478	33.93
557.821	33.82
558.164	33.76
558.507	34.13
558.849	33.76
559.192	34.05
559.534	34.06
559.877	34.04
560.219	34.32
560.562	34.1
560.904	34.04
561.246	34.25
561.589	34.48
561.931	34.38
562.273	34.3
562.615	34.38
562.957	34.48
563.299	34.55
563.641	34.45
563.983	34.46
564.325	34.61
564.667	34.65
565.008	34.99
565.35	34.75
565.692	34.88
566.033	34.93
566.375	34.69
566.716	34.77
567.058	35.18
567.399	35.09
567.741	34.85
568.082	34.68
568.423	34.64
568.764	34.88
569.105	35.06
569.447	35.03
569.788	35.17
570.129	35.31
570.47	35.47
570.811	35.51
571.151	35.49
571.492	35.44
571.833	35.48
572.174	35.66
572.514	35.64
572.855	35.77
573.195	35.75
573.536	35.53
573.876	35.29
574.217	35.47
574.557	35.61
574.898	35.76
575.238	35.76
575.578	36.06
575.918	36.02
576.258	35.92
576.598	36.01
576.938	36.09
577.278	36.19
577.618	35.92
577.958	36.12
578.298	36.22
578.638	36.57
578.977	36.51
579.317	36.53
579.657	36.52
579.996	36.61
580.336	37.05
580.675	36.77
581.014	36.65
581.354	36.97
581.693	36.75
582.032	36.84
582.372	37.06
582.711	37.04
583.05	37.18
583.389	37.12
583.728	37.19
584.067	37.27
584.406	37.07
584.745	37.47
585.083	37.21
585.422	37.63
585.761	37.58
586.1	37.53
586.438	37.74
586.777	37.68
587.115	37.91
587.454	37.84
587.792	38.04
588.13	37.66
588.469	37.8
588.807	38.24
589.145	37.92
589.483	37.91
589.821	38.07
590.159	37.77
590.497	38.21
590.835	37.9
591.173	38.02
591.511	38.01
591.849	38.26
592.187	37.98
592.524	38.32
592.862	38.18
593.2	38.32
593.537	38.47
593.875	38.37
594.212	38.54
594.55	38.96
594.887	38.7
595.224	38.64
595.561	38.76
595.899	38.74
596.236	38.69
596.573	38.84
596.91	38.64
597.247	38.81
597.584	39.22
597.921	38.99
598.258	39.07
598.594	38.95
598.931	38.63
599.268	38.55
599.604	38.75
599.941	39.06
600.277	38.98
600.614	39.06
600.95	39.42
601.287	39.62
601.623	39.52
601.959	39.54
602.296	39.9
602.632	39.69
602.968	39.84
603.304	40.08
603.64	39.61
603.976	40.01
604.312	40.08
604.648	39.77
604.984	39.55
605.319	39.48
605.655	39.47
605.991	39.63
606.326	39.84
606.662	39.41
606.998	39.45
607.333	39.4
607.668	39.77
608.004	40.23
608.339	40.38
608.674	40.53
609.01	40.43
609.345	40.58
609.68	40.87
610.015	40.39
610.35	40.63
610.685	40.6
611.02	40.51
611.355	40.26
611.689	40.03
612.024	40.34
612.359	40.45
612.694	40.43
613.028	40.65
613.363	40.69
613.697	41.1
614.032	41.42
614.366	41.27
614.7	41.33
615.035	41.27
615.369	41.43
615.703	41.47
616.037	41.47
616.371	41.6
616.705	41.71
617.039	41.34
617.373	41.88
617.707	41.73
618.041	41.98
618.375	41.73
618.709	41.58
619.042	41.94
619.376	42.21
619.71	42.04
620.043	41.81
620.377	41.48
620.71	41.65
621.043	42.15
621.377	41.82
621.71	41.74
622.043	41.84
622.376	42.23
622.709	41.98
623.043	42.32
623.376	42.24
623.709	42.42
624.041	42.09
624.374	42.44
624.707	43.17
625.04	42.61
625.373	42.26
625.705	42.32
626.038	42.54
626.37	43.2
626.703	42.5
627.035	42.84
627.368	42.48
627.7	43.21
628.032	42.49
628.365	43.03
628.697	42.38
629.029	42.6
629.361	42.32
629.693	42.93
630.025	42.88
630.357	43.34
630.689	43.49
631.021	43
631.353	42.94
631.684	43.02
632.016	43.45
632.348	43.28
632.679	43.22
633.011	43.61
633.342	43.31
633.674	43.7
634.005	43.51
634.336	43.4
634.668	43.85
634.999	44.1
635.33	43.7
635.661	43.66
635.992	43.19
636.323	43.26
636.654	43.75
636.985	44.21
637.316	43.57
637.647	43.55
637.977	43.93
638.308	44.05
638.639	44.07
638.969	44.21
639.3	44.28
639.63	44.04
639.961	44.05
640.291	44.13
640.622	44.31
640.952	44.73
641.282	44.5
641.612	44.17
641.943	44.36
642.273	44.74
642.603	44.94
642.933	44.48
643.263	44.64
643.592	44.87
643.922	44.91
644.252	45.03
644.582	45.34
644.911	44.64
645.241	44.99
645.571	45.1
645.9	44.6
646.23	45.35
646.559	45.51
646.888	44.79
647.218	45.61
647.547	44.7
647.876	45.43
648.205	44.92
648.534	45.56
648.863	45.24
649.192	44.91
649.521	45.53
649.85	45.75
650.179	45.38
650.508	44.91
650.837	45.69
651.165	45.55
651.494	45.74
651.822	46.06
652.151	45.43
652.479	45.79
652.808	45.6
653.136	45.76
653.465	45.72
653.793	45.54
654.121	46.31
654.449	45.58
654.777	45.57
655.105	46.13
655.433	45.91
655.761	46.28
656.089	46.42
656.417	46.51
656.745	46.24
657.073	46.91
657.4	46.3
657.728	46.07
658.056	46.48
658.383	46.21
658.711	46.57
659.038	46.5
659.365	46.9
659.693	46.55
660.02	47.42
660.347	47.04
660.674	46.71
661.001	46.22
661.329	46.26
661.656	46.2
661.982	46.39
662.309	46.41
662.636	47.02
662.963	46.83
663.29	47.13
663.616	47.29
663.943	46.98
664.27	47.28
664.596	47.22
664.923	47.3
665.249	47.45
665.576	46.84
665.902	47.26
666.228	47.23
666.554	47.43
666.881	47.21
667.207	47.38
667.533	47.18
667.859	47.72
668.185	47.16
668.511	47.55
668.837	47.33
669.162	47.65
669.488	48
669.814	48.14
670.139	47.49
670.465	47.2
670.791	48.25
671.116	46.95
