Data from 0141_crown_Reflection__1__06.txt Node

Date: Fri Sep 22 20:25:09 CDT 2023
User: ToomeyLab
Spectrometer: FLMS14357
Trigger mode: 0
Integration Time (sec): 1.000000E-2
Scans to average: 100
Electric dark correction enabled: true
Nonlinearity correction enabled: false
Boxcar width: 0
XAxis mode: Wavelengths
Number of Pixels in Spectrum: 2048
>>>>>Begin Spectral Data<<<<<
189.047	127.1
189.435	127.1
189.823	127.1
190.211	-83.38
190.599	171.13
190.987	-91.5
191.375	-113.6
191.763	-36.31
192.151	77.86
192.538	-21.76
192.926	105.89
193.314	-111.39
193.702	-951.14
194.089	253.25
194.477	383.88
194.864	22.01
195.252	45.13
195.639	2.14
196.027	15.04
196.414	288.54
196.801	1028.93
197.189	1017.71
197.576	222.04
197.963	248.78
198.351	8.82
198.738	20.65
199.125	-2.31
199.512	27.27
199.899	55.1
200.286	10.97
200.673	12.53
201.06	-16.31
201.447	-2.24
201.833	-280.8
202.22	29.02
202.607	59.83
202.994	19.06
203.38	-6.74
203.767	22.6
204.154	-5.81
204.54	11.06
204.927	-31.73
205.313	2.75
205.699	35.97
206.086	17.4
206.472	27.05
206.858	46.19
207.245	-12.02
207.631	10.87
208.017	-6.82
208.403	12.73
208.789	9.14
209.175	6.41
209.561	11.06
209.947	37.91
210.333	27.4
210.719	-22.46
211.105	19.29
211.491	7.61
211.876	32.01
212.262	38.42
212.648	-4.75
213.034	40.94
213.419	8.79
213.805	12.78
214.19	22.02
214.576	56.2
214.961	11.03
215.346	-14.51
215.732	25.29
216.117	-15.68
216.502	29.82
216.888	25.47
217.273	5.85
217.658	-26.29
218.043	19.89
218.428	20.23
218.813	-7.52
219.198	1.47
219.583	-9.31
219.968	-7.62
220.353	22.97
220.738	1.83
221.122	13.62
221.507	6.98
221.892	13.55
222.276	8.38
222.661	-26.67
223.046	16.31
223.43	22.77
223.815	11.55
224.199	-5.84
224.583	9.77
224.968	7.2
225.352	-2.74
225.736	4.25
226.121	2.68
226.505	3.84
226.889	2.89
227.273	2.05
227.657	3.65
228.041	5.06
228.425	6.14
228.809	1.79
229.193	5.09
229.577	5.17
229.961	5.14
230.344	5.64
230.728	3.42
231.112	4.36
231.495	2.82
231.879	4.14
232.263	2.55
232.646	3.85
233.03	2.66
233.413	4.48
233.797	4.14
234.18	3.31
234.563	4.16
234.946	3.83
235.33	1.12
235.713	0.94
236.096	2.78
236.479	4.19
236.862	4.89
237.245	3.39
237.628	4.47
238.011	3.36
238.394	3.04
238.777	4.09
239.16	5.89
239.543	4.97
239.925	4.79
240.308	5.01
240.691	3.62
241.073	4.29
241.456	2.73
241.838	4.27
242.221	3.48
242.603	3.76
242.986	3.21
243.368	2.96
243.75	3.8
244.133	3.65
244.515	3.5
244.897	3.16
245.279	3.23
245.661	3.77
246.043	3.38
246.425	2.98
246.807	4.06
247.189	2.13
247.571	3.77
247.953	3.24
248.335	3.36
248.717	3.39
249.098	3.17
249.48	3.12
249.862	3.41
250.243	3.36
250.625	3.17
251.006	2.94
251.388	3.23
251.769	3.46
252.151	2.66
252.532	2.84
252.913	3.83
253.295	3.61
253.676	3.34
254.057	3.38
254.438	3.54
254.819	2.94
255.2	3.33
255.581	2.94
255.962	4.22
256.343	2.9
256.724	1.95
257.105	2.97
257.486	2.59
257.867	3.54
258.247	2.76
258.628	3.31
259.009	2.32
259.389	2.19
259.77	3.26
260.15	3.81
260.531	2.64
260.911	3.64
261.292	2.93
261.672	2.85
262.052	2.81
262.432	2.87
262.813	3.14
263.193	2.61
263.573	3.83
263.953	2.96
264.333	2.67
264.713	3.09
265.093	3.42
265.473	2.73
265.853	3.33
266.233	2.51
266.612	2.02
266.992	3.44
267.372	2.88
267.752	2.86
268.131	2.66
268.511	2.49
268.89	2.92
269.27	2.73
269.649	3.14
270.029	2.49
270.408	2.89
270.787	3.05
271.167	3.42
271.546	2.55
271.925	3.02
272.304	2.56
272.683	3.25
273.062	3.14
273.441	2.81
273.82	3.23
274.199	3.34
274.578	3.19
274.957	2.59
275.336	2.48
275.715	2.76
276.093	2.61
276.472	2.55
276.851	2.86
277.229	2.73
277.608	3.07
277.986	2.64
278.365	2.72
278.743	3.05
279.122	3.48
279.5	3.28
279.878	2.39
280.257	3.58
280.635	2.97
281.013	3.25
281.391	2.64
281.769	2.65
282.147	2.75
282.525	2.96
282.903	2.72
283.281	2.54
283.659	2.59
284.037	2.46
284.415	2.52
284.792	2.51
285.17	2.91
285.548	3.51
285.925	2.98
286.303	2.85
286.68	2.34
287.058	2.5
287.435	3.09
287.813	2.46
288.19	2.52
288.567	2.93
288.945	2.61
289.322	2.98
289.699	2.95
290.076	3.24
290.453	2.64
290.83	2.34
291.207	2.91
291.584	2.16
291.961	2.38
292.338	2.71
292.715	2.67
293.092	2.92
293.469	2.79
293.845	2.38
294.222	2.86
294.599	2.51
294.975	2.55
295.352	2.55
295.728	2.32
296.105	2.91
296.481	2.53
296.858	2.66
297.234	2.69
297.61	2.66
297.986	2.72
298.363	2.62
298.739	2.79
299.115	2.79
299.491	2.77
299.867	2.97
300.243	2.37
300.619	2.73
300.995	2.31
301.371	2.84
301.746	2.97
302.122	2.61
302.498	2.47
302.874	2.66
303.249	3.21
303.625	2.57
304	2.76
304.376	3.22
304.751	2.62
305.127	3.07
305.502	3.08
305.878	2.87
306.253	2.58
306.628	2.32
307.003	3.1
307.378	2.38
307.754	2.93
308.129	2.66
308.504	2.77
308.879	2.26
309.254	2.76
309.629	2.44
310.003	3
310.378	2.77
310.753	2.88
311.128	2.89
311.502	3.13
311.877	2.45
312.252	2.86
312.626	2.95
313.001	3.06
313.375	2.96
313.75	2.99
314.124	3.27
314.498	2.56
314.873	3.13
315.247	3.19
315.621	2.74
315.995	2.76
316.369	2.33
316.743	2.45
317.117	3.31
317.491	3.14
317.865	3
318.239	3
318.613	2.7
318.987	2.74
319.361	2.53
319.734	2.46
320.108	2.96
320.482	2.83
320.855	2.15
321.229	3.06
321.602	3.13
321.976	3.03
322.349	2.68
322.723	2.55
323.096	2.7
323.469	3.18
323.843	2.32
324.216	3.32
324.589	3.1
324.962	2.7
325.335	2.58
325.708	2.88
326.081	2.9
326.454	2.45
326.827	2.73
327.2	2.91
327.573	3.39
327.945	2.8
328.318	2.46
328.691	2.88
329.063	2.62
329.436	2.63
329.809	3.11
330.181	2.9
330.553	3.05
330.926	3.19
331.298	3.32
331.671	2.9
332.043	2.37
332.415	2.42
332.787	2.72
333.159	3.05
333.532	2.55
333.904	2.86
334.276	2.47
334.648	2.43
335.02	2.8
335.391	2.27
335.763	3.56
336.135	2.68
336.507	2.72
336.879	2.78
337.25	2.98
337.622	3.13
337.993	2.55
338.365	2.72
338.736	2.83
339.108	3
339.479	2.97
339.851	2.18
340.222	2.74
340.593	2.37
340.964	2.28
341.336	2.62
341.707	2.48
342.078	3.28
342.449	2.83
342.82	2.61
343.191	2.48
343.562	2.46
343.933	2.59
344.303	2.91
344.674	2.75
345.045	2.88
345.416	2.65
345.786	2.53
346.157	2.77
346.527	2.67
346.898	2.63
347.268	2.66
347.639	2.72
348.009	2.67
348.38	2.93
348.75	3.4
349.12	2.65
349.49	2.93
349.861	2.31
350.231	2.91
350.601	2.61
350.971	3.17
351.341	2.6
351.711	2.47
352.081	2.51
352.45	2.49
352.82	3.07
353.19	3.28
353.56	2.44
353.929	2.53
354.299	2.94
354.669	2.47
355.038	2.91
355.408	2.61
355.777	2.91
356.147	2.72
356.516	2.94
356.885	2.78
357.254	3.04
357.624	2.77
357.993	2.77
358.362	2.54
358.731	2.57
359.1	2.77
359.469	2.68
359.838	2.42
360.207	2.6
360.576	2.89
360.945	2.66
361.314	2.96
361.682	2.72
362.051	2.88
362.42	2.65
362.788	2.58
363.157	2.79
363.525	2.73
363.894	2.8
364.262	2.71
364.631	2.79
364.999	2.7
365.367	3.28
365.735	2.82
366.104	2.88
366.472	3.09
366.84	2.86
367.208	3.32
367.576	2.91
367.944	2.89
368.312	3.15
368.68	3.02
369.048	2.85
369.416	2.64
369.783	2.44
370.151	2.58
370.519	2.85
370.886	2.85
371.254	3.16
371.621	2.44
371.989	2.52
372.356	2.58
372.724	3.02
373.091	2.86
373.458	2.63
373.826	2.78
374.193	2.95
374.56	2.73
374.927	2.83
375.294	2.77
375.661	2.9
376.028	2.76
376.395	3.14
376.762	2.63
377.129	2.97
377.496	3.25
377.863	3.27
378.229	2.75
378.596	2.96
378.963	3.15
379.329	2.98
379.696	2.91
380.062	2.5
380.429	2.98
380.795	3.03
381.161	2.69
381.528	2.63
381.894	2.54
382.26	3
382.626	2.89
382.993	3.06
383.359	2.55
383.725	2.88
384.091	2.74
384.457	2.49
384.823	2.79
385.188	2.93
385.554	2.82
385.92	3.14
386.286	2.9
386.651	2.86
387.017	2.82
387.383	2.8
387.748	2.83
388.114	2.88
388.479	2.93
388.845	2.63
389.21	2.49
389.575	2.87
389.94	2.61
390.306	2.73
390.671	3.06
391.036	2.59
391.401	2.74
391.766	2.71
392.131	2.64
392.496	2.9
392.861	2.67
393.226	2.86
393.591	2.76
393.956	2.72
394.32	2.83
394.685	2.6
395.05	2.92
395.414	3.02
395.779	2.89
396.143	2.78
396.508	2.7
396.872	2.75
397.236	2.72
397.601	2.69
397.965	3
398.329	2.82
398.694	2.65
399.058	2.89
399.422	2.82
399.786	2.8
400.15	2.93
400.514	2.91
400.878	2.89
401.242	2.96
401.605	2.8
401.969	2.51
402.333	2.92
402.697	2.51
403.06	2.79
403.424	2.65
403.787	2.76
404.151	3.1
404.514	2.86
404.878	2.87
405.241	2.82
405.604	2.78
405.968	2.87
406.331	3.02
406.694	2.93
407.057	2.52
407.42	2.83
407.783	2.84
408.146	2.77
408.509	2.76
408.872	2.7
409.235	2.74
409.598	2.94
409.961	3.03
410.323	3
410.686	2.91
411.049	2.95
411.411	3.06
411.774	2.6
412.136	2.73
412.499	2.83
412.861	2.81
413.223	2.83
413.586	2.87
413.948	2.9
414.31	2.7
414.672	2.72
415.035	2.62
415.397	3.3
415.759	2.96
416.121	2.87
416.483	3.02
416.845	2.75
417.206	2.68
417.568	2.8
417.93	2.87
418.292	2.82
418.653	2.74
419.015	2.78
419.377	2.74
419.738	2.82
420.1	2.69
420.461	2.78
420.822	2.66
421.184	2.71
421.545	2.66
421.906	2.66
422.267	2.7
422.629	2.77
422.99	2.63
423.351	2.59
423.712	2.69
424.073	2.72
424.434	2.72
424.795	2.77
425.155	2.71
425.516	2.68
425.877	2.68
426.238	2.65
426.598	2.64
426.959	2.7
427.32	2.7
427.68	2.64
428.041	2.58
428.401	2.79
428.761	2.85
429.122	2.72
429.482	2.66
429.842	2.73
430.202	2.66
430.563	2.85
430.923	2.78
431.283	2.89
431.643	2.92
432.003	2.87
432.363	2.86
432.722	2.85
433.082	2.98
433.442	2.78
433.802	2.72
434.161	2.66
434.521	2.78
434.881	2.71
435.24	2.72
435.6	2.68
435.959	2.61
436.319	2.71
436.678	2.76
437.037	2.77
437.396	2.64
437.756	2.83
438.115	2.7
438.474	2.62
438.833	2.85
439.192	2.6
439.551	2.7
439.91	2.74
440.269	2.84
440.628	2.61
440.987	2.7
441.345	2.74
441.704	2.82
442.063	2.69
442.421	2.62
442.78	2.69
443.138	2.63
443.497	2.64
443.855	2.83
444.214	2.55
444.572	2.72
444.93	2.85
445.288	2.75
445.647	2.83
446.005	2.68
446.363	2.63
446.721	2.67
447.079	2.58
447.437	2.67
447.795	2.7
448.153	2.53
448.51	2.66
448.868	2.59
449.226	2.6
449.584	2.68
449.941	2.62
450.299	2.74
450.656	2.86
451.014	2.75
451.371	2.77
451.729	2.73
452.086	2.65
452.443	2.74
452.801	2.77
453.158	2.7
453.515	2.8
453.872	2.65
454.229	2.68
454.586	2.77
454.943	2.82
455.3	2.72
455.657	2.6
456.014	2.74
456.371	2.7
456.727	2.87
457.084	2.77
457.441	2.56
457.797	2.66
458.154	2.69
458.51	2.73
458.867	2.61
459.223	2.72
459.58	2.65
459.936	2.8
460.292	2.84
460.648	2.77
461.005	2.7
461.361	2.71
461.717	2.52
462.073	2.66
462.429	2.52
462.785	2.64
463.141	2.64
463.496	2.84
463.852	2.72
464.208	2.69
464.564	2.74
464.919	2.72
465.275	2.78
465.631	2.82
465.986	2.66
466.342	2.93
466.697	2.83
467.052	2.67
467.408	2.75
467.763	2.75
468.118	2.88
468.473	2.87
468.829	2.52
469.184	2.7
469.539	2.65
469.894	2.67
470.249	2.64
470.603	2.69
470.958	2.75
471.313	2.82
471.668	2.74
472.023	2.72
472.377	2.73
472.732	2.57
473.086	2.89
473.441	2.43
473.795	2.81
474.15	2.54
474.504	2.57
474.859	2.84
475.213	2.52
475.567	2.58
475.921	2.74
476.275	2.65
476.63	2.58
476.984	2.58
477.338	2.81
477.692	2.67
478.045	2.71
478.399	2.81
478.753	2.62
479.107	2.72
479.461	2.62
479.814	2.76
480.168	2.79
480.521	2.63
480.875	2.77
481.228	2.59
481.582	2.57
481.935	2.66
482.289	2.58
482.642	2.59
482.995	2.57
483.348	2.64
483.701	2.66
484.055	2.56
484.408	2.7
484.761	2.7
485.114	2.57
485.466	2.51
485.819	2.41
486.172	2.39
486.525	2.47
486.878	2.53
487.23	2.55
487.583	2.6
487.936	2.56
488.288	2.58
488.641	2.56
488.993	2.51
489.345	2.46
489.698	2.46
490.05	2.5
490.402	2.55
490.754	2.5
491.107	2.55
491.459	2.59
491.811	2.58
492.163	2.62
492.515	2.57
492.866	2.64
493.218	2.57
493.57	2.53
493.922	2.49
494.274	2.49
494.625	2.52
494.977	2.63
495.328	2.7
495.68	2.66
496.031	2.63
496.383	2.66
496.734	2.68
497.086	2.67
497.437	2.63
497.788	2.63
498.139	2.63
498.49	2.65
498.842	2.55
499.193	2.58
499.544	2.65
499.894	2.61
500.245	2.69
500.596	2.58
500.947	2.68
501.298	2.67
501.648	2.63
501.999	2.74
502.35	2.72
502.7	2.8
503.051	2.67
503.401	2.7
503.752	2.66
504.102	2.66
504.452	2.61
504.803	2.62
505.153	2.55
505.503	2.61
505.853	2.73
506.203	2.6
506.553	2.61
506.903	2.61
507.253	2.59
507.603	2.62
507.953	2.61
508.303	2.64
508.652	2.64
509.002	2.66
509.352	2.61
509.701	2.65
510.051	2.66
510.4	2.58
510.75	2.61
511.099	2.49
511.449	2.65
511.798	2.67
512.147	2.69
512.496	2.61
512.846	2.62
513.195	2.69
513.544	2.71
513.893	2.7
514.242	2.61
514.591	2.64
514.939	2.64
515.288	2.52
515.637	2.65
515.986	2.64
516.334	2.69
516.683	2.62
517.032	2.73
517.38	2.77
517.729	2.79
518.077	2.66
518.426	2.61
518.774	2.65
519.122	2.5
519.47	2.68
519.819	2.59
520.167	2.68
520.515	2.58
520.863	2.55
521.211	2.52
521.559	2.57
521.907	2.73
522.255	2.72
522.602	2.66
522.95	2.58
523.298	2.6
523.645	2.7
523.993	2.58
524.341	2.7
524.688	2.79
525.036	2.75
525.383	2.65
525.73	2.78
526.078	2.57
526.425	2.65
526.772	2.74
527.119	2.64
527.466	2.51
527.814	2.54
528.161	2.53
528.508	2.58
528.854	2.67
529.201	2.63
529.548	2.63
529.895	2.57
530.242	2.47
530.588	2.39
530.935	2.38
531.282	2.42
531.628	2.51
531.975	2.53
532.321	2.53
532.667	2.59
533.014	2.6
533.36	2.64
533.706	2.62
534.052	2.65
534.399	2.68
534.745	2.62
535.091	2.46
535.437	2.47
535.783	2.4
536.129	2.52
536.474	2.64
536.82	2.54
537.166	2.66
537.512	2.63
537.857	2.59
538.203	2.65
538.549	2.57
538.894	2.56
539.239	2.59
539.585	2.55
539.93	2.62
540.276	2.53
540.621	2.64
540.966	2.59
541.311	2.67
541.656	2.58
542.001	2.63
542.346	2.55
542.691	2.67
543.036	2.57
543.381	2.42
543.726	2.45
544.071	2.48
544.415	2.53
544.76	2.55
545.105	2.49
545.449	2.5
545.794	2.63
546.138	2.61
546.483	2.59
546.827	2.6
547.171	2.54
547.516	2.71
547.86	2.66
548.204	2.6
548.548	2.54
548.892	2.65
549.236	2.55
549.58	2.63
549.924	2.69
550.268	2.78
550.612	2.61
550.956	2.62
551.3	2.63
551.643	2.58
551.987	2.74
552.33	2.93
552.674	2.71
553.017	2.52
553.361	2.62
553.704	2.75
554.048	2.63
554.391	2.7
554.734	2.62
555.077	2.54
555.42	2.56
555.764	2.53
556.107	2.62
556.45	2.62
556.793	2.65
557.135	2.71
557.478	2.64
557.821	2.7
558.164	2.86
558.507	2.79
558.849	2.59
559.192	2.87
559.534	2.76
559.877	2.8
560.219	2.7
560.562	2.74
560.904	2.85
561.246	2.89
561.589	2.77
561.931	2.62
562.273	2.44
562.615	2.62
562.957	2.5
563.299	2.62
563.641	2.78
563.983	2.77
564.325	2.71
564.667	2.77
565.008	2.76
565.35	2.66
565.692	2.75
566.033	2.61
566.375	2.74
566.716	2.66
567.058	2.58
567.399	2.75
567.741	2.8
568.082	2.56
568.423	2.55
568.764	2.76
569.105	2.54
569.447	2.69
569.788	2.38
570.129	2.78
570.47	2.79
570.811	2.59
571.151	2.79
571.492	2.62
571.833	2.49
572.174	2.62
572.514	2.71
572.855	2.59
573.195	2.63
573.536	2.72
573.876	2.56
574.217	2.67
574.557	2.69
574.898	2.68
575.238	2.58
575.578	2.79
575.918	2.8
576.258	2.54
576.598	2.73
576.938	2.73
577.278	2.73
577.618	2.55
577.958	2.67
578.298	2.8
578.638	2.6
578.977	2.66
579.317	2.59
579.657	2.69
579.996	2.77
580.336	2.76
580.675	2.91
581.014	2.53
581.354	2.59
581.693	2.79
582.032	2.94
582.372	2.64
582.711	2.71
583.05	2.66
583.389	2.63
583.728	2.74
584.067	2.68
584.406	2.72
584.745	2.43
585.083	2.97
585.422	2.8
585.761	2.72
586.1	2.72
586.438	2.78
586.777	2.64
587.115	2.86
587.454	2.66
587.792	2.83
588.13	2.9
588.469	2.51
588.807	2.78
589.145	2.64
589.483	2.78
589.821	2.9
590.159	2.42
590.497	2.91
590.835	2.84
591.173	2.72
591.511	2.76
591.849	2.75
592.187	2.69
592.524	2.92
592.862	2.6
593.2	2.67
593.537	2.54
593.875	2.88
594.212	2.8
594.55	2.89
594.887	2.66
595.224	2.67
595.561	2.97
595.899	2.92
596.236	2.83
596.573	2.96
596.91	2.76
597.247	2.6
597.584	2.77
597.921	2.85
598.258	2.67
598.594	2.91
598.931	2.81
599.268	2.7
599.604	2.74
599.941	2.74
600.277	2.59
600.614	2.6
600.95	2.88
601.287	2.78
601.623	2.91
601.959	2.76
602.296	2.72
602.632	2.65
602.968	2.81
603.304	2.87
603.64	2.58
603.976	2.85
604.312	2.76
604.648	2.65
604.984	2.7
605.319	2.68
605.655	2.55
605.991	2.61
606.326	2.89
606.662	2.64
606.998	2.71
607.333	2.73
607.668	2.55
608.004	2.82
608.339	2.82
608.674	2.83
609.01	2.81
609.345	2.72
609.68	2.89
610.015	2.7
610.35	2.79
610.685	3.11
611.02	2.85
611.355	2.79
611.689	2.71
612.024	2.81
612.359	2.68
612.694	2.79
613.028	2.79
613.363	2.62
613.697	2.84
614.032	2.94
614.366	2.57
614.7	2.67
615.035	2.61
615.369	2.67
615.703	2.71
616.037	2.78
616.371	2.74
616.705	2.9
617.039	2.8
617.373	2.81
617.707	2.54
618.041	2.72
618.375	2.74
618.709	2.79
619.042	3.24
619.376	2.75
619.71	3.01
620.043	2.58
620.377	2.73
620.71	2.77
621.043	2.94
621.377	3.05
621.71	2.77
622.043	2.84
622.376	3.27
622.709	2.97
623.043	2.86
623.376	2.89
623.709	3.12
624.041	2.8
624.374	2.83
624.707	2.9
625.04	3.11
625.373	2.63
625.705	2.75
626.038	2.62
626.37	2.92
626.703	2.8
627.035	2.94
627.368	2.82
627.7	3.18
628.032	3.21
628.365	3.07
628.697	2.78
629.029	2.73
629.361	2.8
629.693	2.81
630.025	2.64
630.357	2.84
630.689	2.77
631.021	2.84
631.353	3.01
631.684	2.9
632.016	3.16
632.348	2.52
632.679	2.67
633.011	2.89
633.342	2.95
633.674	3.1
634.005	2.5
634.336	2.79
634.668	3.01
634.999	3.07
635.33	3
635.661	2.85
635.992	3.02
636.323	2.76
636.654	2.55
636.985	2.69
637.316	2.94
637.647	2.83
637.977	2.78
638.308	3.25
638.639	2.67
638.969	3.13
639.3	2.77
639.63	3.12
639.961	2.81
640.291	3.05
640.622	2.94
640.952	2.71
641.282	2.74
641.612	2.81
641.943	3.23
642.273	2.94
642.603	2.98
642.933	3.03
643.263	2.59
643.592	3.08
643.922	3.14
644.252	3.15
644.582	3.13
644.911	2.73
645.241	3.27
645.571	2.72
645.9	3.25
646.23	2.94
646.559	3.09
646.888	3.09
647.218	2.56
647.547	2.68
647.876	3.15
648.205	2.62
648.534	3.07
648.863	2.72
649.192	2.2
649.521	2.82
649.85	3.36
650.179	2.59
650.508	2.84
650.837	3.05
651.165	2.85
651.494	2.98
651.822	3
652.151	2.75
652.479	2.58
652.808	2.64
653.136	2.91
653.465	2.74
653.793	2.64
654.121	3.48
654.449	2.34
654.777	2.94
655.105	3.21
655.433	3.2
655.761	3.56
656.089	3.08
656.417	2.91
656.745	3.01
657.073	2.76
657.4	3.4
657.728	2.51
658.056	2.7
658.383	3.19
658.711	2.95
659.038	2.88
659.365	3.31
659.693	2.55
660.02	2.94
660.347	3.38
660.674	2.74
661.001	2.82
661.329	3.01
661.656	3.15
661.982	2.75
662.309	3.13
662.636	3.05
662.963	2.81
663.29	2.78
663.616	3.29
663.943	2.97
664.27	2.94
664.596	3.3
664.923	2.77
665.249	2.42
665.576	2.31
665.902	3.12
666.228	3.09
666.554	2.86
666.881	3.5
667.207	2.81
667.533	2.88
667.859	2.86
668.185	3.06
668.511	3.4
668.837	3.2
669.162	3.34
669.488	3.19
669.814	2.87
670.139	2.83
670.465	3.21
670.791	3
671.116	2.87
671.442	3.58
671.767	2.02
672.092	3.37
672.418	3.69
672.743	2.8
673.068	3.25
673.393	3.12
673.718	3.58
674.043	3.54
674.368	3.25
674.693	2.72
675.018	2.82
675.343	3
675.667	3.37
675.992	3.39
676.317	3.31
676.641	3.02
676.966	2.74
677.29	2.52
677.615	3.31
677.939	3.44
678.264	2.82
678.588	4.19
678.912	2.94
679.236	3.42
679.56	2.59
679.885	2.81
680.209	3.42
680.532	2.95
680.856	2.93
681.18	3.68
681.504	3.12
681.828	3.08
682.152	3.01
682.475	3.49
682.799	3.1
683.122	3
683.446	3.2
683.769	3.34
684.093	3.29
684.416	3.35
684.739	2.87
685.062	3.77
685.386	2.96
685.709	3.44
686.032	2.66
686.355	3.3
686.678	3.15
687.001	2.87
687.324	3.4
687.646	3.3
687.969	3.76
688.292	3.6
688.614	3.48
688.937	3.16
689.26	3.2
689.582	3.48
689.904	2.98
690.227	3.63
690.549	3.96
690.871	2.68
691.194	3.18
691.516	3.4
691.838	3.31
692.16	3.37
692.482	2.53
692.804	2.87
