Data from 0141_crown_Reflection__2__07.txt Node

Date: Fri Sep 22 20:25:19 CDT 2023
User: ToomeyLab
Spectrometer: FLMS14357
Trigger mode: 0
Integration Time (sec): 1.000000E-2
Scans to average: 100
Electric dark correction enabled: true
Nonlinearity correction enabled: false
Boxcar width: 0
XAxis mode: Wavelengths
Number of Pixels in Spectrum: 2048
>>>>>Begin Spectral Data<<<<<
189.047	60.33
189.435	60.33
189.823	60.33
190.211	31.89
190.599	232.74
190.987	135.74
191.375	-112.33
191.763	-56.14
192.151	95.31
192.538	-143.52
192.926	82.16
193.314	147.12
193.702	-408.33
194.089	259.83
194.477	196.71
194.864	71.22
195.252	-40.73
195.639	99.28
196.027	85.16
196.414	170.42
196.801	386.43
197.189	243.75
197.576	164.76
197.963	323.96
198.351	34.92
198.738	16.26
199.125	-15.29
199.512	26.21
199.899	84.6
200.286	13.38
200.673	34.48
201.06	-7.55
201.447	29.76
201.833	-44.57
202.22	13.03
202.607	20.3
202.994	21.76
203.38	11.09
203.767	-66.82
204.154	23.03
204.54	22.5
204.927	2.28
205.313	-15.92
205.699	34.19
206.086	34.4
206.472	46.09
206.858	25.4
207.245	-38.32
207.631	23.2
208.017	31.42
208.403	-26.99
208.789	36.52
209.175	43.84
209.561	84.26
209.947	20.12
210.333	20.99
210.719	-3.96
211.105	19.23
211.491	-11.11
211.876	36.19
212.262	13.21
212.648	-2.76
213.034	13.26
213.419	2.05
213.805	8.64
214.19	5.62
214.576	12.81
214.961	23.77
215.346	26.07
215.732	9.93
216.117	22.82
216.502	27.39
216.888	15.3
217.273	23.69
217.658	19.52
218.043	-1.95
218.428	22.93
218.813	-16.21
219.198	3.88
219.583	8.23
219.968	1.91
220.353	28.51
220.738	26.44
221.122	0.36
221.507	-7.97
221.892	16.8
222.276	-2.04
222.661	-11.01
223.046	21.19
223.43	21.34
223.815	10.73
224.199	-2.34
224.583	14.56
224.968	13.58
225.352	2.19
225.736	9.23
226.121	8.39
226.505	3.51
226.889	2.92
227.273	-1.13
227.657	6.38
228.041	3.51
228.425	8.68
228.809	3.09
229.193	2.67
229.577	3.67
229.961	6.18
230.344	6.29
230.728	3.51
231.112	4.06
231.495	4.12
231.879	4.68
232.263	3.51
232.646	3.93
233.03	5.2
233.413	4.92
233.797	5.07
234.18	3.68
234.563	4.62
234.946	5.52
235.33	0.45
235.713	2.39
236.096	4.33
236.479	3.52
236.862	5.49
237.245	4.14
237.628	5.4
238.011	4.8
238.394	4.88
238.777	4.2
239.16	4.87
239.543	5.27
239.925	4.6
240.308	4.46
240.691	4.2
241.073	4
241.456	3.94
241.838	3.5
242.221	4.04
242.603	4.76
242.986	4.41
243.368	4.27
243.75	4.12
244.133	4.12
244.515	3.76
244.897	3.73
245.279	3.7
245.661	3.82
246.043	4.29
246.425	3.33
246.807	4.25
247.189	2.43
247.571	4.63
247.953	4.49
248.335	3.64
248.717	3.7
249.098	3.77
249.48	3.64
249.862	3.43
250.243	3.79
250.625	4
251.006	3.33
251.388	4.01
251.769	4.22
252.151	3.52
252.532	4.13
252.913	4.56
253.295	4.63
253.676	3.02
254.057	3.4
254.438	4.1
254.819	3.47
255.2	3.97
255.581	3.46
255.962	4.5
256.343	3.77
256.724	3.1
257.105	4.04
257.486	3.45
257.867	4.28
258.247	3.44
258.628	4.01
259.009	3.63
259.389	4.07
259.77	4
260.15	3.81
260.531	3.31
260.911	3.74
261.292	3.19
261.672	3.19
262.052	3.2
262.432	3.27
262.813	3.75
263.193	3.44
263.573	3.82
263.953	3.61
264.333	3.06
264.713	3.76
265.093	3.49
265.473	3.44
265.853	3.28
266.233	3.59
266.612	3.5
266.992	3.75
267.372	3.47
267.752	3.42
268.131	3.33
268.511	3.15
268.89	3.46
269.27	3.09
269.649	3.12
270.029	3.26
270.408	3.53
270.787	3.21
271.167	3.61
271.546	3.33
271.925	3.64
272.304	2.89
272.683	3.47
273.062	3.05
273.441	3.16
273.82	3.61
274.199	3.32
274.578	3.77
274.957	3.06
275.336	3.2
275.715	3.5
276.093	3.37
276.472	3.2
276.851	3.34
277.229	3.1
277.608	3.5
277.986	3.1
278.365	3.95
278.743	3.45
279.122	3.39
279.5	3.57
279.878	3.25
280.257	3.94
280.635	3.71
281.013	3.52
281.391	2.56
281.769	3.48
282.147	3.31
282.525	3.21
282.903	3.56
283.281	3.32
283.659	3.43
284.037	3.45
284.415	3.26
284.792	3.11
285.17	3.1
285.548	3.65
285.925	3.22
286.303	3.25
286.68	2.96
287.058	2.68
287.435	2.94
287.813	3.05
288.19	2.88
288.567	3.44
288.945	2.94
289.322	3.16
289.699	3.16
290.076	3.06
290.453	3.01
290.83	2.97
291.207	3.06
291.584	3.06
291.961	2.88
292.338	3.25
292.715	3.28
293.092	3.08
293.469	3.19
293.845	2.95
294.222	3.02
294.599	3.43
294.975	3.19
295.352	3.15
295.728	3.1
296.105	3.82
296.481	3.31
296.858	3.21
297.234	3.18
297.61	2.99
297.986	3.27
298.363	3.22
298.739	3.47
299.115	3.17
299.491	3.38
299.867	3.13
300.243	2.75
300.619	3.11
300.995	2.98
301.371	3.42
301.746	3.31
302.122	2.94
302.498	2.99
302.874	2.83
303.249	2.47
303.625	2.72
304	3.39
304.376	3.68
304.751	3.88
305.127	3.19
305.502	3.55
305.878	3.2
306.253	3.26
306.628	3.11
307.003	2.95
307.378	3.3
307.754	2.95
308.129	3.28
308.504	3.28
308.879	3.37
309.254	3.54
309.629	3.13
310.003	3.97
310.378	3.6
310.753	3.42
311.128	3.06
311.502	2.94
311.877	3.12
312.252	3.33
312.626	3.47
313.001	3.12
313.375	3.31
313.75	3.6
314.124	3.74
314.498	2.92
314.873	3.12
315.247	3.27
315.621	3.2
315.995	3.54
316.369	2.93
316.743	3.45
317.117	3.47
317.491	3.47
317.865	3.28
318.239	3.31
318.613	3.66
318.987	3.85
319.361	2.94
319.734	3.21
320.108	3.97
320.482	2.86
320.855	3.05
321.229	3.56
321.602	3.31
321.976	3.36
322.349	3.35
322.723	3.38
323.096	3.34
323.469	2.84
323.843	2.99
324.216	3.07
324.589	3.48
324.962	3.08
325.335	3.02
325.708	3.02
326.081	3.44
326.454	2.55
326.827	3.18
327.2	3.56
327.573	3.43
327.945	3.17
328.318	3.25
328.691	3.63
329.063	2.86
329.436	3.1
329.809	3.28
330.181	3.21
330.553	3.21
330.926	3.75
331.298	3.2
331.671	3.4
332.043	2.51
332.415	2.9
332.787	3.93
333.159	2.55
333.532	3.29
333.904	3.37
334.276	2.98
334.648	2.77
335.02	2.55
335.391	3.13
335.763	3.3
336.135	3.75
336.507	3.19
336.879	2.84
337.25	3.23
337.622	3.52
337.993	3.04
338.365	3.08
338.736	3.16
339.108	3.23
339.479	2.98
339.851	2.56
340.222	2.61
340.593	2.8
340.964	2.94
341.336	3.24
341.707	3.1
342.078	3.16
342.449	3.24
342.82	3.3
343.191	2.68
343.562	3.01
343.933	3.39
344.303	2.98
344.674	3.33
345.045	3.09
345.416	3.01
345.786	3.18
346.157	3.11
346.527	2.98
346.898	2.94
347.268	2.75
347.639	3.13
348.009	3.24
348.38	3.31
348.75	3.29
349.12	2.97
349.49	3.34
349.861	3.29
350.231	3.19
350.601	2.91
350.971	3.37
351.341	3.03
351.711	2.87
352.081	3.16
352.45	2.82
352.82	3.16
353.19	3.38
353.56	2.94
353.929	3.28
354.299	3.17
354.669	3.34
355.038	3.29
355.408	3.16
355.777	3.23
356.147	3.04
356.516	3.31
356.885	2.92
357.254	3.46
357.624	2.67
357.993	2.84
358.362	3.1
358.731	2.87
359.1	3.01
359.469	3.47
359.838	2.9
360.207	2.87
360.576	3.24
360.945	3.09
361.314	3.22
361.682	3.36
362.051	3.41
362.42	3.09
362.788	2.88
363.157	3.26
363.525	3.12
363.894	3.11
364.262	2.79
364.631	3.08
364.999	3
365.367	3.37
365.735	3.02
366.104	2.81
366.472	3.21
366.84	3.01
367.208	3.32
367.576	3.22
367.944	3.2
368.312	3.32
368.68	3.24
369.048	3.28
369.416	3.11
369.783	2.74
370.151	2.91
370.519	3.01
370.886	2.99
371.254	3.42
371.621	2.87
371.989	3.23
372.356	2.85
372.724	3.22
373.091	3.49
373.458	3.2
373.826	3.15
374.193	3.2
374.56	3.05
374.927	3.29
375.294	2.8
375.661	2.84
376.028	3
376.395	3.36
376.762	3.42
377.129	3.34
377.496	3.38
377.863	3.18
378.229	3.3
378.596	3.34
378.963	3.44
379.329	3.09
379.696	3.43
380.062	2.98
380.429	3.25
380.795	3.15
381.161	3.24
381.528	3.06
381.894	2.74
382.26	3.16
382.626	2.91
382.993	3.15
383.359	3.01
383.725	3.08
384.091	3.2
384.457	3.11
384.823	2.94
385.188	3.12
385.554	3.23
385.92	3.3
386.286	3.16
386.651	3.24
387.017	3.29
387.383	3.11
387.748	3.22
388.114	3.17
388.479	3.4
388.845	3.01
389.21	2.64
389.575	3.43
389.94	3.1
390.306	3.15
390.671	3.44
391.036	2.95
391.401	3.16
391.766	3.03
392.131	3.09
392.496	3.25
392.861	2.96
393.226	3.2
393.591	3.24
393.956	3.29
394.32	3.06
394.685	3.24
395.05	3.29
395.414	3.4
395.779	3.13
396.143	3.19
396.508	3.07
396.872	3.24
397.236	3.09
397.601	3.19
397.965	3.3
398.329	3.4
398.694	3.27
399.058	3.04
399.422	3.21
399.786	3.07
400.15	3.3
400.514	3.2
400.878	2.95
401.242	3.39
401.605	3.31
401.969	2.94
402.333	3.24
402.697	3.13
403.06	3.1
403.424	3.12
403.787	3.21
404.151	3.44
404.514	3.41
404.878	3.26
405.241	3.5
405.604	3.24
405.968	3.22
406.331	3.07
406.694	3.32
407.057	3.06
407.42	3.26
407.783	3.08
408.146	3.13
408.509	3.1
408.872	3.07
409.235	3.38
409.598	3.1
409.961	3.54
410.323	3.21
410.686	3.22
411.049	3.35
411.411	3.37
411.774	3.12
412.136	3.2
412.499	3.11
412.861	3.19
413.223	3.24
413.586	3.24
413.948	3.33
414.31	3.14
414.672	3.31
415.035	3.23
415.397	3.47
415.759	3.46
416.121	3.25
416.483	3.18
416.845	3.05
417.206	3.15
417.568	3.16
417.93	3.33
418.292	3.28
418.653	2.88
419.015	3.29
419.377	2.96
419.738	3.3
420.1	3.11
420.461	3.22
420.822	3.08
421.184	3.07
421.545	3.05
421.906	3.11
422.267	2.95
422.629	3.2
422.99	3.14
423.351	3.1
423.712	3.1
424.073	3.11
424.434	3.14
424.795	3.12
425.155	3.21
425.516	3.09
425.877	3.18
426.238	2.95
426.598	3.11
426.959	3.13
427.32	3.14
427.68	3.19
428.041	3.17
428.401	3.19
428.761	3.33
429.122	3.24
429.482	3.19
429.842	3.09
430.202	3.11
430.563	3.54
430.923	3.21
431.283	3.31
431.643	3.23
432.003	3.22
432.363	3.34
432.722	3.3
433.082	3.3
433.442	3.17
433.802	3.25
434.161	3.23
434.521	3.23
434.881	3.23
435.24	3.22
435.6	3.1
435.959	3.1
436.319	3.12
436.678	3.22
437.037	3.29
437.396	3.19
437.756	3.26
438.115	3.24
438.474	3.12
438.833	3.33
439.192	3.2
439.551	3.16
439.91	3.29
440.269	3.25
440.628	3.1
440.987	3.19
441.345	3.13
441.704	3.36
442.063	3.07
442.421	3.22
442.78	3.23
443.138	3.18
443.497	3.2
443.855	3.25
444.214	3.07
444.572	3.27
444.93	3.27
445.288	3.19
445.647	3.32
446.005	3.11
446.363	3.09
446.721	3.22
447.079	3.08
447.437	3.3
447.795	3.22
448.153	3.07
448.51	3.17
448.868	3.15
449.226	3.23
449.584	3.22
449.941	3.17
450.299	3.22
450.656	3.32
451.014	3.25
451.371	3.21
451.729	3.35
452.086	3.25
452.443	3.33
452.801	3.37
453.158	3.26
453.515	3.3
453.872	3.35
454.229	3.31
454.586	3.24
454.943	3.34
455.3	3.19
455.657	3.18
456.014	3.37
456.371	3.34
456.727	3.46
457.084	3.25
457.441	3.33
457.797	3.27
458.154	3.39
458.51	3.17
458.867	3.26
459.223	3.35
459.58	3.43
459.936	3.3
460.292	3.34
460.648	3.34
461.005	3.18
461.361	3.24
461.717	3.05
462.073	3.18
462.429	3.06
462.785	3.15
463.141	3.17
463.496	3.3
463.852	3.28
464.208	3.26
464.564	3.47
464.919	3.39
465.275	3.42
465.631	3.43
465.986	3.33
466.342	3.48
466.697	3.39
467.052	3.25
467.408	3.58
467.763	3.32
468.118	3.35
468.473	3.31
468.829	3.38
469.184	3.2
469.539	3.4
469.894	3.23
470.249	3.36
470.603	3.16
470.958	3.31
471.313	3.36
471.668	3.42
472.023	3.33
472.377	3.33
472.732	3.42
473.086	3.43
473.441	3.16
473.795	3.51
474.15	3.21
474.504	3.28
474.859	3.42
475.213	3.22
475.567	3.26
475.921	3.36
476.275	3.38
476.63	3.2
476.984	3.19
477.338	3.36
477.692	3.36
478.045	3.41
478.399	3.35
478.753	3.28
479.107	3.39
479.461	3.38
479.814	3.37
480.168	3.43
480.521	3.35
480.875	3.42
481.228	3.37
481.582	3.18
481.935	3.36
482.289	3.3
482.642	3.22
482.995	3.33
483.348	3.31
483.701	3.31
484.055	3.2
484.408	3.29
484.761	3.29
485.114	3.17
485.466	3.09
485.819	3.03
486.172	3.01
486.525	3.05
486.878	3.12
487.23	3.21
487.583	3.24
487.936	3.3
488.288	3.29
488.641	3.23
488.993	3.19
489.345	3.13
489.698	3.16
490.05	3.15
490.402	3.19
490.754	3.18
491.107	3.19
491.459	3.32
491.811	3.34
492.163	3.31
492.515	3.33
492.866	3.34
493.218	3.26
493.57	3.19
493.922	3.15
494.274	3.24
494.625	3.27
494.977	3.36
495.328	3.42
495.68	3.38
496.031	3.29
496.383	3.47
496.734	3.42
497.086	3.47
497.437	3.42
497.788	3.41
498.139	3.48
498.49	3.4
498.842	3.28
499.193	3.35
499.544	3.45
499.894	3.28
500.245	3.37
500.596	3.3
500.947	3.5
501.298	3.37
501.648	3.38
501.999	3.45
502.35	3.36
502.7	3.53
503.051	3.45
503.401	3.47
503.752	3.45
504.102	3.46
504.452	3.36
504.803	3.46
505.153	3.35
505.503	3.34
505.853	3.42
506.203	3.33
506.553	3.54
506.903	3.35
507.253	3.35
507.603	3.52
507.953	3.48
508.303	3.4
508.652	3.47
509.002	3.49
509.352	3.43
509.701	3.52
510.051	3.43
510.4	3.45
510.75	3.24
511.099	3.26
511.449	3.43
511.798	3.51
512.147	3.47
512.496	3.41
512.846	3.51
513.195	3.34
513.544	3.48
513.893	3.51
514.242	3.42
514.591	3.52
514.939	3.48
515.288	3.41
515.637	3.4
515.986	3.36
516.334	3.51
516.683	3.49
517.032	3.56
517.38	3.62
517.729	3.46
518.077	3.47
518.426	3.51
518.774	3.57
519.122	3.52
519.47	3.41
519.819	3.48
520.167	3.49
520.515	3.35
520.863	3.34
521.211	3.4
521.559	3.48
521.907	3.48
522.255	3.57
522.602	3.52
522.95	3.45
523.298	3.64
523.645	3.62
523.993	3.61
524.341	3.54
524.688	3.57
525.036	3.59
525.383	3.52
525.73	3.57
526.078	3.54
526.425	3.54
526.772	3.58
527.119	3.53
527.466	3.48
527.814	3.44
528.161	3.36
528.508	3.45
528.854	3.43
529.201	3.56
529.548	3.49
529.895	3.43
530.242	3.33
530.588	3.3
530.935	3.22
531.282	3.3
531.628	3.38
531.975	3.34
532.321	3.43
532.667	3.46
533.014	3.49
533.36	3.54
533.706	3.48
534.052	3.59
534.399	3.53
534.745	3.46
535.091	3.32
535.437	3.3
535.783	3.35
536.129	3.43
536.474	3.51
536.82	3.47
537.166	3.57
537.512	3.55
537.857	3.53
538.203	3.57
538.549	3.48
538.894	3.41
539.239	3.49
539.585	3.45
539.93	3.58
540.276	3.55
540.621	3.61
540.966	3.51
541.311	3.67
541.656	3.53
542.001	3.51
542.346	3.58
542.691	3.67
543.036	3.5
543.381	3.36
543.726	3.38
544.071	3.39
544.415	3.46
544.76	3.45
545.105	3.49
545.449	3.42
545.794	3.59
546.138	3.58
546.483	3.65
546.827	3.53
547.171	3.6
547.516	3.68
547.86	3.63
548.204	3.61
548.548	3.57
548.892	3.61
549.236	3.54
549.58	3.64
549.924	3.64
550.268	3.76
550.612	3.7
550.956	3.63
551.3	3.86
551.643	3.78
551.987	3.76
552.33	3.86
552.674	3.69
553.017	3.62
553.361	3.66
553.704	3.79
554.048	3.8
554.391	3.84
554.734	3.75
555.077	3.71
555.42	3.57
555.764	3.71
556.107	3.76
556.45	3.73
556.793	3.83
557.135	3.74
557.478	3.62
557.821	3.76
558.164	3.91
558.507	3.84
558.849	3.52
559.192	3.64
559.534	3.75
559.877	3.68
560.219	3.77
560.562	3.68
560.904	3.88
561.246	3.87
561.589	3.82
561.931	3.76
562.273	3.57
562.615	3.59
562.957	3.79
563.299	3.7
563.641	3.83
563.983	3.88
564.325	3.92
564.667	3.88
565.008	3.69
565.35	3.75
565.692	3.78
566.033	3.82
566.375	3.9
566.716	3.61
567.058	3.73
567.399	3.92
567.741	4
568.082	3.84
568.423	3.87
568.764	4.03
569.105	3.8
569.447	3.76
569.788	3.8
570.129	3.87
570.47	3.98
570.811	3.84
571.151	3.94
571.492	3.79
571.833	3.76
572.174	4
572.514	3.91
572.855	3.72
573.195	3.74
573.536	3.84
573.876	3.76
574.217	3.86
574.557	3.84
574.898	3.82
575.238	3.71
575.578	3.97
575.918	3.92
576.258	3.71
576.598	3.83
576.938	3.89
577.278	3.95
577.618	3.75
577.958	4.17
578.298	3.97
578.638	3.86
578.977	4.07
579.317	4.02
579.657	3.82
579.996	3.99
580.336	4.05
580.675	3.94
581.014	3.87
581.354	3.83
581.693	4
582.032	3.84
582.372	3.87
582.711	4
583.05	4.1
583.389	3.85
583.728	3.87
584.067	3.92
584.406	3.95
584.745	3.78
585.083	4.03
585.422	4.02
585.761	3.86
586.1	4.16
586.438	4.02
586.777	4.04
587.115	4.04
587.454	3.88
587.792	4.15
588.13	3.94
588.469	3.86
588.807	4.05
589.145	3.88
589.483	4
589.821	4.1
590.159	4.06
590.497	4.19
590.835	4.11
591.173	3.97
591.511	3.9
591.849	4.26
592.187	3.93
592.524	3.89
592.862	4.16
593.2	3.86
593.537	3.74
593.875	4
594.212	4.2
594.55	4.21
594.887	4.06
595.224	4.02
595.561	4.28
595.899	4.23
596.236	4.22
596.573	4.26
596.91	3.92
597.247	3.97
597.584	4.15
597.921	4.28
598.258	4.23
598.594	4.33
598.931	3.84
599.268	4.04
599.604	4.06
599.941	4.01
600.277	3.77
600.614	4
600.95	4.17
601.287	3.99
601.623	4.22
601.959	4.23
602.296	4.08
602.632	4.05
602.968	4.26
603.304	4.17
603.64	4.08
603.976	4.05
604.312	4.19
604.648	4.15
604.984	4.13
605.319	3.88
605.655	4.1
605.991	4.06
606.326	4.17
606.662	4.09
606.998	4.09
607.333	4.05
607.668	4.04
608.004	4.16
608.339	4.02
608.674	4.29
609.01	4.1
609.345	4.19
609.68	4.22
610.015	4.23
610.35	4.04
610.685	4.33
611.02	4.08
611.355	4.19
611.689	4
612.024	4.17
612.359	4.14
612.694	4.04
613.028	4.19
613.363	4.14
613.697	4.22
614.032	4.08
614.366	4.02
614.7	4.06
615.035	4.34
615.369	4.32
615.703	4.26
616.037	4.36
616.371	4.44
616.705	4.59
617.039	4.18
617.373	4.19
617.707	4.54
618.041	4.39
618.375	4.26
618.709	4.23
619.042	4.61
619.376	4.3
619.71	4.29
620.043	4.36
620.377	4.28
620.71	4.4
621.043	4.42
621.377	4.35
621.71	4.13
622.043	4.15
622.376	4.51
622.709	4.5
623.043	4.15
623.376	4.69
623.709	4.4
624.041	4.34
624.374	4.3
624.707	4.65
625.04	4.53
625.373	4.03
625.705	4.15
626.038	4.17
626.37	4.68
626.703	4.23
627.035	4.34
627.368	4.43
627.7	4.79
628.032	4.47
628.365	4.59
628.697	4.59
629.029	4.28
629.361	4.57
629.693	4.66
630.025	4.41
630.357	4.4
630.689	4.55
631.021	4.06
631.353	4.36
631.684	4.43
632.016	4.45
632.348	4.53
632.679	4.46
633.011	4.52
633.342	4.48
633.674	4.65
634.005	4.32
634.336	4.77
634.668	4.45
634.999	4.54
635.33	4.42
635.661	4.63
635.992	4.27
636.323	4.29
636.654	4.6
636.985	4.24
637.316	4.38
637.647	4.57
637.977	4.21
638.308	4.97
638.639	4.37
638.969	4.71
639.3	4.29
639.63	4.88
639.961	4.29
640.291	4.3
640.622	4.59
640.952	4.45
641.282	4.64
641.612	4.39
641.943	4.46
642.273	4.39
642.603	4.57
642.933	4.57
643.263	4.19
643.592	4.3
643.922	4.65
644.252	4.36
644.582	4.9
644.911	4.72
645.241	4.75
645.571	4.3
645.9	4.51
646.23	5.07
646.559	4.63
646.888	4.41
647.218	4.71
647.547	4.49
647.876	4.9
648.205	4.2
648.534	4.41
648.863	4.36
649.192	4.08
649.521	4.69
649.85	5.06
650.179	4.52
650.508	4.58
650.837	4.61
651.165	4.3
651.494	4.2
651.822	4.8
652.151	4.35
652.479	4.74
652.808	4.03
653.136	4.99
653.465	4.62
653.793	4.53
654.121	4.89
654.449	4.39
654.777	4.78
655.105	4.93
655.433	5.11
655.761	4.98
656.089	4.4
656.417	4.96
656.745	4.64
657.073	4.8
657.4	4.88
657.728	4.92
658.056	4.71
658.383	5.11
658.711	4.66
659.038	4.56
659.365	4.89
659.693	4.1
660.02	5.02
660.347	4.92
660.674	4.6
661.001	4.42
661.329	4.59
661.656	4.9
661.982	4.52
662.309	4.84
662.636	4.76
662.963	4.75
663.29	4.78
663.616	5
663.943	5.27
664.27	5.08
664.596	4.78
664.923	4.92
665.249	4.86
665.576	4.62
665.902	5.22
666.228	4.69
666.554	4.33
666.881	5.41
667.207	4.96
667.533	4.37
667.859	5.26
668.185	5.34
668.511	5.58
668.837	4.43
669.162	5.05
669.488	4.8
669.814	4.91
670.139	4.63
670.465	5.72
670.791	5.09
671.116	5.41
671.442	5.66
671.767	4.52
672.092	5.33
672.418	5.37
672.743	4.82
673.068	5.02
673.393	4.5
673.718	5.35
674.043	4.85
674.368	4.97
674.693	4.51
675.018	4.53
675.343	4.96
675.667	4.89
675.992	4.34
676.317	5.53
676.641	4.58
676.966	5.09
677.29	4.86
677.615	5.74
677.939	5.06
678.264	5.39
678.588	5.75
678.912	5.29
679.236	4.95
679.56	4.56
679.885	5.07
680.209	5.83
680.532	4.74
680.856	4.72
681.18	5.47
681.504	4.74
681.828	5.34
682.152	4.91
682.475	5.49
682.799	5.41
683.122	4.86
683.446	5.24
683.769	5.29
684.093	5.27
684.416	5.26
684.739	4.77
685.062	5.81
685.386	4.66
685.709	5.63
686.032	4.74
686.355	4.46
686.678	5.48
687.001	5.1
687.324	5.17
687.646	5.43
687.969	5.55
688.292	5.16
688.614	5.35
688.937	5.24
689.26	5.32
689.582	5.34
689.904	4.94
690.227	5.32
690.549	5.6
690.871	4.9
691.194	5.55
691.516	5.48
691.838	5.34
692.16	5.66
692.482	5.05
692.804	5
693.126	4.75
