Data from 0141_forehead_Reflection__0__10.txt Node

Date: Fri Sep 22 20:27:02 CDT 2023
User: ToomeyLab
Spectrometer: FLMS14357
Trigger mode: 0
Integration Time (sec): 1.000000E-2
Scans to average: 100
Electric dark correction enabled: true
Nonlinearity correction enabled: false
Boxcar width: 0
XAxis mode: Wavelengths
Number of Pixels in Spectrum: 2048
>>>>>Begin Spectral Data<<<<<
189.047	6.76
189.435	6.76
189.823	6.76
190.211	-8.25
190.599	985.12
190.987	20.9
191.375	-98.82
191.763	-82.51
192.151	109.96
192.538	663.89
192.926	39.44
193.314	69.25
193.702	-1075
194.089	221.17
194.477	636.18
194.864	90.45
195.252	-4.11
195.639	52.7
196.027	-7.95
196.414	112.08
196.801	172.14
197.189	-131.25
197.576	162.18
197.963	-81.6
198.351	39.16
198.738	44.9
199.125	56.55
199.512	22.45
199.899	60.71
200.286	51.72
200.673	18.04
201.06	46.3
201.447	56.9
201.833	-82.87
202.22	43.94
202.607	53.85
202.994	32.13
203.38	-16.55
203.767	18.2
204.154	89.33
204.54	31.98
204.927	29.53
205.313	57.29
205.699	33.59
206.086	55.5
206.472	55.21
206.858	81.51
207.245	60.26
207.631	59.42
208.017	19.09
208.403	55.87
208.789	82.26
209.175	41.19
209.561	64.48
209.947	61.27
210.333	37.54
210.719	16.37
211.105	39.99
211.491	20.41
211.876	26.29
212.262	40.75
212.648	-2.04
213.034	35.43
213.419	28.15
213.805	26.9
214.19	56.37
214.576	31.78
214.961	17.12
215.346	40.04
215.732	22.68
216.117	39.96
216.502	22.64
216.888	18.54
217.273	47.98
217.658	0.58
218.043	19.35
218.428	44.57
218.813	-9.54
219.198	22.97
219.583	42.11
219.968	14.2
220.353	45.44
220.738	25.98
221.122	28.95
221.507	11.56
221.892	16.22
222.276	21.05
222.661	0.82
223.046	21.69
223.43	18.91
223.815	13.76
224.199	11.26
224.583	18.63
224.968	15.14
225.352	12.64
225.736	8.07
226.121	14.04
226.505	11.21
226.889	11.93
227.273	11.83
227.657	9.47
228.041	3.61
228.425	11.16
228.809	4.11
229.193	7.62
229.577	7.13
229.961	6.53
230.344	6.69
230.728	3.92
231.112	5.07
231.495	4.15
231.879	4.93
232.263	4.7
232.646	4.95
233.03	5.49
233.413	4.2
233.797	4.9
234.18	5.39
234.563	8.1
234.946	4.19
235.33	3.57
235.713	4.72
236.096	4.97
236.479	4.19
236.862	6.18
237.245	6.02
237.628	5.98
238.011	7.69
238.394	6.54
238.777	6.62
239.16	5.91
239.543	6.43
239.925	6.31
240.308	5.79
240.691	6.14
241.073	7.24
241.456	4.04
241.838	4.99
242.221	5.22
242.603	5.39
242.986	5.09
243.368	4.11
243.75	5.04
244.133	5.14
244.515	4.45
244.897	4
245.279	4.77
245.661	4.57
246.043	4.6
246.425	4.55
246.807	5.67
247.189	3.4
247.571	5.29
247.953	5.9
248.335	4.65
248.717	4.68
249.098	4.38
249.48	4.39
249.862	4.73
250.243	4.82
250.625	4.88
251.006	4.52
251.388	5
251.769	5.45
252.151	5.66
252.532	5.63
252.913	5.92
253.295	5.96
253.676	4.73
254.057	4.73
254.438	5.24
254.819	4.45
255.2	5.37
255.581	5.23
255.962	5.14
256.343	4.75
256.724	5.23
257.105	6.71
257.486	5.78
257.867	5.92
258.247	5.8
258.628	6
259.009	4.55
259.389	4.93
259.77	4.93
260.15	5.41
260.531	4.68
260.911	4.32
261.292	4.32
261.672	4.13
262.052	4.5
262.432	4.21
262.813	4.7
263.193	4.58
263.573	5.1
263.953	4.73
264.333	4.76
264.713	4.67
265.093	4.42
265.473	4.91
265.853	4.78
266.233	5.09
266.612	5.04
266.992	5.68
267.372	5
267.752	4.95
268.131	4.52
268.511	4
268.89	4.87
269.27	4.68
269.649	4.6
270.029	4.54
270.408	4.68
270.787	4.72
271.167	4.75
271.546	4.22
271.925	4.83
272.304	4.24
272.683	5.13
273.062	4.52
273.441	4.46
273.82	4.72
274.199	4.87
274.578	4.53
274.957	4.43
275.336	4.34
275.715	4.22
276.093	4.49
276.472	4.58
276.851	4.22
277.229	4.58
277.608	4.83
277.986	3.96
278.365	4.75
278.743	4.57
279.122	4.39
279.5	5.41
279.878	3.87
280.257	5.46
280.635	4.64
281.013	4.85
281.391	4.22
281.769	4.59
282.147	4.98
282.525	4.34
282.903	4.93
283.281	4.65
283.659	4.73
284.037	4.57
284.415	4.6
284.792	4.35
285.17	4.46
285.548	4.8
285.925	4.4
286.303	4.37
286.68	4.27
287.058	4.37
287.435	4.57
287.813	4.26
288.19	3.9
288.567	4.89
288.945	4.46
289.322	5.04
289.699	4.69
290.076	4.91
290.453	4.26
290.83	4.5
291.207	4.53
291.584	4.35
291.961	4.88
292.338	4.94
292.715	5.12
293.092	4.82
293.469	5
293.845	4.65
294.222	5.13
294.599	5.33
294.975	5.33
295.352	5.33
295.728	5.28
296.105	5.37
296.481	5.14
296.858	5.17
297.234	5.39
297.61	4.9
297.986	5.09
298.363	5.22
298.739	5.3
299.115	5.49
299.491	5.37
299.867	5.49
300.243	5.09
300.619	5.3
300.995	5.5
301.371	5.97
301.746	5.8
302.122	6.08
302.498	5.74
302.874	5.48
303.249	5.82
303.625	5.79
304	6.08
304.376	6.73
304.751	6.62
305.127	6.46
305.502	6.44
305.878	6.31
306.253	6.55
306.628	6.26
307.003	6.33
307.378	6.36
307.754	6.89
308.129	6.69
308.504	6.64
308.879	6.82
309.254	6.76
309.629	6.84
310.003	7.29
310.378	7.42
310.753	7.07
311.128	6.73
311.502	7.07
311.877	6.71
312.252	6.82
312.626	7.24
313.001	7.34
313.375	7.19
313.75	7.59
314.124	7.97
314.498	7.07
314.873	7.76
315.247	8.09
315.621	7.77
315.995	7.75
316.369	7.53
316.743	7.9
317.117	7.8
317.491	8.65
317.865	8.55
318.239	8.08
318.613	8.24
318.987	8.99
319.361	7.92
319.734	8.27
320.108	8.75
320.482	8.36
320.855	8.56
321.229	9.32
321.602	9.12
321.976	8.49
322.349	8.77
322.723	8.81
323.096	9.25
323.469	9.26
323.843	9.13
324.216	9.59
324.589	8.75
324.962	8.7
325.335	9.07
325.708	9.31
326.081	9.39
326.454	9.05
326.827	9.29
327.2	9.35
327.573	10.04
327.945	9.66
328.318	9.71
328.691	10
329.063	9.58
329.436	9.98
329.809	10.23
330.181	9.65
330.553	10.06
330.926	9.89
331.298	10.09
331.671	10.78
332.043	9.32
332.415	10.13
332.787	10.39
333.159	10.39
333.532	9.97
333.904	10.02
334.276	10.7
334.648	9.64
335.02	10.13
335.391	10.21
335.763	10.58
336.135	10.59
336.507	10.41
336.879	10.75
337.25	10.83
337.622	10.95
337.993	10.73
338.365	11.24
338.736	11.29
339.108	11.41
339.479	10.95
339.851	10.88
340.222	10.81
340.593	10.98
340.964	10.97
341.336	11.16
341.707	11.16
342.078	11.35
342.449	11.27
342.82	11.04
343.191	11.51
343.562	11.4
343.933	11.57
344.303	11.27
344.674	11.64
345.045	11.59
345.416	11.95
345.786	11.68
346.157	11.89
346.527	11.33
346.898	11.7
347.268	11.8
347.639	11.85
348.009	11.84
348.38	11.72
348.75	12.21
349.12	12.25
349.49	12.61
349.861	12.22
350.231	12.61
350.601	12.27
350.971	12.69
351.341	12.62
351.711	12.47
352.081	12.36
352.45	12.21
352.82	12.34
353.19	12.71
353.56	12.57
353.929	12.59
354.299	12.74
354.669	12.92
355.038	12.75
355.408	12.72
355.777	13.07
356.147	12.75
356.516	12.94
356.885	12.88
357.254	13.25
357.624	12.74
357.993	12.99
358.362	12.89
358.731	13.14
359.1	13.17
359.469	13.25
359.838	12.95
360.207	13.37
360.576	13.43
360.945	13.49
361.314	13.27
361.682	13.49
362.051	13.61
362.42	13.7
362.788	13.21
363.157	13.49
363.525	13.13
363.894	13.44
364.262	13.58
364.631	13.73
364.999	13.81
365.367	14.09
365.735	13.93
366.104	14.07
366.472	14.21
366.84	13.92
367.208	14.41
367.576	14.45
367.944	14.2
368.312	14.07
368.68	14.42
369.048	14.59
369.416	14.59
369.783	14.25
370.151	14.43
370.519	14.42
370.886	14.92
371.254	14.8
371.621	14.58
371.989	14.67
372.356	14.62
372.724	15.37
373.091	15.22
373.458	15.11
373.826	14.95
374.193	15.04
374.56	15.38
374.927	15.26
375.294	14.95
375.661	15.35
376.028	15.49
376.395	15.6
376.762	15.54
377.129	15.59
377.496	15.65
377.863	15.72
378.229	15.68
378.596	15.52
378.963	15.86
379.329	15.42
379.696	15.75
380.062	15.53
380.429	15.87
380.795	15.9
381.161	15.77
381.528	16.12
381.894	15.69
382.26	16.08
382.626	16.34
382.993	16.26
383.359	15.86
383.725	16.24
384.091	16.52
384.457	16.33
384.823	16.31
385.188	16.5
385.554	16.33
385.92	16.61
386.286	16.43
386.651	16.7
387.017	16.59
387.383	16.88
387.748	16.59
388.114	16.88
388.479	16.89
388.845	16.82
389.21	16.99
389.575	17.39
389.94	16.69
390.306	16.97
390.671	17.19
391.036	16.86
391.401	17.14
391.766	17.42
392.131	17.06
392.496	17.21
392.861	17.05
393.226	17.23
393.591	17.45
393.956	17.47
394.32	17.5
394.685	17.32
395.05	17.84
395.414	17.9
395.779	17.47
396.143	17.54
396.508	17.5
396.872	17.73
397.236	17.83
397.601	17.82
397.965	18.2
398.329	18.17
398.694	18.09
399.058	18.1
399.422	17.81
399.786	18.24
400.15	18.17
400.514	18.07
400.878	18.25
401.242	18.23
401.605	18.21
401.969	18.28
402.333	18.66
402.697	18.58
403.06	18.43
403.424	18.55
403.787	18.91
404.151	18.56
404.514	18.63
404.878	18.97
405.241	18.83
405.604	18.9
405.968	18.75
406.331	18.92
406.694	18.84
407.057	18.77
407.42	19.1
407.783	18.98
408.146	19.09
408.509	18.99
408.872	19.2
409.235	19.58
409.598	19.32
409.961	19.62
410.323	19.61
410.686	19.62
411.049	19.78
411.411	19.79
411.774	19.56
412.136	19.67
412.499	19.38
412.861	19.72
413.223	19.69
413.586	19.49
413.948	19.77
414.31	19.98
414.672	20.08
415.035	19.79
415.397	19.92
415.759	20.37
416.121	19.99
416.483	20.32
416.845	20.04
417.206	20.21
417.568	20.02
417.93	20.13
418.292	19.91
418.653	20
419.015	20.22
419.377	20.06
419.738	20.12
420.1	20.01
420.461	19.89
420.822	20.05
421.184	19.96
421.545	20.16
421.906	20.19
422.267	20.01
422.629	20.25
422.99	19.92
423.351	19.9
423.712	20
424.073	20.31
424.434	20.44
424.795	20.7
425.155	20.72
425.516	20.54
425.877	20.41
426.238	20.26
426.598	20.15
426.959	20.39
427.32	20.65
427.68	20.85
428.041	20.95
428.401	21.26
428.761	21.48
429.122	21.45
429.482	21.56
429.842	21.43
430.202	21.69
430.563	21.84
430.923	22.05
431.283	21.68
431.643	21.77
432.003	21.89
432.363	21.82
432.722	21.96
433.082	22.01
433.442	21.83
433.802	21.95
434.161	21.71
434.521	21.84
434.881	21.64
435.24	21.61
435.6	21.59
435.959	21.61
436.319	21.95
436.678	22.02
437.037	22.24
437.396	22.29
437.756	22.46
438.115	22.31
438.474	22.42
438.833	22.37
439.192	22.43
439.551	22.39
439.91	22.5
440.269	22.41
440.628	22.27
440.987	22.41
441.345	22.36
441.704	22.37
442.063	22.34
442.421	22.34
442.78	22.38
443.138	22.43
443.497	22.45
443.855	22.79
444.214	22.78
444.572	23.2
444.93	23.21
445.288	23.13
445.647	23.22
446.005	23.02
446.363	22.84
446.721	23.12
447.079	22.76
447.437	22.72
447.795	22.7
448.153	22.54
448.51	22.55
448.868	22.51
449.226	22.72
449.584	22.93
449.941	23.15
450.299	23.32
450.656	23.75
451.014	23.72
451.371	23.76
451.729	23.79
452.086	23.84
452.443	23.86
452.801	24.15
453.158	23.93
453.515	24.19
453.872	24.1
454.229	23.9
454.586	23.92
454.943	23.91
455.3	24.01
455.657	24.08
456.014	24.18
456.371	24.29
456.727	24.32
457.084	24.13
457.441	24.29
457.797	24.41
458.154	24.5
458.51	24.51
458.867	24.72
459.223	24.82
459.58	24.66
459.936	24.67
460.292	24.57
460.648	24.62
461.005	24.37
461.361	24.37
461.717	23.84
462.073	23.91
462.429	24.12
462.785	24.44
463.141	24.68
463.496	24.9
463.852	25.02
464.208	25.08
464.564	25.36
464.919	25.38
465.275	25.51
465.631	25.4
465.986	25.26
466.342	25.42
466.697	25.51
467.052	25.26
467.408	25.47
467.763	25.58
468.118	25.73
468.473	25.5
468.829	25.32
469.184	25.35
469.539	25.42
469.894	25.62
470.249	25.69
470.603	25.3
470.958	25.68
471.313	25.72
471.668	25.76
472.023	25.71
472.377	25.79
472.732	25.93
473.086	26.06
473.441	25.95
473.795	26.11
474.15	25.9
474.504	26.12
474.859	26.2
475.213	26.01
475.567	26.19
475.921	26.31
476.275	26.35
476.63	26.31
476.984	26.37
477.338	26.7
477.692	26.68
478.045	26.53
478.399	26.55
478.753	26.66
479.107	26.45
479.461	26.62
479.814	26.6
480.168	26.56
480.521	26.63
480.875	26.86
481.228	26.83
481.582	26.77
481.935	26.84
482.289	27.03
482.642	26.92
482.995	26.75
483.348	26.87
483.701	26.85
484.055	26.7
484.408	26.79
484.761	26.73
485.114	26.38
485.466	25.86
485.819	25.45
486.172	25.54
486.525	26.03
486.878	26.27
487.23	26.62
487.583	26.94
487.936	27.14
488.288	27.13
488.641	26.95
488.993	26.64
489.345	26.36
489.698	26.31
490.05	26.48
490.402	26.72
490.754	26.91
491.107	27.2
491.459	27.56
491.811	27.69
492.163	27.84
492.515	27.8
492.866	27.86
493.218	27.51
493.57	26.9
493.922	26.83
494.274	27.22
494.625	27.5
494.977	27.97
495.328	28.14
495.68	28.38
496.031	28.46
496.383	28.61
496.734	28.79
497.086	28.67
497.437	28.88
497.788	28.73
498.139	28.77
498.49	28.5
498.842	28.27
499.193	28.3
499.544	28.49
499.894	28.58
500.245	28.72
500.596	28.77
500.947	28.94
501.298	28.86
501.648	29.11
501.999	29.16
502.35	29.13
502.7	29.18
503.051	29.21
503.401	29.55
503.752	29.47
504.102	29.48
504.452	29.5
504.803	29.56
505.153	29.3
505.503	29.45
505.853	29.47
506.203	29.47
506.553	29.67
506.903	29.55
507.253	29.51
507.603	29.91
507.953	29.72
508.303	29.84
508.652	30.13
509.002	29.96
509.352	29.99
509.701	29.9
510.051	29.74
510.4	29.8
510.75	29.71
511.099	29.4
511.449	29.78
511.798	29.88
512.147	29.97
512.496	29.99
512.846	30.31
513.195	30.23
513.544	30.27
513.893	30.24
514.242	30.27
514.591	30.34
514.939	30.34
515.288	30.53
515.637	30.49
515.986	30.6
516.334	30.77
516.683	31.01
517.032	31.09
517.38	31.02
517.729	31.05
518.077	31.14
518.426	31.33
518.774	31.17
519.122	30.85
519.47	30.89
519.819	30.95
520.167	30.66
520.515	30.49
520.863	30.42
521.211	30.61
521.559	30.79
521.907	30.96
522.255	31.17
522.602	31.44
522.95	31.47
523.298	31.49
523.645	31.78
523.993	31.95
524.341	31.85
524.688	31.94
525.036	31.9
525.383	31.92
525.73	32
526.078	31.88
526.425	31.85
526.772	31.88
527.119	31.72
527.466	31.44
527.814	31.32
528.161	31.36
528.508	31.63
528.854	31.77
529.201	31.9
529.548	31.83
529.895	31.78
530.242	31.24
530.588	30.65
530.935	30.8
531.282	31.31
531.628	31.64
531.975	31.75
532.321	31.83
532.667	32.15
533.014	32.28
533.36	32.4
533.706	32.38
534.052	32.49
534.399	32.42
534.745	32.3
535.091	32
535.437	31.6
535.783	31.93
536.129	32.17
536.474	32.57
536.82	32.82
537.166	33.04
537.512	33.25
537.857	33.25
538.203	33.04
538.549	32.65
538.894	32.58
539.239	32.67
539.585	32.95
539.93	33.27
540.276	33.5
540.621	33.54
540.966	33.74
541.311	34.01
541.656	33.73
542.001	33.74
542.346	33.67
542.691	33.36
543.036	32.76
543.381	32.39
543.726	32.53
544.071	32.88
544.415	33.19
544.76	33.33
545.105	33.48
545.449	33.43
545.794	33.8
546.138	33.93
546.483	34.01
546.827	34.25
547.171	34.16
547.516	34.05
547.86	34.2
548.204	34.13
548.548	34.08
548.892	33.99
549.236	34.03
549.58	34.24
549.924	34.53
550.268	34.8
550.612	35.01
550.956	35.14
551.3	35.29
551.643	35.04
551.987	35.17
552.33	35.27
552.674	35.07
553.017	35.1
553.361	35.5
553.704	35.3
554.048	35.22
554.391	35.22
554.734	34.89
555.077	35.09
555.42	35.2
555.764	35.35
556.107	35.75
556.45	35.65
556.793	35.47
557.135	35.71
557.478	35.63
557.821	35.72
558.164	35.89
558.507	36.04
558.849	35.79
559.192	35.82
559.534	36.11
559.877	36.09
560.219	36.04
560.562	36.22
560.904	35.87
561.246	36.49
561.589	36.31
561.931	36.28
562.273	36.05
562.615	36.25
562.957	36.36
563.299	36.38
563.641	36.38
563.983	36.47
564.325	36.48
564.667	36.9
565.008	36.73
565.35	36.73
565.692	36.94
566.033	36.76
566.375	36.61
566.716	37.01
567.058	36.81
567.399	36.9
567.741	36.68
568.082	36.76
568.423	36.47
568.764	36.8
569.105	36.89
569.447	36.99
569.788	37.06
570.129	37.33
570.47	37.36
570.811	37.46
571.151	37.34
571.492	37.39
571.833	37.2
572.174	37.43
572.514	37.45
572.855	37.42
573.195	37.44
573.536	37.17
573.876	37.26
574.217	37.4
574.557	37.5
574.898	37.45
575.238	37.81
575.578	37.86
575.918	37.94
576.258	37.77
576.598	37.77
576.938	37.88
577.278	38.09
577.618	37.74
577.958	38.03
578.298	37.92
578.638	38.1
578.977	38.07
579.317	38.33
579.657	38.45
579.996	38.36
580.336	38.62
580.675	38.42
581.014	38.52
581.354	38.46
581.693	38.58
582.032	38.74
582.372	38.82
582.711	38.46
583.05	39.02
583.389	38.5
583.728	38.9
584.067	38.66
584.406	39.11
584.745	39
585.083	39.1
585.422	39.2
585.761	38.85
586.1	39.26
586.438	39.19
586.777	39.04
587.115	39.29
587.454	39.08
587.792	39.16
588.13	39.56
588.469	39.4
588.807	39.96
589.145	39.69
589.483	39.57
589.821	39.47
590.159	39.48
590.497	39.89
590.835	39.82
591.173	39.62
591.511	39.71
591.849	39.89
592.187	39.38
592.524	39.77
592.862	39.9
593.2	39.98
593.537	39.78
593.875	39.8
594.212	40.2
594.55	40.42
594.887	40.47
595.224	40.1
595.561	40.52
595.899	40.32
596.236	40.45
596.573	39.88
596.91	40.32
597.247	40.15
597.584	40.41
597.921	40.56
598.258	40.3
598.594	39.95
598.931	39.9
599.268	40.02
599.604	40.24
599.941	40.58
600.277	40.53
600.614	40.77
600.95	41.02
601.287	40.99
601.623	41.25
601.959	41.38
602.296	41.07
602.632	41.02
602.968	41.14
603.304	41.64
603.64	41.28
603.976	41.31
604.312	41.24
604.648	41.03
604.984	41.23
605.319	41.03
605.655	40.82
605.991	41.14
606.326	40.85
606.662	41.13
606.998	40.77
607.333	40.84
607.668	41.39
608.004	41.63
608.339	41.91
608.674	41.77
609.01	41.7
609.345	42.18
609.68	42.36
610.015	41.83
610.35	42.22
610.685	41.91
611.02	41.69
611.355	41.53
611.689	41.48
612.024	41.64
612.359	41.82
612.694	41.92
613.028	41.97
613.363	42.03
613.697	42.16
614.032	42.77
614.366	42.55
614.7	42.6
615.035	42.48
615.369	42.83
615.703	42.51
616.037	42.48
616.371	42.83
616.705	42.81
617.039	42.58
617.373	42.81
617.707	42.76
618.041	43.11
618.375	42.52
618.709	42.9
619.042	43.34
619.376	42.96
619.71	42.71
620.043	43.17
620.377	42.73
620.71	42.89
621.043	43.21
621.377	43.13
621.71	43.21
622.043	42.97
622.376	43.2
622.709	42.93
623.043	43.29
623.376	43.3
623.709	43.47
624.041	43.53
624.374	43.15
624.707	43.53
625.04	43.49
625.373	43.09
625.705	43.38
626.038	43.8
626.37	43.75
626.703	43.66
627.035	43.71
627.368	43.84
627.7	44.25
628.032	43.45
628.365	43.65
628.697	43.25
629.029	43.55
629.361	43.2
629.693	43.68
630.025	43.83
630.357	44.19
630.689	44.11
631.021	43.79
631.353	44.06
631.684	44.23
632.016	44.22
632.348	44.1
632.679	44.07
633.011	44.61
633.342	44.56
633.674	44.99
634.005	44.47
634.336	44.26
634.668	44.59
634.999	44.72
635.33	44.38
635.661	44.92
635.992	44.41
636.323	44.2
636.654	44.54
636.985	44.59
637.316	44.42
637.647	44.73
637.977	44.87
638.308	45.31
638.639	44.89
638.969	45.05
639.3	45.22
639.63	45.22
639.961	45.06
640.291	45.14
640.622	44.96
640.952	45.02
641.282	45.5
641.612	45.14
641.943	45.06
642.273	45.38
642.603	45.46
642.933	45.13
643.263	45.42
643.592	45.93
643.922	45.32
644.252	45.73
644.582	45.9
644.911	45.7
645.241	45.72
645.571	45.92
645.9	45.74
646.23	45.63
646.559	45.99
646.888	45.7
647.218	46.06
647.547	45.8
647.876	45.98
648.205	45.33
648.534	45.93
648.863	45.81
649.192	45.69
649.521	46.11
649.85	46.39
650.179	45.75
650.508	45.81
650.837	46.46
651.165	45.95
651.494	46.24
651.822	46.55
652.151	45.83
652.479	46.32
652.808	46.13
653.136	46.62
653.465	46.29
653.793	46.04
654.121	46.77
654.449	46.24
654.777	46.79
655.105	46.34
655.433	46.01
655.761	47.15
656.089	46.31
656.417	47.23
656.745	46.78
657.073	47.1
657.4	47.31
657.728	47.25
658.056	46.45
658.383	46.47
658.711	47.01
659.038	46.8
659.365	47.6
659.693	47.08
660.02	47.62
660.347	47.91
660.674	46.96
661.001	46.67
661.329	46.6
661.656	46.73
661.982	47.15
662.309	47.24
662.636	47.39
662.963	48
663.29	48.1
663.616	47.65
663.943	48.05
664.27	47.72
664.596	47.98
664.923	47.93
665.249	47.59
665.576	47.2
665.902	47.38
666.228	48.16
666.554	47.83
666.881	48.26
667.207	48.24
667.533	48.11
667.859	47.85
668.185	47.78
668.511	48.03
668.837	47.34
669.162	48.14
669.488	47.86
669.814	47.99
670.139	47.93
670.465	47.9
