Data from 0141_chest_Reflection__3__03.txt Node

Date: Fri Sep 22 20:22:50 CDT 2023
User: ToomeyLab
Spectrometer: FLMS14357
Trigger mode: 0
Integration Time (sec): 1.000000E-2
Scans to average: 100
Electric dark correction enabled: true
Nonlinearity correction enabled: false
Boxcar width: 0
XAxis mode: Wavelengths
Number of Pixels in Spectrum: 2048
>>>>>Begin Spectral Data<<<<<
189.047	-39.35
189.435	-39.35
189.823	-39.35
190.211	36.1
190.599	216.96
190.987	171.19
191.375	-111.4
191.763	16.16
192.151	54.53
192.538	-1052.31
192.926	104.79
193.314	222.9
193.702	-245.83
194.089	310.08
194.477	-223.36
194.864	19.75
195.252	-14.61
195.639	93.13
196.027	61.35
196.414	626.46
196.801	13.93
197.189	1307.29
197.576	-15.57
197.963	-712.67
198.351	17.6
198.738	22.98
199.125	-31.09
199.512	-12.1
199.899	37.7
200.286	8.69
200.673	-52.66
201.06	7.7
201.447	42.67
201.833	-252.39
202.22	6.32
202.607	13.59
202.994	23.78
203.38	10.55
203.767	-50.03
204.154	21.08
204.54	-8.07
204.927	-27
205.313	-18.59
205.699	15.43
206.086	17.98
206.472	41.58
206.858	29.47
207.245	-73.29
207.631	24.62
208.017	-15.6
208.403	-43.94
208.789	-11.03
209.175	6.39
209.561	2.1
209.947	46.35
210.333	6.41
210.719	15.84
211.105	11.5
211.491	-18.24
211.876	15.95
212.262	3.02
212.648	12.83
213.034	7.96
213.419	-20.04
213.805	-18.11
214.19	-0.71
214.576	13.02
214.961	3.6
215.346	6.34
215.732	19.18
216.117	-12.25
216.502	26.56
216.888	6.24
217.273	-0.62
217.658	3.59
218.043	26.38
218.428	14.17
218.813	-49.09
219.198	5.65
219.583	-3.01
219.968	-18.31
220.353	11.5
220.738	-7.51
221.122	19.51
221.507	4.36
221.892	1.44
222.276	-5.22
222.661	-30.69
223.046	19.19
223.43	9.73
223.815	-5.31
224.199	-1.91
224.583	3.47
224.968	12.88
225.352	-2.16
225.736	-3.26
226.121	5.45
226.505	3.19
226.889	2.26
227.273	4.4
227.657	-1.23
228.041	-0.03
228.425	7.76
228.809	5.9
229.193	1.26
229.577	5.16
229.961	5.14
230.344	5.3
230.728	2.39
231.112	3.33
231.495	2.79
231.879	3.79
232.263	3.31
232.646	3.97
233.03	3
233.413	3.92
233.797	4
234.18	4.4
234.563	5.21
234.946	4.45
235.33	0.97
235.713	1.66
236.096	2.35
236.479	3.44
236.862	5.5
237.245	2.43
237.628	3.29
238.011	4.55
238.394	4.52
238.777	4.92
239.16	2.31
239.543	4.74
239.925	3.38
240.308	3.16
240.691	4.07
241.073	3.83
241.456	3.92
241.838	2.82
242.221	3.17
242.603	3.4
242.986	3.67
243.368	2.65
243.75	3.32
244.133	4.1
244.515	3.01
244.897	3.54
245.279	3.82
245.661	3.5
246.043	3.39
246.425	2.56
246.807	2.57
247.189	1.43
247.571	3.07
247.953	3.18
248.335	3.3
248.717	3.49
249.098	3.31
249.48	3.25
249.862	3.27
250.243	3.28
250.625	3.45
251.006	3
251.388	3.83
251.769	3.63
252.151	3.17
252.532	2.68
252.913	3.86
253.295	4.29
253.676	2.77
254.057	3.08
254.438	3.64
254.819	3.07
255.2	3.7
255.581	2.98
255.962	4.18
256.343	2.25
256.724	1.47
257.105	3.22
257.486	3.35
257.867	3.11
258.247	2.93
258.628	2.99
259.009	2.53
259.389	3.07
259.77	3.57
260.15	3.54
260.531	2.98
260.911	2.79
261.292	2.69
261.672	3
262.052	3.06
262.432	3.06
262.813	3.06
263.193	2.64
263.573	3.56
263.953	2.92
264.333	3.13
264.713	3.28
265.093	3.1
265.473	3.04
265.853	2.28
266.233	2.33
266.612	2.74
266.992	2.46
267.372	3.78
267.752	3.34
268.131	2.85
268.511	2.46
268.89	2.81
269.27	2.78
269.649	2.89
270.029	3
270.408	2.87
270.787	2.89
271.167	3.66
271.546	2.75
271.925	3.05
272.304	2.75
272.683	2.96
273.062	3.24
273.441	3.14
273.82	3.04
274.199	3.11
274.578	3.31
274.957	3.41
275.336	2.75
275.715	2.82
276.093	2.38
276.472	2.6
276.851	2.66
277.229	2.25
277.608	2.83
277.986	2.8
278.365	3.14
278.743	2.58
279.122	3.33
279.5	3.45
279.878	2.72
280.257	2.8
280.635	2.28
281.013	2.85
281.391	2.45
281.769	2.28
282.147	2.75
282.525	3.17
282.903	2.9
283.281	2.88
283.659	3
284.037	2.4
284.415	2.84
284.792	2.99
285.17	3.09
285.548	3.28
285.925	2.89
286.303	2.75
286.68	2.58
287.058	2.66
287.435	2.74
287.813	2.5
288.19	2.51
288.567	2.76
288.945	2.67
289.322	2.94
289.699	2.58
290.076	3.26
290.453	2.31
290.83	2.18
291.207	2.69
291.584	2.5
291.961	2.82
292.338	2.79
292.715	2.95
293.092	2.63
293.469	2.81
293.845	2.67
294.222	2.94
294.599	2.71
294.975	2.86
295.352	2.95
295.728	2.82
296.105	2.98
296.481	2.76
296.858	3.07
297.234	3.23
297.61	2.98
297.986	2.44
298.363	2.95
298.739	2.68
299.115	2.81
299.491	2.82
299.867	2.71
300.243	2.78
300.619	2.87
300.995	2.73
301.371	3.07
301.746	3.04
302.122	2.42
302.498	2.28
302.874	2.41
303.249	3.2
303.625	2.7
304	2.49
304.376	2.77
304.751	2.7
305.127	3.16
305.502	3.17
305.878	2.57
306.253	2.83
306.628	2.68
307.003	2.9
307.378	2.31
307.754	2.77
308.129	2.86
308.504	2.97
308.879	3.15
309.254	2.55
309.629	3.13
310.003	2.97
310.378	2.98
310.753	2.8
311.128	2.87
311.502	2.92
311.877	2.3
312.252	2.82
312.626	3.11
313.001	3.1
313.375	3.01
313.75	3.46
314.124	3.52
314.498	2.5
314.873	2.45
315.247	3.14
315.621	2.98
315.995	2.89
316.369	2.2
316.743	3.26
317.117	3.41
317.491	3.43
317.865	2.55
318.239	2.95
318.613	3.08
318.987	2.58
319.361	2.64
319.734	2.96
320.108	3.04
320.482	2.87
320.855	2.47
321.229	3.45
321.602	3.18
321.976	2.58
322.349	2.9
322.723	3.08
323.096	2.94
323.469	2.99
323.843	2.7
324.216	2.85
324.589	3.4
324.962	2.28
325.335	2.4
325.708	3.04
326.081	3.15
326.454	2.49
326.827	2.79
327.2	2.7
327.573	3.61
327.945	2.75
328.318	3.22
328.691	3.06
329.063	2.89
329.436	2.78
329.809	2.87
330.181	3
330.553	2.79
330.926	2.54
331.298	2.91
331.671	3.02
332.043	2.31
332.415	2.43
332.787	3.33
333.159	2.57
333.532	2.38
333.904	2.74
334.276	2.53
334.648	2.5
335.02	2.8
335.391	2.75
335.763	3.18
336.135	2.65
336.507	2.7
336.879	2.98
337.25	2.41
337.622	3
337.993	2.89
338.365	3.38
338.736	3.16
339.108	3.06
339.479	2.8
339.851	2.45
340.222	2.56
340.593	2.57
340.964	2.43
341.336	2.57
341.707	2.38
342.078	2.79
342.449	3.3
342.82	2.67
343.191	2.31
343.562	2.66
343.933	2.8
344.303	2.88
344.674	2.79
345.045	2.73
345.416	3.36
345.786	3.3
346.157	2.81
346.527	3.05
346.898	2.86
347.268	2.73
347.639	3
348.009	2.78
348.38	3.1
348.75	2.95
349.12	2.84
349.49	3.09
349.861	3.29
350.231	3.46
350.601	2.76
350.971	2.95
351.341	2.82
351.711	2.71
352.081	2.48
352.45	2.82
352.82	3.04
353.19	3.21
353.56	2.76
353.929	3.05
354.299	2.92
354.669	2.86
355.038	2.67
355.408	2.69
355.777	3.08
356.147	2.69
356.516	3.07
356.885	2.76
357.254	3.46
357.624	2.78
357.993	2.84
358.362	2.83
358.731	2.76
359.1	2.88
359.469	3.03
359.838	2.68
360.207	2.86
360.576	3.04
360.945	2.86
361.314	3.2
361.682	2.87
362.051	3.12
362.42	2.83
362.788	2.88
363.157	2.95
363.525	2.83
363.894	2.89
364.262	2.8
364.631	2.78
364.999	2.8
365.367	3.02
365.735	2.8
366.104	2.79
366.472	3.08
366.84	2.9
367.208	3.24
367.576	2.98
367.944	2.71
368.312	2.99
368.68	2.88
369.048	2.97
369.416	2.89
369.783	2.62
370.151	2.62
370.519	2.92
370.886	3.07
371.254	3.16
371.621	2.82
371.989	2.87
372.356	2.71
372.724	3.07
373.091	3.01
373.458	2.75
373.826	3.09
374.193	2.84
374.56	3.03
374.927	2.97
375.294	2.85
375.661	2.69
376.028	3.22
376.395	3.12
376.762	2.79
377.129	3.28
377.496	3.2
377.863	3
378.229	3.26
378.596	2.86
378.963	3.17
379.329	2.86
379.696	3.08
380.062	2.72
380.429	2.98
380.795	3.12
381.161	3.07
381.528	2.86
381.894	2.69
382.26	2.87
382.626	2.99
382.993	3.19
383.359	2.68
383.725	3.13
384.091	3.06
384.457	3.01
384.823	2.97
385.188	3.23
385.554	3.04
385.92	3.22
386.286	2.94
386.651	3.08
387.017	3.06
387.383	2.65
387.748	3.08
388.114	2.92
388.479	3.09
388.845	2.83
389.21	2.8
389.575	3.23
389.94	2.88
390.306	2.98
390.671	3.35
391.036	2.7
391.401	2.99
391.766	2.84
392.131	2.9
392.496	3.1
392.861	2.86
393.226	3.04
393.591	3.11
393.956	2.94
394.32	3.05
394.685	3.03
395.05	3.11
395.414	3.25
395.779	3.07
396.143	3
396.508	2.9
396.872	2.9
397.236	3.09
397.601	2.86
397.965	3.35
398.329	3.21
398.694	2.9
399.058	3.1
399.422	3.01
399.786	3.11
400.15	3.1
400.514	3.03
400.878	2.86
401.242	3.17
401.605	3.09
401.969	2.87
402.333	3.14
402.697	2.98
403.06	2.95
403.424	2.97
403.787	3
404.151	3.2
404.514	3.34
404.878	3.25
405.241	3.29
405.604	3.1
405.968	3.19
406.331	3.18
406.694	3.03
407.057	2.85
407.42	3.11
407.783	3.1
408.146	3
408.509	2.96
408.872	2.99
409.235	3.19
409.598	3.01
409.961	3.12
410.323	3.16
410.686	3.29
411.049	3.18
411.411	3.19
411.774	3.08
412.136	2.9
412.499	2.95
412.861	3.23
413.223	3.08
413.586	3.23
413.948	3.47
414.31	2.95
414.672	3.32
415.035	3.1
415.397	3.27
415.759	3.32
416.121	3.09
416.483	3.13
416.845	3.04
417.206	3.05
417.568	3.08
417.93	3.24
418.292	3.08
418.653	3.09
419.015	3.23
419.377	3.07
419.738	3.19
420.1	3.11
420.461	3.12
420.822	3.04
421.184	3.08
421.545	3.13
421.906	3.05
422.267	3.08
422.629	3.09
422.99	3.1
423.351	3.07
423.712	2.98
424.073	3.05
424.434	3.19
424.795	3.15
425.155	3.23
425.516	3.09
425.877	3.05
426.238	3
426.598	3
426.959	3.04
427.32	3.23
427.68	2.99
428.041	3.05
428.401	3.19
428.761	3.32
429.122	3.26
429.482	3.16
429.842	3.08
430.202	3.02
430.563	3.23
430.923	3.14
431.283	3.09
431.643	3.24
432.003	3.17
432.363	3.41
432.722	3.24
433.082	3.13
433.442	3.16
433.802	3.25
434.161	3.08
434.521	3.16
434.881	3.18
435.24	3
435.6	3
435.959	3.03
436.319	3.15
436.678	3.19
437.037	3.12
437.396	3.29
437.756	3.21
438.115	3.21
438.474	3.18
438.833	3.26
439.192	3.28
439.551	3.28
439.91	3.21
440.269	3.11
440.628	3
440.987	3.08
441.345	3.23
441.704	3.21
442.063	3.19
442.421	3.06
442.78	3.22
443.138	3.13
443.497	3.17
443.855	3.27
444.214	3.09
444.572	3.25
444.93	3.17
445.288	3.14
445.647	3.26
446.005	2.99
446.363	3.1
446.721	3.28
447.079	3
447.437	3.13
447.795	3.09
448.153	3.01
448.51	3.24
448.868	3.04
449.226	3.11
449.584	3.12
449.941	3.08
450.299	3.17
450.656	3.3
451.014	3.29
451.371	3.21
451.729	3.29
452.086	3.24
452.443	3.2
452.801	3.17
453.158	3.18
453.515	3.27
453.872	3.25
454.229	3.19
454.586	3.28
454.943	3.26
455.3	3.12
455.657	3.2
456.014	3.26
456.371	3.15
456.727	3.41
457.084	3.26
457.441	3.13
457.797	3.22
458.154	3.15
458.51	3.16
458.867	3.14
459.223	3.27
459.58	3.24
459.936	3.33
460.292	3.26
460.648	3.28
461.005	3.32
461.361	3.25
461.717	3
462.073	3.16
462.429	3.14
462.785	3.12
463.141	3.23
463.496	3.3
463.852	3.27
464.208	3.24
464.564	3.32
464.919	3.15
465.275	3.46
465.631	3.24
465.986	3.3
466.342	3.28
466.697	3.22
467.052	3.09
467.408	3.38
467.763	3.36
468.118	3.37
468.473	3.28
468.829	3.12
469.184	3.25
469.539	3.36
469.894	3.23
470.249	3.36
470.603	3.07
470.958	3.23
471.313	3.31
471.668	3.31
472.023	3.16
472.377	3.18
472.732	3.18
473.086	3.4
473.441	3.12
473.795	3.4
474.15	3.02
474.504	3.12
474.859	3.39
475.213	3.07
475.567	3.14
475.921	3.33
476.275	3.27
476.63	3.2
476.984	3.16
477.338	3.4
477.692	3.37
478.045	3.46
478.399	3.45
478.753	3.16
479.107	3.21
479.461	3.2
479.814	3.22
480.168	3.31
480.521	3.42
480.875	3.45
481.228	3.38
481.582	3.12
481.935	3.29
482.289	3.19
482.642	3.17
482.995	3.31
483.348	3.27
483.701	3.29
484.055	3.39
484.408	3.19
484.761	3.29
485.114	3.14
485.466	3.09
485.819	3.07
486.172	3.05
486.525	3.09
486.878	3.12
487.23	3.16
487.583	3.19
487.936	3.21
488.288	3.25
488.641	3.24
488.993	3.12
489.345	3.15
489.698	3.15
490.05	3.14
490.402	3.18
490.754	3.14
491.107	3.17
491.459	3.28
491.811	3.29
492.163	3.27
492.515	3.26
492.866	3.26
493.218	3.32
493.57	3.23
493.922	3.13
494.274	3.19
494.625	3.23
494.977	3.34
495.328	3.35
495.68	3.42
496.031	3.32
496.383	3.3
496.734	3.37
497.086	3.33
497.437	3.41
497.788	3.42
498.139	3.42
498.49	3.41
498.842	3.32
499.193	3.24
499.544	3.37
499.894	3.31
500.245	3.34
500.596	3.39
500.947	3.3
501.298	3.38
501.648	3.4
501.999	3.4
502.35	3.47
502.7	3.5
503.051	3.36
503.401	3.49
503.752	3.43
504.102	3.35
504.452	3.44
504.803	3.38
505.153	3.44
505.503	3.42
505.853	3.48
506.203	3.38
506.553	3.49
506.903	3.44
507.253	3.39
507.603	3.39
507.953	3.5
508.303	3.46
508.652	3.35
509.002	3.51
509.352	3.36
509.701	3.51
510.051	3.42
510.4	3.42
510.75	3.4
511.099	3.25
511.449	3.36
511.798	3.41
512.147	3.47
512.496	3.24
512.846	3.45
513.195	3.45
513.544	3.48
513.893	3.47
514.242	3.36
514.591	3.43
514.939	3.53
515.288	3.41
515.637	3.5
515.986	3.46
516.334	3.48
516.683	3.53
517.032	3.55
517.38	3.64
517.729	3.55
518.077	3.56
518.426	3.59
518.774	3.59
519.122	3.47
519.47	3.45
519.819	3.46
520.167	3.57
520.515	3.44
520.863	3.42
521.211	3.42
521.559	3.45
521.907	3.44
522.255	3.46
522.602	3.64
522.95	3.48
523.298	3.68
523.645	3.58
523.993	3.6
524.341	3.51
524.688	3.65
525.036	3.62
525.383	3.56
525.73	3.62
526.078	3.63
526.425	3.57
526.772	3.64
527.119	3.54
527.466	3.46
527.814	3.49
528.161	3.49
528.508	3.52
528.854	3.54
529.201	3.59
529.548	3.64
529.895	3.54
530.242	3.51
530.588	3.38
530.935	3.36
531.282	3.42
531.628	3.49
531.975	3.47
532.321	3.51
532.667	3.57
533.014	3.61
533.36	3.58
533.706	3.61
534.052	3.74
534.399	3.63
534.745	3.59
535.091	3.5
535.437	3.51
535.783	3.5
536.129	3.54
536.474	3.65
536.82	3.63
537.166	3.76
537.512	3.71
537.857	3.78
538.203	3.78
538.549	3.73
538.894	3.53
539.239	3.67
539.585	3.66
539.93	3.83
540.276	3.75
540.621	3.74
540.966	3.74
541.311	3.83
541.656	3.81
542.001	3.84
542.346	3.83
542.691	3.81
543.036	3.78
543.381	3.68
543.726	3.61
544.071	3.64
544.415	3.72
544.76	3.7
545.105	3.67
545.449	3.69
545.794	3.76
546.138	3.79
546.483	3.82
546.827	3.82
547.171	3.87
547.516	3.87
547.86	3.88
548.204	3.9
548.548	3.92
548.892	3.91
549.236	3.84
549.58	3.9
549.924	4
550.268	4.09
550.612	3.98
550.956	3.96
551.3	4.16
551.643	4.09
551.987	4.03
552.33	4
552.674	4.04
553.017	3.97
553.361	3.98
553.704	3.99
554.048	4.19
554.391	4.1
554.734	4.03
555.077	4.01
555.42	4.11
555.764	4.06
556.107	4.05
556.45	4.05
556.793	4.04
557.135	4.17
557.478	3.96
557.821	4.14
558.164	4.25
558.507	4.37
558.849	3.93
559.192	4.09
559.534	4.17
559.877	4.25
560.219	4.17
560.562	4.17
560.904	4.21
561.246	4.27
561.589	4.29
561.931	4.28
562.273	4.22
562.615	4.26
562.957	4.21
563.299	4.26
563.641	4.39
563.983	4.41
564.325	4.26
564.667	4.45
565.008	4.37
565.35	4.36
565.692	4.51
566.033	4.36
566.375	4.48
566.716	4.39
567.058	4.38
567.399	4.62
567.741	4.42
568.082	4.41
568.423	4.47
568.764	4.63
569.105	4.35
569.447	4.45
569.788	4.39
570.129	4.71
570.47	4.58
570.811	4.55
571.151	4.53
571.492	4.52
571.833	4.48
572.174	4.51
572.514	4.47
572.855	4.57
573.195	4.39
573.536	4.59
573.876	4.53
574.217	4.64
574.557	4.55
574.898	4.72
575.238	4.52
575.578	4.93
575.918	4.69
576.258	4.59
576.598	4.73
576.938	4.79
577.278	4.86
577.618	4.61
577.958	4.86
578.298	4.83
578.638	4.76
578.977	4.86
579.317	4.72
579.657	4.89
579.996	4.81
580.336	4.84
580.675	4.75
581.014	4.77
581.354	4.91
581.693	5.05
582.032	5.03
582.372	5.06
582.711	5.01
583.05	5.12
583.389	4.87
583.728	4.78
584.067	5.24
584.406	5.09
584.745	4.61
585.083	5.35
585.422	5.35
585.761	4.96
586.1	5.03
586.438	4.98
586.777	5.17
587.115	5.12
587.454	4.97
587.792	5.24
588.13	5.05
588.469	5.11
588.807	5.34
589.145	5.21
589.483	5.31
589.821	5.13
590.159	5.28
590.497	5.52
590.835	5.25
591.173	5.34
591.511	5.1
591.849	5.32
592.187	5.49
592.524	5.24
592.862	5.52
593.2	5.29
593.537	5.24
593.875	5.31
594.212	5.48
594.55	5.5
594.887	5.32
595.224	5.55
595.561	5.65
595.899	5.67
596.236	5.81
596.573	5.84
596.91	5.64
597.247	5.45
597.584	5.85
597.921	5.63
598.258	5.7
598.594	5.66
598.931	5.62
599.268	5.68
599.604	5.87
599.941	5.68
600.277	5.72
600.614	5.75
600.95	5.87
601.287	5.88
601.623	5.56
601.959	5.85
602.296	5.86
602.632	5.73
602.968	5.78
603.304	5.83
603.64	5.78
603.976	6.09
604.312	5.82
604.648	5.87
604.984	6.06
605.319	5.89
605.655	5.96
605.991	6.1
606.326	5.92
606.662	6.03
606.998	5.88
607.333	5.94
607.668	5.98
608.004	6.09
608.339	6.06
608.674	6.09
609.01	6.02
609.345	6.16
609.68	6.48
610.015	6.25
610.35	6.18
610.685	6.37
611.02	6.29
611.355	6.3
611.689	6.32
612.024	6.33
612.359	6.19
612.694	6.3
613.028	6.31
613.363	6.34
613.697	6.48
614.032	6.29
614.366	6.35
614.7	6.35
615.035	6.58
615.369	6.4
615.703	6.33
616.037	6.52
616.371	6.51
616.705	6.91
617.039	6.82
617.373	6.8
617.707	6.83
618.041	6.85
618.375	6.78
618.709	6.42
619.042	6.75
619.376	6.59
619.71	6.71
620.043	6.44
620.377	6.62
620.71	6.6
621.043	6.92
621.377	6.63
621.71	6.67
622.043	6.92
622.376	7.05
622.709	7.11
623.043	6.96
623.376	6.9
623.709	7.19
624.041	6.66
624.374	7.06
624.707	6.9
625.04	7.01
625.373	6.68
625.705	7.09
626.038	7.24
626.37	7.22
626.703	7.05
627.035	7.19
627.368	7.11
627.7	7.48
628.032	7.43
628.365	7.17
628.697	7.31
629.029	7.38
629.361	7.2
629.693	7.37
630.025	7.21
630.357	7.17
630.689	7.43
631.021	7.36
631.353	7.5
631.684	7.39
632.016	7.43
632.348	7
632.679	7.42
633.011	7.73
633.342	7.9
633.674	7.86
634.005	7.59
634.336	7.34
634.668	7.8
634.999	7.87
635.33	7.58
635.661	7.42
635.992	7.53
636.323	7.52
636.654	7.68
636.985	7.43
637.316	7.52
637.647	7.64
637.977	7.7
638.308	7.82
638.639	7.78
638.969	8.21
639.3	7.68
639.63	8.23
639.961	7.63
640.291	7.79
640.622	7.75
640.952	7.99
641.282	8.04
641.612	7.98
641.943	7.99
642.273	8.08
642.603	8.02
642.933	8.02
643.263	7.89
643.592	7.97
643.922	8.09
644.252	7.79
644.582	8.54
644.911	8.11
645.241	8.61
645.571	8.08
645.9	8.49
646.23	8.56
646.559	8.23
646.888	8.45
647.218	8.55
647.547	8.03
647.876	8.16
648.205	8.12
648.534	8.19
648.863	8.28
649.192	7.97
649.521	8.32
649.85	8.67
650.179	8.21
650.508	8.08
650.837	8.74
651.165	8.69
651.494	8.64
651.822	8.53
652.151	8.56
652.479	8.69
652.808	8.58
653.136	9.19
653.465	8.82
653.793	8.35
654.121	9.26
654.449	8.51
654.777	8.81
655.105	8.97
655.433	8.99
655.761	9.49
656.089	8.95
656.417	8.94
656.745	9.04
657.073	9.01
657.4	9.64
657.728	9.16
658.056	9
658.383	9.3
658.711	8.69
659.038	8.8
659.365	8.85
659.693	8.78
660.02	9.33
660.347	9.17
660.674	8.94
661.001	9.1
661.329	8.88
661.656	9.42
661.982	9.24
662.309	9.32
662.636	9.43
662.963	9.47
663.29	9.51
663.616	9.2
663.943	9.73
664.27	9.41
664.596	9.33
664.923	8.89
665.249	9.19
665.576	9.34
665.902	9.64
666.228	9.5
666.554	9.11
666.881	10.04
667.207	9.52
667.533	10.07
667.859	9.86
668.185	9.69
668.511	9.98
668.837	9.39
669.162	10.27
669.488	9.72
669.814	9.6
670.139	9.55
670.465	9.93
670.791	9.86
671.116	9.55
671.442	10.47
671.767	9.61
672.092	10.58
672.418	10.17
672.743	9.98
673.068	9.83
673.393	9.67
673.718	10.16
674.043	10.34
674.368	10.39
674.693	9.76
675.018	9.67
675.343	9.82
675.667	10.21
675.992	9.9
676.317	10.31
676.641	10.1
676.966	10.86
677.29	10.21
677.615	10.53
677.939	10.59
678.264	10.52
678.588	10.58
678.912	10.52
679.236	10.74
679.56	10.27
679.885	10.34
680.209	10.98
680.532	10.24
680.856	10
681.18	10.06
681.504	10.16
681.828	10.72
682.152	10.34
682.475	11.16
682.799	10.29
683.122	10.66
683.446	10.45
683.769	10.76
684.093	11.39
684.416	11.2
684.739	11.29
685.062	11.57
685.386	10.4
685.709	10.62
686.032	10.92
686.355	10.66
686.678	11.1
687.001	11.19
687.324	11.46
687.646	11.18
687.969	10.99
688.292	11.01
688.614	11.35
688.937	10.52
689.26	10.63
689.582	10.95
689.904	11.13
690.227	11.83
690.549	11
690.871	11.3
691.194	11.74
691.516	10.75
691.838	11.02
692.16	11.18
