Data from 0141_forehead_Reflection__1__11.txt Node

Date: Fri Sep 22 20:27:14 CDT 2023
User: ToomeyLab
Spectrometer: FLMS14357
Trigger mode: 0
Integration Time (sec): 1.000000E-2
Scans to average: 100
Electric dark correction enabled: true
Nonlinearity correction enabled: false
Boxcar width: 0
XAxis mode: Wavelengths
Number of Pixels in Spectrum: 2048
>>>>>Begin Spectral Data<<<<<
189.047	153.86
189.435	153.86
189.823	153.86
190.211	41.31
190.599	598.66
190.987	-102.78
191.375	-48.35
191.763	-123.65
192.151	102.17
192.538	-83.1
192.926	99.3
193.314	215.54
193.702	-258.9
194.089	232.96
194.477	556.41
194.864	16.09
195.252	-60.77
195.639	50.15
196.027	29
196.414	-175.73
196.801	433.04
197.189	1904.69
197.576	117.48
197.963	17.45
198.351	2.89
198.738	25.2
199.125	29.82
199.512	13.5
199.899	62.58
200.286	65.11
200.673	17.89
201.06	40.95
201.447	38.24
201.833	-46.14
202.22	71.25
202.607	34.13
202.994	28.58
203.38	21.2
203.767	63.83
204.154	58.04
204.54	58.64
204.927	-12.89
205.313	21.14
205.699	36.41
206.086	29.2
206.472	64.9
206.858	13.32
207.245	-19.68
207.631	38.99
208.017	15.53
208.403	36.39
208.789	25.42
209.175	31.14
209.561	61.2
209.947	63.52
210.333	28.57
210.719	14.94
211.105	28.12
211.491	21.34
211.876	34.5
212.262	21.44
212.648	40.36
213.034	61.84
213.419	38.53
213.805	23.63
214.19	27.31
214.576	36.04
214.961	32.91
215.346	28.82
215.732	23.06
216.117	9.38
216.502	29.85
216.888	13.08
217.273	26.25
217.658	18.99
218.043	31.04
218.428	60.19
218.813	26.04
219.198	13.34
219.583	30.24
219.968	34.61
220.353	42.3
220.738	16.67
221.122	4.23
221.507	7.96
221.892	1.65
222.276	23.35
222.661	11.31
223.046	23.81
223.43	26.61
223.815	14.59
224.199	4.06
224.583	13
224.968	17
225.352	9.75
225.736	13.45
226.121	9.71
226.505	12.08
226.889	10.19
227.273	3.71
227.657	6.27
228.041	7.3
228.425	6.32
228.809	5.67
229.193	6.76
229.577	6.77
229.961	4.5
230.344	5.81
230.728	3.37
231.112	4.32
231.495	3.52
231.879	4.37
232.263	3.22
232.646	4.85
233.03	4.76
233.413	4.89
233.797	4.46
234.18	4.74
234.563	7.52
234.946	7.16
235.33	4.25
235.713	3.3
236.096	4.18
236.479	4.4
236.862	5.63
237.245	5.32
237.628	5.02
238.011	4.23
238.394	4.58
238.777	5.69
239.16	5.71
239.543	7.51
239.925	6.5
240.308	5.53
240.691	5.27
241.073	5.97
241.456	3.68
241.838	3.37
242.221	4.53
242.603	4.68
242.986	4
243.368	4.09
243.75	3.93
244.133	3.78
244.515	3.96
244.897	3.48
245.279	3.77
245.661	3.94
246.043	4.15
246.425	4.45
246.807	4.76
247.189	3.68
247.571	3.9
247.953	4.1
248.335	3.93
248.717	4.13
249.098	3.9
249.48	3.69
249.862	3.65
250.243	3.73
250.625	4.09
251.006	3.73
251.388	4.56
251.769	4.89
252.151	4.32
252.532	4.5
252.913	4.39
253.295	5.11
253.676	4.47
254.057	4.12
254.438	4.71
254.819	3.78
255.2	5.05
255.581	4.51
255.962	4.92
256.343	4.96
256.724	4.42
257.105	5.98
257.486	4.27
257.867	5.11
258.247	4.88
258.628	4.16
259.009	4
259.389	4.43
259.77	4.43
260.15	4.74
260.531	3.94
260.911	4.06
261.292	4.16
261.672	3.62
262.052	3.73
262.432	3.72
262.813	3.79
263.193	3.71
263.573	4.93
263.953	4.11
264.333	4.55
264.713	4.5
265.093	4.26
265.473	3.75
265.853	3.59
266.233	4.45
266.612	3.39
266.992	4.56
267.372	4.23
267.752	4.62
268.131	4.05
268.511	3.62
268.89	4.28
269.27	3.64
269.649	4.31
270.029	3.77
270.408	4.34
270.787	3.57
271.167	4.03
271.546	4.19
271.925	3.94
272.304	3.95
272.683	4.29
273.062	4.32
273.441	3.87
273.82	4.54
274.199	3.94
274.578	3.69
274.957	3.73
275.336	3.87
275.715	3.81
276.093	3.65
276.472	4.1
276.851	2.98
277.229	3.31
277.608	3.79
277.986	3.63
278.365	3.8
278.743	3.89
279.122	3.8
279.5	4.42
279.878	3.71
280.257	4.4
280.635	3.94
281.013	4.14
281.391	4.14
281.769	3.6
282.147	4.06
282.525	3.52
282.903	3.68
283.281	4.04
283.659	3.98
284.037	4.03
284.415	4.02
284.792	3.57
285.17	3.97
285.548	4.17
285.925	3.83
286.303	4.34
286.68	3.61
287.058	3.53
287.435	3.64
287.813	3.51
288.19	3.56
288.567	3.98
288.945	3.69
289.322	3.99
289.699	3.99
290.076	3.95
290.453	3.44
290.83	3.56
291.207	4.05
291.584	3.8
291.961	3.69
292.338	4
292.715	4.08
293.092	4.51
293.469	4.2
293.845	4.12
294.222	4.69
294.599	4.07
294.975	4.36
295.352	4.41
295.728	4
296.105	4.6
296.481	4.58
296.858	4.38
297.234	4.76
297.61	4.35
297.986	4.89
298.363	4.56
298.739	4.61
299.115	4.74
299.491	4.55
299.867	4.66
300.243	4.54
300.619	4.73
300.995	4.67
301.371	5.05
301.746	5.35
302.122	5.19
302.498	4.92
302.874	4.12
303.249	4.94
303.625	4.78
304	5.51
304.376	5.49
304.751	5.57
305.127	5.47
305.502	5.69
305.878	5.52
306.253	5.58
306.628	5.5
307.003	5.66
307.378	5.72
307.754	5.68
308.129	5.63
308.504	6.09
308.879	5.71
309.254	5.97
309.629	5.62
310.003	6.34
310.378	6.44
310.753	5.8
311.128	6.35
311.502	6.09
311.877	5.87
312.252	6.15
312.626	5.89
313.001	6.67
313.375	6.28
313.75	6.54
314.124	6.79
314.498	6.38
314.873	6.47
315.247	7.07
315.621	6.61
315.995	7.43
316.369	6.66
316.743	6.61
317.117	7.1
317.491	7.41
317.865	6.93
318.239	7.08
318.613	7.13
318.987	7.01
319.361	7.39
319.734	7.57
320.108	7.72
320.482	7.04
320.855	7.65
321.229	7.42
321.602	7.45
321.976	7.33
322.349	7.48
322.723	8.15
323.096	8.64
323.469	7.96
323.843	8.44
324.216	8.26
324.589	7.95
324.962	7.63
325.335	7.52
325.708	7.65
326.081	8.54
326.454	7.77
326.827	7.85
327.2	8.07
327.573	8.69
327.945	8.11
328.318	8.5
328.691	8.46
329.063	8.25
329.436	8.51
329.809	8.71
330.181	8.42
330.553	8.38
330.926	8.6
331.298	8.44
331.671	8.97
332.043	7.85
332.415	8.34
332.787	9.01
333.159	8.42
333.532	8.76
333.904	8.83
334.276	8.8
334.648	8.63
335.02	8.89
335.391	9.23
335.763	9.46
336.135	9.17
336.507	9.22
336.879	8.73
337.25	9.29
337.622	9.27
337.993	9.36
338.365	9.69
338.736	9.44
339.108	9.74
339.479	9.4
339.851	8.69
340.222	9.24
340.593	9.26
340.964	9.57
341.336	9.38
341.707	9.57
342.078	9.5
342.449	9.52
342.82	9.33
343.191	9.45
343.562	9.87
343.933	9.87
344.303	9.55
344.674	9.72
345.045	9.68
345.416	10.01
345.786	10.2
346.157	9.82
346.527	9.78
346.898	9.98
347.268	9.87
347.639	9.93
348.009	10.03
348.38	9.99
348.75	10.41
349.12	10.13
349.49	10.76
349.861	10.41
350.231	10.55
350.601	10.36
350.971	10.54
351.341	10.44
351.711	10.26
352.081	10.75
352.45	10.23
352.82	10.75
353.19	10.84
353.56	10.5
353.929	10.58
354.299	10.6
354.669	10.76
355.038	10.93
355.408	11.1
355.777	10.84
356.147	11.05
356.516	11.03
356.885	10.74
357.254	11.23
357.624	10.84
357.993	11.13
358.362	11.25
358.731	11.29
359.1	10.83
359.469	11.26
359.838	11.02
360.207	10.85
360.576	11.4
360.945	11.49
361.314	11.55
361.682	11.58
362.051	11.66
362.42	11.1
362.788	11.45
363.157	11.77
363.525	11.6
363.894	11.3
364.262	11.44
364.631	11.44
364.999	11.57
365.367	11.96
365.735	11.93
366.104	11.59
366.472	12
366.84	11.75
367.208	12.05
367.576	12.33
367.944	11.95
368.312	12.26
368.68	12.31
369.048	12.48
369.416	12.18
369.783	12.11
370.151	12.12
370.519	12.29
370.886	12.27
371.254	12.94
371.621	12.35
371.989	12.08
372.356	12.24
372.724	12.79
373.091	12.69
373.458	12.56
373.826	12.74
374.193	12.84
374.56	13.18
374.927	13.11
375.294	12.72
375.661	12.74
376.028	13.2
376.395	13.02
376.762	12.93
377.129	13.18
377.496	13.36
377.863	13.12
378.229	13.11
378.596	13.32
378.963	13.2
379.329	12.91
379.696	13.18
380.062	13.02
380.429	13.18
380.795	13.31
381.161	13.66
381.528	13.51
381.894	13.17
382.26	13.48
382.626	13.72
382.993	13.68
383.359	13.72
383.725	13.71
384.091	13.8
384.457	13.75
384.823	13.87
385.188	13.97
385.554	13.95
385.92	14.07
386.286	13.84
386.651	13.94
387.017	13.87
387.383	13.9
387.748	14.08
388.114	14.14
388.479	14.11
388.845	13.93
389.21	14.1
389.575	14.43
389.94	14.03
390.306	14.32
390.671	14.65
391.036	14.17
391.401	14.32
391.766	14.37
392.131	14.19
392.496	14.48
392.861	14.39
393.226	14.6
393.591	14.45
393.956	14.53
394.32	14.56
394.685	14.59
395.05	15
395.414	14.92
395.779	14.77
396.143	14.74
396.508	14.78
396.872	14.83
397.236	14.8
397.601	15.02
397.965	15.17
398.329	15.06
398.694	15.07
399.058	15.25
399.422	15.32
399.786	15.31
400.15	15.29
400.514	15.25
400.878	15.21
401.242	15.51
401.605	15.25
401.969	15.29
402.333	15.48
402.697	15.54
403.06	15.44
403.424	15.68
403.787	15.99
404.151	15.76
404.514	15.86
404.878	15.92
405.241	15.82
405.604	15.73
405.968	15.78
406.331	15.76
406.694	15.72
407.057	15.79
407.42	15.84
407.783	16.03
408.146	15.89
408.509	15.78
408.872	16.28
409.235	16.29
409.598	16.34
409.961	16.54
410.323	16.36
410.686	16.39
411.049	16.54
411.411	16.48
411.774	16.55
412.136	16.14
412.499	16.48
412.861	16.47
413.223	16.57
413.586	16.53
413.948	16.51
414.31	16.93
414.672	16.63
415.035	16.97
415.397	17.07
415.759	16.97
416.121	16.9
416.483	16.91
416.845	16.89
417.206	16.96
417.568	17.05
417.93	16.77
418.292	16.84
418.653	16.68
419.015	17.08
419.377	16.96
419.738	17.08
420.1	16.82
420.461	16.86
420.822	16.87
421.184	16.86
421.545	17.02
421.906	17.01
422.267	16.95
422.629	16.99
422.99	16.83
423.351	16.79
423.712	16.83
424.073	17.02
424.434	17.3
424.795	17.25
425.155	17.41
425.516	17.27
425.877	17.13
426.238	17.08
426.598	16.99
426.959	17.22
427.32	17.39
427.68	17.41
428.041	17.55
428.401	17.75
428.761	17.97
429.122	18.13
429.482	17.99
429.842	18.18
430.202	18.21
430.563	18.44
430.923	18.51
431.283	18.38
431.643	18.34
432.003	18.42
432.363	18.47
432.722	18.37
433.082	18.28
433.442	18.32
433.802	18.49
434.161	18.36
434.521	18.36
434.881	18.33
435.24	18.26
435.6	18.09
435.959	18.24
436.319	18.38
436.678	18.63
437.037	18.67
437.396	18.59
437.756	18.91
438.115	18.78
438.474	18.95
438.833	19.12
439.192	18.88
439.551	18.91
439.91	18.93
440.269	18.77
440.628	18.78
440.987	18.78
441.345	18.85
441.704	18.7
442.063	18.78
442.421	18.8
442.78	18.73
443.138	18.84
443.497	18.9
443.855	19.28
444.214	19.28
444.572	19.44
444.93	19.57
445.288	19.52
445.647	19.54
446.005	19.34
446.363	19.36
446.721	19.37
447.079	19.19
447.437	19.25
447.795	19.07
448.153	19.06
448.51	19.01
448.868	19.08
449.226	19.18
449.584	19.26
449.941	19.57
450.299	19.7
450.656	19.93
451.014	20.05
451.371	20.07
451.729	20.07
452.086	19.98
452.443	20.22
452.801	20.27
453.158	20.35
453.515	20.42
453.872	20.41
454.229	20.38
454.586	20.24
454.943	20.25
455.3	20.42
455.657	20.48
456.014	20.24
456.371	20.41
456.727	20.69
457.084	20.5
457.441	20.67
457.797	20.86
458.154	20.67
458.51	20.59
458.867	20.84
459.223	20.93
459.58	20.99
459.936	21.03
460.292	20.93
460.648	20.9
461.005	20.62
461.361	20.64
461.717	20.14
462.073	20.35
462.429	20.41
462.785	20.78
463.141	20.88
463.496	21.11
463.852	21.21
464.208	21.18
464.564	21.37
464.919	21.34
465.275	21.53
465.631	21.72
465.986	21.62
466.342	21.68
466.697	21.3
467.052	21.31
467.408	21.82
467.763	21.89
468.118	21.85
468.473	21.73
468.829	21.69
469.184	21.44
469.539	21.67
469.894	21.74
470.249	21.82
470.603	21.62
470.958	21.95
471.313	22.08
471.668	22.06
472.023	22.24
472.377	21.94
472.732	22.14
473.086	22.16
473.441	22.05
473.795	22.41
474.15	22.3
474.504	22.3
474.859	22.49
475.213	22.16
475.567	22.28
475.921	22.33
476.275	22.47
476.63	22.63
476.984	22.7
477.338	22.68
477.692	22.77
478.045	22.87
478.399	22.68
478.753	22.45
479.107	22.68
479.461	22.53
479.814	22.66
480.168	22.66
480.521	22.81
480.875	22.88
481.228	22.93
481.582	22.89
481.935	23.03
482.289	23.03
482.642	23.04
482.995	22.95
483.348	22.85
483.701	22.98
484.055	22.75
484.408	22.7
484.761	22.68
485.114	22.3
485.466	21.91
485.819	21.65
486.172	21.72
486.525	22.11
486.878	22.35
487.23	22.71
487.583	22.91
487.936	23.06
488.288	23.11
488.641	23.06
488.993	22.71
489.345	22.49
489.698	22.58
490.05	22.55
490.402	22.77
490.754	22.9
491.107	23.19
491.459	23.4
491.811	23.64
492.163	23.91
492.515	23.84
492.866	23.83
493.218	23.3
493.57	23
493.922	22.92
494.274	23.21
494.625	23.53
494.977	23.78
495.328	24.06
495.68	24.42
496.031	24.43
496.383	24.59
496.734	24.55
497.086	24.64
497.437	24.61
497.788	24.42
498.139	24.52
498.49	24.44
498.842	24.27
499.193	24.27
499.544	24.37
499.894	24.54
500.245	24.65
500.596	24.73
500.947	24.77
501.298	24.75
501.648	24.96
501.999	24.98
502.35	25.08
502.7	25.12
503.051	25.27
503.401	25.28
503.752	25.37
504.102	25.2
504.452	25.39
504.803	25.29
505.153	25.34
505.503	25.41
505.853	25.59
506.203	25.44
506.553	25.5
506.903	25.56
507.253	25.52
507.603	25.76
507.953	25.85
508.303	25.75
508.652	25.96
509.002	25.81
509.352	25.85
509.701	25.81
510.051	25.67
510.4	25.65
510.75	25.57
511.099	25.53
511.449	25.64
511.798	25.76
512.147	25.83
512.496	26.01
512.846	26.16
513.195	26.13
513.544	26.25
513.893	26.1
514.242	26.09
514.591	26.18
514.939	26.3
515.288	26.21
515.637	26.46
515.986	26.5
516.334	26.67
516.683	26.73
517.032	26.88
517.38	26.85
517.729	26.97
518.077	26.79
518.426	27.07
518.774	27.02
519.122	26.79
519.47	26.76
519.819	26.82
520.167	26.69
520.515	26.57
520.863	26.37
521.211	26.62
521.559	26.79
521.907	26.86
522.255	26.99
522.602	27.04
522.95	27.15
523.298	27.32
523.645	27.44
523.993	27.58
524.341	27.51
524.688	27.48
525.036	27.63
525.383	27.65
525.73	27.89
526.078	27.66
526.425	27.71
526.772	27.82
527.119	27.49
527.466	27.17
527.814	27.08
528.161	27.25
528.508	27.4
528.854	27.63
529.201	27.65
529.548	27.68
529.895	27.47
530.242	27.1
530.588	26.53
530.935	26.72
531.282	27.14
531.628	27.36
531.975	27.49
532.321	27.63
532.667	27.93
533.014	28.12
533.36	28.33
533.706	28.16
534.052	28.21
534.399	28.26
534.745	28.06
535.091	27.71
535.437	27.51
535.783	27.57
536.129	27.87
536.474	28.3
536.82	28.48
537.166	28.72
537.512	28.85
537.857	28.82
538.203	28.89
538.549	28.57
538.894	28.36
539.239	28.73
539.585	28.75
539.93	29.07
540.276	29.27
540.621	29.33
540.966	29.52
541.311	29.57
541.656	29.57
542.001	29.6
542.346	29.46
542.691	29.27
543.036	28.78
543.381	28.32
543.726	28.42
544.071	28.71
544.415	28.9
544.76	29.01
545.105	29.24
545.449	29.22
545.794	29.56
546.138	29.63
546.483	29.74
546.827	29.87
547.171	29.9
547.516	29.94
547.86	30.05
548.204	30.15
548.548	29.84
548.892	29.83
549.236	29.79
549.58	29.97
549.924	30.28
550.268	30.51
550.612	30.64
550.956	30.63
551.3	30.88
551.643	30.85
551.987	30.81
552.33	30.99
552.674	30.79
553.017	30.98
553.361	31.17
553.704	30.94
554.048	31.07
554.391	31.01
554.734	31.07
555.077	30.92
555.42	31.12
555.764	31.04
556.107	31.21
556.45	31.36
556.793	31.23
557.135	31.45
557.478	31.42
557.821	31.61
558.164	31.68
558.507	31.75
558.849	31.69
559.192	31.9
559.534	32.14
559.877	31.87
560.219	31.81
560.562	31.78
560.904	31.89
561.246	32.28
561.589	32.01
561.931	32.14
562.273	31.92
562.615	31.99
562.957	31.99
563.299	32.16
563.641	32.19
563.983	32.17
564.325	32.34
564.667	32.29
565.008	32.45
565.35	32.44
565.692	32.66
566.033	32.44
566.375	32.67
566.716	32.71
567.058	32.74
567.399	32.57
567.741	32.87
568.082	32.43
568.423	32.36
568.764	32.57
569.105	32.83
569.447	32.65
569.788	32.77
570.129	33.02
570.47	32.98
570.811	32.97
571.151	33.05
571.492	33.03
571.833	32.99
572.174	32.99
572.514	33.07
572.855	33.12
573.195	33.03
573.536	33.07
573.876	33.04
574.217	33.15
574.557	33.22
574.898	33.32
575.238	33.11
575.578	33.71
575.918	33.56
576.258	33.68
576.598	33.57
576.938	33.78
577.278	33.54
577.618	33.53
577.958	33.72
578.298	33.93
578.638	33.72
578.977	34.01
579.317	34.01
579.657	34.33
579.996	34.01
580.336	34.22
580.675	34.46
581.014	34.08
581.354	34.31
581.693	34.35
582.032	34.4
582.372	34.66
582.711	34.51
583.05	34.67
583.389	34.47
583.728	34.65
584.067	34.79
584.406	34.87
584.745	34.86
585.083	34.74
585.422	35.07
585.761	34.88
586.1	34.88
586.438	35.04
586.777	34.78
587.115	35.12
587.454	34.95
587.792	35.29
588.13	35.35
588.469	35.48
588.807	35.52
589.145	35.39
589.483	35.39
589.821	35.24
590.159	35.33
590.497	35.62
590.835	35.29
591.173	35.35
591.511	35.54
591.849	35.39
592.187	35.52
592.524	35.32
592.862	35.77
593.2	35.86
593.537	35.47
593.875	35.72
594.212	35.89
594.55	35.66
594.887	36
595.224	36.14
595.561	36.19
595.899	35.94
596.236	36.12
596.573	35.89
596.91	36.09
597.247	35.96
597.584	36.24
597.921	36.34
598.258	36.26
598.594	35.93
598.931	35.79
599.268	35.78
599.604	35.96
599.941	36.34
600.277	36.3
600.614	36.34
600.95	36.66
601.287	36.57
601.623	36.98
601.959	36.67
602.296	36.96
602.632	37.02
602.968	36.5
603.304	37.07
603.64	37.03
603.976	36.63
604.312	36.96
604.648	37.12
604.984	37.02
605.319	36.68
605.655	36.68
605.991	36.85
606.326	37.13
606.662	36.9
606.998	36.52
607.333	36.73
607.668	37.02
608.004	37.23
608.339	37.38
608.674	37.54
609.01	37.47
609.345	38.03
609.68	37.83
610.015	37.75
610.35	37.61
610.685	37.98
611.02	37.55
611.355	37.39
611.689	37.19
612.024	37.65
612.359	37.31
612.694	37.58
613.028	37.62
613.363	37.83
613.697	37.92
614.032	38.19
614.366	38.18
614.7	38.08
615.035	38.18
615.369	38.46
615.703	38.49
616.037	38.76
616.371	38.53
616.705	38.47
617.039	38.59
617.373	38.82
617.707	38.51
618.041	38.92
618.375	38.71
618.709	38.64
619.042	38.99
619.376	38.78
619.71	38.73
620.043	38.72
620.377	38.79
620.71	38.72
621.043	39.02
621.377	38.99
621.71	38.89
622.043	38.68
622.376	39.39
622.709	38.97
623.043	39.17
623.376	39.22
623.709	39.36
624.041	39.24
624.374	38.95
624.707	39.34
625.04	39.38
625.373	38.98
625.705	39.19
626.038	39.27
626.37	39.42
626.703	39.27
627.035	39.36
627.368	39.4
627.7	39.8
628.032	39.32
628.365	39.77
628.697	39.23
629.029	39.31
629.361	39.28
629.693	39.39
630.025	39.71
630.357	39.75
630.689	39.9
631.021	39.7
631.353	39.73
631.684	39.49
632.016	39.84
632.348	40.18
632.679	40
633.011	39.92
633.342	40.25
633.674	40.11
634.005	40.22
634.336	40.68
634.668	40.54
634.999	40.27
635.33	40.36
635.661	40.38
635.992	39.98
636.323	40.31
636.654	40.2
636.985	40.72
637.316	40.03
637.647	40.6
637.977	40.32
638.308	40.97
638.639	40.43
638.969	40.93
639.3	41.11
639.63	40.95
639.961	40.76
640.291	40.68
640.622	41.37
640.952	40.86
641.282	41.16
641.612	40.74
641.943	40.96
642.273	41.22
642.603	41.21
642.933	40.9
643.263	40.77
643.592	41.22
643.922	40.86
644.252	41.01
644.582	41.5
644.911	41.17
645.241	41.43
645.571	41.59
645.9	41.12
646.23	41.46
646.559	41.47
646.888	40.92
647.218	41.35
647.547	41.24
647.876	41.25
648.205	41.41
648.534	41.66
648.863	41.67
649.192	41.49
649.521	41.67
649.85	41.75
650.179	41.53
650.508	41.09
650.837	42.32
651.165	42.06
651.494	42.12
651.822	41.68
652.151	41.14
652.479	41.82
652.808	41.67
653.136	41.97
653.465	41.83
653.793	41.64
654.121	42.76
654.449	41.7
654.777	41.85
655.105	42.24
655.433	42.64
655.761	42.76
656.089	42.22
656.417	42.33
656.745	42.53
657.073	42.28
657.4	42.46
657.728	42.61
658.056	42.35
658.383	42.46
658.711	42.42
659.038	42.21
659.365	42.8
659.693	42.23
660.02	43.22
660.347	43.05
660.674	43.03
661.001	42.47
661.329	42.33
661.656	42.47
661.982	42.69
662.309	42.76
662.636	42.81
662.963	43.04
663.29	42.93
663.616	43.39
663.943	43.42
664.27	43.74
664.596	43.44
664.923	43.38
665.249	42.75
665.576	42.71
665.902	43.15
666.228	43.22
666.554	43.55
666.881	43.92
667.207	43.61
667.533	42.96
667.859	43.18
668.185	43.62
668.511	43.68
668.837	42.78
669.162	43.69
669.488	43.74
669.814	43.61
670.139	43.08
670.465	43.99
