Data from 0141_crown_Reflection__4__09.txt Node

Date: Fri Sep 22 20:25:38 CDT 2023
User: ToomeyLab
Spectrometer: FLMS14357
Trigger mode: 0
Integration Time (sec): 1.000000E-2
Scans to average: 100
Electric dark correction enabled: true
Nonlinearity correction enabled: false
Boxcar width: 0
XAxis mode: Wavelengths
Number of Pixels in Spectrum: 2048
>>>>>Begin Spectral Data<<<<<
189.047	36.38
189.435	36.38
189.823	36.38
190.211	12.82
190.599	134.97
190.987	-129.93
191.375	-108.32
191.763	44.21
192.151	78.33
192.538	349.31
192.926	151.61
193.314	-129.81
193.702	-26.33
194.089	120.46
194.477	328.13
194.864	63.27
195.252	-44.92
195.639	32.98
196.027	26.78
196.414	242.19
196.801	-487.68
197.189	260.94
197.576	292.81
197.963	-59.29
198.351	42.1
198.738	27.43
199.125	21.23
199.512	-35.93
199.899	56.95
200.286	2.85
200.673	-13.75
201.06	39.63
201.447	58.93
201.833	-53.48
202.22	27.78
202.607	22.58
202.994	9.33
203.38	0.41
203.767	-16.18
204.154	29.34
204.54	21.86
204.927	-8.03
205.313	21.94
205.699	48.94
206.086	39.03
206.472	47.67
206.858	27.46
207.245	-5.24
207.631	40.12
208.017	-8.82
208.403	23.76
208.789	25.75
209.175	26.42
209.561	36.78
209.947	36.04
210.333	27.91
210.719	-11.16
211.105	40.3
211.491	9.66
211.876	7.23
212.262	12.15
212.648	25.52
213.034	22.55
213.419	36.93
213.805	-11.42
214.19	-14.75
214.576	16.39
214.961	15.6
215.346	-8.77
215.732	22.97
216.117	0.64
216.502	32.09
216.888	17.54
217.273	-4.36
217.658	0.66
218.043	12.71
218.428	12.56
218.813	-9.63
219.198	-0.18
219.583	12.95
219.968	-10.44
220.353	28.31
220.738	5.63
221.122	10.33
221.507	-2.44
221.892	6.04
222.276	5.99
222.661	-15.88
223.046	14.59
223.43	25.35
223.815	0.09
224.199	-3.49
224.583	4.51
224.968	10.31
225.352	2.91
225.736	4.62
226.121	-3.15
226.505	10.08
226.889	8.51
227.273	5.06
227.657	6.33
228.041	1.06
228.425	9.03
228.809	3.5
229.193	5.02
229.577	5.84
229.961	4.01
230.344	4.74
230.728	2.34
231.112	3.36
231.495	3.05
231.879	3.31
232.263	2.1
232.646	3.79
233.03	1.77
233.413	3.44
233.797	3.45
234.18	4.59
234.563	6.88
234.946	4.1
235.33	2.65
235.713	2.77
236.096	3.6
236.479	2.55
236.862	5.05
237.245	2.1
237.628	4.06
238.011	4.03
238.394	3.48
238.777	3.84
239.16	5.53
239.543	5.6
239.925	4.61
240.308	3.81
240.691	4.68
241.073	4.67
241.456	4.23
241.838	2.84
242.221	4.01
242.603	4.1
242.986	2.87
243.368	2.77
243.75	3.5
244.133	3.55
244.515	3.43
244.897	2.96
245.279	3.49
245.661	3
246.043	3.18
246.425	2.96
246.807	3.64
247.189	2.8
247.571	3.39
247.953	2.71
248.335	2.72
248.717	3.19
249.098	3
249.48	2.96
249.862	3
250.243	3.02
250.625	3.43
251.006	2.67
251.388	3.24
251.769	3.41
252.151	2.37
252.532	2.87
252.913	2.55
253.295	3.98
253.676	3.45
254.057	3.19
254.438	3.17
254.819	3.18
255.2	3.2
255.581	2.77
255.962	3.5
256.343	3.72
256.724	3
257.105	3.16
257.486	3
257.867	2.95
258.247	3.11
258.628	3.53
259.009	3.67
259.389	3.13
259.77	3.06
260.15	3.63
260.531	2.94
260.911	2.45
261.292	2.87
261.672	2.58
262.052	2.7
262.432	2.91
262.813	3.05
263.193	2.87
263.573	3.92
263.953	2.46
264.333	3.19
264.713	3.01
265.093	2.9
265.473	2.83
265.853	3.03
266.233	2.99
266.612	3.16
266.992	3.35
267.372	2.87
267.752	3.34
268.131	2.64
268.511	2.11
268.89	3.06
269.27	2.48
269.649	2.77
270.029	2.99
270.408	3.06
270.787	2.92
271.167	2.85
271.546	2.82
271.925	2.62
272.304	2.39
272.683	2.41
273.062	3.14
273.441	2.56
273.82	2.82
274.199	3.03
274.578	2.66
274.957	2.86
275.336	2.91
275.715	2.62
276.093	2.29
276.472	2.66
276.851	2.87
277.229	2.73
277.608	2.8
277.986	2.53
278.365	2.98
278.743	2.7
279.122	2.89
279.5	2.83
279.878	2.72
280.257	3.28
280.635	3.31
281.013	3.2
281.391	2.89
281.769	2.79
282.147	2.9
282.525	2.93
282.903	2.69
283.281	2.34
283.659	3.14
284.037	2.55
284.415	3.08
284.792	2.58
285.17	2.99
285.548	3.27
285.925	3.24
286.303	2.69
286.68	2.44
287.058	2.66
287.435	2.07
287.813	2.48
288.19	2.47
288.567	2.49
288.945	2.61
289.322	3.09
289.699	2.67
290.076	3.19
290.453	2.28
290.83	2.44
291.207	2.51
291.584	2.47
291.961	2.36
292.338	2.48
292.715	2.95
293.092	2.78
293.469	2.49
293.845	2.74
294.222	2.75
294.599	2.83
294.975	2.51
295.352	3.23
295.728	2.7
296.105	2.98
296.481	2.49
296.858	2.93
297.234	2.63
297.61	2.64
297.986	2.71
298.363	2.32
298.739	2.32
299.115	3.01
299.491	2.74
299.867	2.63
300.243	2.29
300.619	2.94
300.995	2.59
301.371	3.12
301.746	2.71
302.122	2.37
302.498	2.64
302.874	2.45
303.249	2.94
303.625	2.64
304	3.05
304.376	2.6
304.751	2.98
305.127	2.76
305.502	2.86
305.878	3
306.253	2.67
306.628	2.34
307.003	2.87
307.378	2.97
307.754	2.43
308.129	2.97
308.504	2.69
308.879	2.04
309.254	2.58
309.629	2.94
310.003	3.25
310.378	2.68
310.753	2.52
311.128	2.29
311.502	2.68
311.877	2.25
312.252	2.95
312.626	2.76
313.001	3.11
313.375	2.52
313.75	2.78
314.124	2.87
314.498	2.69
314.873	2.51
315.247	2.96
315.621	2.74
315.995	2.82
316.369	2.29
316.743	2.73
317.117	3.18
317.491	2.8
317.865	1.98
318.239	2.73
318.613	2.73
318.987	2.87
319.361	2.37
319.734	2.23
320.108	3.37
320.482	2.84
320.855	2.5
321.229	2.83
321.602	3.06
321.976	2.47
322.349	2.86
322.723	2.91
323.096	3.74
323.469	2.59
323.843	2.54
324.216	2.86
324.589	2.59
324.962	2.5
325.335	2.45
325.708	2.97
326.081	2.97
326.454	2.61
326.827	2.66
327.2	2.66
327.573	2.85
327.945	2.35
328.318	2.54
328.691	3.21
329.063	2.65
329.436	2.74
329.809	2.86
330.181	2.32
330.553	2.25
330.926	2.68
331.298	2.76
331.671	2.77
332.043	2.35
332.415	2.37
332.787	2.92
333.159	2.64
333.532	2.19
333.904	2.54
334.276	2.71
334.648	2.58
335.02	2.29
335.391	2.4
335.763	2.82
336.135	2.66
336.507	2.8
336.879	2.77
337.25	3.01
337.622	2.95
337.993	2.78
338.365	3.18
338.736	2.66
339.108	2.41
339.479	2.81
339.851	2.4
340.222	2.71
340.593	2.63
340.964	2.27
341.336	2.55
341.707	2.87
342.078	2.71
342.449	2.45
342.82	2.47
343.191	2.32
343.562	2.37
343.933	2.49
344.303	2.78
344.674	2.2
345.045	2.81
345.416	2.83
345.786	2.33
346.157	2.53
346.527	2.48
346.898	2.28
347.268	2.37
347.639	2.38
348.009	2.79
348.38	2.69
348.75	2.83
349.12	2.52
349.49	2.95
349.861	2.79
350.231	3.03
350.601	2.82
350.971	2.83
351.341	2.17
351.711	2.74
352.081	2.24
352.45	2.36
352.82	2.72
353.19	2.86
353.56	2.78
353.929	2.92
354.299	2.7
354.669	2.77
355.038	2.36
355.408	2.6
355.777	2.7
356.147	2.53
356.516	2.39
356.885	2.61
357.254	2.93
357.624	2.26
357.993	2.69
358.362	2.64
358.731	2.39
359.1	2.35
359.469	2.71
359.838	2.28
360.207	2.51
360.576	2.82
360.945	2.76
361.314	2.54
361.682	2.96
362.051	2.67
362.42	2.37
362.788	2.41
363.157	2.49
363.525	2.53
363.894	2.49
364.262	2.56
364.631	2.56
364.999	2.5
365.367	2.76
365.735	2.61
366.104	2.66
366.472	2.77
366.84	2.49
367.208	2.81
367.576	2.9
367.944	2.41
368.312	2.74
368.68	2.65
369.048	2.69
369.416	2.69
369.783	2.31
370.151	2.45
370.519	2.57
370.886	2.62
371.254	2.76
371.621	2.25
371.989	2.52
372.356	2.14
372.724	2.78
373.091	2.76
373.458	2.62
373.826	2.52
374.193	2.72
374.56	2.64
374.927	2.9
375.294	2.58
375.661	2.55
376.028	2.61
376.395	2.97
376.762	2.84
377.129	2.87
377.496	2.76
377.863	2.61
378.229	2.6
378.596	2.84
378.963	2.79
379.329	2.54
379.696	3.09
380.062	2.54
380.429	2.52
380.795	2.67
381.161	2.55
381.528	2.44
381.894	2.35
382.26	2.49
382.626	2.45
382.993	2.85
383.359	2.24
383.725	2.39
384.091	2.7
384.457	2.57
384.823	2.57
385.188	2.9
385.554	2.77
385.92	2.87
386.286	2.7
386.651	2.54
387.017	2.73
387.383	2.75
387.748	2.89
388.114	2.52
388.479	2.68
388.845	2.35
389.21	2.48
389.575	3.05
389.94	2.57
390.306	2.8
390.671	2.9
391.036	2.49
391.401	2.76
391.766	2.74
392.131	2.52
392.496	2.9
392.861	2.51
393.226	2.84
393.591	2.78
393.956	2.66
394.32	2.8
394.685	2.61
395.05	2.75
395.414	2.88
395.779	2.83
396.143	2.88
396.508	2.7
396.872	2.6
397.236	2.61
397.601	2.63
397.965	3.04
398.329	2.95
398.694	2.76
399.058	2.75
399.422	2.57
399.786	2.7
400.15	2.67
400.514	2.81
400.878	2.58
401.242	2.66
401.605	2.64
401.969	2.62
402.333	2.66
402.697	2.72
403.06	2.66
403.424	2.51
403.787	2.68
404.151	2.44
404.514	2.87
404.878	2.58
405.241	2.77
405.604	2.78
405.968	2.73
406.331	2.67
406.694	2.7
407.057	2.49
407.42	2.66
407.783	2.63
408.146	2.68
408.509	2.54
408.872	2.83
409.235	2.84
409.598	2.76
409.961	2.7
410.323	2.78
410.686	2.71
411.049	2.9
411.411	2.73
411.774	2.6
412.136	2.56
412.499	2.42
412.861	2.71
413.223	2.82
413.586	2.48
413.948	2.62
414.31	2.72
414.672	2.7
415.035	2.76
415.397	2.92
415.759	3.18
416.121	2.59
416.483	2.61
416.845	2.44
417.206	2.38
417.568	2.72
417.93	2.54
418.292	2.65
418.653	2.56
419.015	2.8
419.377	2.51
419.738	2.74
420.1	2.46
420.461	2.68
420.822	2.62
421.184	2.64
421.545	2.62
421.906	2.6
422.267	2.61
422.629	2.62
422.99	2.54
423.351	2.48
423.712	2.59
424.073	2.65
424.434	2.65
424.795	2.65
425.155	2.69
425.516	2.58
425.877	2.56
426.238	2.56
426.598	2.53
426.959	2.52
427.32	2.65
427.68	2.57
428.041	2.57
428.401	2.75
428.761	2.88
429.122	2.79
429.482	2.69
429.842	2.62
430.202	2.68
430.563	2.74
430.923	2.82
431.283	2.85
431.643	2.55
432.003	2.84
432.363	2.87
432.722	2.85
433.082	2.84
433.442	2.57
433.802	2.75
434.161	2.58
434.521	2.62
434.881	2.65
435.24	2.66
435.6	2.69
435.959	2.51
436.319	2.52
436.678	2.73
437.037	2.57
437.396	2.6
437.756	2.71
438.115	2.73
438.474	2.73
438.833	2.72
439.192	2.72
439.551	2.72
439.91	2.74
440.269	2.7
440.628	2.6
440.987	2.74
441.345	2.73
441.704	2.71
442.063	2.69
442.421	2.66
442.78	2.62
443.138	2.55
443.497	2.66
443.855	2.73
444.214	2.64
444.572	2.76
444.93	2.8
445.288	2.76
445.647	2.74
446.005	2.72
446.363	2.57
446.721	2.72
447.079	2.51
447.437	2.7
447.795	2.67
448.153	2.56
448.51	2.62
448.868	2.5
449.226	2.61
449.584	2.69
449.941	2.62
450.299	2.71
450.656	2.8
451.014	2.69
451.371	2.83
451.729	2.82
452.086	2.73
452.443	2.86
452.801	2.9
453.158	2.85
453.515	2.81
453.872	2.55
454.229	2.69
454.586	2.79
454.943	2.66
455.3	2.8
455.657	2.67
456.014	2.74
456.371	2.76
456.727	2.94
457.084	2.7
457.441	2.73
457.797	2.71
458.154	2.66
458.51	2.57
458.867	2.71
459.223	2.66
459.58	2.67
459.936	2.79
460.292	2.78
460.648	2.82
461.005	2.63
461.361	2.74
461.717	2.49
462.073	2.61
462.429	2.61
462.785	2.75
463.141	2.77
463.496	2.86
463.852	2.71
464.208	2.71
464.564	2.86
464.919	2.81
465.275	2.98
465.631	2.83
465.986	2.9
466.342	2.86
466.697	2.79
467.052	2.7
467.408	2.85
467.763	2.72
468.118	3
468.473	2.71
468.829	2.64
469.184	2.72
469.539	2.78
469.894	2.78
470.249	2.77
470.603	2.65
470.958	2.79
471.313	2.96
471.668	2.74
472.023	2.8
472.377	2.89
472.732	2.74
473.086	2.94
473.441	2.6
473.795	2.85
474.15	2.82
474.504	2.72
474.859	2.88
475.213	2.61
475.567	2.73
475.921	2.76
476.275	2.86
476.63	2.72
476.984	2.84
477.338	2.88
477.692	2.87
478.045	2.81
478.399	2.85
478.753	2.77
479.107	2.78
479.461	2.81
479.814	2.77
480.168	2.84
480.521	2.92
480.875	2.95
481.228	2.75
481.582	2.67
481.935	2.75
482.289	2.7
482.642	2.65
482.995	2.63
483.348	2.81
483.701	2.74
484.055	2.73
484.408	2.73
484.761	2.77
485.114	2.59
485.466	2.55
485.819	2.52
486.172	2.5
486.525	2.56
486.878	2.61
487.23	2.71
487.583	2.69
487.936	2.77
488.288	2.77
488.641	2.74
488.993	2.63
489.345	2.62
489.698	2.56
490.05	2.65
490.402	2.68
490.754	2.6
491.107	2.72
491.459	2.77
491.811	2.76
492.163	2.77
492.515	2.75
492.866	2.73
493.218	2.68
493.57	2.62
493.922	2.62
494.274	2.63
494.625	2.69
494.977	2.78
495.328	2.86
495.68	2.88
496.031	2.82
496.383	2.87
496.734	2.88
497.086	2.78
497.437	2.9
497.788	2.8
498.139	2.94
498.49	2.87
498.842	2.75
499.193	2.74
499.544	2.87
499.894	2.74
500.245	2.85
500.596	2.85
500.947	2.83
501.298	2.86
501.648	2.88
501.999	2.92
502.35	2.87
502.7	2.92
503.051	2.83
503.401	2.88
503.752	2.84
504.102	2.78
504.452	2.74
504.803	2.83
505.153	2.89
505.503	2.81
505.853	2.98
506.203	2.8
506.553	2.84
506.903	2.92
507.253	2.82
507.603	2.99
507.953	2.98
508.303	2.9
508.652	2.85
509.002	2.91
509.352	2.86
509.701	3
510.051	2.9
510.4	2.91
510.75	2.77
511.099	2.63
511.449	2.84
511.798	2.84
512.147	2.84
512.496	2.8
512.846	2.82
513.195	2.88
513.544	2.92
513.893	2.83
514.242	2.79
514.591	2.9
514.939	2.89
515.288	2.8
515.637	2.91
515.986	2.71
516.334	2.9
516.683	2.84
517.032	2.94
517.38	2.87
517.729	2.76
518.077	2.91
518.426	2.92
518.774	2.91
519.122	2.87
519.47	2.83
519.819	2.86
520.167	2.9
520.515	2.82
520.863	2.84
521.211	2.8
521.559	2.94
521.907	2.92
522.255	2.86
522.602	2.89
522.95	2.86
523.298	2.95
523.645	2.98
523.993	2.87
524.341	2.85
524.688	2.9
525.036	2.93
525.383	2.9
525.73	3.01
526.078	2.95
526.425	2.9
526.772	2.96
527.119	2.85
527.466	2.77
527.814	2.82
528.161	2.8
528.508	2.83
528.854	2.88
529.201	2.9
529.548	2.87
529.895	2.83
530.242	2.72
530.588	2.65
530.935	2.68
531.282	2.68
531.628	2.79
531.975	2.81
532.321	2.87
532.667	2.91
533.014	2.94
533.36	2.92
533.706	2.88
534.052	2.98
534.399	2.89
534.745	2.95
535.091	2.84
535.437	2.77
535.783	2.78
536.129	2.84
536.474	2.86
536.82	2.93
537.166	3
537.512	3.08
537.857	2.93
538.203	3
538.549	2.8
538.894	2.89
539.239	2.91
539.585	2.88
539.93	3.08
540.276	2.99
540.621	3.02
540.966	3.01
541.311	3.09
541.656	2.92
542.001	2.99
542.346	2.96
542.691	3.02
543.036	2.82
543.381	2.79
543.726	2.78
544.071	2.83
544.415	2.89
544.76	2.85
545.105	2.86
545.449	2.87
545.794	2.91
546.138	2.97
546.483	2.9
546.827	3
547.171	2.89
547.516	3.1
547.86	3.09
548.204	3.01
548.548	3
548.892	2.97
549.236	2.91
549.58	2.95
549.924	3.05
550.268	3.11
550.612	3.07
550.956	3.1
551.3	3.08
551.643	3.09
551.987	3
552.33	3.33
552.674	3.01
553.017	3.2
553.361	3.11
553.704	3.07
554.048	3.07
554.391	3.11
554.734	3.02
555.077	2.86
555.42	3
555.764	3.03
556.107	3
556.45	3.09
556.793	3.07
557.135	3.22
557.478	2.95
557.821	3.16
558.164	3.25
558.507	3.2
558.849	3.05
559.192	3.14
559.534	3.3
559.877	3.08
560.219	3.01
560.562	3.21
560.904	3.14
561.246	3.37
561.589	3.2
561.931	3.14
562.273	3.17
562.615	3.09
562.957	3.02
563.299	3.16
563.641	3.21
563.983	3.08
564.325	3.2
564.667	3.2
565.008	3.13
565.35	3.11
565.692	3.14
566.033	3.24
566.375	3.27
566.716	3.08
567.058	3.12
567.399	3.22
567.741	3.25
568.082	3.13
568.423	3.23
568.764	3.21
569.105	3.03
569.447	3.08
569.788	2.95
570.129	3.21
570.47	3.27
570.811	3.25
571.151	3.2
571.492	3.15
571.833	3.02
572.174	3.19
572.514	3.21
572.855	3.09
573.195	3.15
573.536	3
573.876	3.09
574.217	3.1
574.557	3.15
574.898	3.19
575.238	3.16
575.578	3.17
575.918	3.2
576.258	3.1
576.598	3.28
576.938	3.24
577.278	3.41
577.618	2.99
577.958	3.15
578.298	3.39
578.638	3.08
578.977	3.24
579.317	3.19
579.657	3.2
579.996	3.25
580.336	3.36
580.675	3.34
581.014	3.22
581.354	3.03
581.693	3.25
582.032	3.35
582.372	3.37
582.711	3.33
583.05	3.28
583.389	3.16
583.728	3.11
584.067	3.24
584.406	3.37
584.745	2.94
585.083	3.49
585.422	3.4
585.761	3.17
586.1	3.31
586.438	3.24
586.777	3.28
587.115	3.35
587.454	3.14
587.792	3.37
588.13	3.27
588.469	3.15
588.807	3.56
589.145	3.24
589.483	3.37
589.821	3.22
590.159	3.49
590.497	3.42
590.835	3.27
591.173	3.28
591.511	3.36
591.849	3.38
592.187	3.15
592.524	3.46
592.862	3.31
593.2	3.08
593.537	3.31
593.875	3.34
594.212	3.38
594.55	3.52
594.887	3.18
595.224	3.25
595.561	3.26
595.899	3.54
596.236	3.7
596.573	3.32
596.91	3.47
597.247	3.41
597.584	3.44
597.921	3.5
598.258	3.45
598.594	3.46
598.931	3.31
599.268	3.37
599.604	3.31
599.941	3.4
600.277	3.28
600.614	3.25
600.95	3.44
601.287	3.22
601.623	3.36
601.959	3.29
602.296	3.61
602.632	3.17
602.968	3.34
603.304	3.23
603.64	3.33
603.976	3.18
604.312	3.4
604.648	3.34
604.984	3.37
605.319	3.18
605.655	3.16
605.991	3.34
606.326	3.47
606.662	3.31
606.998	3.28
607.333	3.4
607.668	3.36
608.004	3.44
608.339	3.22
608.674	3.53
609.01	3.48
609.345	3.52
609.68	3.76
610.015	3.47
610.35	3.48
610.685	3.68
611.02	3.48
611.355	3.51
611.689	3.26
612.024	3.46
612.359	3.29
612.694	3.63
613.028	3.31
613.363	3.3
613.697	3.48
614.032	3.37
614.366	3.29
614.7	3.43
615.035	3.62
615.369	3.43
615.703	3.24
616.037	3.65
616.371	3.8
616.705	3.61
617.039	3.48
617.373	3.39
617.707	3.31
618.041	3.88
618.375	3.44
618.709	3.36
619.042	3.97
619.376	3.54
619.71	3.73
620.043	3.21
620.377	3.32
620.71	3.83
621.043	3.69
621.377	3.28
621.71	3.67
622.043	3.31
622.376	3.89
622.709	3.61
623.043	3.52
623.376	3.47
623.709	3.57
624.041	3.35
624.374	3.72
624.707	3.73
625.04	3.68
625.373	3.18
625.705	3.63
626.038	3.85
626.37	3.94
626.703	3.67
627.035	3.57
627.368	3.34
627.7	3.91
628.032	3.62
628.365	3.79
628.697	3.72
629.029	3.68
629.361	3.56
629.693	3.47
630.025	3.82
630.357	3.59
630.689	3.85
631.021	3.35
631.353	3.39
631.684	3.54
632.016	3.78
632.348	3.66
632.679	3.46
633.011	3.49
633.342	4.14
633.674	3.71
634.005	3.43
634.336	3.64
634.668	3.85
634.999	3.78
635.33	3.99
635.661	3.81
635.992	3.67
636.323	3.59
636.654	3.46
636.985	3.6
637.316	3.55
637.647	3.75
637.977	3.48
638.308	3.93
638.639	3.49
638.969	3.91
639.3	3.8
639.63	3.8
639.961	3.25
640.291	3.75
640.622	3.78
640.952	3.77
641.282	3.74
641.612	3.86
641.943	4.18
642.273	3.94
642.603	3.71
642.933	3.74
643.263	3.32
643.592	3.41
643.922	3.98
644.252	3.4
644.582	3.98
644.911	3.79
645.241	4.07
645.571	3.77
645.9	3.69
646.23	4.28
646.559	3.98
646.888	3.79
647.218	3.38
647.547	3.5
647.876	3.69
648.205	3.5
648.534	4.2
648.863	3.51
649.192	3.44
649.521	3.67
649.85	3.8
650.179	3.91
650.508	3.5
650.837	3.48
651.165	3.89
651.494	3.63
651.822	3.56
652.151	3.74
652.479	3.91
652.808	3.46
653.136	3.94
653.465	3.77
653.793	3.6
654.121	3.91
654.449	3.5
654.777	4.05
655.105	4.57
655.433	3.67
655.761	3.98
656.089	4.18
656.417	3.67
656.745	4.18
657.073	4.03
657.4	4.35
657.728	4.28
658.056	3.87
658.383	3.88
658.711	3.82
659.038	3.61
659.365	3.84
659.693	3.47
660.02	4.21
660.347	3.99
660.674	3.7
661.001	3.58
661.329	3.59
661.656	3.92
661.982	3.71
662.309	3.94
662.636	3.74
662.963	3.86
663.29	3.81
663.616	3.76
663.943	4.08
664.27	3.53
664.596	3.73
664.923	3.94
665.249	4.16
665.576	3.59
665.902	4.28
666.228	3.36
666.554	3.52
666.881	4.52
667.207	3.85
667.533	3.67
667.859	4.01
668.185	3.98
668.511	4.32
668.837	3.87
669.162	3.85
669.488	4.02
669.814	3.85
670.139	4.12
670.465	4.37
670.791	4.09
671.116	3.75
671.442	4
671.767	3.29
672.092	4.49
672.418	4.26
672.743	4.09
673.068	4.42
673.393	3.96
673.718	4
674.043	4.7
674.368	3.69
674.693	4.04
675.018	3.74
675.343	4.05
675.667	4.15
675.992	3.67
676.317	4.38
676.641	3.83
676.966	3.44
677.29	4.06
677.615	4.31
677.939	3.95
678.264	4.19
678.588	3.78
678.912	3.78
679.236	4.11
679.56	3.98
679.885	4.28
680.209	4.78
680.532	4.46
680.856	4.2
681.18	4.09
681.504	4.32
681.828	3.94
682.152	3.61
682.475	4.88
682.799	4.37
683.122	4.08
683.446	4.15
683.769	4.29
684.093	4.63
684.416	4.36
684.739	4.22
685.062	4.78
685.386	4.33
685.709	4.11
686.032	3.9
686.355	4.46
686.678	4.47
687.001	4.3
687.324	5.36
687.646	4.81
687.969	4.93
688.292	4.76
688.614	4.75
688.937	4.31
689.26	4.26
689.582	4.69
689.904	4.6
690.227	4.44
690.549	4.36
690.871	4.02
691.194	4.25
691.516	4.78
691.838	4.54
692.16	4.35
692.482	4.12
692.804	3.79
693.126	3.8
