Data from 0141_forehead_Reflection__3__13.txt Node

Date: Fri Sep 22 20:27:37 CDT 2023
User: ToomeyLab
Spectrometer: FLMS14357
Trigger mode: 0
Integration Time (sec): 1.000000E-2
Scans to average: 100
Electric dark correction enabled: true
Nonlinearity correction enabled: false
Boxcar width: 0
XAxis mode: Wavelengths
Number of Pixels in Spectrum: 2048
>>>>>Begin Spectral Data<<<<<
189.047	140.15
189.435	140.15
189.823	140.15
190.211	1.47
190.599	-120.68
190.987	-15.38
191.375	-164.65
191.763	-21.5
192.151	126.3
192.538	-364.12
192.926	179.95
193.314	-66.65
193.702	-325.19
194.089	257.54
194.477	21.88
194.864	46.62
195.252	-33.95
195.639	27.55
196.027	19.77
196.414	217.81
196.801	576.25
197.189	1272.4
197.576	215.38
197.963	-304.6
198.351	18.66
198.738	37.96
199.125	-3.75
199.512	42.11
199.899	50.02
200.286	-3.98
200.673	-28.8
201.06	27.21
201.447	50.19
201.833	-67.37
202.22	65.72
202.607	65.59
202.994	53.37
203.38	11.14
203.767	-29.18
204.154	70.03
204.54	13.21
204.927	23.37
205.313	-11.35
205.699	67.8
206.086	52.93
206.472	47.7
206.858	52.88
207.245	15.65
207.631	72.41
208.017	49.74
208.403	39.12
208.789	53.87
209.175	51.08
209.561	58
209.947	27.86
210.333	31.58
210.719	30.61
211.105	45.93
211.491	31.48
211.876	25.02
212.262	42.49
212.648	23.67
213.034	48.79
213.419	19.42
213.805	27.4
214.19	49.91
214.576	17.73
214.961	58.66
215.346	31.73
215.732	28.45
216.117	28.36
216.502	48.18
216.888	9.08
217.273	31.72
217.658	34.91
218.043	22.71
218.428	37.07
218.813	2.29
219.198	11.22
219.583	30.07
219.968	16.18
220.353	30.55
220.738	7.81
221.122	26.99
221.507	17.4
221.892	4.38
222.276	7.48
222.661	-25.16
223.046	22.08
223.43	20.6
223.815	22.81
224.199	7.46
224.583	12.82
224.968	23.75
225.352	11.35
225.736	14.42
226.121	18.35
226.505	5.85
226.889	10.85
227.273	5.76
227.657	5.34
228.041	4.1
228.425	7.57
228.809	5.44
229.193	4.53
229.577	7.11
229.961	3.06
230.344	4.64
230.728	2.6
231.112	3.59
231.495	2.4
231.879	3.29
232.263	3.06
232.646	3.31
233.03	3.3
233.413	3.43
233.797	4.78
234.18	3.54
234.563	5.67
234.946	5.83
235.33	2.74
235.713	5.03
236.096	4.1
236.479	3.29
236.862	5.32
237.245	5.49
237.628	3.93
238.011	4.15
238.394	3.22
238.777	5.26
239.16	5.22
239.543	5.67
239.925	5.65
240.308	4.83
240.691	4.35
241.073	4.87
241.456	4.14
241.838	2.99
242.221	4.53
242.603	3.86
242.986	3.42
243.368	3.21
243.75	3.82
244.133	3.5
244.515	3.2
244.897	2.96
245.279	2.98
245.661	2.98
246.043	3.08
246.425	3.32
246.807	2.93
247.189	2.94
247.571	4.48
247.953	3.84
248.335	3.6
248.717	3.28
249.098	2.99
249.48	3.03
249.862	3.03
250.243	3.09
250.625	3.48
251.006	3.22
251.388	3.5
251.769	3.37
252.151	3.28
252.532	4.09
252.913	3.98
253.295	4.27
253.676	3.8
254.057	3.75
254.438	3.66
254.819	3.05
255.2	4.03
255.581	3.69
255.962	4.17
256.343	3.2
256.724	2.96
257.105	4.07
257.486	4.37
257.867	3.87
258.247	3.95
258.628	4.81
259.009	3.34
259.389	2.78
259.77	3.79
260.15	3.24
260.531	4.18
260.911	3.35
261.292	2.68
261.672	2.63
262.052	2.83
262.432	2.83
262.813	3.31
263.193	2.77
263.573	4.03
263.953	3.45
264.333	3.53
264.713	3.17
265.093	3.25
265.473	2.82
265.853	3.14
266.233	2.85
266.612	3.16
266.992	3.96
267.372	3.35
267.752	3.92
268.131	3.51
268.511	3.06
268.89	3.26
269.27	2.89
269.649	3.03
270.029	3.55
270.408	2.98
270.787	3.79
271.167	3.04
271.546	3.11
271.925	3.01
272.304	2.98
272.683	2.72
273.062	3.14
273.441	2.62
273.82	3.28
274.199	3.5
274.578	3.1
274.957	3.02
275.336	3.24
275.715	3.02
276.093	2.78
276.472	2.87
276.851	3.01
277.229	2.5
277.608	3.31
277.986	3.29
278.365	3.49
278.743	2.82
279.122	3.31
279.5	4.07
279.878	3.34
280.257	3.25
280.635	3.4
281.013	3.83
281.391	2.5
281.769	3.09
282.147	3.66
282.525	3.65
282.903	3.17
283.281	3.08
283.659	3.08
284.037	2.76
284.415	3.01
284.792	3.29
285.17	3.38
285.548	3.08
285.925	3.33
286.303	3.54
286.68	2.74
287.058	2.98
287.435	3.02
287.813	3.01
288.19	2.6
288.567	3.24
288.945	2.96
289.322	3.41
289.699	3.5
290.076	3.49
290.453	2.94
290.83	2.7
291.207	3.45
291.584	3.06
291.961	2.7
292.338	3.27
292.715	3.39
293.092	3.48
293.469	3.65
293.845	3.44
294.222	3.41
294.599	3.75
294.975	3.93
295.352	3.88
295.728	3.26
296.105	3.77
296.481	3.04
296.858	3.7
297.234	3.34
297.61	3.8
297.986	3.68
298.363	3.58
298.739	3.49
299.115	3.69
299.491	3.82
299.867	3.84
300.243	3.71
300.619	3.94
300.995	4.02
301.371	4.03
301.746	3.93
302.122	3.72
302.498	3.99
302.874	3.99
303.249	4.08
303.625	4.11
304	4.36
304.376	4.19
304.751	4.4
305.127	4.6
305.502	4.72
305.878	4.63
306.253	4.89
306.628	4.38
307.003	4.82
307.378	4.48
307.754	4.43
308.129	4.73
308.504	4.54
308.879	4.98
309.254	4.69
309.629	5.08
310.003	5.4
310.378	5.36
310.753	5.12
311.128	5.07
311.502	5.05
311.877	4.72
312.252	5.07
312.626	5.28
313.001	5.22
313.375	5.26
313.75	5.24
314.124	5.45
314.498	4.74
314.873	5.25
315.247	5.3
315.621	5.63
315.995	5.47
316.369	5.72
316.743	5.72
317.117	5.86
317.491	6.43
317.865	5.68
318.239	5.89
318.613	5.81
318.987	6.34
319.361	5.65
319.734	6.29
320.108	6.72
320.482	6.02
320.855	5.83
321.229	6.56
321.602	6.79
321.976	5.78
322.349	6.5
322.723	7.02
323.096	6.72
323.469	6.56
323.843	6.56
324.216	6.56
324.589	6.67
324.962	6.27
325.335	6.51
325.708	6.9
326.081	6.86
326.454	6.67
326.827	7.13
327.2	6.81
327.573	7.48
327.945	6.94
328.318	7.12
328.691	7.02
329.063	6.95
329.436	7.19
329.809	7.44
330.181	6.94
330.553	6.88
330.926	7.35
331.298	7.41
331.671	7.29
332.043	6.67
332.415	7.21
332.787	7.73
333.159	7.28
333.532	7.64
333.904	7.95
334.276	7.72
334.648	6.93
335.02	7.14
335.391	7.18
335.763	7.83
336.135	7.87
336.507	7.8
336.879	7.53
337.25	7.57
337.622	7.95
337.993	8.17
338.365	8.37
338.736	7.8
339.108	8.2
339.479	8.1
339.851	8.23
340.222	7.99
340.593	8.05
340.964	7.6
341.336	8.16
341.707	8.45
342.078	8.31
342.449	8.24
342.82	8.05
343.191	8.05
343.562	8.36
343.933	8.33
344.303	8.89
344.674	8.77
345.045	8.69
345.416	9.22
345.786	8.58
346.157	8.45
346.527	8.38
346.898	8.49
347.268	8.52
347.639	8.76
348.009	8.83
348.38	9.22
348.75	9.38
349.12	8.62
349.49	9.12
349.861	9.32
350.231	8.79
350.601	8.79
350.971	8.91
351.341	9.21
351.711	9.13
352.081	9.43
352.45	9.05
352.82	9.61
353.19	9.33
353.56	9.42
353.929	9.52
354.299	9.77
354.669	9.44
355.038	9.6
355.408	9.32
355.777	9.6
356.147	9.29
356.516	9.87
356.885	9.65
357.254	9.69
357.624	9.56
357.993	9.82
358.362	9.65
358.731	9.77
359.1	9.78
359.469	9.73
359.838	9.47
360.207	9.55
360.576	9.74
360.945	9.7
361.314	9.88
361.682	10.08
362.051	10.31
362.42	10.03
362.788	10.06
363.157	10.05
363.525	10.15
363.894	9.86
364.262	9.99
364.631	10.18
364.999	10.3
365.367	10.48
365.735	10.32
366.104	10.6
366.472	10.54
366.84	10.53
367.208	10.61
367.576	10.7
367.944	10.77
368.312	10.78
368.68	10.42
369.048	11.02
369.416	10.85
369.783	10.55
370.151	10.77
370.519	11.22
370.886	11.07
371.254	11.24
371.621	11.32
371.989	10.81
372.356	11.02
372.724	11.05
373.091	11.12
373.458	11.01
373.826	11.22
374.193	11.49
374.56	11.53
374.927	11.56
375.294	11.48
375.661	11.39
376.028	11.69
376.395	11.79
376.762	11.49
377.129	11.44
377.496	11.65
377.863	11.96
378.229	11.87
378.596	11.75
378.963	12.06
379.329	11.79
379.696	11.68
380.062	11.76
380.429	12
380.795	11.98
381.161	11.89
381.528	11.88
381.894	11.49
382.26	12.11
382.626	12.35
382.993	12.29
383.359	11.9
383.725	12.2
384.091	12.31
384.457	12.32
384.823	12.57
385.188	12.56
385.554	12.59
385.92	12.74
386.286	12.54
386.651	12.28
387.017	12.48
387.383	12.46
387.748	12.64
388.114	12.57
388.479	12.77
388.845	12.64
389.21	12.77
389.575	13.12
389.94	12.33
390.306	12.82
390.671	13.29
391.036	12.64
391.401	13.12
391.766	13.04
392.131	13.04
392.496	13.12
392.861	12.73
393.226	13.04
393.591	12.99
393.956	12.98
394.32	13.24
394.685	13.32
395.05	13.57
395.414	13.44
395.779	13.71
396.143	13.5
396.508	13.51
396.872	13.34
397.236	13.43
397.601	13.56
397.965	13.79
398.329	13.62
398.694	13.72
399.058	13.92
399.422	13.71
399.786	14.04
400.15	13.9
400.514	13.82
400.878	13.81
401.242	13.87
401.605	13.78
401.969	13.9
402.333	14.25
402.697	14
403.06	14.3
403.424	14.2
403.787	14.36
404.151	14.34
404.514	14.4
404.878	14.51
405.241	14.58
405.604	14.28
405.968	14.5
406.331	14.19
406.694	14.45
407.057	14.24
407.42	14.42
407.783	14.75
408.146	14.44
408.509	14.54
408.872	14.65
409.235	14.67
409.598	14.75
409.961	14.9
410.323	14.86
410.686	15.27
411.049	15.07
411.411	15.28
411.774	14.88
412.136	14.93
412.499	14.88
412.861	15.17
413.223	15.4
413.586	15.37
413.948	15.25
414.31	15.42
414.672	15.44
415.035	15.4
415.397	15.51
415.759	15.57
416.121	15.33
416.483	15.47
416.845	15.35
417.206	15.59
417.568	15.46
417.93	15.21
418.292	15.34
418.653	15.55
419.015	15.43
419.377	15.49
419.738	15.52
420.1	15.4
420.461	15.52
420.822	15.41
421.184	15.42
421.545	15.53
421.906	15.63
422.267	15.49
422.629	15.54
422.99	15.3
423.351	15.31
423.712	15.51
424.073	15.64
424.434	15.81
424.795	16.07
425.155	15.99
425.516	15.85
425.877	15.78
426.238	15.53
426.598	15.65
426.959	15.81
427.32	16
427.68	16.15
428.041	16.12
428.401	16.42
428.761	16.58
429.122	16.7
429.482	16.83
429.842	16.83
430.202	16.69
430.563	16.94
430.923	16.94
431.283	16.75
431.643	16.95
432.003	17.05
432.363	17.08
432.722	17.25
433.082	17.06
433.442	17.01
433.802	16.92
434.161	17.09
434.521	16.99
434.881	16.95
435.24	16.8
435.6	16.79
435.959	16.85
436.319	16.96
436.678	17.33
437.037	17.48
437.396	17.39
437.756	17.58
438.115	17.61
438.474	17.7
438.833	17.7
439.192	17.57
439.551	17.51
439.91	17.69
440.269	17.56
440.628	17.53
440.987	17.52
441.345	17.55
441.704	17.43
442.063	17.46
442.421	17.53
442.78	17.56
443.138	17.48
443.497	17.69
443.855	17.78
444.214	18.02
444.572	18.11
444.93	18.19
445.288	18.22
445.647	18.24
446.005	17.86
446.363	18.11
446.721	18.05
447.079	17.98
447.437	17.91
447.795	17.88
448.153	17.55
448.51	17.76
448.868	17.8
449.226	17.94
449.584	18.01
449.941	18.32
450.299	18.31
450.656	18.62
451.014	18.6
451.371	18.69
451.729	18.8
452.086	18.8
452.443	19.05
452.801	19.09
453.158	19.03
453.515	19.11
453.872	19.03
454.229	18.81
454.586	18.91
454.943	18.93
455.3	19.12
455.657	19.36
456.014	19.18
456.371	19.26
456.727	19.42
457.084	19.08
457.441	19.35
457.797	19.38
458.154	19.54
458.51	19.45
458.867	19.53
459.223	19.62
459.58	19.82
459.936	19.67
460.292	19.42
460.648	19.38
461.005	19.25
461.361	19.36
461.717	18.88
462.073	18.86
462.429	19.11
462.785	19.36
463.141	19.65
463.496	19.76
463.852	19.89
464.208	19.91
464.564	20.21
464.919	20.16
465.275	20.53
465.631	20.4
465.986	20.26
466.342	20.34
466.697	20.31
467.052	20.3
467.408	20.32
467.763	20.44
468.118	20.61
468.473	20.51
468.829	20.49
469.184	20.3
469.539	20.3
469.894	20.66
470.249	20.52
470.603	20.5
470.958	20.72
471.313	20.57
471.668	20.73
472.023	20.84
472.377	20.91
472.732	20.73
473.086	20.95
473.441	20.98
473.795	21.07
474.15	21.12
474.504	21.13
474.859	21.05
475.213	21.01
475.567	21.08
475.921	21.24
476.275	21.13
476.63	21.2
476.984	21.3
477.338	21.41
477.692	21.5
478.045	21.55
478.399	21.53
478.753	21.4
479.107	21.46
479.461	21.61
479.814	21.45
480.168	21.58
480.521	21.4
480.875	21.56
481.228	21.67
481.582	21.67
481.935	21.7
482.289	21.78
482.642	21.84
482.995	21.81
483.348	21.65
483.701	21.61
484.055	21.53
484.408	21.51
484.761	21.54
485.114	21.19
485.466	20.74
485.819	20.38
486.172	20.41
486.525	20.85
486.878	21.2
487.23	21.6
487.583	21.78
487.936	21.88
488.288	22
488.641	21.82
488.993	21.54
489.345	21.31
489.698	21.27
490.05	21.29
490.402	21.51
490.754	21.78
491.107	21.98
491.459	22.36
491.811	22.54
492.163	22.8
492.515	22.67
492.866	22.56
493.218	22.24
493.57	21.74
493.922	21.73
494.274	21.96
494.625	22.32
494.977	22.7
495.328	23.04
495.68	23.27
496.031	23.43
496.383	23.48
496.734	23.48
497.086	23.61
497.437	23.47
497.788	23.5
498.139	23.37
498.49	23.42
498.842	23.09
499.193	23.04
499.544	23.44
499.894	23.45
500.245	23.59
500.596	23.55
500.947	23.69
501.298	23.8
501.648	23.86
501.999	23.78
502.35	24.02
502.7	24.11
503.051	24.13
503.401	24.25
503.752	24.11
504.102	24.22
504.452	24.29
504.803	24.32
505.153	24.34
505.503	24.43
505.853	24.53
506.203	24.33
506.553	24.45
506.903	24.59
507.253	24.38
507.603	24.78
507.953	24.74
508.303	24.66
508.652	24.79
509.002	24.63
509.352	24.82
509.701	24.83
510.051	24.56
510.4	24.55
510.75	24.55
511.099	24.35
511.449	24.75
511.798	24.78
512.147	24.93
512.496	24.92
512.846	24.92
513.195	25.08
513.544	25.22
513.893	25.12
514.242	25.1
514.591	25.09
514.939	25.41
515.288	25.34
515.637	25.45
515.986	25.65
516.334	25.75
516.683	25.71
517.032	25.99
517.38	25.79
517.729	25.88
518.077	25.86
518.426	26.04
518.774	25.99
519.122	25.88
519.47	25.8
519.819	25.73
520.167	25.78
520.515	25.36
520.863	25.28
521.211	25.52
521.559	25.81
521.907	25.83
522.255	26.02
522.602	26.13
522.95	26.2
523.298	26.39
523.645	26.57
523.993	26.79
524.341	26.62
524.688	26.65
525.036	26.66
525.383	26.82
525.73	26.97
526.078	26.81
526.425	26.65
526.772	26.74
527.119	26.6
527.466	26.1
527.814	26.15
528.161	26.28
528.508	26.51
528.854	26.7
529.201	26.84
529.548	26.66
529.895	26.58
530.242	26.17
530.588	25.54
530.935	25.66
531.282	26.02
531.628	26.36
531.975	26.6
532.321	26.71
532.667	26.96
533.014	27.11
533.36	27.24
533.706	27.31
534.052	27.37
534.399	27.35
534.745	27.03
535.091	26.85
535.437	26.52
535.783	26.72
536.129	27.11
536.474	27.39
536.82	27.63
537.166	27.74
537.512	28.07
537.857	28.08
538.203	27.98
538.549	27.72
538.894	27.38
539.239	27.65
539.585	27.72
539.93	28.19
540.276	28.39
540.621	28.52
540.966	28.61
541.311	28.57
541.656	28.73
542.001	28.59
542.346	28.52
542.691	28.3
543.036	27.73
543.381	27.3
543.726	27.35
544.071	27.73
544.415	28.19
544.76	28.26
545.105	28.33
545.449	28.41
545.794	28.69
546.138	28.81
546.483	29.02
546.827	29.02
547.171	29.13
547.516	29.18
547.86	29.03
548.204	29.16
548.548	29.04
548.892	28.97
549.236	28.91
549.58	29.31
549.924	29.42
550.268	29.75
550.612	29.84
550.956	30.04
551.3	29.91
551.643	30.03
551.987	30.22
552.33	30.26
552.674	30.1
553.017	30.18
553.361	30.41
553.704	30.43
554.048	30.27
554.391	30.06
554.734	30.01
555.077	29.99
555.42	30.25
555.764	30.4
556.107	30.47
556.45	30.7
556.793	30.67
557.135	30.96
557.478	31.02
557.821	30.74
558.164	31.06
558.507	31.04
558.849	30.88
559.192	31.17
559.534	31.29
559.877	31.02
560.219	31.31
560.562	31.37
560.904	31.29
561.246	31.54
561.589	31.6
561.931	31.38
562.273	31.29
562.615	31.43
562.957	31.21
563.299	31.48
563.641	31.37
563.983	31.4
564.325	31.64
564.667	31.68
565.008	31.8
565.35	31.66
565.692	31.85
566.033	31.99
566.375	31.7
566.716	31.89
567.058	32
567.399	31.77
567.741	31.9
568.082	31.61
568.423	31.7
568.764	31.74
569.105	32.04
569.447	32
569.788	32.13
570.129	32.35
570.47	32.44
570.811	32.54
571.151	32.44
571.492	32.51
571.833	32.41
572.174	32.61
572.514	32.48
572.855	32.52
573.195	32.68
573.536	32.25
573.876	32.21
574.217	32.53
574.557	32.62
574.898	32.78
575.238	32.68
575.578	33.08
575.918	32.85
576.258	33.17
576.598	33
576.938	33.02
577.278	33.2
577.618	33.12
577.958	33.22
578.298	33.32
578.638	33.27
578.977	33.34
579.317	33.37
579.657	33.7
579.996	33.66
580.336	33.85
580.675	33.94
581.014	33.7
581.354	33.56
581.693	33.78
582.032	33.89
582.372	34
582.711	33.79
583.05	34.12
583.389	34.06
583.728	34.07
584.067	34.28
584.406	34.41
584.745	34.33
585.083	34.48
585.422	34.48
585.761	34.41
586.1	34.77
586.438	34.53
586.777	34.45
587.115	34.64
587.454	34.47
587.792	35.01
588.13	35.02
588.469	35.14
588.807	34.89
589.145	34.65
589.483	35.04
589.821	35.05
590.159	35
590.497	35.02
590.835	34.87
591.173	35.23
591.511	35.29
591.849	35.19
592.187	34.96
592.524	35.1
592.862	35.12
593.2	35.29
593.537	35.27
593.875	35.21
594.212	35.5
594.55	35.65
594.887	35.91
595.224	35.88
595.561	35.84
595.899	35.69
596.236	35.55
596.573	35.67
596.91	35.51
597.247	35.9
597.584	35.99
597.921	35.91
598.258	35.55
598.594	35.83
598.931	35.58
599.268	35.44
599.604	35.8
599.941	35.84
600.277	35.91
600.614	36.38
600.95	36.47
601.287	36.49
601.623	36.73
601.959	36.71
602.296	36.47
602.632	36.5
602.968	36.59
603.304	36.9
603.64	36.61
603.976	36.59
604.312	36.77
604.648	36.15
604.984	36.68
605.319	36
605.655	36.43
605.991	36.79
606.326	36.41
606.662	36.27
606.998	36.17
607.333	36.38
607.668	36.45
608.004	36.93
608.339	37.27
608.674	37.18
609.01	37.39
609.345	37.36
609.68	37.8
610.015	37.54
610.35	37.35
610.685	37.74
611.02	37.09
611.355	37.13
611.689	36.88
612.024	37.17
612.359	37.06
612.694	37.56
613.028	37.49
613.363	37.74
613.697	37.65
614.032	38.24
614.366	38.18
614.7	38.06
615.035	37.88
615.369	38.3
615.703	38.35
616.037	38.09
616.371	38.69
616.705	38.1
617.039	38.15
617.373	38.44
617.707	38.27
618.041	38.87
618.375	38.38
618.709	38.54
619.042	39.12
619.376	39
619.71	38.85
620.043	38.41
620.377	38.25
620.71	38.05
621.043	38.69
621.377	39.01
621.71	38.89
622.043	38.88
622.376	39.73
622.709	39.09
623.043	38.5
623.376	39.26
623.709	39.21
624.041	39.14
624.374	39.68
624.707	39.71
625.04	39.5
625.373	38.89
625.705	39
626.038	39.24
626.37	39.63
626.703	39.13
627.035	39.35
627.368	39.34
627.7	39.79
628.032	39.19
628.365	39.75
628.697	39.33
629.029	39.77
629.361	39.69
629.693	39.42
630.025	39.89
630.357	39.76
630.689	39.81
631.021	39.9
631.353	39.81
631.684	39.97
632.016	40.2
632.348	40.19
632.679	40.21
633.011	39.94
633.342	40.52
633.674	40.72
634.005	40.34
634.336	40.51
634.668	40.28
634.999	40.35
635.33	40.21
635.661	40.23
635.992	40.2
636.323	40.25
636.654	40.82
636.985	40.41
637.316	40.22
637.647	40.55
637.977	40.75
638.308	40.95
638.639	40.63
638.969	40.94
639.3	40.98
639.63	41.14
639.961	40.81
640.291	40.86
640.622	41.06
640.952	41.26
641.282	41.26
641.612	41.23
641.943	41.36
642.273	41.57
642.603	41.64
642.933	41.33
643.263	41.43
643.592	41.38
643.922	41.56
644.252	41.44
644.582	41.92
644.911	41.57
645.241	41.76
645.571	41.72
645.9	41.4
646.23	41.66
646.559	41.93
646.888	42.14
647.218	42.17
647.547	41.44
647.876	42.08
648.205	41.68
648.534	42.3
648.863	42.28
649.192	41.65
649.521	42.19
649.85	42.62
650.179	42.31
650.508	41.84
650.837	42.09
651.165	42.55
651.494	42
651.822	42.47
652.151	42.12
652.479	42.3
652.808	42.17
653.136	42.85
653.465	42.62
653.793	42.23
654.121	42.82
654.449	42.3
654.777	42.65
655.105	42.72
655.433	42.98
655.761	43.33
656.089	42.77
656.417	42.94
656.745	42.91
657.073	42.77
657.4	43.78
657.728	43.1
658.056	42.43
658.383	43.25
658.711	42.83
659.038	43.1
659.365	42.88
659.693	42.71
660.02	43.6
660.347	43.48
660.674	43.25
661.001	42.72
661.329	42.87
661.656	42.86
661.982	43.21
662.309	43.63
662.636	43.48
662.963	43.63
663.29	43.92
663.616	44.27
663.943	43.7
664.27	44.42
664.596	43.95
664.923	43.72
665.249	43.67
665.576	43.35
665.902	43.65
666.228	43.54
666.554	43.95
666.881	44.21
667.207	44.71
667.533	43.49
667.859	43.96
668.185	44.12
668.511	44.42
668.837	43.4
669.162	44.44
669.488	44.58
669.814	45
670.139	44
670.465	44.15
670.791	44.14
671.116	44.01
671.442	44.36
671.767	43.71
672.092	44.55
