Data from 0141_chest_Reflection__0__00.txt Node

Date: Fri Sep 22 20:21:59 CDT 2023
User: ToomeyLab
Spectrometer: FLMS14357
Trigger mode: 0
Integration Time (sec): 1.000000E-2
Scans to average: 100
Electric dark correction enabled: true
Nonlinearity correction enabled: false
Boxcar width: 0
XAxis mode: Wavelengths
Number of Pixels in Spectrum: 2048
>>>>>Begin Spectral Data<<<<<
189.047	1.4
189.435	1.4
189.823	1.4
190.211	66.75
190.599	331.55
190.987	-153.71
191.375	121.11
191.763	-23.72
192.151	49.42
192.538	-171.3
192.926	59.1
193.314	42.26
193.702	-179.55
194.089	372.83
194.477	-233.55
194.864	49.93
195.252	-2.46
195.639	62.3
196.027	-14.02
196.414	-58.75
196.801	273.57
197.189	1272.92
197.576	202.48
197.963	-182.29
198.351	29.32
198.738	1.32
199.125	38.79
199.512	-8.49
199.899	40.2
200.286	-25.18
200.673	-47.86
201.06	-4.4
201.447	23.62
201.833	-232.02
202.22	7.88
202.607	40.48
202.994	27.53
203.38	29.21
203.767	-1.11
204.154	61.54
204.54	-6.79
204.927	-11.01
205.313	7.83
205.699	18.8
206.086	29.52
206.472	49.98
206.858	-12.37
207.245	-93.72
207.631	17.09
208.017	19.7
208.403	5.31
208.789	9.92
209.175	17.92
209.561	17.75
209.947	30.77
210.333	1.55
210.719	-22.11
211.105	7.06
211.491	-4.08
211.876	12.66
212.262	16.2
212.648	-3.07
213.034	29.69
213.419	32.03
213.805	4.53
214.19	-25.17
214.576	8.77
214.961	-13.41
215.346	13.59
215.732	33.55
216.117	-5.45
216.502	23.48
216.888	23.67
217.273	6.21
217.658	15.57
218.043	10.91
218.428	15.28
218.813	-23.5
219.198	6.44
219.583	7.34
219.968	-3.6
220.353	27.79
220.738	-11.37
221.122	6.65
221.507	7.07
221.892	8.32
222.276	-15.66
222.661	-11.6
223.046	1.39
223.43	20.32
223.815	-7.43
224.199	9.06
224.583	13.59
224.968	9.95
225.352	-3.44
225.736	10.6
226.121	3.93
226.505	1.25
226.889	4.54
227.273	2.06
227.657	-0.96
228.041	-0.23
228.425	6.44
228.809	-0.07
229.193	1.42
229.577	4.33
229.961	0.97
230.344	2.3
230.728	0.39
231.112	2.29
231.495	0.84
231.879	0.93
232.263	1.21
232.646	1.35
233.03	0.72
233.413	1.21
233.797	1.64
234.18	-0.47
234.563	2.28
234.946	3.28
235.33	-1.17
235.713	1.66
236.096	1.83
236.479	0.47
236.862	2.62
237.245	0.86
237.628	1.43
238.011	2.46
238.394	2.11
238.777	3.49
239.16	0.56
239.543	4.11
239.925	2.37
240.308	1.86
240.691	1.56
241.073	2.12
241.456	1.58
241.838	2.57
242.221	2.18
242.603	1.27
242.986	1.5
243.368	1.94
243.75	2.57
244.133	2.4
244.515	1.71
244.897	1.18
245.279	1.79
245.661	1
246.043	1.33
246.425	1.6
246.807	2.08
247.189	1.28
247.571	2.87
247.953	2.2
248.335	1.68
248.717	1.94
249.098	1.85
249.48	1.54
249.862	1.34
250.243	1.42
250.625	1.79
251.006	1.67
251.388	1.9
251.769	2.23
252.151	1.12
252.532	1.39
252.913	1.75
253.295	2.73
253.676	1.68
254.057	1.3
254.438	2.1
254.819	1.2
255.2	1.63
255.581	1.39
255.962	2.01
256.343	0.19
256.724	1.24
257.105	0.84
257.486	2.72
257.867	1.7
258.247	1.66
258.628	1.62
259.009	1.31
259.389	0.96
259.77	2.26
260.15	2.31
260.531	1.58
260.911	1.57
261.292	1.41
261.672	1.33
262.052	1.59
262.432	1.51
262.813	1.7
263.193	1.49
263.573	1.72
263.953	1.18
264.333	1.38
264.713	1.18
265.093	1.29
265.473	1.96
265.853	0.8
266.233	2.4
266.612	1.32
266.992	1.86
267.372	2.11
267.752	1.61
268.131	1.36
268.511	1.17
268.89	1.99
269.27	1.54
269.649	1.27
270.029	1.34
270.408	1.38
270.787	1.66
271.167	1.85
271.546	0.78
271.925	1.33
272.304	1.01
272.683	2.03
273.062	1.95
273.441	1.43
273.82	1.63
274.199	1.47
274.578	1.22
274.957	1.58
275.336	1.5
275.715	1.26
276.093	1.33
276.472	1.66
276.851	1.73
277.229	0.79
277.608	1.56
277.986	0.89
278.365	1.77
278.743	1.01
279.122	1.75
279.5	1.6
279.878	1.44
280.257	1.99
280.635	1.89
281.013	1.6
281.391	1.11
281.769	1.66
282.147	1.27
282.525	1.51
282.903	1.53
283.281	1.69
283.659	1.66
284.037	1.18
284.415	1.79
284.792	1.24
285.17	1.62
285.548	1.76
285.925	1.65
286.303	1.3
286.68	1.17
287.058	1.1
287.435	1.49
287.813	1.17
288.19	1.04
288.567	1.61
288.945	1.53
289.322	1.43
289.699	1.48
290.076	1.79
290.453	1.48
290.83	1.15
291.207	1.53
291.584	1.12
291.961	1.57
292.338	1.56
292.715	2
293.092	1.62
293.469	1.65
293.845	1.39
294.222	1.96
294.599	1.95
294.975	2.03
295.352	1.75
295.728	1.05
296.105	2
296.481	1.86
296.858	1.72
297.234	1.63
297.61	1.54
297.986	1.62
298.363	1.54
298.739	1.83
299.115	1.84
299.491	1.72
299.867	1.69
300.243	1.59
300.619	1.7
300.995	1.71
301.371	2.12
301.746	1.46
302.122	1.77
302.498	1.6
302.874	1.2
303.249	1.86
303.625	1.51
304	2
304.376	2.25
304.751	1.72
305.127	1.58
305.502	2.11
305.878	1.72
306.253	1.93
306.628	1.83
307.003	2.12
307.378	1.88
307.754	2.15
308.129	1.84
308.504	1.65
308.879	1.91
309.254	2.11
309.629	1.75
310.003	2.42
310.378	2.39
310.753	2.02
311.128	1.91
311.502	1.83
311.877	1.82
312.252	1.93
312.626	1.95
313.001	2.27
313.375	2.26
313.75	2.36
314.124	2.55
314.498	1.81
314.873	1.83
315.247	1.71
315.621	2.01
315.995	2.11
316.369	2.08
316.743	1.64
317.117	2.13
317.491	2.48
317.865	1.82
318.239	2.11
318.613	1.95
318.987	1.54
319.361	2.04
319.734	2.14
320.108	1.91
320.482	1.87
320.855	2.01
321.229	2.72
321.602	2.1
321.976	1.87
322.349	2.21
322.723	2.29
323.096	2.25
323.469	2.06
323.843	2.54
324.216	2.24
324.589	2.39
324.962	1.56
325.335	2.39
325.708	1.98
326.081	2.59
326.454	2.11
326.827	2.04
327.2	2.12
327.573	2.33
327.945	2.23
328.318	2.49
328.691	2.46
329.063	1.9
329.436	1.93
329.809	2.42
330.181	2.32
330.553	2.21
330.926	2.37
331.298	2.47
331.671	2.68
332.043	1.82
332.415	1.85
332.787	3.15
333.159	1.83
333.532	1.97
333.904	1.97
334.276	2.03
334.648	1.59
335.02	1.77
335.391	2.32
335.763	2.21
336.135	2.07
336.507	2.35
336.879	1.71
337.25	2.32
337.622	2.44
337.993	2.22
338.365	2.01
338.736	2.06
339.108	2.5
339.479	2.29
339.851	1.97
340.222	2.06
340.593	2.09
340.964	1.72
341.336	1.86
341.707	2.15
342.078	2.14
342.449	2.31
342.82	2.24
343.191	1.81
343.562	2.22
343.933	2.52
344.303	2.37
344.674	2.41
345.045	2.04
345.416	2.44
345.786	2.01
346.157	2.19
346.527	1.86
346.898	1.98
347.268	2.12
347.639	2.52
348.009	2.03
348.38	2.17
348.75	2.53
349.12	2.25
349.49	2.36
349.861	2.27
350.231	2.05
350.601	2.57
350.971	2.41
351.341	1.98
351.711	1.89
352.081	1.95
352.45	2.09
352.82	2.3
353.19	2.19
353.56	1.96
353.929	2.11
354.299	2.33
354.669	2.08
355.038	1.91
355.408	2.25
355.777	2.58
356.147	2.09
356.516	2.28
356.885	2.17
357.254	2.62
357.624	2.12
357.993	2.22
358.362	2.05
358.731	2.18
359.1	1.98
359.469	1.94
359.838	1.79
360.207	2.01
360.576	2.33
360.945	2.34
361.314	2.22
361.682	2.24
362.051	2.19
362.42	2.16
362.788	1.89
363.157	2.25
363.525	2.16
363.894	2.19
364.262	2.08
364.631	2.08
364.999	2.22
365.367	2.41
365.735	2.3
366.104	2.49
366.472	2.43
366.84	2.21
367.208	2.44
367.576	2.23
367.944	2.38
368.312	2.35
368.68	2.21
369.048	2.31
369.416	1.92
369.783	2.06
370.151	2.13
370.519	2.02
370.886	2.24
371.254	2.37
371.621	2.23
371.989	2.11
372.356	2.12
372.724	2.54
373.091	2.25
373.458	2.16
373.826	2.34
374.193	2.57
374.56	2.32
374.927	2.47
375.294	2.04
375.661	2.22
376.028	2.14
376.395	2.55
376.762	2.25
377.129	2.46
377.496	2.45
377.863	2.52
378.229	2.52
378.596	2.4
378.963	2.7
379.329	2.4
379.696	2.58
380.062	2.11
380.429	2.31
380.795	2.42
381.161	2.34
381.528	2.41
381.894	1.98
382.26	2.21
382.626	2.51
382.993	2.42
383.359	2.36
383.725	2.13
384.091	2.31
384.457	2.26
384.823	2.31
385.188	2.37
385.554	2.19
385.92	2.6
386.286	2.2
386.651	2.13
387.017	2.39
387.383	2.4
387.748	2.29
388.114	2.49
388.479	2.5
388.845	2.25
389.21	2.22
389.575	2.58
389.94	2.2
390.306	2.5
390.671	2.67
391.036	2.06
391.401	2.36
391.766	2.25
392.131	2.53
392.496	2.51
392.861	2.42
393.226	2.45
393.591	2.49
393.956	2.45
394.32	2.29
394.685	2.39
395.05	2.57
395.414	2.43
395.779	2.35
396.143	2.39
396.508	2.41
396.872	2.25
397.236	2.41
397.601	2.28
397.965	2.56
398.329	2.47
398.694	2.51
399.058	2.45
399.422	2.37
399.786	2.45
400.15	2.5
400.514	2.5
400.878	2.44
401.242	2.26
401.605	2.32
401.969	2.02
402.333	2.5
402.697	2.45
403.06	2.52
403.424	2.44
403.787	2.44
404.151	2.42
404.514	2.44
404.878	2.72
405.241	2.45
405.604	2.46
405.968	2.56
406.331	2.53
406.694	2.43
407.057	2.38
407.42	2.54
407.783	2.38
408.146	2.53
408.509	2.41
408.872	2.35
409.235	2.53
409.598	2.44
409.961	2.78
410.323	2.5
410.686	2.35
411.049	2.72
411.411	2.83
411.774	2.4
412.136	2.5
412.499	2.47
412.861	2.49
413.223	2.5
413.586	2.41
413.948	2.47
414.31	2.41
414.672	2.66
415.035	2.2
415.397	2.71
415.759	2.69
416.121	2.51
416.483	2.58
416.845	2.45
417.206	2.35
417.568	2.4
417.93	2.52
418.292	2.48
418.653	2.46
419.015	2.48
419.377	2.35
419.738	2.55
420.1	2.31
420.461	2.55
420.822	2.42
421.184	2.44
421.545	2.44
421.906	2.38
422.267	2.37
422.629	2.53
422.99	2.46
423.351	2.45
423.712	2.42
424.073	2.37
424.434	2.53
424.795	2.45
425.155	2.57
425.516	2.37
425.877	2.44
426.238	2.38
426.598	2.39
426.959	2.47
427.32	2.46
427.68	2.44
428.041	2.46
428.401	2.64
428.761	2.61
429.122	2.49
429.482	2.62
429.842	2.45
430.202	2.46
430.563	2.63
430.923	2.54
431.283	2.75
431.643	2.54
432.003	2.62
432.363	2.73
432.722	2.74
433.082	2.53
433.442	2.63
433.802	2.58
434.161	2.44
434.521	2.72
434.881	2.51
435.24	2.52
435.6	2.37
435.959	2.45
436.319	2.57
436.678	2.66
437.037	2.65
437.396	2.56
437.756	2.58
438.115	2.79
438.474	2.6
438.833	2.69
439.192	2.45
439.551	2.54
439.91	2.61
440.269	2.52
440.628	2.53
440.987	2.52
441.345	2.7
441.704	2.64
442.063	2.52
442.421	2.45
442.78	2.58
443.138	2.54
443.497	2.55
443.855	2.58
444.214	2.52
444.572	2.7
444.93	2.62
445.288	2.64
445.647	2.62
446.005	2.59
446.363	2.67
446.721	2.6
447.079	2.52
447.437	2.54
447.795	2.73
448.153	2.55
448.51	2.64
448.868	2.59
449.226	2.62
449.584	2.51
449.941	2.51
450.299	2.69
450.656	2.66
451.014	2.65
451.371	2.57
451.729	2.58
452.086	2.59
452.443	2.74
452.801	2.63
453.158	2.67
453.515	2.74
453.872	2.71
454.229	2.71
454.586	2.71
454.943	2.59
455.3	2.62
455.657	2.59
456.014	2.62
456.371	2.71
456.727	2.83
457.084	2.69
457.441	2.62
457.797	2.65
458.154	2.85
458.51	2.67
458.867	2.7
459.223	2.77
459.58	2.76
459.936	2.66
460.292	2.82
460.648	2.83
461.005	2.63
461.361	2.75
461.717	2.56
462.073	2.68
462.429	2.58
462.785	2.66
463.141	2.66
463.496	2.82
463.852	2.81
464.208	2.62
464.564	2.8
464.919	2.74
465.275	2.89
465.631	2.84
465.986	2.81
466.342	2.97
466.697	2.89
467.052	2.63
467.408	2.8
467.763	2.88
468.118	2.92
468.473	2.83
468.829	2.75
469.184	2.74
469.539	2.81
469.894	2.75
470.249	2.78
470.603	2.71
470.958	2.92
471.313	2.75
471.668	2.82
472.023	2.87
472.377	2.76
472.732	2.73
473.086	3.03
473.441	2.59
473.795	3.12
474.15	2.6
474.504	2.72
474.859	2.99
475.213	2.68
475.567	2.83
475.921	2.76
476.275	2.9
476.63	2.74
476.984	2.74
477.338	2.87
477.692	2.85
478.045	2.96
478.399	2.98
478.753	2.98
479.107	2.88
479.461	2.91
479.814	2.96
480.168	2.95
480.521	2.88
480.875	3.05
481.228	2.73
481.582	2.67
481.935	2.85
482.289	2.9
482.642	2.83
482.995	2.77
483.348	2.96
483.701	2.94
484.055	2.82
484.408	2.81
484.761	2.81
485.114	2.79
485.466	2.71
485.819	2.67
486.172	2.71
486.525	2.72
486.878	2.69
487.23	2.75
487.583	2.78
487.936	2.86
488.288	2.84
488.641	2.84
488.993	2.8
489.345	2.76
489.698	2.76
490.05	2.76
490.402	2.8
490.754	2.78
491.107	2.74
491.459	2.85
491.811	2.78
492.163	2.9
492.515	2.95
492.866	2.93
493.218	2.89
493.57	2.92
493.922	2.79
494.274	2.86
494.625	2.86
494.977	2.94
495.328	2.96
495.68	3.03
496.031	2.99
496.383	3.06
496.734	3.06
497.086	2.95
497.437	3.05
497.788	3.02
498.139	3.1
498.49	3.13
498.842	2.97
499.193	2.9
499.544	3.12
499.894	3.04
500.245	3.07
500.596	3.06
500.947	3.11
501.298	3.12
501.648	3.04
501.999	3.13
502.35	3.09
502.7	3.16
503.051	3.21
503.401	3.07
503.752	3.12
504.102	3.12
504.452	3.15
504.803	3.13
505.153	3.06
505.503	3.07
505.853	3.26
506.203	3.07
506.553	3.18
506.903	3.2
507.253	3.09
507.603	3.2
507.953	3.22
508.303	3.19
508.652	3.13
509.002	3.23
509.352	3.13
509.701	3.33
510.051	3.22
510.4	3.2
510.75	3.1
511.099	3.01
511.449	3.21
511.798	3.25
512.147	3.26
512.496	3.21
512.846	3.28
513.195	3.29
513.544	3.29
513.893	3.16
514.242	3.23
514.591	3.29
514.939	3.27
515.288	3.15
515.637	3.17
515.986	3.32
516.334	3.3
516.683	3.46
517.032	3.4
517.38	3.41
517.729	3.24
518.077	3.44
518.426	3.36
518.774	3.46
519.122	3.38
519.47	3.46
519.819	3.29
520.167	3.39
520.515	3.35
520.863	3.24
521.211	3.31
521.559	3.42
521.907	3.34
522.255	3.34
522.602	3.42
522.95	3.39
523.298	3.47
523.645	3.48
523.993	3.44
524.341	3.46
524.688	3.46
525.036	3.52
525.383	3.45
525.73	3.66
526.078	3.56
526.425	3.47
526.772	3.62
527.119	3.54
527.466	3.39
527.814	3.51
528.161	3.38
528.508	3.48
528.854	3.45
529.201	3.55
529.548	3.41
529.895	3.46
530.242	3.48
530.588	3.4
530.935	3.38
531.282	3.38
531.628	3.42
531.975	3.43
532.321	3.49
532.667	3.51
533.014	3.57
533.36	3.6
533.706	3.58
534.052	3.68
534.399	3.6
534.745	3.6
535.091	3.54
535.437	3.55
535.783	3.48
536.129	3.55
536.474	3.68
536.82	3.5
537.166	3.72
537.512	3.66
537.857	3.75
538.203	3.82
538.549	3.66
538.894	3.72
539.239	3.69
539.585	3.64
539.93	3.8
540.276	3.65
540.621	3.77
540.966	3.84
541.311	3.85
541.656	3.85
542.001	3.89
542.346	3.9
542.691	3.89
543.036	3.8
543.381	3.8
543.726	3.72
544.071	3.76
544.415	3.8
544.76	3.77
545.105	3.71
545.449	3.84
545.794	3.9
546.138	3.96
546.483	3.93
546.827	3.91
547.171	3.92
547.516	4.06
547.86	4.09
548.204	4.03
548.548	4
548.892	4.11
549.236	4.02
549.58	4.04
549.924	4.1
550.268	4.22
550.612	4.18
550.956	4.16
551.3	4.33
551.643	4.35
551.987	4.27
552.33	4.35
552.674	4.22
553.017	4.19
553.361	4.27
553.704	4.41
554.048	4.33
554.391	4.38
554.734	4.37
555.077	4.32
555.42	4.26
555.764	4.3
556.107	4.4
556.45	4.46
556.793	4.32
557.135	4.45
557.478	4.45
557.821	4.49
558.164	4.54
558.507	4.7
558.849	4.41
559.192	4.54
559.534	4.74
559.877	4.56
560.219	4.7
560.562	4.7
560.904	4.61
561.246	4.75
561.589	4.74
561.931	4.72
562.273	4.49
562.615	4.58
562.957	4.7
563.299	4.81
563.641	4.77
563.983	4.8
564.325	4.78
564.667	4.84
565.008	4.72
565.35	4.88
565.692	4.83
566.033	4.91
566.375	4.87
566.716	4.77
567.058	4.95
567.399	4.86
567.741	5.08
568.082	4.73
568.423	4.91
568.764	5.02
569.105	4.87
569.447	5
569.788	4.98
570.129	4.97
570.47	5.25
570.811	4.89
571.151	5.11
571.492	5.04
571.833	5.1
572.174	5.12
572.514	5.14
572.855	5.09
573.195	5.03
573.536	5.16
573.876	5.12
574.217	5.23
574.557	5.07
574.898	5.24
575.238	5.22
575.578	5.35
575.918	5.19
576.258	5.22
576.598	5.28
576.938	5.47
577.278	5.46
577.618	5.42
577.958	5.43
578.298	5.41
578.638	5.49
578.977	5.41
579.317	5.31
579.657	5.53
579.996	5.53
580.336	5.6
580.675	5.71
581.014	5.44
581.354	5.47
581.693	5.51
582.032	5.66
582.372	5.74
582.711	5.66
583.05	5.82
583.389	5.73
583.728	5.8
584.067	5.91
584.406	5.77
584.745	5.69
585.083	6.07
585.422	6.05
585.761	5.78
586.1	5.94
586.438	5.98
586.777	5.87
587.115	5.98
587.454	5.82
587.792	6.12
588.13	6
588.469	6.01
588.807	6.26
589.145	6.12
589.483	6.21
589.821	6.13
590.159	6.15
590.497	6.21
590.835	6.43
591.173	6.07
591.511	6.3
591.849	6.18
592.187	6.03
592.524	6.44
592.862	6.32
593.2	6.15
593.537	6.13
593.875	6.38
594.212	6.51
594.55	6.72
594.887	6.44
595.224	6.36
595.561	6.64
595.899	6.63
596.236	6.79
596.573	6.82
596.91	6.6
597.247	6.72
597.584	6.88
597.921	6.81
598.258	6.69
598.594	6.72
598.931	6.81
599.268	6.64
599.604	6.78
599.941	6.8
600.277	6.66
600.614	6.66
600.95	6.81
601.287	6.92
601.623	7.05
601.959	7.03
602.296	6.92
602.632	6.78
602.968	6.96
603.304	7.18
603.64	7.04
603.976	7.09
604.312	7.02
604.648	7.08
604.984	7.08
605.319	6.87
605.655	7.06
605.991	7.17
606.326	7.41
606.662	7.23
606.998	7.09
607.333	7.26
607.668	7.34
608.004	7.42
608.339	7.16
608.674	7.21
609.01	7.2
609.345	7.26
609.68	7.56
610.015	7.39
610.35	7.35
610.685	7.59
611.02	7.41
611.355	7.69
611.689	7.54
612.024	7.47
612.359	7.4
612.694	7.58
613.028	7.65
613.363	7.77
613.697	7.78
614.032	7.42
614.366	7.91
614.7	7.64
615.035	7.91
615.369	7.86
615.703	7.98
616.037	7.83
616.371	8.15
616.705	8.26
617.039	8.1
617.373	7.95
617.707	7.89
618.041	8.24
618.375	7.98
618.709	8.37
619.042	8.35
619.376	8.22
619.71	8.16
620.043	8
620.377	8.27
620.71	8.42
621.043	8.26
621.377	8.2
621.71	8.21
622.043	8.33
622.376	8.68
622.709	8.64
623.043	8.51
623.376	8.44
623.709	8.5
624.041	8.41
624.374	8.4
624.707	9.04
625.04	8.92
625.373	8.32
625.705	9
626.038	8.2
626.37	8.8
626.703	8.66
627.035	8.8
627.368	8.53
627.7	9.04
628.032	8.88
628.365	9.08
628.697	8.78
629.029	9.07
629.361	8.72
629.693	9.05
630.025	9.01
630.357	8.84
630.689	9.04
631.021	8.99
631.353	9.11
631.684	9.15
632.016	8.98
632.348	9.13
632.679	8.83
633.011	9.16
633.342	9.1
633.674	9.65
634.005	8.8
634.336	9.45
634.668	9.54
634.999	9.48
635.33	9.68
635.661	9.62
635.992	9.44
636.323	9.48
636.654	9.61
636.985	9.36
637.316	9.47
637.647	9.62
637.977	9.44
638.308	9.81
638.639	9.39
638.969	9.76
639.3	9.73
639.63	9.9
639.961	9.4
640.291	9.86
640.622	10.15
640.952	9.69
641.282	9.88
641.612	9.62
641.943	9.85
642.273	10.05
642.603	10.13
642.933	10.21
643.263	9.61
643.592	10.07
643.922	10.17
644.252	9.83
644.582	10.3
644.911	10.03
645.241	10.46
645.571	10.03
645.9	10.16
646.23	10.67
646.559	10.62
646.888	10.67
647.218	10.36
647.547	10.48
647.876	9.95
648.205	10.01
648.534	10.34
648.863	10.46
649.192	9.71
649.521	10.67
649.85	10.78
650.179	10.51
650.508	10.24
650.837	10.83
651.165	10.76
651.494	10.6
651.822	10.6
652.151	10.73
652.479	10.42
652.808	10.75
653.136	10.98
653.465	10.71
653.793	10.41
654.121	11.24
654.449	10.68
654.777	11.15
655.105	11.3
655.433	11.07
655.761	11.56
656.089	10.96
656.417	10.87
656.745	10.77
657.073	11.19
657.4	11.59
657.728	11.51
658.056	11.22
658.383	11.29
658.711	11.29
659.038	11.16
659.365	11.08
659.693	10.69
660.02	11.87
660.347	11.53
660.674	10.98
661.001	11.36
661.329	11.04
661.656	11.4
661.982	11.32
662.309	11.5
662.636	11.09
662.963	11.58
663.29	11.8
663.616	11.85
663.943	11.62
664.27	11.82
664.596	12.12
664.923	12.22
665.249	11.56
665.576	11.57
665.902	11.32
666.228	11.42
666.554	11.51
666.881	12.62
667.207	12.14
667.533	12.06
667.859	11.96
668.185	11.94
668.511	12.72
668.837	11.59
669.162	12.39
669.488	12.08
669.814	12.3
670.139	11.87
670.465	12.5
670.791	12.19
671.116	12.3
671.442	12.85
671.767	11.89
672.092	12.49
672.418	12.86
672.743	12.66
673.068	12.56
673.393	12.07
673.718	13.08
674.043	13
674.368	12.69
674.693	12.73
675.018	12.55
675.343	12.81
675.667	12.53
675.992	12.5
676.317	13.24
676.641	12.47
676.966	13.07
677.29	12.42
677.615	13.33
677.939	13.12
678.264	12.91
678.588	13.25
678.912	12.89
679.236	12.87
679.56	13.38
679.885	12.93
680.209	13.21
680.532	13.2
680.856	13.5
681.18	13.64
681.504	12.87
681.828	12.95
682.152	13.23
682.475	13.07
682.799	13.15
683.122	13.04
683.446	13.23
683.769	13.33
684.093	13.69
684.416	13.56
684.739	13.58
685.062	13.83
685.386	13.39
685.709	13.49
686.032	13.56
686.355	13.81
686.678	14.01
687.001	13.73
687.324	14.32
687.646	14.22
687.969	14.15
688.292	14.31
688.614	13.95
688.937	13.88
689.26	13.59
689.582	13.8
