Data from 0009_crown_Reflection__2__309.txt Node

Date: Thu Dec 15 19:06:23 CST 2022
User: ToomeyLab
Spectrometer: FLMS14357
Trigger mode: 0
Integration Time (sec): 1.000000E-2
Scans to average: 100
Electric dark correction enabled: true
Nonlinearity correction enabled: false
Boxcar width: 0
XAxis mode: Wavelengths
Number of Pixels in Spectrum: 2048
>>>>>Begin Spectral Data<<<<<
189.047	-0.69
189.435	-0.69
189.823	-0.69
190.211	-360.82
190.599	137.24
190.987	0.17
191.375	-99.5
191.763	82.25
192.151	57.42
192.538	139.98
192.926	198.91
193.314	-913.54
193.702	-341.05
194.089	-90.63
194.477	64.9
194.864	96.12
195.252	92.37
195.639	65.12
196.027	-11257.14
196.414	147.44
196.801	52.82
197.189	29.44
197.576	-89.21
197.963	-84.2
198.351	-36.51
198.738	-42.63
199.125	-75.66
199.512	14.28
199.899	-32.71
200.286	-53.58
200.673	66.72
201.06	-15.2
201.447	-63.11
201.833	-36.21
202.22	-2.32
202.607	-51.11
202.994	-2.14
203.38	2.35
203.767	-36.04
204.154	16.88
204.54	-4.71
204.927	-4.29
205.313	13.16
205.699	3.06
206.086	33.36
206.472	9.62
206.858	23.92
207.245	-15.8
207.631	-29.62
208.017	24.55
208.403	-77.48
208.789	14.62
209.175	-15.59
209.561	-163.39
209.947	-8.17
210.333	-10.27
210.719	-15.83
211.105	3.23
211.491	-13.22
211.876	-54.57
212.262	8.97
212.648	-9.69
213.034	-16.03
213.419	-25.7
213.805	-57.33
214.19	-78.97
214.576	-19.65
214.961	3.79
215.346	-0.6
215.732	-10.71
216.117	8
216.502	-11.58
216.888	-8.23
217.273	11.9
217.658	-1.77
218.043	-36.94
218.428	-24.12
218.813	3.1
219.198	-27.02
219.583	0.62
219.968	-9.16
220.353	-29.4
220.738	2.71
221.122	-11.39
221.507	-16.26
221.892	-52.48
222.276	-32.06
222.661	-15.39
223.046	-10.26
223.43	12.68
223.815	-1.79
224.199	11.61
224.583	1.83
224.968	-3.57
225.352	-9.35
225.736	3.4
226.121	-2.03
226.505	-5.7
226.889	0.5
227.273	0.01
227.657	0.86
228.041	3.05
228.425	3.75
228.809	3.16
229.193	7.25
229.577	5.48
229.961	6.86
230.344	6.84
230.728	7.06
231.112	6.97
231.495	5.91
231.879	7.19
232.263	5.99
232.646	5.54
233.03	7.59
233.413	8.04
233.797	6.37
234.18	8.02
234.563	5.29
234.946	4.28
235.33	5.62
235.713	5.91
236.096	6.56
236.479	6.84
236.862	4.65
237.245	6.1
237.628	5.79
238.011	5.19
238.394	5.67
238.777	5.82
239.16	7.15
239.543	5.34
239.925	6.1
240.308	5.54
240.691	6.03
241.073	4.47
241.456	6.34
241.838	6.36
242.221	6.62
242.603	5.72
242.986	5.93
243.368	6.34
243.75	5.9
244.133	6.48
244.515	6.02
244.897	6.52
245.279	5.82
245.661	6.53
246.043	5.7
246.425	6.66
246.807	5.19
247.189	5.62
247.571	5.69
247.953	5.67
248.335	6.13
248.717	6.15
249.098	6.22
249.48	5.79
249.862	5.79
250.243	6.24
250.625	5.87
251.006	5.83
251.388	5.32
251.769	5.15
252.151	5.2
252.532	5.49
252.913	5.57
253.295	5.21
253.676	5.83
254.057	5.64
254.438	5.83
254.819	5.88
255.2	5.93
255.581	6.66
255.962	6.85
256.343	5.57
256.724	4.76
257.105	5.38
257.486	3.64
257.867	5.02
258.247	5.26
258.628	5.47
259.009	4.87
259.389	5.11
259.77	5.18
260.15	6.22
260.531	5.61
260.911	5.72
261.292	5.58
261.672	5.74
262.052	5.69
262.432	5.23
262.813	5.44
263.193	6.27
263.573	5.49
263.953	5.42
264.333	5.65
264.713	5.67
265.093	4.97
265.473	5.13
265.853	5.03
266.233	6.01
266.612	4.79
266.992	4.86
267.372	5.38
267.752	5.71
268.131	4.88
268.511	4.84
268.89	5.86
269.27	4.94
269.649	5.11
270.029	4.84
270.408	4.87
270.787	4.88
271.167	5.08
271.546	5.34
271.925	5.83
272.304	5.17
272.683	5.16
273.062	5.29
273.441	5.04
273.82	5.43
274.199	4.99
274.578	5.29
274.957	5.62
275.336	5.43
275.715	5.42
276.093	4.61
276.472	4.92
276.851	5.47
277.229	4.84
277.608	4.31
277.986	4.88
278.365	5.44
278.743	5.15
279.122	4.26
279.5	4.94
279.878	4.81
280.257	4.77
280.635	5.42
281.013	4.7
281.391	4.62
281.769	5.38
282.147	5.15
282.525	4.59
282.903	4.99
283.281	4.88
283.659	5.04
284.037	5.07
284.415	5.25
284.792	4.99
285.17	5.02
285.548	5.13
285.925	5.2
286.303	5.26
286.68	5.2
287.058	5.08
287.435	4.96
287.813	4.83
288.19	4.71
288.567	5.09
288.945	4.63
289.322	4.65
289.699	5.14
290.076	4.83
290.453	4.71
290.83	4.94
291.207	4.85
291.584	5.29
291.961	4.61
292.338	5.01
292.715	4.86
293.092	5.08
293.469	4.53
293.845	5.04
294.222	5.08
294.599	4.61
294.975	4.02
295.352	4.9
295.728	5.34
296.105	4.77
296.481	4.69
296.858	5.19
297.234	4.63
297.61	4.97
297.986	5.15
298.363	4.96
298.739	5.18
299.115	4.96
299.491	4.85
299.867	4.72
300.243	4.72
300.619	4.56
300.995	4.83
301.371	4.82
301.746	4.74
302.122	4.23
302.498	5
302.874	5.07
303.249	4.54
303.625	4.55
304	4.86
304.376	5.11
304.751	4.81
305.127	4.32
305.502	5.11
305.878	4.97
306.253	4.46
306.628	4.84
307.003	4.78
307.378	4.54
307.754	4.99
308.129	4.25
308.504	4.51
308.879	4.69
309.254	4.83
309.629	4.52
310.003	4.63
310.378	4.91
310.753	4.77
311.128	4.72
311.502	4.45
311.877	4.82
312.252	4.78
312.626	4.82
313.001	4.66
313.375	4.76
313.75	4.75
314.124	4.8
314.498	4.88
314.873	4.25
315.247	4.36
315.621	5.08
315.995	4.48
316.369	4.42
316.743	4.48
317.117	4.53
317.491	4.48
317.865	4.46
318.239	5.16
318.613	4.26
318.987	4.38
319.361	4.63
319.734	4.72
320.108	4.38
320.482	4.67
320.855	4.72
321.229	4.08
321.602	4.83
321.976	4
322.349	5.28
322.723	4.73
323.096	4.56
323.469	4.27
323.843	4.22
324.216	4.5
324.589	4.67
324.962	4.17
325.335	4.14
325.708	4.58
326.081	4.58
326.454	5.18
326.827	4.78
327.2	4.54
327.573	4.68
327.945	4.36
328.318	4.37
328.691	4.52
329.063	4.28
329.436	4.36
329.809	5.69
330.181	4.85
330.553	4.5
330.926	4.59
331.298	4.12
331.671	4.62
332.043	4.55
332.415	4.46
332.787	5.07
333.159	4.43
333.532	4.17
333.904	4.77
334.276	4.83
334.648	4.7
335.02	4.53
335.391	4.38
335.763	4.55
336.135	5.1
336.507	4.7
336.879	4.71
337.25	4.97
337.622	4.87
337.993	4.47
338.365	4.66
338.736	4.75
339.108	4.72
339.479	4.93
339.851	5.03
340.222	5.38
340.593	4.39
340.964	4.6
341.336	4.31
341.707	4.83
342.078	4.34
342.449	5.07
342.82	4.81
343.191	4.86
343.562	4.72
343.933	4.42
344.303	4.96
344.674	4.89
345.045	5.11
345.416	4.76
345.786	4.39
346.157	4.67
346.527	4.78
346.898	4.46
347.268	4.74
347.639	4.48
348.009	4.98
348.38	4.63
348.75	4.9
349.12	4.75
349.49	4.38
349.861	4.87
350.231	4.85
350.601	4.69
350.971	4.65
351.341	4.91
351.711	4.83
352.081	4.33
352.45	4.44
352.82	4.56
353.19	4.57
353.56	4.88
353.929	4.86
354.299	4.42
354.669	4.54
355.038	5.02
355.408	4.61
355.777	4.41
356.147	4.64
356.516	4.47
356.885	5.06
357.254	4.72
357.624	4.53
357.993	4.77
358.362	5.09
358.731	4.86
359.1	4.88
359.469	5.16
359.838	4.94
360.207	4.97
360.576	4.72
360.945	5.05
361.314	4.8
361.682	4.62
362.051	5.02
362.42	4.87
362.788	4.94
363.157	4.87
363.525	5.17
363.894	4.66
364.262	4.97
364.631	5.03
364.999	5.05
365.367	4.7
365.735	4.59
366.104	5.03
366.472	4.86
366.84	5.08
367.208	5.2
367.576	4.82
367.944	5.07
368.312	4.74
368.68	4.99
369.048	4.93
369.416	4.84
369.783	4.6
370.151	5.2
370.519	5.5
370.886	5.15
371.254	5.1
371.621	5.03
371.989	5.08
372.356	4.9
372.724	4.97
373.091	5.07
373.458	4.86
373.826	4.92
374.193	5.07
374.56	4.99
374.927	4.77
375.294	5.29
375.661	4.96
376.028	4.81
376.395	5.08
376.762	4.85
377.129	4.87
377.496	5.02
377.863	5.04
378.229	5.12
378.596	4.93
378.963	5.13
379.329	5.1
379.696	5.01
380.062	5.13
380.429	4.66
380.795	5.38
381.161	4.74
381.528	4.98
381.894	5.11
382.26	4.87
382.626	5.08
382.993	5.23
383.359	5.05
383.725	4.76
384.091	5.25
384.457	4.95
384.823	5.28
385.188	5.29
385.554	5.05
385.92	5.1
386.286	5.18
386.651	4.9
387.017	5.49
387.383	5.16
387.748	5.2
388.114	5.39
388.479	5.27
388.845	5.21
389.21	5.41
389.575	5.18
389.94	5.24
390.306	5.31
390.671	5.25
391.036	5.21
391.401	5.27
391.766	5.29
392.131	5.39
392.496	5.03
392.861	5.14
393.226	4.93
393.591	5.13
393.956	5.19
394.32	5.18
394.685	5.11
395.05	5.43
395.414	5.33
395.779	5.39
396.143	5.09
396.508	5.06
396.872	5.05
397.236	5.64
397.601	5.39
397.965	5.48
398.329	4.94
398.694	4.88
399.058	5.15
399.422	5.24
399.786	5.26
400.15	5.21
400.514	5.22
400.878	5.15
401.242	5.28
401.605	5.3
401.969	5.27
402.333	5.11
402.697	5.53
403.06	5.1
403.424	5.14
403.787	5.27
404.151	5.55
404.514	5.22
404.878	5.45
405.241	5.26
405.604	5.25
405.968	5.27
406.331	5.39
406.694	5.09
407.057	5.28
407.42	5.16
407.783	5.32
408.146	5.47
408.509	5.23
408.872	5.34
409.235	5.21
409.598	5.44
409.961	5.42
410.323	5.21
410.686	5.34
411.049	5.24
411.411	5.25
411.774	5.28
412.136	5.28
412.499	5.57
412.861	5.12
413.223	5.33
413.586	5.5
413.948	5.46
414.31	5.43
414.672	5.36
415.035	5.66
415.397	5.4
415.759	5.21
416.121	5.67
416.483	5.34
416.845	5.34
417.206	5.29
417.568	5.2
417.93	5.5
418.292	5.32
418.653	5.26
419.015	5.29
419.377	5.27
419.738	5.38
420.1	5.3
420.461	5.27
420.822	5.35
421.184	5.25
421.545	5.33
421.906	5.26
422.267	5.27
422.629	5.19
422.99	5.29
423.351	5.31
423.712	5.28
424.073	5.44
424.434	5.36
424.795	5.18
425.155	5.28
425.516	5.26
425.877	5.33
426.238	5.23
426.598	5.32
426.959	5.37
427.32	5.27
427.68	5.32
428.041	5.38
428.401	5.36
428.761	5.53
429.122	5.47
429.482	5.4
429.842	5.4
430.202	5.48
430.563	5.28
430.923	5.55
431.283	5.31
431.643	5.61
432.003	5.32
432.363	5.61
432.722	5.39
433.082	5.46
433.442	5.53
433.802	5.44
434.161	5.42
434.521	5.35
434.881	5.57
435.24	5.29
435.6	5.38
435.959	5.56
436.319	5.47
436.678	5.37
437.037	5.52
437.396	5.45
437.756	5.46
438.115	5.57
438.474	5.45
438.833	5.51
439.192	5.35
439.551	5.36
439.91	5.34
440.269	5.41
440.628	5.44
440.987	5.51
441.345	5.54
441.704	5.49
442.063	5.35
442.421	5.43
442.78	5.38
443.138	5.53
443.497	5.39
443.855	5.52
444.214	5.27
444.572	5.61
444.93	5.36
445.288	5.45
445.647	5.38
446.005	5.48
446.363	5.4
446.721	5.47
447.079	5.39
447.437	5.43
447.795	5.47
448.153	5.4
448.51	5.45
448.868	5.3
449.226	5.45
449.584	5.45
449.941	5.53
450.299	5.39
450.656	5.51
451.014	5.6
451.371	5.58
451.729	5.6
452.086	5.49
452.443	5.58
452.801	5.62
453.158	5.64
453.515	5.41
453.872	5.43
454.229	5.44
454.586	5.32
454.943	5.59
455.3	5.46
455.657	5.45
456.014	5.46
456.371	5.52
456.727	5.65
457.084	5.72
457.441	5.55
457.797	5.48
458.154	5.39
458.51	5.52
458.867	5.46
459.223	5.43
459.58	5.58
459.936	5.36
460.292	5.56
460.648	5.5
461.005	5.46
461.361	5.5
461.717	5.46
462.073	5.5
462.429	5.51
462.785	5.56
463.141	5.54
463.496	5.57
463.852	5.6
464.208	5.53
464.564	5.54
464.919	5.65
465.275	5.57
465.631	5.77
465.986	5.65
466.342	5.48
466.697	5.58
467.052	5.83
467.408	5.55
467.763	5.54
468.118	5.44
468.473	5.59
468.829	5.52
469.184	5.49
469.539	5.55
469.894	5.61
470.249	5.62
470.603	5.65
470.958	5.74
471.313	5.77
471.668	5.6
472.023	5.75
472.377	5.51
472.732	5.67
473.086	5.47
473.441	5.54
473.795	5.78
474.15	5.64
474.504	5.44
474.859	5.43
475.213	5.62
475.567	5.46
475.921	5.72
476.275	5.65
476.63	5.53
476.984	5.54
477.338	5.88
477.692	5.56
478.045	5.69
478.399	5.56
478.753	5.6
479.107	5.66
479.461	5.64
479.814	5.56
480.168	5.6
480.521	5.58
480.875	5.6
481.228	5.65
481.582	5.64
481.935	5.73
482.289	5.67
482.642	5.74
482.995	5.55
483.348	5.62
483.701	5.65
484.055	5.48
484.408	5.49
484.761	5.4
485.114	5.26
485.466	5.24
485.819	5.3
486.172	5.36
486.525	5.41
486.878	5.43
487.23	5.42
487.583	5.44
487.936	5.45
488.288	5.38
488.641	5.35
488.993	5.36
489.345	5.35
489.698	5.37
490.05	5.41
490.402	5.42
490.754	5.47
491.107	5.45
491.459	5.57
491.811	5.54
492.163	5.53
492.515	5.43
492.866	5.41
493.218	5.42
493.57	5.46
493.922	5.44
494.274	5.5
494.625	5.65
494.977	5.58
495.328	5.55
495.68	5.52
496.031	5.69
496.383	5.6
496.734	5.66
497.086	5.67
497.437	5.78
497.788	5.71
498.139	5.55
498.49	5.58
498.842	5.66
499.193	5.55
499.544	5.67
499.894	5.56
500.245	5.64
500.596	5.76
500.947	5.68
501.298	5.7
501.648	5.59
501.999	5.77
502.35	5.63
502.7	5.79
503.051	5.63
503.401	5.76
503.752	5.6
504.102	5.52
504.452	5.61
504.803	5.58
505.153	5.75
505.503	5.65
505.853	5.69
506.203	5.74
506.553	5.66
506.903	5.72
507.253	5.64
507.603	5.6
507.953	5.69
508.303	5.68
508.652	5.5
509.002	5.63
509.352	5.69
509.701	5.49
510.051	5.69
510.4	5.74
510.75	5.6
511.099	5.58
511.449	5.73
511.798	5.7
512.147	5.65
512.496	5.72
512.846	5.7
513.195	5.71
513.544	5.82
513.893	5.72
514.242	5.61
514.591	5.65
514.939	5.74
515.288	5.72
515.637	5.68
515.986	5.76
516.334	5.76
516.683	5.82
517.032	5.7
517.38	5.62
517.729	5.67
518.077	5.64
518.426	5.75
518.774	5.67
519.122	5.68
519.47	5.6
519.819	5.65
520.167	5.6
520.515	5.62
520.863	5.62
521.211	5.6
521.559	5.56
521.907	5.81
522.255	5.6
522.602	5.7
522.95	5.79
523.298	5.83
523.645	5.74
523.993	5.65
524.341	5.76
524.688	5.67
525.036	5.73
525.383	5.72
525.73	5.57
526.078	5.75
526.425	5.65
526.772	5.73
527.119	5.66
527.466	5.7
527.814	5.62
528.161	5.71
528.508	5.73
528.854	5.68
529.201	5.56
529.548	5.51
529.895	5.48
530.242	5.44
530.588	5.42
530.935	5.5
531.282	5.49
531.628	5.55
531.975	5.59
532.321	5.62
532.667	5.69
533.014	5.63
533.36	5.74
533.706	5.73
534.052	5.73
534.399	5.66
534.745	5.56
535.091	5.54
535.437	5.6
535.783	5.65
536.129	5.61
536.474	5.75
536.82	5.73
537.166	5.68
537.512	5.75
537.857	5.69
538.203	5.62
538.549	5.68
538.894	5.74
539.239	5.74
539.585	5.81
539.93	5.81
540.276	5.72
540.621	5.83
540.966	5.84
541.311	5.75
541.656	5.74
542.001	5.73
542.346	5.72
542.691	5.59
543.036	5.58
543.381	5.59
543.726	5.67
544.071	5.65
544.415	5.61
544.76	5.72
545.105	5.62
545.449	5.65
545.794	5.78
546.138	5.68
546.483	5.74
546.827	5.69
547.171	5.85
547.516	5.85
547.86	5.82
548.204	5.85
548.548	5.8
548.892	5.8
549.236	5.77
549.58	5.83
549.924	5.93
550.268	5.94
550.612	5.92
550.956	5.96
551.3	6.02
551.643	5.82
551.987	6.07
552.33	6.09
552.674	5.9
553.017	6.08
553.361	5.92
553.704	5.84
554.048	5.93
554.391	5.96
554.734	5.83
555.077	5.89
555.42	5.89
555.764	5.85
556.107	5.98
556.45	5.94
556.793	5.95
557.135	6.11
557.478	5.99
557.821	6.01
558.164	5.81
558.507	5.82
558.849	6.06
559.192	5.89
559.534	6.09
559.877	5.92
560.219	5.98
560.562	5.85
560.904	6.13
561.246	5.87
561.589	6.2
561.931	5.84
562.273	5.92
562.615	5.83
562.957	5.87
563.299	6.03
563.641	6
563.983	5.78
564.325	5.93
564.667	5.87
565.008	5.88
565.35	5.68
565.692	6.02
566.033	5.88
566.375	5.94
566.716	5.92
567.058	5.88
567.399	5.88
567.741	6.17
568.082	5.85
568.423	5.85
568.764	5.97
569.105	6.14
569.447	5.88
569.788	5.98
570.129	5.93
570.47	5.97
570.811	6.01
571.151	6.04
571.492	6
571.833	5.86
572.174	6.03
572.514	6.14
572.855	6.27
573.195	5.86
573.536	6.09
573.876	5.97
574.217	5.88
574.557	5.81
574.898	5.79
575.238	5.98
575.578	6.07
575.918	5.99
576.258	6.16
576.598	5.92
576.938	5.92
577.278	5.87
577.618	6.04
577.958	6.07
578.298	6.08
578.638	5.97
578.977	6
579.317	5.96
579.657	6.07
579.996	6.1
580.336	6.21
580.675	5.9
581.014	6.19
581.354	5.86
581.693	6.17
582.032	6.19
582.372	5.85
582.711	6.3
583.05	6.18
583.389	6.01
583.728	6.17
584.067	6.16
584.406	6.07
584.745	5.93
585.083	5.99
585.422	5.95
585.761	6
586.1	6.25
586.438	5.94
586.777	6.26
587.115	6.17
587.454	5.74
587.792	6
588.13	6.05
588.469	5.86
588.807	6.04
589.145	5.96
589.483	5.96
589.821	5.9
590.159	6.23
590.497	6.1
590.835	6.21
591.173	6.36
591.511	6.13
591.849	6.13
592.187	5.96
592.524	6.23
592.862	5.92
593.2	6.07
593.537	5.96
593.875	5.9
594.212	5.99
594.55	6.41
594.887	6.14
595.224	6.07
595.561	5.97
595.899	6.15
596.236	6.2
596.573	6.04
596.91	6.05
597.247	6.33
597.584	6.04
597.921	6.04
598.258	6.19
598.594	6
598.931	5.88
599.268	6.01
599.604	6.08
599.941	6.22
600.277	6.13
600.614	6.13
600.95	6.01
601.287	5.8
601.623	5.65
601.959	6.24
602.296	6.25
602.632	6.05
602.968	6.06
603.304	6.17
603.64	6.11
603.976	5.79
604.312	5.92
604.648	6.25
604.984	6.18
605.319	6.04
605.655	6.04
605.991	6.11
606.326	6.09
606.662	5.93
606.998	6.23
607.333	6.03
607.668	6.02
608.004	6.04
608.339	5.9
608.674	6.24
609.01	6.36
609.345	6.09
609.68	6.09
610.015	6.19
610.35	6.27
610.685	5.91
611.02	5.97
611.355	6.16
611.689	5.98
612.024	6.21
612.359	6.29
612.694	6.15
613.028	5.97
613.363	5.99
613.697	6.14
614.032	6.34
614.366	6.09
614.7	6.24
615.035	6.16
615.369	6.21
615.703	6.28
616.037	6.25
616.371	6.18
616.705	6.21
617.039	6.04
617.373	6.31
617.707	6.4
618.041	5.98
618.375	5.68
618.709	6.19
619.042	6.24
619.376	6.22
619.71	6.24
620.043	6.19
620.377	6.26
620.71	5.88
621.043	6.48
621.377	6.41
621.71	6.49
622.043	6.23
622.376	6.36
622.709	6.41
623.043	5.96
623.376	6.25
623.709	6.64
624.041	5.95
624.374	6.33
624.707	6.25
625.04	6.21
625.373	6.25
625.705	6.27
626.038	6.35
626.37	6.01
626.703	6.6
627.035	6.16
627.368	6.36
627.7	6.43
628.032	6.48
628.365	6.42
628.697	6.35
629.029	6.24
629.361	6.41
629.693	6.28
630.025	6.18
630.357	6.46
630.689	6.55
631.021	6.52
631.353	6.27
631.684	6.17
632.016	6
632.348	6.26
632.679	6.37
633.011	6.15
633.342	6.23
633.674	6.27
634.005	6.27
634.336	6.42
634.668	6.49
634.999	6.12
635.33	6.25
635.661	6.34
635.992	6.21
636.323	6.45
636.654	6.19
636.985	6.19
637.316	6.27
637.647	6.49
637.977	6.17
638.308	6.37
638.639	6.1
638.969	6.11
639.3	6.18
639.63	6.14
639.961	6.27
640.291	6.35
640.622	6.42
640.952	6.57
641.282	6.23
641.612	6.31
641.943	6.39
642.273	5.87
642.603	6.43
642.933	6.46
643.263	6.37
643.592	6.44
643.922	6.73
644.252	6.06
644.582	6.31
644.911	6.74
645.241	5.98
645.571	6.51
645.9	6.21
646.23	6.4
646.559	6.34
646.888	6.66
647.218	6.45
647.547	6.4
647.876	6.56
648.205	6.12
648.534	6.76
648.863	6.36
649.192	6.53
649.521	6.49
649.85	6.41
650.179	6.38
650.508	6.28
650.837	6.75
651.165	6.4
651.494	6.25
651.822	6.44
652.151	5.78
652.479	6.28
652.808	6.45
653.136	5.83
653.465	6.31
653.793	6.4
654.121	6.38
654.449	6.46
654.777	6.52
655.105	5.99
655.433	6.67
655.761	6.46
656.089	6.33
656.417	6.92
656.745	6.79
657.073	6.07
657.4	6.08
657.728	6.52
658.056	6.5
658.383	6.23
658.711	6.69
659.038	6.41
659.365	6.95
659.693	6.3
660.02	6.45
660.347	6.54
660.674	6.59
661.001	6.56
661.329	6.3
661.656	5.95
661.982	6.26
662.309	6.17
662.636	6.46
662.963	6.5
663.29	6.73
663.616	6.56
663.943	6.73
664.27	6.59
664.596	6.39
664.923	6.95
665.249	6.51
665.576	6.54
665.902	6.17
666.228	6.65
666.554	6.82
666.881	5.58
667.207	6.21
667.533	6.81
667.859	6.26
668.185	6.15
668.511	6.78
668.837	6.53
669.162	6.63
669.488	5.9
669.814	6.3
670.139	6.12
670.465	6.43
670.791	6.12
671.116	6.44
671.442	6.2
671.767	6.64
672.092	6.31
672.418	6.79
672.743	6.08
673.068	6.05
673.393	6.55
673.718	5.91
674.043	6.4
674.368	6.09
674.693	6.55
675.018	6.97
675.343	6.86
675.667	6.59
675.992	6.6
676.317	5.93
676.641	6.94
676.966	6.92
677.29	6.34
677.615	6.66
677.939	6.78
678.264	6.29
678.588	7.19
678.912	6.44
679.236	6.11
679.56	6.02
679.885	6.42
680.209	6.66
680.532	6.97
680.856	6.59
681.18	7.13
681.504	6.54
681.828	6.65
682.152	6.31
682.475	6.95
682.799	6.4
683.122	6.97
683.446	5.98
683.769	7.12
684.093	6.63
684.416	6.75
684.739	6.78
685.062	6.77
685.386	6.58
685.709	6.59
686.032	6.78
686.355	6.9
686.678	6.76
687.001	6.95
687.324	6.77
687.646	6.8
687.969	6.81
688.292	6.54
688.614	7.11
688.937	6.71
689.26	7.28
689.582	6.17
689.904	7.47
690.227	6.96
690.549	6.76
690.871	6.73
691.194	6.3
691.516	6.15
691.838	6.72
