Data from 0009_crown_Reflection__4__311.txt Node

Date: Thu Dec 15 19:06:42 CST 2022
User: ToomeyLab
Spectrometer: FLMS14357
Trigger mode: 0
Integration Time (sec): 1.000000E-2
Scans to average: 100
Electric dark correction enabled: true
Nonlinearity correction enabled: false
Boxcar width: 0
XAxis mode: Wavelengths
Number of Pixels in Spectrum: 2048
>>>>>Begin Spectral Data<<<<<
189.047	152.32
189.435	152.32
189.823	152.32
190.211	-615.1
190.599	160.75
190.987	-16.4
191.375	32.19
191.763	55.48
192.151	-8.93
192.538	-30.01
192.926	320.04
193.314	-455.46
193.702	42.74
194.089	76.28
194.477	30.06
194.864	61.51
195.252	-14.05
195.639	133.02
196.027	-15100
196.414	18.63
196.801	145.16
197.189	1.28
197.576	42.45
197.963	60.41
198.351	-21.16
198.738	-71.37
199.125	-50.01
199.512	-3.01
199.899	-49.1
200.286	-36.84
200.673	13.46
201.06	-11.8
201.447	-11.79
201.833	-7.67
202.22	-2.3
202.607	-39.41
202.994	-12.34
203.38	20.12
203.767	-23.11
204.154	6.09
204.54	-29.97
204.927	21.04
205.313	17.59
205.699	20.24
206.086	8.16
206.472	2.83
206.858	-30.04
207.245	-40.54
207.631	5.16
208.017	37.59
208.403	-45.23
208.789	16.73
209.175	-7.63
209.561	-219.57
209.947	-21.1
210.333	-4.92
210.719	34.52
211.105	18.08
211.491	-2.24
211.876	-12.16
212.262	4.59
212.648	20.95
213.034	-14.08
213.419	-12.98
213.805	-52.16
214.19	-31.58
214.576	-32.63
214.961	5.54
215.346	-8.18
215.732	-28.63
216.117	5.91
216.502	-6.27
216.888	28.48
217.273	19.35
217.658	-13.24
218.043	-77.33
218.428	-13.01
218.813	29.33
219.198	-43.44
219.583	-6.62
219.968	-18.78
220.353	-25.29
220.738	-0.53
221.122	-20.7
221.507	-21.24
221.892	-16.98
222.276	-10.44
222.661	-10.92
223.046	-6.54
223.43	13.07
223.815	-1.45
224.199	1.02
224.583	-5.57
224.968	3.01
225.352	-4.72
225.736	7.56
226.121	-3.67
226.505	-7.67
226.889	0.21
227.273	-2.63
227.657	7.8
228.041	4.06
228.425	-3.49
228.809	0.98
229.193	5.2
229.577	3.63
229.961	4.57
230.344	4.23
230.728	5.35
231.112	4.38
231.495	3.32
231.879	3.06
232.263	4.16
232.646	3.61
233.03	4.91
233.413	2.56
233.797	1.33
234.18	3.01
234.563	3.94
234.946	2.74
235.33	4.25
235.713	4.59
236.096	5.16
236.479	4.95
236.862	2.54
237.245	2.62
237.628	4.68
238.011	4.72
238.394	2.82
238.777	4.14
239.16	5.98
239.543	3.89
239.925	4.07
240.308	3.13
240.691	3.48
241.073	1.49
241.456	4.01
241.838	4.4
242.221	4.01
242.603	3.7
242.986	3.6
243.368	4.16
243.75	4.2
244.133	4.29
244.515	4.14
244.897	3.61
245.279	4.16
245.661	3.85
246.043	4.02
246.425	4.52
246.807	3.75
247.189	3.9
247.571	3.42
247.953	3.8
248.335	4.09
248.717	4.15
249.098	4.31
249.48	3.89
249.862	4.19
250.243	4.34
250.625	4.21
251.006	4.66
251.388	4
251.769	3.64
252.151	3.91
252.532	3.31
252.913	3.05
253.295	3.53
253.676	4.33
254.057	3.74
254.438	3.79
254.819	3.86
255.2	4.92
255.581	4.46
255.962	4.38
256.343	4.13
256.724	4.14
257.105	3.95
257.486	2.83
257.867	3.37
258.247	3.92
258.628	3.82
259.009	3.67
259.389	3.34
259.77	3.18
260.15	4.63
260.531	3.93
260.911	3.75
261.292	3.77
261.672	3.86
262.052	3.54
262.432	3.48
262.813	3.73
263.193	3.91
263.573	3.91
263.953	3.5
264.333	3.74
264.713	4.35
265.093	3.66
265.473	3.22
265.853	3.54
266.233	3.84
266.612	3.33
266.992	3.55
267.372	4.15
267.752	3.89
268.131	3.7
268.511	3.59
268.89	4.17
269.27	2.89
269.649	3.64
270.029	3.8
270.408	3.12
270.787	4.25
271.167	3.83
271.546	4.42
271.925	3.5
272.304	3.26
272.683	3.62
273.062	3.58
273.441	3.62
273.82	3.62
274.199	3.68
274.578	3.74
274.957	3.64
275.336	4.18
275.715	3.84
276.093	3.37
276.472	3.33
276.851	3.6
277.229	3.69
277.608	3.47
277.986	3.47
278.365	3.95
278.743	3.53
279.122	3.05
279.5	3.18
279.878	3.72
280.257	3.46
280.635	3.58
281.013	3.14
281.391	2.64
281.769	3.69
282.147	3.37
282.525	3.12
282.903	2.81
283.281	3.44
283.659	3.63
284.037	3.24
284.415	3.19
284.792	3.48
285.17	3.32
285.548	3.22
285.925	3.53
286.303	3.68
286.68	3.41
287.058	3.83
287.435	3.38
287.813	3.22
288.19	3.2
288.567	3.33
288.945	2.83
289.322	3.76
289.699	3.3
290.076	3.06
290.453	3.34
290.83	3.43
291.207	3.29
291.584	3.55
291.961	3.27
292.338	3.1
292.715	3.08
293.092	3.52
293.469	3.1
293.845	3.49
294.222	3.84
294.599	2.44
294.975	2.74
295.352	3.27
295.728	3.47
296.105	3.03
296.481	3.45
296.858	2.84
297.234	2.74
297.61	2.81
297.986	3.51
298.363	3.15
298.739	3.29
299.115	3.41
299.491	3.72
299.867	3.1
300.243	3.44
300.619	2.88
300.995	2.94
301.371	3.42
301.746	3.6
302.122	2.81
302.498	3.25
302.874	3.41
303.249	3.06
303.625	3.06
304	3.42
304.376	3.91
304.751	3.61
305.127	3.16
305.502	2.66
305.878	3.19
306.253	3.09
306.628	3.22
307.003	2.99
307.378	2.96
307.754	3.28
308.129	3.26
308.504	2.95
308.879	3.11
309.254	3.27
309.629	3
310.003	3
310.378	3.58
310.753	2.89
311.128	3.27
311.502	3.21
311.877	3
312.252	3.47
312.626	3.54
313.001	3.4
313.375	3.33
313.75	3.04
314.124	3.32
314.498	3.25
314.873	2.88
315.247	3.27
315.621	3.02
315.995	3.16
316.369	2.77
316.743	2.96
317.117	3.22
317.491	2.62
317.865	2.17
318.239	3.41
318.613	2.38
318.987	2.6
319.361	3.14
319.734	3.11
320.108	2.81
320.482	3.34
320.855	2.87
321.229	2.83
321.602	2.94
321.976	2.49
322.349	3.73
322.723	2.76
323.096	2.42
323.469	2.8
323.843	3.07
324.216	3.13
324.589	3.56
324.962	2.65
325.335	2.84
325.708	3.25
326.081	3.09
326.454	3.61
326.827	3.25
327.2	2.78
327.573	3.51
327.945	2.69
328.318	2.97
328.691	3.01
329.063	3.35
329.436	2.46
329.809	3.07
330.181	3.19
330.553	3.31
330.926	3.51
331.298	2.77
331.671	2.97
332.043	2.91
332.415	2.97
332.787	2.98
333.159	2.9
333.532	3.03
333.904	3.39
334.276	3.22
334.648	3.23
335.02	2.64
335.391	2.44
335.763	3.28
336.135	3.18
336.507	2.82
336.879	3.07
337.25	2.88
337.622	3.26
337.993	3.34
338.365	3.44
338.736	3.32
339.108	3.51
339.479	2.97
339.851	3.21
340.222	3.44
340.593	3.28
340.964	2.66
341.336	3.07
341.707	3.14
342.078	2.98
342.449	3.29
342.82	3.14
343.191	3.09
343.562	3.42
343.933	2.98
344.303	3.28
344.674	3.06
345.045	3.38
345.416	3.71
345.786	3.18
346.157	3.27
346.527	2.89
346.898	2.59
347.268	2.84
347.639	2.99
348.009	3.27
348.38	2.92
348.75	3.49
349.12	3.37
349.49	3.09
349.861	3.33
350.231	2.89
350.601	2.8
350.971	3.36
351.341	3.56
351.711	3.29
352.081	3.01
352.45	3.05
352.82	2.83
353.19	3.32
353.56	3.15
353.929	3.28
354.299	3.45
354.669	3.59
355.038	3.27
355.408	3.32
355.777	3.42
356.147	3.23
356.516	2.78
356.885	3.64
357.254	3.32
357.624	2.72
357.993	3.32
358.362	3.34
358.731	3.29
359.1	3.19
359.469	3.33
359.838	3.33
360.207	3.15
360.576	3.44
360.945	3.52
361.314	3.14
361.682	3.09
362.051	3.25
362.42	3.36
362.788	3.43
363.157	3.23
363.525	3.33
363.894	3.12
364.262	3.38
364.631	3.39
364.999	2.99
365.367	3.28
365.735	3.13
366.104	3.42
366.472	3.05
366.84	3.25
367.208	3.63
367.576	3.14
367.944	3.33
368.312	3.05
368.68	3.49
369.048	3.18
369.416	3.21
369.783	3.53
370.151	3.56
370.519	3.45
370.886	3.55
371.254	3.7
371.621	3.55
371.989	3.57
372.356	3.22
372.724	3.39
373.091	3.33
373.458	3.13
373.826	3.81
374.193	3.46
374.56	3.38
374.927	3.3
375.294	3.48
375.661	3.41
376.028	3.35
376.395	3.43
376.762	3.31
377.129	3.2
377.496	3.6
377.863	3.55
378.229	3.59
378.596	3.63
378.963	3.43
379.329	3.46
379.696	3.32
380.062	3.47
380.429	3.23
380.795	3.84
381.161	3.33
381.528	3.58
381.894	3.55
382.26	3.6
382.626	3.57
382.993	3.94
383.359	3.51
383.725	3.29
384.091	3.57
384.457	3.4
384.823	3.5
385.188	3.6
385.554	3.65
385.92	3.31
386.286	3.56
386.651	3.49
387.017	3.77
387.383	3.53
387.748	3.68
388.114	3.5
388.479	3.37
388.845	3.43
389.21	3.92
389.575	3.96
389.94	4.06
390.306	3.55
390.671	3.62
391.036	3.64
391.401	3.56
391.766	3.68
392.131	3.7
392.496	3.64
392.861	3.75
393.226	3.45
393.591	3.66
393.956	3.62
394.32	3.75
394.685	3.75
395.05	3.57
395.414	3.78
395.779	3.7
396.143	3.51
396.508	3.57
396.872	3.88
397.236	3.92
397.601	3.77
397.965	3.83
398.329	3.99
398.694	3.82
399.058	3.72
399.422	3.5
399.786	3.8
400.15	3.75
400.514	3.91
400.878	3.87
401.242	3.81
401.605	3.67
401.969	3.72
402.333	3.63
402.697	3.97
403.06	3.76
403.424	3.76
403.787	3.78
404.151	3.58
404.514	3.7
404.878	3.77
405.241	3.66
405.604	3.71
405.968	3.63
406.331	3.73
406.694	3.72
407.057	3.68
407.42	3.81
407.783	3.9
408.146	3.77
408.509	3.76
408.872	3.75
409.235	3.93
409.598	3.92
409.961	3.78
410.323	3.9
410.686	3.68
411.049	3.96
411.411	3.77
411.774	3.76
412.136	3.83
412.499	4.09
412.861	3.38
413.223	3.61
413.586	3.87
413.948	4.13
414.31	3.88
414.672	3.76
415.035	4.05
415.397	3.91
415.759	3.59
416.121	3.98
416.483	3.76
416.845	3.73
417.206	4
417.568	3.82
417.93	3.74
418.292	3.82
418.653	3.73
419.015	3.84
419.377	3.78
419.738	3.86
420.1	3.77
420.461	3.7
420.822	3.82
421.184	3.86
421.545	3.84
421.906	3.84
422.267	3.77
422.629	3.76
422.99	3.8
423.351	3.79
423.712	3.74
424.073	3.87
424.434	3.83
424.795	3.8
425.155	3.76
425.516	3.78
425.877	3.78
426.238	3.74
426.598	3.91
426.959	3.86
427.32	3.85
427.68	3.92
428.041	3.9
428.401	3.78
428.761	3.95
429.122	3.84
429.482	3.98
429.842	3.78
430.202	3.87
430.563	3.82
430.923	3.98
431.283	4.09
431.643	3.99
432.003	4.08
432.363	4.08
432.722	3.96
433.082	3.94
433.442	4.13
433.802	3.92
434.161	3.88
434.521	3.92
434.881	4.03
435.24	3.79
435.6	4.05
435.959	3.93
436.319	4
436.678	3.94
437.037	4.01
437.396	3.94
437.756	3.88
438.115	3.95
438.474	4.01
438.833	4
439.192	3.9
439.551	4.01
439.91	4.06
440.269	3.97
440.628	3.88
440.987	3.93
441.345	3.89
441.704	3.91
442.063	3.91
442.421	3.9
442.78	3.94
443.138	3.93
443.497	3.99
443.855	4.05
444.214	3.83
444.572	4.03
444.93	4.09
445.288	4.02
445.647	3.8
446.005	3.92
446.363	4
446.721	4.04
447.079	3.83
447.437	3.92
447.795	4.07
448.153	3.91
448.51	3.97
448.868	3.84
449.226	3.94
449.584	3.95
449.941	3.95
450.299	3.96
450.656	3.98
451.014	4.11
451.371	4.03
451.729	4.11
452.086	4.09
452.443	4.01
452.801	4.09
453.158	4.2
453.515	3.97
453.872	4.01
454.229	3.91
454.586	3.89
454.943	3.98
455.3	4.04
455.657	4.06
456.014	3.9
456.371	4.14
456.727	4.26
457.084	4.12
457.441	4.09
457.797	3.98
458.154	4.05
458.51	4.08
458.867	4.02
459.223	4
459.58	4.11
459.936	4.02
460.292	4.07
460.648	4.03
461.005	4
461.361	3.93
461.717	3.86
462.073	4.04
462.429	4.14
462.785	4.21
463.141	4.11
463.496	4.3
463.852	4.32
464.208	4.09
464.564	4.06
464.919	4.11
465.275	4.11
465.631	4.35
465.986	4.23
466.342	3.98
466.697	4.03
467.052	4.28
467.408	4.01
467.763	4.1
468.118	4.05
468.473	4.07
468.829	4.09
469.184	4.07
469.539	3.97
469.894	4.12
470.249	4.1
470.603	4.24
470.958	4.25
471.313	4.1
471.668	4.21
472.023	4.09
472.377	4.15
472.732	4.17
473.086	4.26
473.441	4.16
473.795	4.48
474.15	4.2
474.504	4.14
474.859	4
475.213	4.24
475.567	4.07
475.921	4.27
476.275	4.3
476.63	4.17
476.984	4.09
477.338	4.2
477.692	4.14
478.045	4.19
478.399	4.29
478.753	4.24
479.107	4.25
479.461	4.15
479.814	4.23
480.168	4.17
480.521	4.21
480.875	4.32
481.228	4.18
481.582	4.16
481.935	4.33
482.289	4.24
482.642	4.36
482.995	4.12
483.348	4.16
483.701	4.24
484.055	4.1
484.408	4.06
484.761	3.95
485.114	3.9
485.466	3.84
485.819	3.91
486.172	3.97
486.525	4.01
486.878	4.13
487.23	4.13
487.583	4.1
487.936	4.1
488.288	4.02
488.641	4.02
488.993	3.96
489.345	3.99
489.698	4.05
490.05	4.01
490.402	4.05
490.754	4.13
491.107	4.12
491.459	4.2
491.811	4.09
492.163	4.08
492.515	4.07
492.866	3.98
493.218	4.03
493.57	4.11
493.922	4.06
494.274	4.26
494.625	4.26
494.977	4.3
495.328	4.28
495.68	4.33
496.031	4.28
496.383	4.22
496.734	4.22
497.086	4.32
497.437	4.35
497.788	4.31
498.139	4.25
498.49	4.25
498.842	4.25
499.193	4.21
499.544	4.18
499.894	4.13
500.245	4.45
500.596	4.36
500.947	4.29
501.298	4.31
501.648	4.34
501.999	4.43
502.35	4.27
502.7	4.57
503.051	4.31
503.401	4.31
503.752	4.18
504.102	4.33
504.452	4.24
504.803	4.26
505.153	4.32
505.503	4.32
505.853	4.37
506.203	4.36
506.553	4.4
506.903	4.33
507.253	4.31
507.603	4.41
507.953	4.39
508.303	4.33
508.652	4.17
509.002	4.26
509.352	4.32
509.701	4.24
510.051	4.41
510.4	4.37
510.75	4.24
511.099	4.16
511.449	4.36
511.798	4.26
512.147	4.45
512.496	4.37
512.846	4.34
513.195	4.37
513.544	4.38
513.893	4.28
514.242	4.26
514.591	4.28
514.939	4.34
515.288	4.45
515.637	4.35
515.986	4.37
516.334	4.45
516.683	4.36
517.032	4.4
517.38	4.28
517.729	4.32
518.077	4.33
518.426	4.39
518.774	4.31
519.122	4.32
519.47	4.29
519.819	4.3
520.167	4.25
520.515	4.31
520.863	4.24
521.211	4.27
521.559	4.28
521.907	4.38
522.255	4.4
522.602	4.37
522.95	4.41
523.298	4.34
523.645	4.35
523.993	4.37
524.341	4.41
524.688	4.38
525.036	4.37
525.383	4.41
525.73	4.28
526.078	4.48
526.425	4.37
526.772	4.29
527.119	4.27
527.466	4.37
527.814	4.34
528.161	4.39
528.508	4.42
528.854	4.31
529.201	4.29
529.548	4.18
529.895	4.14
530.242	4.14
530.588	4.15
530.935	4.19
531.282	4.26
531.628	4.34
531.975	4.33
532.321	4.32
532.667	4.32
533.014	4.37
533.36	4.45
533.706	4.39
534.052	4.39
534.399	4.31
534.745	4.24
535.091	4.24
535.437	4.25
535.783	4.33
536.129	4.38
536.474	4.45
536.82	4.47
537.166	4.38
537.512	4.37
537.857	4.41
538.203	4.3
538.549	4.31
538.894	4.39
539.239	4.44
539.585	4.53
539.93	4.48
540.276	4.43
540.621	4.45
540.966	4.49
541.311	4.41
541.656	4.36
542.001	4.35
542.346	4.35
542.691	4.26
543.036	4.26
543.381	4.31
543.726	4.38
544.071	4.45
544.415	4.39
544.76	4.33
545.105	4.42
545.449	4.46
545.794	4.49
546.138	4.38
546.483	4.51
546.827	4.46
547.171	4.55
547.516	4.57
547.86	4.53
548.204	4.51
548.548	4.47
548.892	4.39
549.236	4.55
549.58	4.48
549.924	4.69
550.268	4.64
550.612	4.53
550.956	4.83
551.3	4.69
551.643	4.61
551.987	4.67
552.33	4.65
552.674	4.41
553.017	4.71
553.361	4.68
553.704	4.72
554.048	4.58
554.391	4.55
554.734	4.6
555.077	4.61
555.42	4.62
555.764	4.61
556.107	4.68
556.45	4.8
556.793	4.75
557.135	4.67
557.478	4.69
557.821	4.75
558.164	4.7
558.507	4.55
558.849	4.78
559.192	4.64
559.534	4.63
559.877	4.64
560.219	4.57
560.562	4.71
560.904	4.75
561.246	4.57
561.589	4.8
561.931	4.82
562.273	4.68
562.615	4.58
562.957	4.51
563.299	4.63
563.641	4.67
563.983	4.44
564.325	4.67
564.667	4.61
565.008	4.53
565.35	4.46
565.692	4.62
566.033	4.57
566.375	4.71
566.716	4.41
567.058	4.63
567.399	4.77
567.741	4.72
568.082	4.63
568.423	4.48
568.764	4.56
569.105	4.57
569.447	4.52
569.788	4.63
570.129	4.57
570.47	4.64
570.811	4.64
571.151	4.64
571.492	4.73
571.833	4.66
572.174	4.76
572.514	4.74
572.855	4.67
573.195	4.6
573.536	4.76
573.876	4.55
574.217	4.61
574.557	4.51
574.898	4.6
575.238	4.77
575.578	4.68
575.918	4.63
576.258	4.89
576.598	4.66
576.938	4.65
577.278	4.6
577.618	4.51
577.958	4.74
578.298	4.64
578.638	4.61
578.977	4.71
579.317	4.73
579.657	4.53
579.996	4.92
580.336	4.78
580.675	4.75
581.014	4.9
581.354	4.57
581.693	4.78
582.032	4.89
582.372	4.96
582.711	4.79
583.05	4.69
583.389	4.81
583.728	4.98
584.067	4.68
584.406	4.69
584.745	4.74
585.083	4.89
585.422	4.64
585.761	4.64
586.1	4.68
586.438	4.7
586.777	4.67
587.115	5.04
587.454	4.64
587.792	4.76
588.13	4.8
588.469	4.67
588.807	4.92
589.145	4.62
589.483	4.4
589.821	4.94
590.159	4.94
590.497	4.93
590.835	4.8
591.173	4.88
591.511	4.84
591.849	4.7
592.187	4.51
592.524	4.75
592.862	4.61
593.2	4.88
593.537	4.77
593.875	4.85
594.212	4.78
594.55	4.92
594.887	4.89
595.224	5.02
595.561	4.84
595.899	4.98
596.236	4.81
596.573	4.65
596.91	4.83
597.247	5.09
597.584	4.71
597.921	4.88
598.258	4.86
598.594	4.76
598.931	4.67
599.268	4.69
599.604	4.9
599.941	4.88
600.277	4.87
600.614	4.68
600.95	4.87
601.287	4.66
601.623	4.7
601.959	5.07
602.296	4.62
602.632	4.77
602.968	4.8
603.304	4.77
603.64	4.86
603.976	4.62
604.312	4.72
604.648	4.88
604.984	4.86
605.319	4.94
605.655	4.79
605.991	4.84
606.326	4.82
606.662	4.7
606.998	5.03
607.333	4.7
607.668	4.89
608.004	4.84
608.339	4.77
608.674	4.94
609.01	4.94
609.345	5.03
609.68	4.8
610.015	4.97
610.35	5.15
610.685	4.72
611.02	4.77
611.355	4.87
611.689	4.99
612.024	4.87
612.359	4.92
612.694	5.2
613.028	4.74
613.363	4.9
613.697	4.88
614.032	4.97
614.366	4.86
614.7	5.19
615.035	4.76
615.369	5.01
615.703	4.96
616.037	4.9
616.371	4.88
616.705	5.08
617.039	4.89
617.373	5.06
617.707	4.99
618.041	4.72
618.375	4.41
618.709	5.01
619.042	5.12
619.376	5.06
619.71	5.16
620.043	5.3
620.377	5.05
620.71	4.73
621.043	5.42
621.377	5.14
621.71	5.37
622.043	4.68
622.376	4.96
622.709	5.26
623.043	5.02
623.376	4.95
623.709	5.1
624.041	4.98
624.374	5.26
624.707	4.9
625.04	5.08
625.373	5.12
625.705	5.08
626.038	4.97
626.37	4.73
626.703	5.03
627.035	5.06
627.368	5.15
627.7	5.14
628.032	5.13
628.365	5.22
628.697	5.19
629.029	5
629.361	5.02
629.693	4.96
630.025	5.08
630.357	5.05
630.689	4.85
631.021	5.39
631.353	5.17
631.684	4.93
632.016	4.93
632.348	4.78
632.679	5.39
633.011	5.24
633.342	5.02
633.674	4.79
634.005	5.09
634.336	5.37
634.668	4.95
634.999	4.98
635.33	5.03
635.661	5.03
635.992	5.23
636.323	4.95
636.654	5.17
636.985	4.83
637.316	4.92
637.647	5.08
637.977	5.25
638.308	5.23
638.639	5.04
638.969	5.21
639.3	5.19
639.63	5.34
639.961	5.38
640.291	4.91
640.622	5.27
640.952	5.29
641.282	4.95
641.612	4.7
641.943	4.84
642.273	5.06
642.603	5.4
642.933	5.35
643.263	5.53
643.592	5.3
643.922	5.11
644.252	4.72
644.582	5.22
644.911	4.91
645.241	5.13
645.571	5.24
645.9	5.22
646.23	5.62
646.559	5.01
646.888	5.45
647.218	5.14
647.547	5.29
647.876	5
648.205	4.61
648.534	4.96
648.863	4.64
649.192	5.25
649.521	5.06
649.85	5.15
650.179	5.01
650.508	4.83
650.837	5.3
651.165	5.47
651.494	5.3
651.822	5.4
652.151	5.17
652.479	5.06
652.808	5.12
653.136	5.57
653.465	5.04
653.793	5.37
654.121	5.28
654.449	5.08
654.777	4.89
655.105	5.11
655.433	5.11
655.761	5.37
656.089	5.57
656.417	5.5
656.745	5.24
657.073	5.17
657.4	5.29
657.728	4.87
658.056	5.51
658.383	5.07
658.711	5.86
659.038	5.68
659.365	5.56
659.693	5.1
660.02	5.04
660.347	5.48
660.674	5.16
661.001	5.28
661.329	5.24
661.656	5.08
661.982	5.19
662.309	5.18
662.636	5.45
662.963	4.86
663.29	5.1
663.616	5.16
663.943	5.44
664.27	5.3
664.596	5.33
664.923	5.92
665.249	5.44
665.576	4.99
665.902	5.05
666.228	5.23
666.554	5.85
666.881	5.08
667.207	5.59
667.533	5.65
667.859	5.74
668.185	5.3
668.511	5.55
668.837	5.37
669.162	5.17
669.488	4.86
669.814	5.07
670.139	5.1
670.465	5.75
670.791	5.41
671.116	5.14
671.442	4.93
671.767	5.62
672.092	5.76
672.418	5.29
672.743	5.2
673.068	4.72
673.393	5.7
673.718	4.9
674.043	5.2
674.368	5.1
674.693	5.05
675.018	5.45
675.343	5.89
675.667	5.32
675.992	5.13
676.317	4.89
676.641	5.76
676.966	5.76
677.29	5.05
677.615	5.36
677.939	5.26
678.264	4.96
678.588	5.95
678.912	5.1
679.236	5.09
679.56	5
679.885	5.22
680.209	5.42
680.532	5.8
680.856	5.33
681.18	6.33
681.504	5.24
681.828	5
682.152	5.17
682.475	5.44
682.799	5.54
683.122	5.57
683.446	5.31
683.769	6.11
684.093	5.41
684.416	5.15
684.739	4.76
685.062	5.76
685.386	5.74
685.709	5.15
686.032	5.58
686.355	5.17
686.678	6.05
687.001	5.34
687.324	5.43
687.646	5.64
687.969	5.65
688.292	5.65
688.614	5
688.937	5.91
689.26	6.07
689.582	6.01
689.904	5.2
690.227	5.35
690.549	5.68
690.871	5
691.194	5.35
691.516	5.44
691.838	6.66
692.16	5.44
692.482	5.32
