Data from 0009_chest_Reflection__2__303.txt Node

Date: Thu Dec 15 19:04:28 CST 2022
User: ToomeyLab
Spectrometer: FLMS14357
Trigger mode: 0
Integration Time (sec): 1.000000E-2
Scans to average: 100
Electric dark correction enabled: true
Nonlinearity correction enabled: false
Boxcar width: 0
XAxis mode: Wavelengths
Number of Pixels in Spectrum: 2048
>>>>>Begin Spectral Data<<<<<
189.047	246.47
189.435	246.47
189.823	246.47
190.211	-1133.06
190.599	134.68
190.987	128.45
191.375	81.11
191.763	95.61
192.151	45.39
192.538	-67.61
192.926	115.12
193.314	-751.09
193.702	225.68
194.089	144.25
194.477	62.64
194.864	50.9
195.252	103.52
195.639	109.53
196.027	-4495.24
196.414	151.02
196.801	-7.04
197.189	49.21
197.576	-397.12
197.963	-14.31
198.351	9.01
198.738	-43.92
199.125	-87.38
199.512	43.82
199.899	-83.68
200.286	-44.24
200.673	45.4
201.06	-8.04
201.447	-28.2
201.833	-24.71
202.22	30.35
202.607	-24.43
202.994	-41.68
203.38	9.82
203.767	-18.86
204.154	17.49
204.54	23.79
204.927	27.32
205.313	-15.49
205.699	-2.81
206.086	14.74
206.472	19.86
206.858	-28.9
207.245	0.73
207.631	14.19
208.017	42.71
208.403	-60.94
208.789	-18.05
209.175	-5.45
209.561	-341.93
209.947	-1.89
210.333	-13.5
210.719	26.36
211.105	43.24
211.491	-7.56
211.876	-2.45
212.262	14.64
212.648	13.24
213.034	26.77
213.419	0.12
213.805	-14.62
214.19	-24.25
214.576	14.07
214.961	29.69
215.346	-37.82
215.732	19.51
216.117	5.49
216.502	-24.2
216.888	2.04
217.273	-13.99
217.658	-18.2
218.043	-39.32
218.428	-11.93
218.813	32.52
219.198	-25.53
219.583	-12.4
219.968	4.6
220.353	-10.94
220.738	-4.01
221.122	1.53
221.507	-9.9
221.892	-12.3
222.276	4.75
222.661	-17.1
223.046	-5.22
223.43	5.17
223.815	0.15
224.199	-5.58
224.583	-3.98
224.968	-1.79
225.352	-7.39
225.736	8.65
226.121	-2.22
226.505	-3.13
226.889	-1.34
227.273	0.31
227.657	8.57
228.041	5.59
228.425	0.1
228.809	0.56
229.193	4.77
229.577	4.56
229.961	5.18
230.344	5.6
230.728	5.75
231.112	4.67
231.495	3.79
231.879	2.98
232.263	5.12
232.646	4.56
233.03	5.42
233.413	2.92
233.797	4.1
234.18	3.19
234.563	5.2
234.946	4.21
235.33	4.05
235.713	5.53
236.096	6.04
236.479	5.09
236.862	2.49
237.245	4.13
237.628	4.43
238.011	4.66
238.394	3.76
238.777	3.21
239.16	6.12
239.543	3.96
239.925	3.56
240.308	3.02
240.691	4.42
241.073	3.45
241.456	3.19
241.838	3.81
242.221	4.67
242.603	5.27
242.986	4.37
243.368	4.35
243.75	4.65
244.133	4.6
244.515	4.5
244.897	4.44
245.279	4.05
245.661	4.89
246.043	4.61
246.425	4.51
246.807	4.23
247.189	4.58
247.571	4.22
247.953	4.17
248.335	4.45
248.717	4.76
249.098	4.63
249.48	4.23
249.862	4.21
250.243	4.89
250.625	4.85
251.006	4.46
251.388	3.84
251.769	3.6
252.151	2.94
252.532	3.15
252.913	4.32
253.295	4.31
253.676	4.02
254.057	4.14
254.438	4.4
254.819	3.77
255.2	4.21
255.581	4.7
255.962	5.12
256.343	4.34
256.724	3.74
257.105	3.97
257.486	3.57
257.867	3.46
258.247	4.41
258.628	4.4
259.009	3.61
259.389	3.86
259.77	3.53
260.15	5.03
260.531	4
260.911	4.24
261.292	4.31
261.672	4.19
262.052	4.28
262.432	3.88
262.813	4.35
263.193	4.22
263.573	4.54
263.953	3.87
264.333	4.22
264.713	4.35
265.093	4.56
265.473	3.5
265.853	4.07
266.233	4.29
266.612	3.25
266.992	4.97
267.372	4.55
267.752	4.49
268.131	4.1
268.511	3.79
268.89	4.74
269.27	3.33
269.649	3.87
270.029	3.82
270.408	3.61
270.787	3.46
271.167	3.93
271.546	4.54
271.925	4.23
272.304	4.09
272.683	3.71
273.062	3.79
273.441	3.87
273.82	3.9
274.199	3.74
274.578	4.2
274.957	4.07
275.336	4.05
275.715	4.46
276.093	3.66
276.472	3.5
276.851	3.75
277.229	3.93
277.608	3.52
277.986	3.87
278.365	4.27
278.743	3.86
279.122	3.92
279.5	4.2
279.878	3.92
280.257	4.21
280.635	4.14
281.013	3.19
281.391	4.19
281.769	4.05
282.147	4.02
282.525	3.9
282.903	4.17
283.281	4.17
283.659	4.2
284.037	3.68
284.415	3.86
284.792	3.93
285.17	3.63
285.548	3.65
285.925	3.9
286.303	4.37
286.68	4.21
287.058	3.55
287.435	3.98
287.813	4.25
288.19	3.85
288.567	3.91
288.945	3.74
289.322	3.82
289.699	4.01
290.076	3.98
290.453	3.76
290.83	3.95
291.207	3.87
291.584	4.47
291.961	3.95
292.338	3.76
292.715	3.7
293.092	4.13
293.469	3.98
293.845	4.28
294.222	4.71
294.599	3.68
294.975	3.85
295.352	4.13
295.728	3.9
296.105	4.23
296.481	4.39
296.858	4.14
297.234	3.73
297.61	3.98
297.986	4.63
298.363	3.98
298.739	4.48
299.115	4.19
299.491	4.31
299.867	3.64
300.243	4.31
300.619	3.86
300.995	4.08
301.371	4.32
301.746	4.04
302.122	3.56
302.498	4.04
302.874	4.51
303.249	4.46
303.625	3.77
304	4.69
304.376	4.56
304.751	4.27
305.127	3.73
305.502	3.98
305.878	4.1
306.253	3.66
306.628	4.22
307.003	4.26
307.378	3.89
307.754	4.23
308.129	3.89
308.504	4.66
308.879	3.87
309.254	4.46
309.629	4.42
310.003	3.93
310.378	4.4
310.753	4.39
311.128	4.03
311.502	4.37
311.877	4.33
312.252	4.15
312.626	4.68
313.001	4.61
313.375	4.63
313.75	4.6
314.124	4.26
314.498	4.35
314.873	4.72
315.247	4.43
315.621	4.38
315.995	4.47
316.369	4.04
316.743	4.16
317.117	3.77
317.491	4.39
317.865	4.29
318.239	4.92
318.613	4.16
318.987	3.95
319.361	3.97
319.734	4.07
320.108	4.36
320.482	4.73
320.855	4.56
321.229	4.1
321.602	4.51
321.976	4.03
322.349	4.39
322.723	3.86
323.096	4.1
323.469	3.79
323.843	4.06
324.216	4.74
324.589	4.69
324.962	4.2
325.335	4.18
325.708	4.34
326.081	4.39
326.454	4.2
326.827	4.1
327.2	3.99
327.573	4.89
327.945	4.24
328.318	4.61
328.691	4.47
329.063	4.21
329.436	4.66
329.809	4.84
330.181	4.85
330.553	4.94
330.926	4.72
331.298	4.25
331.671	4.52
332.043	4.44
332.415	4.39
332.787	4.32
333.159	4.56
333.532	4.23
333.904	4.69
334.276	4.59
334.648	4.45
335.02	4.09
335.391	4.64
335.763	4.54
336.135	4.56
336.507	4.76
336.879	4.09
337.25	4.28
337.622	4.74
337.993	4.62
338.365	4.25
338.736	4.54
339.108	4.47
339.479	4.49
339.851	4.36
340.222	4.72
340.593	4.51
340.964	4.76
341.336	4.37
341.707	4.34
342.078	4.43
342.449	4.41
342.82	4.51
343.191	4.9
343.562	4.65
343.933	4.41
344.303	4.81
344.674	4.62
345.045	4.83
345.416	4.9
345.786	4.51
346.157	4.73
346.527	4.51
346.898	4.5
347.268	4.66
347.639	4.96
348.009	4.61
348.38	4.46
348.75	4.94
349.12	4.92
349.49	4.69
349.861	4.77
350.231	4.87
350.601	4.63
350.971	4.48
351.341	4.92
351.711	4.79
352.081	4.27
352.45	4.34
352.82	4.48
353.19	4.41
353.56	4.57
353.929	4.51
354.299	4.92
354.669	4.82
355.038	4.99
355.408	4.85
355.777	4.92
356.147	4.65
356.516	4.36
356.885	4.79
357.254	4.55
357.624	4.22
357.993	4.94
358.362	4.96
358.731	5.04
359.1	4.77
359.469	4.89
359.838	5.01
360.207	4.74
360.576	5.17
360.945	4.92
361.314	4.78
361.682	4.73
362.051	4.74
362.42	4.83
362.788	4.83
363.157	4.57
363.525	4.84
363.894	4.6
364.262	4.84
364.631	5.04
364.999	4.8
365.367	4.54
365.735	4.83
366.104	4.81
366.472	4.84
366.84	4.63
367.208	5.01
367.576	4.73
367.944	5.1
368.312	4.82
368.68	5.32
369.048	4.71
369.416	4.53
369.783	4.88
370.151	5.03
370.519	5.34
370.886	4.9
371.254	4.92
371.621	5.28
371.989	4.94
372.356	5.05
372.724	4.83
373.091	4.74
373.458	4.87
373.826	5.24
374.193	4.89
374.56	4.92
374.927	4.7
375.294	5.31
375.661	5.12
376.028	4.77
376.395	5.19
376.762	4.85
377.129	5.06
377.496	5.06
377.863	5.22
378.229	5.1
378.596	5.41
378.963	5.3
379.329	5.07
379.696	4.92
380.062	4.86
380.429	4.7
380.795	5.2
381.161	4.99
381.528	4.74
381.894	5.14
382.26	5.03
382.626	5.16
382.993	5.39
383.359	5.14
383.725	4.84
384.091	5.26
384.457	4.88
384.823	5.2
385.188	5.09
385.554	4.98
385.92	5.09
386.286	4.75
386.651	4.93
387.017	5.39
387.383	5.04
387.748	5.34
388.114	5.26
388.479	4.99
388.845	4.73
389.21	5.28
389.575	5.28
389.94	5.15
390.306	5.39
390.671	5.01
391.036	5.15
391.401	5.26
391.766	5.17
392.131	5.46
392.496	5.32
392.861	5.13
393.226	5.04
393.591	5.02
393.956	5.03
394.32	5.36
394.685	5.09
395.05	5.03
395.414	5.26
395.779	5.38
396.143	5.22
396.508	5.43
396.872	5.15
397.236	5.44
397.601	5.18
397.965	5.24
398.329	5.38
398.694	5.02
399.058	5.25
399.422	5.09
399.786	5.22
400.15	5.22
400.514	5.49
400.878	5.4
401.242	5.42
401.605	5.36
401.969	5.4
402.333	5.33
402.697	5.88
403.06	5.25
403.424	5.5
403.787	5.53
404.151	5.38
404.514	5.48
404.878	5.27
405.241	5.42
405.604	5.29
405.968	5.03
406.331	5.42
406.694	5.52
407.057	5.42
407.42	5.49
407.783	5.49
408.146	5.44
408.509	5.45
408.872	5.31
409.235	5.47
409.598	5.3
409.961	5.46
410.323	5.21
410.686	5.37
411.049	5.52
411.411	5.43
411.774	5.57
412.136	5.65
412.499	5.56
412.861	5.26
413.223	5.41
413.586	5.64
413.948	5.57
414.31	5.41
414.672	5.45
415.035	5.47
415.397	5.3
415.759	5.23
416.121	5.75
416.483	5.47
416.845	5.44
417.206	5.4
417.568	5.41
417.93	5.58
418.292	5.5
418.653	5.46
419.015	5.54
419.377	5.41
419.738	5.49
420.1	5.32
420.461	5.4
420.822	5.48
421.184	5.47
421.545	5.48
421.906	5.44
422.267	5.4
422.629	5.43
422.99	5.41
423.351	5.43
423.712	5.45
424.073	5.57
424.434	5.58
424.795	5.46
425.155	5.39
425.516	5.45
425.877	5.54
426.238	5.47
426.598	5.47
426.959	5.54
427.32	5.4
427.68	5.57
428.041	5.61
428.401	5.46
428.761	5.7
429.122	5.65
429.482	5.7
429.842	5.66
430.202	5.78
430.563	5.67
430.923	5.63
431.283	5.53
431.643	5.63
432.003	5.64
432.363	5.66
432.722	5.44
433.082	5.6
433.442	5.7
433.802	5.62
434.161	5.68
434.521	5.7
434.881	5.61
435.24	5.71
435.6	5.75
435.959	5.61
436.319	5.66
436.678	5.72
437.037	5.7
437.396	5.65
437.756	5.57
438.115	5.79
438.474	5.72
438.833	5.73
439.192	5.59
439.551	5.6
439.91	5.68
440.269	5.67
440.628	5.67
440.987	5.63
441.345	5.71
441.704	5.7
442.063	5.7
442.421	5.69
442.78	5.79
443.138	5.73
443.497	5.76
443.855	5.73
444.214	5.71
444.572	6.02
444.93	5.83
445.288	5.76
445.647	5.69
446.005	5.75
446.363	5.81
446.721	5.72
447.079	5.73
447.437	5.74
447.795	5.68
448.153	5.73
448.51	5.76
448.868	5.69
449.226	5.8
449.584	5.75
449.941	5.88
450.299	5.67
450.656	5.86
451.014	5.78
451.371	5.79
451.729	5.81
452.086	5.86
452.443	5.94
452.801	5.82
453.158	6.09
453.515	5.88
453.872	5.92
454.229	5.8
454.586	5.81
454.943	5.96
455.3	5.78
455.657	5.84
456.014	5.92
456.371	5.97
456.727	5.93
457.084	5.93
457.441	5.91
457.797	6
458.154	5.94
458.51	5.86
458.867	5.97
459.223	5.86
459.58	5.98
459.936	5.91
460.292	5.85
460.648	5.83
461.005	5.82
461.361	5.94
461.717	5.88
462.073	5.92
462.429	5.97
462.785	6.06
463.141	5.99
463.496	6.13
463.852	6.1
464.208	6.16
464.564	5.93
464.919	6.08
465.275	6.02
465.631	6.23
465.986	6.15
466.342	6.08
466.697	6.08
467.052	6.36
467.408	6.13
467.763	6.19
468.118	5.94
468.473	6.04
468.829	5.93
469.184	6.14
469.539	5.95
469.894	6.08
470.249	6.23
470.603	6.16
470.958	6.31
471.313	6.15
471.668	6.07
472.023	6.19
472.377	6.21
472.732	6.27
473.086	6.31
473.441	6.2
473.795	6.39
474.15	6.1
474.504	6.2
474.859	5.98
475.213	6.41
475.567	6.09
475.921	6.37
476.275	6.26
476.63	6.2
476.984	6.21
477.338	6.34
477.692	6.22
478.045	6.34
478.399	6.33
478.753	6.12
479.107	6.36
479.461	6.14
479.814	6.2
480.168	6.24
480.521	6.26
480.875	6.32
481.228	6.37
481.582	6.24
481.935	6.38
482.289	6.26
482.642	6.37
482.995	6.3
483.348	6.14
483.701	6.24
484.055	6.2
484.408	6.23
484.761	6.04
485.114	5.97
485.466	5.94
485.819	5.96
486.172	6
486.525	6.06
486.878	6.08
487.23	6.16
487.583	6.18
487.936	6.2
488.288	6.19
488.641	6.1
488.993	6.07
489.345	6.09
489.698	6.13
490.05	6.09
490.402	6.15
490.754	6.2
491.107	6.23
491.459	6.41
491.811	6.33
492.163	6.36
492.515	6.24
492.866	6.22
493.218	6.22
493.57	6.28
493.922	6.24
494.274	6.33
494.625	6.42
494.977	6.47
495.328	6.53
495.68	6.5
496.031	6.41
496.383	6.48
496.734	6.49
497.086	6.72
497.437	6.54
497.788	6.62
498.139	6.48
498.49	6.55
498.842	6.57
499.193	6.49
499.544	6.56
499.894	6.61
500.245	6.67
500.596	6.65
500.947	6.65
501.298	6.66
501.648	6.64
501.999	6.8
502.35	6.61
502.7	6.85
503.051	6.7
503.401	6.76
503.752	6.66
504.102	6.8
504.452	6.77
504.803	6.61
505.153	6.79
505.503	6.83
505.853	6.85
506.203	6.84
506.553	6.76
506.903	6.78
507.253	6.81
507.603	6.9
507.953	6.84
508.303	6.92
508.652	6.85
509.002	6.9
509.352	6.91
509.701	6.73
510.051	6.91
510.4	6.96
510.75	6.87
511.099	6.72
511.449	6.94
511.798	6.85
512.147	6.89
512.496	7.02
512.846	6.85
513.195	6.97
513.544	7.05
513.893	6.99
514.242	6.99
514.591	6.96
514.939	7.03
515.288	7.11
515.637	7.08
515.986	7.05
516.334	7.22
516.683	7.12
517.032	7.07
517.38	7.08
517.729	7.07
518.077	7.12
518.426	7.1
518.774	7.07
519.122	7.1
519.47	7.11
519.819	7.06
520.167	7.08
520.515	7.15
520.863	7.07
521.211	7.04
521.559	7.22
521.907	7.23
522.255	7.2
522.602	7.16
522.95	7.34
523.298	7.38
523.645	7.29
523.993	7.19
524.341	7.37
524.688	7.38
525.036	7.3
525.383	7.32
525.73	7.29
526.078	7.39
526.425	7.38
526.772	7.27
527.119	7.36
527.466	7.41
527.814	7.37
528.161	7.44
528.508	7.42
528.854	7.37
529.201	7.31
529.548	7.28
529.895	7.15
530.242	7.18
530.588	7.22
530.935	7.22
531.282	7.26
531.628	7.36
531.975	7.33
532.321	7.5
532.667	7.45
533.014	7.6
533.36	7.62
533.706	7.57
534.052	7.62
534.399	7.54
534.745	7.49
535.091	7.53
535.437	7.6
535.783	7.55
536.129	7.61
536.474	7.74
536.82	7.74
537.166	7.75
537.512	7.84
537.857	7.83
538.203	7.8
538.549	7.78
538.894	7.84
539.239	7.89
539.585	7.89
539.93	7.99
540.276	8.06
540.621	8.04
540.966	8.1
541.311	8.11
541.656	7.82
542.001	7.93
542.346	7.91
542.691	7.84
543.036	7.84
543.381	7.88
543.726	7.89
544.071	7.97
544.415	8.01
544.76	7.98
545.105	8.1
545.449	8.14
545.794	8.13
546.138	8.1
546.483	8.31
546.827	8.15
547.171	8.25
547.516	8.36
547.86	8.38
548.204	8.41
548.548	8.27
548.892	8.36
549.236	8.47
549.58	8.33
549.924	8.53
550.268	8.62
550.612	8.6
550.956	8.6
551.3	8.84
551.643	8.52
551.987	8.7
552.33	8.82
552.674	8.66
553.017	8.79
553.361	8.72
553.704	8.75
554.048	8.65
554.391	8.78
554.734	8.79
555.077	8.73
555.42	8.81
555.764	8.8
556.107	8.95
556.45	9.01
556.793	9.09
557.135	9.09
557.478	9.08
557.821	9.05
558.164	9.16
558.507	9.06
558.849	9.28
559.192	9.11
559.534	8.89
559.877	8.96
560.219	9.1
560.562	9.12
560.904	9.48
561.246	9.28
561.589	9.43
561.931	9.33
562.273	9.38
562.615	9.29
562.957	9.27
563.299	9.33
563.641	9.42
563.983	9.31
564.325	9.37
564.667	9.43
565.008	9.37
565.35	9.35
565.692	9.59
566.033	9.48
566.375	9.62
566.716	9.62
567.058	9.73
567.399	9.7
567.741	9.64
568.082	9.6
568.423	9.66
568.764	9.67
569.105	9.76
569.447	9.65
569.788	9.73
570.129	9.76
570.47	9.71
570.811	9.84
571.151	9.83
571.492	10.05
571.833	9.96
572.174	9.93
572.514	9.99
572.855	10.2
573.195	9.94
573.536	10.12
573.876	9.98
574.217	10.12
574.557	10.11
574.898	10.09
575.238	10.34
575.578	10.3
575.918	10.37
576.258	10.56
576.598	10.18
576.938	10.21
577.278	10.36
577.618	10.43
577.958	10.42
578.298	10.41
578.638	10.42
578.977	10.51
579.317	10.75
579.657	10.61
579.996	10.74
580.336	10.78
580.675	10.51
581.014	10.68
581.354	10.58
581.693	11.05
582.032	11.02
582.372	10.98
582.711	11.11
583.05	10.89
583.389	10.99
583.728	11.11
584.067	10.86
584.406	11.07
584.745	11.06
585.083	11.17
585.422	11.06
585.761	11.18
586.1	11.15
586.438	11.26
586.777	11.24
587.115	11.61
587.454	11.12
587.792	11.37
588.13	11.39
588.469	11.32
588.807	11.41
589.145	11.47
589.483	11.29
589.821	11.41
590.159	11.6
590.497	11.56
590.835	11.9
591.173	11.76
591.511	11.85
591.849	11.66
592.187	11.44
592.524	12.06
592.862	11.81
593.2	11.75
593.537	11.68
593.875	11.94
594.212	12.09
594.55	12.22
594.887	11.99
595.224	12.12
595.561	12.13
595.899	12.31
596.236	12.26
596.573	12.13
596.91	12.32
597.247	12.34
597.584	12.4
597.921	12.3
598.258	12.13
598.594	12.27
598.931	12.05
599.268	12.25
599.604	12.26
599.941	12.25
600.277	12.15
600.614	12.54
600.95	12.34
601.287	12.46
601.623	12.3
601.959	12.89
602.296	12.78
602.632	12.81
602.968	12.81
603.304	12.78
603.64	12.71
603.976	12.45
604.312	12.8
604.648	12.81
604.984	12.99
605.319	12.89
605.655	13.07
605.991	12.97
606.326	13.03
606.662	12.88
606.998	13.01
607.333	13.05
607.668	13.21
608.004	13.13
608.339	13.22
608.674	13.19
609.01	13.59
609.345	13.33
609.68	13.24
610.015	13.57
610.35	13.26
610.685	13.3
611.02	13.46
611.355	13.49
611.689	13.52
612.024	13.5
612.359	13.79
612.694	13.8
613.028	13.76
613.363	13.86
613.697	13.81
614.032	13.89
614.366	13.81
614.7	13.81
615.035	14.03
615.369	14.39
615.703	14.14
616.037	13.99
616.371	14.14
616.705	14.38
617.039	14.23
617.373	14.17
617.707	14.15
618.041	14.27
618.375	13.93
618.709	14.27
619.042	14.31
619.376	14.32
619.71	14.44
620.043	14.83
620.377	14.58
620.71	14.5
621.043	14.67
621.377	14.41
621.71	14.94
622.043	14.69
622.376	14.86
622.709	14.94
623.043	14.51
623.376	14.81
623.709	15.04
624.041	14.77
624.374	15.1
624.707	14.9
625.04	14.78
625.373	15.25
625.705	15.34
626.038	15.31
626.37	15.15
626.703	15.29
627.035	15.51
627.368	15.49
627.7	15.4
628.032	15.45
628.365	15.65
628.697	15.74
629.029	15.42
629.361	15.71
629.693	15.57
630.025	15.85
630.357	15.87
630.689	15.57
631.021	15.78
631.353	15.87
631.684	15.77
632.016	15.67
632.348	16.07
632.679	16.12
633.011	15.69
633.342	15.81
633.674	15.79
634.005	16.13
634.336	16.2
634.668	16.06
634.999	15.91
635.33	16.38
635.661	16.26
635.992	16.2
636.323	16.34
636.654	16.51
636.985	16.31
637.316	16.13
637.647	16.79
637.977	16.52
638.308	16.69
638.639	16.94
638.969	16.87
639.3	16.7
639.63	16.66
639.961	16.67
640.291	16.48
640.622	17.08
640.952	16.91
641.282	17
641.612	16.61
641.943	16.81
642.273	16.93
642.603	17.65
642.933	17.22
643.263	16.92
643.592	17.44
643.922	17.33
644.252	17.11
644.582	17.34
644.911	17.47
645.241	17.09
645.571	17.44
645.9	17.81
646.23	18.1
646.559	17.59
646.888	17.73
647.218	17.41
647.547	17.55
647.876	17.95
648.205	17.49
648.534	18.3
648.863	17.78
649.192	17.9
649.521	17.79
649.85	18
650.179	18.26
650.508	18.09
650.837	18.12
651.165	18.42
651.494	18.34
651.822	18.3
652.151	18.41
652.479	18.35
652.808	18.11
653.136	18.14
653.465	18.49
653.793	18.28
654.121	18.5
654.449	18.53
654.777	18.63
655.105	18.17
655.433	18.76
655.761	18.63
656.089	18.74
656.417	19.02
656.745	18.87
657.073	18.83
657.4	18.59
657.728	18.46
658.056	18.97
658.383	18.89
658.711	19.01
659.038	19.43
659.365	18.93
659.693	19.09
660.02	19.38
660.347	19.14
660.674	19.05
661.001	19.53
661.329	19.1
661.656	19.11
661.982	19.14
662.309	19.54
662.636	19.07
662.963	19.81
663.29	19.76
663.616	19.36
663.943	20.01
664.27	19.95
664.596	19.53
664.923	19.5
665.249	20
665.576	19.43
665.902	20.02
666.228	20.21
666.554	20.22
666.881	19.63
667.207	19.85
667.533	20.28
667.859	20.18
668.185	20.16
668.511	20.73
668.837	20.2
669.162	20.31
669.488	20.33
669.814	19.79
670.139	20.11
670.465	21.08
670.791	19.91
671.116	20.36
671.442	20.02
671.767	20.22
672.092	20.24
672.418	20.14
672.743	20.8
673.068	20.1
673.393	20.72
673.718	20.66
674.043	20.81
674.368	20.85
674.693	21.25
675.018	21.72
675.343	20.98
675.667	20.92
675.992	21.23
676.317	20.58
676.641	21.27
676.966	21.81
677.29	21.11
677.615	20.75
677.939	21.6
678.264	21.04
678.588	21.89
678.912	21.75
679.236	21.47
679.56	21.44
679.885	21.47
680.209	22.42
680.532	22.16
680.856	22.05
681.18	22.21
681.504	21.78
681.828	21.7
682.152	21.97
682.475	22.32
682.799	21.59
683.122	21.63
683.446	21.4
683.769	22.22
684.093	22.21
684.416	21.48
