Data from 0009_crown_Reflection__3__310.txt Node

Date: Thu Dec 15 19:06:32 CST 2022
User: ToomeyLab
Spectrometer: FLMS14357
Trigger mode: 0
Integration Time (sec): 1.000000E-2
Scans to average: 100
Electric dark correction enabled: true
Nonlinearity correction enabled: false
Boxcar width: 0
XAxis mode: Wavelengths
Number of Pixels in Spectrum: 2048
>>>>>Begin Spectral Data<<<<<
189.047	-26.59
189.435	-26.59
189.823	-26.59
190.211	-523.47
190.599	81.75
190.987	130.97
191.375	1.63
191.763	42.33
192.151	26.96
192.538	-26.6
192.926	270.58
193.314	-172.27
193.702	256.53
194.089	13.58
194.477	-14.51
194.864	24.53
195.252	44.9
195.639	98.18
196.027	-8316.67
196.414	111.76
196.801	23.33
197.189	3.02
197.576	318.35
197.963	-132.29
198.351	-20.21
198.738	-37.6
199.125	-142.42
199.512	3.04
199.899	-49.87
200.286	-25.03
200.673	35.1
201.06	-68.58
201.447	5.55
201.833	23.1
202.22	33.62
202.607	-53.05
202.994	-13.24
203.38	4.8
203.767	-35.8
204.154	29.82
204.54	-0.03
204.927	9.56
205.313	21.62
205.699	-10.02
206.086	29.85
206.472	12.14
206.858	-21.72
207.245	-23.06
207.631	-5.71
208.017	48.14
208.403	-44.71
208.789	-23.56
209.175	31.49
209.561	-495.09
209.947	-37.15
210.333	-6.16
210.719	-18.61
211.105	33.56
211.491	-5.03
211.876	-16.62
212.262	-36.4
212.648	2.29
213.034	-7.05
213.419	8.4
213.805	-53.12
214.19	-78.74
214.576	-40.2
214.961	4.06
215.346	-31.59
215.732	-11.19
216.117	-4.36
216.502	-27.56
216.888	-28.44
217.273	6.13
217.658	-54.76
218.043	-43.29
218.428	-22.97
218.813	-45.27
219.198	-37.86
219.583	-25.3
219.968	-4.97
220.353	-20.12
220.738	-25.74
221.122	-13.2
221.507	-15.13
221.892	-54.48
222.276	-24.18
222.661	-25.86
223.046	-16.33
223.43	11.57
223.815	-1.52
224.199	-13.72
224.583	-9.39
224.968	-4.38
225.352	2.25
225.736	7
226.121	-0.93
226.505	2.95
226.889	-0.62
227.273	-1.67
227.657	1.42
228.041	6.54
228.425	2.29
228.809	4.97
229.193	5.51
229.577	4.92
229.961	6.19
230.344	6.3
230.728	7.29
231.112	6.85
231.495	5.15
231.879	3.92
232.263	6.06
232.646	5.85
233.03	7.64
233.413	4.63
233.797	4.38
234.18	5.19
234.563	4.08
234.946	4.91
235.33	5.42
235.713	5.48
236.096	8.27
236.479	6.78
236.862	4.2
237.245	6.19
237.628	5.3
238.011	5.57
238.394	3.92
238.777	5.24
239.16	5.34
239.543	7.46
239.925	6.02
240.308	2.71
240.691	4.67
241.073	5.18
241.456	5.47
241.838	5.79
242.221	5.78
242.603	5.51
242.986	5.91
243.368	5.57
243.75	6.24
244.133	6.47
244.515	5.99
244.897	5.53
245.279	5.7
245.661	5.52
246.043	5.24
246.425	6.13
246.807	5.03
247.189	6.01
247.571	5.63
247.953	5.9
248.335	5.89
248.717	6.14
249.098	6.08
249.48	5.61
249.862	5.99
250.243	5.95
250.625	5.95
251.006	6.6
251.388	5.51
251.769	4.6
252.151	5.72
252.532	4.79
252.913	5.15
253.295	5.47
253.676	5.92
254.057	5.71
254.438	5.68
254.819	5.95
255.2	5.2
255.581	6.1
255.962	5.72
256.343	5.05
256.724	5.19
257.105	4.89
257.486	4.19
257.867	4.67
258.247	5.04
258.628	5.84
259.009	4.94
259.389	4.24
259.77	4.9
260.15	5.88
260.531	5.18
260.911	5.24
261.292	5.66
261.672	5.44
262.052	5.44
262.432	5.28
262.813	5.25
263.193	5.16
263.573	5.6
263.953	4.52
264.333	5.21
264.713	5.36
265.093	4.84
265.473	4.06
265.853	4.87
266.233	5.07
266.612	4.36
266.992	5.11
267.372	5.27
267.752	5.38
268.131	4.96
268.511	5.06
268.89	5.46
269.27	4.45
269.649	5.21
270.029	5.05
270.408	5.14
270.787	5.17
271.167	5
271.546	5.64
271.925	5.16
272.304	4.79
272.683	5.08
273.062	4.99
273.441	5.05
273.82	5.09
274.199	4.86
274.578	5.27
274.957	5.02
275.336	4.97
275.715	5.6
276.093	4.81
276.472	5.11
276.851	5.22
277.229	4.68
277.608	4.64
277.986	4.81
278.365	5.53
278.743	4.8
279.122	4.89
279.5	4.93
279.878	4.41
280.257	4.74
280.635	4.74
281.013	4.53
281.391	4.87
281.769	4.95
282.147	5.18
282.525	4.93
282.903	4.82
283.281	5.35
283.659	5.1
284.037	4.73
284.415	4.56
284.792	4.8
285.17	4.59
285.548	4.6
285.925	4.99
286.303	5.04
286.68	4.98
287.058	4.98
287.435	4.72
287.813	4.94
288.19	5.11
288.567	5.04
288.945	4.61
289.322	5.44
289.699	5.06
290.076	4.79
290.453	4.6
290.83	5.04
291.207	5.01
291.584	4.98
291.961	4.93
292.338	4.71
292.715	4.61
293.092	4.93
293.469	4.8
293.845	5.04
294.222	5.32
294.599	4.55
294.975	4.46
295.352	4.92
295.728	4.98
296.105	4.73
296.481	4.86
296.858	5.21
297.234	4.35
297.61	4.82
297.986	5.03
298.363	4.66
298.739	5.22
299.115	4.85
299.491	5.13
299.867	4.47
300.243	4.8
300.619	4.47
300.995	5.15
301.371	5.13
301.746	5.04
302.122	4.52
302.498	4.68
302.874	5.34
303.249	4.92
303.625	4.47
304	5.02
304.376	5.1
304.751	4.53
305.127	4.47
305.502	4.79
305.878	4.55
306.253	4.22
306.628	4.8
307.003	4.43
307.378	4.28
307.754	4.89
308.129	4.25
308.504	4.3
308.879	4.66
309.254	4.88
309.629	4.71
310.003	4.77
310.378	4.77
310.753	4.82
311.128	4.45
311.502	4.93
311.877	4.64
312.252	4.62
312.626	4.86
313.001	4.88
313.375	4.74
313.75	5.01
314.124	4.75
314.498	5.13
314.873	4.35
315.247	4.59
315.621	4.47
315.995	4.61
316.369	4.02
316.743	4.44
317.117	4.17
317.491	4.69
317.865	4.23
318.239	5.02
318.613	4.09
318.987	4.3
319.361	4.67
319.734	4.83
320.108	4.79
320.482	4.76
320.855	4.56
321.229	4.96
321.602	4.63
321.976	4.36
322.349	5.31
322.723	4.47
323.096	4.41
323.469	4.63
323.843	4.1
324.216	4.62
324.589	4.62
324.962	4.38
325.335	4.61
325.708	4.75
326.081	4.87
326.454	4.88
326.827	4.77
327.2	4.5
327.573	5.12
327.945	4.38
328.318	4.26
328.691	4.64
329.063	4.2
329.436	4.06
329.809	4.51
330.181	4.79
330.553	4.94
330.926	4.83
331.298	4.41
331.671	4.78
332.043	4.72
332.415	4.78
332.787	4.53
333.159	4.43
333.532	4.45
333.904	5.12
334.276	4.79
334.648	5.07
335.02	4.58
335.391	4.85
335.763	4.47
336.135	4.95
336.507	4.56
336.879	5.09
337.25	4.62
337.622	4.91
337.993	4.69
338.365	4.66
338.736	4.7
339.108	4.78
339.479	4.6
339.851	4.98
340.222	5.18
340.593	4.83
340.964	4.6
341.336	4.41
341.707	4.42
342.078	4.73
342.449	4.82
342.82	4.96
343.191	4.84
343.562	5.13
343.933	4.4
344.303	4.8
344.674	4.54
345.045	5.07
345.416	5.37
345.786	4.58
346.157	4.71
346.527	5.01
346.898	4.77
347.268	5.16
347.639	4.62
348.009	5.02
348.38	4.87
348.75	5
349.12	5.14
349.49	4.53
349.861	4.79
350.231	4.8
350.601	4.5
350.971	4.88
351.341	5.1
351.711	4.95
352.081	4.53
352.45	4.72
352.82	4.5
353.19	4.9
353.56	5.03
353.929	4.89
354.299	5.46
354.669	4.93
355.038	5.1
355.408	4.88
355.777	5.05
356.147	5.01
356.516	4.95
356.885	5.01
357.254	4.72
357.624	4.78
357.993	5.22
358.362	5.05
358.731	5.3
359.1	5.09
359.469	5.05
359.838	5.2
360.207	4.82
360.576	5.43
360.945	4.98
361.314	5.18
361.682	4.97
362.051	4.97
362.42	5.29
362.788	5.15
363.157	4.98
363.525	5.2
363.894	4.86
364.262	5.2
364.631	5.12
364.999	4.96
365.367	5.23
365.735	4.95
366.104	5.23
366.472	4.93
366.84	5.01
367.208	5.08
367.576	5.05
367.944	5.11
368.312	5.07
368.68	5.21
369.048	5.26
369.416	5.28
369.783	4.83
370.151	5.35
370.519	5.43
370.886	5.24
371.254	5.37
371.621	5.47
371.989	5.05
372.356	5.05
372.724	5.17
373.091	5.37
373.458	5.23
373.826	5.6
374.193	5.18
374.56	5.31
374.927	4.91
375.294	5.45
375.661	5.21
376.028	5.29
376.395	5.39
376.762	5
377.129	4.92
377.496	5.35
377.863	5.15
378.229	5.54
378.596	5.27
378.963	5.3
379.329	5.5
379.696	5.14
380.062	5.29
380.429	5.12
380.795	5.39
381.161	5.02
381.528	4.97
381.894	4.98
382.26	5.16
382.626	5.24
382.993	5.76
383.359	4.88
383.725	5.19
384.091	5.49
384.457	5.07
384.823	5.28
385.188	5.34
385.554	5.34
385.92	5.13
386.286	5.05
386.651	5.25
387.017	5.6
387.383	5.28
387.748	5.5
388.114	5.39
388.479	5.23
388.845	5.27
389.21	5.39
389.575	5.69
389.94	5.58
390.306	5.06
390.671	5.48
391.036	5.23
391.401	5.56
391.766	5.44
392.131	5.65
392.496	5.38
392.861	5.45
393.226	5.19
393.591	5.47
393.956	5.55
394.32	5.65
394.685	5.64
395.05	5.37
395.414	5.44
395.779	5.38
396.143	5.24
396.508	5.32
396.872	5.38
397.236	5.74
397.601	5.46
397.965	5.54
398.329	5.31
398.694	5.25
399.058	5.47
399.422	5.5
399.786	5.34
400.15	5.42
400.514	5.54
400.878	5.39
401.242	5.58
401.605	5.38
401.969	5.41
402.333	5.4
402.697	5.69
403.06	5.52
403.424	5.63
403.787	5.32
404.151	5.43
404.514	5.58
404.878	5.52
405.241	5.55
405.604	5.35
405.968	5.56
406.331	5.57
406.694	5.59
407.057	5.43
407.42	5.55
407.783	5.61
408.146	5.62
408.509	5.61
408.872	5.59
409.235	5.54
409.598	5.46
409.961	5.58
410.323	5.44
410.686	5.51
411.049	5.83
411.411	5.4
411.774	5.41
412.136	5.52
412.499	5.63
412.861	5.18
413.223	5.37
413.586	5.42
413.948	5.8
414.31	5.58
414.672	5.41
415.035	5.73
415.397	5.26
415.759	5.22
416.121	5.65
416.483	5.49
416.845	5.52
417.206	5.51
417.568	5.43
417.93	5.59
418.292	5.45
418.653	5.43
419.015	5.48
419.377	5.32
419.738	5.36
420.1	5.56
420.461	5.31
420.822	5.55
421.184	5.36
421.545	5.56
421.906	5.49
422.267	5.41
422.629	5.42
422.99	5.41
423.351	5.39
423.712	5.46
424.073	5.54
424.434	5.59
424.795	5.32
425.155	5.39
425.516	5.46
425.877	5.39
426.238	5.43
426.598	5.47
426.959	5.49
427.32	5.54
427.68	5.58
428.041	5.58
428.401	5.44
428.761	5.56
429.122	5.67
429.482	5.56
429.842	5.55
430.202	5.62
430.563	5.74
430.923	5.55
431.283	5.72
431.643	5.79
432.003	5.63
432.363	5.75
432.722	5.65
433.082	5.49
433.442	5.61
433.802	5.55
434.161	5.65
434.521	5.54
434.881	5.62
435.24	5.55
435.6	5.62
435.959	5.78
436.319	5.53
436.678	5.57
437.037	5.58
437.396	5.53
437.756	5.7
438.115	5.58
438.474	5.64
438.833	5.57
439.192	5.51
439.551	5.63
439.91	5.57
440.269	5.6
440.628	5.52
440.987	5.71
441.345	5.59
441.704	5.61
442.063	5.46
442.421	5.66
442.78	5.57
443.138	5.51
443.497	5.59
443.855	5.66
444.214	5.52
444.572	5.69
444.93	5.49
445.288	5.63
445.647	5.58
446.005	5.51
446.363	5.63
446.721	5.48
447.079	5.54
447.437	5.7
447.795	5.55
448.153	5.62
448.51	5.59
448.868	5.52
449.226	5.65
449.584	5.66
449.941	5.69
450.299	5.57
450.656	5.6
451.014	5.72
451.371	5.76
451.729	5.87
452.086	5.71
452.443	5.64
452.801	5.57
453.158	5.88
453.515	5.58
453.872	5.61
454.229	5.59
454.586	5.62
454.943	5.59
455.3	5.55
455.657	5.62
456.014	5.69
456.371	5.71
456.727	5.84
457.084	5.85
457.441	5.73
457.797	5.67
458.154	5.85
458.51	5.67
458.867	5.64
459.223	5.52
459.58	5.72
459.936	5.7
460.292	5.57
460.648	5.52
461.005	5.57
461.361	5.57
461.717	5.56
462.073	5.73
462.429	5.76
462.785	5.81
463.141	5.65
463.496	5.79
463.852	5.8
464.208	5.72
464.564	5.64
464.919	5.66
465.275	5.83
465.631	5.81
465.986	5.72
466.342	5.59
466.697	5.61
467.052	5.85
467.408	5.86
467.763	5.62
468.118	5.6
468.473	5.79
468.829	5.55
469.184	5.82
469.539	5.55
469.894	5.77
470.249	5.68
470.603	5.84
470.958	5.98
471.313	5.97
471.668	5.79
472.023	5.91
472.377	5.65
472.732	5.88
473.086	5.71
473.441	5.78
473.795	5.95
474.15	5.85
474.504	5.8
474.859	5.56
475.213	5.73
475.567	5.67
475.921	5.89
476.275	5.86
476.63	5.83
476.984	5.68
477.338	5.87
477.692	5.78
478.045	5.78
478.399	5.79
478.753	5.59
479.107	5.91
479.461	5.62
479.814	5.79
480.168	5.77
480.521	5.9
480.875	5.74
481.228	5.77
481.582	5.88
481.935	5.83
482.289	5.86
482.642	5.93
482.995	5.78
483.348	5.62
483.701	5.77
484.055	5.68
484.408	5.65
484.761	5.52
485.114	5.39
485.466	5.42
485.819	5.43
486.172	5.47
486.525	5.53
486.878	5.58
487.23	5.62
487.583	5.65
487.936	5.64
488.288	5.56
488.641	5.54
488.993	5.54
489.345	5.5
489.698	5.52
490.05	5.51
490.402	5.58
490.754	5.6
491.107	5.63
491.459	5.77
491.811	5.74
492.163	5.68
492.515	5.63
492.866	5.53
493.218	5.57
493.57	5.6
493.922	5.56
494.274	5.66
494.625	5.77
494.977	5.76
495.328	5.9
495.68	5.79
496.031	5.78
496.383	5.88
496.734	5.85
497.086	5.88
497.437	5.96
497.788	5.9
498.139	5.72
498.49	5.83
498.842	5.85
499.193	5.76
499.544	5.83
499.894	5.75
500.245	5.88
500.596	5.81
500.947	5.85
501.298	5.85
501.648	5.89
501.999	5.84
502.35	5.87
502.7	5.94
503.051	5.82
503.401	5.86
503.752	5.69
504.102	5.7
504.452	5.78
504.803	5.84
505.153	5.85
505.503	5.84
505.853	6.01
506.203	6.02
506.553	5.83
506.903	5.85
507.253	5.74
507.603	5.93
507.953	5.87
508.303	5.89
508.652	5.87
509.002	5.88
509.352	5.85
509.701	5.7
510.051	5.88
510.4	5.77
510.75	5.87
511.099	5.79
511.449	5.89
511.798	5.82
512.147	5.79
512.496	5.85
512.846	5.74
513.195	5.83
513.544	5.87
513.893	5.85
514.242	5.79
514.591	5.73
514.939	5.81
515.288	5.96
515.637	5.85
515.986	5.98
516.334	5.95
516.683	5.92
517.032	5.87
517.38	5.84
517.729	5.84
518.077	5.85
518.426	5.94
518.774	5.89
519.122	5.7
519.47	5.78
519.819	5.77
520.167	5.69
520.515	5.77
520.863	5.77
521.211	5.74
521.559	5.75
521.907	5.88
522.255	5.78
522.602	5.86
522.95	5.97
523.298	5.84
523.645	5.96
523.993	5.87
524.341	5.91
524.688	5.91
525.036	5.89
525.383	5.77
525.73	5.79
526.078	5.9
526.425	5.89
526.772	5.87
527.119	5.79
527.466	5.81
527.814	5.78
528.161	5.83
528.508	5.89
528.854	5.81
529.201	5.76
529.548	5.64
529.895	5.55
530.242	5.58
530.588	5.57
530.935	5.65
531.282	5.64
531.628	5.69
531.975	5.7
532.321	5.79
532.667	5.8
533.014	5.77
533.36	5.84
533.706	5.84
534.052	5.76
534.399	5.76
534.745	5.64
535.091	5.63
535.437	5.69
535.783	5.77
536.129	5.77
536.474	5.92
536.82	5.82
537.166	5.86
537.512	5.85
537.857	5.85
538.203	5.79
538.549	5.7
538.894	5.81
539.239	5.89
539.585	5.98
539.93	6.01
540.276	5.95
540.621	5.92
540.966	5.98
541.311	5.95
541.656	5.83
542.001	5.79
542.346	5.78
542.691	5.67
543.036	5.68
543.381	5.72
543.726	5.76
544.071	5.78
544.415	5.77
544.76	5.78
545.105	5.79
545.449	5.88
545.794	5.89
546.138	5.76
546.483	5.84
546.827	5.77
547.171	5.85
547.516	5.95
547.86	5.91
548.204	5.92
548.548	5.85
548.892	5.88
549.236	5.94
549.58	6
549.924	5.96
550.268	6.03
550.612	6.04
550.956	6.16
551.3	6.04
551.643	5.9
551.987	5.94
552.33	6.08
552.674	5.93
553.017	6.1
553.361	6.06
553.704	6.02
554.048	5.96
554.391	6.12
554.734	5.84
555.077	6.08
555.42	5.92
555.764	5.95
556.107	6.08
556.45	6.09
556.793	6.14
557.135	6.13
557.478	5.98
557.821	6.23
558.164	6.07
558.507	5.97
558.849	6.12
559.192	5.91
559.534	5.93
559.877	6.06
560.219	6.02
560.562	5.85
560.904	6.24
561.246	5.91
561.589	6.15
561.931	6.11
562.273	6.13
562.615	5.86
562.957	5.93
563.299	6.17
563.641	6.07
563.983	6.01
564.325	6.12
564.667	6.04
565.008	6.1
565.35	5.93
565.692	6.06
566.033	6.11
566.375	6.1
566.716	6
567.058	6.03
567.399	6.12
567.741	6.09
568.082	6.03
568.423	5.79
568.764	6.11
569.105	6.05
569.447	6.03
569.788	6.12
570.129	6.04
570.47	5.9
570.811	6.01
571.151	6.04
571.492	6.03
571.833	6.18
572.174	6.14
572.514	5.99
572.855	6.15
573.195	6.04
573.536	6.13
573.876	6.07
574.217	5.98
574.557	5.94
574.898	5.98
575.238	6.04
575.578	6.05
575.918	6.05
576.258	6.27
576.598	5.93
576.938	6.03
577.278	5.99
577.618	5.89
577.958	6.26
578.298	6.13
578.638	6.18
578.977	6.13
579.317	6.23
579.657	6.05
579.996	6.27
580.336	6.1
580.675	6.07
581.014	6.13
581.354	5.91
581.693	6.25
582.032	6.25
582.372	6.16
582.711	6.17
583.05	6.11
583.389	6.15
583.728	6.35
584.067	6.22
584.406	6.16
584.745	6.08
585.083	6.11
585.422	6.34
585.761	6.26
586.1	6.22
586.438	6.15
586.777	6.31
587.115	6.18
587.454	6.2
587.792	6.08
588.13	6.06
588.469	6.15
588.807	6.28
589.145	6.14
589.483	5.71
589.821	6.33
590.159	6.37
590.497	6.34
590.835	6.17
591.173	6.26
591.511	6.38
591.849	6.27
592.187	6.18
592.524	6.18
592.862	6.15
593.2	6.11
593.537	6.27
593.875	6.12
594.212	6.16
594.55	6.2
594.887	6.42
595.224	6.31
595.561	6.27
595.899	6.26
596.236	6.17
596.573	6.06
596.91	6.12
597.247	6.36
597.584	6.24
597.921	6.2
598.258	6.33
598.594	6.19
598.931	5.85
599.268	6.04
599.604	6.12
599.941	6.06
600.277	6.39
600.614	6.14
600.95	6.07
601.287	5.99
601.623	6.04
601.959	6.42
602.296	5.98
602.632	6.07
602.968	6.26
603.304	6.28
603.64	6.26
603.976	6.01
604.312	6.07
604.648	6.23
604.984	6.15
605.319	6.41
605.655	6.21
605.991	6.33
606.326	6.25
606.662	6.1
606.998	6.18
607.333	6.11
607.668	6.17
608.004	6.28
608.339	6.03
608.674	6.41
609.01	6.36
609.345	6.23
609.68	6.24
610.015	6.36
610.35	6.28
610.685	5.85
611.02	6.01
611.355	6.3
611.689	6.07
612.024	6.32
612.359	6.31
612.694	6.4
613.028	6.07
613.363	6.2
613.697	6.52
614.032	6.18
614.366	6.3
614.7	6.34
615.035	6.23
615.369	6.32
615.703	6.47
616.037	6.27
616.371	6.33
616.705	6.44
617.039	6.13
617.373	6.24
617.707	6.35
618.041	6.08
618.375	5.51
618.709	6.2
619.042	6.42
619.376	6.06
619.71	6.04
620.043	6.4
620.377	6.25
620.71	6.27
621.043	6.53
621.377	6.47
621.71	6.74
622.043	6.33
622.376	6.52
622.709	6.78
623.043	6.32
623.376	6.01
623.709	6.58
624.041	6.17
624.374	6.35
624.707	6.04
625.04	6.47
625.373	6.34
625.705	6.13
626.038	6.3
626.37	5.88
626.703	6.56
627.035	6.46
627.368	6.48
627.7	6.19
628.032	6.32
628.365	6.55
628.697	6.68
629.029	6.39
629.361	6.65
629.693	6.41
630.025	6.24
630.357	6.36
630.689	6.22
631.021	6.43
631.353	6.28
631.684	6.35
632.016	6.23
632.348	6.19
632.679	6.54
633.011	6.06
633.342	6.37
633.674	6.09
634.005	6.34
634.336	6.74
634.668	6.31
634.999	6.13
635.33	6.6
635.661	6.17
635.992	6.36
636.323	6.29
636.654	6.26
636.985	6.14
637.316	6.33
637.647	6.25
637.977	6.51
638.308	6.53
638.639	6.34
638.969	6.33
639.3	6.36
639.63	6.51
639.961	6.53
640.291	5.93
640.622	6.36
640.952	6.26
641.282	6.19
641.612	6.31
641.943	6.29
642.273	5.91
642.603	6.59
642.933	6.84
643.263	6.43
643.592	6.86
643.922	6.53
644.252	6.11
644.582	6.47
644.911	6.56
645.241	6.53
645.571	6.54
645.9	6.52
646.23	6.79
646.559	6.24
646.888	6.9
647.218	6.35
647.547	6.68
647.876	6.42
648.205	6
648.534	6.7
648.863	6.56
649.192	6.62
649.521	6.68
649.85	6.86
650.179	6.68
650.508	6.56
650.837	6.73
651.165	6.44
651.494	7.03
651.822	6.64
652.151	6.28
652.479	6.43
652.808	6.48
653.136	5.86
653.465	6.36
653.793	6.85
654.121	6.53
654.449	6.33
654.777	6.42
655.105	6.24
655.433	6.52
655.761	6.36
656.089	6.44
656.417	7.22
656.745	7.04
657.073	6.55
657.4	6.46
657.728	6.34
658.056	5.97
658.383	6.59
658.711	6.75
659.038	6.68
659.365	6.7
659.693	6.27
660.02	6.23
660.347	6.75
660.674	6.47
661.001	6.42
661.329	6.38
661.656	6.35
661.982	6.34
662.309	6.48
662.636	6.79
662.963	6.62
663.29	6.63
663.616	6.71
663.943	6.77
664.27	6.74
664.596	6.11
664.923	7.05
665.249	6.96
665.576	6.39
665.902	6.07
666.228	6.39
666.554	6.82
666.881	6.55
667.207	6.82
667.533	6.95
667.859	6.05
668.185	7.05
668.511	6.81
668.837	6.6
669.162	6.4
669.488	6.45
669.814	6.6
670.139	6.48
670.465	6.83
670.791	6.43
671.116	6.39
671.442	6.28
671.767	6.25
672.092	6.75
672.418	6.94
672.743	6.37
673.068	6.48
673.393	7.09
673.718	6.54
674.043	6.75
674.368	6.31
674.693	6.73
675.018	6.81
675.343	6.8
675.667	6.9
675.992	6.76
676.317	5.82
676.641	6.74
676.966	6.34
677.29	6.51
677.615	6.11
677.939	6.85
678.264	6.21
678.588	6.71
678.912	6.2
679.236	6.05
679.56	6.31
679.885	6.04
680.209	6.97
680.532	7.37
680.856	6.68
681.18	7.28
681.504	5.91
681.828	6.65
682.152	6.26
682.475	6.93
682.799	6.52
683.122	6.42
683.446	6.27
683.769	6.73
684.093	6.59
684.416	6.05
684.739	6.64
685.062	6.52
685.386	6.87
685.709	6.92
686.032	7.61
686.355	6.66
686.678	6.45
687.001	7.12
687.324	6.73
687.646	7.04
687.969	6.93
688.292	7.37
688.614	6.92
688.937	6.73
689.26	7
689.582	7.15
689.904	6.97
690.227	6.8
690.549	6.71
690.871	6.8
691.194	6.75
