Data from 0009_crown_Reflection__0__307.txt Node

Date: Thu Dec 15 19:06:01 CST 2022
User: ToomeyLab
Spectrometer: FLMS14357
Trigger mode: 0
Integration Time (sec): 1.000000E-2
Scans to average: 100
Electric dark correction enabled: true
Nonlinearity correction enabled: false
Boxcar width: 0
XAxis mode: Wavelengths
Number of Pixels in Spectrum: 2048
>>>>>Begin Spectral Data<<<<<
189.047	143.72
189.435	143.72
189.823	143.72
190.211	386.53
190.599	125.43
190.987	66.34
191.375	0.61
191.763	46.69
192.151	78.39
192.538	257.1
192.926	230.78
193.314	-665.94
193.702	43.16
194.089	-69.63
194.477	101.83
194.864	92.68
195.252	-25.51
195.639	134.52
196.027	-785.71
196.414	145.4
196.801	10.62
197.189	56.72
197.576	653.96
197.963	-19.86
198.351	18.88
198.738	-39.38
199.125	-99.78
199.512	4.13
199.899	-51.52
200.286	-87.61
200.673	54.2
201.06	-27.77
201.447	4.31
201.833	37.22
202.22	-41.83
202.607	-59.22
202.994	-15.09
203.38	28.83
203.767	-48.57
204.154	37.81
204.54	-2.39
204.927	3.5
205.313	16.31
205.699	14.2
206.086	8.34
206.472	20.7
206.858	-32.53
207.245	-26.16
207.631	-11.43
208.017	34.15
208.403	-108.06
208.789	-19.41
209.175	14.27
209.561	-504.69
209.947	8.54
210.333	-2.11
210.719	-47.28
211.105	30.25
211.491	-4.22
211.876	16.06
212.262	-5.08
212.648	-4.04
213.034	-5.66
213.419	-37.5
213.805	-37.82
214.19	-43.09
214.576	-32.22
214.961	-6.93
215.346	-6.99
215.732	-7.82
216.117	-15.48
216.502	-25.83
216.888	-12.02
217.273	-18.44
217.658	-41.49
218.043	-30.72
218.428	-14.92
218.813	6.15
219.198	-5.85
219.583	-26.57
219.968	-14.88
220.353	-55.29
220.738	12.14
221.122	-10.67
221.507	-32.72
221.892	-42.3
222.276	-30.15
222.661	-10.93
223.046	-5.6
223.43	12.63
223.815	-4.02
224.199	-5.86
224.583	-8.55
224.968	-15
225.352	-1.21
225.736	10.52
226.121	5.14
226.505	-1.03
226.889	-2.76
227.273	-3
227.657	2.26
228.041	1.61
228.425	2.67
228.809	1.99
229.193	5.19
229.577	4.57
229.961	5.34
230.344	6.82
230.728	6.37
231.112	7.01
231.495	5.58
231.879	6.46
232.263	6.16
232.646	5.35
233.03	7.52
233.413	3.66
233.797	3.11
234.18	5.37
234.563	6.26
234.946	3.91
235.33	5.88
235.713	7.62
236.096	6.23
236.479	6.66
236.862	5.59
237.245	5.51
237.628	5.6
238.011	6.79
238.394	3.99
238.777	8.12
239.16	6.58
239.543	5.4
239.925	5.54
240.308	3.21
240.691	4.75
241.073	4.4
241.456	5.68
241.838	5.35
242.221	6
242.603	6.62
242.986	5.67
243.368	6.8
243.75	6.19
244.133	6.59
244.515	5.94
244.897	5.95
245.279	5.77
245.661	5.93
246.043	6.85
246.425	5.13
246.807	5.9
247.189	5.38
247.571	5.65
247.953	5.5
248.335	5.93
248.717	5.89
249.098	5.79
249.48	5.68
249.862	5.56
250.243	5.54
250.625	5.63
251.006	6.43
251.388	5.26
251.769	5.63
252.151	5.51
252.532	5.37
252.913	5.66
253.295	4.89
253.676	5.44
254.057	5.45
254.438	5.39
254.819	5.13
255.2	5.09
255.581	5.47
255.962	6.72
256.343	5.96
256.724	5.13
257.105	4.55
257.486	4.07
257.867	4.97
258.247	4.61
258.628	5.23
259.009	5.07
259.389	5.02
259.77	4.68
260.15	5.67
260.531	5.45
260.911	5.24
261.292	5.27
261.672	5.46
262.052	5.26
262.432	5.16
262.813	4.95
263.193	4.77
263.573	4.7
263.953	5.08
264.333	5.36
264.713	4.92
265.093	4.12
265.473	4.6
265.853	5.11
266.233	5.39
266.612	4.65
266.992	5.34
267.372	4.43
267.752	4.76
268.131	4.66
268.511	5.19
268.89	6.03
269.27	4.34
269.649	4.48
270.029	4.66
270.408	4.83
270.787	4.56
271.167	5.18
271.546	5.41
271.925	4.63
272.304	4.49
272.683	4.45
273.062	4.82
273.441	4.42
273.82	4.94
274.199	4.93
274.578	4.76
274.957	4.39
275.336	5.02
275.715	5.31
276.093	4.76
276.472	4.2
276.851	4.73
277.229	4.49
277.608	4.43
277.986	4.1
278.365	5.06
278.743	5.02
279.122	4.54
279.5	4.68
279.878	4.53
280.257	4.92
280.635	4.85
281.013	4.7
281.391	3.99
281.769	5.09
282.147	4.58
282.525	4.53
282.903	4.37
283.281	4.84
283.659	4.67
284.037	4.2
284.415	4.54
284.792	4.4
285.17	4.29
285.548	4.12
285.925	4.38
286.303	4.69
286.68	4.41
287.058	4.87
287.435	4.5
287.813	4.54
288.19	4.05
288.567	4.45
288.945	4.4
289.322	4.35
289.699	4.24
290.076	4.35
290.453	4.12
290.83	4.43
291.207	4.32
291.584	4.4
291.961	4.17
292.338	4.11
292.715	4.17
293.092	4.6
293.469	4.1
293.845	4.59
294.222	4.42
294.599	3.81
294.975	3.73
295.352	3.9
295.728	4.4
296.105	4.42
296.481	4.29
296.858	4.37
297.234	3.71
297.61	4.17
297.986	4.39
298.363	4.26
298.739	4.36
299.115	4.22
299.491	4.42
299.867	3.73
300.243	4.12
300.619	4
300.995	4.04
301.371	4.75
301.746	4.4
302.122	3.73
302.498	3.88
302.874	4.08
303.249	4.05
303.625	3.93
304	4.11
304.376	4.57
304.751	3.65
305.127	3.71
305.502	4.17
305.878	4.12
306.253	3.54
306.628	3.7
307.003	3.52
307.378	3.57
307.754	3.86
308.129	3.65
308.504	3.76
308.879	3.75
309.254	4.61
309.629	4.09
310.003	3.71
310.378	4.48
310.753	4.22
311.128	3.91
311.502	4.16
311.877	3.75
312.252	4.13
312.626	4.44
313.001	3.9
313.375	4.13
313.75	3.96
314.124	3.84
314.498	4.26
314.873	3.83
315.247	3.57
315.621	3.83
315.995	3.29
316.369	3.69
316.743	3.62
317.117	3.49
317.491	4.08
317.865	3.21
318.239	4.26
318.613	3.85
318.987	3.24
319.361	3.77
319.734	4.01
320.108	3.68
320.482	4.09
320.855	3.6
321.229	3.59
321.602	3.61
321.976	3.19
322.349	4.18
322.723	3.88
323.096	3.74
323.469	3.5
323.843	3.06
324.216	3.66
324.589	3.81
324.962	3.33
325.335	3.76
325.708	3.89
326.081	3.37
326.454	3.83
326.827	3.79
327.2	3.32
327.573	4.24
327.945	3.21
328.318	3.39
328.691	3.94
329.063	3.49
329.436	3.28
329.809	3.88
330.181	3.99
330.553	4.13
330.926	4.3
331.298	3.4
331.671	4.07
332.043	3.75
332.415	3.67
332.787	4.22
333.159	3.78
333.532	3.74
333.904	3.66
334.276	3.67
334.648	3.69
335.02	3.39
335.391	3.72
335.763	3.53
336.135	4.36
336.507	4.14
336.879	3.56
337.25	3.36
337.622	3.57
337.993	4.01
338.365	3.94
338.736	3.93
339.108	3.95
339.479	3.72
339.851	3.76
340.222	3.97
340.593	3.42
340.964	3.69
341.336	3.66
341.707	4.23
342.078	3.65
342.449	3.43
342.82	3.81
343.191	3.97
343.562	3.83
343.933	3.6
344.303	3.63
344.674	3.74
345.045	3.8
345.416	4.21
345.786	3.84
346.157	4.05
346.527	3.54
346.898	3.54
347.268	4.42
347.639	3.74
348.009	4.31
348.38	3.95
348.75	4.09
349.12	4.05
349.49	3.62
349.861	4.15
350.231	3.9
350.601	4.01
350.971	3.56
351.341	4.17
351.711	3.73
352.081	3.75
352.45	3.56
352.82	3.61
353.19	4.16
353.56	3.74
353.929	3.73
354.299	3.91
354.669	4.1
355.038	4.1
355.408	4.13
355.777	4.22
356.147	4.02
356.516	3.84
356.885	3.96
357.254	4.08
357.624	3.62
357.993	4.16
358.362	4.07
358.731	4.5
359.1	4.03
359.469	4.23
359.838	4.35
360.207	4.07
360.576	4.26
360.945	4.31
361.314	4.1
361.682	3.89
362.051	4.13
362.42	4.23
362.788	4.27
363.157	4.14
363.525	4.2
363.894	3.91
364.262	4.11
364.631	4.27
364.999	4.31
365.367	4.42
365.735	4.18
366.104	4.09
366.472	4.02
366.84	4.18
367.208	4.37
367.576	3.99
367.944	4.17
368.312	4.02
368.68	4.51
369.048	4.01
369.416	3.87
369.783	4.39
370.151	4.77
370.519	4.56
370.886	4.29
371.254	4.68
371.621	4.51
371.989	4.26
372.356	4.38
372.724	4.23
373.091	4.38
373.458	4.36
373.826	4.71
374.193	4.45
374.56	4.41
374.927	4.19
375.294	4.22
375.661	4.49
376.028	4.16
376.395	4.39
376.762	4.15
377.129	4.26
377.496	4.43
377.863	4.68
378.229	4.58
378.596	4.54
378.963	4.59
379.329	4.66
379.696	4.32
380.062	4.45
380.429	3.9
380.795	4.74
381.161	4.2
381.528	4.38
381.894	4.47
382.26	4.54
382.626	4.41
382.993	4.7
383.359	4.34
383.725	4.25
384.091	4.63
384.457	4.34
384.823	4.71
385.188	4.64
385.554	4.55
385.92	4.32
386.286	4.59
386.651	4.34
387.017	4.55
387.383	4.57
387.748	4.68
388.114	4.5
388.479	4.39
388.845	4.56
389.21	5.08
389.575	4.84
389.94	4.59
390.306	4.76
390.671	4.59
391.036	4.64
391.401	4.67
391.766	4.48
392.131	4.91
392.496	4.5
392.861	4.56
393.226	4.45
393.591	4.57
393.956	4.79
394.32	4.65
394.685	4.62
395.05	4.75
395.414	4.74
395.779	4.86
396.143	4.49
396.508	4.77
396.872	4.76
397.236	4.76
397.601	4.99
397.965	4.53
398.329	4.81
398.694	4.77
399.058	4.74
399.422	4.63
399.786	4.78
400.15	4.88
400.514	4.84
400.878	4.69
401.242	4.74
401.605	4.69
401.969	4.45
402.333	4.78
402.697	5.11
403.06	4.44
403.424	4.85
403.787	4.57
404.151	4.9
404.514	4.92
404.878	4.76
405.241	4.7
405.604	4.72
405.968	4.97
406.331	4.72
406.694	4.82
407.057	4.6
407.42	4.82
407.783	4.83
408.146	4.66
408.509	4.84
408.872	4.95
409.235	5.06
409.598	4.8
409.961	4.77
410.323	4.91
410.686	4.76
411.049	4.82
411.411	4.81
411.774	4.8
412.136	4.59
412.499	5.15
412.861	4.66
413.223	4.63
413.586	4.88
413.948	4.88
414.31	4.87
414.672	4.65
415.035	5.01
415.397	4.87
415.759	4.82
416.121	4.88
416.483	4.82
416.845	5.05
417.206	4.89
417.568	4.99
417.93	4.83
418.292	4.76
418.653	4.63
419.015	4.8
419.377	4.72
419.738	4.94
420.1	4.86
420.461	4.81
420.822	4.83
421.184	4.81
421.545	4.92
421.906	4.9
422.267	4.75
422.629	4.76
422.99	4.84
423.351	4.79
423.712	4.93
424.073	4.87
424.434	4.88
424.795	4.79
425.155	4.7
425.516	4.8
425.877	4.83
426.238	4.85
426.598	4.93
426.959	4.92
427.32	4.87
427.68	4.78
428.041	4.93
428.401	4.9
428.761	5.13
429.122	5
429.482	5.02
429.842	4.82
430.202	5.07
430.563	5.03
430.923	4.95
431.283	5.04
431.643	5.14
432.003	5.09
432.363	5.01
432.722	5.07
433.082	5.05
433.442	5
433.802	4.86
434.161	4.9
434.521	4.96
434.881	4.99
435.24	5.03
435.6	5.02
435.959	4.94
436.319	5.11
436.678	5.18
437.037	5.11
437.396	4.97
437.756	4.97
438.115	5.07
438.474	5.04
438.833	4.94
439.192	5.03
439.551	4.74
439.91	5.09
440.269	5.09
440.628	4.97
440.987	5.04
441.345	5.01
441.704	5.02
442.063	5.03
442.421	5
442.78	4.98
443.138	5.03
443.497	5.06
443.855	5.06
444.214	4.85
444.572	5.16
444.93	4.96
445.288	5.09
445.647	4.94
446.005	5.06
446.363	4.96
446.721	5.01
447.079	4.92
447.437	5.03
447.795	5.02
448.153	4.92
448.51	4.97
448.868	4.94
449.226	4.96
449.584	4.98
449.941	4.92
450.299	4.99
450.656	5.06
451.014	5.17
451.371	5.06
451.729	5.12
452.086	5.06
452.443	5.16
452.801	5.07
453.158	5.14
453.515	4.99
453.872	5.07
454.229	4.99
454.586	4.85
454.943	5.15
455.3	5.04
455.657	5.06
456.014	4.99
456.371	5.07
456.727	5.07
457.084	5.12
457.441	5.25
457.797	5.13
458.154	5.17
458.51	5.08
458.867	5.12
459.223	5
459.58	5.06
459.936	5.03
460.292	5.04
460.648	4.92
461.005	5.01
461.361	4.92
461.717	5.01
462.073	5.05
462.429	5.04
462.785	5.32
463.141	5
463.496	5.11
463.852	5.16
464.208	5.17
464.564	5.06
464.919	5.09
465.275	5.11
465.631	5.29
465.986	5.18
466.342	5.06
466.697	5.08
467.052	5.28
467.408	5.24
467.763	5.08
468.118	5.07
468.473	5.24
468.829	5.15
469.184	5.14
469.539	5.06
469.894	5.25
470.249	5.08
470.603	5.27
470.958	5.23
471.313	5.22
471.668	5.27
472.023	5.18
472.377	4.99
472.732	5.21
473.086	5.13
473.441	5.02
473.795	5.3
474.15	5.06
474.504	5.03
474.859	5.01
475.213	5.27
475.567	5.08
475.921	5.29
476.275	5.16
476.63	5.18
476.984	5.04
477.338	5.26
477.692	5.14
478.045	5.21
478.399	5.19
478.753	5.07
479.107	5.2
479.461	5.06
479.814	5.13
480.168	5.12
480.521	5.21
480.875	5.18
481.228	5.19
481.582	5.07
481.935	5.17
482.289	5.13
482.642	5.22
482.995	5.07
483.348	5.17
483.701	5.08
484.055	5.03
484.408	5.09
484.761	4.89
485.114	4.84
485.466	4.78
485.819	4.84
486.172	4.83
486.525	4.93
486.878	4.97
487.23	5.03
487.583	5.05
487.936	5.03
488.288	4.96
488.641	4.92
488.993	4.94
489.345	4.88
489.698	4.89
490.05	4.92
490.402	4.98
490.754	5.01
491.107	4.96
491.459	5.09
491.811	5.05
492.163	5.05
492.515	4.97
492.866	4.96
493.218	4.94
493.57	4.97
493.922	5.01
494.274	5.1
494.625	5.12
494.977	5.1
495.328	5.15
495.68	5.14
496.031	5.1
496.383	5.13
496.734	5.12
497.086	5.15
497.437	5.13
497.788	5.13
498.139	5.07
498.49	5.05
498.842	5.21
499.193	5.12
499.544	5.1
499.894	5.08
500.245	5.26
500.596	5.12
500.947	5.22
501.298	5.14
501.648	5.25
501.999	5.29
502.35	4.99
502.7	5.24
503.051	5.13
503.401	5.2
503.752	5.17
504.102	5.1
504.452	5.13
504.803	5.13
505.153	5.25
505.503	5.34
505.853	5.26
506.203	5.2
506.553	5.26
506.903	5.24
507.253	5.24
507.603	5.29
507.953	5.2
508.303	5.24
508.652	5.12
509.002	5.15
509.352	5.15
509.701	5.08
510.051	5.17
510.4	5.23
510.75	5.03
511.099	5.09
511.449	5.19
511.798	5.11
512.147	5.03
512.496	5.15
512.846	5.18
513.195	5.2
513.544	5.28
513.893	5.06
514.242	5.14
514.591	5.16
514.939	5.18
515.288	5.19
515.637	5.21
515.986	5.22
516.334	5.35
516.683	5.2
517.032	5.08
517.38	5.12
517.729	5.23
518.077	5.18
518.426	5.25
518.774	5.23
519.122	5.2
519.47	5.16
519.819	5.17
520.167	5.1
520.515	5.11
520.863	5.16
521.211	5.05
521.559	5.04
521.907	5.2
522.255	5.2
522.602	5.2
522.95	5.27
523.298	5.23
523.645	5.22
523.993	5.15
524.341	5.18
524.688	5.19
525.036	5.22
525.383	5.22
525.73	5.1
526.078	5.35
526.425	5.11
526.772	5.1
527.119	5.13
527.466	5.14
527.814	5.12
528.161	5.12
528.508	5.13
528.854	5.15
529.201	5.1
529.548	5.04
529.895	4.95
530.242	4.91
530.588	4.88
530.935	4.97
531.282	4.99
531.628	5.04
531.975	5.05
532.321	5.05
532.667	5.17
533.014	5.17
533.36	5.11
533.706	5.11
534.052	5.08
534.399	5.07
534.745	4.91
535.091	4.96
535.437	5.02
535.783	5.04
536.129	5
536.474	5.19
536.82	5.14
537.166	5.12
537.512	5.19
537.857	5.14
538.203	5.15
538.549	5.03
538.894	5.06
539.239	5.16
539.585	5.12
539.93	5.21
540.276	5.02
540.621	5.21
540.966	5.23
541.311	5.2
541.656	5.11
542.001	5.06
542.346	5.06
542.691	4.97
543.036	4.93
543.381	4.98
543.726	5.03
544.071	5
544.415	5.06
544.76	5.08
545.105	5.03
545.449	5.07
545.794	5.06
546.138	5.06
546.483	5.19
546.827	5.13
547.171	5.33
547.516	5.23
547.86	5.11
548.204	5.07
548.548	5.1
548.892	5.1
549.236	5.13
549.58	5.16
549.924	5.28
550.268	5.19
550.612	5.33
550.956	5.28
551.3	5.3
551.643	5.31
551.987	5.25
552.33	5.36
552.674	5.16
553.017	5.33
553.361	5.32
553.704	5.22
554.048	5.22
554.391	5.29
554.734	5.12
555.077	5.23
555.42	5.25
555.764	5.29
556.107	5.32
556.45	5.36
556.793	5.44
557.135	5.19
557.478	5.21
557.821	5.24
558.164	5.25
558.507	5.18
558.849	5.3
559.192	5.31
559.534	5.12
559.877	5.2
560.219	5.22
560.562	5.12
560.904	5.53
561.246	5.16
561.589	5.4
561.931	5.19
562.273	5.31
562.615	5.13
562.957	5.32
563.299	5.39
563.641	5.39
563.983	5.11
564.325	5.31
564.667	5.23
565.008	5.25
565.35	5.08
565.692	5.25
566.033	5.2
566.375	5.18
566.716	5.11
567.058	5.2
567.399	5.22
567.741	5.17
568.082	5.23
568.423	5.19
568.764	5.28
569.105	5.13
569.447	5.2
569.788	5.1
570.129	5.21
570.47	5.24
570.811	5.26
571.151	5.11
571.492	5.22
571.833	5.17
572.174	5.38
572.514	5.33
572.855	5.29
573.195	5.14
573.536	5.26
573.876	5.1
574.217	5.12
574.557	5.09
574.898	5.12
575.238	5.14
575.578	5.2
575.918	5.12
576.258	5.15
576.598	5.14
576.938	4.88
577.278	5.11
577.618	5.05
577.958	5.33
578.298	5.23
578.638	5.35
578.977	5.25
579.317	5.27
579.657	5.15
579.996	5.19
580.336	5.34
580.675	5.13
581.014	5.43
581.354	5.03
581.693	5.23
582.032	5.15
582.372	5.22
582.711	5.43
583.05	5.26
583.389	5.25
583.728	5.33
584.067	5.25
584.406	5.39
584.745	5.36
585.083	5.07
585.422	5.7
585.761	5.2
586.1	5.21
586.438	5.31
586.777	5.28
587.115	5.25
587.454	4.9
587.792	5.33
588.13	4.97
588.469	5.31
588.807	5.25
589.145	5.28
589.483	5.07
589.821	5.43
590.159	5.22
590.497	5.17
590.835	5.28
591.173	5.22
591.511	5.39
591.849	5.3
592.187	5.07
592.524	5.18
592.862	5.23
593.2	5.26
593.537	5.04
593.875	5.2
594.212	5.32
594.55	5.28
594.887	5.15
595.224	5.46
595.561	5.17
595.899	5.22
596.236	5.29
596.573	4.96
596.91	5.19
597.247	5.3
597.584	5.09
597.921	5.4
598.258	5.19
598.594	5.07
598.931	4.89
599.268	4.91
599.604	5.17
599.941	5.17
600.277	5.27
600.614	5.14
600.95	5.07
601.287	5.16
601.623	4.98
601.959	5.57
602.296	5.14
602.632	5.39
602.968	5.28
603.304	5.04
603.64	5.09
603.976	4.88
604.312	4.94
604.648	5.06
604.984	5.18
605.319	5.21
605.655	5.08
605.991	5.01
606.326	5.05
606.662	5.04
606.998	5.16
607.333	5.16
607.668	5.04
608.004	5.12
608.339	5.04
608.674	5.22
609.01	5.22
609.345	5.12
609.68	5.02
610.015	5.31
610.35	5.17
610.685	4.62
611.02	4.95
611.355	5.3
611.689	5
612.024	4.98
612.359	5.1
612.694	5.26
613.028	4.95
613.363	5.13
613.697	5.22
614.032	5.42
614.366	5.32
614.7	5.12
615.035	5.05
615.369	5.16
615.703	5.28
616.037	5.07
616.371	4.97
616.705	5.05
617.039	5.19
617.373	5.05
617.707	5.06
618.041	4.76
618.375	4.8
618.709	5.2
619.042	5.07
619.376	5.23
619.71	5.08
620.043	5.27
620.377	4.86
620.71	5.05
621.043	5.24
621.377	5.24
621.71	5.24
622.043	5.27
622.376	5.03
622.709	5.21
623.043	5.24
623.376	4.99
623.709	5.32
624.041	5.02
624.374	5.06
624.707	5.09
625.04	5.05
625.373	5.39
625.705	5.15
626.038	5.17
626.37	5.01
626.703	5.26
627.035	5.02
627.368	5.34
627.7	5.3
628.032	5.12
628.365	5.15
628.697	5.45
629.029	5.39
629.361	5.24
629.693	5.11
630.025	5.22
630.357	5.11
630.689	5.26
631.021	5.42
631.353	5.28
631.684	4.82
632.016	5
632.348	4.97
632.679	4.99
633.011	4.86
633.342	4.96
633.674	5.06
634.005	5.28
634.336	5.42
634.668	5.08
634.999	5.01
635.33	5.23
635.661	5.18
635.992	5.05
636.323	5.13
636.654	5.26
636.985	5.08
637.316	5.12
637.647	5.23
637.977	5.23
638.308	4.97
638.639	5.11
638.969	5.02
639.3	5.29
639.63	4.91
639.961	4.9
640.291	4.92
640.622	5.35
640.952	5.29
641.282	4.61
641.612	5.48
641.943	4.85
642.273	4.89
642.603	5.56
642.933	5.43
643.263	5.62
643.592	5.24
643.922	5.42
644.252	5.07
644.582	5.19
644.911	5.06
645.241	4.68
645.571	5.38
645.9	5.15
646.23	5.69
646.559	4.64
646.888	5.42
647.218	4.96
647.547	5.27
647.876	4.93
648.205	4.99
648.534	5.19
648.863	5.13
649.192	4.89
649.521	5.03
649.85	5.45
650.179	5.2
650.508	4.98
650.837	5.37
651.165	5.07
651.494	5.27
651.822	5.34
652.151	4.82
652.479	5.09
652.808	5.25
653.136	4.83
653.465	4.87
653.793	5.16
654.121	5.24
654.449	4.83
654.777	4.77
655.105	4.82
655.433	5.08
655.761	4.69
656.089	5.03
656.417	5.86
656.745	5.68
657.073	4.64
657.4	4.91
657.728	5.02
658.056	5.12
658.383	5.05
658.711	6.03
659.038	5.51
659.365	5.19
659.693	5.46
660.02	4.93
660.347	5.16
660.674	4.81
661.001	5.02
661.329	4.92
661.656	4.77
661.982	4.95
662.309	4.55
662.636	5.13
662.963	5.31
663.29	5.08
663.616	5.12
663.943	5.11
664.27	5.21
664.596	4.99
664.923	5.12
665.249	5.33
665.576	5.05
665.902	4.14
666.228	5.33
666.554	5.12
666.881	4.42
667.207	4.49
667.533	4.92
667.859	4.87
668.185	5.18
668.511	5.4
668.837	5.15
669.162	5.01
669.488	4.09
669.814	4.9
670.139	4.75
670.465	5.7
670.791	4.51
671.116	5.04
671.442	4.7
671.767	5.1
672.092	4.8
672.418	5.26
672.743	4.88
673.068	4.78
673.393	5.24
673.718	5.05
674.043	4.68
674.368	5.08
674.693	4.96
675.018	5.43
675.343	5.2
675.667	4.94
675.992	5.24
676.317	4.6
676.641	5.79
676.966	5.28
677.29	4.56
677.615	5.09
677.939	5.56
678.264	4.56
678.588	5.28
678.912	4.73
679.236	5.15
679.56	5.1
679.885	5.23
680.209	5.12
680.532	5.18
680.856	5.05
681.18	5.53
681.504	5.52
681.828	4.98
682.152	4.92
682.475	5.25
682.799	4.64
683.122	4.8
683.446	4.54
683.769	5.43
684.093	5.01
684.416	4.81
684.739	4.89
685.062	4.73
685.386	4.75
685.709	5.27
686.032	5.59
686.355	5.16
686.678	5.95
687.001	4.54
687.324	5.42
687.646	5.18
687.969	5.26
688.292	4.88
688.614	5.46
688.937	5.41
689.26	5.46
689.582	5.42
689.904	5.59
690.227	5.57
690.549	5.37
690.871	4.84
691.194	5.07
691.516	4.82
691.838	5.31
