Data from 0009_chest_Reflection__5__306.txt Node

Date: Thu Dec 15 19:05:18 CST 2022
User: ToomeyLab
Spectrometer: FLMS14357
Trigger mode: 0
Integration Time (sec): 1.000000E-2
Scans to average: 100
Electric dark correction enabled: true
Nonlinearity correction enabled: false
Boxcar width: 0
XAxis mode: Wavelengths
Number of Pixels in Spectrum: 2048
>>>>>Begin Spectral Data<<<<<
189.047	31.15
189.435	31.15
189.823	31.15
190.211	18.37
190.599	230.28
190.987	60.4
191.375	-37.84
191.763	111.72
192.151	59.74
192.538	210.94
192.926	478.87
193.314	-469.43
193.702	-166.11
194.089	-8.19
194.477	62.77
194.864	81.61
195.252	61.28
195.639	82.18
196.027	-9347.62
196.414	127.99
196.801	8.03
197.189	82.42
197.576	272.66
197.963	-167.62
198.351	28.19
198.738	-42.95
199.125	-81.55
199.512	30.37
199.899	-82.73
200.286	-32.91
200.673	42.72
201.06	-58.62
201.447	4.18
201.833	-26.51
202.22	-77.97
202.607	-16.6
202.994	-26.97
203.38	-13.09
203.767	-53.49
204.154	18.01
204.54	-0.78
204.927	-4.39
205.313	3.21
205.699	37.8
206.086	27.98
206.472	0.5
206.858	3.08
207.245	-29.18
207.631	-11.52
208.017	34.27
208.403	-83
208.789	2.4
209.175	-4.19
209.561	-279.44
209.947	-4.19
210.333	-29.19
210.719	3.49
211.105	14.8
211.491	30.54
211.876	-46.62
212.262	-7.73
212.648	-14.71
213.034	-28.94
213.419	-22.45
213.805	-65.82
214.19	-59.85
214.576	-30.46
214.961	-2.38
215.346	-15.98
215.732	-27.64
216.117	22.95
216.502	-9.8
216.888	-3.2
217.273	-6.41
217.658	-31.32
218.043	-44.38
218.428	-22.15
218.813	-4.37
219.198	-48.92
219.583	-9.48
219.968	-12.64
220.353	-49.59
220.738	-12.56
221.122	-10.15
221.507	-8.59
221.892	-40.52
222.276	-27.44
222.661	-11.44
223.046	-24.56
223.43	14.62
223.815	-3.1
224.199	0.37
224.583	-0.4
224.968	-4.53
225.352	-10.05
225.736	-2.53
226.121	0.57
226.505	-14.34
226.889	-2.63
227.273	-6.64
227.657	2.14
228.041	-0.75
228.425	-2.95
228.809	-1.06
229.193	2.46
229.577	2.57
229.961	2.31
230.344	3.84
230.728	3.42
231.112	4.22
231.495	1.82
231.879	1.93
232.263	3.13
232.646	2.31
233.03	4.39
233.413	4.36
233.797	0.4
234.18	2.38
234.563	3.09
234.946	1.91
235.33	2.71
235.713	2.45
236.096	3.51
236.479	3.18
236.862	2.93
237.245	1.44
237.628	4.56
238.011	4.37
238.394	3.05
238.777	1.89
239.16	2.96
239.543	2.91
239.925	2.61
240.308	1.55
240.691	0.92
241.073	2.33
241.456	2.77
241.838	2.87
242.221	3.33
242.603	3.04
242.986	3.23
243.368	3.27
243.75	3.67
244.133	3.51
244.515	3.29
244.897	3.33
245.279	2.87
245.661	3.54
246.043	3.36
246.425	3.13
246.807	3.01
247.189	3.27
247.571	3.53
247.953	3.26
248.335	3.59
248.717	3.54
249.098	3.52
249.48	3.39
249.862	3.53
250.243	3.17
250.625	3.86
251.006	3.99
251.388	3.51
251.769	2.55
252.151	3.88
252.532	2.56
252.913	3.44
253.295	2.98
253.676	3.09
254.057	3.11
254.438	3.61
254.819	2.73
255.2	2.85
255.581	4.14
255.962	3.36
256.343	3.05
256.724	3.62
257.105	3.02
257.486	2.29
257.867	3.18
258.247	2.87
258.628	3.46
259.009	2.45
259.389	2.1
259.77	2.7
260.15	3.8
260.531	3.5
260.911	3.26
261.292	3.52
261.672	3.41
262.052	3.45
262.432	3
262.813	3.85
263.193	3.3
263.573	3.07
263.953	2.69
264.333	3.59
264.713	3.94
265.093	2.62
265.473	2.84
265.853	2.79
266.233	3.02
266.612	2.4
266.992	3.02
267.372	2.72
267.752	3.29
268.131	3.26
268.511	2.7
268.89	3.44
269.27	2.89
269.649	2.96
270.029	3.15
270.408	2.91
270.787	3.13
271.167	3.78
271.546	4.31
271.925	3.34
272.304	3.47
272.683	3.1
273.062	3.15
273.441	2.83
273.82	3.19
274.199	2.99
274.578	3.35
274.957	2.75
275.336	3.1
275.715	3.18
276.093	2.42
276.472	2.46
276.851	3.18
277.229	3.3
277.608	2.54
277.986	3.23
278.365	3.26
278.743	3
279.122	3.39
279.5	2.88
279.878	3
280.257	3.42
280.635	3.34
281.013	2.66
281.391	3.02
281.769	3.19
282.147	2.95
282.525	2.66
282.903	2.89
283.281	3.62
283.659	3.19
284.037	3.11
284.415	3.3
284.792	3.32
285.17	2.8
285.548	3.1
285.925	2.62
286.303	3.57
286.68	3.29
287.058	3.31
287.435	3.14
287.813	3.27
288.19	3.07
288.567	3.34
288.945	3.16
289.322	3.41
289.699	3.48
290.076	2.81
290.453	3.13
290.83	3.02
291.207	3.22
291.584	3.53
291.961	3.5
292.338	3.34
292.715	3.35
293.092	3.78
293.469	3.62
293.845	3.38
294.222	3.77
294.599	2.88
294.975	2.52
295.352	3.66
295.728	3.25
296.105	3.37
296.481	3.37
296.858	3.44
297.234	3.11
297.61	3.63
297.986	3.83
298.363	3.51
298.739	3.84
299.115	3.49
299.491	3.69
299.867	3.48
300.243	3.18
300.619	2.96
300.995	3.99
301.371	3.52
301.746	3.82
302.122	3.37
302.498	3.81
302.874	4.08
303.249	3.85
303.625	3.17
304	3.66
304.376	4.16
304.751	3.73
305.127	3.53
305.502	3.43
305.878	3.58
306.253	3.31
306.628	3.92
307.003	3.54
307.378	3.28
307.754	3.89
308.129	3.7
308.504	3.87
308.879	3.77
309.254	4.01
309.629	3.79
310.003	3.47
310.378	4.08
310.753	4.12
311.128	3.67
311.502	3.73
311.877	4.02
312.252	4.09
312.626	4.35
313.001	3.94
313.375	4.04
313.75	3.78
314.124	4.3
314.498	3.84
314.873	3.57
315.247	3.98
315.621	3.75
315.995	3.93
316.369	3.65
316.743	3.35
317.117	3.44
317.491	4.26
317.865	3.75
318.239	4.7
318.613	4.12
318.987	3.75
319.361	3.98
319.734	3.42
320.108	3.81
320.482	4.02
320.855	4.3
321.229	3.55
321.602	4.25
321.976	3.2
322.349	4.36
322.723	4.25
323.096	4.26
323.469	3.84
323.843	3.54
324.216	3.82
324.589	4.14
324.962	3.81
325.335	3.89
325.708	4.38
326.081	3.96
326.454	4.37
326.827	4.1
327.2	3.9
327.573	4.37
327.945	4.03
328.318	3.88
328.691	4.37
329.063	3.89
329.436	4.22
329.809	4.47
330.181	5
330.553	4.3
330.926	4.72
331.298	3.97
331.671	4.24
332.043	4.2
332.415	4.16
332.787	4.62
333.159	3.89
333.532	4.46
333.904	4.21
334.276	4.78
334.648	4.23
335.02	4.42
335.391	4.1
335.763	4.38
336.135	4.53
336.507	4.32
336.879	4.27
337.25	4.36
337.622	4.21
337.993	4.3
338.365	4.13
338.736	4.05
339.108	4.48
339.479	4.17
339.851	4.6
340.222	4.71
340.593	4.61
340.964	4.23
341.336	4.02
341.707	4.41
342.078	4.19
342.449	4.11
342.82	4.52
343.191	4.21
343.562	4.36
343.933	4.3
344.303	4.73
344.674	4.49
345.045	4.64
345.416	4.91
345.786	4.37
346.157	4.55
346.527	4.34
346.898	4.18
347.268	4.64
347.639	4.49
348.009	4.66
348.38	4.21
348.75	4.4
349.12	5.02
349.49	4.58
349.861	4.49
350.231	4.23
350.601	4.58
350.971	4.41
351.341	4.38
351.711	4.53
352.081	4.45
352.45	4.06
352.82	4.06
353.19	4.55
353.56	4.72
353.929	4.57
354.299	4.87
354.669	4.91
355.038	5.19
355.408	4.43
355.777	4.85
356.147	4.93
356.516	4.14
356.885	4.75
357.254	4.5
357.624	4.28
357.993	4.7
358.362	4.6
358.731	4.83
359.1	4.51
359.469	4.79
359.838	4.97
360.207	4.77
360.576	4.88
360.945	4.83
361.314	4.8
361.682	4.55
362.051	4.72
362.42	4.79
362.788	4.76
363.157	4.58
363.525	4.76
363.894	4.67
364.262	4.77
364.631	5.04
364.999	4.67
365.367	4.56
365.735	4.83
366.104	4.74
366.472	4.67
366.84	4.59
367.208	4.84
367.576	4.91
367.944	5.04
368.312	4.71
368.68	5.11
369.048	4.65
369.416	4.55
369.783	4.7
370.151	5.14
370.519	5.19
370.886	4.95
371.254	5
371.621	5.05
371.989	5.04
372.356	4.88
372.724	4.57
373.091	4.75
373.458	4.88
373.826	4.99
374.193	4.82
374.56	5.3
374.927	4.89
375.294	5.2
375.661	5.05
376.028	4.89
376.395	5.13
376.762	4.66
377.129	4.81
377.496	5.11
377.863	4.98
378.229	4.99
378.596	5.13
378.963	5.06
379.329	4.97
379.696	4.84
380.062	5
380.429	4.61
380.795	4.96
381.161	4.74
381.528	4.67
381.894	5.02
382.26	5.03
382.626	5.23
382.993	5.26
383.359	5
383.725	4.81
384.091	5.18
384.457	5.15
384.823	5.13
385.188	5.07
385.554	5.19
385.92	4.97
386.286	5.19
386.651	5.05
387.017	5.32
387.383	4.86
387.748	5.34
388.114	5.4
388.479	5.2
388.845	4.89
389.21	5.57
389.575	5.48
389.94	5.35
390.306	5.26
390.671	5.08
391.036	5.13
391.401	5.27
391.766	5.31
392.131	5.46
392.496	5.33
392.861	5.35
393.226	5.07
393.591	5.24
393.956	5.12
394.32	5.41
394.685	5.28
395.05	5.46
395.414	5.34
395.779	5.59
396.143	5.1
396.508	5.23
396.872	5.05
397.236	5.5
397.601	5.56
397.965	5.45
398.329	5.23
398.694	5.25
399.058	5.41
399.422	5.19
399.786	5.17
400.15	5.15
400.514	5.2
400.878	5.34
401.242	5.44
401.605	5.3
401.969	5.54
402.333	5.35
402.697	5.84
403.06	5.52
403.424	5.64
403.787	5.37
404.151	5.55
404.514	5.57
404.878	5.34
405.241	5.43
405.604	5.41
405.968	5.5
406.331	5.52
406.694	5.54
407.057	5.49
407.42	5.41
407.783	5.54
408.146	5.65
408.509	5.58
408.872	5.58
409.235	5.56
409.598	5.77
409.961	5.74
410.323	5.57
410.686	5.39
411.049	5.63
411.411	5.41
411.774	5.4
412.136	5.63
412.499	5.72
412.861	5.16
413.223	5.4
413.586	5.74
413.948	5.94
414.31	5.76
414.672	5.5
415.035	5.71
415.397	5.64
415.759	5.52
416.121	5.69
416.483	5.56
416.845	5.63
417.206	5.69
417.568	5.48
417.93	5.65
418.292	5.59
418.653	5.42
419.015	5.64
419.377	5.46
419.738	5.58
420.1	5.55
420.461	5.46
420.822	5.54
421.184	5.53
421.545	5.53
421.906	5.57
422.267	5.47
422.629	5.48
422.99	5.49
423.351	5.52
423.712	5.61
424.073	5.63
424.434	5.73
424.795	5.52
425.155	5.53
425.516	5.53
425.877	5.69
426.238	5.52
426.598	5.57
426.959	5.6
427.32	5.59
427.68	5.65
428.041	5.77
428.401	5.75
428.761	5.85
429.122	5.66
429.482	5.67
429.842	5.8
430.202	5.8
430.563	5.72
430.923	5.75
431.283	5.96
431.643	5.9
432.003	5.89
432.363	5.81
432.722	5.86
433.082	5.61
433.442	5.65
433.802	5.69
434.161	5.73
434.521	5.89
434.881	5.83
435.24	5.8
435.6	5.94
435.959	5.88
436.319	5.94
436.678	5.84
437.037	5.83
437.396	5.91
437.756	5.65
438.115	5.82
438.474	5.99
438.833	5.91
439.192	5.83
439.551	5.81
439.91	6.04
440.269	5.8
440.628	5.84
440.987	5.98
441.345	5.93
441.704	5.93
442.063	5.85
442.421	5.87
442.78	5.9
443.138	5.85
443.497	5.91
443.855	5.96
444.214	5.82
444.572	6.06
444.93	5.91
445.288	6.04
445.647	5.89
446.005	5.92
446.363	5.92
446.721	5.99
447.079	5.88
447.437	5.99
447.795	5.98
448.153	5.87
448.51	5.96
448.868	5.87
449.226	5.95
449.584	5.98
449.941	6.01
450.299	6.11
450.656	6.06
451.014	6.23
451.371	6.21
451.729	6.18
452.086	6.22
452.443	6.16
452.801	6.08
453.158	6.28
453.515	6.14
453.872	6.13
454.229	5.96
454.586	5.96
454.943	6.23
455.3	6.28
455.657	6.16
456.014	6.02
456.371	6.28
456.727	6.26
457.084	6.35
457.441	6.24
457.797	6.17
458.154	6.28
458.51	6.18
458.867	6.32
459.223	5.89
459.58	6.13
459.936	6.15
460.292	6.08
460.648	6.11
461.005	6.08
461.361	6.12
461.717	6.15
462.073	6.18
462.429	6.29
462.785	6.27
463.141	6.29
463.496	6.3
463.852	6.32
464.208	6.36
464.564	6.37
464.919	6.38
465.275	6.39
465.631	6.29
465.986	6.4
466.342	6.22
466.697	6.31
467.052	6.45
467.408	6.27
467.763	6.32
468.118	6.41
468.473	6.42
468.829	6.41
469.184	6.36
469.539	6.19
469.894	6.51
470.249	6.48
470.603	6.56
470.958	6.54
471.313	6.53
471.668	6.46
472.023	6.47
472.377	6.51
472.732	6.66
473.086	6.45
473.441	6.47
473.795	6.71
474.15	6.5
474.504	6.5
474.859	6.33
475.213	6.55
475.567	6.4
475.921	6.65
476.275	6.61
476.63	6.63
476.984	6.47
477.338	6.66
477.692	6.52
478.045	6.62
478.399	6.56
478.753	6.41
479.107	6.62
479.461	6.5
479.814	6.56
480.168	6.64
480.521	6.69
480.875	6.56
481.228	6.65
481.582	6.55
481.935	6.75
482.289	6.74
482.642	6.89
482.995	6.55
483.348	6.59
483.701	6.67
484.055	6.61
484.408	6.57
484.761	6.46
485.114	6.3
485.466	6.25
485.819	6.32
486.172	6.37
486.525	6.47
486.878	6.58
487.23	6.6
487.583	6.63
487.936	6.54
488.288	6.56
488.641	6.55
488.993	6.44
489.345	6.44
489.698	6.48
490.05	6.5
490.402	6.59
490.754	6.68
491.107	6.69
491.459	6.78
491.811	6.75
492.163	6.77
492.515	6.72
492.866	6.58
493.218	6.58
493.57	6.63
493.922	6.72
494.274	6.8
494.625	6.91
494.977	6.94
495.328	6.94
495.68	6.94
496.031	6.85
496.383	6.93
496.734	6.93
497.086	7.01
497.437	7.08
497.788	7.05
498.139	6.97
498.49	7.03
498.842	7.08
499.193	6.98
499.544	7.05
499.894	7.03
500.245	7.18
500.596	7.05
500.947	7.12
501.298	7.16
501.648	7.14
501.999	7.17
502.35	7.07
502.7	7.28
503.051	7.2
503.401	7.21
503.752	7.16
504.102	7.23
504.452	7.15
504.803	7.15
505.153	7.31
505.503	7.21
505.853	7.29
506.203	7.33
506.553	7.34
506.903	7.37
507.253	7.26
507.603	7.37
507.953	7.39
508.303	7.36
508.652	7.17
509.002	7.41
509.352	7.25
509.701	7.3
510.051	7.44
510.4	7.43
510.75	7.27
511.099	7.19
511.449	7.46
511.798	7.38
512.147	7.34
512.496	7.48
512.846	7.41
513.195	7.45
513.544	7.56
513.893	7.47
514.242	7.47
514.591	7.57
514.939	7.55
515.288	7.57
515.637	7.62
515.986	7.62
516.334	7.66
516.683	7.65
517.032	7.69
517.38	7.52
517.729	7.66
518.077	7.69
518.426	7.68
518.774	7.68
519.122	7.68
519.47	7.54
519.819	7.56
520.167	7.56
520.515	7.59
520.863	7.67
521.211	7.55
521.559	7.71
521.907	7.76
522.255	7.7
522.602	7.89
522.95	7.91
523.298	7.93
523.645	7.93
523.993	7.9
524.341	7.97
524.688	7.9
525.036	7.88
525.383	7.91
525.73	7.93
526.078	8
526.425	7.94
526.772	7.94
527.119	7.87
527.466	7.89
527.814	7.96
528.161	7.93
528.508	7.99
528.854	7.97
529.201	7.95
529.548	7.9
529.895	7.71
530.242	7.7
530.588	7.69
530.935	7.81
531.282	7.81
531.628	7.95
531.975	7.99
532.321	8.07
532.667	8.1
533.014	8.09
533.36	8.2
533.706	8.2
534.052	8.18
534.399	8.07
534.745	7.99
535.091	8
535.437	8.07
535.783	8.2
536.129	8.22
536.474	8.39
536.82	8.41
537.166	8.33
537.512	8.44
537.857	8.37
538.203	8.35
538.549	8.33
538.894	8.33
539.239	8.36
539.585	8.56
539.93	8.68
540.276	8.74
540.621	8.69
540.966	8.68
541.311	8.66
541.656	8.5
542.001	8.57
542.346	8.5
542.691	8.41
543.036	8.44
543.381	8.48
543.726	8.54
544.071	8.62
544.415	8.63
544.76	8.64
545.105	8.61
545.449	8.74
545.794	8.84
546.138	8.88
546.483	8.88
546.827	8.95
547.171	8.96
547.516	9.05
547.86	9.02
548.204	8.93
548.548	8.97
548.892	9
549.236	8.91
549.58	9.13
549.924	9.23
550.268	9.39
550.612	9.22
550.956	9.19
551.3	9.39
551.643	9.24
551.987	9.38
552.33	9.57
552.674	9.44
553.017	9.5
553.361	9.48
553.704	9.55
554.048	9.37
554.391	9.48
554.734	9.38
555.077	9.53
555.42	9.4
555.764	9.59
556.107	9.63
556.45	9.56
556.793	9.72
557.135	9.8
557.478	9.69
557.821	9.73
558.164	9.74
558.507	9.72
558.849	10.04
559.192	9.81
559.534	9.92
559.877	9.9
560.219	9.88
560.562	9.86
560.904	10.02
561.246	9.9
561.589	10.09
561.931	10.23
562.273	9.91
562.615	9.93
562.957	10
563.299	10.08
563.641	10.12
563.983	10.01
564.325	10.19
564.667	10.25
565.008	10.19
565.35	10.02
565.692	10.37
566.033	10.3
566.375	10.3
566.716	10.35
567.058	10.24
567.399	10.26
567.741	10.31
568.082	10.28
568.423	10.4
568.764	10.57
569.105	10.39
569.447	10.39
569.788	10.6
570.129	10.55
570.47	10.71
570.811	10.62
571.151	10.63
571.492	10.78
571.833	10.84
572.174	10.87
572.514	10.74
572.855	10.77
573.195	10.74
573.536	10.81
573.876	10.86
574.217	10.69
574.557	10.88
574.898	10.89
575.238	11.05
575.578	11.03
575.918	10.98
576.258	11.21
576.598	10.89
576.938	11.04
577.278	11.27
577.618	11.1
577.958	11.32
578.298	11.27
578.638	11.41
578.977	11.3
579.317	11.21
579.657	11.3
579.996	11.44
580.336	11.54
580.675	11.55
581.014	11.65
581.354	11.55
581.693	11.6
582.032	11.87
582.372	11.74
582.711	11.85
583.05	11.68
583.389	11.73
583.728	12.01
584.067	11.7
584.406	12.19
584.745	12.02
585.083	11.78
585.422	12.04
585.761	12.03
586.1	11.95
586.438	12.1
586.777	12.21
587.115	12.01
587.454	12.08
587.792	12.09
588.13	12.13
588.469	11.94
588.807	12.22
589.145	12.03
589.483	12.14
589.821	12.45
590.159	12.29
590.497	12.36
590.835	12.42
591.173	12.36
591.511	12.66
591.849	12.63
592.187	12.34
592.524	12.46
592.862	12.38
593.2	12.54
593.537	12.61
593.875	12.62
594.212	12.68
594.55	12.72
594.887	12.98
595.224	12.95
595.561	12.59
595.899	12.69
596.236	12.75
596.573	12.85
596.91	12.91
597.247	13.15
597.584	12.88
597.921	12.89
598.258	13.13
598.594	13.09
598.931	12.88
599.268	12.85
599.604	13.36
599.941	13.13
600.277	13.49
600.614	13.44
600.95	13.16
601.287	13.34
601.623	13.24
601.959	13.63
602.296	13.5
602.632	13.71
602.968	13.49
603.304	13.84
603.64	13.68
603.976	13.44
604.312	13.58
604.648	13.69
604.984	13.63
605.319	13.67
605.655	13.71
605.991	13.77
606.326	13.74
606.662	13.69
606.998	13.93
607.333	13.81
607.668	13.95
608.004	13.79
608.339	13.87
608.674	13.94
609.01	14.22
609.345	14.22
609.68	14.28
610.015	14.47
610.35	14.26
610.685	14.12
611.02	14.17
611.355	14.31
611.689	14.16
612.024	14.41
612.359	14.63
612.694	14.59
613.028	14.53
613.363	14.41
613.697	14.85
614.032	14.46
614.366	14.43
614.7	14.81
615.035	14.86
615.369	14.86
615.703	15.02
616.037	14.74
616.371	14.83
616.705	14.91
617.039	15.16
617.373	15.05
617.707	15.12
618.041	14.64
618.375	14.52
618.709	15.28
619.042	15.16
619.376	15.16
619.71	15.32
620.043	15.6
620.377	15.27
620.71	15.15
621.043	15.45
621.377	15.62
621.71	15.72
622.043	15.52
622.376	15.46
622.709	15.45
623.043	15.41
623.376	15.79
623.709	15.85
624.041	15.41
624.374	15.81
624.707	15.91
625.04	15.98
625.373	16.12
625.705	16.14
626.038	15.67
626.37	15.97
626.703	16.24
627.035	15.87
627.368	16.2
627.7	15.88
628.032	16.19
628.365	16.37
628.697	16.39
629.029	16.18
629.361	16.3
629.693	16.1
630.025	16.14
630.357	16.54
630.689	16.25
631.021	16.69
631.353	16.58
631.684	16.37
632.016	16.38
632.348	16.52
632.679	16.86
633.011	16.75
633.342	16.74
633.674	16.85
634.005	16.98
634.336	16.91
634.668	16.73
634.999	16.65
635.33	16.94
635.661	16.83
635.992	17.12
636.323	17.19
636.654	17.24
636.985	17.11
637.316	16.83
637.647	17.36
637.977	17.01
638.308	17.34
638.639	17.33
638.969	17.37
639.3	17.33
639.63	17.67
639.961	17.81
640.291	17.26
640.622	17.8
640.952	18.03
641.282	17.45
641.612	17.49
641.943	17.62
642.273	17.61
642.603	18
642.933	18.07
643.263	18.06
643.592	18.74
643.922	17.73
644.252	17.94
644.582	18.15
644.911	17.96
645.241	17.9
645.571	17.97
645.9	18.41
646.23	18.28
646.559	18.14
646.888	18.63
647.218	18.3
647.547	18.26
647.876	18.08
648.205	18.36
648.534	18.65
648.863	18.44
649.192	18.47
649.521	19.09
649.85	18.99
650.179	18.36
650.508	18.63
650.837	18.56
651.165	19.3
651.494	19.23
651.822	19.08
652.151	18.89
652.479	19.27
652.808	19.23
653.136	19.05
653.465	19.19
653.793	19.05
654.121	19.31
654.449	18.95
654.777	19.61
655.105	18.71
655.433	19.51
655.761	19.59
656.089	19.22
656.417	19.66
656.745	19.51
657.073	19.29
657.4	19.68
657.728	19.28
658.056	19.44
658.383	19.8
658.711	19.88
659.038	19.82
659.365	20.05
659.693	19.92
660.02	19.63
660.347	19.99
660.674	20.02
661.001	20.05
661.329	20.04
661.656	19.76
661.982	19.79
662.309	19.85
662.636	20.17
662.963	20.2
663.29	20.43
663.616	19.91
663.943	20.63
664.27	20.26
664.596	20.08
664.923	20.58
665.249	20.63
665.576	20.88
665.902	20.35
666.228	20.84
666.554	21.52
666.881	20.68
667.207	20.48
667.533	20.61
667.859	21.15
668.185	20.61
668.511	21.08
668.837	20.67
669.162	21.17
669.488	20.35
669.814	21.24
670.139	20.24
670.465	21.43
670.791	20.98
671.116	20.9
671.442	20.7
671.767	21.58
672.092	21.46
672.418	21.55
672.743	20.36
673.068	20.86
673.393	21.38
673.718	20.98
674.043	21.45
674.368	21.52
674.693	21.56
675.018	22.25
675.343	21.76
675.667	21.32
675.992	21.63
676.317	20.57
676.641	22.02
676.966	22.54
677.29	22.2
677.615	21.48
677.939	22.1
678.264	21.9
678.588	21.81
678.912	22.64
679.236	21.73
679.56	21.9
679.885	22.09
680.209	22.04
680.532	23.16
680.856	22.23
681.18	23.17
681.504	22.17
681.828	22.33
682.152	22.45
682.475	22.9
682.799	22.17
683.122	22.8
683.446	22.07
