Data from 0009_chest_Reflection__4__305.txt Node

Date: Thu Dec 15 19:04:50 CST 2022
User: ToomeyLab
Spectrometer: FLMS14357
Trigger mode: 0
Integration Time (sec): 1.000000E-2
Scans to average: 100
Electric dark correction enabled: true
Nonlinearity correction enabled: false
Boxcar width: 0
XAxis mode: Wavelengths
Number of Pixels in Spectrum: 2048
>>>>>Begin Spectral Data<<<<<
189.047	3.79
189.435	3.79
189.823	3.79
190.211	-807.35
190.599	183.53
190.987	17.99
191.375	-1.44
191.763	-8.79
192.151	-28.71
192.538	81.69
192.926	-118.4
193.314	-1506.55
193.702	-2.95
194.089	-231.32
194.477	40.1
194.864	44.64
195.252	119.41
195.639	58.63
196.027	-9152.38
196.414	46.7
196.801	44.43
197.189	151.81
197.576	-1040.29
197.963	-93.62
198.351	-16.44
198.738	-10.55
199.125	-28.96
199.512	31.2
199.899	-56.11
200.286	-22.66
200.673	23.73
201.06	-42.19
201.447	-42.68
201.833	32.27
202.22	-28.79
202.607	-48.55
202.994	-7.93
203.38	4.81
203.767	5.31
204.154	22.92
204.54	-13.56
204.927	-9.95
205.313	13.1
205.699	24.91
206.086	23.01
206.472	28.61
206.858	-13.53
207.245	-23.78
207.631	-6.53
208.017	24.75
208.403	-106.32
208.789	-2.82
209.175	-9.99
209.561	-307.48
209.947	11.03
210.333	-6.61
210.719	23.63
211.105	3.07
211.491	-7.46
211.876	-48.77
212.262	18.76
212.648	5.4
213.034	-12.14
213.419	17.88
213.805	-60.3
214.19	-130.68
214.576	-5.66
214.961	-5.85
215.346	-37.52
215.732	10.23
216.117	7.44
216.502	-23.92
216.888	8.59
217.273	18.38
217.658	-21.65
218.043	-45.59
218.428	-8.78
218.813	9.54
219.198	-45.81
219.583	-20.62
219.968	-20.47
220.353	-41.79
220.738	-19.31
221.122	-10.21
221.507	-14.75
221.892	-36.38
222.276	-45.78
222.661	-6.27
223.046	-27.11
223.43	13.21
223.815	5.34
224.199	-10.69
224.583	1.3
224.968	-10.24
225.352	-4.68
225.736	11.55
226.121	1.55
226.505	-1.07
226.889	-1.35
227.273	-7.59
227.657	2.45
228.041	1
228.425	-0.65
228.809	-1.44
229.193	1.86
229.577	3.26
229.961	3.33
230.344	3.91
230.728	3.96
231.112	3.87
231.495	2.95
231.879	3.51
232.263	4.07
232.646	2.35
233.03	3.98
233.413	2.88
233.797	2.45
234.18	4.36
234.563	3.81
234.946	0.98
235.33	3.19
235.713	3.42
236.096	4.37
236.479	3.12
236.862	3.98
237.245	1.71
237.628	3.82
238.011	3.08
238.394	2.88
238.777	3.75
239.16	5.89
239.543	4.18
239.925	1.87
240.308	2.71
240.691	2.38
241.073	3.08
241.456	3.2
241.838	2.44
242.221	2.79
242.603	3.36
242.986	3.3
243.368	3.52
243.75	3.43
244.133	3.78
244.515	3.37
244.897	3.33
245.279	3.41
245.661	3.18
246.043	2.77
246.425	3.34
246.807	3.86
247.189	2.38
247.571	3.39
247.953	3.49
248.335	3.42
248.717	3.47
249.098	3.48
249.48	3.6
249.862	3.81
250.243	3.35
250.625	3.73
251.006	3.51
251.388	3.01
251.769	1.7
252.151	3.92
252.532	3.33
252.913	3.1
253.295	3.24
253.676	3.15
254.057	3.12
254.438	3.85
254.819	2.91
255.2	3.82
255.581	3.41
255.962	3.69
256.343	3.12
256.724	3.18
257.105	2.81
257.486	3.34
257.867	3.37
258.247	2.76
258.628	3.52
259.009	3.05
259.389	2.91
259.77	2.82
260.15	4.05
260.531	3.17
260.911	3.32
261.292	3.17
261.672	3.51
262.052	3.44
262.432	3.17
262.813	3.48
263.193	3.19
263.573	2.99
263.953	3.45
264.333	3.22
264.713	3.21
265.093	2.73
265.473	2.42
265.853	3.12
266.233	3.26
266.612	3.16
266.992	2.9
267.372	3.23
267.752	3.56
268.131	3.11
268.511	3.08
268.89	3.35
269.27	2.99
269.649	2.84
270.029	3.58
270.408	2.58
270.787	3.24
271.167	3.13
271.546	3.74
271.925	3.37
272.304	3.05
272.683	3.12
273.062	3
273.441	2.72
273.82	3.29
274.199	3.07
274.578	3.04
274.957	3.08
275.336	3.26
275.715	3.48
276.093	2.69
276.472	2.85
276.851	3.63
277.229	3.12
277.608	3.15
277.986	3.2
278.365	3.85
278.743	3.03
279.122	2.92
279.5	2.89
279.878	2.82
280.257	2.78
280.635	3.02
281.013	2.85
281.391	3.02
281.769	3.14
282.147	2.76
282.525	2.76
282.903	2.75
283.281	3.38
283.659	3.26
284.037	2.94
284.415	2.69
284.792	3.03
285.17	2.72
285.548	2.92
285.925	2.74
286.303	3.38
286.68	3.28
287.058	2.94
287.435	2.87
287.813	3.03
288.19	2.91
288.567	2.68
288.945	2.79
289.322	2.97
289.699	2.95
290.076	2.75
290.453	2.91
290.83	3.2
291.207	2.82
291.584	3.08
291.961	2.82
292.338	2.89
292.715	2.73
293.092	3.34
293.469	2.9
293.845	3.07
294.222	3.41
294.599	2.62
294.975	2.43
295.352	2.78
295.728	3.02
296.105	3.03
296.481	3.16
296.858	3.13
297.234	2.52
297.61	3.07
297.986	3.12
298.363	2.97
298.739	2.97
299.115	3.13
299.491	3.06
299.867	2.87
300.243	3
300.619	2.99
300.995	3.15
301.371	3.04
301.746	3.55
302.122	2.53
302.498	3.24
302.874	3.39
303.249	2.94
303.625	2.92
304	3.24
304.376	3.17
304.751	3.09
305.127	2.76
305.502	2.97
305.878	3.4
306.253	2.74
306.628	3.18
307.003	3.23
307.378	2.99
307.754	3.25
308.129	2.61
308.504	3.24
308.879	3.16
309.254	3.09
309.629	2.95
310.003	2.75
310.378	3.17
310.753	3.01
311.128	2.8
311.502	3.32
311.877	2.86
312.252	2.96
312.626	3.39
313.001	3.39
313.375	3.37
313.75	3.11
314.124	3.24
314.498	3.2
314.873	2.73
315.247	2.66
315.621	2.94
315.995	3.32
316.369	2.55
316.743	2.66
317.117	2.59
317.491	3.3
317.865	2.34
318.239	3.07
318.613	3.13
318.987	3.11
319.361	2.91
319.734	3.26
320.108	3.49
320.482	3.5
320.855	2.91
321.229	2.86
321.602	3.46
321.976	2.85
322.349	3.15
322.723	2.81
323.096	2.94
323.469	2.73
323.843	2.76
324.216	2.96
324.589	3.57
324.962	3.02
325.335	3.4
325.708	2.78
326.081	3.1
326.454	2.97
326.827	2.91
327.2	2.75
327.573	3.52
327.945	3.21
328.318	2.77
328.691	3.05
329.063	2.97
329.436	2.57
329.809	3.39
330.181	3.53
330.553	3.2
330.926	3.18
331.298	2.89
331.671	3.14
332.043	2.48
332.415	3.03
332.787	3.41
333.159	3.01
333.532	3.13
333.904	3.28
334.276	3.17
334.648	3.29
335.02	3.45
335.391	3.15
335.763	2.92
336.135	3.48
336.507	3.02
336.879	2.9
337.25	3.25
337.622	3.07
337.993	2.96
338.365	3.21
338.736	2.91
339.108	3.23
339.479	2.86
339.851	3.31
340.222	3.27
340.593	2.96
340.964	3.55
341.336	3.2
341.707	3.06
342.078	3.11
342.449	2.75
342.82	3.38
343.191	3.15
343.562	3.12
343.933	2.98
344.303	3.24
344.674	3.22
345.045	2.91
345.416	3.51
345.786	3.16
346.157	3.37
346.527	3.25
346.898	3.03
347.268	3.24
347.639	2.97
348.009	3.23
348.38	2.82
348.75	3.2
349.12	3.52
349.49	3.2
349.861	3.3
350.231	3.11
350.601	3.47
350.971	3.03
351.341	3.36
351.711	3.18
352.081	2.71
352.45	2.97
352.82	3
353.19	2.99
353.56	3.23
353.929	3.14
354.299	3.77
354.669	3.43
355.038	3.08
355.408	3.24
355.777	3.31
356.147	3.22
356.516	3.05
356.885	3.15
357.254	2.85
357.624	2.72
357.993	3.28
358.362	3.4
358.731	3.51
359.1	3.24
359.469	3.41
359.838	3.49
360.207	3.36
360.576	3.35
360.945	3.25
361.314	3.08
361.682	2.97
362.051	3.13
362.42	3.44
362.788	3.4
363.157	3.11
363.525	3.46
363.894	3.17
364.262	3.45
364.631	3.39
364.999	3.14
365.367	3.15
365.735	3.31
366.104	3.07
366.472	3.33
366.84	3.34
367.208	3.44
367.576	2.9
367.944	3.47
368.312	3.33
368.68	3.81
369.048	3.32
369.416	2.98
369.783	3.39
370.151	3.59
370.519	3.7
370.886	3.13
371.254	3.37
371.621	3.43
371.989	3.22
372.356	3.36
372.724	3.25
373.091	3.09
373.458	3.38
373.826	3.39
374.193	3.06
374.56	3.63
374.927	3.25
375.294	3.23
375.661	3.31
376.028	3.25
376.395	3.52
376.762	2.89
377.129	3.21
377.496	3.3
377.863	3.54
378.229	3.53
378.596	3.54
378.963	3.54
379.329	3.39
379.696	3.31
380.062	3.32
380.429	3.16
380.795	3.62
381.161	3.23
381.528	3.17
381.894	3.42
382.26	3.36
382.626	3.53
382.993	3.44
383.359	3.46
383.725	3.34
384.091	3.73
384.457	3.08
384.823	3.39
385.188	3.59
385.554	3.56
385.92	3.4
386.286	3.39
386.651	3.29
387.017	3.63
387.383	3.61
387.748	3.84
388.114	3.44
388.479	3.61
388.845	3.53
389.21	3.73
389.575	3.56
389.94	3.68
390.306	3.46
390.671	3.51
391.036	3.51
391.401	3.43
391.766	3.47
392.131	3.64
392.496	3.58
392.861	3.38
393.226	3.42
393.591	3.73
393.956	3.55
394.32	3.51
394.685	3.57
395.05	3.37
395.414	3.62
395.779	3.82
396.143	3.51
396.508	3.55
396.872	3.61
397.236	3.78
397.601	3.63
397.965	3.34
398.329	3.49
398.694	3.45
399.058	3.6
399.422	3.56
399.786	3.48
400.15	3.63
400.514	3.43
400.878	3.53
401.242	3.84
401.605	3.66
401.969	3.65
402.333	3.38
402.697	3.88
403.06	3.38
403.424	3.67
403.787	3.5
404.151	3.49
404.514	3.67
404.878	3.39
405.241	3.57
405.604	3.56
405.968	3.7
406.331	3.81
406.694	3.63
407.057	3.62
407.42	3.58
407.783	3.71
408.146	3.58
408.509	3.52
408.872	3.54
409.235	3.79
409.598	3.78
409.961	3.76
410.323	3.59
410.686	3.6
411.049	3.73
411.411	3.83
411.774	3.67
412.136	3.67
412.499	4.01
412.861	3.22
413.223	3.65
413.586	3.71
413.948	3.75
414.31	3.82
414.672	3.69
415.035	3.73
415.397	3.66
415.759	3.5
416.121	3.73
416.483	3.58
416.845	3.64
417.206	3.67
417.568	3.58
417.93	3.75
418.292	3.51
418.653	3.45
419.015	3.62
419.377	3.48
419.738	3.72
420.1	3.71
420.461	3.58
420.822	3.6
421.184	3.59
421.545	3.6
421.906	3.61
422.267	3.56
422.629	3.56
422.99	3.56
423.351	3.59
423.712	3.59
424.073	3.69
424.434	3.61
424.795	3.62
425.155	3.49
425.516	3.59
425.877	3.65
426.238	3.67
426.598	3.67
426.959	3.72
427.32	3.56
427.68	3.68
428.041	3.72
428.401	3.6
428.761	3.57
429.122	3.68
429.482	3.68
429.842	3.73
430.202	3.83
430.563	3.65
430.923	3.6
431.283	3.86
431.643	3.71
432.003	3.83
432.363	3.89
432.722	3.76
433.082	3.65
433.442	3.84
433.802	3.73
434.161	3.74
434.521	3.84
434.881	3.78
435.24	3.73
435.6	3.83
435.959	3.76
436.319	3.74
436.678	3.76
437.037	3.85
437.396	3.74
437.756	3.74
438.115	3.64
438.474	3.7
438.833	3.8
439.192	3.72
439.551	3.67
439.91	3.85
440.269	3.72
440.628	3.89
440.987	3.73
441.345	3.79
441.704	3.78
442.063	3.79
442.421	3.86
442.78	3.82
443.138	3.74
443.497	3.71
443.855	3.86
444.214	3.61
444.572	3.94
444.93	3.75
445.288	3.85
445.647	3.69
446.005	3.71
446.363	3.76
446.721	3.84
447.079	3.68
447.437	3.81
447.795	3.81
448.153	3.8
448.51	3.86
448.868	3.7
449.226	3.81
449.584	3.84
449.941	3.82
450.299	3.83
450.656	3.88
451.014	3.84
451.371	3.77
451.729	3.81
452.086	3.86
452.443	3.82
452.801	3.9
453.158	4.05
453.515	3.86
453.872	3.87
454.229	3.74
454.586	3.67
454.943	3.79
455.3	3.86
455.657	3.77
456.014	3.8
456.371	3.99
456.727	3.92
457.084	4.04
457.441	4.02
457.797	3.87
458.154	3.95
458.51	3.88
458.867	3.79
459.223	3.88
459.58	3.84
459.936	3.94
460.292	3.91
460.648	3.82
461.005	3.77
461.361	3.84
461.717	3.79
462.073	3.82
462.429	3.87
462.785	3.99
463.141	3.97
463.496	3.95
463.852	4.13
464.208	4.02
464.564	3.9
464.919	3.85
465.275	3.99
465.631	4.26
465.986	4.01
466.342	4.02
466.697	4.1
467.052	4.03
467.408	3.91
467.763	3.97
468.118	3.82
468.473	4.09
468.829	3.93
469.184	4.06
469.539	3.98
469.894	4.03
470.249	4.03
470.603	4.16
470.958	4.15
471.313	4.04
471.668	4.02
472.023	4.13
472.377	3.99
472.732	3.97
473.086	4.06
473.441	4
473.795	4.29
474.15	3.93
474.504	4.03
474.859	3.83
475.213	4.18
475.567	3.95
475.921	4.06
476.275	4.13
476.63	4.22
476.984	3.84
477.338	4.21
477.692	4.07
478.045	4.02
478.399	4.17
478.753	3.94
479.107	4.23
479.461	4.03
479.814	3.91
480.168	4.03
480.521	4.14
480.875	4.07
481.228	4.05
481.582	4.05
481.935	4.09
482.289	4.09
482.642	4.19
482.995	3.99
483.348	4.02
483.701	3.99
484.055	4.04
484.408	3.99
484.761	3.93
485.114	3.82
485.466	3.8
485.819	3.79
486.172	3.85
486.525	3.87
486.878	3.9
487.23	3.89
487.583	3.96
487.936	3.99
488.288	3.94
488.641	3.94
488.993	3.86
489.345	3.89
489.698	3.92
490.05	3.88
490.402	3.97
490.754	3.96
491.107	4.01
491.459	4.08
491.811	4.05
492.163	4.07
492.515	3.97
492.866	3.94
493.218	4
493.57	3.99
493.922	3.99
494.274	4.05
494.625	4.19
494.977	4.11
495.328	4.13
495.68	4.1
496.031	4.11
496.383	4.16
496.734	4.17
497.086	4.19
497.437	4.27
497.788	4.23
498.139	4.14
498.49	4.12
498.842	4.29
499.193	4.15
499.544	4.19
499.894	4.12
500.245	4.28
500.596	4.21
500.947	4.22
501.298	4.22
501.648	4.17
501.999	4.31
502.35	4.15
502.7	4.41
503.051	4.23
503.401	4.36
503.752	4.2
504.102	4.25
504.452	4.16
504.803	4.22
505.153	4.43
505.503	4.3
505.853	4.36
506.203	4.33
506.553	4.29
506.903	4.31
507.253	4.25
507.603	4.37
507.953	4.33
508.303	4.36
508.652	4.24
509.002	4.38
509.352	4.31
509.701	4.17
510.051	4.38
510.4	4.43
510.75	4.33
511.099	4.25
511.449	4.37
511.798	4.32
512.147	4.3
512.496	4.3
512.846	4.36
513.195	4.38
513.544	4.42
513.893	4.39
514.242	4.38
514.591	4.37
514.939	4.36
515.288	4.63
515.637	4.42
515.986	4.45
516.334	4.49
516.683	4.45
517.032	4.41
517.38	4.32
517.729	4.38
518.077	4.38
518.426	4.49
518.774	4.33
519.122	4.42
519.47	4.37
519.819	4.45
520.167	4.33
520.515	4.33
520.863	4.37
521.211	4.31
521.559	4.39
521.907	4.56
522.255	4.51
522.602	4.47
522.95	4.59
523.298	4.55
523.645	4.51
523.993	4.52
524.341	4.41
524.688	4.49
525.036	4.49
525.383	4.54
525.73	4.49
526.078	4.57
526.425	4.45
526.772	4.48
527.119	4.45
527.466	4.53
527.814	4.49
528.161	4.5
528.508	4.61
528.854	4.52
529.201	4.42
529.548	4.42
529.895	4.32
530.242	4.34
530.588	4.33
530.935	4.4
531.282	4.41
531.628	4.44
531.975	4.49
532.321	4.51
532.667	4.59
533.014	4.61
533.36	4.54
533.706	4.58
534.052	4.6
534.399	4.64
534.745	4.51
535.091	4.51
535.437	4.56
535.783	4.54
536.129	4.6
536.474	4.63
536.82	4.7
537.166	4.68
537.512	4.67
537.857	4.61
538.203	4.65
538.549	4.63
538.894	4.73
539.239	4.81
539.585	4.72
539.93	4.88
540.276	4.8
540.621	4.9
540.966	4.92
541.311	4.87
541.656	4.67
542.001	4.75
542.346	4.71
542.691	4.63
543.036	4.66
543.381	4.69
543.726	4.76
544.071	4.73
544.415	4.8
544.76	4.74
545.105	4.77
545.449	4.81
545.794	4.9
546.138	4.9
546.483	4.93
546.827	4.83
547.171	5.03
547.516	5.05
547.86	5.04
548.204	4.94
548.548	4.93
548.892	4.94
549.236	5.03
549.58	4.96
549.924	5.21
550.268	5.08
550.612	5.07
550.956	5.29
551.3	5.35
551.643	5.16
551.987	5.23
552.33	5.28
552.674	5.18
553.017	5.37
553.361	5.31
553.704	5.31
554.048	5.2
554.391	5.38
554.734	5.01
555.077	5.27
555.42	5.15
555.764	5.34
556.107	5.42
556.45	5.25
556.793	5.29
557.135	5.29
557.478	5.24
557.821	5.32
558.164	5.55
558.507	5.48
558.849	5.5
559.192	5.35
559.534	5.37
559.877	5.3
560.219	5.38
560.562	5.45
560.904	5.64
561.246	5.37
561.589	5.68
561.931	5.6
562.273	5.48
562.615	5.55
562.957	5.53
563.299	5.48
563.641	5.72
563.983	5.52
564.325	5.58
564.667	5.52
565.008	5.5
565.35	5.63
565.692	5.7
566.033	5.87
566.375	5.72
566.716	5.56
567.058	5.59
567.399	5.71
567.741	5.64
568.082	5.89
568.423	5.65
568.764	5.74
569.105	5.77
569.447	5.8
569.788	5.74
570.129	5.86
570.47	5.88
570.811	5.84
571.151	5.93
571.492	5.85
571.833	5.85
572.174	5.97
572.514	6.07
572.855	6.12
573.195	5.94
573.536	6.06
573.876	5.94
574.217	5.94
574.557	5.97
574.898	5.99
575.238	6.1
575.578	6.02
575.918	6
576.258	6.22
576.598	6.15
576.938	6.05
577.278	6.08
577.618	6.06
577.958	6.21
578.298	6.11
578.638	6.14
578.977	6.26
579.317	6.39
579.657	6.2
579.996	6.41
580.336	6.48
580.675	6.28
581.014	6.39
581.354	6.21
581.693	6.46
582.032	6.69
582.372	6.49
582.711	6.66
583.05	6.33
583.389	6.62
583.728	6.73
584.067	6.51
584.406	6.77
584.745	6.56
585.083	6.59
585.422	6.73
585.761	6.86
586.1	6.76
586.438	6.56
586.777	6.49
587.115	6.89
587.454	6.74
587.792	6.61
588.13	6.86
588.469	6.71
588.807	6.89
589.145	6.86
589.483	6.61
589.821	6.75
590.159	7.03
590.497	6.91
590.835	7.11
591.173	7.1
591.511	7.16
591.849	7.07
592.187	6.91
592.524	7
592.862	7.09
593.2	6.98
593.537	7.09
593.875	7.03
594.212	7.21
594.55	7.14
594.887	7.45
595.224	7.28
595.561	7.3
595.899	7.5
596.236	7.24
596.573	7.34
596.91	7.41
597.247	7.65
597.584	7.42
597.921	7.36
598.258	7.49
598.594	7.2
598.931	7.3
599.268	7.37
599.604	7.39
599.941	7.32
600.277	7.51
600.614	7.45
600.95	7.42
601.287	7.15
601.623	7.32
601.959	7.72
602.296	7.74
602.632	7.64
602.968	7.56
603.304	7.72
603.64	7.69
603.976	7.41
604.312	7.8
604.648	7.7
604.984	7.66
605.319	7.91
605.655	7.81
605.991	7.7
606.326	7.9
606.662	7.85
606.998	7.97
607.333	7.77
607.668	7.88
608.004	7.95
608.339	8.21
608.674	7.9
609.01	8.52
609.345	8.21
609.68	8.04
610.015	8.21
610.35	8.25
610.685	8.01
611.02	8.23
611.355	8.24
611.689	8.16
612.024	8.32
612.359	8.34
612.694	8.28
613.028	8.2
613.363	8.18
613.697	8.53
614.032	8.57
614.366	8.51
614.7	8.78
615.035	8.45
615.369	8.33
615.703	8.61
616.037	8.41
616.371	8.44
616.705	8.77
617.039	8.94
617.373	8.7
617.707	8.98
618.041	8.48
618.375	8.3
618.709	8.99
619.042	8.98
619.376	9.01
619.71	8.91
620.043	9.25
620.377	8.74
620.71	9.03
621.043	9.11
621.377	9
621.71	9.05
622.043	9.08
622.376	9.24
622.709	9.39
623.043	9.09
623.376	9.06
623.709	9.61
624.041	9.27
624.374	9.45
624.707	9.24
625.04	9.37
625.373	9.33
625.705	9.57
626.038	9.65
626.37	9.34
626.703	9.48
627.035	9.56
627.368	9.52
627.7	9.52
628.032	9.83
628.365	9.62
628.697	10.02
629.029	9.66
629.361	9.72
629.693	9.84
630.025	9.87
630.357	9.68
630.689	9.92
631.021	10.17
631.353	9.99
631.684	10.01
632.016	9.75
632.348	10.04
632.679	10.05
633.011	10.02
633.342	10.07
633.674	9.77
634.005	9.99
634.336	10.44
634.668	9.72
634.999	10.01
635.33	10.12
635.661	10.19
635.992	10.24
636.323	10.5
636.654	10.29
636.985	10.2
637.316	10.13
637.647	10.71
637.977	10.19
638.308	10.75
638.639	10.51
638.969	10.39
639.3	10.62
639.63	10.8
639.961	10.87
640.291	10.39
640.622	10.82
640.952	10.98
641.282	10.45
641.612	10.61
641.943	10.49
642.273	10.74
642.603	10.91
642.933	11.54
643.263	10.81
643.592	11.01
643.922	11.26
644.252	10.99
644.582	10.95
644.911	11.23
645.241	10.78
645.571	11.16
645.9	11.44
646.23	11.72
646.559	11.44
646.888	11.82
647.218	11.5
647.547	11.56
647.876	11.38
648.205	11.36
648.534	11.19
648.863	11.54
649.192	11.77
649.521	11.6
649.85	11.89
650.179	11.63
650.508	11.3
650.837	11.74
651.165	11.98
651.494	11.89
651.822	11.54
652.151	11.8
652.479	12.38
652.808	12.06
653.136	11.3
653.465	11.76
653.793	12.09
654.121	11.9
654.449	11.78
654.777	11.73
655.105	11.73
655.433	12.05
655.761	11.98
656.089	11.65
656.417	12.97
656.745	13.08
657.073	12.04
657.4	12.2
657.728	12.09
658.056	12.53
658.383	12.89
658.711	12.65
659.038	12.65
659.365	13.02
659.693	12.57
660.02	12.17
660.347	12.64
660.674	12.34
661.001	12.49
661.329	12.7
661.656	12.35
661.982	12.76
662.309	12.49
662.636	12.89
662.963	12.6
663.29	12.87
663.616	12.67
663.943	13.39
664.27	13.02
664.596	12.97
664.923	13.1
665.249	13.18
665.576	12.78
665.902	13.22
666.228	13.4
666.554	13.58
666.881	13.05
667.207	13.4
667.533	13.3
667.859	13.46
668.185	13.39
668.511	13.73
668.837	13.2
669.162	13.73
669.488	13.24
669.814	13.55
670.139	13.13
670.465	13.5
670.791	13.05
671.116	13.54
671.442	12.84
671.767	13.28
672.092	13.62
672.418	13.56
672.743	13.37
673.068	13.2
673.393	13.91
673.718	13.6
674.043	13.83
674.368	13.74
674.693	14.26
675.018	14.24
675.343	14.15
675.667	13.59
675.992	13.73
676.317	14.15
676.641	14.73
676.966	14.21
677.29	13.68
677.615	14.07
677.939	14.93
678.264	14.38
678.588	14.04
678.912	14.55
679.236	14.7
679.56	13.94
679.885	14.4
680.209	15.15
680.532	14.87
680.856	14.78
681.18	15.36
681.504	14.7
681.828	14.58
682.152	14.93
682.475	15.29
682.799	14.66
683.122	14.72
683.446	14.76
683.769	14.95
684.093	15.12
684.416	14.72
684.739	14.96
685.062	15.13
685.386	15.31
685.709	15.76
686.032	15.19
686.355	14.87
686.678	15.67
687.001	15.62
687.324	14.84
687.646	15.18
