Data from 0009_forehead_Reflection__4__316.txt Node

Date: Thu Dec 15 19:07:54 CST 2022
User: ToomeyLab
Spectrometer: FLMS14357
Trigger mode: 0
Integration Time (sec): 1.000000E-2
Scans to average: 100
Electric dark correction enabled: true
Nonlinearity correction enabled: false
Boxcar width: 0
XAxis mode: Wavelengths
Number of Pixels in Spectrum: 2048
>>>>>Begin Spectral Data<<<<<
189.047	259.55
189.435	259.55
189.823	259.55
190.211	-249.8
190.599	-4.03
190.987	-7.06
191.375	91.97
191.763	19.45
192.151	15.59
192.538	5.63
192.926	424.77
193.314	-1577.29
193.702	-368
194.089	44.13
194.477	12.7
194.864	78.37
195.252	33.46
195.639	83.72
196.027	-18952.38
196.414	9.44
196.801	165.1
197.189	21.82
197.576	382.73
197.963	-152.42
198.351	4.1
198.738	-27.81
199.125	44.79
199.512	16.84
199.899	-72.08
200.286	-53.97
200.673	37.96
201.06	-37.72
201.447	-0.93
201.833	23.07
202.22	27.36
202.607	-60.45
202.994	9.9
203.38	25.75
203.767	59.07
204.154	21.11
204.54	25.96
204.927	1.62
205.313	26.19
205.699	13.24
206.086	33.05
206.472	27.42
206.858	-3.75
207.245	17.26
207.631	-2.66
208.017	54.13
208.403	-28.12
208.789	3.79
209.175	-12.03
209.561	-89.81
209.947	4.39
210.333	-6.86
210.719	20.18
211.105	45.92
211.491	27.36
211.876	-36.84
212.262	22.39
212.648	-5.54
213.034	12.57
213.419	-11.73
213.805	-34.09
214.19	-50.7
214.576	13.37
214.961	21.63
215.346	3.46
215.732	14.84
216.117	20.37
216.502	-20.93
216.888	33.48
217.273	-6.35
217.658	-12.4
218.043	0.61
218.428	-2
218.813	-16.51
219.198	-28.68
219.583	8.34
219.968	-2.17
220.353	8.99
220.738	0.88
221.122	0.55
221.507	1.67
221.892	-1.89
222.276	-11.16
222.661	-0.78
223.046	4.64
223.43	9.32
223.815	10.11
224.199	13.21
224.583	2.99
224.968	6.22
225.352	0.33
225.736	6.31
226.121	-3.82
226.505	2.69
226.889	6.13
227.273	-3.15
227.657	0.83
228.041	0.96
228.425	2.26
228.809	2.68
229.193	2.77
229.577	3.94
229.961	2.17
230.344	3.51
230.728	3.61
231.112	3.66
231.495	1.76
231.879	1.99
232.263	5.78
232.646	3.6
233.03	4.59
233.413	2.58
233.797	2.1
234.18	3.67
234.563	4.04
234.946	2.83
235.33	2.44
235.713	3.31
236.096	4.32
236.479	3.34
236.862	2.25
237.245	2.29
237.628	3.19
238.011	3.06
238.394	3.39
238.777	3.17
239.16	5.55
239.543	4.2
239.925	3.12
240.308	3.03
240.691	2.54
241.073	2.96
241.456	2.87
241.838	2.19
242.221	2.85
242.603	3.73
242.986	3.6
243.368	3.46
243.75	3.55
244.133	3.45
244.515	3.27
244.897	3.43
245.279	2.88
245.661	3.88
246.043	3.62
246.425	4.04
246.807	3.1
247.189	3.3
247.571	3.17
247.953	3.17
248.335	3.41
248.717	3.43
249.098	3.42
249.48	3.41
249.862	3.64
250.243	3.88
250.625	2.97
251.006	4.31
251.388	3.6
251.769	2.61
252.151	4.72
252.532	3.91
252.913	3.5
253.295	3.24
253.676	3.29
254.057	3.49
254.438	3.39
254.819	4.55
255.2	3.55
255.581	5.14
255.962	3.69
256.343	4.02
256.724	3.5
257.105	4.32
257.486	2.89
257.867	3.53
258.247	3.68
258.628	4.42
259.009	2.74
259.389	3.21
259.77	3.52
260.15	4.38
260.531	3.14
260.911	3.68
261.292	3.39
261.672	3.5
262.052	3.49
262.432	3.84
262.813	3.83
263.193	3.45
263.573	3.64
263.953	3.38
264.333	3.48
264.713	3.41
265.093	3.48
265.473	3.28
265.853	2.88
266.233	3.55
266.612	3.74
266.992	3.72
267.372	3.47
267.752	4.28
268.131	3.43
268.511	3.5
268.89	4.11
269.27	3.13
269.649	3.08
270.029	3.53
270.408	3.24
270.787	3.61
271.167	4.04
271.546	3.86
271.925	3.76
272.304	3.07
272.683	3.3
273.062	3.51
273.441	2.95
273.82	3.63
274.199	3.1
274.578	3.73
274.957	3.52
275.336	3.52
275.715	3.59
276.093	3.03
276.472	2.94
276.851	3.55
277.229	3.35
277.608	2.96
277.986	3.51
278.365	3.32
278.743	3.25
279.122	3.4
279.5	3.04
279.878	2.99
280.257	3.64
280.635	3.37
281.013	2.76
281.391	3.38
281.769	3.72
282.147	3.79
282.525	3.11
282.903	2.7
283.281	3.79
283.659	3.64
284.037	3.59
284.415	3.44
284.792	3.76
285.17	3.51
285.548	3.4
285.925	3.36
286.303	3.99
286.68	3.73
287.058	3.79
287.435	3.59
287.813	3.64
288.19	3.32
288.567	3.51
288.945	3.68
289.322	4.08
289.699	3.89
290.076	3.58
290.453	3.25
290.83	4.1
291.207	3.84
291.584	4.32
291.961	4.05
292.338	3.96
292.715	4.03
293.092	4.48
293.469	3.72
293.845	4.24
294.222	4.5
294.599	3.95
294.975	3.74
295.352	4.67
295.728	4.26
296.105	4.25
296.481	4.72
296.858	4.24
297.234	4.23
297.61	4.54
297.986	5.06
298.363	4.66
298.739	4.95
299.115	4.68
299.491	4.85
299.867	4.57
300.243	4.79
300.619	4.71
300.995	5.54
301.371	5.25
301.746	5.32
302.122	4.83
302.498	4.96
302.874	5.57
303.249	5.08
303.625	4.93
304	5.58
304.376	5.81
304.751	5.84
305.127	5.69
305.502	5.24
305.878	5.62
306.253	5.49
306.628	5.74
307.003	5.6
307.378	5.43
307.754	5.84
308.129	5.28
308.504	5.87
308.879	5.52
309.254	6.48
309.629	6.16
310.003	6.15
310.378	6.3
310.753	6.09
311.128	6.01
311.502	6.46
311.877	6.23
312.252	6.15
312.626	6.76
313.001	6.3
313.375	6.64
313.75	6.45
314.124	6.73
314.498	7.03
314.873	6.85
315.247	6.65
315.621	6.66
315.995	7.08
316.369	6.73
316.743	6.83
317.117	6.97
317.491	7.15
317.865	7.14
318.239	7.55
318.613	7.57
318.987	7.14
319.361	7.38
319.734	7.29
320.108	7.52
320.482	8.01
320.855	7.86
321.229	8.05
321.602	7.82
321.976	7.28
322.349	8.38
322.723	8.02
323.096	8.35
323.469	7.63
323.843	7.39
324.216	8.14
324.589	8.58
324.962	8.23
325.335	7.94
325.708	8.32
326.081	8.63
326.454	8.56
326.827	8.56
327.2	8.06
327.573	8.96
327.945	8.84
328.318	8.43
328.691	8.55
329.063	8.84
329.436	8.77
329.809	9.06
330.181	9.41
330.553	9.46
330.926	9.68
331.298	9.34
331.671	9.36
332.043	9.43
332.415	9.78
332.787	9.49
333.159	9.55
333.532	9.65
333.904	9.64
334.276	9.66
334.648	9.68
335.02	10.09
335.391	9.33
335.763	9.84
336.135	9.79
336.507	9.86
336.879	10.31
337.25	9.74
337.622	10.07
337.993	10.05
338.365	10.3
338.736	10.16
339.108	9.98
339.479	10.12
339.851	10.76
340.222	10.89
340.593	10.06
340.964	10.55
341.336	10.26
341.707	10.64
342.078	10.91
342.449	10.56
342.82	10.95
343.191	10.65
343.562	10.89
343.933	10.94
344.303	11.08
344.674	10.98
345.045	11.18
345.416	11.46
345.786	10.93
346.157	11.15
346.527	11.18
346.898	11.03
347.268	11.7
347.639	11.03
348.009	11.52
348.38	11.72
348.75	11.59
349.12	11.9
349.49	11.9
349.861	11.81
350.231	11.62
350.601	11.93
350.971	11.63
351.341	11.75
351.711	12.44
352.081	11.69
352.45	11.97
352.82	12.17
353.19	12.22
353.56	12.14
353.929	12.25
354.299	12.5
354.669	12.73
355.038	12.75
355.408	12.8
355.777	13.29
356.147	12.76
356.516	12.52
356.885	13.03
357.254	12.86
357.624	12.94
357.993	12.94
358.362	13.12
358.731	13.54
359.1	13.07
359.469	13.27
359.838	13.14
360.207	13.16
360.576	13.52
360.945	13.57
361.314	13.5
361.682	13.35
362.051	13.72
362.42	13.48
362.788	13.81
363.157	13.57
363.525	13.83
363.894	13.6
364.262	13.91
364.631	14.19
364.999	13.92
365.367	14.11
365.735	14
366.104	14.05
366.472	13.91
366.84	14.63
367.208	14.56
367.576	14.46
367.944	14.91
368.312	14.41
368.68	14.86
369.048	14.58
369.416	14.38
369.783	14.72
370.151	15.13
370.519	15.01
370.886	14.74
371.254	15.23
371.621	15.32
371.989	15.43
372.356	15.33
372.724	14.99
373.091	15.01
373.458	15.16
373.826	15.64
374.193	15.36
374.56	15.5
374.927	15.55
375.294	15.86
375.661	16.06
376.028	15.58
376.395	15.94
376.762	15.57
377.129	15.85
377.496	16.03
377.863	16.33
378.229	16.33
378.596	16.32
378.963	16.63
379.329	16.17
379.696	16.23
380.062	16.42
380.429	15.94
380.795	16.79
381.161	16.43
381.528	16.6
381.894	16.76
382.26	16.75
382.626	16.79
382.993	17.29
383.359	16.88
383.725	16.74
384.091	17.2
384.457	17.07
384.823	17.11
385.188	17.25
385.554	17.16
385.92	17.45
386.286	17.33
386.651	17.51
387.017	17.77
387.383	17.63
387.748	18.02
388.114	17.83
388.479	17.79
388.845	17.77
389.21	18.02
389.575	18.18
389.94	18
390.306	18.22
390.671	18.23
391.036	18.37
391.401	18.27
391.766	18.33
392.131	18.7
392.496	18.57
392.861	18.36
393.226	18.59
393.591	18.59
393.956	18.48
394.32	18.87
394.685	18.83
395.05	18.99
395.414	18.88
395.779	19.09
396.143	18.76
396.508	18.92
396.872	18.97
397.236	19.4
397.601	19.12
397.965	19.25
398.329	19.28
398.694	19.43
399.058	19.59
399.422	19.63
399.786	19.59
400.15	19.48
400.514	19.86
400.878	19.64
401.242	20.01
401.605	19.68
401.969	19.97
402.333	19.87
402.697	20.44
403.06	20.11
403.424	20.27
403.787	20.18
404.151	20.11
404.514	20.27
404.878	20.08
405.241	20.34
405.604	20.42
405.968	20.31
406.331	20.59
406.694	20.42
407.057	20.53
407.42	20.76
407.783	20.9
408.146	20.88
408.509	21.06
408.872	21.04
409.235	21.08
409.598	21.16
409.961	20.98
410.323	21.08
410.686	21.07
411.049	21.49
411.411	21.34
411.774	21.2
412.136	21.5
412.499	21.61
412.861	21.33
413.223	21.51
413.586	21.68
413.948	21.9
414.31	22
414.672	21.79
415.035	21.91
415.397	21.79
415.759	21.77
416.121	22.01
416.483	22.06
416.845	21.95
417.206	21.87
417.568	22.01
417.93	22.15
418.292	22.09
418.653	21.95
419.015	21.94
419.377	21.98
419.738	22.19
420.1	22.35
420.461	22.28
420.822	22.13
421.184	22.26
421.545	22.33
421.906	22.28
422.267	22.23
422.629	22.1
422.99	22.18
423.351	22.37
423.712	22.49
424.073	22.62
424.434	22.68
424.795	22.56
425.155	22.68
425.516	22.57
425.877	22.68
426.238	22.78
426.598	23.02
426.959	23
427.32	23.07
427.68	23.16
428.041	23.41
428.401	23.55
428.761	23.55
429.122	23.51
429.482	24.07
429.842	23.91
430.202	23.94
430.563	23.89
430.923	24.01
431.283	24.35
431.643	24.17
432.003	24.21
432.363	24.2
432.722	24.2
433.082	24.22
433.442	24.35
433.802	24.38
434.161	24.4
434.521	24.32
434.881	24.54
435.24	24.28
435.6	24.63
435.959	24.65
436.319	24.56
436.678	24.8
437.037	24.96
437.396	24.73
437.756	24.84
438.115	24.95
438.474	25.26
438.833	24.97
439.192	25.07
439.551	25.12
439.91	25.29
440.269	25.24
440.628	25
440.987	25.36
441.345	25.25
441.704	25.23
442.063	25.11
442.421	25.15
442.78	25.22
443.138	25.37
443.497	25.47
443.855	25.49
444.214	25.64
444.572	25.74
444.93	25.96
445.288	25.82
445.647	25.78
446.005	25.74
446.363	25.86
446.721	25.89
447.079	25.87
447.437	25.83
447.795	25.71
448.153	25.82
448.51	25.89
448.868	25.9
449.226	26.13
449.584	26.25
449.941	26.3
450.299	26.38
450.656	26.55
451.014	26.6
451.371	26.65
451.729	26.89
452.086	26.98
452.443	27.05
452.801	26.91
453.158	27.05
453.515	27.08
453.872	27
454.229	26.9
454.586	27.04
454.943	27.13
455.3	27.19
455.657	27.3
456.014	27.31
456.371	27.47
456.727	27.36
457.084	27.71
457.441	27.59
457.797	27.83
458.154	27.79
458.51	27.87
458.867	27.68
459.223	27.87
459.58	27.95
459.936	28.05
460.292	27.82
460.648	27.59
461.005	27.62
461.361	27.49
461.717	27.53
462.073	27.7
462.429	28.02
462.785	28.13
463.141	28.42
463.496	28.34
463.852	28.43
464.208	28.61
464.564	28.48
464.919	28.79
465.275	28.75
465.631	29
465.986	28.83
466.342	28.82
466.697	28.84
467.052	29.18
467.408	29.06
467.763	29.03
468.118	29.17
468.473	29.24
468.829	29.15
469.184	29.22
469.539	29.07
469.894	29.3
470.249	29.39
470.603	29.57
470.958	29.77
471.313	29.53
471.668	29.66
472.023	29.72
472.377	29.78
472.732	29.71
473.086	29.91
473.441	30.14
473.795	30.22
474.15	30.09
474.504	30.19
474.859	30.02
475.213	30.05
475.567	30.23
475.921	30.29
476.275	30.37
476.63	30.36
476.984	30.47
477.338	30.49
477.692	30.16
478.045	30.44
478.399	30.34
478.753	30.34
479.107	30.59
479.461	30.35
479.814	30.58
480.168	30.61
480.521	30.7
480.875	30.74
481.228	30.79
481.582	30.74
481.935	30.81
482.289	30.82
482.642	30.84
482.995	30.67
483.348	30.66
483.701	30.4
484.055	30.4
484.408	30.26
484.761	29.92
485.114	29.57
485.466	29.68
485.819	29.89
486.172	30.04
486.525	30.25
486.878	30.39
487.23	30.66
487.583	30.76
487.936	30.63
488.288	30.55
488.641	30.41
488.993	30.32
489.345	30.35
489.698	30.47
490.05	30.5
490.402	30.75
490.754	30.98
491.107	31.33
491.459	31.55
491.811	31.48
492.163	31.45
492.515	31.17
492.866	30.87
493.218	30.87
493.57	31.01
493.922	31.16
494.274	31.65
494.625	31.78
494.977	32
495.328	32.1
495.68	32.47
496.031	32.62
496.383	32.64
496.734	32.71
497.086	32.75
497.437	32.86
497.788	32.72
498.139	32.64
498.49	32.6
498.842	32.64
499.193	32.43
499.544	32.66
499.894	32.72
500.245	32.92
500.596	33.01
500.947	33.11
501.298	33.37
501.648	33.18
501.999	33.44
502.35	33.41
502.7	33.43
503.051	33.56
503.401	33.86
503.752	33.65
504.102	33.56
504.452	33.81
504.803	33.79
505.153	33.87
505.503	33.87
505.853	33.81
506.203	33.81
506.553	33.9
506.903	34.21
507.253	33.83
507.603	34.08
507.953	34.09
508.303	34.14
508.652	34.11
509.002	34.14
509.352	34.08
509.701	34.1
510.051	34.27
510.4	34.09
510.75	34.09
511.099	34
511.449	34.25
511.798	34.37
512.147	34.27
512.496	34.43
512.846	34.47
513.195	34.49
513.544	34.6
513.893	34.45
514.242	34.7
514.591	34.6
514.939	34.85
515.288	34.95
515.637	34.92
515.986	35
516.334	35
516.683	35.1
517.032	35.22
517.38	35.06
517.729	35.39
518.077	35.21
518.426	35.19
518.774	35.25
519.122	35
519.47	35.02
519.819	34.8
520.167	34.81
520.515	34.94
520.863	34.93
521.211	35.09
521.559	35.05
521.907	35.4
522.255	35.43
522.602	35.67
522.95	35.67
523.298	35.84
523.645	35.78
523.993	35.9
524.341	36.12
524.688	36.13
525.036	36.07
525.383	35.96
525.73	36
526.078	35.92
526.425	35.83
526.772	35.82
527.119	35.49
527.466	35.41
527.814	35.66
528.161	35.71
528.508	35.73
528.854	35.8
529.201	35.62
529.548	35.23
529.895	34.95
530.242	35.24
530.588	35.29
530.935	35.42
531.282	35.63
531.628	35.77
531.975	35.93
532.321	36.2
532.667	36.29
533.014	36.38
533.36	36.4
533.706	36.55
534.052	36.34
534.399	36.14
534.745	35.87
535.091	35.9
535.437	36.14
535.783	36.38
536.129	36.62
536.474	36.79
536.82	36.78
537.166	36.96
537.512	37.08
537.857	36.83
538.203	36.86
538.549	36.86
538.894	36.94
539.239	37.21
539.585	37.23
539.93	37.56
540.276	37.62
540.621	37.78
540.966	37.72
541.311	37.67
541.656	37.61
542.001	37.24
542.346	37.16
542.691	36.78
543.036	36.71
543.381	36.81
543.726	37.18
544.071	37.23
544.415	37.39
544.76	37.41
545.105	37.49
545.449	37.69
545.794	37.92
546.138	38.05
546.483	37.97
546.827	38.25
547.171	38.02
547.516	38.23
547.86	38.24
548.204	38.04
548.548	38.17
548.892	38.21
549.236	38.34
549.58	38.7
549.924	38.9
550.268	38.94
550.612	39.19
550.956	39.09
551.3	39.3
551.643	39.25
551.987	39.58
552.33	39.68
552.674	39.33
553.017	39.68
553.361	39.46
553.704	39.56
554.048	39.48
554.391	39.18
554.734	39.18
555.077	39.32
555.42	39.64
555.764	39.63
556.107	39.8
556.45	39.92
556.793	39.87
557.135	40.03
557.478	40.14
557.821	40.2
558.164	40.23
558.507	40.11
558.849	40.22
559.192	40.2
559.534	40.11
559.877	40.27
560.219	40.39
560.562	40.33
560.904	40.36
561.246	40.4
561.589	40.36
561.931	40.53
562.273	40.43
562.615	40.71
562.957	40.43
563.299	40.71
563.641	40.83
563.983	40.48
564.325	40.95
564.667	40.8
565.008	41
565.35	40.86
565.692	40.89
566.033	40.99
566.375	40.96
566.716	40.61
567.058	40.79
567.399	40.83
567.741	40.78
568.082	40.72
568.423	40.82
568.764	41.11
569.105	40.89
569.447	41.15
569.788	41.26
570.129	41.35
570.47	41.32
570.811	41.32
571.151	41.24
571.492	41.21
571.833	41.57
572.174	41.58
572.514	41.39
572.855	41.39
573.195	41.4
573.536	41.38
573.876	41.42
574.217	41.43
574.557	41.48
574.898	41.62
575.238	41.8
575.578	41.8
575.918	41.7
576.258	41.74
576.598	41.62
576.938	41.58
577.278	41.78
577.618	41.96
577.958	42.31
578.298	42.35
578.638	42.14
578.977	42.56
579.317	42.27
579.657	42.3
579.996	42.67
580.336	42.53
580.675	42.54
581.014	42.72
581.354	42.35
581.693	42.99
582.032	43.05
582.372	42.83
582.711	43.08
583.05	42.93
583.389	43.08
583.728	43.24
584.067	43.37
584.406	43.23
584.745	42.98
585.083	43.05
585.422	43
585.761	43.41
586.1	43.21
586.438	43.36
586.777	43.46
587.115	43.39
587.454	43.33
587.792	43.31
588.13	43.4
588.469	43.46
588.807	43.71
589.145	43.85
589.483	43.68
589.821	43.65
590.159	43.65
590.497	43.53
590.835	43.85
591.173	43.74
591.511	43.76
591.849	43.87
592.187	43.69
592.524	43.73
592.862	43.71
593.2	43.89
593.537	44.1
593.875	43.99
594.212	43.86
594.55	44.21
594.887	44.12
595.224	44.05
595.561	43.83
595.899	44.22
596.236	43.81
596.573	44.02
596.91	44.26
597.247	44.25
597.584	44.03
597.921	44.08
598.258	43.94
598.594	43.94
598.931	43.69
599.268	44.04
599.604	44.02
599.941	44.37
600.277	44.58
600.614	44.68
600.95	44.85
601.287	45.06
601.623	44.42
601.959	44.8
602.296	44.59
602.632	44.52
602.968	45.17
603.304	45.16
603.64	44.73
603.976	44.91
604.312	44.68
604.648	44.84
604.984	44.35
605.319	44.64
605.655	44.54
605.991	44.56
606.326	44.34
606.662	44.61
606.998	44.71
607.333	44.93
607.668	44.71
608.004	45.13
608.339	45.24
608.674	45.13
609.01	45.48
609.345	45.53
609.68	45.19
610.015	45.69
610.35	45.38
610.685	45.17
611.02	44.88
611.355	45.05
611.689	44.96
612.024	45.05
612.359	45.53
612.694	45.54
613.028	45.7
613.363	45.25
613.697	45.8
614.032	45.91
614.366	45.96
614.7	45.99
615.035	46.05
615.369	46
615.703	46.53
616.037	46.13
616.371	46.09
616.705	46.38
617.039	46.35
617.373	46.33
617.707	46.67
618.041	46.43
618.375	46.01
618.709	46.31
619.042	46.51
619.376	46.74
619.71	46.6
620.043	46.44
620.377	46.52
620.71	45.8
621.043	46.63
621.377	46.33
621.71	46.66
622.043	46.74
622.376	46.49
622.709	46.66
623.043	46.29
623.376	46.5
623.709	47.36
624.041	46.54
624.374	47.1
624.707	47.08
625.04	47
625.373	47.14
625.705	47.49
626.038	47.03
626.37	47.03
626.703	47.09
627.035	46.92
627.368	46.79
627.7	46.73
628.032	46.9
628.365	46.74
628.697	47.17
629.029	47.18
629.361	46.88
629.693	47.35
630.025	47.42
630.357	46.97
630.689	47.37
631.021	47.1
631.353	47.79
631.684	47.39
632.016	47.26
632.348	47.7
632.679	47.78
633.011	47.38
633.342	47.52
633.674	48.1
634.005	47.65
634.336	47.73
634.668	47.24
634.999	47.3
635.33	47.33
635.661	47.6
635.992	47.99
636.323	47.72
636.654	47.63
636.985	47.81
637.316	48.01
637.647	47.81
637.977	47.68
638.308	48
638.639	48.06
638.969	47.86
639.3	48.41
639.63	48.19
639.961	48.2
640.291	48.41
640.622	48.01
640.952	48.66
641.282	48.67
641.612	48.14
641.943	48.25
642.273	48.11
642.603	48.42
642.933	49.14
643.263	48.74
643.592	49.06
643.922	48.55
644.252	48.25
644.582	48.37
644.911	48.54
645.241	48.27
645.571	48.76
645.9	48.45
646.23	49.01
646.559	49.04
646.888	48.89
647.218	49.26
647.547	48.89
647.876	48.81
648.205	48.59
648.534	49.11
648.863	48.77
649.192	49.51
649.521	49.16
649.85	49.28
650.179	49.07
650.508	49.28
650.837	48.5
651.165	49.22
651.494	49.26
651.822	48.51
652.151	48.8
652.479	49.44
652.808	48.97
653.136	48.6
653.465	49.83
653.793	49.23
654.121	49.39
654.449	49.38
654.777	49.3
655.105	49.09
655.433	49.26
655.761	49.3
656.089	49.21
656.417	50.07
656.745	50.08
657.073	49.76
657.4	49.01
657.728	48.87
658.056	49.56
658.383	49.43
658.711	49.91
659.038	49.64
659.365	49.44
659.693	49.4
660.02	49.52
660.347	49.39
660.674	49.18
661.001	49.7
661.329	49.96
661.656	49.35
661.982	49.76
662.309	49.87
662.636	50.51
662.963	49.65
663.29	49.99
663.616	50.3
663.943	50.04
664.27	50.13
664.596	50.21
664.923	50.09
665.249	50.52
665.576	50.39
665.902	49.62
666.228	50.41
666.554	49.74
666.881	49.87
667.207	50.4
667.533	49.86
667.859	50.67
668.185	50.12
668.511	50.18
668.837	50.2
669.162	49.98
669.488	50.1
669.814	50.45
670.139	49.94
670.465	50.76
670.791	50.7
