Data from 0009_forehead_Reflection__2__314.txt Node

Date: Thu Dec 15 19:07:33 CST 2022
User: ToomeyLab
Spectrometer: FLMS14357
Trigger mode: 0
Integration Time (sec): 1.000000E-2
Scans to average: 100
Electric dark correction enabled: true
Nonlinearity correction enabled: false
Boxcar width: 0
XAxis mode: Wavelengths
Number of Pixels in Spectrum: 2048
>>>>>Begin Spectral Data<<<<<
189.047	-155.08
189.435	-155.08
189.823	-155.08
190.211	-550.61
190.599	20.77
190.987	38.79
191.375	15.68
191.763	19.04
192.151	152.59
192.538	157.42
192.926	184.15
193.314	-1039.74
193.702	-172.42
194.089	98.34
194.477	81.3
194.864	73.22
195.252	80.54
195.639	180.9
196.027	-3795.24
196.414	17.82
196.801	24.7
197.189	13.07
197.576	-347.48
197.963	-43.23
198.351	21.03
198.738	1.79
199.125	-37.59
199.512	26.87
199.899	20.95
200.286	-11.13
200.673	106.6
201.06	32.07
201.447	59.69
201.833	-21.88
202.22	20.46
202.607	11.57
202.994	12.47
203.38	-12.86
203.767	19.73
204.154	41.04
204.54	12.52
204.927	37.52
205.313	11.72
205.699	53.69
206.086	72.58
206.472	20.17
206.858	7
207.245	18.7
207.631	7.97
208.017	66.6
208.403	-45.94
208.789	7.38
209.175	30.63
209.561	-342.38
209.947	-5.63
210.333	-25.02
210.719	41.65
211.105	39.63
211.491	23.56
211.876	-16.38
212.262	19.69
212.648	2.1
213.034	6.14
213.419	36.2
213.805	-11.94
214.19	-56.65
214.576	3.61
214.961	10.57
215.346	-28.1
215.732	25.08
216.117	37.4
216.502	13.44
216.888	-5.27
217.273	34.38
217.658	-14.12
218.043	-25.84
218.428	-0.2
218.813	47.05
219.198	-29.1
219.583	-2.54
219.968	36.5
220.353	-2.59
220.738	5.21
221.122	9.42
221.507	8.21
221.892	-36.85
222.276	-44.18
222.661	9.12
223.046	-6.51
223.43	18.66
223.815	5.85
224.199	-4.57
224.583	4.22
224.968	6.62
225.352	-1.48
225.736	12.43
226.121	5.92
226.505	-7.65
226.889	0.65
227.273	3.52
227.657	5.27
228.041	4.89
228.425	2.18
228.809	2.97
229.193	6
229.577	4.1
229.961	2.63
230.344	4.41
230.728	4.65
231.112	5.25
231.495	2.41
231.879	3.63
232.263	6.05
232.646	4.25
233.03	6.42
233.413	4.79
233.797	3.33
234.18	0.83
234.563	2.82
234.946	3.81
235.33	3.7
235.713	4.23
236.096	5.59
236.479	5.28
236.862	4.34
237.245	4.08
237.628	4.75
238.011	4.49
238.394	2.89
238.777	3.77
239.16	6.42
239.543	5.04
239.925	3.81
240.308	3.57
240.691	4.12
241.073	4.72
241.456	5.87
241.838	4.56
242.221	4.71
242.603	4.88
242.986	4.12
243.368	4.88
243.75	4.77
244.133	4.86
244.515	4.8
244.897	4.49
245.279	4.01
245.661	4.48
246.043	3.82
246.425	4.73
246.807	4.14
247.189	4.54
247.571	4.26
247.953	4.51
248.335	4.31
248.717	4.58
249.098	4.4
249.48	4.54
249.862	4.7
250.243	4.75
250.625	4.3
251.006	5.07
251.388	4.54
251.769	4.51
252.151	4.43
252.532	4.6
252.913	5.03
253.295	4.78
253.676	4.42
254.057	4.3
254.438	5.27
254.819	4.92
255.2	4.61
255.581	5.69
255.962	5.06
256.343	4.94
256.724	5.08
257.105	5.09
257.486	4.16
257.867	4.12
258.247	4.57
258.628	5.85
259.009	4.07
259.389	4.01
259.77	4.91
260.15	5.18
260.531	4.74
260.911	4.21
261.292	4.59
261.672	4.39
262.052	4.57
262.432	4.31
262.813	4.81
263.193	4.67
263.573	4.9
263.953	4.56
264.333	4.93
264.713	4.73
265.093	4.5
265.473	4.68
265.853	5.31
266.233	4.8
266.612	3.96
266.992	4.85
267.372	4.86
267.752	4.91
268.131	4.35
268.511	4.58
268.89	5.1
269.27	4.24
269.649	4.59
270.029	4.57
270.408	4.67
270.787	4.84
271.167	4.64
271.546	5.44
271.925	5.13
272.304	4.45
272.683	4.61
273.062	4.01
273.441	4.56
273.82	5.05
274.199	4
274.578	4.65
274.957	4.3
275.336	4.72
275.715	4.52
276.093	3.71
276.472	3.91
276.851	4.08
277.229	4.16
277.608	4.3
277.986	4.33
278.365	4.9
278.743	4.52
279.122	4.47
279.5	3.97
279.878	4.12
280.257	4.8
280.635	4.59
281.013	4
281.391	4.29
281.769	4.97
282.147	4.5
282.525	4.96
282.903	4.23
283.281	4.66
283.659	5.18
284.037	4.1
284.415	4.32
284.792	4.58
285.17	4.21
285.548	4.77
285.925	4.49
286.303	4.57
286.68	4.3
287.058	4.9
287.435	4.47
287.813	4.79
288.19	4.54
288.567	4.54
288.945	4.24
289.322	5.14
289.699	4.85
290.076	4.53
290.453	4.83
290.83	5.01
291.207	4.76
291.584	5.33
291.961	5.3
292.338	5.13
292.715	5.06
293.092	5.31
293.469	5.25
293.845	5.45
294.222	5.49
294.599	4.82
294.975	5.13
295.352	5.7
295.728	5.51
296.105	5.37
296.481	5.56
296.858	5.69
297.234	5.31
297.61	5.44
297.986	5.89
298.363	6.03
298.739	5.93
299.115	5.7
299.491	5.9
299.867	5.86
300.243	5.91
300.619	5.76
300.995	6.01
301.371	6.41
301.746	6.41
302.122	5.9
302.498	6.13
302.874	6.4
303.249	6.25
303.625	6.45
304	6.58
304.376	7.23
304.751	6.13
305.127	6.7
305.502	6.51
305.878	6.72
306.253	6.49
306.628	7.24
307.003	6.37
307.378	6.73
307.754	6.82
308.129	6.98
308.504	7.39
308.879	7.09
309.254	7.48
309.629	7.27
310.003	7.36
310.378	7.72
310.753	7.53
311.128	7.43
311.502	7.86
311.877	7.52
312.252	7.75
312.626	8.07
313.001	8.14
313.375	7.86
313.75	8.01
314.124	8.25
314.498	8.44
314.873	8.26
315.247	8.07
315.621	8.08
315.995	8.61
316.369	7.93
316.743	8.71
317.117	8.24
317.491	8.53
317.865	8.36
318.239	9.18
318.613	8.87
318.987	8.49
319.361	8.95
319.734	9.39
320.108	9.18
320.482	9.39
320.855	8.92
321.229	9.18
321.602	9.4
321.976	9.33
322.349	9.56
322.723	9.56
323.096	9.4
323.469	9.37
323.843	9.57
324.216	9.59
324.589	9.62
324.962	9.57
325.335	9.94
325.708	9.82
326.081	9.78
326.454	10.29
326.827	9.9
327.2	10.38
327.573	11.17
327.945	10.19
328.318	10.02
328.691	10.05
329.063	10.11
329.436	10.39
329.809	11.04
330.181	11.16
330.553	11.2
330.926	11.56
331.298	10.58
331.671	11.37
332.043	11.3
332.415	10.94
332.787	10.84
333.159	10.98
333.532	11.16
333.904	10.97
334.276	11.07
334.648	11.79
335.02	11.74
335.391	11.53
335.763	11.45
336.135	11.66
336.507	11.89
336.879	11.58
337.25	11.82
337.622	11.83
337.993	11.69
338.365	11.77
338.736	12
339.108	11.88
339.479	12.25
339.851	12.42
340.222	12.48
340.593	12.23
340.964	12.7
341.336	12.43
341.707	12.6
342.078	12.7
342.449	12.51
342.82	12.92
343.191	12.7
343.562	13.1
343.933	12.75
344.303	13.14
344.674	13.05
345.045	13.14
345.416	13.72
345.786	13.19
346.157	13.61
346.527	13.36
346.898	13.66
347.268	13.82
347.639	13.57
348.009	13.64
348.38	13.43
348.75	13.71
349.12	13.82
349.49	14.01
349.861	14.18
350.231	14.08
350.601	14.16
350.971	14.51
351.341	14.49
351.711	14.36
352.081	14
352.45	14.4
352.82	14.25
353.19	14.3
353.56	14.5
353.929	14.76
354.299	14.86
354.669	14.98
355.038	15.14
355.408	15.14
355.777	15.4
356.147	14.96
356.516	15
356.885	15.17
357.254	14.89
357.624	14.73
357.993	15.5
358.362	15.27
358.731	15.71
359.1	15.48
359.469	15.67
359.838	15.31
360.207	15.59
360.576	15.85
360.945	15.79
361.314	15.53
361.682	15.77
362.051	16.25
362.42	16.29
362.788	16.29
363.157	15.83
363.525	16.47
363.894	16
364.262	16.42
364.631	16.58
364.999	16.37
365.367	16.21
365.735	16.32
366.104	16.78
366.472	16.74
366.84	16.97
367.208	17.18
367.576	16.98
367.944	17.13
368.312	17.04
368.68	17.39
369.048	17.18
369.416	17.01
369.783	17.33
370.151	17.87
370.519	17.71
370.886	17.72
371.254	18.29
371.621	18.06
371.989	18.01
372.356	18.2
372.724	18.07
373.091	17.8
373.458	17.92
373.826	18.33
374.193	18.64
374.56	18.54
374.927	18.48
375.294	18.63
375.661	18.65
376.028	17.95
376.395	18.73
376.762	18.26
377.129	18.78
377.496	18.89
377.863	19.08
378.229	18.92
378.596	19.14
378.963	19.21
379.329	18.88
379.696	19.07
380.062	19.32
380.429	19.17
380.795	19.58
381.161	19.2
381.528	19.52
381.894	19.75
382.26	19.72
382.626	19.8
382.993	20.25
383.359	19.93
383.725	19.82
384.091	20.05
384.457	20
384.823	20.05
385.188	20.4
385.554	20.36
385.92	20.08
386.286	20.52
386.651	20.4
387.017	20.66
387.383	20.64
387.748	20.86
388.114	21.03
388.479	20.97
388.845	20.69
389.21	21.2
389.575	21.18
389.94	21.36
390.306	21.45
390.671	21.43
391.036	21.33
391.401	21.54
391.766	21.33
392.131	21.84
392.496	21.55
392.861	21.66
393.226	21.4
393.591	21.89
393.956	21.71
394.32	21.87
394.685	21.99
395.05	21.93
395.414	22.12
395.779	22.2
396.143	22.08
396.508	22.18
396.872	22.35
397.236	22.56
397.601	22.6
397.965	22.75
398.329	22.63
398.694	22.46
399.058	22.68
399.422	22.75
399.786	23.06
400.15	22.85
400.514	23.04
400.878	23
401.242	23.24
401.605	23.09
401.969	23.26
402.333	23.23
402.697	23.63
403.06	23.45
403.424	23.72
403.787	23.6
404.151	23.43
404.514	23.58
404.878	23.7
405.241	23.46
405.604	23.52
405.968	23.75
406.331	23.76
406.694	24.01
407.057	23.9
407.42	23.83
407.783	24.16
408.146	24.14
408.509	24.32
408.872	24.56
409.235	24.48
409.598	24.58
409.961	24.51
410.323	24.66
410.686	24.73
411.049	24.71
411.411	24.9
411.774	24.76
412.136	24.66
412.499	25.03
412.861	24.82
413.223	25
413.586	25.35
413.948	25.12
414.31	25.32
414.672	25.16
415.035	25.4
415.397	25.38
415.759	25.46
416.121	25.66
416.483	25.53
416.845	25.59
417.206	25.73
417.568	25.68
417.93	25.71
418.292	25.74
418.653	25.51
419.015	25.8
419.377	25.7
419.738	25.74
420.1	25.56
420.461	25.8
420.822	25.89
421.184	25.88
421.545	25.88
421.906	25.81
422.267	25.73
422.629	25.71
422.99	25.87
423.351	25.9
423.712	25.97
424.073	26.19
424.434	26.39
424.795	26.23
425.155	26.22
425.516	26.19
425.877	26.27
426.238	26.5
426.598	26.48
426.959	26.69
427.32	26.73
427.68	26.81
428.041	27.04
428.401	27.01
428.761	27.36
429.122	27.31
429.482	27.34
429.842	27.3
430.202	27.75
430.563	27.76
430.923	27.59
431.283	27.8
431.643	27.83
432.003	27.71
432.363	28.01
432.722	27.96
433.082	28
433.442	28.09
433.802	28.15
434.161	28.11
434.521	28.12
434.881	28.06
435.24	28.06
435.6	28.18
435.959	28.22
436.319	28.41
436.678	28.38
437.037	28.55
437.396	28.57
437.756	28.42
438.115	28.87
438.474	28.85
438.833	28.91
439.192	28.86
439.551	28.79
439.91	28.96
440.269	28.91
440.628	28.8
440.987	29.09
441.345	28.9
441.704	28.96
442.063	29.07
442.421	29.21
442.78	29.02
443.138	29.21
443.497	29.23
443.855	29.34
444.214	29.48
444.572	29.78
444.93	29.68
445.288	29.75
445.647	29.73
446.005	29.86
446.363	29.86
446.721	29.81
447.079	29.89
447.437	29.48
447.795	29.58
448.153	29.58
448.51	29.64
448.868	29.72
449.226	29.81
449.584	29.97
449.941	30.22
450.299	30.12
450.656	30.28
451.014	30.56
451.371	30.57
451.729	30.8
452.086	30.69
452.443	30.77
452.801	30.95
453.158	30.92
453.515	30.8
453.872	30.71
454.229	30.79
454.586	30.77
454.943	31.12
455.3	31.06
455.657	31.17
456.014	31.39
456.371	31.27
456.727	31.4
457.084	31.59
457.441	31.61
457.797	31.56
458.154	31.93
458.51	31.88
458.867	31.83
459.223	31.77
459.58	32.09
459.936	31.78
460.292	31.81
460.648	31.64
461.005	31.48
461.361	31.38
461.717	31.43
462.073	31.46
462.429	31.88
462.785	32.05
463.141	32.09
463.496	32.41
463.852	32.53
464.208	32.64
464.564	32.55
464.919	32.63
465.275	32.83
465.631	32.8
465.986	32.71
466.342	32.86
466.697	32.77
467.052	32.85
467.408	33.03
467.763	32.87
468.118	32.94
468.473	33.23
468.829	33.17
469.184	33.11
469.539	33.23
469.894	33.41
470.249	33.51
470.603	33.66
470.958	33.91
471.313	33.72
471.668	33.56
472.023	33.66
472.377	33.66
472.732	33.88
473.086	33.84
473.441	33.91
473.795	34.02
474.15	34.06
474.504	34
474.859	33.84
475.213	33.97
475.567	33.95
475.921	34.21
476.275	34.46
476.63	34.38
476.984	34.37
477.338	34.48
477.692	34.48
478.045	34.56
478.399	34.47
478.753	34.34
479.107	34.52
479.461	34.53
479.814	34.34
480.168	34.61
480.521	34.61
480.875	34.6
481.228	34.68
481.582	34.89
481.935	34.73
482.289	34.69
482.642	34.93
482.995	34.43
483.348	34.58
483.701	34.54
484.055	34.32
484.408	34.3
484.761	33.92
485.114	33.73
485.466	33.73
485.819	34.01
486.172	34.01
486.525	34.19
486.878	34.42
487.23	34.61
487.583	34.64
487.936	34.65
488.288	34.46
488.641	34.39
488.993	34.37
489.345	34.4
489.698	34.5
490.05	34.59
490.402	34.72
490.754	35.03
491.107	35.11
491.459	35.42
491.811	35.46
492.163	35.4
492.515	35.19
492.866	34.93
493.218	34.77
493.57	34.95
493.922	35.23
494.274	35.49
494.625	35.94
494.977	35.88
495.328	36.11
495.68	36.35
496.031	36.51
496.383	36.65
496.734	36.49
497.086	36.72
497.437	36.77
497.788	36.59
498.139	36.46
498.49	36.57
498.842	36.51
499.193	36.56
499.544	36.39
499.894	36.75
500.245	36.94
500.596	36.88
500.947	37.04
501.298	37.09
501.648	37.16
501.999	37.47
502.35	37.42
502.7	37.42
503.051	37.48
503.401	37.63
503.752	37.69
504.102	37.58
504.452	37.69
504.803	37.61
505.153	37.72
505.503	37.88
505.853	37.55
506.203	37.71
506.553	37.75
506.903	38.03
507.253	38.05
507.603	37.99
507.953	37.92
508.303	38.05
508.652	37.86
509.002	38.12
509.352	37.93
509.701	37.95
510.051	38.1
510.4	38.05
510.75	37.76
511.099	37.89
511.449	38.12
511.798	38.18
512.147	38.08
512.496	38.3
512.846	38.29
513.195	38.47
513.544	38.29
513.893	38.28
514.242	38.29
514.591	38.55
514.939	38.51
515.288	38.73
515.637	38.75
515.986	38.99
516.334	39.04
516.683	38.96
517.032	38.85
517.38	38.9
517.729	39.22
518.077	39.13
518.426	38.98
518.774	39.14
519.122	38.88
519.47	38.67
519.819	38.63
520.167	38.52
520.515	38.68
520.863	38.75
521.211	38.84
521.559	38.83
521.907	39.04
522.255	39.2
522.602	39.58
522.95	39.46
523.298	39.77
523.645	39.51
523.993	39.51
524.341	39.74
524.688	39.93
525.036	39.78
525.383	39.64
525.73	39.57
526.078	39.63
526.425	39.55
526.772	39.45
527.119	39.26
527.466	39.24
527.814	39.39
528.161	39.35
528.508	39.5
528.854	39.45
529.201	39.46
529.548	39.02
529.895	38.76
530.242	39
530.588	38.96
530.935	39.14
531.282	39.12
531.628	39.45
531.975	39.58
532.321	39.76
532.667	39.85
533.014	40.05
533.36	40.09
533.706	40
534.052	40.02
534.399	39.93
534.745	39.46
535.091	39.51
535.437	39.76
535.783	39.93
536.129	40.16
536.474	40.36
536.82	40.41
537.166	40.44
537.512	40.53
537.857	40.48
538.203	40.32
538.549	40.39
538.894	40.6
539.239	40.68
539.585	40.97
539.93	41.15
540.276	41.11
540.621	41.31
540.966	41.52
541.311	41.24
541.656	40.96
542.001	41.05
542.346	40.67
542.691	40.22
543.036	40.2
543.381	40.32
543.726	40.52
544.071	40.73
544.415	40.82
544.76	40.92
545.105	41.1
545.449	41.28
545.794	41.41
546.138	41.64
546.483	41.65
546.827	41.75
547.171	41.66
547.516	41.8
547.86	41.7
548.204	41.59
548.548	41.54
548.892	41.61
549.236	41.76
549.58	41.99
549.924	42.33
550.268	42.18
550.612	42.7
550.956	42.6
551.3	42.67
551.643	42.65
551.987	42.76
552.33	42.84
552.674	42.93
553.017	42.99
553.361	42.96
553.704	42.85
554.048	42.64
554.391	42.57
554.734	42.73
555.077	42.73
555.42	42.92
555.764	42.9
556.107	43.05
556.45	43.22
556.793	43.25
557.135	43.39
557.478	43.39
557.821	43.47
558.164	43.37
558.507	43.22
558.849	43.53
559.192	43.28
559.534	43.67
559.877	43.4
560.219	43.7
560.562	43.69
560.904	43.82
561.246	43.48
561.589	43.82
561.931	43.79
562.273	43.77
562.615	43.55
562.957	43.69
563.299	43.84
563.641	43.83
563.983	43.62
564.325	44.1
564.667	44.03
565.008	44.03
565.35	44.01
565.692	44.01
566.033	43.94
566.375	43.96
566.716	44.09
567.058	44.09
567.399	44.01
567.741	43.89
568.082	43.74
568.423	43.93
568.764	43.77
569.105	44.13
569.447	44.25
569.788	44.25
570.129	44.45
570.47	44.35
570.811	44.36
571.151	44.46
571.492	44.31
571.833	44.86
572.174	44.74
572.514	44.52
572.855	44.37
573.195	44.41
573.536	44.41
573.876	44.32
574.217	44.52
574.557	44.4
574.898	44.39
575.238	44.68
575.578	44.71
575.918	44.74
576.258	44.81
576.598	44.53
576.938	44.61
577.278	44.75
577.618	44.89
577.958	44.94
578.298	45.03
578.638	45.2
578.977	45.1
579.317	45.28
579.657	45.26
579.996	45.49
580.336	45.24
580.675	45.08
581.014	45.3
581.354	45.5
581.693	45.68
582.032	45.76
582.372	45.76
582.711	45.96
583.05	45.51
583.389	46.07
583.728	46.15
584.067	46.08
584.406	45.83
584.745	45.86
585.083	45.85
585.422	45.81
585.761	46.03
586.1	46.14
586.438	45.94
586.777	45.96
587.115	46
587.454	45.96
587.792	46.14
588.13	46.24
588.469	46.25
588.807	46.34
589.145	46.39
589.483	46.19
589.821	46.44
590.159	46.38
590.497	46.49
590.835	46.64
591.173	46.11
591.511	46.44
591.849	46.44
592.187	46.53
592.524	46.19
592.862	46.55
593.2	46.95
593.537	46.59
593.875	46.41
594.212	46.6
594.55	46.88
594.887	46.92
595.224	46.55
595.561	46.71
595.899	46.72
596.236	46.49
596.573	46.52
596.91	46.73
597.247	46.78
597.584	46.49
597.921	46.66
598.258	46.45
598.594	46.54
598.931	46.38
599.268	46.54
599.604	46.64
599.941	46.55
600.277	46.97
600.614	47.25
600.95	47.17
601.287	47.25
601.623	47.17
601.959	47.53
602.296	47.47
602.632	47.34
602.968	47.41
603.304	47.47
603.64	47.7
603.976	47.43
604.312	47.31
604.648	47.48
604.984	46.89
605.319	47.06
605.655	47.04
605.991	47.21
606.326	46.99
606.662	46.99
606.998	47.1
607.333	47.01
607.668	47.28
608.004	47.75
608.339	47.43
608.674	47.82
609.01	47.84
609.345	47.59
609.68	47.66
610.015	48.18
610.35	47.64
610.685	47.49
611.02	47.4
611.355	47.41
611.689	47.42
612.024	47.47
612.359	47.87
612.694	47.96
613.028	47.72
613.363	48.15
613.697	48.1
614.032	48.14
614.366	48.19
614.7	47.98
615.035	48.2
615.369	48.08
615.703	48.49
616.037	48.35
616.371	48.08
616.705	48.78
617.039	48.28
617.373	48.43
617.707	48.57
618.041	48.42
618.375	48.47
618.709	48.67
619.042	48.49
619.376	48.54
619.71	48.47
620.043	48.72
620.377	48.61
620.71	48.33
621.043	49.02
621.377	49.01
621.71	49.11
622.043	48.6
622.376	49.11
622.709	48.7
623.043	48.45
623.376	48.88
623.709	49.08
624.041	48.69
624.374	49.09
624.707	49.17
625.04	49.07
625.373	49.09
625.705	48.61
626.038	49.17
626.37	48.92
626.703	49.13
627.035	49.03
627.368	48.89
627.7	48.96
628.032	49.08
628.365	48.87
628.697	49.35
629.029	48.83
629.361	49.06
629.693	49.17
630.025	48.98
630.357	49.02
630.689	49.34
631.021	49.36
631.353	49.7
631.684	49.53
632.016	49.32
632.348	49.54
632.679	49.45
633.011	49.51
633.342	49.73
633.674	49.64
634.005	50.03
634.336	49.9
634.668	49.66
634.999	49.48
635.33	49.54
635.661	49.65
635.992	50
636.323	49.72
636.654	49.92
636.985	49.67
637.316	49.55
637.647	49.6
637.977	49.54
638.308	49.99
638.639	49.93
638.969	49.94
639.3	50.32
639.63	50.13
639.961	50.04
640.291	50.02
640.622	50.17
640.952	50.32
641.282	50.05
641.612	50.12
641.943	50.36
642.273	49.63
642.603	50.2
642.933	50.48
643.263	50.27
643.592	50.24
643.922	50.45
644.252	50.2
644.582	50.69
644.911	49.98
645.241	50.6
645.571	50.41
645.9	50.47
646.23	50.67
646.559	50.73
646.888	50.83
647.218	50.74
647.547	50.23
647.876	50.89
648.205	50.39
648.534	51.25
648.863	50.3
649.192	50.7
649.521	50.5
649.85	51.08
650.179	51.05
650.508	50.92
650.837	50.69
651.165	50.99
651.494	50.37
651.822	50.35
652.151	50.66
652.479	51.08
652.808	50.64
653.136	49.99
653.465	51.54
653.793	50.95
654.121	50.84
654.449	51.1
654.777	51.63
655.105	50.86
655.433	51.17
655.761	51.42
656.089	50.4
656.417	51.63
656.745	51.5
657.073	51.16
657.4	50.7
657.728	50.69
658.056	51
658.383	51.69
658.711	50.6
659.038	51.53
659.365	51.19
659.693	51.22
660.02	50.93
660.347	50.99
660.674	50.76
661.001	50.59
661.329	51.31
661.656	50.87
661.982	51.05
662.309	51.18
662.636	51.6
662.963	50.75
663.29	51.54
663.616	51.41
663.943	51.29
664.27	51.56
664.596	51.74
664.923	51.54
665.249	51.87
665.576	51.95
665.902	51.44
666.228	51.79
666.554	51.15
666.881	51.56
667.207	52.03
667.533	51.97
667.859	51.72
668.185	51.78
668.511	52.19
668.837	51.97
669.162	52.16
669.488	51.36
669.814	51.16
670.139	51.59
