Data from 0009_forehead_Reflection__0__312.txt Node

Date: Thu Dec 15 19:07:10 CST 2022
User: ToomeyLab
Spectrometer: FLMS14357
Trigger mode: 0
Integration Time (sec): 1.000000E-2
Scans to average: 100
Electric dark correction enabled: true
Nonlinearity correction enabled: false
Boxcar width: 0
XAxis mode: Wavelengths
Number of Pixels in Spectrum: 2048
>>>>>Begin Spectral Data<<<<<
189.047	15.92
189.435	15.92
189.823	15.92
190.211	-396.53
190.599	42.86
190.987	75.57
191.375	109.28
191.763	27.39
192.151	108.71
192.538	28.11
192.926	435.06
193.314	-431.22
193.702	-492.74
194.089	47.86
194.477	75.66
194.864	87.58
195.252	-34.27
195.639	14.04
196.027	-1235.71
196.414	78.48
196.801	136.9
197.189	95.92
197.576	1067.27
197.963	52.27
198.351	33.56
198.738	-26.43
199.125	-33.38
199.512	51.77
199.899	-64.76
200.286	16.63
200.673	60.22
201.06	33.87
201.447	53.1
201.833	27.58
202.22	28.43
202.607	-46.97
202.994	1.24
203.38	57.9
203.767	14.01
204.154	29.7
204.54	4.61
204.927	28.28
205.313	34.26
205.699	31.1
206.086	37.94
206.472	32.17
206.858	13.71
207.245	11.3
207.631	42.52
208.017	30.84
208.403	-24.42
208.789	31.98
209.175	8.96
209.561	-324.21
209.947	14.51
210.333	40.78
210.719	31.71
211.105	40.74
211.491	20.91
211.876	27.04
212.262	9.95
212.648	-9.37
213.034	-13.78
213.419	41.88
213.805	-11.2
214.19	14.62
214.576	7.75
214.961	36.7
215.346	-11.7
215.732	4.43
216.117	-5.65
216.502	30.81
216.888	64.39
217.273	18.13
217.658	33.66
218.043	-22.29
218.428	-3.13
218.813	22.03
219.198	5.85
219.583	33.34
219.968	18.54
220.353	-15.4
220.738	17.83
221.122	13.14
221.507	14.33
221.892	-16.99
222.276	-19.58
222.661	-9.41
223.046	-5.99
223.43	15.87
223.815	13.88
224.199	2.14
224.583	-8.66
224.968	2.04
225.352	-7.23
225.736	6.67
226.121	2.03
226.505	1.13
226.889	4.57
227.273	-4.16
227.657	6.99
228.041	2.05
228.425	-1.74
228.809	1.63
229.193	2.88
229.577	1.49
229.961	1.41
230.344	2.34
230.728	3.27
231.112	2.95
231.495	0.82
231.879	2.1
232.263	2.25
232.646	2.38
233.03	5.23
233.413	2.69
233.797	0.82
234.18	2.6
234.563	3.63
234.946	1.96
235.33	1.97
235.713	1.76
236.096	4.17
236.479	4.48
236.862	1.86
237.245	1.41
237.628	3.88
238.011	4.17
238.394	1.94
238.777	2.7
239.16	3.44
239.543	4.1
239.925	2.64
240.308	1.89
240.691	1.94
241.073	3.4
241.456	1.92
241.838	2.61
242.221	2.8
242.603	3.17
242.986	2.54
243.368	3.05
243.75	2.78
244.133	2.98
244.515	2.73
244.897	2.89
245.279	2.95
245.661	2.74
246.043	3.51
246.425	2.96
246.807	3.28
247.189	2.85
247.571	2.75
247.953	2.37
248.335	2.75
248.717	2.79
249.098	2.56
249.48	2.31
249.862	2.79
250.243	3.05
250.625	3.06
251.006	3.39
251.388	2.87
251.769	2.22
252.151	3.33
252.532	2.32
252.913	2.93
253.295	2.57
253.676	2.88
254.057	2.46
254.438	2.55
254.819	2.78
255.2	3.34
255.581	4.14
255.962	3.61
256.343	2.7
256.724	2.76
257.105	3.76
257.486	2.3
257.867	3.96
258.247	3.44
258.628	3.65
259.009	2.15
259.389	2.55
259.77	3.53
260.15	3.81
260.531	3
260.911	2.69
261.292	2.68
261.672	2.64
262.052	2.65
262.432	2.56
262.813	2.93
263.193	2.67
263.573	2.93
263.953	2.36
264.333	3.3
264.713	3.11
265.093	2.87
265.473	2.87
265.853	3.06
266.233	2.72
266.612	2.63
266.992	3.02
267.372	3.03
267.752	3.47
268.131	2.79
268.511	2.73
268.89	3.23
269.27	2.03
269.649	2.59
270.029	2.42
270.408	2.65
270.787	3.04
271.167	3.69
271.546	3.12
271.925	3.31
272.304	2.9
272.683	2.41
273.062	3.12
273.441	2.84
273.82	2.99
274.199	2.59
274.578	2.91
274.957	2.53
275.336	3.12
275.715	3.32
276.093	2.63
276.472	2.45
276.851	2.75
277.229	2.61
277.608	2.05
277.986	3.04
278.365	3.49
278.743	2.89
279.122	2.81
279.5	2.85
279.878	2.79
280.257	2.73
280.635	3.28
281.013	2.83
281.391	3.11
281.769	3.47
282.147	2.87
282.525	2.86
282.903	2.78
283.281	3.2
283.659	3.14
284.037	2.43
284.415	3.01
284.792	2.99
285.17	2.74
285.548	2.85
285.925	2.78
286.303	3.39
286.68	3.03
287.058	3.21
287.435	2.7
287.813	2.7
288.19	2.93
288.567	3.19
288.945	2.67
289.322	3
289.699	3.11
290.076	3.04
290.453	2.71
290.83	3.18
291.207	2.95
291.584	3.42
291.961	3.13
292.338	2.87
292.715	3.16
293.092	3.44
293.469	3.31
293.845	3.43
294.222	3.86
294.599	3.4
294.975	3.17
295.352	3.81
295.728	3.53
296.105	3.39
296.481	3.68
296.858	3.32
297.234	3.18
297.61	3.66
297.986	3.87
298.363	3.83
298.739	3.9
299.115	3.8
299.491	4.09
299.867	3.77
300.243	3.68
300.619	3.52
300.995	3.87
301.371	4.18
301.746	4.03
302.122	3.86
302.498	3.99
302.874	4.3
303.249	4.27
303.625	3.97
304	4.39
304.376	4.6
304.751	4.4
305.127	4.36
305.502	4.63
305.878	4.66
306.253	4.52
306.628	4.9
307.003	4.58
307.378	4.16
307.754	5.19
308.129	4.93
308.504	4.98
308.879	4.96
309.254	5.45
309.629	5.22
310.003	5.1
310.378	5.54
310.753	5.55
311.128	5.01
311.502	5.35
311.877	5.16
312.252	5.31
312.626	5.56
313.001	5.22
313.375	5.32
313.75	5.35
314.124	5.66
314.498	5.66
314.873	5.54
315.247	5.95
315.621	5.63
315.995	5.79
316.369	5.6
316.743	6.11
317.117	5.98
317.491	6.33
317.865	6.03
318.239	6.77
318.613	6.45
318.987	6.2
319.361	6.79
319.734	6.3
320.108	6.83
320.482	6.81
320.855	6.44
321.229	7
321.602	7.08
321.976	5.89
322.349	7.56
322.723	6.83
323.096	6.77
323.469	6.97
323.843	6.86
324.216	7.67
324.589	7.29
324.962	7.44
325.335	7.55
325.708	7.48
326.081	7.36
326.454	7.98
326.827	7.5
327.2	7.59
327.573	7.92
327.945	7.65
328.318	7.54
328.691	8.18
329.063	7.71
329.436	7.61
329.809	8.19
330.181	8.54
330.553	8.82
330.926	8.67
331.298	8.27
331.671	8.85
332.043	8.72
332.415	8.72
332.787	8.42
333.159	8.74
333.532	8.91
333.904	9.04
334.276	8.76
334.648	9.17
335.02	8.93
335.391	8.66
335.763	9.05
336.135	8.88
336.507	8.97
336.879	9.73
337.25	9.4
337.622	9.21
337.993	9.85
338.365	9.64
338.736	9.56
339.108	9.35
339.479	9.46
339.851	9.76
340.222	10.23
340.593	9.68
340.964	10.15
341.336	9.58
341.707	10.29
342.078	10.11
342.449	10.11
342.82	10.09
343.191	10.21
343.562	10.27
343.933	10.08
344.303	10.53
344.674	10.45
345.045	10.33
345.416	10.81
345.786	10.62
346.157	10.64
346.527	10.93
346.898	10.78
347.268	10.9
347.639	10.94
348.009	11.2
348.38	11.05
348.75	11.73
349.12	11.39
349.49	11.41
349.861	11.88
350.231	11.59
350.601	11.39
350.971	11.45
351.341	12.01
351.711	11.55
352.081	11.27
352.45	11.62
352.82	11.59
353.19	11.44
353.56	11.69
353.929	12.09
354.299	12.2
354.669	12.39
355.038	12.55
355.408	12.11
355.777	12.48
356.147	12.5
356.516	12.56
356.885	12.57
357.254	12.68
357.624	12.39
357.993	12.77
358.362	13.22
358.731	13.28
359.1	12.88
359.469	13.24
359.838	13.33
360.207	13.31
360.576	13.19
360.945	13.31
361.314	13.31
361.682	13.34
362.051	13.61
362.42	13.6
362.788	13.6
363.157	13.47
363.525	13.77
363.894	13.34
364.262	13.91
364.631	14.14
364.999	14.1
365.367	14.07
365.735	14.21
366.104	14.2
366.472	14.23
366.84	14.7
367.208	14.66
367.576	14.55
367.944	14.69
368.312	14.75
368.68	15.22
369.048	15.05
369.416	14.95
369.783	14.83
370.151	15.38
370.519	15.55
370.886	15.66
371.254	15.36
371.621	15.22
371.989	15.57
372.356	15.62
372.724	15.69
373.091	15.63
373.458	15.74
373.826	16.1
374.193	15.98
374.56	16.18
374.927	16
375.294	16.43
375.661	16.23
376.028	16.28
376.395	16.38
376.762	16.23
377.129	16.28
377.496	16.7
377.863	16.75
378.229	16.97
378.596	16.91
378.963	16.9
379.329	16.72
379.696	16.85
380.062	17.14
380.429	16.98
380.795	17.7
381.161	16.94
381.528	17.13
381.894	17.46
382.26	17.5
382.626	17.67
382.993	17.82
383.359	17.84
383.725	17.85
384.091	17.9
384.457	17.74
384.823	17.89
385.188	18.1
385.554	18.09
385.92	18.1
386.286	18.03
386.651	18.15
387.017	18.5
387.383	18.33
387.748	18.86
388.114	18.82
388.479	18.58
388.845	18.5
389.21	19.06
389.575	18.88
389.94	19.34
390.306	19.12
390.671	19.32
391.036	18.99
391.401	19.22
391.766	19.41
392.131	19.75
392.496	19.39
392.861	19.28
393.226	19.48
393.591	19.58
393.956	19.72
394.32	19.97
394.685	19.89
395.05	19.88
395.414	20.05
395.779	20.1
396.143	20.04
396.508	19.99
396.872	20.22
397.236	20.99
397.601	20.41
397.965	20.57
398.329	20.91
398.694	20.68
399.058	20.71
399.422	20.63
399.786	21.03
400.15	20.96
400.514	21.24
400.878	20.98
401.242	21.15
401.605	21.32
401.969	21.28
402.333	21.02
402.697	21.73
403.06	21.44
403.424	21.64
403.787	21.75
404.151	21.95
404.514	21.86
404.878	21.63
405.241	21.82
405.604	21.96
405.968	21.78
406.331	21.83
406.694	22.09
407.057	21.93
407.42	22.08
407.783	22.34
408.146	22.07
408.509	22.52
408.872	22.37
409.235	22.75
409.598	22.81
409.961	22.84
410.323	22.76
410.686	22.9
411.049	22.9
411.411	22.88
411.774	22.9
412.136	22.97
412.499	23.43
412.861	23.04
413.223	23.2
413.586	23.37
413.948	23.56
414.31	23.52
414.672	23.44
415.035	23.66
415.397	23.63
415.759	23.39
416.121	23.71
416.483	23.83
416.845	23.96
417.206	23.98
417.568	23.87
417.93	24.1
418.292	23.88
418.653	23.86
419.015	23.91
419.377	23.85
419.738	24.12
420.1	24.02
420.461	23.91
420.822	24.11
421.184	24.17
421.545	24.01
421.906	24.09
422.267	23.75
422.629	24.05
422.99	24.19
423.351	24.22
423.712	24.31
424.073	24.6
424.434	24.75
424.795	24.38
425.155	24.41
425.516	24.52
425.877	24.59
426.238	24.65
426.598	24.71
426.959	24.93
427.32	24.99
427.68	25.12
428.041	25.38
428.401	25.4
428.761	25.58
429.122	25.76
429.482	25.96
429.842	25.76
430.202	26.06
430.563	26.17
430.923	26.02
431.283	26.29
431.643	26.21
432.003	26.35
432.363	26.2
432.722	26.65
433.082	26.31
433.442	26.62
433.802	26.48
434.161	26.56
434.521	26.54
434.881	26.6
435.24	26.45
435.6	26.7
435.959	26.69
436.319	26.79
436.678	26.91
437.037	27.17
437.396	27
437.756	27.24
438.115	27.21
438.474	27.39
438.833	27.43
439.192	27.35
439.551	27.27
439.91	27.41
440.269	27.43
440.628	27.49
440.987	27.32
441.345	27.35
441.704	27.41
442.063	27.27
442.421	27.4
442.78	27.65
443.138	27.65
443.497	27.78
443.855	28
444.214	27.85
444.572	28.01
444.93	28.22
445.288	28.17
445.647	28.31
446.005	28.19
446.363	28.14
446.721	28.23
447.079	28.12
447.437	28.19
447.795	27.96
448.153	27.95
448.51	28.11
448.868	28.18
449.226	28.43
449.584	28.56
449.941	28.7
450.299	28.85
450.656	28.9
451.014	29.2
451.371	29.13
451.729	29.17
452.086	29.22
452.443	29.41
452.801	29.5
453.158	29.5
453.515	29.42
453.872	29.39
454.229	29.42
454.586	29.48
454.943	29.73
455.3	29.72
455.657	29.92
456.014	29.83
456.371	29.84
456.727	30.25
457.084	30.28
457.441	30.19
457.797	30.2
458.154	30.39
458.51	30.35
458.867	30.52
459.223	30.42
459.58	30.4
459.936	30.55
460.292	30.22
460.648	30.21
461.005	29.95
461.361	30.02
461.717	29.87
462.073	30.22
462.429	30.35
462.785	30.83
463.141	30.83
463.496	31.05
463.852	31.12
464.208	31.21
464.564	31.31
464.919	31.39
465.275	31.35
465.631	31.42
465.986	31.53
466.342	31.5
466.697	31.57
467.052	31.91
467.408	31.83
467.763	31.79
468.118	31.75
468.473	31.91
468.829	31.96
469.184	32.13
469.539	31.93
469.894	32.17
470.249	32.27
470.603	32.46
470.958	32.54
471.313	32.35
471.668	32.34
472.023	32.53
472.377	32.19
472.732	32.55
473.086	32.68
473.441	32.64
473.795	32.88
474.15	32.76
474.504	32.79
474.859	32.7
475.213	32.93
475.567	32.9
475.921	33.16
476.275	33.26
476.63	33.08
476.984	33.25
477.338	33.19
477.692	33.05
478.045	33.08
478.399	33.08
478.753	33.32
479.107	33.63
479.461	33.24
479.814	33.18
480.168	33.37
480.521	33.51
480.875	33.67
481.228	33.62
481.582	33.59
481.935	33.71
482.289	33.51
482.642	33.71
482.995	33.45
483.348	33.45
483.701	33.19
484.055	33.21
484.408	33.15
484.761	32.67
485.114	32.45
485.466	32.44
485.819	32.63
486.172	32.69
486.525	32.89
486.878	33.13
487.23	33.39
487.583	33.52
487.936	33.39
488.288	33.2
488.641	33.14
488.993	33.07
489.345	33.11
489.698	33.22
490.05	33.38
490.402	33.52
490.754	33.81
491.107	33.96
491.459	34.43
491.811	34.35
492.163	34.34
492.515	34.1
492.866	33.73
493.218	33.61
493.57	33.72
493.922	34
494.274	34.37
494.625	34.7
494.977	34.87
495.328	35.22
495.68	35.29
496.031	35.47
496.383	35.66
496.734	35.56
497.086	35.54
497.437	35.69
497.788	35.61
498.139	35.36
498.49	35.51
498.842	35.43
499.193	35.69
499.544	35.55
499.894	35.74
500.245	35.87
500.596	35.89
500.947	36.17
501.298	36.09
501.648	36.33
501.999	36.5
502.35	36.51
502.7	36.59
503.051	36.52
503.401	36.76
503.752	36.71
504.102	36.77
504.452	36.83
504.803	36.81
505.153	36.86
505.503	36.65
505.853	36.93
506.203	36.84
506.553	36.95
506.903	37.09
507.253	36.88
507.603	37.09
507.953	37.31
508.303	37.27
508.652	37.02
509.002	37.02
509.352	37.11
509.701	37.04
510.051	37.29
510.4	37.03
510.75	37.09
511.099	37.22
511.449	37.21
511.798	37.25
512.147	37.44
512.496	37.51
512.846	37.53
513.195	37.47
513.544	37.56
513.893	37.28
514.242	37.51
514.591	37.72
514.939	37.75
515.288	37.84
515.637	37.98
515.986	38.02
516.334	38.02
516.683	38.24
517.032	38.23
517.38	38.19
517.729	38.37
518.077	38.39
518.426	38.34
518.774	38.18
519.122	37.86
519.47	37.78
519.819	37.85
520.167	37.66
520.515	37.66
520.863	37.9
521.211	38.07
521.559	38.19
521.907	38.37
522.255	38.41
522.602	38.58
522.95	38.88
523.298	38.91
523.645	38.83
523.993	38.89
524.341	39.11
524.688	39.11
525.036	39.19
525.383	38.9
525.73	39.09
526.078	38.91
526.425	38.82
526.772	38.66
527.119	38.43
527.466	38.41
527.814	38.63
528.161	38.71
528.508	38.7
528.854	38.68
529.201	38.53
529.548	38.25
529.895	37.91
530.242	38.1
530.588	38.21
530.935	38.39
531.282	38.41
531.628	38.66
531.975	38.77
532.321	39.1
532.667	39.18
533.014	39.41
533.36	39.48
533.706	39.32
534.052	39.32
534.399	39.05
534.745	38.74
535.091	38.76
535.437	38.99
535.783	39.19
536.129	39.37
536.474	39.66
536.82	39.89
537.166	40
537.512	39.9
537.857	39.76
538.203	39.68
538.549	39.6
538.894	39.87
539.239	39.99
539.585	40.18
539.93	40.61
540.276	40.76
540.621	40.71
540.966	40.75
541.311	40.7
541.656	40.52
542.001	40.4
542.346	40.08
542.691	39.66
543.036	39.59
543.381	39.75
543.726	40.01
544.071	40.07
544.415	40.23
544.76	40.23
545.105	40.59
545.449	40.63
545.794	40.78
546.138	40.89
546.483	40.9
546.827	41.18
547.171	41.18
547.516	41.25
547.86	41.06
548.204	41.13
548.548	41.1
548.892	41.14
549.236	41.5
549.58	41.46
549.924	41.98
550.268	41.92
550.612	42.13
550.956	42.23
551.3	42.62
551.643	42.37
551.987	42.55
552.33	42.59
552.674	42.61
553.017	42.59
553.361	42.49
553.704	42.65
554.048	42.46
554.391	42.23
554.734	42.14
555.077	42.41
555.42	42.37
555.764	42.68
556.107	42.88
556.45	43
556.793	42.87
557.135	43.09
557.478	43.29
557.821	43.02
558.164	42.96
558.507	43.14
558.849	43.47
559.192	43.3
559.534	43.31
559.877	43.33
560.219	43.35
560.562	43.32
560.904	43.62
561.246	43.31
561.589	43.39
561.931	43.53
562.273	43.64
562.615	43.61
562.957	43.13
563.299	43.47
563.641	43.74
563.983	43.66
564.325	43.89
564.667	43.71
565.008	43.69
565.35	43.73
565.692	43.87
566.033	43.9
566.375	43.9
566.716	43.89
567.058	44.09
567.399	43.66
567.741	43.88
568.082	43.49
568.423	43.75
568.764	43.89
569.105	44.03
569.447	44.12
569.788	44.19
570.129	44.22
570.47	44.22
570.811	44.29
571.151	44.37
571.492	44.31
571.833	44.51
572.174	44.48
572.514	44.16
572.855	44.33
573.195	44.28
573.536	44.27
573.876	44.38
574.217	44.39
574.557	44.52
574.898	44.36
575.238	44.86
575.578	44.68
575.918	44.62
576.258	44.49
576.598	44.48
576.938	44.53
577.278	44.64
577.618	44.89
577.958	44.96
578.298	44.98
578.638	45.21
578.977	45.18
579.317	45.41
579.657	45.37
579.996	45.48
580.336	45.25
580.675	45.02
581.014	45.63
581.354	45.43
581.693	45.97
582.032	45.98
582.372	45.78
582.711	46.14
583.05	45.93
583.389	45.98
583.728	46.24
584.067	46.38
584.406	46.39
584.745	46.2
585.083	46.48
585.422	46.29
585.761	46.14
586.1	46.43
586.438	46.21
586.777	46.69
587.115	46.44
587.454	46.43
587.792	46.23
588.13	46.33
588.469	46.52
588.807	46.49
589.145	46.74
589.483	46.59
589.821	46.97
590.159	46.58
590.497	46.85
590.835	46.68
591.173	46.54
591.511	46.59
591.849	46.88
592.187	46.7
592.524	46.68
592.862	46.84
593.2	46.69
593.537	46.74
593.875	47.1
594.212	46.86
594.55	47.36
594.887	47.25
595.224	47.23
595.561	47.02
595.899	47.1
596.236	46.95
596.573	46.96
596.91	47.19
597.247	47.18
597.584	47.1
597.921	46.93
598.258	46.91
598.594	46.63
598.931	46.6
599.268	46.78
599.604	46.72
599.941	46.92
600.277	47.42
600.614	47.61
600.95	47.47
601.287	47.68
601.623	47.21
601.959	47.93
602.296	47.73
602.632	48
602.968	48.02
603.304	47.73
603.64	47.78
603.976	47.47
604.312	47.62
604.648	48.02
604.984	47.2
605.319	47.63
605.655	47.4
605.991	47.38
606.326	47.35
606.662	47.26
606.998	47.37
607.333	47.61
607.668	47.86
608.004	47.91
608.339	48.03
608.674	48.01
609.01	48.48
609.345	48.6
609.68	48.43
610.015	48.7
610.35	48.53
610.685	48.1
611.02	48
611.355	47.88
611.689	47.99
612.024	48.05
612.359	48.34
612.694	48.5
613.028	48.45
613.363	48.29
613.697	49.01
614.032	48.78
614.366	48.81
614.7	48.92
615.035	48.85
615.369	48.95
615.703	49.04
616.037	49.12
616.371	49.11
616.705	49.35
617.039	49.38
617.373	49.24
617.707	49.48
618.041	49.15
618.375	48.96
618.709	49.4
619.042	49.04
619.376	49.05
619.71	49.53
620.043	49.52
620.377	49.38
620.71	49.31
621.043	49.65
621.377	49.69
621.71	49.95
622.043	49.68
622.376	50.2
622.709	49.58
623.043	49.22
623.376	49.62
623.709	49.86
624.041	49.58
624.374	49.94
624.707	49.66
625.04	49.74
625.373	50.08
625.705	49.6
626.038	49.86
626.37	49.72
626.703	50.2
627.035	49.88
627.368	49.85
627.7	49.55
628.032	49.85
628.365	49.88
628.697	50.22
629.029	49.64
629.361	49.87
629.693	50.24
630.025	49.92
630.357	50.02
630.689	49.97
631.021	50.38
631.353	50.32
631.684	50.07
632.016	50.32
632.348	50.6
632.679	50.45
633.011	50.41
633.342	50.31
633.674	50.98
634.005	50.72
634.336	50.92
634.668	50.25
634.999	50.22
635.33	50.28
635.661	50.48
635.992	50.45
636.323	50.69
636.654	50.66
636.985	50.87
637.316	50.93
637.647	51.18
637.977	50.87
638.308	51.08
638.639	50.89
638.969	50.96
639.3	51.36
639.63	51.24
639.961	51.22
640.291	51.1
640.622	51.34
640.952	51.36
641.282	50.92
641.612	50.97
641.943	51.16
642.273	51.09
642.603	51.7
642.933	51.8
643.263	51.65
643.592	51.87
643.922	51.61
644.252	51.72
644.582	51.76
644.911	51.35
645.241	51.12
645.571	51.35
645.9	52.25
646.23	51.59
646.559	51.53
646.888	51.98
647.218	52
647.547	51.95
647.876	51.8
648.205	51.72
648.534	52.27
648.863	51.83
649.192	52.56
649.521	52.57
649.85	52.25
650.179	52.03
650.508	52.19
650.837	51.82
651.165	52.36
651.494	51.92
651.822	52.44
652.151	52.43
652.479	52.06
652.808	51.63
653.136	51.25
653.465	52.1
653.793	51.64
654.121	51.97
654.449	51.96
654.777	53.15
655.105	52.12
655.433	51.93
655.761	52.67
656.089	52.37
656.417	52.57
656.745	52.73
657.073	52.58
657.4	52.39
657.728	52.96
658.056	52.25
658.383	52.44
658.711	52.56
659.038	51.97
659.365	52.39
659.693	52.97
660.02	52.45
660.347	52.54
660.674	52.03
661.001	52.53
661.329	52.83
661.656	52.5
661.982	52.6
662.309	52.79
662.636	53.6
662.963	52.33
663.29	52.79
663.616	52.89
663.943	53.19
664.27	53.36
664.596	52.94
664.923	53.08
665.249	53.07
665.576	53.17
665.902	53.07
666.228	53.31
666.554	53.12
666.881	53.01
667.207	53.23
667.533	52.56
667.859	52.96
668.185	53.16
668.511	53.43
668.837	53.82
669.162	53.84
669.488	53.25
669.814	53.17
670.139	53.49
670.465	53.3
