Data from 0009_chest_Reflection__0__301.txt Node

Date: Thu Dec 15 19:03:57 CST 2022
User: ToomeyLab
Spectrometer: FLMS14357
Trigger mode: 0
Integration Time (sec): 1.000000E-2
Scans to average: 100
Electric dark correction enabled: true
Nonlinearity correction enabled: false
Boxcar width: 0
XAxis mode: Wavelengths
Number of Pixels in Spectrum: 2048
>>>>>Begin Spectral Data<<<<<
189.047	-51.89
189.435	-51.89
189.823	-51.89
190.211	-949.18
190.599	213.95
190.987	-50.73
191.375	-13.16
191.763	138.11
192.151	40.92
192.538	120.21
192.926	460.93
193.314	-82.75
193.702	125.79
194.089	24.38
194.477	22.16
194.864	32.79
195.252	16.12
195.639	42.79
196.027	-4826.19
196.414	61.39
196.801	13.13
197.189	-11.22
197.576	-347.12
197.963	0.63
198.351	-37.48
198.738	-25.78
199.125	-94.98
199.512	19.79
199.899	-110.44
200.286	3.21
200.673	61.82
201.06	-8.96
201.447	22.48
201.833	-69.59
202.22	0.44
202.607	-14.14
202.994	21.4
203.38	33.53
203.767	-10.86
204.154	29
204.54	18.54
204.927	41.19
205.313	30.21
205.699	-14.33
206.086	26.08
206.472	26.87
206.858	11.77
207.245	-28.94
207.631	-13.44
208.017	29.89
208.403	-78.69
208.789	14.13
209.175	-28.89
209.561	-408.79
209.947	-17.26
210.333	-32.18
210.719	32.83
211.105	24.79
211.491	8.2
211.876	-22.01
212.262	-14.97
212.648	-3.64
213.034	-37.32
213.419	-24.57
213.805	-25
214.19	-119.11
214.576	-41.87
214.961	-33.32
215.346	-21.84
215.732	-28.66
216.117	-13.39
216.502	0.03
216.888	-33.36
217.273	24.5
217.658	-32.46
218.043	-44.83
218.428	-17.42
218.813	-2.63
219.198	-11.96
219.583	-39.45
219.968	-20.93
220.353	-19.32
220.738	-27.03
221.122	0.46
221.507	-27.29
221.892	-58.73
222.276	-31.57
222.661	-16.79
223.046	-9.67
223.43	2.3
223.815	10.86
224.199	-6.43
224.583	-7.9
224.968	-9.62
225.352	-15.35
225.736	3.83
226.121	-5.15
226.505	-4.87
226.889	2.12
227.273	-4.42
227.657	4.2
228.041	1.63
228.425	-4.39
228.809	-2.88
229.193	2.7
229.577	2.35
229.961	1.69
230.344	2.5
230.728	2.27
231.112	3.43
231.495	1.02
231.879	2.11
232.263	1.45
232.646	1.11
233.03	2.9
233.413	2.36
233.797	2.18
234.18	0.92
234.563	1.64
234.946	1.69
235.33	0.74
235.713	3.39
236.096	2.29
236.479	1.37
236.862	1.14
237.245	1.32
237.628	2.98
238.011	2.95
238.394	0.77
238.777	3.6
239.16	1.37
239.543	3.95
239.925	0.55
240.308	0.36
240.691	2.28
241.073	1.25
241.456	2.67
241.838	2.32
242.221	2.86
242.603	2.81
242.986	2.46
243.368	2.24
243.75	2.77
244.133	2.97
244.515	2.89
244.897	2.73
245.279	1.71
245.661	2.1
246.043	2.38
246.425	2.74
246.807	2.44
247.189	2.48
247.571	2.32
247.953	2.39
248.335	2.74
248.717	2.77
249.098	2.65
249.48	2.72
249.862	2.41
250.243	2.67
250.625	2.92
251.006	3.48
251.388	2.51
251.769	0.89
252.151	2.21
252.532	1.67
252.913	2.6
253.295	2.38
253.676	2.52
254.057	2.31
254.438	2.55
254.819	2.69
255.2	2.95
255.581	3.59
255.962	3.21
256.343	3.57
256.724	2.46
257.105	2.68
257.486	0.23
257.867	2.49
258.247	1.85
258.628	2.5
259.009	1.82
259.389	2.1
259.77	2.88
260.15	2.9
260.531	2.63
260.911	2.61
261.292	2.79
261.672	2.71
262.052	2.64
262.432	2.42
262.813	2.22
263.193	2.01
263.573	2.62
263.953	1.49
264.333	2.34
264.713	2.51
265.093	2.39
265.473	0.89
265.853	2.8
266.233	1.85
266.612	2.01
266.992	2.29
267.372	2.69
267.752	2.59
268.131	2.55
268.511	2.6
268.89	2.31
269.27	1.96
269.649	2.23
270.029	2.31
270.408	1.71
270.787	2.22
271.167	2.52
271.546	2.84
271.925	2.71
272.304	2.43
272.683	2.08
273.062	2.18
273.441	2.24
273.82	2.59
274.199	2.41
274.578	2.66
274.957	2.32
275.336	2.3
275.715	2.83
276.093	1.8
276.472	2.15
276.851	2.44
277.229	2.18
277.608	2.15
277.986	2.17
278.365	3.24
278.743	2.64
279.122	2.51
279.5	2.36
279.878	2.53
280.257	2.03
280.635	1.95
281.013	1.77
281.391	2.25
281.769	2.75
282.147	2.17
282.525	2.25
282.903	2.12
283.281	2.42
283.659	2.68
284.037	2.29
284.415	1.97
284.792	2.44
285.17	2.37
285.548	2.2
285.925	2.5
286.303	2.52
286.68	2.46
287.058	2.11
287.435	2.32
287.813	2.49
288.19	2.13
288.567	2.27
288.945	2.14
289.322	2.18
289.699	2.29
290.076	2.04
290.453	2.35
290.83	2.48
291.207	2.31
291.584	2.46
291.961	2.61
292.338	2.11
292.715	2.45
293.092	2.63
293.469	2.43
293.845	2.73
294.222	3.26
294.599	2.22
294.975	2.17
295.352	2.69
295.728	2.65
296.105	2.39
296.481	2.57
296.858	2.55
297.234	2.25
297.61	2.87
297.986	3.21
298.363	2.88
298.739	2.84
299.115	2.75
299.491	2.88
299.867	2.34
300.243	2.78
300.619	2.04
300.995	2.52
301.371	2.82
301.746	2.91
302.122	2.37
302.498	2.66
302.874	2.87
303.249	2.74
303.625	2.24
304	2.91
304.376	3.15
304.751	2.86
305.127	2.94
305.502	3
305.878	2.96
306.253	2.7
306.628	2.88
307.003	2.94
307.378	2.94
307.754	2.79
308.129	2.55
308.504	2.94
308.879	2.68
309.254	3.01
309.629	3.08
310.003	2.62
310.378	3.08
310.753	2.95
311.128	2.62
311.502	3.11
311.877	2.82
312.252	3.12
312.626	3.37
313.001	3.42
313.375	3.15
313.75	3.16
314.124	3.3
314.498	3.33
314.873	3.09
315.247	2.72
315.621	3.15
315.995	3.15
316.369	2.89
316.743	2.97
317.117	3.01
317.491	3.25
317.865	2.46
318.239	4.19
318.613	2.7
318.987	2.74
319.361	3.41
319.734	3.08
320.108	3.3
320.482	3.43
320.855	2.95
321.229	3.43
321.602	3.45
321.976	2.74
322.349	3.55
322.723	3.44
323.096	2.96
323.469	3.28
323.843	3.03
324.216	3.55
324.589	3.71
324.962	3.02
325.335	3.31
325.708	3.39
326.081	3.58
326.454	3.41
326.827	3.34
327.2	3.24
327.573	3.86
327.945	3.35
328.318	3.24
328.691	3.37
329.063	2.94
329.436	3.22
329.809	3.76
330.181	4.13
330.553	3.17
330.926	3.58
331.298	3.13
331.671	3.91
332.043	3.38
332.415	3.13
332.787	3.65
333.159	3.53
333.532	3.64
333.904	3.61
334.276	3.74
334.648	3.62
335.02	3.52
335.391	3.39
335.763	3.15
336.135	3.69
336.507	3.42
336.879	3.85
337.25	3.64
337.622	3.81
337.993	3.66
338.365	3.56
338.736	3.56
339.108	3.86
339.479	3.44
339.851	3.91
340.222	3.68
340.593	3.39
340.964	3.5
341.336	3.33
341.707	3.63
342.078	3.28
342.449	3.6
342.82	4.17
343.191	3.7
343.562	3.76
343.933	3.76
344.303	4.27
344.674	3.64
345.045	3.89
345.416	4.02
345.786	3.59
346.157	3.91
346.527	3.66
346.898	3.21
347.268	3.68
347.639	3.34
348.009	3.82
348.38	3.43
348.75	3.74
349.12	3.54
349.49	3.63
349.861	3.71
350.231	3.87
350.601	3.65
350.971	3.47
351.341	3.96
351.711	3.6
352.081	3.38
352.45	3.57
352.82	3.59
353.19	3.94
353.56	3.91
353.929	3.86
354.299	4.1
354.669	4.2
355.038	3.94
355.408	3.72
355.777	3.78
356.147	3.71
356.516	3.58
356.885	3.96
357.254	3.55
357.624	3.46
357.993	3.82
358.362	4.12
358.731	4.06
359.1	4.03
359.469	4.01
359.838	4.07
360.207	3.99
360.576	3.96
360.945	4.01
361.314	3.81
361.682	3.89
362.051	3.98
362.42	3.96
362.788	4.03
363.157	3.96
363.525	4.22
363.894	3.85
364.262	4
364.631	4.19
364.999	3.96
365.367	3.94
365.735	3.74
366.104	3.79
366.472	4.01
366.84	3.95
367.208	4.38
367.576	4.01
367.944	4.19
368.312	3.89
368.68	3.94
369.048	4.04
369.416	3.65
369.783	4.14
370.151	4.39
370.519	4.35
370.886	4.23
371.254	4.28
371.621	4.59
371.989	4.23
372.356	4
372.724	4.22
373.091	4.33
373.458	3.85
373.826	4.35
374.193	4.45
374.56	4.34
374.927	4.17
375.294	4.41
375.661	4.32
376.028	4.24
376.395	4.33
376.762	4.04
377.129	4.27
377.496	4.55
377.863	4.05
378.229	4.36
378.596	4.5
378.963	4.49
379.329	4.66
379.696	3.9
380.062	4.26
380.429	3.98
380.795	4.58
381.161	4.29
381.528	4.07
381.894	4.4
382.26	4.26
382.626	4.56
382.993	4.61
383.359	4.2
383.725	4.04
384.091	4.39
384.457	4.33
384.823	4.51
385.188	4.5
385.554	4.7
385.92	4.13
386.286	4.36
386.651	4.45
387.017	4.87
387.383	4.44
387.748	4.54
388.114	4.58
388.479	4.45
388.845	4.45
389.21	4.78
389.575	4.79
389.94	4.77
390.306	4.57
390.671	4.46
391.036	4.55
391.401	4.72
391.766	4.59
392.131	4.8
392.496	4.58
392.861	4.32
393.226	4.43
393.591	4.79
393.956	4.67
394.32	4.83
394.685	4.5
395.05	4.59
395.414	4.9
395.779	4.7
396.143	4.54
396.508	4.7
396.872	4.61
397.236	4.89
397.601	4.83
397.965	4.71
398.329	4.53
398.694	4.68
399.058	4.85
399.422	4.72
399.786	4.49
400.15	4.42
400.514	4.86
400.878	4.68
401.242	4.72
401.605	4.61
401.969	4.62
402.333	4.76
402.697	5.01
403.06	4.66
403.424	4.87
403.787	4.82
404.151	4.94
404.514	4.96
404.878	4.81
405.241	4.95
405.604	4.68
405.968	4.78
406.331	4.91
406.694	4.9
407.057	4.86
407.42	4.96
407.783	5.05
408.146	4.8
408.509	5.05
408.872	4.72
409.235	5.14
409.598	4.81
409.961	4.99
410.323	4.78
410.686	4.93
411.049	4.93
411.411	4.88
411.774	4.86
412.136	5.1
412.499	5.22
412.861	4.65
413.223	4.85
413.586	5.05
413.948	5.35
414.31	5.11
414.672	4.79
415.035	5.17
415.397	5.01
415.759	4.92
416.121	5.14
416.483	5.13
416.845	4.82
417.206	4.95
417.568	4.96
417.93	5.12
418.292	4.89
418.653	4.91
419.015	5
419.377	4.96
419.738	5.13
420.1	4.98
420.461	4.97
420.822	5.05
421.184	5.04
421.545	5.12
421.906	5.08
422.267	5.05
422.629	5
422.99	5.06
423.351	4.98
423.712	5.14
424.073	5.14
424.434	5.1
424.795	5.02
425.155	4.98
425.516	5.07
425.877	5.16
426.238	5
426.598	5.08
426.959	5.15
427.32	5.02
427.68	5.14
428.041	5.17
428.401	5.19
428.761	5.33
429.122	5.29
429.482	5.25
429.842	5.15
430.202	5.37
430.563	5.37
430.923	5.42
431.283	5.24
431.643	5.32
432.003	5.52
432.363	5.4
432.722	5.31
433.082	5.31
433.442	5.28
433.802	5.28
434.161	5.25
434.521	5.27
434.881	5.37
435.24	5.3
435.6	5.31
435.959	5.28
436.319	5.22
436.678	5.48
437.037	5.34
437.396	5.38
437.756	5.33
438.115	5.35
438.474	5.27
438.833	5.36
439.192	5.24
439.551	5.41
439.91	5.41
440.269	5.36
440.628	5.39
440.987	5.38
441.345	5.42
441.704	5.36
442.063	5.4
442.421	5.45
442.78	5.38
443.138	5.5
443.497	5.38
443.855	5.5
444.214	5.33
444.572	5.51
444.93	5.58
445.288	5.5
445.647	5.47
446.005	5.43
446.363	5.53
446.721	5.47
447.079	5.37
447.437	5.47
447.795	5.44
448.153	5.5
448.51	5.49
448.868	5.5
449.226	5.51
449.584	5.46
449.941	5.46
450.299	5.66
450.656	5.49
451.014	5.67
451.371	5.66
451.729	5.76
452.086	5.68
452.443	5.77
452.801	5.68
453.158	5.79
453.515	5.67
453.872	5.61
454.229	5.51
454.586	5.36
454.943	5.67
455.3	5.75
455.657	5.65
456.014	5.7
456.371	5.76
456.727	5.79
457.084	5.77
457.441	5.74
457.797	5.68
458.154	5.92
458.51	5.72
458.867	5.86
459.223	5.7
459.58	5.77
459.936	5.81
460.292	5.74
460.648	5.69
461.005	5.66
461.361	5.72
461.717	5.62
462.073	5.86
462.429	5.9
462.785	5.92
463.141	5.8
463.496	5.92
463.852	5.97
464.208	5.88
464.564	5.77
464.919	6.02
465.275	6.04
465.631	6.11
465.986	6.13
466.342	5.84
466.697	5.98
467.052	6.11
467.408	6.02
467.763	5.87
468.118	5.85
468.473	5.98
468.829	6.04
469.184	6.17
469.539	6.02
469.894	6.12
470.249	6.09
470.603	6.21
470.958	6.08
471.313	6.03
471.668	6.09
472.023	6.18
472.377	6
472.732	6.27
473.086	6.03
473.441	6.11
473.795	6.25
474.15	6
474.504	6.01
474.859	5.99
475.213	6.2
475.567	6.07
475.921	6.3
476.275	6.26
476.63	6.13
476.984	6.03
477.338	6.27
477.692	6.21
478.045	6.21
478.399	6.19
478.753	6.11
479.107	6.24
479.461	6.17
479.814	6.3
480.168	6.22
480.521	6.47
480.875	6.24
481.228	6.34
481.582	6.22
481.935	6.37
482.289	6.27
482.642	6.37
482.995	6.19
483.348	6.22
483.701	6.28
484.055	6.17
484.408	6.09
484.761	6.05
485.114	5.98
485.466	5.9
485.819	5.92
486.172	5.99
486.525	6.03
486.878	6.09
487.23	6.18
487.583	6.16
487.936	6.16
488.288	6.16
488.641	6.12
488.993	6.09
489.345	6.11
489.698	6.1
490.05	6.12
490.402	6.17
490.754	6.24
491.107	6.22
491.459	6.4
491.811	6.35
492.163	6.34
492.515	6.3
492.866	6.17
493.218	6.25
493.57	6.28
493.922	6.3
494.274	6.44
494.625	6.5
494.977	6.45
495.328	6.55
495.68	6.6
496.031	6.51
496.383	6.56
496.734	6.57
497.086	6.71
497.437	6.8
497.788	6.73
498.139	6.61
498.49	6.74
498.842	6.72
499.193	6.6
499.544	6.75
499.894	6.68
500.245	6.74
500.596	6.7
500.947	6.69
501.298	6.7
501.648	6.75
501.999	6.94
502.35	6.7
502.7	6.93
503.051	6.81
503.401	6.88
503.752	6.82
504.102	6.76
504.452	6.87
504.803	6.84
505.153	6.96
505.503	6.93
505.853	6.9
506.203	7.08
506.553	6.81
506.903	7.12
507.253	6.96
507.603	7.04
507.953	7.02
508.303	7.07
508.652	7
509.002	6.99
509.352	7.03
509.701	6.98
510.051	7.13
510.4	7.02
510.75	7.04
511.099	6.94
511.449	7.07
511.798	7.06
512.147	7.07
512.496	7.07
512.846	7
513.195	7.15
513.544	7.22
513.893	7.11
514.242	7.08
514.591	7.11
514.939	7.2
515.288	7.2
515.637	7.25
515.986	7.39
516.334	7.33
516.683	7.31
517.032	7.29
517.38	7.17
517.729	7.29
518.077	7.35
518.426	7.3
518.774	7.38
519.122	7.37
519.47	7.23
519.819	7.34
520.167	7.3
520.515	7.26
520.863	7.2
521.211	7.26
521.559	7.25
521.907	7.48
522.255	7.38
522.602	7.45
522.95	7.55
523.298	7.48
523.645	7.57
523.993	7.58
524.341	7.64
524.688	7.52
525.036	7.6
525.383	7.59
525.73	7.58
526.078	7.64
526.425	7.59
526.772	7.51
527.119	7.57
527.466	7.55
527.814	7.52
528.161	7.56
528.508	7.65
528.854	7.57
529.201	7.53
529.548	7.48
529.895	7.43
530.242	7.39
530.588	7.39
530.935	7.44
531.282	7.45
531.628	7.53
531.975	7.64
532.321	7.71
532.667	7.76
533.014	7.82
533.36	7.86
533.706	7.88
534.052	7.9
534.399	7.83
534.745	7.64
535.091	7.71
535.437	7.75
535.783	7.83
536.129	7.81
536.474	7.91
536.82	7.98
537.166	8
537.512	7.96
537.857	7.98
538.203	7.95
538.549	7.91
538.894	8.05
539.239	8.09
539.585	8.17
539.93	8.27
540.276	8.35
540.621	8.3
540.966	8.25
541.311	8.21
541.656	8.29
542.001	8.17
542.346	8.2
542.691	8.08
543.036	8.09
543.381	8.11
543.726	8.18
544.071	8.15
544.415	8.27
544.76	8.35
545.105	8.4
545.449	8.42
545.794	8.49
546.138	8.5
546.483	8.54
546.827	8.42
547.171	8.67
547.516	8.73
547.86	8.65
548.204	8.6
548.548	8.58
548.892	8.61
549.236	8.6
549.58	8.77
549.924	8.74
550.268	8.92
550.612	8.99
550.956	8.96
551.3	9.07
551.643	9.13
551.987	9.04
552.33	9.22
552.674	9.03
553.017	9.16
553.361	9.2
553.704	9.2
554.048	9.25
554.391	9.22
554.734	9.11
555.077	9.15
555.42	9.05
555.764	9.19
556.107	9.39
556.45	9.5
556.793	9.51
557.135	9.43
557.478	9.52
557.821	9.48
558.164	9.6
558.507	9.39
558.849	9.66
559.192	9.45
559.534	9.43
559.877	9.47
560.219	9.61
560.562	9.51
560.904	9.86
561.246	9.7
561.589	9.92
561.931	9.73
562.273	9.75
562.615	9.67
562.957	9.76
563.299	9.74
563.641	9.88
563.983	9.72
564.325	9.92
564.667	10.02
565.008	9.75
565.35	9.92
565.692	10.13
566.033	9.91
566.375	10.08
566.716	9.81
567.058	9.94
567.399	10.04
567.741	10.07
568.082	10.03
568.423	10.05
568.764	10.08
569.105	10.08
569.447	10.08
569.788	10.22
570.129	10.21
570.47	10.26
570.811	10.3
571.151	10.3
571.492	10.47
571.833	10.39
572.174	10.61
572.514	10.39
572.855	10.6
573.195	10.54
573.536	10.52
573.876	10.45
574.217	10.45
574.557	10.63
574.898	10.54
575.238	10.66
575.578	10.8
575.918	10.57
576.258	10.77
576.598	10.7
576.938	10.7
577.278	10.74
577.618	10.8
577.958	11
578.298	10.87
578.638	10.92
578.977	11.02
579.317	11.11
579.657	11.15
579.996	11.05
580.336	11.17
580.675	11.14
581.014	11.31
581.354	11.19
581.693	11.33
582.032	11.55
582.372	11.31
582.711	11.42
583.05	11.41
583.389	11.48
583.728	11.82
584.067	11.6
584.406	11.74
584.745	11.61
585.083	11.55
585.422	11.52
585.761	11.74
586.1	11.95
586.438	11.84
586.777	11.87
587.115	11.93
587.454	11.83
587.792	11.81
588.13	11.78
588.469	11.64
588.807	12.13
589.145	12.2
589.483	11.89
589.821	12.01
590.159	12.08
590.497	12.25
590.835	12.19
591.173	12.26
591.511	12.33
591.849	12.15
592.187	11.96
592.524	12.2
592.862	12.28
593.2	12.23
593.537	12.44
593.875	12.44
594.212	12.38
594.55	12.67
594.887	12.39
595.224	12.63
595.561	12.48
595.899	12.64
596.236	12.74
596.573	12.5
596.91	12.54
597.247	12.87
597.584	12.69
597.921	12.81
598.258	12.85
598.594	12.67
598.931	12.51
599.268	12.56
599.604	12.89
599.941	12.89
600.277	12.98
600.614	12.95
600.95	12.89
601.287	13.05
601.623	12.89
601.959	13.27
602.296	13.26
602.632	13.24
602.968	13.46
603.304	13.27
603.64	13.25
603.976	13.17
604.312	13.2
604.648	13.31
604.984	13.27
605.319	13.49
605.655	13.28
605.991	13.26
606.326	13.3
606.662	13.22
606.998	13.54
607.333	13.41
607.668	13.3
608.004	13.73
608.339	13.63
608.674	13.62
609.01	13.85
609.345	13.94
609.68	13.86
610.015	14.25
610.35	13.95
610.685	13.6
611.02	13.76
611.355	13.85
611.689	13.8
612.024	14.11
612.359	14.11
612.694	14.22
613.028	14.03
613.363	14.21
613.697	14.35
614.032	14.46
614.366	14.41
614.7	14.34
615.035	14.36
615.369	14.43
615.703	14.88
616.037	14.64
616.371	14.41
616.705	14.71
617.039	14.81
617.373	15.06
617.707	14.84
618.041	14.43
618.375	14.15
618.709	14.91
619.042	15.16
619.376	14.84
619.71	14.92
620.043	15.08
620.377	15.01
620.71	14.85
621.043	15.45
621.377	15.45
621.71	15.33
622.043	15.25
622.376	15.19
622.709	15.35
623.043	15.08
623.376	15.13
623.709	15.53
624.041	15.51
624.374	15.28
624.707	15.69
625.04	15.14
625.373	15.6
625.705	15.68
626.038	15.55
626.37	15.54
626.703	15.84
627.035	15.55
627.368	15.87
627.7	15.71
628.032	15.66
628.365	15.97
628.697	16.02
629.029	15.53
629.361	15.86
629.693	15.98
630.025	15.76
630.357	15.97
630.689	15.92
631.021	16.21
631.353	16.21
631.684	16.08
632.016	15.93
632.348	16.01
632.679	16.19
633.011	16
633.342	16.32
633.674	16.72
634.005	16.18
634.336	16.62
634.668	16.43
634.999	16.12
635.33	16.4
635.661	16.35
635.992	16.6
636.323	16.45
636.654	16.64
636.985	16.59
637.316	16.72
637.647	16.77
637.977	16.73
638.308	16.94
638.639	16.6
638.969	17.11
639.3	17.08
639.63	17.29
639.961	16.94
640.291	16.74
640.622	17.33
640.952	17.15
641.282	16.92
641.612	17.32
641.943	16.84
642.273	17.09
642.603	17
642.933	16.99
643.263	17.27
643.592	17.48
643.922	17.52
644.252	17.42
644.582	17.7
644.911	17.43
645.241	17.38
645.571	17.75
645.9	17.79
646.23	17.83
646.559	17.32
646.888	18.06
647.218	18.37
647.547	17.56
647.876	17.79
648.205	17.59
648.534	17.91
648.863	17.68
649.192	18.37
649.521	18.1
649.85	18.66
650.179	18.01
650.508	18.03
650.837	18.56
651.165	18.58
651.494	18.2
651.822	18.33
652.151	18.31
652.479	18.3
652.808	18.14
653.136	17.66
653.465	18.22
653.793	18.51
654.121	18.4
654.449	18.43
654.777	18.32
655.105	18.28
655.433	18.92
655.761	18.62
656.089	18.67
656.417	19.18
656.745	19.46
657.073	18.71
657.4	19.06
657.728	18.06
658.056	18.56
658.383	18.99
658.711	19.09
659.038	19.38
659.365	18.9
659.693	18.87
660.02	18.73
660.347	19.21
660.674	18.82
661.001	19.2
661.329	19.23
661.656	18.93
661.982	18.9
662.309	19.16
662.636	19.11
662.963	19.41
663.29	19.52
663.616	18.93
663.943	19.4
664.27	19.58
664.596	18.9
664.923	19.7
665.249	19.81
665.576	19.76
665.902	19.74
666.228	19.98
666.554	20.07
666.881	19.97
667.207	19.68
667.533	19.86
667.859	19.88
668.185	20.09
668.511	20.12
668.837	19.55
669.162	19.82
669.488	19.77
669.814	19.8
670.139	19.65
670.465	20.22
670.791	19.9
671.116	20.15
671.442	20.1
671.767	20.01
672.092	20.03
672.418	19.67
672.743	20.21
673.068	19.8
673.393	20.53
673.718	19.97
674.043	20.44
674.368	20.81
674.693	20.27
675.018	20.86
675.343	20.55
675.667	20.22
675.992	20.75
676.317	20.35
676.641	21.17
676.966	21.13
677.29	20.5
677.615	21.39
677.939	20.92
678.264	20.47
678.588	21.21
678.912	20.97
679.236	20.52
679.56	20.64
679.885	20.11
680.209	21.55
680.532	21.58
680.856	21.12
681.18	21.57
681.504	20.86
681.828	20.72
682.152	21.21
682.475	21.97
682.799	20.92
683.122	21.22
683.446	20.9
683.769	22.4
684.093	21.7
