Data from 0009_chest_Reflection__1__302.txt Node

Date: Thu Dec 15 19:04:13 CST 2022
User: ToomeyLab
Spectrometer: FLMS14357
Trigger mode: 0
Integration Time (sec): 1.000000E-2
Scans to average: 100
Electric dark correction enabled: true
Nonlinearity correction enabled: false
Boxcar width: 0
XAxis mode: Wavelengths
Number of Pixels in Spectrum: 2048
>>>>>Begin Spectral Data<<<<<
189.047	239.07
189.435	239.07
189.823	239.07
190.211	540.82
190.599	102.2
190.987	-20.53
191.375	38.84
191.763	82.19
192.151	67.24
192.538	163.27
192.926	535.7
193.314	-32.75
193.702	-16.21
194.089	18.39
194.477	185.95
194.864	28.58
195.252	86.53
195.639	115.46
196.027	-10223.81
196.414	83.73
196.801	27.91
197.189	114.94
197.576	-446.76
197.963	-152.83
198.351	20.93
198.738	-64.48
199.125	-52.42
199.512	31.09
199.899	-59.01
200.286	-39.59
200.673	40.72
201.06	-21.29
201.447	-28.1
201.833	-44.13
202.22	-2.17
202.607	-23.24
202.994	-8.2
203.38	37.33
203.767	17.6
204.154	15.67
204.54	25.76
204.927	-7.96
205.313	19.25
205.699	3.46
206.086	-6.58
206.472	2.92
206.858	12.49
207.245	-64.43
207.631	8.12
208.017	23.08
208.403	-88.71
208.789	14.17
209.175	-16.88
209.561	-291.7
209.947	-25.54
210.333	-2.88
210.719	1
211.105	28
211.491	-7.11
211.876	-53.69
212.262	30.21
212.648	5.71
213.034	-18.56
213.419	-2.35
213.805	-0.16
214.19	-81.43
214.576	-23.86
214.961	9.28
215.346	-12.13
215.732	-15.49
216.117	-21.52
216.502	-29.13
216.888	1.82
217.273	7.19
217.658	-10.31
218.043	-48.31
218.428	-10.3
218.813	14.45
219.198	-40.96
219.583	-19.11
219.968	-13.07
220.353	-54.74
220.738	-13.73
221.122	-10.95
221.507	-7.32
221.892	-60.11
222.276	-26.45
222.661	9.6
223.046	-9.55
223.43	10.32
223.815	-1.67
224.199	7.38
224.583	-2.29
224.968	-0.84
225.352	-9.31
225.736	7.67
226.121	1.6
226.505	-4
226.889	3.23
227.273	1.33
227.657	2.23
228.041	1.27
228.425	-0.12
228.809	2.07
229.193	2.55
229.577	3.87
229.961	2.34
230.344	3.73
230.728	4.44
231.112	3.78
231.495	1.79
231.879	1.83
232.263	2.37
232.646	3.99
233.03	5.43
233.413	2.19
233.797	2.1
234.18	4.61
234.563	-0.32
234.946	1.81
235.33	3.32
235.713	2.87
236.096	3.04
236.479	3.66
236.862	2.61
237.245	1.15
237.628	2
238.011	3.31
238.394	2.82
238.777	4.5
239.16	4.74
239.543	3.46
239.925	3.05
240.308	2.08
240.691	3.56
241.073	1.62
241.456	3.24
241.838	3.13
242.221	2.62
242.603	3.07
242.986	3.23
243.368	3.5
243.75	3.18
244.133	3.61
244.515	3.39
244.897	2.82
245.279	2.38
245.661	2.53
246.043	3.35
246.425	2.97
246.807	3.3
247.189	2.99
247.571	3.13
247.953	3.05
248.335	3.06
248.717	3.28
249.098	3.42
249.48	3.25
249.862	3.24
250.243	3.54
250.625	2.94
251.006	3.69
251.388	3.29
251.769	2.19
252.151	3.24
252.532	2.62
252.913	3.36
253.295	3.06
253.676	2.83
254.057	2.94
254.438	3.01
254.819	3.13
255.2	3.07
255.581	4.26
255.962	2.47
256.343	3.19
256.724	2.79
257.105	3.03
257.486	1.93
257.867	2.53
258.247	3.19
258.628	3.23
259.009	2.45
259.389	2.52
259.77	2.77
260.15	3.62
260.531	3.11
260.911	3
261.292	3.15
261.672	3.09
262.052	3.08
262.432	2.95
262.813	3.05
263.193	3.11
263.573	3.02
263.953	2.73
264.333	2.86
264.713	3.19
265.093	2.94
265.473	1.69
265.853	2.39
266.233	3.23
266.612	2.19
266.992	2.81
267.372	3.43
267.752	3.53
268.131	3.48
268.511	2.82
268.89	3.28
269.27	2.37
269.649	2.84
270.029	2.82
270.408	2.92
270.787	3.01
271.167	3.78
271.546	3.31
271.925	3.07
272.304	2.96
272.683	2.8
273.062	2.58
273.441	2.71
273.82	2.73
274.199	2.62
274.578	3.16
274.957	2.74
275.336	2.97
275.715	2.71
276.093	2.43
276.472	2.32
276.851	2.68
277.229	2.47
277.608	2.63
277.986	3.22
278.365	2.86
278.743	2.42
279.122	2.67
279.5	3.04
279.878	2.69
280.257	2.81
280.635	3.27
281.013	2.46
281.391	2.03
281.769	3.25
282.147	2.42
282.525	2.72
282.903	2.83
283.281	3.01
283.659	3
284.037	2.7
284.415	2.72
284.792	2.94
285.17	2.86
285.548	2.78
285.925	2.86
286.303	2.94
286.68	3.05
287.058	2.99
287.435	2.84
287.813	2.9
288.19	2.7
288.567	3.05
288.945	2.45
289.322	3.01
289.699	3.17
290.076	2.93
290.453	2.57
290.83	2.6
291.207	3.02
291.584	3.03
291.961	2.73
292.338	2.93
292.715	2.77
293.092	3.1
293.469	2.95
293.845	2.71
294.222	3.31
294.599	2.29
294.975	2.18
295.352	3.3
295.728	2.43
296.105	2.69
296.481	2.85
296.858	2.91
297.234	2.63
297.61	2.86
297.986	3.22
298.363	2.9
298.739	3.1
299.115	2.97
299.491	3.03
299.867	2.66
300.243	2.66
300.619	2.54
300.995	2.84
301.371	2.93
301.746	2.67
302.122	2.1
302.498	2.31
302.874	2.87
303.249	2.88
303.625	2.37
304	2.42
304.376	2.93
304.751	3.12
305.127	2.67
305.502	2.98
305.878	2.9
306.253	2.83
306.628	3.01
307.003	2.9
307.378	2.66
307.754	3.03
308.129	2.5
308.504	3.12
308.879	2.8
309.254	3.12
309.629	3.01
310.003	2.69
310.378	2.82
310.753	2.64
311.128	2.48
311.502	2.97
311.877	2.55
312.252	2.87
312.626	3.32
313.001	2.89
313.375	3.12
313.75	2.84
314.124	2.79
314.498	2.96
314.873	2.55
315.247	2.35
315.621	2.59
315.995	2.38
316.369	2.18
316.743	2.46
317.117	2.54
317.491	3.2
317.865	1.97
318.239	3.05
318.613	2.51
318.987	2.83
319.361	2.7
319.734	2.48
320.108	3.09
320.482	2.69
320.855	2.37
321.229	2.46
321.602	2.6
321.976	2.06
322.349	3.41
322.723	2.87
323.096	2.64
323.469	2.98
323.843	2.66
324.216	2.78
324.589	2.74
324.962	2.69
325.335	2.7
325.708	3.14
326.081	2.69
326.454	2.78
326.827	3.07
327.2	2.38
327.573	3.31
327.945	2.59
328.318	2.99
328.691	2.91
329.063	2.9
329.436	2.7
329.809	3.12
330.181	3.17
330.553	3.07
330.926	3.19
331.298	2.74
331.671	2.64
332.043	3.05
332.415	2.8
332.787	3.18
333.159	2.95
333.532	2.98
333.904	3.32
334.276	3.08
334.648	3.04
335.02	2.71
335.391	2.74
335.763	2.77
336.135	2.72
336.507	2.73
336.879	2.93
337.25	2.86
337.622	3.34
337.993	2.93
338.365	3.14
338.736	2.61
339.108	3.17
339.479	2.84
339.851	3.34
340.222	3.38
340.593	2.97
340.964	2.8
341.336	2.54
341.707	2.72
342.078	2.83
342.449	2.8
342.82	2.81
343.191	3.11
343.562	3
343.933	2.98
344.303	3.13
344.674	3.05
345.045	2.98
345.416	3.04
345.786	2.95
346.157	2.91
346.527	2.84
346.898	2.74
347.268	3.07
347.639	2.5
348.009	3.07
348.38	3.06
348.75	3.04
349.12	2.71
349.49	2.91
349.861	3.13
350.231	2.75
350.601	3.07
350.971	2.62
351.341	2.78
351.711	2.73
352.081	2.39
352.45	2.89
352.82	2.43
353.19	2.94
353.56	2.62
353.929	2.83
354.299	3.04
354.669	3.24
355.038	3.02
355.408	3.11
355.777	3.12
356.147	3.19
356.516	2.77
356.885	2.95
357.254	2.77
357.624	2.89
357.993	3.27
358.362	3.24
358.731	3.38
359.1	2.97
359.469	3.31
359.838	2.87
360.207	2.91
360.576	2.98
360.945	3.14
361.314	2.6
361.682	3
362.051	3.13
362.42	3.14
362.788	3.03
363.157	2.75
363.525	3.03
363.894	2.81
364.262	3.11
364.631	3.24
364.999	2.84
365.367	3.05
365.735	2.95
366.104	2.76
366.472	3.04
366.84	2.92
367.208	3.47
367.576	2.95
367.944	3
368.312	2.86
368.68	3.39
369.048	3.15
369.416	2.73
369.783	2.94
370.151	3.55
370.519	3.5
370.886	3.01
371.254	3.13
371.621	3.31
371.989	3.19
372.356	2.99
372.724	3.14
373.091	2.78
373.458	3.19
373.826	3.29
374.193	3.26
374.56	3.28
374.927	3.03
375.294	3.37
375.661	3.19
376.028	2.76
376.395	3.2
376.762	3.05
377.129	2.89
377.496	2.95
377.863	3.22
378.229	3.12
378.596	3.39
378.963	3.29
379.329	3.07
379.696	3.06
380.062	3.11
380.429	2.92
380.795	3.09
381.161	3.04
381.528	3.19
381.894	2.75
382.26	3.16
382.626	3.24
382.993	3.36
383.359	3.12
383.725	3
384.091	3.16
384.457	3.03
384.823	3.12
385.188	3.22
385.554	3.31
385.92	2.95
386.286	3.15
386.651	2.95
387.017	3.29
387.383	3.08
387.748	3.29
388.114	3.27
388.479	2.97
388.845	3.15
389.21	3.25
389.575	3.43
389.94	3.42
390.306	3.2
390.671	3.01
391.036	3.1
391.401	3.19
391.766	3.31
392.131	3.38
392.496	3.26
392.861	3.21
393.226	3.04
393.591	3.25
393.956	3.28
394.32	3.27
394.685	3.11
395.05	3.3
395.414	3.27
395.779	3.62
396.143	3.2
396.508	3.1
396.872	3.34
397.236	3.43
397.601	3.47
397.965	3.38
398.329	3.29
398.694	3.33
399.058	3.3
399.422	3.26
399.786	3.1
400.15	3.2
400.514	3.5
400.878	3.2
401.242	3.48
401.605	3.11
401.969	3.16
402.333	3.04
402.697	3.48
403.06	3.48
403.424	3.6
403.787	3.35
404.151	3.32
404.514	3.26
404.878	3.08
405.241	3.26
405.604	3.36
405.968	3.44
406.331	3.29
406.694	3.28
407.057	3.21
407.42	3.07
407.783	3.43
408.146	3.23
408.509	3.47
408.872	3.42
409.235	3.38
409.598	3.38
409.961	3.46
410.323	3.28
410.686	3.25
411.049	3.4
411.411	3.41
411.774	3.34
412.136	3.33
412.499	3.46
412.861	3.16
413.223	3.21
413.586	3.36
413.948	3.28
414.31	3.24
414.672	3.38
415.035	3.42
415.397	3.24
415.759	3.27
416.121	3.42
416.483	3.28
416.845	3.41
417.206	3.24
417.568	3.32
417.93	3.38
418.292	3.3
418.653	3.24
419.015	3.26
419.377	3.25
419.738	3.31
420.1	3.36
420.461	3.25
420.822	3.42
421.184	3.34
421.545	3.43
421.906	3.4
422.267	3.28
422.629	3.32
422.99	3.22
423.351	3.31
423.712	3.29
424.073	3.34
424.434	3.4
424.795	3.29
425.155	3.21
425.516	3.26
425.877	3.44
426.238	3.33
426.598	3.4
426.959	3.41
427.32	3.32
427.68	3.46
428.041	3.52
428.401	3.16
428.761	3.61
429.122	3.35
429.482	3.34
429.842	3.36
430.202	3.49
430.563	3.4
430.923	3.32
431.283	3.45
431.643	3.52
432.003	3.51
432.363	3.43
432.722	3.54
433.082	3.31
433.442	3.54
433.802	3.37
434.161	3.33
434.521	3.53
434.881	3.42
435.24	3.41
435.6	3.54
435.959	3.6
436.319	3.49
436.678	3.49
437.037	3.39
437.396	3.5
437.756	3.48
438.115	3.5
438.474	3.61
438.833	3.39
439.192	3.44
439.551	3.31
439.91	3.56
440.269	3.45
440.628	3.38
440.987	3.36
441.345	3.47
441.704	3.34
442.063	3.36
442.421	3.49
442.78	3.43
443.138	3.37
443.497	3.33
443.855	3.54
444.214	3.41
444.572	3.53
444.93	3.47
445.288	3.5
445.647	3.41
446.005	3.55
446.363	3.47
446.721	3.51
447.079	3.48
447.437	3.47
447.795	3.48
448.153	3.37
448.51	3.47
448.868	3.42
449.226	3.45
449.584	3.45
449.941	3.48
450.299	3.45
450.656	3.5
451.014	3.47
451.371	3.62
451.729	3.63
452.086	3.52
452.443	3.55
452.801	3.65
453.158	3.61
453.515	3.57
453.872	3.52
454.229	3.35
454.586	3.31
454.943	3.59
455.3	3.6
455.657	3.54
456.014	3.59
456.371	3.68
456.727	3.76
457.084	3.67
457.441	3.62
457.797	3.43
458.154	3.66
458.51	3.41
458.867	3.42
459.223	3.5
459.58	3.62
459.936	3.54
460.292	3.45
460.648	3.51
461.005	3.46
461.361	3.51
461.717	3.41
462.073	3.53
462.429	3.58
462.785	3.63
463.141	3.45
463.496	3.58
463.852	3.61
464.208	3.59
464.564	3.52
464.919	3.59
465.275	3.61
465.631	3.8
465.986	3.67
466.342	3.58
466.697	3.68
467.052	3.76
467.408	3.73
467.763	3.67
468.118	3.55
468.473	3.63
468.829	3.59
469.184	3.53
469.539	3.49
469.894	3.73
470.249	3.65
470.603	3.75
470.958	3.76
471.313	3.72
471.668	3.71
472.023	3.69
472.377	3.57
472.732	3.88
473.086	3.63
473.441	3.69
473.795	3.79
474.15	3.72
474.504	3.58
474.859	3.48
475.213	3.72
475.567	3.48
475.921	3.71
476.275	3.81
476.63	3.75
476.984	3.61
477.338	3.85
477.692	3.72
478.045	3.71
478.399	3.72
478.753	3.55
479.107	3.78
479.461	3.63
479.814	3.66
480.168	3.71
480.521	3.8
480.875	3.76
481.228	3.73
481.582	3.75
481.935	3.79
482.289	3.75
482.642	3.8
482.995	3.59
483.348	3.58
483.701	3.68
484.055	3.75
484.408	3.59
484.761	3.56
485.114	3.47
485.466	3.42
485.819	3.45
486.172	3.46
486.525	3.53
486.878	3.63
487.23	3.59
487.583	3.67
487.936	3.6
488.288	3.53
488.641	3.59
488.993	3.54
489.345	3.53
489.698	3.55
490.05	3.54
490.402	3.63
490.754	3.62
491.107	3.61
491.459	3.73
491.811	3.69
492.163	3.68
492.515	3.62
492.866	3.57
493.218	3.6
493.57	3.65
493.922	3.64
494.274	3.72
494.625	3.83
494.977	3.82
495.328	3.82
495.68	3.76
496.031	3.81
496.383	3.85
496.734	3.82
497.086	3.89
497.437	3.84
497.788	3.86
498.139	3.8
498.49	3.81
498.842	3.91
499.193	3.74
499.544	3.86
499.894	3.72
500.245	3.85
500.596	3.82
500.947	3.78
501.298	3.88
501.648	3.78
501.999	3.86
502.35	3.8
502.7	3.99
503.051	3.79
503.401	3.85
503.752	3.81
504.102	3.92
504.452	3.85
504.803	3.95
505.153	3.99
505.503	3.73
505.853	3.94
506.203	4.01
506.553	3.82
506.903	4.01
507.253	3.84
507.603	4.01
507.953	3.84
508.303	3.94
508.652	3.82
509.002	3.97
509.352	4.03
509.701	3.88
510.051	4.01
510.4	3.89
510.75	3.9
511.099	3.83
511.449	3.97
511.798	3.89
512.147	3.95
512.496	4.05
512.846	4.02
513.195	4.01
513.544	4.07
513.893	4.02
514.242	3.98
514.591	3.95
514.939	4
515.288	4.12
515.637	4.03
515.986	4.05
516.334	4.07
516.683	4.06
517.032	4.03
517.38	3.94
517.729	3.94
518.077	3.99
518.426	4.12
518.774	4.01
519.122	4.08
519.47	4.01
519.819	4
520.167	4
520.515	3.99
520.863	3.99
521.211	4.06
521.559	4.07
521.907	4.18
522.255	4.09
522.602	4.09
522.95	4.14
523.298	4.08
523.645	4.1
523.993	4.17
524.341	4.1
524.688	4.25
525.036	4.1
525.383	4.19
525.73	4.19
526.078	4.24
526.425	4.08
526.772	4.14
527.119	4.19
527.466	4.19
527.814	4.11
528.161	4.18
528.508	4.21
528.854	4.21
529.201	4.07
529.548	4.05
529.895	4.02
530.242	3.99
530.588	3.98
530.935	4.03
531.282	4.05
531.628	4.17
531.975	4.15
532.321	4.22
532.667	4.22
533.014	4.3
533.36	4.25
533.706	4.24
534.052	4.25
534.399	4.24
534.745	4.14
535.091	4.17
535.437	4.19
535.783	4.26
536.129	4.27
536.474	4.38
536.82	4.51
537.166	4.24
537.512	4.35
537.857	4.31
538.203	4.36
538.549	4.3
538.894	4.32
539.239	4.45
539.585	4.39
539.93	4.47
540.276	4.38
540.621	4.57
540.966	4.42
541.311	4.39
541.656	4.31
542.001	4.4
542.346	4.33
542.691	4.26
543.036	4.32
543.381	4.28
543.726	4.4
544.071	4.42
544.415	4.47
544.76	4.49
545.105	4.47
545.449	4.49
545.794	4.51
546.138	4.51
546.483	4.58
546.827	4.58
547.171	4.65
547.516	4.67
547.86	4.6
548.204	4.55
548.548	4.61
548.892	4.62
549.236	4.53
549.58	4.62
549.924	4.73
550.268	4.86
550.612	4.82
550.956	4.78
551.3	5.01
551.643	4.7
551.987	4.95
552.33	4.9
552.674	4.95
553.017	4.94
553.361	4.86
553.704	4.91
554.048	4.83
554.391	4.81
554.734	4.81
555.077	4.81
555.42	4.88
555.764	4.95
556.107	5.16
556.45	5.11
556.793	5.02
557.135	4.96
557.478	5.04
557.821	5.11
558.164	5.02
558.507	4.97
558.849	5.15
559.192	5.07
559.534	4.94
559.877	4.88
560.219	5.14
560.562	5.1
560.904	5.06
561.246	5.11
561.589	5.44
561.931	5.26
562.273	5.16
562.615	5.18
562.957	5.17
563.299	5.26
563.641	5.27
563.983	5.15
564.325	5.3
564.667	5.3
565.008	5.23
565.35	5.25
565.692	5.12
566.033	5.34
566.375	5.34
566.716	5.28
567.058	5.38
567.399	5.34
567.741	5.35
568.082	5.46
568.423	5.43
568.764	5.42
569.105	5.37
569.447	5.48
569.788	5.45
570.129	5.46
570.47	5.5
570.811	5.59
571.151	5.48
571.492	5.55
571.833	5.68
572.174	5.81
572.514	5.63
572.855	5.67
573.195	5.56
573.536	5.77
573.876	5.64
574.217	5.6
574.557	5.75
574.898	5.63
575.238	5.84
575.578	5.8
575.918	5.68
576.258	5.89
576.598	5.71
576.938	5.74
577.278	5.89
577.618	5.83
577.958	5.92
578.298	5.94
578.638	5.97
578.977	6.03
579.317	6.14
579.657	6.11
579.996	6.19
580.336	5.99
580.675	5.94
581.014	6.31
581.354	5.94
581.693	6.47
582.032	6.2
582.372	6.08
582.711	6.36
583.05	6.13
583.389	6.34
583.728	6.37
584.067	6.16
584.406	6.31
584.745	6.26
585.083	6.4
585.422	6.36
585.761	6.42
586.1	6.57
586.438	6.35
586.777	6.66
587.115	6.44
587.454	6.34
587.792	6.5
588.13	6.43
588.469	6.54
588.807	6.6
589.145	6.76
589.483	6.53
589.821	6.68
590.159	6.61
590.497	6.65
590.835	6.49
591.173	6.75
591.511	6.83
591.849	6.63
592.187	6.56
592.524	7.06
592.862	6.68
593.2	6.98
593.537	6.74
593.875	6.76
594.212	6.82
594.55	6.92
594.887	6.93
595.224	7.13
595.561	6.97
595.899	7.13
596.236	7.02
596.573	6.98
596.91	7.1
597.247	7.37
597.584	7.11
597.921	6.89
598.258	7.28
598.594	6.92
598.931	6.94
599.268	7.09
599.604	7.37
599.941	7.29
600.277	7.3
600.614	7.33
600.95	7.24
601.287	7.21
601.623	7.12
601.959	7.63
602.296	7.54
602.632	7.61
602.968	7.57
603.304	7.55
603.64	7.54
603.976	7.33
604.312	7.34
604.648	7.61
604.984	7.55
605.319	7.5
605.655	7.56
605.991	7.58
606.326	7.64
606.662	7.53
606.998	7.84
607.333	7.57
607.668	7.56
608.004	7.68
608.339	7.68
608.674	7.89
609.01	8.16
609.345	8.12
609.68	8
610.015	8.07
610.35	8.18
610.685	7.79
611.02	7.94
611.355	7.82
611.689	8.02
612.024	8.05
612.359	8.12
612.694	8
613.028	8.16
613.363	8.07
613.697	8.38
614.032	8.28
614.366	8.36
614.7	8.56
615.035	8.38
615.369	8.47
615.703	8.22
616.037	8.34
616.371	8.26
616.705	8.66
617.039	8.63
617.373	8.61
617.707	8.65
618.041	8.3
618.375	8.12
618.709	8.22
619.042	8.58
619.376	8.4
619.71	8.6
620.043	9.15
620.377	8.86
620.71	8.64
621.043	9.16
621.377	8.75
621.71	8.98
622.043	8.89
622.376	8.76
622.709	9.31
623.043	9.02
623.376	8.95
623.709	9.18
624.041	8.85
624.374	9.21
624.707	9.22
625.04	9.08
625.373	9.2
625.705	9.48
626.038	9.54
626.37	9.14
626.703	9.76
627.035	9.47
627.368	9.59
627.7	9.45
628.032	9.21
628.365	9.61
628.697	9.58
629.029	9.36
629.361	9.6
629.693	9.71
630.025	9.67
630.357	9.6
630.689	9.54
631.021	9.58
631.353	9.8
631.684	9.66
632.016	9.47
632.348	9.77
632.679	10.05
633.011	9.4
633.342	9.86
633.674	9.72
634.005	10.19
634.336	10.12
634.668	9.99
634.999	9.85
635.33	10.08
635.661	9.92
635.992	10.03
636.323	10.27
636.654	10.02
636.985	10.24
637.316	9.9
637.647	10.35
637.977	9.99
638.308	10.5
638.639	10.16
638.969	10.42
639.3	10.38
639.63	10.39
639.961	10.49
640.291	10.6
640.622	10.49
640.952	10.7
641.282	10.11
641.612	10.66
641.943	10.44
642.273	10.8
642.603	10.7
642.933	11.05
643.263	11
643.592	11.33
643.922	11.18
644.252	10.96
644.582	10.85
644.911	10.94
645.241	10.73
645.571	10.89
645.9	11.16
646.23	11.59
646.559	10.84
646.888	11.71
647.218	11.37
647.547	11.75
647.876	11.01
648.205	11.25
648.534	11.64
648.863	10.86
649.192	10.97
649.521	11.61
649.85	11.74
650.179	11.39
650.508	11.64
650.837	12.08
651.165	11.72
651.494	11.46
651.822	11.57
652.151	11.13
652.479	11.74
652.808	11.72
653.136	11.1
653.465	11.86
653.793	11.66
654.121	11.54
654.449	11.69
654.777	11.76
655.105	11.74
655.433	12.22
655.761	12.07
656.089	11.99
656.417	12.41
656.745	12.55
657.073	12.33
657.4	11.7
657.728	12.01
658.056	12.13
658.383	12.11
658.711	12.51
659.038	12.38
659.365	12.32
659.693	12.29
660.02	12.36
660.347	12.26
660.674	11.77
661.001	12.5
661.329	12.53
661.656	12.44
661.982	12.74
662.309	12.51
662.636	12.75
662.963	12.55
663.29	12.92
663.616	12.6
663.943	12.93
664.27	13.16
664.596	12.47
664.923	13.15
665.249	12.61
665.576	12.67
665.902	12.51
666.228	13.16
666.554	13.46
666.881	12.86
667.207	13.33
667.533	12.91
667.859	12.7
668.185	13.53
668.511	13.62
668.837	13.27
669.162	13.14
669.488	12.7
669.814	12.97
670.139	12.76
670.465	13.46
670.791	13.06
671.116	13.27
671.442	12.74
671.767	13.46
672.092	13.64
672.418	13.73
672.743	13
673.068	13.6
673.393	14.06
673.718	13.45
674.043	14.23
674.368	13.56
674.693	13.99
675.018	13.9
675.343	14.01
675.667	13.96
675.992	13.71
676.317	13.19
676.641	14.45
676.966	13.82
677.29	13.34
677.615	14.03
677.939	14.37
678.264	13.66
678.588	14.38
678.912	14.11
679.236	14.39
679.56	14.18
679.885	14.14
680.209	14.85
680.532	14.74
680.856	14.26
681.18	15.16
681.504	14.49
681.828	14.3
682.152	14.32
682.475	14.59
682.799	14.95
683.122	14.43
683.446	14.34
683.769	15.03
684.093	14.98
684.416	14.45
684.739	14.47
685.062	14.94
685.386	15.49
685.709	15.32
686.032	15.13
686.355	14.72
686.678	14.7
687.001	15.23
687.324	15.23
687.646	15.13
687.969	15.28
688.292	14.68
688.614	15.36
