Data from 0009_crown_Reflection__1__308.txt Node

Date: Thu Dec 15 19:06:12 CST 2022
User: ToomeyLab
Spectrometer: FLMS14357
Trigger mode: 0
Integration Time (sec): 1.000000E-2
Scans to average: 100
Electric dark correction enabled: true
Nonlinearity correction enabled: false
Boxcar width: 0
XAxis mode: Wavelengths
Number of Pixels in Spectrum: 2048
>>>>>Begin Spectral Data<<<<<
189.047	-79.43
189.435	-79.43
189.823	-79.43
190.211	-1056.94
190.599	50.73
190.987	38.81
191.375	-28.23
191.763	130.61
192.151	94.2
192.538	12.73
192.926	179.69
193.314	-991.05
193.702	-25.79
194.089	-304.92
194.477	101.15
194.864	85.39
195.252	-1.97
195.639	71.62
196.027	2640.48
196.414	181.16
196.801	79.83
197.189	101.85
197.576	-508.27
197.963	-27.52
198.351	-45.28
198.738	-29.4
199.125	-73.3
199.512	31.98
199.899	-50.23
200.286	-111.42
200.673	18.17
201.06	-21.83
201.447	-12.01
201.833	18.72
202.22	-60.52
202.607	-45.4
202.994	-18.6
203.38	22.5
203.767	2.25
204.154	11.73
204.54	0.14
204.927	-1.75
205.313	9.59
205.699	17.5
206.086	-11.28
206.472	1.46
206.858	-43.85
207.245	2.38
207.631	-11.08
208.017	-8.11
208.403	-82.38
208.789	28.34
209.175	-11.34
209.561	-403.74
209.947	-1.01
210.333	-65.07
210.719	8.54
211.105	20.51
211.491	-40.05
211.876	-56.9
212.262	-0.82
212.648	-21.83
213.034	-30.4
213.419	7.2
213.805	2.07
214.19	-58
214.576	-22.92
214.961	-10.07
215.346	-25.8
215.732	-24.11
216.117	-11.75
216.502	-28.33
216.888	-9.05
217.273	-4.54
217.658	-48.21
218.043	-73.44
218.428	-18.93
218.813	4.66
219.198	-47.61
219.583	0.32
219.968	5.82
220.353	-39.94
220.738	-30.78
221.122	-17.45
221.507	-25.5
221.892	-43.36
222.276	-29.45
222.661	-12.96
223.046	-10.47
223.43	13.02
223.815	2.2
224.199	-4.09
224.583	-8.63
224.968	-2.57
225.352	-5.32
225.736	5.77
226.121	-5.79
226.505	-5.17
226.889	-0.57
227.273	-4.82
227.657	2.61
228.041	0.16
228.425	-2.74
228.809	0.33
229.193	3.23
229.577	4.5
229.961	2.89
230.344	4.34
230.728	5.18
231.112	4.77
231.495	4.05
231.879	3.76
232.263	4.42
232.646	4.89
233.03	6.49
233.413	3.79
233.797	3.55
234.18	2.66
234.563	1.95
234.946	0.7
235.33	3.22
235.713	4.77
236.096	4.21
236.479	2.87
236.862	3.01
237.245	4.34
237.628	2.89
238.011	3.55
238.394	2.51
238.777	3.76
239.16	6.41
239.543	3.07
239.925	3.23
240.308	1.21
240.691	2.47
241.073	3.18
241.456	3.55
241.838	4.01
242.221	3.86
242.603	4.38
242.986	3.78
243.368	3.91
243.75	4.12
244.133	4.57
244.515	4.27
244.897	4.33
245.279	3.82
245.661	3.56
246.043	3.67
246.425	4.33
246.807	3.83
247.189	4.07
247.571	3.41
247.953	3.83
248.335	3.9
248.717	4.09
249.098	4
249.48	4
249.862	4.14
250.243	4.11
250.625	4.1
251.006	4.68
251.388	4.81
251.769	3.31
252.151	4.43
252.532	3.55
252.913	3.41
253.295	3.14
253.676	3.66
254.057	3.88
254.438	3.54
254.819	3.75
255.2	4.09
255.581	4.74
255.962	3.52
256.343	3.62
256.724	3.77
257.105	2.12
257.486	2.86
257.867	3.57
258.247	4.17
258.628	3.59
259.009	3.28
259.389	2.7
259.77	3.2
260.15	4.15
260.531	3.87
260.911	3.53
261.292	3.7
261.672	3.81
262.052	3.72
262.432	3.48
262.813	3.54
263.193	3.15
263.573	3.29
263.953	2.77
264.333	2.71
264.713	3.35
265.093	3.62
265.473	3.51
265.853	4.05
266.233	2.96
266.612	2.56
266.992	3.41
267.372	3.41
267.752	3.57
268.131	3.68
268.511	3.28
268.89	3.71
269.27	3.02
269.649	3.15
270.029	3.24
270.408	3.01
270.787	3.44
271.167	3.38
271.546	3.91
271.925	3.58
272.304	3.25
272.683	3.1
273.062	3.34
273.441	2.92
273.82	3.77
274.199	3.07
274.578	3.34
274.957	3.31
275.336	3.73
275.715	3.62
276.093	3.18
276.472	3.15
276.851	3.11
277.229	2.57
277.608	3.16
277.986	3.3
278.365	3.5
278.743	3.42
279.122	2.74
279.5	3.24
279.878	3.23
280.257	2.74
280.635	3.51
281.013	2.74
281.391	3.12
281.769	3.89
282.147	3.07
282.525	2.9
282.903	2.94
283.281	3.63
283.659	3.4
284.037	3.01
284.415	3.27
284.792	3.28
285.17	3.14
285.548	3.26
285.925	3.12
286.303	3.64
286.68	2.93
287.058	3.12
287.435	2.78
287.813	3.03
288.19	2.87
288.567	2.89
288.945	2.8
289.322	2.84
289.699	2.85
290.076	2.48
290.453	2.47
290.83	3.2
291.207	2.89
291.584	3.47
291.961	3.18
292.338	2.91
292.715	2.78
293.092	3.27
293.469	3.03
293.845	3.22
294.222	3.23
294.599	2.45
294.975	2.33
295.352	3.37
295.728	2.9
296.105	2.52
296.481	3.12
296.858	2.99
297.234	2.63
297.61	3.01
297.986	3.34
298.363	3.05
298.739	3.16
299.115	2.86
299.491	3.3
299.867	2.6
300.243	2.8
300.619	2.53
300.995	3.06
301.371	2.96
301.746	3.22
302.122	2.38
302.498	2.49
302.874	3.1
303.249	2.94
303.625	2.39
304	3.19
304.376	2.81
304.751	2.45
305.127	2.74
305.502	2.99
305.878	2.9
306.253	2.96
306.628	2.7
307.003	2.4
307.378	2.9
307.754	2.88
308.129	2.75
308.504	3.19
308.879	2.99
309.254	3.37
309.629	2.7
310.003	2.72
310.378	3.05
310.753	2.86
311.128	2.85
311.502	2.73
311.877	2.78
312.252	2.66
312.626	3.48
313.001	3.05
313.375	2.91
313.75	3.05
314.124	2.98
314.498	2.87
314.873	2.53
315.247	2.85
315.621	2.48
315.995	2.85
316.369	2.62
316.743	2.91
317.117	2.76
317.491	3.14
317.865	2.8
318.239	3.43
318.613	2.85
318.987	2.26
319.361	2.38
319.734	2.57
320.108	2.5
320.482	2.78
320.855	2.81
321.229	1.91
321.602	3
321.976	2.55
322.349	3.33
322.723	2.8
323.096	2.72
323.469	2.53
323.843	2.46
324.216	2.66
324.589	3.15
324.962	2.65
325.335	2.46
325.708	2.97
326.081	2.91
326.454	2.99
326.827	2.77
327.2	2.53
327.573	3.05
327.945	2.22
328.318	2.5
328.691	2.69
329.063	2.5
329.436	2.79
329.809	3.17
330.181	3.5
330.553	3.11
330.926	2.8
331.298	2.58
331.671	3.3
332.043	2.63
332.415	3.5
332.787	3.09
333.159	2.48
333.532	3.02
333.904	2.65
334.276	2.83
334.648	2.97
335.02	2.85
335.391	2.52
335.763	2.84
336.135	2.98
336.507	2.76
336.879	3.1
337.25	2.61
337.622	2.82
337.993	2.8
338.365	3.09
338.736	3.24
339.108	2.93
339.479	2.51
339.851	2.73
340.222	3.01
340.593	2.82
340.964	2.69
341.336	2.63
341.707	3.02
342.078	2.66
342.449	2.63
342.82	3.01
343.191	2.94
343.562	2.69
343.933	2.79
344.303	3.23
344.674	2.73
345.045	3.07
345.416	3.31
345.786	2.85
346.157	3.09
346.527	3.02
346.898	3.19
347.268	3.12
347.639	2.69
348.009	3
348.38	2.96
348.75	3.52
349.12	3.08
349.49	2.81
349.861	3.1
350.231	2.6
350.601	2.82
350.971	2.84
351.341	3.43
351.711	3.17
352.081	2.78
352.45	3.05
352.82	2.41
353.19	2.88
353.56	2.91
353.929	3.14
354.299	3.25
354.669	3.27
355.038	3.39
355.408	3
355.777	3.36
356.147	3.07
356.516	2.96
356.885	2.68
357.254	2.92
357.624	2.57
357.993	3.03
358.362	3.03
358.731	3.6
359.1	3.24
359.469	3.34
359.838	3.12
360.207	2.97
360.576	3.11
360.945	3.08
361.314	3.06
361.682	2.81
362.051	3.35
362.42	3.23
362.788	3.23
363.157	3.09
363.525	3.21
363.894	2.9
364.262	3.22
364.631	3.33
364.999	3.14
365.367	3.08
365.735	3.02
366.104	3.05
366.472	3.11
366.84	3.33
367.208	3.36
367.576	3.02
367.944	3.24
368.312	2.89
368.68	3.51
369.048	3.34
369.416	2.8
369.783	2.93
370.151	3.53
370.519	3.67
370.886	3.47
371.254	3.49
371.621	3.08
371.989	3.08
372.356	3.2
372.724	2.99
373.091	2.98
373.458	3.19
373.826	3.34
374.193	3.09
374.56	3.49
374.927	3.07
375.294	3.5
375.661	3.04
376.028	3.18
376.395	3.42
376.762	2.92
377.129	2.78
377.496	2.95
377.863	3.44
378.229	3.51
378.596	3.45
378.963	3.51
379.329	3.33
379.696	3.19
380.062	3.27
380.429	3.16
380.795	3.39
381.161	3.16
381.528	2.98
381.894	3.27
382.26	3.34
382.626	3.41
382.993	3.61
383.359	3.2
383.725	2.96
384.091	3.35
384.457	3.38
384.823	3.54
385.188	3.55
385.554	3.43
385.92	3.26
386.286	3.45
386.651	3.39
387.017	3.4
387.383	3.39
387.748	3.39
388.114	3.56
388.479	3.39
388.845	3.19
389.21	3.65
389.575	3.54
389.94	3.53
390.306	3.28
390.671	3.36
391.036	3.35
391.401	3.6
391.766	3.66
392.131	3.61
392.496	3.36
392.861	3.41
393.226	3.35
393.591	3.47
393.956	3.62
394.32	3.61
394.685	3.62
395.05	3.4
395.414	3.58
395.779	3.75
396.143	3.37
396.508	3.39
396.872	3.44
397.236	3.84
397.601	3.7
397.965	3.5
398.329	3.66
398.694	3.52
399.058	3.62
399.422	3.6
399.786	3.43
400.15	3.34
400.514	3.6
400.878	3.71
401.242	3.53
401.605	3.48
401.969	3.46
402.333	3.34
402.697	3.7
403.06	3.52
403.424	3.71
403.787	3.57
404.151	3.69
404.514	3.54
404.878	3.54
405.241	3.47
405.604	3.51
405.968	3.57
406.331	3.65
406.694	3.51
407.057	3.6
407.42	3.54
407.783	3.68
408.146	3.6
408.509	3.74
408.872	3.69
409.235	3.74
409.598	3.75
409.961	3.62
410.323	3.42
410.686	3.6
411.049	3.84
411.411	3.52
411.774	3.46
412.136	3.62
412.499	3.85
412.861	3.36
413.223	3.46
413.586	3.68
413.948	3.75
414.31	3.61
414.672	3.66
415.035	3.78
415.397	3.69
415.759	3.28
416.121	3.67
416.483	3.71
416.845	3.68
417.206	3.51
417.568	3.6
417.93	3.63
418.292	3.52
418.653	3.55
419.015	3.65
419.377	3.58
419.738	3.65
420.1	3.59
420.461	3.61
420.822	3.68
421.184	3.59
421.545	3.68
421.906	3.75
422.267	3.55
422.629	3.54
422.99	3.56
423.351	3.66
423.712	3.63
424.073	3.62
424.434	3.68
424.795	3.55
425.155	3.49
425.516	3.59
425.877	3.57
426.238	3.51
426.598	3.68
426.959	3.62
427.32	3.55
427.68	3.61
428.041	3.56
428.401	3.56
428.761	3.72
429.122	3.7
429.482	3.62
429.842	3.64
430.202	3.57
430.563	3.71
430.923	3.68
431.283	3.84
431.643	3.81
432.003	3.66
432.363	3.65
432.722	3.64
433.082	3.77
433.442	3.68
433.802	3.6
434.161	3.66
434.521	3.73
434.881	3.69
435.24	3.66
435.6	3.8
435.959	3.75
436.319	3.56
436.678	3.86
437.037	3.86
437.396	3.68
437.756	3.69
438.115	3.72
438.474	3.65
438.833	3.6
439.192	3.64
439.551	3.51
439.91	3.7
440.269	3.69
440.628	3.63
440.987	3.66
441.345	3.7
441.704	3.59
442.063	3.6
442.421	3.69
442.78	3.67
443.138	3.64
443.497	3.65
443.855	3.8
444.214	3.67
444.572	3.81
444.93	3.65
445.288	3.65
445.647	3.64
446.005	3.7
446.363	3.66
446.721	3.62
447.079	3.67
447.437	3.68
447.795	3.71
448.153	3.71
448.51	3.71
448.868	3.56
449.226	3.7
449.584	3.7
449.941	3.75
450.299	3.66
450.656	3.72
451.014	3.83
451.371	3.86
451.729	3.84
452.086	3.73
452.443	3.73
452.801	3.71
453.158	3.88
453.515	3.72
453.872	3.71
454.229	3.64
454.586	3.49
454.943	3.78
455.3	3.86
455.657	3.67
456.014	3.75
456.371	3.77
456.727	3.93
457.084	3.92
457.441	3.88
457.797	3.7
458.154	3.77
458.51	3.7
458.867	3.76
459.223	3.75
459.58	3.81
459.936	3.67
460.292	3.61
460.648	3.6
461.005	3.63
461.361	3.63
461.717	3.62
462.073	3.67
462.429	3.82
462.785	3.89
463.141	3.77
463.496	3.77
463.852	3.91
464.208	3.73
464.564	3.77
464.919	3.69
465.275	3.79
465.631	3.89
465.986	3.86
466.342	3.68
466.697	3.73
467.052	3.78
467.408	3.89
467.763	3.76
468.118	3.71
468.473	3.82
468.829	3.86
469.184	3.85
469.539	3.72
469.894	3.73
470.249	3.75
470.603	3.86
470.958	3.82
471.313	3.75
471.668	3.68
472.023	3.76
472.377	3.74
472.732	3.81
473.086	3.66
473.441	3.78
473.795	4
474.15	3.76
474.504	3.84
474.859	3.58
475.213	3.92
475.567	3.81
475.921	3.77
476.275	3.89
476.63	3.84
476.984	3.68
477.338	3.81
477.692	3.82
478.045	3.73
478.399	3.83
478.753	3.71
479.107	3.82
479.461	3.72
479.814	3.67
480.168	3.77
480.521	3.97
480.875	3.81
481.228	3.82
481.582	3.76
481.935	3.95
482.289	3.76
482.642	3.89
482.995	3.76
483.348	3.69
483.701	3.7
484.055	3.72
484.408	3.68
484.761	3.63
485.114	3.51
485.466	3.46
485.819	3.49
486.172	3.62
486.525	3.64
486.878	3.73
487.23	3.7
487.583	3.72
487.936	3.65
488.288	3.7
488.641	3.58
488.993	3.58
489.345	3.6
489.698	3.6
490.05	3.59
490.402	3.7
490.754	3.71
491.107	3.67
491.459	3.83
491.811	3.81
492.163	3.7
492.515	3.72
492.866	3.63
493.218	3.54
493.57	3.64
493.922	3.7
494.274	3.82
494.625	3.89
494.977	3.83
495.328	3.88
495.68	3.82
496.031	3.79
496.383	3.81
496.734	3.73
497.086	3.87
497.437	3.92
497.788	3.89
498.139	3.77
498.49	3.78
498.842	3.84
499.193	3.73
499.544	3.86
499.894	3.73
500.245	3.86
500.596	3.76
500.947	3.76
501.298	3.73
501.648	3.9
501.999	3.91
502.35	3.88
502.7	3.89
503.051	3.85
503.401	3.79
503.752	3.8
504.102	3.77
504.452	3.66
504.803	3.89
505.153	3.85
505.503	3.8
505.853	3.82
506.203	3.78
506.553	3.83
506.903	3.8
507.253	3.74
507.603	3.85
507.953	3.86
508.303	3.9
508.652	3.69
509.002	3.79
509.352	3.86
509.701	3.69
510.051	3.89
510.4	3.84
510.75	3.8
511.099	3.66
511.449	3.86
511.798	3.81
512.147	3.73
512.496	3.81
512.846	3.87
513.195	3.75
513.544	3.87
513.893	3.83
514.242	3.73
514.591	3.84
514.939	3.8
515.288	3.96
515.637	3.86
515.986	3.84
516.334	3.82
516.683	3.83
517.032	3.85
517.38	3.66
517.729	3.76
518.077	3.78
518.426	3.92
518.774	3.82
519.122	3.78
519.47	3.69
519.819	3.77
520.167	3.7
520.515	3.8
520.863	3.72
521.211	3.77
521.559	3.83
521.907	3.8
522.255	3.75
522.602	3.88
522.95	3.84
523.298	3.84
523.645	3.86
523.993	3.85
524.341	3.88
524.688	3.78
525.036	3.82
525.383	3.72
525.73	3.71
526.078	3.86
526.425	3.79
526.772	3.73
527.119	3.78
527.466	3.8
527.814	3.79
528.161	3.79
528.508	3.87
528.854	3.8
529.201	3.74
529.548	3.7
529.895	3.62
530.242	3.57
530.588	3.62
530.935	3.68
531.282	3.75
531.628	3.78
531.975	3.81
532.321	3.77
532.667	3.84
533.014	3.84
533.36	3.84
533.706	3.81
534.052	3.82
534.399	3.75
534.745	3.68
535.091	3.64
535.437	3.72
535.783	3.71
536.129	3.84
536.474	3.86
536.82	3.92
537.166	3.75
537.512	3.87
537.857	3.74
538.203	3.74
538.549	3.68
538.894	3.81
539.239	3.86
539.585	3.87
539.93	3.91
540.276	3.87
540.621	3.89
540.966	3.92
541.311	3.85
541.656	3.85
542.001	3.74
542.346	3.75
542.691	3.59
543.036	3.67
543.381	3.68
543.726	3.8
544.071	3.77
544.415	3.76
544.76	3.8
545.105	3.76
545.449	3.77
545.794	3.81
546.138	3.86
546.483	3.89
546.827	3.89
547.171	3.88
547.516	3.86
547.86	3.84
548.204	3.82
548.548	3.72
548.892	3.83
549.236	3.72
549.58	3.9
549.924	3.95
550.268	3.89
550.612	4.02
550.956	3.86
551.3	4.1
551.643	3.88
551.987	4.06
552.33	4.02
552.674	3.88
553.017	4.05
553.361	4.05
553.704	4
554.048	3.77
554.391	3.99
554.734	3.85
555.077	3.86
555.42	3.85
555.764	3.97
556.107	4.01
556.45	3.99
556.793	4.06
557.135	3.94
557.478	3.93
557.821	4.09
558.164	4.04
558.507	3.94
558.849	3.9
559.192	3.99
559.534	3.87
559.877	3.91
560.219	3.96
560.562	3.89
560.904	3.97
561.246	3.91
561.589	3.92
561.931	4.03
562.273	3.97
562.615	3.97
562.957	3.88
563.299	3.92
563.641	4.1
563.983	3.83
564.325	3.95
564.667	3.77
565.008	3.89
565.35	3.88
565.692	4.01
566.033	3.85
566.375	3.91
566.716	3.76
567.058	3.82
567.399	3.88
567.741	3.82
568.082	3.88
568.423	3.81
568.764	3.89
569.105	3.86
569.447	3.94
569.788	3.87
570.129	4.06
570.47	3.89
570.811	3.8
571.151	3.8
571.492	3.83
571.833	3.94
572.174	3.92
572.514	4.02
572.855	3.88
573.195	3.82
573.536	3.98
573.876	3.79
574.217	3.88
574.557	3.87
574.898	3.84
575.238	4.01
575.578	3.89
575.918	4.09
576.258	4.11
576.598	3.85
576.938	3.85
577.278	3.93
577.618	3.88
577.958	3.95
578.298	4.04
578.638	3.96
578.977	4.12
579.317	4.1
579.657	3.88
579.996	4.08
580.336	3.93
580.675	3.99
581.014	3.94
581.354	3.77
581.693	4.02
582.032	4.07
582.372	3.99
582.711	4.09
583.05	3.97
583.389	3.9
583.728	4.16
584.067	3.77
584.406	4.13
584.745	3.9
585.083	3.99
585.422	3.99
585.761	4.01
586.1	4.11
586.438	4.04
586.777	4.04
587.115	4.02
587.454	3.68
587.792	3.8
588.13	3.77
588.469	3.81
588.807	4.04
589.145	4.08
589.483	3.68
589.821	3.94
590.159	3.93
590.497	3.85
590.835	3.97
591.173	3.88
591.511	3.96
591.849	3.99
592.187	3.84
592.524	3.94
592.862	3.71
593.2	3.95
593.537	3.99
593.875	4
594.212	3.88
594.55	4.05
594.887	3.9
595.224	4.18
595.561	4.02
595.899	3.96
596.236	4.1
596.573	3.89
596.91	3.75
597.247	3.97
597.584	3.98
597.921	3.79
598.258	3.99
598.594	3.78
598.931	3.6
599.268	3.67
599.604	3.99
599.941	3.96
600.277	3.95
600.614	3.8
600.95	3.86
601.287	3.7
601.623	3.62
601.959	4.32
602.296	3.96
602.632	3.94
602.968	4.18
603.304	4.13
603.64	3.88
603.976	3.87
604.312	3.9
604.648	3.91
604.984	3.85
605.319	4.03
605.655	3.86
605.991	3.81
606.326	3.92
606.662	3.63
606.998	4.01
607.333	4.06
607.668	3.9
608.004	3.87
608.339	3.9
608.674	3.94
609.01	4.19
609.345	3.85
609.68	3.7
610.015	3.92
610.35	3.98
610.685	3.56
611.02	3.84
611.355	3.79
611.689	3.85
612.024	4.01
612.359	3.86
612.694	4.14
613.028	3.74
613.363	3.89
613.697	3.83
614.032	3.8
614.366	3.97
614.7	4.12
615.035	3.87
615.369	4.07
615.703	4
616.037	3.96
616.371	3.66
616.705	4.12
617.039	4.03
617.373	4.02
617.707	4.12
618.041	3.82
618.375	3.42
618.709	3.76
619.042	3.74
619.376	3.84
619.71	3.84
620.043	4.04
620.377	3.63
620.71	3.56
621.043	4.07
621.377	4.09
621.71	4.07
622.043	3.93
622.376	3.68
622.709	4.18
623.043	3.84
623.376	3.7
623.709	3.73
624.041	3.97
624.374	4.08
624.707	4.15
625.04	3.72
625.373	3.87
625.705	4.14
626.038	3.95
626.37	3.79
626.703	4.17
627.035	3.74
627.368	4.23
627.7	3.76
628.032	3.8
628.365	4.12
628.697	3.75
629.029	4.08
629.361	4.02
629.693	4.04
630.025	3.97
630.357	4.06
630.689	3.86
631.021	4.27
631.353	4.05
631.684	3.68
632.016	3.54
632.348	3.78
632.679	4.04
633.011	3.64
633.342	3.85
633.674	3.67
634.005	3.91
634.336	4.01
634.668	3.75
634.999	3.76
635.33	4.14
635.661	3.96
635.992	4.24
636.323	4
636.654	3.95
636.985	4.11
637.316	3.74
637.647	4.1
637.977	3.85
638.308	4.27
638.639	3.8
638.969	3.58
639.3	3.97
639.63	3.96
639.961	4.24
640.291	3.76
640.622	3.83
640.952	4.23
641.282	3.34
641.612	3.8
641.943	3.4
642.273	3.55
642.603	3.73
642.933	4.46
643.263	4.17
643.592	4.01
643.922	4.27
644.252	4
644.582	4.14
644.911	3.78
645.241	4.16
645.571	3.73
645.9	3.83
646.23	4.12
646.559	4.15
646.888	4.45
647.218	3.59
647.547	3.63
647.876	3.54
648.205	3.73
648.534	3.72
648.863	3.85
649.192	4.26
649.521	3.95
649.85	3.86
650.179	4.16
650.508	3.8
650.837	4.2
651.165	3.98
651.494	3.95
651.822	3.96
652.151	3.69
652.479	4.12
652.808	3.76
653.136	3.52
653.465	3.69
653.793	4.08
654.121	3.72
654.449	3.69
654.777	3.96
655.105	3.7
655.433	3.88
655.761	4.12
656.089	3.83
656.417	4.32
656.745	4.04
657.073	3.77
657.4	3.84
657.728	3.83
658.056	4.09
658.383	4
658.711	4.12
659.038	4.36
659.365	4.05
659.693	3.98
660.02	3.89
660.347	3.8
660.674	3.62
661.001	4.08
661.329	3.94
661.656	3.89
661.982	3.96
662.309	3.87
662.636	4.04
662.963	3.96
663.29	4.2
663.616	3.27
663.943	3.79
664.27	3.8
664.596	3.63
664.923	4.34
665.249	4.5
665.576	4.01
665.902	3.62
666.228	4.01
666.554	4.4
666.881	3
667.207	4.09
667.533	3.9
667.859	3.73
668.185	3.95
668.511	4.18
668.837	3.76
669.162	4.31
669.488	3.46
669.814	3.94
670.139	3.32
670.465	4.29
670.791	4.08
671.116	3.76
671.442	3.52
671.767	3.76
672.092	3.62
672.418	4.43
672.743	4.21
673.068	3.84
673.393	4.01
673.718	3.75
674.043	3.98
674.368	3.77
674.693	4.26
675.018	4.35
675.343	3.78
675.667	3.79
675.992	3.78
676.317	3.34
676.641	4.27
676.966	4.1
677.29	3.93
677.615	4.16
677.939	4.36
678.264	3.57
678.588	4.12
678.912	3.75
679.236	3.73
679.56	3.43
679.885	3.96
680.209	4.09
680.532	4.01
680.856	4.12
681.18	4.61
681.504	4.19
681.828	3.85
682.152	4.09
682.475	3.64
682.799	3.51
683.122	3.96
683.446	3.16
683.769	4.22
684.093	3.8
684.416	3.32
684.739	3.8
685.062	4.23
685.386	3.98
685.709	4.03
686.032	3.99
686.355	4.16
686.678	4.67
687.001	4.3
687.324	3.77
687.646	3.79
687.969	4.03
688.292	4.24
688.614	4.14
688.937	3.58
689.26	4.24
689.582	4.02
689.904	4.78
690.227	4.28
690.549	4.09
690.871	3.53
691.194	3.97
691.516	3.8
691.838	4.09
692.16	3.45
692.482	4.35
