Data from 0112_crown_Reflection__4__199.txt Node

Date: Fri Sep 22 22:26:24 CDT 2023
User: ToomeyLab
Spectrometer: FLMS14357
Trigger mode: 0
Integration Time (sec): 1.000000E-2
Scans to average: 100
Electric dark correction enabled: true
Nonlinearity correction enabled: false
Boxcar width: 0
XAxis mode: Wavelengths
Number of Pixels in Spectrum: 2048
>>>>>Begin Spectral Data<<<<<
189.047	-556.42
189.435	-556.42
189.823	-556.42
190.211	273.29
190.599	-132.51
190.987	1536.61
191.375	342.98
191.763	-66.53
192.151	94.18
192.538	82.03
192.926	172.44
193.314	145.25
193.702	-346.84
194.089	44.62
194.477	79.16
194.864	2.11
195.252	137.62
195.639	266.21
196.027	12458.54
196.414	-304
196.801	-1035.37
197.189	41.57
197.576	2621.13
197.963	61.21
198.351	57.32
198.738	20.85
199.125	-47.25
199.512	11.73
199.899	27.7
200.286	22.34
200.673	-4.53
201.06	48.6
201.447	60.18
201.833	-20.69
202.22	64.73
202.607	68.23
202.994	71.97
203.38	53.29
203.767	-15.56
204.154	41.41
204.54	27.57
204.927	0.59
205.313	43.92
205.699	45.39
206.086	46.1
206.472	45.6
206.858	14.7
207.245	0.52
207.631	36.3
208.017	45.84
208.403	29.08
208.789	46.16
209.175	53
209.561	32.82
209.947	27.14
210.333	33.02
210.719	4.17
211.105	36.28
211.491	30.02
211.876	45.79
212.262	38.6
212.648	86.72
213.034	26.58
213.419	46.35
213.805	39.61
214.19	17.9
214.576	45.05
214.961	43.48
215.346	18.19
215.732	24.81
216.117	15.16
216.502	44.45
216.888	39.95
217.273	24.87
217.658	1
218.043	34.54
218.428	33.01
218.813	-9.74
219.198	22.81
219.583	24.27
219.968	-7.23
220.353	45.68
220.738	27.66
221.122	21.55
221.507	18.61
221.892	-10.2
222.276	18.61
222.661	7.26
223.046	22.95
223.43	27.38
223.815	-4.78
224.199	6.64
224.583	6.19
224.968	21.77
225.352	7
225.736	4.57
226.121	12.73
226.505	4.85
226.889	5.57
227.273	3.34
227.657	5.68
228.041	6.52
228.425	9.44
228.809	2.58
229.193	4.84
229.577	4.98
229.961	4.42
230.344	4.79
230.728	0.99
231.112	2.45
231.495	1.22
231.879	1.68
232.263	0.39
232.646	0.32
233.03	1.67
233.413	3.86
233.797	1.8
234.18	2.18
234.563	6.96
234.946	2.87
235.33	-4.73
235.713	1.86
236.096	0.49
236.479	2.78
236.862	4.19
237.245	1
237.628	2.37
238.011	2.17
238.394	1.17
238.777	3.67
239.16	3.34
239.543	4.58
239.925	3.05
240.308	2.82
240.691	1.43
241.073	3.07
241.456	4.64
241.838	1.54
242.221	2.35
242.603	1.81
242.986	1.58
243.368	1.01
243.75	2.12
244.133	2.69
244.515	1.88
244.897	1.47
245.279	1.48
245.661	1.49
246.043	1.93
246.425	0.64
246.807	2.12
247.189	1.02
247.571	2.41
247.953	2.16
248.335	2.09
248.717	1.82
249.098	1.77
249.48	1.41
249.862	1.39
250.243	1.52
250.625	1.5
251.006	1.09
251.388	1.65
251.769	1.27
252.151	1.76
252.532	2.19
252.913	1.96
253.295	2.9
253.676	1.93
254.057	2.13
254.438	2.29
254.819	1.33
255.2	1.81
255.581	1.06
255.962	2.58
256.343	1.37
256.724	0.27
257.105	2.48
257.486	1.81
257.867	2.2
258.247	1.64
258.628	2.8
259.009	2.06
259.389	1.04
259.77	2.46
260.15	2.26
260.531	1.16
260.911	1.71
261.292	1.85
261.672	1.3
262.052	1.42
262.432	1.43
262.813	1.62
263.193	1.4
263.573	2.27
263.953	1.26
264.333	1.44
264.713	1.51
265.093	1.98
265.473	1.59
265.853	1.74
266.233	2.33
266.612	1.13
266.992	2.1
267.372	1.07
267.752	1.99
268.131	1.88
268.511	1.46
268.89	1.85
269.27	1.41
269.649	1.71
270.029	1.65
270.408	1.43
270.787	2.1
271.167	2.01
271.546	1.3
271.925	1.31
272.304	1.54
272.683	1.75
273.062	2.16
273.441	1.49
273.82	1.95
274.199	1.16
274.578	1.53
274.957	1.23
275.336	1.08
275.715	1.36
276.093	0.85
276.472	1.07
276.851	1.85
277.229	0.86
277.608	1.94
277.986	1.35
278.365	1.99
278.743	1.29
279.122	1.26
279.5	1.55
279.878	0.87
280.257	2.25
280.635	1.25
281.013	2.13
281.391	1.13
281.769	1.89
282.147	1.49
282.525	0.93
282.903	2.06
283.281	1.59
283.659	1.55
284.037	1.61
284.415	1.41
284.792	1.56
285.17	1.57
285.548	2.16
285.925	1.57
286.303	1.6
286.68	0.9
287.058	1.28
287.435	1.56
287.813	1.31
288.19	1.05
288.567	1.46
288.945	1.4
289.322	1.55
289.699	1.29
290.076	1.8
290.453	1.53
290.83	1.22
291.207	1.66
291.584	1.15
291.961	0.98
292.338	1.62
292.715	1.62
293.092	1.37
293.469	1.62
293.845	1.8
294.222	2.24
294.599	1.47
294.975	1.68
295.352	2.31
295.728	1.4
296.105	1.84
296.481	1.92
296.858	1.55
297.234	1.32
297.61	1.59
297.986	1.95
298.363	1.68
298.739	1.69
299.115	1.6
299.491	1.63
299.867	1.78
300.243	1.49
300.619	1.63
300.995	1.44
301.371	2.18
301.746	1.83
302.122	1.73
302.498	1.32
302.874	1.65
303.249	1.92
303.625	1.64
304	1.6
304.376	2.15
304.751	2.1
305.127	2.01
305.502	2.09
305.878	1.51
306.253	1.8
306.628	1.73
307.003	2.12
307.378	1.62
307.754	1.67
308.129	1.37
308.504	2.02
308.879	2.48
309.254	1.69
309.629	1.72
310.003	1.8
310.378	2.16
310.753	2.36
311.128	2.1
311.502	1.92
311.877	1.54
312.252	1.47
312.626	1.91
313.001	2.3
313.375	1.94
313.75	1.97
314.124	2.31
314.498	1.16
314.873	1.73
315.247	1.92
315.621	1.7
315.995	2.38
316.369	1.32
316.743	2.02
317.117	1.92
317.491	2.15
317.865	1.68
318.239	1.38
318.613	2.44
318.987	2.03
319.361	1.5
319.734	1.91
320.108	2.47
320.482	1.74
320.855	2
321.229	2.41
321.602	1.84
321.976	1.53
322.349	2.04
322.723	2.01
323.096	2
323.469	1.99
323.843	2.22
324.216	2.69
324.589	2.29
324.962	1.66
325.335	1.97
325.708	2.3
326.081	2.84
326.454	1.41
326.827	1.47
327.2	1.8
327.573	2.06
327.945	2.06
328.318	2.06
328.691	2.4
329.063	1.7
329.436	1.92
329.809	2.13
330.181	2.19
330.553	1.97
330.926	2.14
331.298	2.12
331.671	1.85
332.043	1.25
332.415	2.13
332.787	2.83
333.159	1.94
333.532	2.14
333.904	1.96
334.276	1.85
334.648	1.75
335.02	1.82
335.391	2.31
335.763	1.88
336.135	2.08
336.507	2.21
336.879	1.55
337.25	1.77
337.622	1.66
337.993	2
338.365	2.22
338.736	2.08
339.108	2.28
339.479	1.57
339.851	1.79
340.222	2.11
340.593	1.69
340.964	1.95
341.336	2.05
341.707	1.81
342.078	2.15
342.449	2.11
342.82	1.93
343.191	1.55
343.562	2.14
343.933	1.86
344.303	1.64
344.674	1.92
345.045	1.82
345.416	2.23
345.786	1.91
346.157	1.73
346.527	2.03
346.898	1.75
347.268	1.8
347.639	1.88
348.009	2.12
348.38	2.27
348.75	2.1
349.12	1.82
349.49	2.03
349.861	1.89
350.231	1.98
350.601	2.05
350.971	2.21
351.341	1.99
351.711	1.87
352.081	2.09
352.45	1.76
352.82	2.23
353.19	1.89
353.56	2.03
353.929	1.94
354.299	1.74
354.669	1.65
355.038	1.83
355.408	2.09
355.777	2.38
356.147	1.93
356.516	2.21
356.885	1.81
357.254	2.23
357.624	1.66
357.993	2
358.362	2.07
358.731	1.57
359.1	1.62
359.469	1.92
359.838	1.75
360.207	1.53
360.576	2
360.945	1.72
361.314	1.84
361.682	2.2
362.051	2.02
362.42	1.69
362.788	1.82
363.157	2.18
363.525	1.93
363.894	1.91
364.262	1.6
364.631	1.79
364.999	1.35
365.367	1.99
365.735	1.7
366.104	1.7
366.472	2.11
366.84	1.87
367.208	2.13
367.576	1.8
367.944	1.87
368.312	1.95
368.68	1.8
369.048	2.16
369.416	2.1
369.783	1.57
370.151	1.71
370.519	1.91
370.886	1.98
371.254	2.2
371.621	1.86
371.989	1.59
372.356	1.72
372.724	1.98
373.091	2.14
373.458	1.78
373.826	2.18
374.193	1.93
374.56	2
374.927	1.98
375.294	1.56
375.661	1.85
376.028	1.69
376.395	1.84
376.762	1.69
377.129	2.23
377.496	2.34
377.863	1.88
378.229	2.13
378.596	1.97
378.963	2.16
379.329	1.86
379.696	2.12
380.062	1.91
380.429	1.98
380.795	1.7
381.161	2.13
381.528	1.82
381.894	1.47
382.26	1.86
382.626	2.05
382.993	2.06
383.359	1.75
383.725	1.79
384.091	2.31
384.457	2.12
384.823	2.05
385.188	1.95
385.554	1.92
385.92	2.26
386.286	2.02
386.651	1.91
387.017	2.07
387.383	1.71
387.748	1.75
388.114	2.02
388.479	2.02
388.845	1.71
389.21	1.87
389.575	2.15
389.94	1.69
390.306	1.82
390.671	2.25
391.036	1.52
391.401	1.86
391.766	1.85
392.131	1.87
392.496	2.13
392.861	1.9
393.226	2
393.591	2
393.956	2.11
394.32	1.84
394.685	1.76
395.05	2.17
395.414	2.2
395.779	1.95
396.143	1.99
396.508	1.98
396.872	1.88
397.236	1.76
397.601	1.91
397.965	2.06
398.329	2.23
398.694	2.01
399.058	1.97
399.422	1.83
399.786	2.08
400.15	1.97
400.514	2.01
400.878	1.77
401.242	1.95
401.605	1.88
401.969	1.58
402.333	2.16
402.697	1.9
403.06	1.95
403.424	1.95
403.787	2.02
404.151	1.92
404.514	1.93
404.878	2.06
405.241	2.02
405.604	2.05
405.968	2.18
406.331	2.02
406.694	1.9
407.057	1.74
407.42	2.01
407.783	2
408.146	2.01
408.509	1.75
408.872	1.89
409.235	1.94
409.598	1.89
409.961	2.09
410.323	2.05
410.686	1.95
411.049	2.11
411.411	2.01
411.774	2
412.136	2.06
412.499	1.87
412.861	1.82
413.223	1.96
413.586	1.91
413.948	2.02
414.31	1.85
414.672	2.08
415.035	2.04
415.397	2.19
415.759	2.22
416.121	1.91
416.483	1.86
416.845	1.96
417.206	2.01
417.568	1.79
417.93	1.93
418.292	1.93
418.653	1.74
419.015	1.92
419.377	1.84
419.738	2.09
420.1	1.8
420.461	1.99
420.822	1.84
421.184	1.93
421.545	1.91
421.906	1.92
422.267	1.8
422.629	1.91
422.99	1.87
423.351	1.94
423.712	1.7
424.073	1.79
424.434	1.99
424.795	1.84
425.155	2
425.516	1.96
425.877	1.88
426.238	1.78
426.598	1.81
426.959	1.84
427.32	1.92
427.68	1.84
428.041	1.83
428.401	2.07
428.761	1.98
429.122	1.96
429.482	2.09
429.842	1.98
430.202	1.87
430.563	2.01
430.923	2.06
431.283	2.25
431.643	2.01
432.003	2.09
432.363	2.15
432.722	2.09
433.082	2.05
433.442	2.07
433.802	2.05
434.161	1.96
434.521	2.11
434.881	2.1
435.24	1.95
435.6	1.84
435.959	1.87
436.319	1.94
436.678	2.14
437.037	2.01
437.396	1.99
437.756	1.99
438.115	2.03
438.474	2.02
438.833	2.08
439.192	2.12
439.551	2
439.91	2.1
440.269	2.09
440.628	1.94
440.987	1.95
441.345	2.01
441.704	2.05
442.063	1.96
442.421	1.91
442.78	2
443.138	2.04
443.497	1.98
443.855	2.15
444.214	1.85
444.572	2.11
444.93	2.05
445.288	2.03
445.647	2.1
446.005	2.01
446.363	1.82
446.721	2.02
447.079	2.07
447.437	2.08
447.795	2.11
448.153	1.93
448.51	1.97
448.868	1.93
449.226	1.95
449.584	1.92
449.941	1.84
450.299	2.06
450.656	2.05
451.014	2.16
451.371	2.02
451.729	2.04
452.086	1.99
452.443	2.1
452.801	2.12
453.158	2.09
453.515	2.09
453.872	2.07
454.229	1.98
454.586	2.12
454.943	1.94
455.3	2.03
455.657	2.08
456.014	2.06
456.371	2.18
456.727	2.28
457.084	2.18
457.441	2.1
457.797	2.18
458.154	2.18
458.51	2.04
458.867	1.99
459.223	2.13
459.58	2.14
459.936	2.23
460.292	2.1
460.648	2.12
461.005	2.13
461.361	2.08
461.717	1.92
462.073	2.02
462.429	2.03
462.785	2.01
463.141	2.02
463.496	2.18
463.852	2.15
464.208	2.01
464.564	2.17
464.919	2.08
465.275	2.24
465.631	2.31
465.986	2.09
466.342	2.22
466.697	2.29
467.052	2.19
467.408	2.23
467.763	2.21
468.118	2.48
468.473	2.07
468.829	2.14
469.184	2.08
469.539	2.25
469.894	2.19
470.249	2.35
470.603	2.1
470.958	2.29
471.313	2.14
471.668	2.25
472.023	2.27
472.377	2.13
472.732	2.17
473.086	2.27
473.441	2.01
473.795	2.44
474.15	2.03
474.504	2.08
474.859	2.32
475.213	2.04
475.567	2.12
475.921	2.14
476.275	2.25
476.63	2.11
476.984	2.24
477.338	2.37
477.692	2.33
478.045	2.43
478.399	2.33
478.753	2.2
479.107	2.25
479.461	2.11
479.814	2.26
480.168	2.22
480.521	2.22
480.875	2.34
481.228	2.15
481.582	2.11
481.935	2.24
482.289	2.22
482.642	2.15
482.995	2.18
483.348	2.3
483.701	2.19
484.055	2.26
484.408	2.11
484.761	2.23
485.114	2.06
485.466	2.02
485.819	2
486.172	1.99
486.525	1.98
486.878	2.01
487.23	2.04
487.583	2.12
487.936	2.12
488.288	2.15
488.641	2.13
488.993	2.06
489.345	2.01
489.698	2.03
490.05	2.06
490.402	2.11
490.754	2.06
491.107	2.08
491.459	2.2
491.811	2.14
492.163	2.15
492.515	2.18
492.866	2.16
493.218	2.19
493.57	2.17
493.922	2.1
494.274	2.11
494.625	2.12
494.977	2.24
495.328	2.28
495.68	2.33
496.031	2.35
496.383	2.29
496.734	2.32
497.086	2.26
497.437	2.36
497.788	2.28
498.139	2.4
498.49	2.41
498.842	2.23
499.193	2.27
499.544	2.36
499.894	2.22
500.245	2.3
500.596	2.21
500.947	2.37
501.298	2.33
501.648	2.32
501.999	2.31
502.35	2.34
502.7	2.39
503.051	2.32
503.401	2.42
503.752	2.28
504.102	2.35
504.452	2.36
504.803	2.26
505.153	2.27
505.503	2.28
505.853	2.43
506.203	2.34
506.553	2.41
506.903	2.38
507.253	2.33
507.603	2.28
507.953	2.44
508.303	2.39
508.652	2.31
509.002	2.43
509.352	2.32
509.701	2.43
510.051	2.41
510.4	2.32
510.75	2.24
511.099	2.21
511.449	2.4
511.798	2.41
512.147	2.4
512.496	2.35
512.846	2.34
513.195	2.38
513.544	2.36
513.893	2.47
514.242	2.27
514.591	2.35
514.939	2.44
515.288	2.38
515.637	2.3
515.986	2.22
516.334	2.41
516.683	2.41
517.032	2.47
517.38	2.42
517.729	2.29
518.077	2.43
518.426	2.43
518.774	2.41
519.122	2.51
519.47	2.35
519.819	2.4
520.167	2.45
520.515	2.38
520.863	2.27
521.211	2.35
521.559	2.33
521.907	2.4
522.255	2.41
522.602	2.45
522.95	2.27
523.298	2.48
523.645	2.59
523.993	2.42
524.341	2.34
524.688	2.46
525.036	2.44
525.383	2.51
525.73	2.63
526.078	2.49
526.425	2.45
526.772	2.52
527.119	2.33
527.466	2.3
527.814	2.29
528.161	2.32
528.508	2.41
528.854	2.39
529.201	2.45
529.548	2.41
529.895	2.34
530.242	2.28
530.588	2.27
530.935	2.22
531.282	2.26
531.628	2.33
531.975	2.35
532.321	2.35
532.667	2.43
533.014	2.42
533.36	2.47
533.706	2.45
534.052	2.52
534.399	2.45
534.745	2.46
535.091	2.34
535.437	2.34
535.783	2.3
536.129	2.4
536.474	2.46
536.82	2.34
537.166	2.52
537.512	2.5
537.857	2.48
538.203	2.59
538.549	2.48
538.894	2.36
539.239	2.47
539.585	2.39
539.93	2.6
540.276	2.54
540.621	2.59
540.966	2.64
541.311	2.59
541.656	2.53
542.001	2.54
542.346	2.53
542.691	2.59
543.036	2.46
543.381	2.45
543.726	2.46
544.071	2.42
544.415	2.44
544.76	2.38
545.105	2.37
545.449	2.44
545.794	2.54
546.138	2.56
546.483	2.52
546.827	2.53
547.171	2.53
547.516	2.62
547.86	2.62
548.204	2.59
548.548	2.6
548.892	2.6
549.236	2.6
549.58	2.6
549.924	2.57
550.268	2.67
550.612	2.72
550.956	2.63
551.3	2.66
551.643	2.86
551.987	2.78
552.33	2.91
552.674	2.78
553.017	2.62
553.361	2.62
553.704	2.95
554.048	2.68
554.391	2.66
554.734	2.76
555.077	2.64
555.42	2.61
555.764	2.77
556.107	2.78
556.45	2.67
556.793	2.56
557.135	2.75
557.478	2.49
557.821	2.86
558.164	2.95
558.507	2.81
558.849	2.58
559.192	2.89
559.534	2.93
559.877	2.8
560.219	2.87
560.562	2.92
560.904	2.94
561.246	3.02
561.589	2.88
561.931	2.71
562.273	2.67
562.615	2.83
562.957	2.86
563.299	2.78
563.641	2.67
563.983	2.78
564.325	3.01
564.667	3.02
565.008	2.73
565.35	2.75
565.692	2.88
566.033	2.81
566.375	2.73
566.716	2.76
567.058	2.77
567.399	2.85
567.741	2.88
568.082	2.71
568.423	2.79
568.764	2.92
569.105	2.66
569.447	2.92
569.788	2.76
570.129	2.89
570.47	2.95
570.811	2.89
571.151	2.82
571.492	2.88
571.833	2.75
572.174	2.78
572.514	2.91
572.855	2.87
573.195	2.69
573.536	2.79
573.876	2.76
574.217	2.85
574.557	2.86
574.898	2.81
575.238	2.8
575.578	2.9
575.918	2.91
576.258	2.79
576.598	2.77
576.938	2.91
577.278	2.97
577.618	2.65
577.958	2.94
578.298	2.98
578.638	2.72
578.977	3
579.317	3
579.657	2.89
579.996	3.11
580.336	3.21
580.675	3
581.014	2.9
581.354	2.82
581.693	3.07
582.032	3.02
582.372	3.23
582.711	2.99
583.05	2.92
583.389	2.87
583.728	2.77
584.067	3.1
584.406	2.99
584.745	2.9
585.083	3.34
585.422	3.07
585.761	3.02
586.1	3.06
586.438	2.82
586.777	2.86
587.115	2.97
587.454	2.97
587.792	3.14
588.13	2.98
588.469	2.84
588.807	3.15
589.145	3.23
589.483	3.17
589.821	2.88
590.159	3.07
590.497	3.15
590.835	3.05
591.173	3.03
591.511	2.97
591.849	3.22
592.187	2.96
592.524	3.24
592.862	2.86
593.2	3.12
593.537	3.3
593.875	2.96
594.212	3.15
594.55	3.45
594.887	3.34
595.224	2.94
595.561	3.32
595.899	3.38
596.236	3.48
596.573	3.15
596.91	3.34
597.247	3.12
597.584	3.44
597.921	3.19
598.258	3.21
598.594	3.15
598.931	3.06
599.268	3.02
599.604	3.05
599.941	3.13
600.277	3.06
600.614	3.02
600.95	3.25
601.287	3.18
601.623	3.09
601.959	3.17
602.296	3.13
602.632	3.05
602.968	2.94
603.304	3.23
603.64	3.25
603.976	3.33
604.312	3.32
604.648	3.04
604.984	3.19
605.319	3.14
605.655	3.1
605.991	3.11
606.326	3.43
606.662	3.17
606.998	3.02
607.333	3.18
607.668	2.91
608.004	3.39
608.339	3.07
608.674	3.19
609.01	3.24
609.345	3.18
609.68	3.52
610.015	3.46
610.35	3.39
610.685	3.45
611.02	3.15
611.355	3.28
611.689	3.21
612.024	3.39
612.359	3.16
612.694	3.32
613.028	3.23
613.363	3.21
613.697	3.24
614.032	3.33
614.366	3.25
614.7	3.4
615.035	3.11
615.369	3.24
615.703	3.25
616.037	3.42
616.371	3.67
616.705	3.45
617.039	3.66
617.373	3.46
617.707	3.33
618.041	3.65
618.375	3.44
618.709	3.33
619.042	3.96
619.376	3.66
619.71	3.71
620.043	3.44
620.377	3.23
620.71	3.48
621.043	3.56
621.377	3.19
621.71	3.45
622.043	3.28
622.376	3.65
622.709	3.44
623.043	3.35
623.376	3.72
623.709	3.52
624.041	3.08
624.374	3.42
624.707	3.8
625.04	3.66
625.373	3.33
625.705	3.26
626.038	3.5
626.37	3.84
626.703	3.59
627.035	3.37
627.368	3.64
627.7	3.74
628.032	3.81
628.365	3.48
628.697	3.63
629.029	3.64
629.361	3.6
629.693	3.7
630.025	3.6
630.357	3.24
630.689	3.55
631.021	3.37
631.353	3.33
631.684	3.51
632.016	3.73
632.348	3.54
632.679	3.16
633.011	3.55
633.342	3.53
633.674	4.01
634.005	3.34
634.336	3.79
634.668	3.94
634.999	3.6
635.33	4.05
635.661	3.55
635.992	3.63
636.323	3.46
636.654	3.4
636.985	3.39
637.316	3.66
637.647	3.51
637.977	3.5
638.308	3.93
638.639	3.54
638.969	3.56
639.3	3.69
639.63	3.85
639.961	3.65
640.291	3.92
640.622	3.91
640.952	3.77
641.282	3.72
641.612	3.83
641.943	3.98
642.273	3.76
642.603	3.69
642.933	3.49
643.263	3.33
643.592	3.33
643.922	3.99
644.252	3.62
644.582	3.97
644.911	3.94
645.241	3.97
645.571	3.59
645.9	4.11
646.23	4.21
646.559	3.69
646.888	4.29
647.218	3.87
647.547	3.85
647.876	3.88
648.205	3.57
648.534	4.26
648.863	3.64
649.192	3.22
649.521	3.94
649.85	3.89
650.179	3.69
650.508	3.84
650.837	4.2
651.165	3.99
651.494	3.49
651.822	4.07
652.151	3.45
652.479	3.99
652.808	3.99
653.136	4.43
653.465	4.08
653.793	3.62
654.121	4.26
654.449	3.7
654.777	3.8
655.105	4.34
655.433	4.07
655.761	4.47
656.089	3.94
656.417	3.76
656.745	3.82
657.073	4.08
657.4	4.32
657.728	4.12
658.056	3.81
658.383	4.36
658.711	3.83
659.038	3.8
659.365	4.29
659.693	3.62
660.02	4.41
660.347	4.21
660.674	4.22
661.001	3.9
661.329	3.97
661.656	3.87
661.982	4.05
662.309	4.39
662.636	3.9
662.963	4.02
663.29	4.17
663.616	4.08
663.943	4.41
664.27	4.42
664.596	4.21
664.923	3.85
665.249	3.86
665.576	3.76
665.902	3.96
666.228	4.37
666.554	4.04
666.881	4.52
667.207	3.83
667.533	3.58
667.859	4.44
668.185	4.18
668.511	4.43
668.837	3.77
669.162	4.32
669.488	4.47
669.814	3.88
670.139	4.03
670.465	4.69
670.791	4.31
671.116	3.63
671.442	4.49
671.767	3.76
672.092	4.42
672.418	5.29
672.743	3.98
673.068	4.59
673.393	4.35
673.718	4.54
674.043	4.57
674.368	4.56
674.693	4.41
675.018	4.2
675.343	4.33
675.667	4.49
675.992	4.4
676.317	4.63
676.641	4.14
676.966	5.5
677.29	4.34
677.615	4.95
677.939	4.92
678.264	4.4
678.588	5.13
678.912	4.53
679.236	4.98
679.56	4.48
679.885	4.32
680.209	4.95
680.532	4.21
680.856	4.27
681.18	4.56
681.504	4.83
681.828	5.13
682.152	4.57
682.475	5.31
682.799	4.21
683.122	4.3
683.446	4.25
683.769	3.86
684.093	4.49
684.416	4.87
684.739	4.62
685.062	4.71
685.386	4.44
685.709	4.54
686.032	4.3
686.355	4.73
686.678	5.11
687.001	4.45
687.324	4.94
687.646	5.06
687.969	5.24
688.292	4.7
688.614	5.08
688.937	5.25
689.26	4.67
689.582	5.05
689.904	4.51
690.227	5.39
690.549	5.6
690.871	4.52
691.194	4.78
691.516	4.45
691.838	4.74
692.16	4.62
692.482	5.03
692.804	4.08
693.126	4.07
