Data from 0112_crown_Reflection__1__196.txt Node

Date: Fri Sep 22 22:25:56 CDT 2023
User: ToomeyLab
Spectrometer: FLMS14357
Trigger mode: 0
Integration Time (sec): 1.000000E-2
Scans to average: 100
Electric dark correction enabled: true
Nonlinearity correction enabled: false
Boxcar width: 0
XAxis mode: Wavelengths
Number of Pixels in Spectrum: 2048
>>>>>Begin Spectral Data<<<<<
189.047	69.46
189.435	69.46
189.823	69.46
190.211	-315.03
190.599	284.64
190.987	-133.88
191.375	7.48
191.763	-61.7
192.151	13.45
192.538	-398.1
192.926	86.07
193.314	95.32
193.702	166.77
194.089	90.24
194.477	-88.14
194.864	37.78
195.252	340
195.639	-629.9
196.027	-1939.02
196.414	-148.85
196.801	44.69
197.189	28.69
197.576	1193.86
197.963	-73.23
198.351	17
198.738	16.31
199.125	-10.86
199.512	24.15
199.899	38.92
200.286	24.34
200.673	-19.54
201.06	40.76
201.447	54.97
201.833	-20.18
202.22	73.59
202.607	43.2
202.994	23.79
203.38	9.17
203.767	47.06
204.154	13.38
204.54	13.61
204.927	-11.69
205.313	-8.73
205.699	46.85
206.086	66.13
206.472	35.93
206.858	9.74
207.245	8.46
207.631	38.99
208.017	30.85
208.403	38.47
208.789	27.08
209.175	46.21
209.561	44.49
209.947	40.04
210.333	26.84
210.719	10.47
211.105	12.45
211.491	24.4
211.876	41.28
212.262	34.86
212.648	48.51
213.034	21.15
213.419	21.26
213.805	22.48
214.19	32.16
214.576	9.98
214.961	-18.89
215.346	19.05
215.732	22.27
216.117	3.23
216.502	45.42
216.888	16.52
217.273	31.23
217.658	9.36
218.043	26.32
218.428	32.72
218.813	-15.98
219.198	28.02
219.583	23.46
219.968	-10.68
220.353	57.36
220.738	32.37
221.122	5.34
221.507	8.33
221.892	20.8
222.276	8.9
222.661	-15.84
223.046	26.08
223.43	30.55
223.815	10.02
224.199	-17.75
224.583	0.13
224.968	15.41
225.352	8.24
225.736	4.97
226.121	6.78
226.505	8.02
226.889	3.27
227.273	2.54
227.657	5.65
228.041	1.65
228.425	5.86
228.809	7.36
229.193	5.87
229.577	3.57
229.961	1.37
230.344	4.8
230.728	0.27
231.112	2.64
231.495	1
231.879	1.45
232.263	1.27
232.646	1.14
233.03	1.71
233.413	1.62
233.797	1.68
234.18	0.59
234.563	2.47
234.946	5.57
235.33	-0.42
235.713	0.49
236.096	0.93
236.479	0.53
236.862	3.47
237.245	1.9
237.628	1.18
238.011	2.02
238.394	0.65
238.777	3.6
239.16	3.23
239.543	2.12
239.925	1.17
240.308	3.62
240.691	1.43
241.073	2.32
241.456	2.63
241.838	0.87
242.221	0.23
242.603	2.69
242.986	1.43
243.368	0.63
243.75	1.2
244.133	1.4
244.515	1.26
244.897	0.91
245.279	0.86
245.661	1.06
246.043	1.41
246.425	0.69
246.807	0.97
247.189	0.26
247.571	2.73
247.953	1.22
248.335	1.55
248.717	1.44
249.098	1.09
249.48	0.89
249.862	0.72
250.243	0.9
250.625	1.39
251.006	0.69
251.388	0.66
251.769	1.51
252.151	1.83
252.532	1.09
252.913	2
253.295	1.46
253.676	1.21
254.057	1.58
254.438	1.93
254.819	0.73
255.2	1.11
255.581	0.41
255.962	1.9
256.343	0.74
256.724	-0.15
257.105	0.98
257.486	1.04
257.867	1.06
258.247	1.06
258.628	1.8
259.009	1.14
259.389	1.31
259.77	1.08
260.15	1.53
260.531	1.43
260.911	1.54
261.292	0.7
261.672	0.44
262.052	0.91
262.432	0.86
262.813	1.09
263.193	0.46
263.573	1.44
263.953	0.78
264.333	0.53
264.713	1.08
265.093	1.06
265.473	1.15
265.853	0.24
266.233	0.88
266.612	0.59
266.992	1.44
267.372	1.4
267.752	1.1
268.131	1.15
268.511	0.69
268.89	1.24
269.27	1.2
269.649	1.06
270.029	0.52
270.408	0.84
270.787	0.8
271.167	0.92
271.546	0.69
271.925	0.73
272.304	0.58
272.683	0.67
273.062	1.53
273.441	0.46
273.82	1.31
274.199	0.97
274.578	1.36
274.957	0.67
275.336	1.12
275.715	1.16
276.093	0.51
276.472	0.65
276.851	0.95
277.229	-0.02
277.608	1.63
277.986	0.39
278.365	1.42
278.743	0.87
279.122	1.25
279.5	1.17
279.878	0.81
280.257	1.16
280.635	0.55
281.013	0.7
281.391	0.76
281.769	1.34
282.147	1.13
282.525	1.01
282.903	1.13
283.281	1.05
283.659	0.93
284.037	0.73
284.415	1.12
284.792	0.92
285.17	0.52
285.548	1.27
285.925	1.38
286.303	0.8
286.68	0.76
287.058	1.13
287.435	1.39
287.813	0.68
288.19	0.51
288.567	0.94
288.945	0.85
289.322	0.81
289.699	0.84
290.076	0.87
290.453	0.64
290.83	0.49
291.207	0.89
291.584	0.42
291.961	0.44
292.338	0.87
292.715	1.26
293.092	1.11
293.469	1.01
293.845	0.74
294.222	1.01
294.599	0.93
294.975	0.6
295.352	0.92
295.728	1.42
296.105	1.23
296.481	0.92
296.858	0.63
297.234	0.77
297.61	1.13
297.986	0.94
298.363	0.98
298.739	0.74
299.115	1.12
299.491	1.13
299.867	1
300.243	0.75
300.619	0.98
300.995	1.04
301.371	1.29
301.746	1.23
302.122	1.05
302.498	0.96
302.874	0.54
303.249	0.73
303.625	0.78
304	1.02
304.376	0.67
304.751	1.54
305.127	0.79
305.502	1.13
305.878	0.9
306.253	1.12
306.628	0.76
307.003	1.11
307.378	0.76
307.754	1.36
308.129	0.81
308.504	0.94
308.879	0.67
309.254	1.32
309.629	1.48
310.003	1.32
310.378	1.09
310.753	1.18
311.128	0.75
311.502	1.31
311.877	0.68
312.252	0.82
312.626	1.08
313.001	1.12
313.375	1
313.75	1.18
314.124	1.55
314.498	0.77
314.873	0.93
315.247	1.55
315.621	1.42
315.995	1.49
316.369	1.13
316.743	1.14
317.117	1.02
317.491	1.74
317.865	0.78
318.239	1.29
318.613	1.26
318.987	1.08
319.361	0.57
319.734	0.54
320.108	0.95
320.482	0.92
320.855	1.08
321.229	1.93
321.602	1.3
321.976	0.7
322.349	0.6
322.723	1.25
323.096	1.12
323.469	1.38
323.843	1.17
324.216	1.06
324.589	0.85
324.962	0.81
325.335	0.67
325.708	1.09
326.081	1.21
326.454	0.63
326.827	1.08
327.2	0.87
327.573	1.56
327.945	0.75
328.318	1.03
328.691	1.32
329.063	0.63
329.436	0.79
329.809	1.05
330.181	0.98
330.553	1.19
330.926	0.75
331.298	1.37
331.671	1.51
332.043	0.35
332.415	0.86
332.787	1.44
333.159	0.47
333.532	0.86
333.904	0.99
334.276	1.12
334.648	0.34
335.02	0.76
335.391	1.17
335.763	1.56
336.135	0.96
336.507	0.82
336.879	0.45
337.25	0.93
337.622	1.39
337.993	1.36
338.365	1.13
338.736	0.98
339.108	1.3
339.479	1.17
339.851	1.06
340.222	0.77
340.593	0.84
340.964	0.67
341.336	0.82
341.707	0.78
342.078	1.02
342.449	1.15
342.82	0.77
343.191	0.63
343.562	1.06
343.933	0.97
344.303	1.12
344.674	1.14
345.045	0.75
345.416	1.16
345.786	0.58
346.157	0.83
346.527	0.61
346.898	1.02
347.268	1.14
347.639	0.85
348.009	1.1
348.38	1.26
348.75	1.01
349.12	0.49
349.49	1.28
349.861	0.95
350.231	1.15
350.601	1.03
350.971	1.44
351.341	0.91
351.711	0.8
352.081	0.93
352.45	0.82
352.82	1.56
353.19	0.9
353.56	0.77
353.929	0.84
354.299	1.11
354.669	0.95
355.038	0.94
355.408	0.85
355.777	1.08
356.147	1.05
356.516	1.25
356.885	0.69
357.254	1.04
357.624	0.52
357.993	0.88
358.362	1.14
358.731	1.22
359.1	0.75
359.469	0.91
359.838	0.81
360.207	0.91
360.576	0.96
360.945	1.13
361.314	1.15
361.682	1.29
362.051	0.97
362.42	0.93
362.788	0.62
363.157	0.96
363.525	0.83
363.894	0.97
364.262	0.98
364.631	0.74
364.999	0.78
365.367	0.94
365.735	0.76
366.104	0.83
366.472	1.38
366.84	0.94
367.208	1.3
367.576	0.95
367.944	0.76
368.312	1.07
368.68	0.75
369.048	1.32
369.416	1.02
369.783	1.07
370.151	0.61
370.519	0.87
370.886	1.2
371.254	1.15
371.621	0.83
371.989	1.41
372.356	0.44
372.724	1.45
373.091	1.12
373.458	0.77
373.826	1.23
374.193	1.41
374.56	1.24
374.927	1.25
375.294	0.81
375.661	1.03
376.028	0.99
376.395	0.9
376.762	0.84
377.129	0.94
377.496	1.42
377.863	0.73
378.229	0.9
378.596	0.82
378.963	1.22
379.329	1.08
379.696	1.03
380.062	0.98
380.429	1.18
380.795	1.12
381.161	1.07
381.528	0.97
381.894	0.82
382.26	0.87
382.626	0.92
382.993	0.92
383.359	0.65
383.725	0.92
384.091	1.11
384.457	0.97
384.823	0.89
385.188	1.33
385.554	0.92
385.92	1.2
386.286	0.85
386.651	1.04
387.017	1.14
387.383	0.87
387.748	0.97
388.114	0.81
388.479	1.12
388.845	0.73
389.21	0.73
389.575	1.21
389.94	0.52
390.306	1.09
390.671	1.28
391.036	1.04
391.401	1.17
391.766	1.01
392.131	1.15
392.496	1.17
392.861	0.83
393.226	1.03
393.591	1.12
393.956	0.99
394.32	1.09
394.685	0.92
395.05	1.03
395.414	0.85
395.779	0.99
396.143	1.14
396.508	1.04
396.872	0.89
397.236	0.94
397.601	0.7
397.965	1.14
398.329	1.1
398.694	1.06
399.058	1.09
399.422	1.02
399.786	1.16
400.15	1.19
400.514	1.12
400.878	1.09
401.242	0.96
401.605	0.87
401.969	0.75
402.333	1.05
402.697	0.69
403.06	0.67
403.424	0.85
403.787	1.07
404.151	1.19
404.514	1.22
404.878	1.28
405.241	1.26
405.604	0.95
405.968	1.19
406.331	1.1
406.694	1.01
407.057	0.81
407.42	1.11
407.783	1
408.146	0.89
408.509	1
408.872	1.03
409.235	0.92
409.598	0.94
409.961	1.08
410.323	1.03
410.686	1.08
411.049	0.95
411.411	1.23
411.774	0.99
412.136	1
412.499	1.01
412.861	1.17
413.223	1.18
413.586	1.09
413.948	0.9
414.31	0.98
414.672	1.01
415.035	0.7
415.397	1.1
415.759	1.29
416.121	0.93
416.483	1.12
416.845	0.82
417.206	0.9
417.568	1.16
417.93	0.95
418.292	1.07
418.653	0.9
419.015	1.13
419.377	0.78
419.738	1.02
420.1	0.92
420.461	0.9
420.822	0.93
421.184	0.93
421.545	0.92
421.906	0.8
422.267	0.88
422.629	0.96
422.99	0.96
423.351	0.86
423.712	0.95
424.073	0.92
424.434	1.01
424.795	0.85
425.155	0.97
425.516	0.83
425.877	0.95
426.238	0.71
426.598	0.85
426.959	0.94
427.32	0.93
427.68	0.87
428.041	0.85
428.401	0.94
428.761	1.1
429.122	0.9
429.482	1
429.842	0.81
430.202	1.06
430.563	1.13
430.923	1.08
431.283	1.16
431.643	1.03
432.003	0.87
432.363	1.11
432.722	1.01
433.082	1.02
433.442	1.06
433.802	0.91
434.161	0.93
434.521	1.08
434.881	0.99
435.24	0.9
435.6	0.89
435.959	0.89
436.319	0.96
436.678	0.95
437.037	0.96
437.396	0.92
437.756	0.92
438.115	0.95
438.474	1.01
438.833	1.02
439.192	1
439.551	0.96
439.91	1.03
440.269	1
440.628	0.86
440.987	1.04
441.345	1.03
441.704	0.96
442.063	0.94
442.421	0.96
442.78	1.11
443.138	1.01
443.497	0.94
443.855	0.99
444.214	0.81
444.572	1.11
444.93	0.94
445.288	1.04
445.647	1.01
446.005	1.03
446.363	0.88
446.721	1.02
447.079	0.88
447.437	0.93
447.795	1.01
448.153	0.84
448.51	0.95
448.868	0.91
449.226	0.95
449.584	0.9
449.941	0.87
450.299	0.97
450.656	1.01
451.014	1.11
451.371	0.92
451.729	0.92
452.086	1.03
452.443	1.11
452.801	1.08
453.158	1
453.515	1.06
453.872	0.98
454.229	1.01
454.586	1.03
454.943	0.93
455.3	1.01
455.657	0.83
456.014	0.99
456.371	1.13
456.727	1.08
457.084	1.1
457.441	1.01
457.797	1.02
458.154	1.14
458.51	0.96
458.867	1.03
459.223	1.09
459.58	1.03
459.936	1.06
460.292	1.02
460.648	1.16
461.005	1
461.361	1.02
461.717	0.84
462.073	0.98
462.429	0.92
462.785	0.98
463.141	0.93
463.496	1.1
463.852	0.98
464.208	0.92
464.564	1
464.919	0.95
465.275	1.21
465.631	1
465.986	1.15
466.342	1.09
466.697	1.1
467.052	0.93
467.408	1.1
467.763	1.19
468.118	1.18
468.473	1.03
468.829	1.05
469.184	1.02
469.539	1.08
469.894	0.97
470.249	1.07
470.603	1.01
470.958	1
471.313	0.98
471.668	1.11
472.023	1.07
472.377	0.97
472.732	0.88
473.086	1.2
473.441	0.77
473.795	1.13
474.15	1.01
474.504	1.13
474.859	1.21
475.213	0.86
475.567	0.97
475.921	0.97
476.275	1.02
476.63	1.03
476.984	0.87
477.338	1.18
477.692	1.18
478.045	1.16
478.399	1.15
478.753	0.95
479.107	1.18
479.461	1.06
479.814	1.17
480.168	1.07
480.521	1.06
480.875	1.05
481.228	1.06
481.582	1
481.935	1.03
482.289	1.03
482.642	0.91
482.995	1
483.348	1.01
483.701	0.96
484.055	1.04
484.408	0.89
484.761	1.06
485.114	0.92
485.466	0.9
485.819	0.91
486.172	0.88
486.525	0.89
486.878	0.91
487.23	0.93
487.583	0.94
487.936	0.97
488.288	1.01
488.641	0.92
488.993	0.97
489.345	0.93
489.698	0.88
490.05	0.95
490.402	0.99
490.754	0.91
491.107	0.92
491.459	0.99
491.811	0.99
492.163	0.94
492.515	0.94
492.866	0.98
493.218	1
493.57	1.01
493.922	0.92
494.274	0.97
494.625	0.99
494.977	1.04
495.328	1.01
495.68	1
496.031	1
496.383	1.05
496.734	1.11
497.086	1.03
497.437	1.04
497.788	1.11
498.139	1.07
498.49	1.09
498.842	1.01
499.193	0.9
499.544	1.04
499.894	1
500.245	1.09
500.596	1.02
500.947	1.04
501.298	1.12
501.648	1.11
501.999	1.15
502.35	1.06
502.7	1.06
503.051	1.12
503.401	1.09
503.752	1.07
504.102	1.03
504.452	1.07
504.803	0.99
505.153	0.97
505.503	1.08
505.853	1.09
506.203	1.07
506.553	1.1
506.903	1.1
507.253	1.01
507.603	1.09
507.953	1.18
508.303	1.12
508.652	1.07
509.002	1.12
509.352	1.13
509.701	1.01
510.051	1.08
510.4	1
510.75	1.1
511.099	0.96
511.449	1.11
511.798	1.08
512.147	1.11
512.496	1.08
512.846	1
513.195	1.08
513.544	1.07
513.893	1.1
514.242	0.99
514.591	1.03
514.939	1.1
515.288	0.9
515.637	1.05
515.986	1
516.334	1.12
516.683	1.12
517.032	1.19
517.38	1.17
517.729	0.99
518.077	1.12
518.426	1.09
518.774	1.1
519.122	1.07
519.47	1.1
519.819	1.05
520.167	1.06
520.515	1.03
520.863	1.09
521.211	1.02
521.559	1.07
521.907	1.14
522.255	1.1
522.602	1.08
522.95	1
523.298	1.06
523.645	1.07
523.993	1.14
524.341	1.04
524.688	1.1
525.036	1.15
525.383	1.11
525.73	1.22
526.078	1.15
526.425	1.07
526.772	1.14
527.119	1.03
527.466	0.98
527.814	1.04
528.161	0.94
528.508	1.02
528.854	1.03
529.201	1.14
529.548	1.06
529.895	1.05
530.242	0.99
530.588	0.98
530.935	0.93
531.282	0.98
531.628	1.01
531.975	1
532.321	0.99
532.667	1.11
533.014	1.05
533.36	0.99
533.706	0.96
534.052	1.12
534.399	1.11
534.745	1.12
535.091	0.95
535.437	1.04
535.783	0.93
536.129	1.03
536.474	1.07
536.82	1
537.166	1.13
537.512	1.11
537.857	1.13
538.203	1.08
538.549	1.04
538.894	1.04
539.239	1.08
539.585	1.01
539.93	1.14
540.276	1.03
540.621	1.06
540.966	1.12
541.311	1.13
541.656	1.03
542.001	1.12
542.346	1.13
542.691	1.15
543.036	1
543.381	1
543.726	1.01
544.071	1.07
544.415	1.06
544.76	1
545.105	0.99
545.449	1
545.794	1.14
546.138	1.1
546.483	1.11
546.827	1.08
547.171	1.05
547.516	1.18
547.86	1.16
548.204	1.08
548.548	1.09
548.892	1.13
549.236	1.11
549.58	1.07
549.924	1.12
550.268	1.25
550.612	1.11
550.956	1.21
551.3	1.16
551.643	1.13
551.987	1.21
552.33	1.35
552.674	1.28
553.017	1
553.361	1.16
553.704	1.24
554.048	1.13
554.391	1.13
554.734	1.2
555.077	1.06
555.42	1.16
555.764	1.16
556.107	1.19
556.45	1.12
556.793	0.97
557.135	1.25
557.478	1.03
557.821	1.17
558.164	1.21
558.507	1.3
558.849	1.05
559.192	1.2
559.534	1.34
559.877	1.2
560.219	1.25
560.562	1.13
560.904	1.25
561.246	1.31
561.589	1.25
561.931	1.13
562.273	1.11
562.615	1.08
562.957	1.18
563.299	1.29
563.641	1.31
563.983	1.28
564.325	1.22
564.667	1.19
565.008	1.21
565.35	1.3
565.692	1.19
566.033	1.18
566.375	1.29
566.716	1.14
567.058	1.21
567.399	1.25
567.741	1.23
568.082	1.19
568.423	1.24
568.764	1.31
569.105	1.12
569.447	1.19
569.788	1.05
570.129	1.16
570.47	1.31
570.811	1.25
571.151	1.32
571.492	1.11
571.833	1.11
572.174	1.24
572.514	1.22
572.855	1.24
573.195	1.07
573.536	1.24
573.876	1.11
574.217	1.1
574.557	1.21
574.898	1.25
575.238	1.29
575.578	1.37
575.918	1.16
576.258	1.17
576.598	1.18
576.938	1.12
577.278	1.26
577.618	1.14
577.958	1.35
578.298	1.23
578.638	1.01
578.977	1.07
579.317	1.15
579.657	1.4
579.996	1.31
580.336	1.41
580.675	1.21
581.014	1.03
581.354	1.23
581.693	1.37
582.032	1.29
582.372	1.23
582.711	1.35
583.05	1.34
583.389	1.25
583.728	1.35
584.067	1.37
584.406	1.49
584.745	1.1
585.083	1.41
585.422	1.47
585.761	1.07
586.1	1.32
586.438	1.22
586.777	1.29
587.115	1.39
587.454	1.1
587.792	1.23
588.13	1.32
588.469	1.07
588.807	1.48
589.145	1.26
589.483	1.1
589.821	1.34
590.159	1.17
590.497	1.48
590.835	1.2
591.173	1.48
591.511	1.34
591.849	1.53
592.187	1.29
592.524	1.43
592.862	1.4
593.2	1.01
593.537	1.37
593.875	1.25
594.212	1.35
594.55	1.49
594.887	1.13
595.224	1.54
595.561	1.36
595.899	1.48
596.236	1.62
596.573	1.49
596.91	1.26
597.247	1.26
597.584	1.38
597.921	1.39
598.258	1.3
598.594	1.3
598.931	1.12
599.268	1.34
599.604	1.41
599.941	1.42
600.277	1.27
600.614	1.3
600.95	1.3
601.287	1.26
601.623	1.33
601.959	1.54
602.296	1.48
602.632	1.16
602.968	1.18
603.304	1.44
603.64	1.34
603.976	1.45
604.312	1.24
604.648	1.45
604.984	1.3
605.319	1.18
605.655	1.26
605.991	1.3
606.326	1.52
606.662	1.17
606.998	1.21
607.333	1.43
607.668	1.34
608.004	1.58
608.339	1.34
608.674	1.35
609.01	1.45
609.345	1.44
609.68	1.37
610.015	1.38
610.35	1.29
610.685	1.32
611.02	1.37
611.355	1.58
611.689	1.5
612.024	1.5
612.359	1.35
612.694	1.18
613.028	1.28
613.363	1.25
613.697	1.47
614.032	1.19
614.366	1.34
614.7	1.35
615.035	1.44
615.369	1.33
615.703	1.19
616.037	1.58
616.371	1.59
616.705	1.59
617.039	1.35
617.373	1.21
617.707	1.29
618.041	1.64
618.375	1.61
618.709	1.32
619.042	1.56
619.376	1.58
619.71	1.41
620.043	1.12
620.377	1.44
620.71	1.5
621.043	1.44
621.377	1.13
621.71	1.56
622.043	1.75
622.376	1.72
622.709	1.26
623.043	1.33
623.376	1.68
623.709	1.39
624.041	1.39
624.374	1.44
624.707	1.82
625.04	1.46
625.373	1.33
625.705	1.38
626.038	1.59
626.37	1.62
626.703	1.29
627.035	1.38
627.368	1.3
627.7	2.12
628.032	1.6
628.365	1.52
628.697	1.48
629.029	1.34
629.361	1.37
629.693	1.56
630.025	1.33
630.357	1.3
630.689	1.41
631.021	1.5
631.353	1.54
631.684	1.57
632.016	1.5
632.348	1.46
632.679	1.38
633.011	1.33
633.342	1.49
633.674	1.94
634.005	1
634.336	1.66
634.668	1.39
634.999	1.52
635.33	1.77
635.661	1.33
635.992	1.22
636.323	1.34
636.654	1.41
636.985	1.29
637.316	1.37
637.647	1.47
637.977	1.16
638.308	1.79
638.639	1.4
638.969	1.53
639.3	1.99
639.63	1.7
639.961	1.12
640.291	1.51
640.622	1.84
640.952	1.7
641.282	1.51
641.612	1.5
641.943	1.47
642.273	1.63
642.603	1.34
642.933	1.28
643.263	0.84
643.592	1.82
643.922	1.96
644.252	1.03
644.582	1.54
644.911	1.29
645.241	1.78
645.571	1.44
645.9	1.29
646.23	2.01
646.559	1.79
646.888	1.37
647.218	1.38
647.547	1.54
647.876	1.81
648.205	0.99
648.534	1.86
648.863	1.58
649.192	0.91
649.521	1.58
649.85	1.59
650.179	1.32
650.508	1.3
650.837	1.56
651.165	1.53
651.494	1.39
651.822	1.48
652.151	1.49
652.479	1.72
652.808	1.62
653.136	1.58
653.465	1.6
653.793	1.41
654.121	1.52
654.449	1.27
654.777	1.33
655.105	1.86
655.433	1.71
655.761	2.31
656.089	1.54
656.417	1.3
656.745	1.28
657.073	1.67
657.4	1.9
657.728	1.86
658.056	1.64
658.383	1.56
658.711	1.75
659.038	1.21
659.365	1.69
659.693	1.52
660.02	2.16
660.347	1.52
660.674	1.55
661.001	1.94
661.329	1.45
661.656	1.86
661.982	1.43
662.309	1.88
662.636	1.47
662.963	1.67
663.29	1.74
663.616	1.85
663.943	1.62
664.27	1.84
664.596	1.66
664.923	1.58
665.249	1.64
665.576	1.18
665.902	1.45
666.228	1.68
666.554	1.22
666.881	2.35
667.207	1.77
667.533	1.66
667.859	1.57
668.185	1.81
668.511	2.23
668.837	1.02
669.162	1.64
669.488	1.47
669.814	1.29
670.139	1.76
670.465	2.17
670.791	1.96
671.116	1.84
671.442	1.73
671.767	0.96
672.092	1.5
672.418	2.44
672.743	1.81
673.068	2.32
673.393	1.89
673.718	2.41
674.043	2.18
674.368	2.11
674.693	1.38
675.018	1.61
675.343	1.97
675.667	2
675.992	1.55
676.317	2.09
676.641	1.59
676.966	1.99
677.29	1.81
677.615	2.15
677.939	2.26
678.264	1.88
678.588	2.16
678.912	1.52
679.236	1.18
679.56	2.01
679.885	1.41
680.209	2.01
680.532	1.88
680.856	1.72
681.18	2.24
681.504	2.04
681.828	2.09
682.152	1.47
682.475	2.38
682.799	1.95
683.122	1.81
683.446	2
683.769	1.92
684.093	2.45
684.416	1.83
684.739	1.74
685.062	2.33
685.386	1.8
685.709	1.67
686.032	1.85
686.355	1.86
686.678	1.99
687.001	1.87
687.324	2.15
687.646	2.2
687.969	2.65
688.292	2.39
688.614	2.51
688.937	1.81
689.26	1.42
689.582	2.09
689.904	2.06
690.227	2.73
690.549	2.55
690.871	2.22
691.194	1.71
691.516	2.12
691.838	1.68
692.16	1.4
692.482	2.18
692.804	1.55
693.126	0.83
693.448	2.46
693.769	2.03
694.091	1.7
