Data from 0112_chest_Reflection__3__192.txt Node

Date: Fri Sep 22 22:23:52 CDT 2023
User: ToomeyLab
Spectrometer: FLMS14357
Trigger mode: 0
Integration Time (sec): 1.000000E-2
Scans to average: 100
Electric dark correction enabled: true
Nonlinearity correction enabled: false
Boxcar width: 0
XAxis mode: Wavelengths
Number of Pixels in Spectrum: 2048
>>>>>Begin Spectral Data<<<<<
189.047	372.63
189.435	372.63
189.823	372.63
190.211	-124.43
190.599	-119.08
190.987	1651.91
191.375	62.54
191.763	-46
192.151	113.19
192.538	-80.97
192.926	341.29
193.314	28.76
193.702	684.76
194.089	92.79
194.477	-1.55
194.864	133.65
195.252	166.82
195.639	-153.84
196.027	9680.49
196.414	145.62
196.801	-591.96
197.189	16.07
197.576	-43.49
197.963	-114.79
198.351	3.93
198.738	5.07
199.125	-5.73
199.512	4.76
199.899	67.92
200.286	-11.4
200.673	17.07
201.06	38.45
201.447	19.3
201.833	-70.18
202.22	-0.46
202.607	19.01
202.994	40.5
203.38	38.97
203.767	8.73
204.154	23.2
204.54	31.23
204.927	14.78
205.313	14.42
205.699	29.9
206.086	19.16
206.472	47.19
206.858	28.74
207.245	-30.93
207.631	23.39
208.017	41.65
208.403	32.17
208.789	29.22
209.175	29.23
209.561	22.11
209.947	48.98
210.333	17.75
210.719	20.01
211.105	44.25
211.491	-8.82
211.876	47.58
212.262	4.52
212.648	50.86
213.034	45.49
213.419	30.24
213.805	19.43
214.19	23.61
214.576	50.3
214.961	10.75
215.346	2.32
215.732	26.18
216.117	33.72
216.502	30.8
216.888	24.97
217.273	10.8
217.658	-7.01
218.043	36.59
218.428	9.45
218.813	-13.07
219.198	13.42
219.583	14.52
219.968	-1.85
220.353	33.48
220.738	-2.56
221.122	2.85
221.507	5.28
221.892	3.31
222.276	19.86
222.661	-8.85
223.046	28.61
223.43	30.65
223.815	14.58
224.199	-5.81
224.583	18.41
224.968	12.56
225.352	-1.91
225.736	10.23
226.121	-2.23
226.505	14.59
226.889	10.41
227.273	4.11
227.657	7.34
228.041	4.63
228.425	11.96
228.809	7.69
229.193	6.86
229.577	8.1
229.961	10.28
230.344	8.43
230.728	5.29
231.112	6.94
231.495	5.84
231.879	5.08
232.263	4.05
232.646	4.25
233.03	5.48
233.413	5.88
233.797	6.96
234.18	5.77
234.563	5.37
234.946	6.03
235.33	4.69
235.713	4.4
236.096	5.46
236.479	3.96
236.862	7.96
237.245	5.8
237.628	5.37
238.011	6.32
238.394	7.14
238.777	6.03
239.16	5.45
239.543	6.53
239.925	4.66
240.308	4.49
240.691	6.55
241.073	5.41
241.456	6.58
241.838	3.58
242.221	5.57
242.603	5.3
242.986	5.35
243.368	5.34
243.75	5.21
244.133	6.27
244.515	5.18
244.897	4.98
245.279	5.05
245.661	5.25
246.043	6.32
246.425	3.96
246.807	5.51
247.189	3.81
247.571	5.06
247.953	5.11
248.335	4.81
248.717	5.15
249.098	5.01
249.48	4.77
249.862	4.61
250.243	4.58
250.625	5.28
251.006	4.42
251.388	5.05
251.769	5.77
252.151	5.08
252.532	5.18
252.913	5.41
253.295	5.88
253.676	5.93
254.057	5.05
254.438	5.54
254.819	4.09
255.2	4.75
255.581	4.67
255.962	5.07
256.343	4.33
256.724	2.89
257.105	4.92
257.486	4.07
257.867	4.23
258.247	5.19
258.628	4.57
259.009	4.98
259.389	3.82
259.77	5.33
260.15	5.31
260.531	4.85
260.911	4.7
261.292	4.19
261.672	4.28
262.052	4.64
262.432	4.64
262.813	4.53
263.193	4.47
263.573	4.9
263.953	4.41
264.333	4.52
264.713	4.62
265.093	4.44
265.473	4.9
265.853	3.58
266.233	4.29
266.612	3.78
266.992	4.43
267.372	4.52
267.752	5.14
268.131	3.67
268.511	4.25
268.89	4.8
269.27	4.27
269.649	4.67
270.029	4.17
270.408	4.5
270.787	4.63
271.167	4.77
271.546	4.78
271.925	4.41
272.304	4.17
272.683	4.59
273.062	4.81
273.441	4.36
273.82	4.66
274.199	4.41
274.578	4.66
274.957	4.36
275.336	4.28
275.715	4.28
276.093	3.76
276.472	3.76
276.851	5.11
277.229	3.95
277.608	4.66
277.986	3.96
278.365	4.61
278.743	4.32
279.122	4.31
279.5	4.59
279.878	4.12
280.257	4.66
280.635	4.01
281.013	4.47
281.391	4.07
281.769	4.18
282.147	4.83
282.525	3.97
282.903	4.24
283.281	4.47
283.659	4.15
284.037	4.28
284.415	4.45
284.792	3.77
285.17	4.46
285.548	4.32
285.925	4.25
286.303	4.52
286.68	3.85
287.058	3.85
287.435	4
287.813	3.8
288.19	3.84
288.567	4.27
288.945	4.12
289.322	3.95
289.699	4.04
290.076	4.43
290.453	3.41
290.83	3.55
291.207	4.27
291.584	4
291.961	3.82
292.338	4.19
292.715	4
293.092	3.78
293.469	4.1
293.845	3.76
294.222	4.35
294.599	4.4
294.975	4.43
295.352	4.35
295.728	4.12
296.105	4.4
296.481	4.44
296.858	3.98
297.234	4.19
297.61	3.55
297.986	4.47
298.363	3.85
298.739	4.08
299.115	4.25
299.491	4.07
299.867	3.8
300.243	4.12
300.619	4.18
300.995	4.01
301.371	4.19
301.746	4.42
302.122	3.85
302.498	3.91
302.874	3.78
303.249	3.58
303.625	4.06
304	4.05
304.376	4.78
304.751	3.66
305.127	4.16
305.502	4.21
305.878	4.31
306.253	4.32
306.628	3.97
307.003	4.16
307.378	4.12
307.754	3.63
308.129	3.85
308.504	4.25
308.879	3.67
309.254	4.17
309.629	4.17
310.003	4.73
310.378	4.63
310.753	4.49
311.128	3.75
311.502	4.38
311.877	3.63
312.252	3.88
312.626	4.05
313.001	4.15
313.375	3.95
313.75	3.99
314.124	4.44
314.498	3.85
314.873	3.78
315.247	3.72
315.621	4.14
315.995	3.8
316.369	3.8
316.743	4.44
317.117	4.45
317.491	4.44
317.865	4.13
318.239	4.4
318.613	4.7
318.987	3.83
319.361	4.29
319.734	4.14
320.108	4.22
320.482	4.11
320.855	4.33
321.229	4.03
321.602	4.35
321.976	3.72
322.349	3.54
322.723	4
323.096	4.68
323.469	3.99
323.843	3.68
324.216	3.91
324.589	4.17
324.962	3.73
325.335	4.02
325.708	4.19
326.081	4.43
326.454	2.98
326.827	4.14
327.2	3.87
327.573	4.39
327.945	3.52
328.318	4.19
328.691	3.97
329.063	3.73
329.436	4.25
329.809	4.28
330.181	4.05
330.553	3.72
330.926	3.99
331.298	3.55
331.671	4.29
332.043	3.07
332.415	3.29
332.787	4.2
333.159	3.6
333.532	3.48
333.904	3.55
334.276	3.81
334.648	3.35
335.02	3.8
335.391	3.43
335.763	4.33
336.135	3.67
336.507	3.98
336.879	3.66
337.25	4.09
337.622	3.74
337.993	4.2
338.365	4.35
338.736	4.39
339.108	3.35
339.479	3.86
339.851	3.27
340.222	3.62
340.593	3.48
340.964	3.73
341.336	4.12
341.707	3.72
342.078	4.11
342.449	3.86
342.82	3.73
343.191	3.36
343.562	3.89
343.933	3.72
344.303	3.74
344.674	4.05
345.045	4
345.416	4.07
345.786	3.55
346.157	3.57
346.527	3.61
346.898	3.77
347.268	3.84
347.639	4.13
348.009	3.58
348.38	4.28
348.75	4.12
349.12	3.54
349.49	4.25
349.861	4.11
350.231	4.03
350.601	3.6
350.971	3.77
351.341	3.56
351.711	3.5
352.081	3.18
352.45	3.76
352.82	3.78
353.19	3.74
353.56	4.04
353.929	4.11
354.299	3.88
354.669	3.77
355.038	3.51
355.408	3.77
355.777	4.33
356.147	3.99
356.516	4.01
356.885	3.72
357.254	4.45
357.624	3.49
357.993	3.43
358.362	3.96
358.731	3.68
359.1	3.7
359.469	3.72
359.838	3.55
360.207	3.59
360.576	3.99
360.945	3.9
361.314	3.79
361.682	3.87
362.051	3.93
362.42	3.9
362.788	3.6
363.157	3.87
363.525	3.74
363.894	3.73
364.262	3.81
364.631	3.86
364.999	3.49
365.367	3.85
365.735	3.9
366.104	3.74
366.472	3.84
366.84	3.83
367.208	3.95
367.576	3.71
367.944	3.95
368.312	4.05
368.68	3.82
369.048	3.78
369.416	3.77
369.783	3.65
370.151	3.61
370.519	3.65
370.886	4.02
371.254	4.01
371.621	3.6
371.989	3.75
372.356	3.39
372.724	3.83
373.091	3.73
373.458	3.79
373.826	3.79
374.193	3.92
374.56	4.11
374.927	3.94
375.294	3.62
375.661	3.84
376.028	3.88
376.395	4.07
376.762	3.78
377.129	4.08
377.496	3.94
377.863	3.97
378.229	4.03
378.596	3.77
378.963	4.09
379.329	4.07
379.696	3.86
380.062	3.49
380.429	3.7
380.795	3.9
381.161	3.87
381.528	3.67
381.894	3.59
382.26	3.76
382.626	3.73
382.993	3.87
383.359	3.63
383.725	3.74
384.091	3.87
384.457	3.88
384.823	3.85
385.188	4.08
385.554	3.89
385.92	4.1
386.286	3.91
386.651	3.85
387.017	3.83
387.383	3.69
387.748	3.97
388.114	3.86
388.479	3.97
388.845	3.58
389.21	3.55
389.575	4.17
389.94	3.64
390.306	3.81
390.671	4.28
391.036	3.65
391.401	3.78
391.766	3.71
392.131	3.91
392.496	3.91
392.861	3.82
393.226	4.23
393.591	3.97
393.956	4.01
394.32	3.73
394.685	3.85
395.05	4.14
395.414	4.18
395.779	3.9
396.143	4.04
396.508	3.75
396.872	3.73
397.236	3.79
397.601	3.95
397.965	4.1
398.329	3.71
398.694	3.95
399.058	3.76
399.422	4.02
399.786	3.95
400.15	4.07
400.514	4.07
400.878	3.86
401.242	3.96
401.605	3.87
401.969	3.6
402.333	3.89
402.697	3.89
403.06	3.98
403.424	4.02
403.787	4.14
404.151	3.85
404.514	4.02
404.878	4.01
405.241	4.35
405.604	4.01
405.968	3.95
406.331	4.07
406.694	3.95
407.057	3.67
407.42	3.96
407.783	3.93
408.146	3.88
408.509	3.78
408.872	3.82
409.235	3.69
409.598	3.96
409.961	4.22
410.323	3.87
410.686	4.11
411.049	4.04
411.411	4.19
411.774	4.02
412.136	3.77
412.499	3.91
412.861	3.89
413.223	3.92
413.586	4
413.948	4.18
414.31	4
414.672	4.04
415.035	3.84
415.397	3.98
415.759	4.37
416.121	3.91
416.483	3.73
416.845	3.82
417.206	3.87
417.568	3.92
417.93	3.89
418.292	4.02
418.653	3.82
419.015	4.03
419.377	3.79
419.738	4.02
420.1	3.7
420.461	3.83
420.822	3.88
421.184	3.88
421.545	3.79
421.906	3.79
422.267	3.84
422.629	3.87
422.99	3.77
423.351	3.75
423.712	3.79
424.073	3.73
424.434	3.92
424.795	3.76
425.155	3.92
425.516	3.76
425.877	3.8
426.238	3.68
426.598	3.81
426.959	3.87
427.32	3.86
427.68	3.78
428.041	3.75
428.401	4
428.761	4.01
429.122	3.89
429.482	3.93
429.842	3.8
430.202	3.7
430.563	3.94
430.923	3.92
431.283	3.91
431.643	3.95
432.003	3.94
432.363	3.94
432.722	3.99
433.082	3.9
433.442	3.84
433.802	3.89
434.161	3.76
434.521	3.92
434.881	3.94
435.24	3.72
435.6	3.76
435.959	3.86
436.319	3.87
436.678	4.18
437.037	3.89
437.396	3.78
437.756	3.8
438.115	3.81
438.474	3.93
438.833	4.01
439.192	3.86
439.551	3.84
439.91	3.98
440.269	3.94
440.628	3.71
440.987	3.98
441.345	3.97
441.704	3.93
442.063	3.86
442.421	3.88
442.78	3.95
443.138	3.92
443.497	3.83
443.855	3.84
444.214	3.82
444.572	4.02
444.93	3.97
445.288	3.97
445.647	4.05
446.005	3.82
446.363	3.75
446.721	3.99
447.079	3.78
447.437	3.9
447.795	4.01
448.153	3.71
448.51	3.82
448.868	3.73
449.226	3.89
449.584	3.86
449.941	3.75
450.299	3.84
450.656	4.02
451.014	3.92
451.371	3.94
451.729	3.87
452.086	3.81
452.443	3.95
452.801	4.05
453.158	3.77
453.515	3.93
453.872	3.82
454.229	4.02
454.586	3.86
454.943	3.8
455.3	4
455.657	3.97
456.014	3.91
456.371	3.97
456.727	4.1
457.084	3.93
457.441	3.92
457.797	3.94
458.154	3.99
458.51	4
458.867	3.9
459.223	4.05
459.58	4.09
459.936	3.94
460.292	3.94
460.648	4.13
461.005	4.01
461.361	3.97
461.717	3.73
462.073	3.9
462.429	3.72
462.785	3.81
463.141	3.81
463.496	4.06
463.852	3.99
464.208	3.79
464.564	3.96
464.919	3.97
465.275	4.05
465.631	4.08
465.986	4.13
466.342	4.14
466.697	4.11
467.052	3.95
467.408	3.94
467.763	3.96
468.118	4.14
468.473	3.88
468.829	3.81
469.184	3.88
469.539	4.06
469.894	3.81
470.249	4
470.603	3.99
470.958	4
471.313	4
471.668	4.1
472.023	4.15
472.377	4.08
472.732	3.99
473.086	4.08
473.441	3.7
473.795	4.2
474.15	3.98
474.504	3.88
474.859	4.08
475.213	3.71
475.567	3.84
475.921	4.2
476.275	4.08
476.63	3.95
476.984	4.01
477.338	4.2
477.692	4.05
478.045	4.17
478.399	4.1
478.753	3.76
479.107	4.07
479.461	3.86
479.814	4.12
480.168	4.06
480.521	4.03
480.875	4.12
481.228	4.01
481.582	3.86
481.935	3.98
482.289	3.98
482.642	3.9
482.995	3.99
483.348	3.94
483.701	4
484.055	3.93
484.408	4.06
484.761	3.99
485.114	3.83
485.466	3.77
485.819	3.76
486.172	3.71
486.525	3.71
486.878	3.71
487.23	3.73
487.583	3.8
487.936	3.84
488.288	3.87
488.641	3.86
488.993	3.83
489.345	3.85
489.698	3.76
490.05	3.78
490.402	3.86
490.754	3.71
491.107	3.81
491.459	3.88
491.811	3.82
492.163	3.88
492.515	3.93
492.866	3.93
493.218	3.91
493.57	3.88
493.922	3.81
494.274	3.85
494.625	3.88
494.977	3.95
495.328	4.01
495.68	4
496.031	3.95
496.383	4.02
496.734	4.04
497.086	4.04
497.437	4.02
497.788	4.09
498.139	4.02
498.49	4.03
498.842	3.98
499.193	3.94
499.544	4.06
499.894	4.01
500.245	4.05
500.596	4
500.947	4.03
501.298	4.16
501.648	3.98
501.999	4.13
502.35	4.01
502.7	4.15
503.051	4
503.401	4.11
503.752	4.17
504.102	4.09
504.452	4.05
504.803	4.09
505.153	4.04
505.503	4.03
505.853	4.2
506.203	4.05
506.553	4.16
506.903	4.01
507.253	4.04
507.603	4.03
507.953	4.08
508.303	4.11
508.652	4
509.002	4.15
509.352	4.22
509.701	4.17
510.051	4.14
510.4	4.15
510.75	4.14
511.099	3.92
511.449	4.03
511.798	4.15
512.147	4.13
512.496	4.02
512.846	4.04
513.195	4.13
513.544	4.11
513.893	4.12
514.242	4.01
514.591	4.13
514.939	4.14
515.288	3.98
515.637	4.07
515.986	4.16
516.334	4.14
516.683	4.06
517.032	4.3
517.38	4.32
517.729	4.11
518.077	4.26
518.426	4.11
518.774	4.18
519.122	4.23
519.47	4.06
519.819	4.14
520.167	4.12
520.515	4.13
520.863	4.05
521.211	4.04
521.559	4.12
521.907	4.13
522.255	4.13
522.602	4.16
522.95	4.08
523.298	4.22
523.645	4.27
523.993	4.14
524.341	4.22
524.688	4.24
525.036	4.21
525.383	4.19
525.73	4.32
526.078	4.19
526.425	4.17
526.772	4.29
527.119	4.19
527.466	4.14
527.814	4.17
528.161	4.12
528.508	4.15
528.854	4.07
529.201	4.21
529.548	4.19
529.895	4.16
530.242	4.1
530.588	4.06
530.935	3.97
531.282	3.99
531.628	4.08
531.975	4.02
532.321	4.05
532.667	4.16
533.014	4.14
533.36	4.21
533.706	4.24
534.052	4.17
534.399	4.24
534.745	4.2
535.091	4.17
535.437	4.19
535.783	4.11
536.129	4.19
536.474	4.28
536.82	4.19
537.166	4.33
537.512	4.32
537.857	4.31
538.203	4.47
538.549	4.24
538.894	4.21
539.239	4.24
539.585	4.26
539.93	4.31
540.276	4.27
540.621	4.37
540.966	4.39
541.311	4.44
541.656	4.4
542.001	4.39
542.346	4.44
542.691	4.41
543.036	4.25
543.381	4.25
543.726	4.24
544.071	4.22
544.415	4.25
544.76	4.23
545.105	4.26
545.449	4.32
545.794	4.35
546.138	4.37
546.483	4.45
546.827	4.39
547.171	4.4
547.516	4.6
547.86	4.59
548.204	4.45
548.548	4.48
548.892	4.58
549.236	4.38
549.58	4.54
549.924	4.52
550.268	4.63
550.612	4.47
550.956	4.51
551.3	4.71
551.643	4.81
551.987	4.64
552.33	4.71
552.674	4.56
553.017	4.52
553.361	4.56
553.704	4.56
554.048	4.73
554.391	4.78
554.734	4.65
555.077	4.62
555.42	4.62
555.764	4.56
556.107	4.75
556.45	4.74
556.793	4.64
557.135	4.62
557.478	4.63
557.821	4.74
558.164	4.82
558.507	4.96
558.849	4.69
559.192	4.74
559.534	4.89
559.877	4.73
560.219	4.68
560.562	5
560.904	4.87
561.246	5.11
561.589	4.93
561.931	4.75
562.273	4.82
562.615	4.82
562.957	4.91
563.299	4.99
563.641	4.9
563.983	4.98
564.325	5.1
564.667	5.05
565.008	4.93
565.35	4.81
565.692	4.91
566.033	4.88
566.375	5.05
566.716	5.12
567.058	4.96
567.399	5
567.741	5.23
568.082	4.96
568.423	5.09
568.764	5.21
569.105	4.93
569.447	5.06
569.788	4.87
570.129	5
570.47	5.11
570.811	5.16
571.151	5.25
571.492	5.03
571.833	4.88
572.174	5.14
572.514	5.24
572.855	5.14
573.195	5.16
573.536	5.12
573.876	5.09
574.217	5.16
574.557	5.08
574.898	5.13
575.238	5.26
575.578	5.24
575.918	5.1
576.258	5.18
576.598	5.2
576.938	5.27
577.278	5.28
577.618	5.22
577.958	5.23
578.298	5.39
578.638	5.16
578.977	5.42
579.317	5.38
579.657	5.51
579.996	5.5
580.336	5.39
580.675	5.5
581.014	5.29
581.354	5.31
581.693	5.35
582.032	5.54
582.372	5.48
582.711	5.49
583.05	5.51
583.389	5.45
583.728	5.44
584.067	5.71
584.406	5.53
584.745	5.33
585.083	5.84
585.422	5.65
585.761	5.49
586.1	5.64
586.438	5.69
586.777	5.59
587.115	5.62
587.454	5.52
587.792	5.81
588.13	5.87
588.469	5.62
588.807	5.88
589.145	5.97
589.483	5.72
589.821	5.75
590.159	5.77
590.497	5.93
590.835	5.77
591.173	5.69
591.511	5.85
591.849	5.79
592.187	5.76
592.524	5.99
592.862	6.04
593.2	5.93
593.537	5.87
593.875	5.97
594.212	6.07
594.55	6.21
594.887	5.85
595.224	5.96
595.561	6.22
595.899	6.22
596.236	6.26
596.573	6.08
596.91	6.17
597.247	5.92
597.584	6.26
597.921	6.19
598.258	6.07
598.594	6.2
598.931	6.19
599.268	6.15
599.604	6.31
599.941	6.17
600.277	6.01
600.614	6.25
600.95	6.33
601.287	6.14
601.623	6.42
601.959	6.5
602.296	6.49
602.632	6.14
602.968	6.5
603.304	6.42
603.64	6.44
603.976	6.68
604.312	6.47
604.648	6.58
604.984	6.07
605.319	6.41
605.655	6.49
605.991	6.6
606.326	6.7
606.662	6.33
606.998	6.51
607.333	6.61
607.668	6.46
608.004	6.75
608.339	6.51
608.674	6.7
609.01	6.8
609.345	6.7
609.68	6.78
610.015	6.87
610.35	6.61
610.685	6.91
611.02	6.83
611.355	6.87
611.689	6.81
612.024	6.9
612.359	6.77
612.694	6.74
613.028	6.89
613.363	6.66
613.697	6.74
614.032	6.81
614.366	6.88
614.7	6.99
615.035	6.95
615.369	6.76
615.703	6.8
616.037	6.9
616.371	7.15
616.705	7.29
617.039	7.36
617.373	6.71
617.707	6.7
618.041	7.19
618.375	6.9
618.709	7.25
619.042	7.42
619.376	7.33
619.71	7.43
620.043	6.77
620.377	7.05
620.71	7.34
621.043	7.51
621.377	7.11
621.71	7.04
622.043	7.3
622.376	7.53
622.709	7.64
623.043	7.31
623.376	7.44
623.709	7.36
624.041	7.32
624.374	7.43
624.707	7.87
625.04	7.47
625.373	7.19
625.705	7.29
626.038	7.48
626.37	7.98
626.703	7.57
627.035	7.34
627.368	7.33
627.7	7.76
628.032	8.1
628.365	7.81
628.697	7.66
629.029	7.51
629.361	7.48
629.693	7.82
630.025	7.57
630.357	7.52
630.689	7.52
631.021	7.78
631.353	7.67
631.684	7.58
632.016	7.9
632.348	7.82
632.679	7.81
633.011	8.19
633.342	8.18
633.674	8.17
634.005	7.74
634.336	8.26
634.668	7.99
634.999	8.3
635.33	8.48
635.661	8.28
635.992	7.84
636.323	8.1
636.654	8.07
636.985	7.72
637.316	8.1
637.647	8.41
637.977	7.85
638.308	8.8
638.639	8.37
638.969	8.32
639.3	8.29
639.63	8.38
639.961	7.96
640.291	8.32
640.622	8.74
640.952	8.38
641.282	8.32
641.612	8.31
641.943	8.54
642.273	8.1
642.603	8.39
642.933	8.3
643.263	8.02
643.592	8.85
643.922	8.8
644.252	8.32
644.582	8.98
644.911	8.56
645.241	8.78
645.571	8.37
645.9	8.72
646.23	8.71
646.559	8.72
646.888	8.97
647.218	8.73
647.547	8.32
647.876	8.48
648.205	8.2
648.534	9.21
648.863	8.98
649.192	8.65
649.521	8.73
649.85	8.75
650.179	8.69
650.508	8.33
650.837	9.62
651.165	9.25
651.494	8.97
651.822	8.93
652.151	8.62
652.479	9.06
652.808	9
653.136	9.36
653.465	9.47
653.793	9.01
654.121	9.43
654.449	9.32
654.777	9.13
655.105	9.4
655.433	9.18
655.761	9.17
656.089	9.16
656.417	9.19
656.745	9.08
657.073	9.02
657.4	10.03
657.728	9.19
658.056	9.19
658.383	9.68
658.711	9.33
659.038	9
659.365	9.25
659.693	9.5
660.02	10.2
660.347	9.42
660.674	9.6
661.001	9.51
661.329	9.55
661.656	9.66
661.982	9.61
662.309	9.82
662.636	9.63
662.963	9.38
663.29	9.91
663.616	9.61
663.943	9.88
664.27	9.92
664.596	9.54
664.923	9.97
665.249	9.98
665.576	9.19
665.902	9.49
666.228	9.81
666.554	9.59
666.881	10.45
667.207	10.06
667.533	9.89
667.859	9.89
668.185	10.45
668.511	10.61
668.837	9.87
669.162	10.27
669.488	9.83
669.814	10.33
670.139	10.15
670.465	10.66
670.791	10.53
671.116	9.76
671.442	10.65
671.767	9.69
672.092	10.87
672.418	10.74
672.743	10.39
673.068	10.97
673.393	9.71
673.718	10.49
674.043	10.79
674.368	11.05
674.693	10.74
675.018	10.72
675.343	11.19
675.667	10.73
675.992	9.65
676.317	10.54
676.641	10.61
676.966	10.92
677.29	10.49
677.615	10.67
677.939	10.91
678.264	10.79
678.588	11.09
678.912	10.56
679.236	10.88
679.56	11.17
679.885	10.58
680.209	11.15
680.532	11
680.856	10.43
681.18	11.14
681.504	11.26
681.828	10.91
682.152	10.62
682.475	11.53
682.799	10.71
683.122	10.46
683.446	11.43
683.769	10.81
684.093	10.53
684.416	11.32
684.739	11.16
685.062	11.72
685.386	10.74
685.709	11.54
686.032	10.55
686.355	11.46
686.678	11.29
687.001	11.21
687.324	11.87
687.646	11.34
687.969	11.55
688.292	11.64
688.614	11.73
688.937	11.01
689.26	10.75
689.582	11.83
689.904	11.77
690.227	11.85
690.549	12.07
690.871	10.7
691.194	11.4
691.516	11.32
