Data from 0112_chest_Reflection__4__193.txt Node

Date: Fri Sep 22 22:24:13 CDT 2023
User: ToomeyLab
Spectrometer: FLMS14357
Trigger mode: 0
Integration Time (sec): 1.000000E-2
Scans to average: 100
Electric dark correction enabled: true
Nonlinearity correction enabled: false
Boxcar width: 0
XAxis mode: Wavelengths
Number of Pixels in Spectrum: 2048
>>>>>Begin Spectral Data<<<<<
189.047	-542.64
189.435	-542.64
189.823	-542.64
190.211	459.33
190.599	236.93
190.987	280.87
191.375	260.66
191.763	-104.58
192.151	89.61
192.538	351.37
192.926	163.32
193.314	65.31
193.702	98.22
194.089	100.08
194.477	-37.68
194.864	17.57
195.252	184.98
195.639	-698.51
196.027	9790.24
196.414	-298.04
196.801	1338.26
197.189	96.99
197.576	1635.87
197.963	27.17
198.351	10.71
198.738	27.62
199.125	27.33
199.512	4.67
199.899	47.12
200.286	65.8
200.673	21.71
201.06	30.29
201.447	32.57
201.833	-25.53
202.22	64.34
202.607	12.24
202.994	59.1
203.38	20.1
203.767	-23.6
204.154	37.91
204.54	51.14
204.927	-20.44
205.313	28.48
205.699	47.58
206.086	50.95
206.472	49.11
206.858	21.44
207.245	6.98
207.631	46.64
208.017	34.09
208.403	27.44
208.789	19.26
209.175	69.41
209.561	41.02
209.947	30.92
210.333	16.53
210.719	-14.91
211.105	48.08
211.491	28.49
211.876	37.84
212.262	29.4
212.648	57.15
213.034	18.39
213.419	2.41
213.805	5.88
214.19	-5.58
214.576	30.96
214.961	27.09
215.346	0.98
215.732	22.78
216.117	19.27
216.502	25.14
216.888	29.62
217.273	9.85
217.658	28.27
218.043	18.73
218.428	18.27
218.813	-11.97
219.198	26.95
219.583	4.22
219.968	-14.83
220.353	30.86
220.738	-6.17
221.122	25.13
221.507	-13.05
221.892	12.51
222.276	19.41
222.661	-16.82
223.046	14.19
223.43	29.24
223.815	-5.37
224.199	5.06
224.583	10.18
224.968	15.5
225.352	2.33
225.736	5.49
226.121	12.12
226.505	8.62
226.889	5.46
227.273	2.44
227.657	6.11
228.041	7
228.425	10.15
228.809	0
229.193	4.57
229.577	4.57
229.961	6.24
230.344	5.68
230.728	2.59
231.112	4.68
231.495	3.93
231.879	3.83
232.263	3.12
232.646	4.2
233.03	4.46
233.413	3.18
233.797	4.64
234.18	3.23
234.563	4.69
234.946	6.28
235.33	1.29
235.713	2.33
236.096	4.89
236.479	3.36
236.862	5.58
237.245	6.36
237.628	4.39
238.011	4.67
238.394	4.83
238.777	5.06
239.16	4.73
239.543	5.1
239.925	4.34
240.308	4.5
240.691	2.69
241.073	5.14
241.456	4.5
241.838	2.62
242.221	4.38
242.603	3.39
242.986	3.45
243.368	3.05
243.75	3.29
244.133	4.11
244.515	3.74
244.897	3.9
245.279	3.45
245.661	3.38
246.043	3.89
246.425	3.11
246.807	4.04
247.189	2.07
247.571	4.17
247.953	5.19
248.335	4.17
248.717	3.94
249.098	3.95
249.48	3.59
249.862	3.56
250.243	3.76
250.625	4.18
251.006	3.21
251.388	4.14
251.769	3.73
252.151	4.48
252.532	4.36
252.913	3.51
253.295	4.32
253.676	3.47
254.057	3.3
254.438	4.61
254.819	3.28
255.2	4.04
255.581	3.02
255.962	3.22
256.343	3.56
256.724	3.48
257.105	4.43
257.486	4.83
257.867	3.57
258.247	4.62
258.628	4.29
259.009	4.19
259.389	4.27
259.77	3.93
260.15	4
260.531	3.04
260.911	3.77
261.292	3.35
261.672	3.53
262.052	3.48
262.432	3.52
262.813	3.55
263.193	3.3
263.573	4.09
263.953	3.27
264.333	3.52
264.713	3.56
265.093	4.07
265.473	3.36
265.853	2.92
266.233	4.12
266.612	4.25
266.992	4.56
267.372	3.78
267.752	3.88
268.131	3.66
268.511	3.22
268.89	3.48
269.27	2.97
269.649	3.5
270.029	3.69
270.408	3.32
270.787	3.64
271.167	3.64
271.546	3.2
271.925	3.3
272.304	2.87
272.683	3.33
273.062	4.01
273.441	3.39
273.82	3.73
274.199	3.81
274.578	3.48
274.957	3.56
275.336	3.43
275.715	3.71
276.093	3.1
276.472	3.5
276.851	4.1
277.229	3.43
277.608	3.5
277.986	3.9
278.365	4.06
278.743	2.95
279.122	3.36
279.5	4.21
279.878	2.99
280.257	4.43
280.635	2.97
281.013	3.8
281.391	3.13
281.769	3.34
282.147	4.02
282.525	3.37
282.903	3.54
283.281	3.63
283.659	3.82
284.037	3.34
284.415	4
284.792	3.29
285.17	3.37
285.548	3.71
285.925	3.49
286.303	3.43
286.68	2.97
287.058	2.94
287.435	3.29
287.813	3.03
288.19	2.95
288.567	3.54
288.945	3.32
289.322	3.93
289.699	3.72
290.076	3.61
290.453	3.38
290.83	3.34
291.207	3.17
291.584	3.14
291.961	3.06
292.338	3.3
292.715	3.71
293.092	3.69
293.469	3.26
293.845	3.46
294.222	3.62
294.599	4.14
294.975	3.95
295.352	3.79
295.728	3.31
296.105	3.61
296.481	3.48
296.858	3.34
297.234	3.53
297.61	3.34
297.986	3.84
298.363	3.18
298.739	3.72
299.115	3.68
299.491	3.5
299.867	3.42
300.243	3.25
300.619	3.37
300.995	3.6
301.371	3.92
301.746	3.75
302.122	3.12
302.498	3.28
302.874	3.41
303.249	3.69
303.625	3.15
304	3.67
304.376	3.86
304.751	3.73
305.127	3.51
305.502	3.69
305.878	3.72
306.253	3.65
306.628	3.95
307.003	4.05
307.378	3.5
307.754	2.83
308.129	3.58
308.504	3.78
308.879	3.77
309.254	3.85
309.629	3.86
310.003	3.92
310.378	3.99
310.753	3.8
311.128	3.69
311.502	3.39
311.877	3.46
312.252	3.5
312.626	3.56
313.001	4.04
313.375	3.69
313.75	4.05
314.124	3.87
314.498	3.42
314.873	3.94
315.247	3.94
315.621	3.95
315.995	3.71
316.369	3.77
316.743	3.65
317.117	3.97
317.491	4.01
317.865	3.7
318.239	3.48
318.613	4.37
318.987	3.88
319.361	3.68
319.734	3.71
320.108	3.87
320.482	3.71
320.855	4.01
321.229	4.55
321.602	3.78
321.976	3.74
322.349	3.56
322.723	3.82
323.096	3.77
323.469	3.84
323.843	3.49
324.216	3.97
324.589	3.8
324.962	3.62
325.335	3.66
325.708	3.73
326.081	3.88
326.454	3.37
326.827	3.68
327.2	3.25
327.573	4.22
327.945	3.75
328.318	3.98
328.691	3.76
329.063	3.72
329.436	3.64
329.809	3.54
330.181	4.07
330.553	3.95
330.926	3.53
331.298	4.1
331.671	3.52
332.043	3.3
332.415	3.02
332.787	4.26
333.159	3.69
333.532	4.14
333.904	4.11
334.276	3.46
334.648	3.26
335.02	3.7
335.391	3.43
335.763	4.09
336.135	3.93
336.507	3.99
336.879	3.06
337.25	3.66
337.622	4.09
337.993	3.74
338.365	3.75
338.736	3.98
339.108	3.92
339.479	3.73
339.851	3.46
340.222	3.78
340.593	3.28
340.964	3.38
341.336	3.52
341.707	3.63
342.078	3.95
342.449	3.36
342.82	3.41
343.191	2.86
343.562	3.76
343.933	3.61
344.303	3.58
344.674	3.87
345.045	3.72
345.416	4.33
345.786	3.41
346.157	3.77
346.527	3.45
346.898	3.49
347.268	3.99
347.639	3.81
348.009	3.46
348.38	3.57
348.75	4.29
349.12	3.56
349.49	3.94
349.861	3.61
350.231	3.73
350.601	3.99
350.971	3.95
351.341	3.65
351.711	3.55
352.081	3.74
352.45	3.5
352.82	3.84
353.19	3.7
353.56	3.26
353.929	4.27
354.299	3.62
354.669	3.6
355.038	3.53
355.408	3.79
355.777	4.09
356.147	3.72
356.516	3.58
356.885	3.53
357.254	3.97
357.624	3.15
357.993	3.58
358.362	3.75
358.731	3.77
359.1	3.57
359.469	3.7
359.838	3.27
360.207	3.55
360.576	3.81
360.945	3.87
361.314	3.75
361.682	3.73
362.051	4.07
362.42	3.81
362.788	3.55
363.157	3.85
363.525	3.48
363.894	3.72
364.262	3.63
364.631	3.71
364.999	3.54
365.367	3.74
365.735	3.73
366.104	3.4
366.472	3.99
366.84	3.75
367.208	4.08
367.576	3.98
367.944	3.74
368.312	4.04
368.68	3.74
369.048	3.57
369.416	3.8
369.783	3.49
370.151	3.75
370.519	4.1
370.886	3.87
371.254	3.7
371.621	3.73
371.989	4.11
372.356	3.63
372.724	3.81
373.091	3.69
373.458	3.55
373.826	3.66
374.193	3.99
374.56	3.87
374.927	3.73
375.294	3.83
375.661	3.75
376.028	3.84
376.395	4.11
376.762	3.93
377.129	4.1
377.496	4.17
377.863	3.86
378.229	3.9
378.596	3.8
378.963	3.99
379.329	3.71
379.696	3.92
380.062	3.29
380.429	3.77
380.795	3.94
381.161	3.46
381.528	3.62
381.894	3.11
382.26	3.97
382.626	3.74
382.993	4.14
383.359	3.44
383.725	3.35
384.091	3.74
384.457	3.72
384.823	3.91
385.188	3.63
385.554	3.87
385.92	4.15
386.286	3.84
386.651	3.85
387.017	3.83
387.383	3.53
387.748	3.9
388.114	3.85
388.479	3.59
388.845	3.66
389.21	3.32
389.575	3.94
389.94	3.89
390.306	3.93
390.671	4.11
391.036	3.54
391.401	3.62
391.766	3.58
392.131	3.78
392.496	4.01
392.861	3.95
393.226	4.02
393.591	3.73
393.956	3.82
394.32	3.67
394.685	3.99
395.05	4.05
395.414	3.92
395.779	3.78
396.143	3.85
396.508	3.72
396.872	3.71
397.236	3.84
397.601	3.48
397.965	4.11
398.329	3.75
398.694	3.78
399.058	3.61
399.422	3.87
399.786	4.13
400.15	3.93
400.514	3.79
400.878	3.67
401.242	3.85
401.605	3.71
401.969	3.54
402.333	3.78
402.697	3.87
403.06	4.17
403.424	3.7
403.787	3.7
404.151	3.77
404.514	4.17
404.878	4.05
405.241	4.01
405.604	4.11
405.968	3.98
406.331	3.94
406.694	3.89
407.057	3.8
407.42	4.04
407.783	3.79
408.146	3.7
408.509	3.76
408.872	3.84
409.235	3.69
409.598	3.79
409.961	3.88
410.323	3.9
410.686	3.76
411.049	4.13
411.411	4.08
411.774	3.82
412.136	3.92
412.499	3.88
412.861	3.96
413.223	3.76
413.586	3.7
413.948	4
414.31	3.87
414.672	3.97
415.035	3.69
415.397	3.98
415.759	4.21
416.121	3.77
416.483	3.93
416.845	3.83
417.206	3.89
417.568	3.73
417.93	3.94
418.292	4.02
418.653	3.76
419.015	3.73
419.377	3.86
419.738	3.98
420.1	3.78
420.461	3.86
420.822	3.85
421.184	3.77
421.545	3.83
421.906	3.79
422.267	3.89
422.629	3.89
422.99	3.81
423.351	3.64
423.712	3.78
424.073	3.72
424.434	3.85
424.795	3.79
425.155	3.77
425.516	3.83
425.877	3.83
426.238	3.62
426.598	3.73
426.959	3.77
427.32	3.87
427.68	3.77
428.041	3.73
428.401	3.88
428.761	3.94
429.122	3.83
429.482	3.92
429.842	3.8
430.202	3.99
430.563	3.95
430.923	4.03
431.283	3.91
431.643	4.1
432.003	3.91
432.363	4.06
432.722	3.96
433.082	4.06
433.442	4.03
433.802	4.04
434.161	3.84
434.521	3.9
434.881	4.03
435.24	3.85
435.6	3.9
435.959	3.93
436.319	3.86
436.678	3.93
437.037	4.01
437.396	3.94
437.756	3.89
438.115	3.94
438.474	4.12
438.833	3.96
439.192	3.95
439.551	4.04
439.91	3.94
440.269	3.96
440.628	3.85
440.987	3.81
441.345	3.99
441.704	3.91
442.063	3.93
442.421	3.82
442.78	3.98
443.138	3.89
443.497	3.88
443.855	4
444.214	3.92
444.572	4.08
444.93	3.98
445.288	4.04
445.647	4.04
446.005	4.03
446.363	3.8
446.721	3.94
447.079	3.78
447.437	3.94
447.795	4.01
448.153	3.96
448.51	4
448.868	3.82
449.226	3.97
449.584	3.87
449.941	3.84
450.299	3.98
450.656	4.02
451.014	4.03
451.371	4.02
451.729	3.94
452.086	3.96
452.443	4.1
452.801	4.11
453.158	3.91
453.515	4.15
453.872	3.97
454.229	4.08
454.586	3.99
454.943	3.87
455.3	3.89
455.657	4
456.014	3.98
456.371	3.99
456.727	4.18
457.084	4.05
457.441	4.06
457.797	4.15
458.154	4.03
458.51	4.07
458.867	4.05
459.223	4.11
459.58	4.17
459.936	4.05
460.292	4.07
460.648	4.09
461.005	4.05
461.361	4.12
461.717	3.87
462.073	4
462.429	3.97
462.785	3.95
463.141	4.03
463.496	4.03
463.852	4.06
464.208	4.02
464.564	4.06
464.919	3.95
465.275	4.24
465.631	4.26
465.986	4.18
466.342	4.35
466.697	4.48
467.052	4.1
467.408	4.35
467.763	4.35
468.118	4.35
468.473	4.27
468.829	4.05
469.184	4.11
469.539	4.1
469.894	4.03
470.249	4.13
470.603	4.02
470.958	4.27
471.313	4.18
471.668	4.27
472.023	4.3
472.377	4.17
472.732	4.14
473.086	4.32
473.441	4.01
473.795	4.32
474.15	4.11
474.504	4
474.859	4.3
475.213	4
475.567	4.15
475.921	4.25
476.275	4.14
476.63	4.11
476.984	4.1
477.338	4.33
477.692	4.24
478.045	4.47
478.399	4.33
478.753	4.24
479.107	4.33
479.461	4.08
479.814	4.39
480.168	4.17
480.521	4.36
480.875	4.41
481.228	4.31
481.582	4.11
481.935	4.08
482.289	4.15
482.642	4.16
482.995	4.29
483.348	4.36
483.701	4.21
484.055	4.27
484.408	4.13
484.761	4.19
485.114	4.07
485.466	3.98
485.819	3.99
486.172	3.95
486.525	3.92
486.878	3.95
487.23	4.01
487.583	4.1
487.936	4.11
488.288	4.2
488.641	4.14
488.993	4.1
489.345	4.11
489.698	4.05
490.05	4.08
490.402	4.07
490.754	4.06
491.107	4.1
491.459	4.17
491.811	4.11
492.163	4.24
492.515	4.22
492.866	4.27
493.218	4.18
493.57	4.11
493.922	4.12
494.274	4.15
494.625	4.17
494.977	4.24
495.328	4.29
495.68	4.24
496.031	4.37
496.383	4.29
496.734	4.35
497.086	4.44
497.437	4.4
497.788	4.42
498.139	4.45
498.49	4.47
498.842	4.36
499.193	4.34
499.544	4.42
499.894	4.32
500.245	4.48
500.596	4.51
500.947	4.49
501.298	4.45
501.648	4.48
501.999	4.5
502.35	4.5
502.7	4.56
503.051	4.51
503.401	4.43
503.752	4.48
504.102	4.46
504.452	4.5
504.803	4.5
505.153	4.49
505.503	4.48
505.853	4.58
506.203	4.53
506.553	4.5
506.903	4.53
507.253	4.58
507.603	4.59
507.953	4.64
508.303	4.45
508.652	4.51
509.002	4.63
509.352	4.57
509.701	4.71
510.051	4.55
510.4	4.53
510.75	4.55
511.099	4.53
511.449	4.56
511.798	4.55
512.147	4.5
512.496	4.58
512.846	4.61
513.195	4.58
513.544	4.61
513.893	4.72
514.242	4.58
514.591	4.65
514.939	4.61
515.288	4.57
515.637	4.71
515.986	4.64
516.334	4.68
516.683	4.83
517.032	4.8
517.38	4.75
517.729	4.69
518.077	4.62
518.426	4.8
518.774	4.74
519.122	4.82
519.47	4.71
519.819	4.7
520.167	4.73
520.515	4.72
520.863	4.6
521.211	4.63
521.559	4.69
521.907	4.66
522.255	4.75
522.602	4.71
522.95	4.73
523.298	4.79
523.645	4.87
523.993	4.79
524.341	4.82
524.688	4.78
525.036	4.9
525.383	4.96
525.73	4.86
526.078	4.84
526.425	4.8
526.772	5.02
527.119	4.81
527.466	4.72
527.814	4.78
528.161	4.77
528.508	4.82
528.854	4.92
529.201	4.9
529.548	4.85
529.895	4.78
530.242	4.75
530.588	4.68
530.935	4.63
531.282	4.65
531.628	4.71
531.975	4.71
532.321	4.75
532.667	4.88
533.014	4.91
533.36	4.92
533.706	4.88
534.052	4.98
534.399	5.02
534.745	4.95
535.091	4.84
535.437	4.9
535.783	4.78
536.129	4.88
536.474	5
536.82	4.87
537.166	5.11
537.512	5.1
537.857	5.13
538.203	5.06
538.549	5.02
538.894	5.04
539.239	4.95
539.585	5.03
539.93	5.18
540.276	5.16
540.621	5.17
540.966	5.21
541.311	5.41
541.656	5.22
542.001	5.15
542.346	5.32
542.691	5.35
543.036	5.22
543.381	5.11
543.726	5.08
544.071	5.08
544.415	5.08
544.76	5.12
545.105	5.06
545.449	5.16
545.794	5.25
546.138	5.29
546.483	5.33
546.827	5.28
547.171	5.4
547.516	5.43
547.86	5.44
548.204	5.36
548.548	5.38
548.892	5.47
549.236	5.32
549.58	5.46
549.924	5.44
550.268	5.59
550.612	5.55
550.956	5.54
551.3	5.74
551.643	5.56
551.987	5.75
552.33	5.65
552.674	5.76
553.017	5.66
553.361	5.6
553.704	5.85
554.048	5.79
554.391	5.79
554.734	5.88
555.077	5.69
555.42	5.72
555.764	5.66
556.107	5.79
556.45	5.74
556.793	5.77
557.135	5.96
557.478	5.76
557.821	5.96
558.164	6.02
558.507	6.15
558.849	5.7
559.192	5.91
559.534	5.95
559.877	6.09
560.219	5.92
560.562	6.07
560.904	6.1
561.246	6.13
561.589	5.93
561.931	5.98
562.273	5.89
562.615	6.01
562.957	5.86
563.299	6.04
563.641	6.03
563.983	6.12
564.325	6.22
564.667	6.21
565.008	6.09
565.35	6.4
565.692	6.22
566.033	6.17
566.375	6.27
566.716	6.33
567.058	6.24
567.399	6.31
567.741	6.44
568.082	6.3
568.423	6.48
568.764	6.49
569.105	6.31
569.447	6.29
569.788	6.18
570.129	6.44
570.47	6.65
570.811	6.5
571.151	6.52
571.492	6.61
571.833	6.27
572.174	6.64
572.514	6.52
572.855	6.63
573.195	6.41
573.536	6.51
573.876	6.42
574.217	6.61
574.557	6.49
574.898	6.71
575.238	6.61
575.578	6.76
575.918	6.67
576.258	6.62
576.598	6.7
576.938	6.79
577.278	6.85
577.618	6.68
577.958	7.01
578.298	6.88
578.638	6.87
578.977	6.9
579.317	6.97
579.657	6.81
579.996	7
580.336	7.07
580.675	7.2
581.014	6.79
581.354	6.93
581.693	7.23
582.032	7.1
582.372	7.17
582.711	7.05
583.05	7.28
583.389	7.16
583.728	7.22
584.067	7.35
584.406	7.2
584.745	7.13
585.083	7.26
585.422	7.58
585.761	7.3
586.1	7.42
586.438	7.3
586.777	7.28
587.115	7.73
587.454	7.39
587.792	7.58
588.13	7.56
588.469	7.43
588.807	7.7
589.145	7.6
589.483	7.47
589.821	7.48
590.159	7.62
590.497	7.74
590.835	7.74
591.173	7.57
591.511	7.7
591.849	7.88
592.187	7.76
592.524	8.01
592.862	7.8
593.2	7.83
593.537	7.69
593.875	7.94
594.212	8.14
594.55	8.13
594.887	7.8
595.224	7.85
595.561	8.16
595.899	8.26
596.236	8.29
596.573	8.16
596.91	7.98
597.247	8.14
597.584	8.28
597.921	8.26
598.258	8.15
598.594	7.98
598.931	8
599.268	8.08
599.604	8.25
599.941	8.34
600.277	8.05
600.614	8.15
600.95	8.27
601.287	8.22
601.623	8.57
601.959	8.56
602.296	8.51
602.632	8.36
602.968	8.4
603.304	8.49
603.64	8.4
603.976	8.49
604.312	8.53
604.648	8.58
604.984	8.48
605.319	8.59
605.655	8.69
605.991	8.58
606.326	8.75
606.662	8.49
606.998	8.58
607.333	8.69
607.668	8.62
608.004	8.84
608.339	8.67
608.674	8.9
609.01	8.66
609.345	8.82
609.68	9
610.015	8.9
610.35	9.03
610.685	9.21
611.02	8.99
611.355	8.92
611.689	8.96
612.024	9.15
612.359	8.96
612.694	9.14
613.028	8.97
613.363	8.98
613.697	9.11
614.032	9.02
614.366	9.11
614.7	9.31
615.035	9.33
615.369	9.39
615.703	9.16
616.037	9.31
616.371	9.87
616.705	9.73
617.039	9.52
617.373	9.48
617.707	9.55
618.041	9.81
618.375	9.87
618.709	9.64
619.042	9.79
619.376	9.75
619.71	9.72
620.043	9.78
620.377	9.59
620.71	9.65
621.043	9.63
621.377	9.79
621.71	10.07
622.043	10.22
622.376	10.09
622.709	10.03
623.043	10.11
623.376	10.26
623.709	10.26
624.041	9.83
624.374	10.07
624.707	10.31
625.04	10.18
625.373	9.78
625.705	10.19
626.038	10.22
626.37	10.53
626.703	10.52
627.035	10.54
627.368	10.5
627.7	10.67
628.032	10.51
628.365	10.64
628.697	10.63
629.029	10.58
629.361	10.29
629.693	10.65
630.025	10.44
630.357	10.33
630.689	10.48
631.021	10.34
631.353	10.59
631.684	10.81
632.016	10.77
632.348	10.93
632.679	10.79
633.011	10.91
633.342	10.89
633.674	11.29
634.005	10.22
634.336	11.21
634.668	10.74
634.999	11.05
635.33	11.21
635.661	11.18
635.992	11.15
636.323	11.02
636.654	10.95
636.985	10.89
637.316	11.14
637.647	11.29
637.977	10.74
638.308	11.37
638.639	11.12
638.969	11.37
639.3	11.11
639.63	11.58
639.961	11.35
640.291	11.32
640.622	11.77
640.952	11.42
641.282	11.72
641.612	11.66
641.943	11.76
642.273	11.64
642.603	11.48
642.933	11.53
643.263	11.25
643.592	11.78
643.922	12.1
644.252	11.62
644.582	11.91
644.911	11.59
645.241	11.92
645.571	12.05
645.9	12.36
646.23	12.21
646.559	11.89
646.888	12.36
647.218	11.92
647.547	11.94
647.876	11.84
648.205	12.14
648.534	12.44
648.863	12.06
649.192	12.27
649.521	12.5
649.85	12.37
650.179	12.5
650.508	11.83
650.837	12.94
651.165	12.23
651.494	12.43
651.822	12.43
652.151	12.43
652.479	12.48
652.808	12.27
653.136	13.48
653.465	12.55
653.793	12.47
654.121	12.84
654.449	12.65
654.777	13.04
655.105	13
655.433	13.73
655.761	13.29
656.089	12.95
656.417	13
656.745	13.21
657.073	13.22
657.4	13.77
657.728	12.6
658.056	12.97
658.383	13.16
658.711	13.15
659.038	12.79
659.365	13.48
659.693	13.06
660.02	13.37
660.347	13.81
660.674	12.62
661.001	13.16
661.329	13.44
661.656	13.52
661.982	13.43
662.309	13.33
662.636	13.52
662.963	13.68
663.29	13.86
663.616	13.73
663.943	13.96
664.27	13.97
664.596	13.38
664.923	13.48
665.249	13.66
665.576	13.4
665.902	13.76
666.228	14.05
666.554	13.86
666.881	14.28
667.207	14.33
667.533	13.82
667.859	14.28
668.185	14.65
668.511	14.73
668.837	13.59
669.162	13.98
669.488	14.33
669.814	14.52
670.139	14.31
670.465	14.45
670.791	14.45
671.116	13.77
671.442	15.36
671.767	14.08
672.092	14.94
672.418	14.93
672.743	14.8
673.068	14.64
673.393	14.67
673.718	14.92
674.043	14.7
674.368	14.65
674.693	13.93
675.018	14.94
675.343	15.18
675.667	15.08
675.992	14.39
676.317	15.86
676.641	14.37
676.966	15.04
677.29	14.6
677.615	14.96
677.939	15.08
678.264	15.28
678.588	15.66
678.912	15.18
679.236	14.84
679.56	15.21
679.885	15.38
680.209	16.09
680.532	15.28
680.856	14.94
681.18	15.99
681.504	15.62
681.828	15.22
682.152	15.72
682.475	16.25
682.799	16.11
683.122	15.72
683.446	15.86
683.769	15.6
684.093	15.66
684.416	15.39
684.739	16.28
685.062	15.65
685.386	15.87
685.709	15.66
686.032	16.14
686.355	16.06
686.678	16.41
687.001	16.46
687.324	17.08
687.646	16.75
687.969	17.28
