Data from 0112_forehead_Reflection__1__201.txt Node

Date: Fri Sep 22 22:27:05 CDT 2023
User: ToomeyLab
Spectrometer: FLMS14357
Trigger mode: 0
Integration Time (sec): 1.000000E-2
Scans to average: 100
Electric dark correction enabled: true
Nonlinearity correction enabled: false
Boxcar width: 0
XAxis mode: Wavelengths
Number of Pixels in Spectrum: 2048
>>>>>Begin Spectral Data<<<<<
189.047	76.91
189.435	76.91
189.823	76.91
190.211	-432.08
190.599	145
190.987	2239.89
191.375	148.92
191.763	-186.6
192.151	6.62
192.538	1068.29
192.926	135.12
193.314	141.62
193.702	-36.79
194.089	85.65
194.477	-75.76
194.864	-14.65
195.252	417.85
195.639	-240.44
196.027	9709.76
196.414	76.51
196.801	263.34
197.189	-88.9
197.576	-81.82
197.963	21.3
198.351	70.71
198.738	9.63
199.125	79.84
199.512	17.33
199.899	59.96
200.286	-4.26
200.673	46.53
201.06	18.84
201.447	48.2
201.833	-13.97
202.22	83.88
202.607	46.54
202.994	53.06
203.38	58.01
203.767	38.91
204.154	19.12
204.54	32.09
204.927	85.17
205.313	62.82
205.699	53.53
206.086	52.12
206.472	25.19
206.858	17.55
207.245	7.64
207.631	39.53
208.017	15.25
208.403	14.24
208.789	38.25
209.175	45.37
209.561	28.59
209.947	48.41
210.333	54.75
210.719	-7.17
211.105	11.37
211.491	12.03
211.876	38.95
212.262	27.83
212.648	74.77
213.034	30.6
213.419	22.84
213.805	4.25
214.19	48.02
214.576	59.11
214.961	84.98
215.346	15.32
215.732	16.12
216.117	-5.08
216.502	49.24
216.888	34.57
217.273	31.28
217.658	13.16
218.043	32.04
218.428	49.92
218.813	-1.42
219.198	28.23
219.583	71.29
219.968	-21.03
220.353	51.31
220.738	15.63
221.122	18.38
221.507	8.43
221.892	3.41
222.276	25.78
222.661	-21.98
223.046	44.55
223.43	20.49
223.815	8.89
224.199	10.07
224.583	12.3
224.968	14.25
225.352	12.03
225.736	13.74
226.121	4.96
226.505	13.89
226.889	14.14
227.273	12.01
227.657	16.86
228.041	13.38
228.425	15.04
228.809	8.86
229.193	7.52
229.577	6.29
229.961	9.65
230.344	5.22
230.728	4
231.112	5.63
231.495	4.12
231.879	4.72
232.263	3.13
232.646	4.67
233.03	3.54
233.413	5.6
233.797	3.73
234.18	4.8
234.563	7.79
234.946	3.85
235.33	4.38
235.713	4.83
236.096	5.2
236.479	4.18
236.862	6
237.245	3.94
237.628	7.33
238.011	5.91
238.394	3.18
238.777	6.04
239.16	6.1
239.543	7.4
239.925	5.18
240.308	5.82
240.691	4.16
241.073	6.3
241.456	6.81
241.838	4.39
242.221	5.08
242.603	4.31
242.986	4.6
243.368	4.21
243.75	4.43
244.133	4.79
244.515	4.36
244.897	4.21
245.279	4.08
245.661	4.28
246.043	4.57
246.425	4.95
246.807	5.26
247.189	3.36
247.571	5.43
247.953	4.94
248.335	4.77
248.717	4.54
249.098	4.53
249.48	4.11
249.862	4.01
250.243	4.06
250.625	4.59
251.006	4.36
251.388	4.6
251.769	4.78
252.151	4.81
252.532	3.83
252.913	4.98
253.295	5.21
253.676	4.73
254.057	5.11
254.438	4.97
254.819	4.51
255.2	4.3
255.581	4.39
255.962	5.37
256.343	5.03
256.724	4.42
257.105	5.23
257.486	4.92
257.867	4.91
258.247	5.08
258.628	5.02
259.009	5.2
259.389	4.14
259.77	4.66
260.15	5.77
260.531	4.23
260.911	4.51
261.292	3.9
261.672	4.04
262.052	4.03
262.432	4.16
262.813	4.3
263.193	3.78
263.573	4.46
263.953	4.31
264.333	4.32
264.713	4.43
265.093	4.37
265.473	4.08
265.853	4.2
266.233	4.34
266.612	4.53
266.992	3.74
267.372	4.66
267.752	4.59
268.131	4.28
268.511	4.05
268.89	4.29
269.27	3.93
269.649	3.84
270.029	3.92
270.408	4.52
270.787	3.87
271.167	4.17
271.546	3.57
271.925	4.15
272.304	3.58
272.683	3.88
273.062	4.61
273.441	4
273.82	4.54
274.199	4.14
274.578	4.34
274.957	3.89
275.336	3.88
275.715	4.03
276.093	4.09
276.472	4.02
276.851	3.82
277.229	3.85
277.608	4.37
277.986	4.11
278.365	4.05
278.743	4.41
279.122	3.65
279.5	3.97
279.878	4.04
280.257	4.23
280.635	4.12
281.013	4.87
281.391	4.02
281.769	3.87
282.147	4.45
282.525	4.07
282.903	4.73
283.281	4.65
283.659	4.02
284.037	3.6
284.415	4.55
284.792	4.12
285.17	3.82
285.548	4.77
285.925	4.37
286.303	3.83
286.68	3.27
287.058	3.91
287.435	4.14
287.813	3.71
288.19	3.63
288.567	4
288.945	3.74
289.322	3.82
289.699	4.12
290.076	3.92
290.453	3.96
290.83	3.66
291.207	4.08
291.584	3.45
291.961	3.46
292.338	4.25
292.715	4.33
293.092	4.05
293.469	4.37
293.845	4.3
294.222	4.74
294.599	4.99
294.975	4.98
295.352	4.61
295.728	3.89
296.105	4.45
296.481	4.53
296.858	4.37
297.234	4.61
297.61	4.39
297.986	4.35
298.363	4.25
298.739	4.22
299.115	4.64
299.491	4.37
299.867	4.62
300.243	4.29
300.619	4.37
300.995	4.54
301.371	4.77
301.746	4.76
302.122	4.64
302.498	4.55
302.874	4.71
303.249	5.05
303.625	4.3
304	5.02
304.376	4.89
304.751	4.59
305.127	5.26
305.502	6.06
305.878	5.32
306.253	5.19
306.628	4.83
307.003	5.33
307.378	5
307.754	5.33
308.129	5.79
308.504	4.99
308.879	5.42
309.254	5.42
309.629	5.28
310.003	6.19
310.378	5.92
310.753	5.23
311.128	5.41
311.502	6.26
311.877	5.13
312.252	5.57
312.626	5.41
313.001	5.76
313.375	5.58
313.75	5.84
314.124	6.57
314.498	5.68
314.873	5.83
315.247	6.26
315.621	6.07
315.995	5.74
316.369	5.68
316.743	6.08
317.117	6.25
317.491	6.51
317.865	6.56
318.239	6.56
318.613	6.03
318.987	6.54
319.361	6.4
319.734	6.01
320.108	6.6
320.482	6.38
320.855	5.97
321.229	7.25
321.602	6.84
321.976	6.59
322.349	6.76
322.723	7.25
323.096	6.82
323.469	7.51
323.843	6.72
324.216	6.9
324.589	7.29
324.962	6.66
325.335	7.17
325.708	7.15
326.081	7.53
326.454	6.84
326.827	7.02
327.2	7.16
327.573	7.59
327.945	7.06
328.318	7.82
328.691	7.59
329.063	7.07
329.436	7.37
329.809	7.18
330.181	7.57
330.553	7.55
330.926	7.42
331.298	7.98
331.671	7.76
332.043	6.71
332.415	7.62
332.787	8.14
333.159	8
333.532	7.71
333.904	7.9
334.276	7.78
334.648	7.27
335.02	7.95
335.391	7.86
335.763	8.31
336.135	7.71
336.507	8.07
336.879	7.59
337.25	8.27
337.622	8.4
337.993	8.47
338.365	8.34
338.736	8.5
339.108	8.23
339.479	8.16
339.851	7.93
340.222	8.09
340.593	8.27
340.964	8.02
341.336	8.25
341.707	7.97
342.078	8.64
342.449	8.35
342.82	8.06
343.191	8.34
343.562	7.76
343.933	8.35
344.303	8.59
344.674	8.67
345.045	8.68
345.416	8.96
345.786	8.4
346.157	8.64
346.527	8.82
346.898	8.78
347.268	8.49
347.639	8.68
348.009	8.76
348.38	8.7
348.75	9.03
349.12	8.77
349.49	9.21
349.861	9.14
350.231	9.57
350.601	9.28
350.971	9.32
351.341	9.45
351.711	9.21
352.081	9.09
352.45	9.33
352.82	9.73
353.19	9.6
353.56	9.23
353.929	9.59
354.299	9.71
354.669	9.66
355.038	9.65
355.408	9.54
355.777	10.06
356.147	9.52
356.516	9.88
356.885	9.61
357.254	10.01
357.624	9.58
357.993	10.29
358.362	10.25
358.731	10.07
359.1	10.16
359.469	10.08
359.838	9.9
360.207	9.92
360.576	10.19
360.945	9.66
361.314	10.25
361.682	10.22
362.051	10.43
362.42	10.27
362.788	10.28
363.157	10.51
363.525	10.31
363.894	10.4
364.262	10.4
364.631	10.56
364.999	10.34
365.367	10.83
365.735	10.94
366.104	10.93
366.472	11.12
366.84	10.61
367.208	11.04
367.576	11.31
367.944	11.07
368.312	10.94
368.68	11.37
369.048	11.42
369.416	11.43
369.783	11.55
370.151	11.31
370.519	11.3
370.886	11.54
371.254	11.76
371.621	11.83
371.989	11.79
372.356	11.27
372.724	11.81
373.091	12.07
373.458	11.76
373.826	11.99
374.193	11.81
374.56	12.13
374.927	11.94
375.294	11.84
375.661	12.23
376.028	12.27
376.395	12.51
376.762	12.13
377.129	12.48
377.496	12.74
377.863	12.45
378.229	12.73
378.596	12.49
378.963	13.08
379.329	12.51
379.696	12.88
380.062	12.66
380.429	12.46
380.795	12.81
381.161	12.41
381.528	12.83
381.894	12.42
382.26	12.66
382.626	13.15
382.993	12.99
383.359	12.82
383.725	13.19
384.091	13.2
384.457	13
384.823	13.21
385.188	13.45
385.554	13.39
385.92	13.52
386.286	13.59
386.651	13.49
387.017	13.6
387.383	13.54
387.748	13.55
388.114	13.82
388.479	13.8
388.845	13.76
389.21	13.78
389.575	14.15
389.94	13.61
390.306	14.08
390.671	14.09
391.036	13.79
391.401	14.37
391.766	14.14
392.131	14.06
392.496	14.32
392.861	14.55
393.226	14.4
393.591	14.67
393.956	14.41
394.32	14.48
394.685	14.34
395.05	14.89
395.414	14.89
395.779	14.97
396.143	14.86
396.508	14.76
396.872	14.9
397.236	14.72
397.601	15
397.965	15.21
398.329	15.17
398.694	15.1
399.058	15.13
399.422	15.27
399.786	15.45
400.15	15.4
400.514	15.61
400.878	15.45
401.242	15.53
401.605	15.62
401.969	15.36
402.333	15.66
402.697	15.51
403.06	15.57
403.424	16.15
403.787	16.27
404.151	15.79
404.514	16.41
404.878	16.2
405.241	16.37
405.604	16.56
405.968	16.31
406.331	16.01
406.694	16.31
407.057	16.4
407.42	16.33
407.783	16.45
408.146	16.45
408.509	16.68
408.872	16.4
409.235	16.66
409.598	16.55
409.961	17.12
410.323	17.16
410.686	17.14
411.049	17.19
411.411	17.13
411.774	17.13
412.136	17.06
412.499	17.13
412.861	17.29
413.223	17.32
413.586	17.44
413.948	17.63
414.31	17.64
414.672	17.57
415.035	17.66
415.397	17.74
415.759	18.12
416.121	17.85
416.483	17.95
416.845	17.74
417.206	17.84
417.568	18
417.93	18.02
418.292	17.97
418.653	17.96
419.015	18.17
419.377	17.9
419.738	18.17
420.1	18.06
420.461	18.07
420.822	18.23
421.184	18.14
421.545	18.31
421.906	18.22
422.267	18.26
422.629	18.33
422.99	18.4
423.351	18.25
423.712	18.34
424.073	18.41
424.434	18.44
424.795	18.7
425.155	18.8
425.516	18.79
425.877	18.69
426.238	18.57
426.598	18.68
426.959	18.71
427.32	18.84
427.68	18.89
428.041	18.95
428.401	19.42
428.761	19.55
429.122	19.48
429.482	19.51
429.842	19.34
430.202	19.69
430.563	20.01
430.923	20.01
431.283	20.21
431.643	20.3
432.003	20.18
432.363	20.31
432.722	20.31
433.082	20.49
433.442	20.44
433.802	20.43
434.161	20.55
434.521	20.59
434.881	20.58
435.24	20.48
435.6	20.35
435.959	20.43
436.319	20.49
436.678	20.78
437.037	20.83
437.396	20.91
437.756	21.04
438.115	21.07
438.474	21.27
438.833	21.38
439.192	21.28
439.551	21.41
439.91	21.26
440.269	21.37
440.628	21.2
440.987	21.34
441.345	21.5
441.704	21.49
442.063	21.41
442.421	21.41
442.78	21.53
443.138	21.54
443.497	21.56
443.855	21.64
444.214	21.7
444.572	21.98
444.93	21.91
445.288	22.07
445.647	22.19
446.005	22.14
446.363	22.23
446.721	22.26
447.079	22.12
447.437	22.15
447.795	22.22
448.153	22.17
448.51	22.1
448.868	21.97
449.226	22.13
449.584	22.21
449.941	22.32
450.299	22.6
450.656	22.7
451.014	22.84
451.371	22.98
451.729	23.02
452.086	23.17
452.443	23.16
452.801	23.47
453.158	23.51
453.515	23.6
453.872	23.45
454.229	23.75
454.586	23.61
454.943	23.47
455.3	23.71
455.657	23.74
456.014	23.82
456.371	24
456.727	24.06
457.084	23.88
457.441	23.87
457.797	24.11
458.154	24.18
458.51	24.38
458.867	24.42
459.223	24.43
459.58	24.56
459.936	24.54
460.292	24.53
460.648	24.57
461.005	24.57
461.361	24.48
461.717	24.22
462.073	24.18
462.429	24.08
462.785	24.31
463.141	24.59
463.496	24.71
463.852	24.99
464.208	24.94
464.564	25.28
464.919	25.26
465.275	25.64
465.631	25.53
465.986	25.63
466.342	25.67
466.697	25.85
467.052	25.77
467.408	25.71
467.763	25.83
468.118	26.1
468.473	26.09
468.829	25.97
469.184	25.91
469.539	26
469.894	26.13
470.249	26.2
470.603	26.17
470.958	26.32
471.313	26.16
471.668	26.65
472.023	26.66
472.377	26.53
472.732	26.57
473.086	26.93
473.441	26.64
473.795	27
474.15	26.89
474.504	26.94
474.859	27.09
475.213	26.77
475.567	26.93
475.921	27.25
476.275	27.08
476.63	27.33
476.984	27.3
477.338	27.77
477.692	27.57
478.045	27.7
478.399	27.85
478.753	27.71
479.107	27.82
479.461	27.67
479.814	27.73
480.168	27.83
480.521	27.83
480.875	27.83
481.228	28.01
481.582	27.96
481.935	28.01
482.289	28.11
482.642	28.11
482.995	28.3
483.348	28.38
483.701	28.15
484.055	28.08
484.408	28.11
484.761	28.03
485.114	27.89
485.466	27.6
485.819	27.3
486.172	27.1
486.525	27.12
486.878	27.14
487.23	27.31
487.583	27.57
487.936	27.87
488.288	28.02
488.641	28.14
488.993	28.17
489.345	27.93
489.698	27.84
490.05	27.81
490.402	27.95
490.754	27.92
491.107	28.13
491.459	28.47
491.811	28.71
492.163	28.96
492.515	29.12
492.866	29.2
493.218	29.28
493.57	28.84
493.922	28.79
494.274	28.68
494.625	28.77
494.977	28.98
495.328	29.22
495.68	29.6
496.031	29.86
496.383	30.3
496.734	30.42
497.086	30.48
497.437	30.7
497.788	30.76
498.139	30.84
498.49	30.63
498.842	30.39
499.193	30.4
499.544	30.48
499.894	30.46
500.245	30.81
500.596	30.82
500.947	30.89
501.298	31.04
501.648	31.17
501.999	31.2
502.35	31.28
502.7	31.45
503.051	31.58
503.401	31.68
503.752	31.47
504.102	31.65
504.452	31.82
504.803	31.83
505.153	32.04
505.503	31.92
505.853	31.94
506.203	31.96
506.553	32.12
506.903	32.09
507.253	32.07
507.603	32.23
507.953	32.23
508.303	32.27
508.652	32.36
509.002	32.63
509.352	32.65
509.701	32.43
510.051	32.62
510.4	32.52
510.75	32.45
511.099	32.33
511.449	32.5
511.798	32.67
512.147	32.66
512.496	32.69
512.846	32.82
513.195	32.98
513.544	32.76
513.893	32.83
514.242	32.83
514.591	33.02
514.939	33.07
515.288	33.17
515.637	33.24
515.986	33.31
516.334	33.47
516.683	33.51
517.032	33.71
517.38	33.7
517.729	33.61
518.077	33.65
518.426	33.55
518.774	33.95
519.122	34
519.47	33.88
519.819	33.82
520.167	33.64
520.515	33.43
520.863	33.38
521.211	33.3
521.559	33.4
521.907	33.46
522.255	33.74
522.602	33.81
522.95	34.15
523.298	34.09
523.645	34.18
523.993	34.59
524.341	34.57
524.688	34.45
525.036	34.73
525.383	34.71
525.73	34.87
526.078	34.97
526.425	34.68
526.772	34.93
527.119	34.73
527.466	34.42
527.814	34.37
528.161	34.29
528.508	34.25
528.854	34.26
529.201	34.34
529.548	34.43
529.895	34.28
530.242	34.22
530.588	33.94
530.935	33.71
531.282	33.74
531.628	33.74
531.975	33.79
532.321	33.96
532.667	34.22
533.014	34.64
533.36	34.98
533.706	35.06
534.052	35.04
534.399	35.15
534.745	35.22
535.091	34.9
535.437	34.73
535.783	34.58
536.129	34.7
536.474	34.82
536.82	35.05
537.166	35.31
537.512	35.56
537.857	35.81
538.203	35.85
538.549	35.55
538.894	35.6
539.239	35.57
539.585	35.53
539.93	35.84
540.276	35.92
540.621	36.23
540.966	36.51
541.311	36.73
541.656	36.63
542.001	36.82
542.346	36.77
542.691	36.58
543.036	36.31
543.381	35.8
543.726	35.54
544.071	35.56
544.415	35.68
544.76	35.77
545.105	36.07
545.449	36.21
545.794	36.28
546.138	36.5
546.483	36.68
546.827	36.7
547.171	37
547.516	37.21
547.86	37.28
548.204	37.24
548.548	37.1
548.892	37.04
549.236	37.15
549.58	37.28
549.924	37.3
550.268	37.61
550.612	37.72
550.956	37.95
551.3	38.29
551.643	38.4
551.987	38.29
552.33	38.59
552.674	38.67
553.017	38.56
553.361	38.37
553.704	38.78
554.048	38.84
554.391	38.88
554.734	38.71
555.077	38.57
555.42	38.44
555.764	38.44
556.107	38.58
556.45	38.6
556.793	38.57
557.135	38.97
557.478	38.88
557.821	39.29
558.164	39.28
558.507	39.32
558.849	39.15
559.192	39.5
559.534	39.45
559.877	39.43
560.219	39.59
560.562	39.45
560.904	39.64
561.246	39.72
561.589	39.39
561.931	39.81
562.273	39.76
562.615	39.86
562.957	39.89
563.299	39.54
563.641	39.9
563.983	39.86
564.325	39.76
564.667	39.96
565.008	40.1
565.35	39.99
565.692	40.07
566.033	40.05
566.375	40.21
566.716	40.27
567.058	40.23
567.399	40.42
567.741	39.95
568.082	40.06
568.423	40.05
568.764	40.14
569.105	40.05
569.447	40.13
569.788	40.07
570.129	40.33
570.47	40.46
570.811	40.53
571.151	40.69
571.492	40.47
571.833	40.6
572.174	40.77
572.514	40.73
572.855	40.78
573.195	40.99
573.536	40.67
573.876	40.76
574.217	40.63
574.557	40.67
574.898	40.57
575.238	40.72
575.578	41.1
575.918	41.03
576.258	40.98
576.598	41.06
576.938	41.32
577.278	41.11
577.618	41.2
577.958	41.26
578.298	41.21
578.638	40.97
578.977	41.3
579.317	41.4
579.657	41.52
579.996	41.89
580.336	41.74
580.675	42.02
581.014	41.7
581.354	41.76
581.693	42.09
582.032	42.06
582.372	42.27
582.711	42.34
583.05	42.36
583.389	42.21
583.728	42.23
584.067	42.37
584.406	42.17
584.745	42.43
585.083	42.81
585.422	42.45
585.761	42.35
586.1	42.71
586.438	42.69
586.777	42.71
587.115	42.78
587.454	42.85
587.792	42.97
588.13	42.87
588.469	42.83
588.807	43.2
589.145	42.94
589.483	43.17
589.821	42.94
590.159	42.96
590.497	43.2
590.835	42.87
591.173	43.12
591.511	43.21
591.849	43.13
592.187	42.89
592.524	42.92
592.862	42.99
593.2	43.32
593.537	43.28
593.875	43.31
594.212	43.07
594.55	43.58
594.887	43.63
595.224	43.69
595.561	43.67
595.899	43.58
596.236	43.58
596.573	43.7
596.91	43.55
597.247	43.71
597.584	43.66
597.921	43.81
598.258	43.86
598.594	43.7
598.931	43.34
599.268	43.39
599.604	43.57
599.941	43.47
600.277	43.35
600.614	43.62
600.95	43.96
601.287	43.81
601.623	44.16
601.959	43.82
602.296	44.37
602.632	44.14
602.968	44.38
603.304	44.42
603.64	44.4
603.976	44.24
604.312	44.21
604.648	44.48
604.984	44.36
605.319	44.31
605.655	44.07
605.991	43.99
606.326	43.99
606.662	43.87
606.998	43.67
607.333	43.93
607.668	43.85
608.004	44.24
608.339	44.07
608.674	44.43
609.01	44.72
609.345	44.75
609.68	45.07
610.015	45.03
610.35	44.82
610.685	45.28
611.02	45.14
611.355	44.47
611.689	44.66
612.024	44.58
612.359	44.72
612.694	44.65
613.028	44.64
613.363	44.63
613.697	44.8
614.032	44.94
614.366	45.19
614.7	45.26
615.035	45.39
615.369	45.45
615.703	45.48
616.037	45.34
616.371	45.35
616.705	45.36
617.039	45.67
617.373	45.81
617.707	45.65
618.041	45.75
618.375	45.89
618.709	45.94
619.042	46.05
619.376	46.01
619.71	46.01
620.043	45.92
620.377	46.25
620.71	46.16
621.043	46.18
621.377	46.4
621.71	45.67
622.043	45.73
622.376	46.01
622.709	46.19
623.043	45.9
623.376	45.7
623.709	46.33
624.041	46.24
624.374	46.26
624.707	46.15
625.04	46.84
625.373	46.23
625.705	46.52
626.038	46.46
626.37	46.95
626.703	46.88
627.035	46.41
627.368	46.57
627.7	46.78
628.032	46.77
628.365	46.43
628.697	46.88
629.029	46.09
629.361	46.34
629.693	46.33
630.025	46.52
630.357	46.42
630.689	46.52
631.021	46.68
631.353	46.67
631.684	46.69
632.016	46.83
632.348	47.38
632.679	47.07
633.011	47.17
633.342	47
633.674	47.47
634.005	46.81
634.336	47.49
634.668	47.43
634.999	47.26
635.33	48.13
635.661	47.27
635.992	47.27
636.323	47.57
636.654	47.22
636.985	47.32
637.316	47.27
637.647	47.55
637.977	47.73
638.308	47.53
638.639	47.52
638.969	47.66
639.3	47.46
639.63	48.08
639.961	47.4
640.291	47.61
640.622	48.29
640.952	48.09
641.282	47.27
641.612	47.32
641.943	47.83
642.273	48
642.603	48.17
642.933	47.73
643.263	47.67
643.592	48.11
643.922	48.32
644.252	48.37
644.582	48.09
644.911	48.53
645.241	48.64
645.571	48.07
645.9	48.7
646.23	48.15
646.559	48.49
646.888	48.81
647.218	49.13
647.547	48.32
647.876	48.72
648.205	48.36
648.534	48.58
648.863	48.51
649.192	48.22
649.521	48.03
649.85	48.79
650.179	48.64
650.508	48.52
650.837	49.39
651.165	48.55
651.494	48.99
651.822	48.6
652.151	47.86
652.479	48.97
652.808	48.5
653.136	48.7
653.465	48.82
653.793	48.45
654.121	49.16
654.449	48.62
654.777	49.2
655.105	48.99
655.433	49.32
655.761	49.38
656.089	49.18
656.417	49.25
656.745	49.55
657.073	49.37
657.4	49.92
657.728	49.59
658.056	49.18
658.383	49.07
658.711	49.71
659.038	49.4
659.365	49.44
659.693	49.57
660.02	49.41
660.347	49.41
660.674	49.3
661.001	49.39
661.329	49.34
661.656	49.14
661.982	49.17
662.309	49.5
662.636	49.48
662.963	49.67
663.29	49.79
663.616	49.62
663.943	50.09
664.27	50.43
664.596	49.53
664.923	49.42
665.249	50.17
665.576	49.78
665.902	49.4
666.228	50.65
666.554	50.28
666.881	50.42
667.207	50.67
667.533	49.97
667.859	50.03
668.185	49.87
668.511	50.86
668.837	49.95
669.162	50.04
669.488	49.97
669.814	50.22
670.139	50.48
670.465	50.61
670.791	50.24
671.116	51.09
671.442	50.78
