Data from 0112_crown_Reflection__3__198.txt Node

Date: Fri Sep 22 22:26:15 CDT 2023
User: ToomeyLab
Spectrometer: FLMS14357
Trigger mode: 0
Integration Time (sec): 1.000000E-2
Scans to average: 100
Electric dark correction enabled: true
Nonlinearity correction enabled: false
Boxcar width: 0
XAxis mode: Wavelengths
Number of Pixels in Spectrum: 2048
>>>>>Begin Spectral Data<<<<<
189.047	83.99
189.435	83.99
189.823	83.99
190.211	331.14
190.599	52.37
190.987	2665.03
191.375	183.16
191.763	-175.4
192.151	36.3
192.538	653.49
192.926	120.7
193.314	122.25
193.702	558.02
194.089	131.35
194.477	-33.98
194.864	112.64
195.252	398.7
195.639	-236.08
196.027	1021.95
196.414	-203.15
196.801	-608.04
197.189	11.03
197.576	2019.9
197.963	-119.55
198.351	-24.22
198.738	-1.9
199.125	0.17
199.512	-23.1
199.899	19.1
200.286	70.31
200.673	3.21
201.06	23.59
201.447	39.83
201.833	5.22
202.22	63.54
202.607	43.9
202.994	48.43
203.38	19.11
203.767	30.9
204.154	27.85
204.54	8.41
204.927	24.68
205.313	33.38
205.699	32.89
206.086	31.57
206.472	53.16
206.858	27.44
207.245	11.96
207.631	44.98
208.017	19
208.403	20.16
208.789	43.16
209.175	42.87
209.561	42.89
209.947	46.05
210.333	10.56
210.719	-10.86
211.105	60.02
211.491	9.19
211.876	27.03
212.262	7.45
212.648	-3.49
213.034	32.34
213.419	42.2
213.805	34.23
214.19	17.43
214.576	11.76
214.961	28.02
215.346	11.8
215.732	51.48
216.117	3.45
216.502	39.21
216.888	27.97
217.273	32.4
217.658	10.57
218.043	17.27
218.428	44.3
218.813	11.36
219.198	15.97
219.583	11.28
219.968	-17.79
220.353	46.5
220.738	20.5
221.122	-7.12
221.507	-1.65
221.892	12.94
222.276	29.94
222.661	-20.05
223.046	2.97
223.43	28.95
223.815	-3.19
224.199	5.13
224.583	6.01
224.968	15.91
225.352	7.71
225.736	3.46
226.121	12.27
226.505	1.93
226.889	8.47
227.273	6.79
227.657	1.75
228.041	0.04
228.425	7.88
228.809	0.92
229.193	6.12
229.577	5.82
229.961	3.65
230.344	4.6
230.728	1.54
231.112	2.35
231.495	1.64
231.879	3.28
232.263	1.89
232.646	2.49
233.03	2.41
233.413	1.28
233.797	3.42
234.18	1.82
234.563	7.44
234.946	5.82
235.33	-0.09
235.713	3.78
236.096	1.14
236.479	2.09
236.862	5.32
237.245	1.82
237.628	1.82
238.011	3.37
238.394	3.89
238.777	4.1
239.16	3.15
239.543	1.5
239.925	2.86
240.308	3.51
240.691	2.25
241.073	2.11
241.456	3.31
241.838	0.5
242.221	2.5
242.603	2.35
242.986	2.24
243.368	1.18
243.75	2.56
244.133	2.5
244.515	2.27
244.897	1.88
245.279	2.09
245.661	1.59
246.043	2.46
246.425	1.84
246.807	1.99
247.189	1.33
247.571	2.26
247.953	2.09
248.335	2.59
248.717	1.82
249.098	2.19
249.48	2.04
249.862	1.94
250.243	2.13
250.625	2.09
251.006	1.7
251.388	2.25
251.769	2.34
252.151	1.63
252.532	1.73
252.913	2.05
253.295	3.61
253.676	2.35
254.057	2.68
254.438	2.53
254.819	2.22
255.2	2.61
255.581	2.19
255.962	3.89
256.343	2.29
256.724	2.45
257.105	3.06
257.486	2.59
257.867	1.86
258.247	2.13
258.628	1.94
259.009	1.89
259.389	2.28
259.77	2.46
260.15	2.59
260.531	1.6
260.911	1.83
261.292	2.13
261.672	1.82
262.052	2.03
262.432	1.97
262.813	2.09
263.193	1.57
263.573	2.42
263.953	1.73
264.333	1.75
264.713	1.47
265.093	1.72
265.473	2.15
265.853	1.76
266.233	1.78
266.612	2.65
266.992	1.84
267.372	2.02
267.752	2.21
268.131	1.72
268.511	1.94
268.89	2.1
269.27	1.86
269.649	2.14
270.029	1.64
270.408	1.98
270.787	1.41
271.167	1.61
271.546	1.22
271.925	1.89
272.304	1.54
272.683	1.88
273.062	2.19
273.441	2.1
273.82	2.64
274.199	1.95
274.578	2.36
274.957	2.06
275.336	2.11
275.715	1.86
276.093	1.48
276.472	1.41
276.851	1.63
277.229	1.55
277.608	2.4
277.986	2.39
278.365	2.23
278.743	2.05
279.122	1.6
279.5	2.5
279.878	1.87
280.257	1.88
280.635	1.94
281.013	2.81
281.391	1.63
281.769	1.74
282.147	2.08
282.525	1.73
282.903	1.86
283.281	1.74
283.659	2
284.037	1.49
284.415	2.24
284.792	1.89
285.17	1.64
285.548	2.39
285.925	1.9
286.303	2.13
286.68	2
287.058	2.02
287.435	1.82
287.813	1.72
288.19	1.5
288.567	1.91
288.945	1.69
289.322	1.72
289.699	1.76
290.076	2.21
290.453	1.25
290.83	1.78
291.207	1.45
291.584	2.08
291.961	1.64
292.338	1.86
292.715	2.11
293.092	1.84
293.469	1.87
293.845	1.71
294.222	1.99
294.599	1.99
294.975	2.15
295.352	1.7
295.728	1.71
296.105	1.84
296.481	1.95
296.858	2
297.234	2.3
297.61	2.19
297.986	1.93
298.363	2.06
298.739	2.05
299.115	2.23
299.491	2.04
299.867	1.97
300.243	1.56
300.619	1.69
300.995	1.95
301.371	2.27
301.746	1.88
302.122	1.76
302.498	1.64
302.874	1.68
303.249	1.89
303.625	1.66
304	2.41
304.376	2.19
304.751	2.27
305.127	1.97
305.502	2.03
305.878	1.67
306.253	1.94
306.628	2.28
307.003	1.97
307.378	1.65
307.754	2.09
308.129	2.21
308.504	2.04
308.879	2.06
309.254	2.17
309.629	1.85
310.003	2.55
310.378	2.8
310.753	2.5
311.128	2.04
311.502	2.2
311.877	1.58
312.252	2.37
312.626	1.94
313.001	2.23
313.375	2
313.75	2.12
314.124	2.43
314.498	2.32
314.873	1.97
315.247	2.37
315.621	1.63
315.995	2.21
316.369	1.82
316.743	1.94
317.117	2.05
317.491	2.4
317.865	1.38
318.239	2.17
318.613	2.68
318.987	2.25
319.361	1.92
319.734	1.61
320.108	2.38
320.482	1.69
320.855	2.2
321.229	2
321.602	2.53
321.976	1.87
322.349	2.48
322.723	2.43
323.096	2.2
323.469	2.26
323.843	2.35
324.216	1.92
324.589	2.02
324.962	1.61
325.335	1.99
325.708	1.69
326.081	2.77
326.454	2.06
326.827	2.15
327.2	2.45
327.573	2.52
327.945	2.32
328.318	2.43
328.691	2.36
329.063	1.84
329.436	2.24
329.809	2.44
330.181	1.82
330.553	2.71
330.926	2.48
331.298	2.63
331.671	2.41
332.043	1.7
332.415	1.92
332.787	2.42
333.159	1.96
333.532	1.58
333.904	1.68
334.276	1.72
334.648	1.67
335.02	2.11
335.391	2.45
335.763	1.96
336.135	2.28
336.507	2.1
336.879	2.18
337.25	2.38
337.622	2.17
337.993	2.5
338.365	2.9
338.736	2.4
339.108	2.33
339.479	2.47
339.851	2.01
340.222	1.93
340.593	1.94
340.964	1.5
341.336	2.01
341.707	2.05
342.078	1.94
342.449	2.07
342.82	2.27
343.191	1.84
343.562	2.14
343.933	2
344.303	2.24
344.674	1.95
345.045	2.17
345.416	2.15
345.786	2.02
346.157	1.94
346.527	2.06
346.898	1.69
347.268	1.73
347.639	2.07
348.009	1.92
348.38	2.11
348.75	2.17
349.12	2.14
349.49	2.43
349.861	1.99
350.231	2.16
350.601	2.15
350.971	2.36
351.341	2.09
351.711	1.94
352.081	1.7
352.45	2.25
352.82	2.02
353.19	2.08
353.56	1.56
353.929	2.28
354.299	2.23
354.669	1.87
355.038	2.02
355.408	2.03
355.777	2.55
356.147	2.16
356.516	2.18
356.885	2.09
357.254	2.46
357.624	1.71
357.993	2.39
358.362	2.11
358.731	2.14
359.1	1.89
359.469	1.93
359.838	1.87
360.207	1.98
360.576	2.37
360.945	1.67
361.314	2.04
361.682	2.38
362.051	2.2
362.42	1.82
362.788	1.97
363.157	2.06
363.525	1.91
363.894	1.87
364.262	2.03
364.631	1.87
364.999	1.71
365.367	2.26
365.735	1.91
366.104	1.96
366.472	2.41
366.84	1.54
367.208	2.3
367.576	2.16
367.944	1.84
368.312	2.23
368.68	2.2
369.048	2.2
369.416	2.05
369.783	1.95
370.151	2.02
370.519	2.06
370.886	2.2
371.254	2.27
371.621	1.8
371.989	2.23
372.356	1.94
372.724	1.95
373.091	2.04
373.458	2.08
373.826	2.24
374.193	2.2
374.56	2.32
374.927	2.05
375.294	2.2
375.661	1.94
376.028	2.32
376.395	2.33
376.762	2.18
377.129	2.08
377.496	2.18
377.863	2.21
378.229	1.99
378.596	2.29
378.963	2.52
379.329	2.18
379.696	2.25
380.062	1.69
380.429	2.3
380.795	2.1
381.161	2.1
381.528	1.79
381.894	1.68
382.26	2.07
382.626	2.16
382.993	2.28
383.359	1.99
383.725	2.34
384.091	2.07
384.457	1.95
384.823	1.93
385.188	2.04
385.554	2.4
385.92	2.2
386.286	2.16
386.651	2.19
387.017	2.09
387.383	2.02
387.748	2
388.114	2.2
388.479	2.14
388.845	1.94
389.21	1.94
389.575	2.21
389.94	1.79
390.306	2.14
390.671	2.47
391.036	1.93
391.401	2.01
391.766	1.75
392.131	2.31
392.496	2.12
392.861	2.1
393.226	2.19
393.591	2.23
393.956	2.07
394.32	2.07
394.685	2.11
395.05	2.41
395.414	2.28
395.779	2.2
396.143	2
396.508	2.08
396.872	2.1
397.236	2.08
397.601	2.12
397.965	2.34
398.329	2.18
398.694	1.95
399.058	2.19
399.422	1.9
399.786	2.36
400.15	2.22
400.514	2.12
400.878	2.13
401.242	2.09
401.605	2.17
401.969	1.69
402.333	2.26
402.697	1.99
403.06	2.06
403.424	2.11
403.787	2.22
404.151	2.28
404.514	2.11
404.878	2.32
405.241	2.5
405.604	2.22
405.968	2.1
406.331	2.13
406.694	2.26
407.057	1.99
407.42	2.19
407.783	2.18
408.146	2.07
408.509	2.14
408.872	2.21
409.235	2.06
409.598	2.32
409.961	2.38
410.323	2.38
410.686	2.35
411.049	2.61
411.411	2.28
411.774	2.02
412.136	2.38
412.499	2.24
412.861	2.34
413.223	2.28
413.586	2.12
413.948	2.24
414.31	2.15
414.672	2.33
415.035	2.02
415.397	2.52
415.759	2.87
416.121	2.4
416.483	2.15
416.845	2.03
417.206	2.07
417.568	2.07
417.93	2.02
418.292	2.12
418.653	2.01
419.015	2.16
419.377	2
419.738	2.17
420.1	2.14
420.461	2.13
420.822	2.08
421.184	2.11
421.545	2.13
421.906	2.01
422.267	2.04
422.629	2.15
422.99	2.1
423.351	2.1
423.712	2.05
424.073	2.05
424.434	2.16
424.795	2.07
425.155	2.13
425.516	2.07
425.877	2.09
426.238	1.99
426.598	2.12
426.959	2.05
427.32	2.07
427.68	2.08
428.041	2.04
428.401	2.17
428.761	2.25
429.122	2.06
429.482	2.29
429.842	2.17
430.202	2.1
430.563	2.39
430.923	2.23
431.283	2.36
431.643	2.27
432.003	2.26
432.363	2.38
432.722	2.36
433.082	2.33
433.442	2.13
433.802	2.35
434.161	2.24
434.521	2.28
434.881	2.27
435.24	2.24
435.6	2.02
435.959	2.17
436.319	2.15
436.678	2.27
437.037	2.28
437.396	2.24
437.756	2.36
438.115	2.4
438.474	2.15
438.833	2.3
439.192	2.22
439.551	2.21
439.91	2.35
440.269	2.37
440.628	2.04
440.987	2.26
441.345	2.36
441.704	2.29
442.063	2.25
442.421	2.33
442.78	2.21
443.138	2.16
443.497	2.28
443.855	2.29
444.214	2.08
444.572	2.4
444.93	2.2
445.288	2.2
445.647	2.34
446.005	2.22
446.363	2.2
446.721	2.31
447.079	2.08
447.437	2.25
447.795	2.28
448.153	2.17
448.51	2.23
448.868	2.19
449.226	2.26
449.584	2.18
449.941	2.21
450.299	2.32
450.656	2.35
451.014	2.31
451.371	2.33
451.729	2.22
452.086	2.29
452.443	2.32
452.801	2.27
453.158	2.31
453.515	2.44
453.872	2.29
454.229	2.35
454.586	2.32
454.943	2.29
455.3	2.37
455.657	2.41
456.014	2.35
456.371	2.43
456.727	2.64
457.084	2.42
457.441	2.25
457.797	2.23
458.154	2.39
458.51	2.36
458.867	2.3
459.223	2.31
459.58	2.57
459.936	2.47
460.292	2.42
460.648	2.42
461.005	2.38
461.361	2.42
461.717	2.18
462.073	2.29
462.429	2.21
462.785	2.35
463.141	2.34
463.496	2.47
463.852	2.42
464.208	2.27
464.564	2.49
464.919	2.32
465.275	2.59
465.631	2.53
465.986	2.57
466.342	2.52
466.697	2.48
467.052	2.35
467.408	2.41
467.763	2.44
468.118	2.6
468.473	2.36
468.829	2.29
469.184	2.28
469.539	2.49
469.894	2.31
470.249	2.49
470.603	2.41
470.958	2.38
471.313	2.52
471.668	2.52
472.023	2.56
472.377	2.41
472.732	2.38
473.086	2.6
473.441	2.32
473.795	2.63
474.15	2.48
474.504	2.36
474.859	2.62
475.213	2.28
475.567	2.47
475.921	2.54
476.275	2.57
476.63	2.36
476.984	2.43
477.338	2.64
477.692	2.63
478.045	2.56
478.399	2.63
478.753	2.43
479.107	2.45
479.461	2.47
479.814	2.59
480.168	2.5
480.521	2.63
480.875	2.61
481.228	2.45
481.582	2.27
481.935	2.52
482.289	2.45
482.642	2.42
482.995	2.49
483.348	2.5
483.701	2.41
484.055	2.45
484.408	2.48
484.761	2.45
485.114	2.25
485.466	2.28
485.819	2.3
486.172	2.25
486.525	2.23
486.878	2.3
487.23	2.34
487.583	2.43
487.936	2.39
488.288	2.4
488.641	2.37
488.993	2.36
489.345	2.34
489.698	2.34
490.05	2.3
490.402	2.36
490.754	2.32
491.107	2.31
491.459	2.44
491.811	2.42
492.163	2.45
492.515	2.49
492.866	2.42
493.218	2.46
493.57	2.47
493.922	2.36
494.274	2.39
494.625	2.4
494.977	2.51
495.328	2.53
495.68	2.57
496.031	2.49
496.383	2.58
496.734	2.6
497.086	2.53
497.437	2.61
497.788	2.58
498.139	2.63
498.49	2.61
498.842	2.43
499.193	2.44
499.544	2.59
499.894	2.55
500.245	2.6
500.596	2.51
500.947	2.6
501.298	2.7
501.648	2.62
501.999	2.57
502.35	2.7
502.7	2.69
503.051	2.71
503.401	2.62
503.752	2.6
504.102	2.68
504.452	2.62
504.803	2.68
505.153	2.64
505.503	2.66
505.853	2.6
506.203	2.61
506.553	2.66
506.903	2.68
507.253	2.57
507.603	2.63
507.953	2.73
508.303	2.71
508.652	2.61
509.002	2.8
509.352	2.68
509.701	2.73
510.051	2.68
510.4	2.69
510.75	2.57
511.099	2.53
511.449	2.77
511.798	2.75
512.147	2.72
512.496	2.57
512.846	2.69
513.195	2.69
513.544	2.64
513.893	2.82
514.242	2.66
514.591	2.61
514.939	2.76
515.288	2.6
515.637	2.68
515.986	2.71
516.334	2.69
516.683	2.71
517.032	2.85
517.38	2.74
517.729	2.74
518.077	2.79
518.426	2.78
518.774	2.81
519.122	2.63
519.47	2.66
519.819	2.61
520.167	2.71
520.515	2.65
520.863	2.57
521.211	2.72
521.559	2.68
521.907	2.71
522.255	2.72
522.602	2.75
522.95	2.74
523.298	2.78
523.645	2.82
523.993	2.71
524.341	2.65
524.688	2.89
525.036	2.74
525.383	2.79
525.73	2.88
526.078	2.8
526.425	2.71
526.772	2.8
527.119	2.75
527.466	2.69
527.814	2.65
528.161	2.62
528.508	2.68
528.854	2.71
529.201	2.78
529.548	2.74
529.895	2.62
530.242	2.61
530.588	2.56
530.935	2.52
531.282	2.54
531.628	2.66
531.975	2.65
532.321	2.68
532.667	2.68
533.014	2.74
533.36	2.76
533.706	2.71
534.052	2.8
534.399	2.8
534.745	2.76
535.091	2.71
535.437	2.7
535.783	2.59
536.129	2.66
536.474	2.76
536.82	2.66
537.166	2.85
537.512	2.81
537.857	2.77
538.203	2.93
538.549	2.73
538.894	2.7
539.239	2.74
539.585	2.75
539.93	2.85
540.276	2.97
540.621	2.85
540.966	2.83
541.311	2.84
541.656	2.81
542.001	2.83
542.346	2.92
542.691	2.92
543.036	2.79
543.381	2.68
543.726	2.67
544.071	2.69
544.415	2.72
544.76	2.77
545.105	2.72
545.449	2.76
545.794	2.8
546.138	2.79
546.483	2.81
546.827	2.77
547.171	2.8
547.516	2.96
547.86	2.95
548.204	2.89
548.548	2.88
548.892	2.88
549.236	2.88
549.58	3
549.924	2.89
550.268	3.04
550.612	2.98
550.956	2.99
551.3	3.01
551.643	2.96
551.987	3.07
552.33	3.08
552.674	2.91
553.017	2.82
553.361	3.07
553.704	3.04
554.048	3.11
554.391	3.04
554.734	3.02
555.077	2.85
555.42	2.98
555.764	2.99
556.107	2.92
556.45	3.03
556.793	2.88
557.135	2.94
557.478	2.97
557.821	3.05
558.164	3.24
558.507	3.24
558.849	2.94
559.192	3.06
559.534	3.17
559.877	2.98
560.219	3.06
560.562	3.18
560.904	3.07
561.246	3.31
561.589	3.14
561.931	3.19
562.273	2.97
562.615	2.99
562.957	2.94
563.299	3.08
563.641	3.16
563.983	3.17
564.325	3.22
564.667	3.21
565.008	3.08
565.35	3.04
565.692	3.28
566.033	2.95
566.375	3.3
566.716	3.24
567.058	3.11
567.399	3.15
567.741	3.27
568.082	3.07
568.423	3.08
568.764	3.29
569.105	3.09
569.447	3.1
569.788	3.04
570.129	3.11
570.47	3.3
570.811	3.12
571.151	3.23
571.492	3.14
571.833	3.04
572.174	3.17
572.514	3.24
572.855	3.17
573.195	3.01
573.536	3.26
573.876	3.12
574.217	2.94
574.557	3.01
574.898	3.11
575.238	3.08
575.578	3.3
575.918	3.13
576.258	3.02
576.598	3.21
576.938	3.15
577.278	3.17
577.618	2.96
577.958	3.11
578.298	3.24
578.638	3.11
578.977	3.29
579.317	3.13
579.657	3.12
579.996	3.21
580.336	3.23
580.675	3.22
581.014	3.1
581.354	3.17
581.693	3.36
582.032	3.3
582.372	3.23
582.711	3.33
583.05	3.21
583.389	3.24
583.728	3.18
584.067	3.28
584.406	3.26
584.745	3.01
585.083	3.54
585.422	3.59
585.761	3.2
586.1	3.44
586.438	3.09
586.777	3.48
587.115	3.41
587.454	3.2
587.792	3.54
588.13	3.44
588.469	3.46
588.807	3.34
589.145	3.39
589.483	3.34
589.821	3.32
590.159	3.43
590.497	3.43
590.835	3.51
591.173	3.44
591.511	3.5
591.849	3.53
592.187	3.39
592.524	3.53
592.862	3.31
593.2	3.25
593.537	3.28
593.875	3.44
594.212	3.45
594.55	3.51
594.887	3.28
595.224	3.38
595.561	3.67
595.899	3.62
596.236	3.66
596.573	3.54
596.91	3.5
597.247	3.24
597.584	3.77
597.921	3.64
598.258	3.62
598.594	3.43
598.931	3.42
599.268	3.29
599.604	3.41
599.941	3.51
600.277	3.25
600.614	3.4
600.95	3.4
601.287	3.38
601.623	3.48
601.959	3.65
602.296	3.74
602.632	3.27
602.968	3.42
603.304	3.5
603.64	3.45
603.976	3.61
604.312	3.58
604.648	3.55
604.984	3.73
605.319	3.43
605.655	3.35
605.991	3.62
606.326	3.59
606.662	3.33
606.998	3.27
607.333	3.46
607.668	3.38
608.004	3.64
608.339	3.47
608.674	3.54
609.01	3.44
609.345	3.54
609.68	3.7
610.015	3.47
610.35	3.52
610.685	3.97
611.02	3.42
611.355	3.7
611.689	3.5
612.024	3.66
612.359	3.56
612.694	3.68
613.028	3.41
613.363	3.48
613.697	3.42
614.032	3.67
614.366	3.34
614.7	3.65
615.035	3.57
615.369	3.44
615.703	3.75
616.037	3.58
616.371	3.93
616.705	3.81
617.039	3.79
617.373	3.5
617.707	3.48
618.041	3.9
618.375	3.35
618.709	3.53
619.042	3.81
619.376	3.98
619.71	4.03
620.043	3.74
620.377	3.59
620.71	3.75
621.043	3.87
621.377	3.73
621.71	3.83
622.043	3.67
622.376	3.77
622.709	3.78
623.043	3.77
623.376	4.21
623.709	4.04
624.041	3.84
624.374	4.04
624.707	4
625.04	3.97
625.373	3.37
625.705	3.69
626.038	3.65
626.37	3.85
626.703	3.93
627.035	3.76
627.368	3.93
627.7	3.99
628.032	3.73
628.365	3.9
628.697	3.7
629.029	3.86
629.361	3.68
629.693	3.84
630.025	3.74
630.357	3.83
630.689	3.66
631.021	3.64
631.353	3.63
631.684	3.71
632.016	3.96
632.348	3.93
632.679	3.95
633.011	3.54
633.342	4.1
633.674	4.24
634.005	3.78
634.336	4.32
634.668	4.08
634.999	4.05
635.33	4.04
635.661	4
635.992	3.68
636.323	3.88
636.654	3.83
636.985	3.67
637.316	3.79
637.647	3.94
637.977	3.57
638.308	4.17
638.639	3.78
638.969	4.14
639.3	3.84
639.63	3.93
639.961	3.83
640.291	3.93
640.622	4
640.952	3.92
641.282	3.78
641.612	3.91
641.943	4.33
642.273	4
642.603	3.52
642.933	3.72
643.263	3.4
643.592	4.05
643.922	4.15
644.252	3.82
644.582	4.8
644.911	4.1
645.241	4.18
645.571	3.84
645.9	4.14
646.23	4.4
646.559	4.22
646.888	4.28
647.218	4.13
647.547	3.84
647.876	4.24
648.205	3.94
648.534	4.27
648.863	4.03
649.192	4.02
649.521	4.04
649.85	4.04
650.179	4.1
650.508	4.1
650.837	4.46
651.165	4.14
651.494	4
651.822	3.98
652.151	4.34
652.479	4.16
652.808	3.68
653.136	4.49
653.465	4.38
653.793	3.98
654.121	4.48
654.449	3.91
654.777	4.12
655.105	4.48
655.433	5.03
655.761	4.28
656.089	4.34
656.417	4.34
656.745	4.51
657.073	4.51
657.4	4.54
657.728	4.15
658.056	4.38
658.383	4.31
658.711	4.21
659.038	3.95
659.365	4.05
659.693	3.98
660.02	4.36
660.347	4.39
660.674	3.88
661.001	4.15
661.329	4.31
661.656	4.37
661.982	4.1
662.309	4.6
662.636	4.35
662.963	4.72
663.29	4.35
663.616	4.45
663.943	4.69
664.27	4.79
664.596	4.48
664.923	4.17
665.249	4.08
665.576	3.79
665.902	4.57
666.228	4.39
666.554	4.01
666.881	4.78
667.207	4.33
667.533	4.44
667.859	4.32
668.185	4.93
668.511	4.73
668.837	4.6
669.162	4.55
669.488	4.39
669.814	4.09
670.139	4.37
670.465	4.55
670.791	4.77
671.116	4.07
671.442	4.63
671.767	4.03
672.092	4.2
672.418	5.61
672.743	4.95
673.068	5
673.393	4.35
673.718	4.55
674.043	4.99
674.368	4.42
674.693	4.63
675.018	4.53
675.343	4.84
675.667	4.88
675.992	4.38
676.317	5.49
676.641	4.54
676.966	4.98
677.29	4.65
677.615	4.54
677.939	4.91
678.264	4.89
678.588	4.77
678.912	4.64
679.236	4.73
679.56	4.63
679.885	4.73
680.209	5.52
680.532	4.5
680.856	4.38
681.18	4.86
681.504	5.17
681.828	5.39
682.152	4.9
682.475	5.29
682.799	5.06
683.122	4.59
683.446	4.73
683.769	5.21
684.093	5.33
684.416	5.22
684.739	5.46
685.062	5.31
685.386	4.54
685.709	4.82
686.032	4.11
686.355	4.92
686.678	5.08
687.001	4.8
687.324	5.49
687.646	4.99
687.969	5.39
688.292	4.72
688.614	5.26
688.937	4.86
689.26	5.31
689.582	4.83
689.904	5.27
690.227	5.45
690.549	5.86
690.871	4.59
691.194	5.54
691.516	5.13
691.838	5.01
692.16	4.53
692.482	5.34
692.804	4.74
693.126	4.52
