Data from 0112_forehead_Reflection__2__202.txt Node

Date: Fri Sep 22 22:27:15 CDT 2023
User: ToomeyLab
Spectrometer: FLMS14357
Trigger mode: 0
Integration Time (sec): 1.000000E-2
Scans to average: 100
Electric dark correction enabled: true
Nonlinearity correction enabled: false
Boxcar width: 0
XAxis mode: Wavelengths
Number of Pixels in Spectrum: 2048
>>>>>Begin Spectral Data<<<<<
189.047	161.08
189.435	161.08
189.823	161.08
190.211	-272.62
190.599	204.89
190.987	1748.09
191.375	309.64
191.763	-68.06
192.151	136.4
192.538	-449.68
192.926	346
193.314	-112.77
193.702	754.78
194.089	64.75
194.477	76.95
194.864	53.83
195.252	119
195.639	-579.04
196.027	11631.71
196.414	-175.74
196.801	-802.89
197.189	-22.67
197.576	1568.3
197.963	-139.55
198.351	47.23
198.738	32.24
199.125	85.92
199.512	39.82
199.899	34.36
200.286	50.63
200.673	6.23
201.06	73.52
201.447	60.95
201.833	29.56
202.22	97.52
202.607	64.17
202.994	43.84
203.38	50.68
203.767	27.78
204.154	53.23
204.54	45.91
204.927	14.63
205.313	29.79
205.699	49.11
206.086	87.34
206.472	65.07
206.858	34.54
207.245	8.05
207.631	62.82
208.017	30.29
208.403	27.33
208.789	43
209.175	59.35
209.561	48.69
209.947	32.9
210.333	30.56
210.719	39.02
211.105	65.19
211.491	30.74
211.876	29.85
212.262	25.06
212.648	82.3
213.034	45.57
213.419	64.14
213.805	2.21
214.19	46.17
214.576	58.81
214.961	2.89
215.346	41.16
215.732	45.06
216.117	41.87
216.502	63.43
216.888	35.79
217.273	70.62
217.658	5.71
218.043	45.06
218.428	43.43
218.813	15.45
219.198	35.99
219.583	45.36
219.968	19.53
220.353	49.54
220.738	28.86
221.122	26.76
221.507	10.77
221.892	23.37
222.276	30.11
222.661	4.07
223.046	31.39
223.43	40.78
223.815	18.15
224.199	8.95
224.583	18.38
224.968	30.91
225.352	7.05
225.736	21.2
226.121	8.66
226.505	14.59
226.889	16.88
227.273	10.16
227.657	10.6
228.041	8.17
228.425	14.03
228.809	6.78
229.193	3.88
229.577	5.14
229.961	8.52
230.344	6.06
230.728	2.64
231.112	4.2
231.495	3.69
231.879	4.15
232.263	1.42
232.646	4.36
233.03	4.86
233.413	4.93
233.797	5.57
234.18	4.31
234.563	4.8
234.946	4.03
235.33	2.7
235.713	3.07
236.096	4.09
236.479	2.86
236.862	6.74
237.245	4.73
237.628	4.39
238.011	6.53
238.394	6.54
238.777	5.44
239.16	5.6
239.543	6.07
239.925	4.82
240.308	4.74
240.691	4.15
241.073	5.78
241.456	5.21
241.838	3.09
242.221	3.35
242.603	4.21
242.986	4.06
243.368	3.79
243.75	3.98
244.133	4.05
244.515	3.37
244.897	3.38
245.279	3.44
245.661	3.79
246.043	4.35
246.425	3.6
246.807	4.02
247.189	2.32
247.571	3.81
247.953	4.74
248.335	3.99
248.717	3.83
249.098	3.62
249.48	3.29
249.862	3.34
250.243	3.43
250.625	3.9
251.006	3.38
251.388	3.72
251.769	3.98
252.151	3.84
252.532	3.66
252.913	4.29
253.295	5.48
253.676	3.79
254.057	3.99
254.438	4.04
254.819	3.63
255.2	3.98
255.581	3.6
255.962	4.47
256.343	4.7
256.724	3.41
257.105	4.01
257.486	4.13
257.867	4.31
258.247	3.98
258.628	3.99
259.009	4.84
259.389	2.85
259.77	4.69
260.15	4.74
260.531	3.8
260.911	3.62
261.292	3.73
261.672	3.28
262.052	3.53
262.432	3.43
262.813	3.39
263.193	3.16
263.573	3.86
263.953	3.77
264.333	3.78
264.713	3.9
265.093	3.6
265.473	3.44
265.853	3.68
266.233	4.79
266.612	3.72
266.992	4.74
267.372	4.46
267.752	4.81
268.131	2.75
268.511	3.82
268.89	4.05
269.27	3.27
269.649	3.8
270.029	3.89
270.408	3.84
270.787	3.9
271.167	3.91
271.546	2.97
271.925	3.73
272.304	3.43
272.683	3.25
273.062	4.24
273.441	3.67
273.82	3.75
274.199	3.65
274.578	3.99
274.957	3.17
275.336	3.41
275.715	3.31
276.093	3.26
276.472	3.08
276.851	3.88
277.229	3.33
277.608	3.52
277.986	3.8
278.365	3.55
278.743	4.32
279.122	4.05
279.5	4.07
279.878	2.94
280.257	3.61
280.635	3.48
281.013	4.22
281.391	3.21
281.769	3.27
282.147	3.85
282.525	3.28
282.903	3.61
283.281	3.31
283.659	3.7
284.037	3.46
284.415	3.55
284.792	3.58
285.17	3.55
285.548	4.38
285.925	3.6
286.303	3.11
286.68	3.22
287.058	3.33
287.435	2.96
287.813	3.3
288.19	3.18
288.567	3.29
288.945	3.28
289.322	2.98
289.699	3.46
290.076	4.11
290.453	2.66
290.83	3.83
291.207	3.39
291.584	3.28
291.961	3.32
292.338	3.45
292.715	3.75
293.092	3.37
293.469	3.76
293.845	3.33
294.222	3.74
294.599	3.62
294.975	3.92
295.352	3.8
295.728	3.63
296.105	3.89
296.481	3.8
296.858	4.15
297.234	3.78
297.61	4.3
297.986	3.56
298.363	3.75
298.739	3.62
299.115	3.87
299.491	3.83
299.867	3.93
300.243	3.94
300.619	3.65
300.995	3.67
301.371	4.79
301.746	3.92
302.122	3.83
302.498	3.76
302.874	3.96
303.249	3.99
303.625	3.84
304	4.59
304.376	4.42
304.751	4.33
305.127	4.01
305.502	4.61
305.878	4.4
306.253	4.47
306.628	4.19
307.003	4.39
307.378	4.48
307.754	4.51
308.129	4.2
308.504	4.71
308.879	4.19
309.254	4.84
309.629	4.48
310.003	4.92
310.378	5.11
310.753	4.75
311.128	4.9
311.502	4.82
311.877	4.41
312.252	4.65
312.626	4.73
313.001	4.98
313.375	4.87
313.75	5.24
314.124	5.32
314.498	4.93
314.873	5.07
315.247	5.07
315.621	5.22
315.995	5.1
316.369	5.24
316.743	5.53
317.117	5.17
317.491	5.55
317.865	4.99
318.239	5.89
318.613	5.81
318.987	5.49
319.361	5.17
319.734	5.94
320.108	5.58
320.482	5.82
320.855	5.09
321.229	6.22
321.602	6.22
321.976	5.89
322.349	5.79
322.723	5.95
323.096	6.28
323.469	5.87
323.843	5.95
324.216	6.74
324.589	6.14
324.962	5.8
325.335	6.05
325.708	5.74
326.081	6.54
326.454	5.09
326.827	5.81
327.2	5.89
327.573	6.65
327.945	6.09
328.318	6.21
328.691	6.61
329.063	6.13
329.436	6.4
329.809	6.6
330.181	6.42
330.553	6.19
330.926	6.27
331.298	6.57
331.671	6.55
332.043	5.92
332.415	6.55
332.787	6.57
333.159	6.19
333.532	6.54
333.904	6.91
334.276	6.59
334.648	5.93
335.02	6.39
335.391	7.16
335.763	6.84
336.135	6.85
336.507	7.2
336.879	6.82
337.25	6.92
337.622	7.13
337.993	6.97
338.365	7
338.736	7.29
339.108	6.67
339.479	6.89
339.851	6.57
340.222	7.14
340.593	6.62
340.964	7.02
341.336	6.65
341.707	6.58
342.078	7.1
342.449	7.34
342.82	7.24
343.191	6.62
343.562	6.69
343.933	7.32
344.303	7.52
344.674	7.34
345.045	7.49
345.416	7.34
345.786	7.21
346.157	7.11
346.527	7.19
346.898	7.56
347.268	7.46
347.639	7.62
348.009	7.28
348.38	7.68
348.75	7.94
349.12	7.58
349.49	7.95
349.861	7.76
350.231	7.62
350.601	7.95
350.971	7.87
351.341	7.24
351.711	7.86
352.081	7.96
352.45	7.92
352.82	8.3
353.19	8.34
353.56	8.15
353.929	8.6
354.299	8.05
354.669	8.21
355.038	8.15
355.408	8.11
355.777	8.89
356.147	8.48
356.516	8.45
356.885	8.29
357.254	8.54
357.624	8.06
357.993	8.45
358.362	8.51
358.731	8.43
359.1	8.46
359.469	8.87
359.838	8.14
360.207	8.45
360.576	8.72
360.945	8.67
361.314	8.71
361.682	9.01
362.051	8.31
362.42	8.86
362.788	8.6
363.157	8.81
363.525	8.66
363.894	8.43
364.262	8.84
364.631	8.54
364.999	8.8
365.367	9.21
365.735	8.98
366.104	9.01
366.472	9.5
366.84	9.03
367.208	9.51
367.576	9.63
367.944	9.4
368.312	9.63
368.68	9.38
369.048	9.89
369.416	9.6
369.783	9.18
370.151	9.62
370.519	9.78
370.886	10.02
371.254	9.99
371.621	9.65
371.989	10.04
372.356	9.67
372.724	10.09
373.091	10.29
373.458	9.75
373.826	10.1
374.193	10.3
374.56	10.17
374.927	10.37
375.294	10.07
375.661	9.97
376.028	10.15
376.395	10.5
376.762	10.66
377.129	10.53
377.496	10.63
377.863	10.59
378.229	10.71
378.596	10.33
378.963	10.89
379.329	10.5
379.696	10.71
380.062	10.38
380.429	10.7
380.795	10.96
381.161	10.75
381.528	10.72
381.894	10.19
382.26	10.9
382.626	10.83
382.993	11.17
383.359	10.49
383.725	10.98
384.091	11.58
384.457	10.88
384.823	11.25
385.188	11.11
385.554	11.01
385.92	11.63
386.286	11.14
386.651	11.52
387.017	11.46
387.383	11.2
387.748	11.15
388.114	11.45
388.479	11.67
388.845	11.54
389.21	11.36
389.575	11.73
389.94	11.6
390.306	11.76
390.671	12.13
391.036	11.36
391.401	12.03
391.766	12.04
392.131	11.94
392.496	12.05
392.861	11.99
393.226	11.99
393.591	11.98
393.956	12.12
394.32	12.06
394.685	11.85
395.05	12.3
395.414	12.49
395.779	12.47
396.143	12.46
396.508	12.35
396.872	12.41
397.236	12.67
397.601	12.31
397.965	12.74
398.329	12.45
398.694	12.99
399.058	12.72
399.422	12.77
399.786	12.99
400.15	12.89
400.514	12.97
400.878	13.08
401.242	13.23
401.605	12.99
401.969	12.75
402.333	13.28
402.697	12.97
403.06	13.31
403.424	13.36
403.787	13.4
404.151	13.48
404.514	13.44
404.878	13.7
405.241	13.66
405.604	13.7
405.968	13.7
406.331	13.51
406.694	13.79
407.057	13.53
407.42	13.71
407.783	13.7
408.146	13.47
408.509	13.74
408.872	13.81
409.235	14.05
409.598	14.05
409.961	14.19
410.323	14.17
410.686	14.33
411.049	14.06
411.411	14.33
411.774	14.28
412.136	14.17
412.499	14.37
412.861	14.55
413.223	14.43
413.586	14.32
413.948	14.55
414.31	14.53
414.672	14.75
415.035	14.59
415.397	14.86
415.759	14.9
416.121	14.89
416.483	14.6
416.845	14.8
417.206	14.75
417.568	14.85
417.93	14.92
418.292	14.97
418.653	14.89
419.015	14.92
419.377	14.88
419.738	15.08
420.1	15.09
420.461	15.05
420.822	14.83
421.184	14.92
421.545	15.13
421.906	15.07
422.267	15.02
422.629	15.05
422.99	15.14
423.351	15.05
423.712	14.91
424.073	15.12
424.434	15.27
424.795	15.35
425.155	15.47
425.516	15.4
425.877	15.57
426.238	15.31
426.598	15.42
426.959	15.45
427.32	15.38
427.68	15.53
428.041	15.71
428.401	15.98
428.761	15.98
429.122	16
429.482	15.94
429.842	16.04
430.202	16.37
430.563	16.46
430.923	16.49
431.283	16.5
431.643	16.8
432.003	16.62
432.363	16.66
432.722	16.58
433.082	16.85
433.442	16.67
433.802	16.88
434.161	16.63
434.521	16.86
434.881	16.71
435.24	16.6
435.6	16.53
435.959	16.7
436.319	16.89
436.678	16.96
437.037	17.13
437.396	17.12
437.756	17.21
438.115	17.21
438.474	17.08
438.833	17.33
439.192	17.28
439.551	17.29
439.91	17.44
440.269	17.41
440.628	17.31
440.987	17.47
441.345	17.4
441.704	17.43
442.063	17.47
442.421	17.38
442.78	17.5
443.138	17.54
443.497	17.55
443.855	17.76
444.214	17.71
444.572	17.94
444.93	18
445.288	18.08
445.647	17.86
446.005	18.1
446.363	18.06
446.721	18.21
447.079	17.96
447.437	18.21
447.795	18.18
448.153	18.07
448.51	18.06
448.868	17.9
449.226	17.92
449.584	18
449.941	17.88
450.299	18.29
450.656	18.43
451.014	18.55
451.371	18.52
451.729	18.69
452.086	18.7
452.443	18.98
452.801	18.88
453.158	18.79
453.515	19.07
453.872	19.1
454.229	19.36
454.586	19.13
454.943	19.05
455.3	19.26
455.657	19.21
456.014	19.2
456.371	19.46
456.727	19.6
457.084	19.44
457.441	19.32
457.797	19.75
458.154	19.7
458.51	19.7
458.867	19.7
459.223	19.67
459.58	19.94
459.936	20.03
460.292	20
460.648	20.08
461.005	20.07
461.361	19.93
461.717	19.57
462.073	19.54
462.429	19.44
462.785	19.72
463.141	19.79
463.496	20.07
463.852	20.16
464.208	20.3
464.564	20.41
464.919	20.38
465.275	20.54
465.631	20.75
465.986	20.66
466.342	20.8
466.697	20.99
467.052	20.76
467.408	20.77
467.763	20.6
468.118	20.93
468.473	20.94
468.829	20.97
469.184	21.02
469.539	21.04
469.894	20.97
470.249	21.17
470.603	21.16
470.958	21.32
471.313	21.33
471.668	21.57
472.023	21.39
472.377	21.42
472.732	21.3
473.086	21.52
473.441	21.72
473.795	21.77
474.15	21.8
474.504	21.73
474.859	21.93
475.213	21.58
475.567	21.56
475.921	22
476.275	21.98
476.63	22.03
476.984	22.06
477.338	22.28
477.692	22.32
478.045	22.32
478.399	22.19
478.753	22.24
479.107	22.3
479.461	22.24
479.814	22.42
480.168	22.24
480.521	22.55
480.875	22.33
481.228	22.47
481.582	22.37
481.935	22.63
482.289	22.52
482.642	22.64
482.995	22.67
483.348	22.77
483.701	22.71
484.055	22.68
484.408	22.56
484.761	22.5
485.114	22.31
485.466	22.04
485.819	21.68
486.172	21.62
486.525	21.58
486.878	21.64
487.23	21.86
487.583	22.07
487.936	22.29
488.288	22.52
488.641	22.45
488.993	22.43
489.345	22.36
489.698	22.24
490.05	22.24
490.402	22.3
490.754	22.32
491.107	22.5
491.459	22.7
491.811	23.01
492.163	23.14
492.515	23.3
492.866	23.47
493.218	23.39
493.57	23.07
493.922	22.77
494.274	22.82
494.625	22.95
494.977	23.17
495.328	23.42
495.68	23.82
496.031	23.84
496.383	24.24
496.734	24.38
497.086	24.5
497.437	24.53
497.788	24.36
498.139	24.56
498.49	24.58
498.842	24.38
499.193	24.38
499.544	24.39
499.894	24.48
500.245	24.61
500.596	24.59
500.947	24.75
501.298	24.78
501.648	24.85
501.999	24.91
502.35	25.03
502.7	25.28
503.051	25.26
503.401	25.21
503.752	25.37
504.102	25.54
504.452	25.61
504.803	25.51
505.153	25.6
505.503	25.72
505.853	25.67
506.203	25.43
506.553	25.58
506.903	25.62
507.253	25.56
507.603	25.69
507.953	25.87
508.303	25.88
508.652	25.94
509.002	25.96
509.352	26.02
509.701	25.8
510.051	26.05
510.4	26.01
510.75	25.84
511.099	25.87
511.449	25.88
511.798	25.91
512.147	25.96
512.496	26.06
512.846	26.11
513.195	26.2
513.544	26.22
513.893	26.29
514.242	26.17
514.591	26.17
514.939	26.3
515.288	26.3
515.637	26.6
515.986	26.47
516.334	26.59
516.683	26.77
517.032	26.95
517.38	26.86
517.729	26.92
518.077	27
518.426	26.96
518.774	27.05
519.122	27.01
519.47	27.01
519.819	27.03
520.167	26.88
520.515	26.64
520.863	26.59
521.211	26.6
521.559	26.65
521.907	26.68
522.255	26.96
522.602	26.96
522.95	27.18
523.298	27.22
523.645	27.48
523.993	27.66
524.341	27.67
524.688	27.67
525.036	27.79
525.383	27.72
525.73	27.92
526.078	28.04
526.425	27.88
526.772	27.93
527.119	27.77
527.466	27.62
527.814	27.45
528.161	27.38
528.508	27.43
528.854	27.39
529.201	27.65
529.548	27.43
529.895	27.41
530.242	27.4
530.588	27.04
530.935	26.84
531.282	26.9
531.628	26.93
531.975	26.99
532.321	27.28
532.667	27.5
533.014	27.59
533.36	27.99
533.706	28.01
534.052	28.26
534.399	28.21
534.745	28.26
535.091	28.11
535.437	27.76
535.783	27.72
536.129	27.85
536.474	27.96
536.82	27.98
537.166	28.38
537.512	28.67
537.857	28.81
538.203	28.89
538.549	28.59
538.894	28.51
539.239	28.6
539.585	28.52
539.93	28.82
540.276	28.83
540.621	29.15
540.966	29.32
541.311	29.62
541.656	29.56
542.001	29.57
542.346	29.59
542.691	29.44
543.036	29.09
543.381	28.64
543.726	28.49
544.071	28.66
544.415	28.66
544.76	28.77
545.105	28.94
545.449	28.97
545.794	29.21
546.138	29.36
546.483	29.53
546.827	29.61
547.171	29.76
547.516	30.05
547.86	29.9
548.204	29.94
548.548	29.87
548.892	29.97
549.236	29.89
549.58	29.85
549.924	30.07
550.268	30.32
550.612	30.46
550.956	30.55
551.3	30.85
551.643	30.73
551.987	30.99
552.33	31.16
552.674	31.06
553.017	31.07
553.361	30.88
553.704	31.17
554.048	31.25
554.391	31.08
554.734	31.02
555.077	30.87
555.42	30.98
555.764	31.01
556.107	31.21
556.45	31.39
556.793	31.38
557.135	31.49
557.478	31.53
557.821	31.73
558.164	31.81
558.507	31.8
558.849	31.66
559.192	31.95
559.534	31.69
559.877	31.62
560.219	31.93
560.562	32.12
560.904	32.02
561.246	32.01
561.589	32.21
561.931	32.24
562.273	32.06
562.615	32.2
562.957	32.13
563.299	32.2
563.641	32.38
563.983	32.26
564.325	32.52
564.667	32.53
565.008	32.25
565.35	32.27
565.692	32.6
566.033	32.71
566.375	32.66
566.716	32.7
567.058	32.68
567.399	32.6
567.741	32.74
568.082	32.6
568.423	32.55
568.764	32.37
569.105	32.34
569.447	32.69
569.788	32.63
570.129	32.7
570.47	32.99
570.811	32.88
571.151	32.89
571.492	32.98
571.833	33.12
572.174	33.02
572.514	33.24
572.855	33.14
573.195	33.02
573.536	33.23
573.876	32.97
574.217	33.04
574.557	32.85
574.898	32.99
575.238	33.09
575.578	33.27
575.918	33.3
576.258	33.36
576.598	33.23
576.938	33.46
577.278	33.43
577.618	33.12
577.958	33.59
578.298	33.65
578.638	33.45
578.977	33.78
579.317	33.85
579.657	33.68
579.996	33.68
580.336	34.01
580.675	34
581.014	34.11
581.354	34.2
581.693	34.74
582.032	34.34
582.372	34.31
582.711	34.56
583.05	34.47
583.389	34.24
583.728	34.45
584.067	34.64
584.406	34.42
584.745	34.59
585.083	34.77
585.422	34.97
585.761	34.62
586.1	34.77
586.438	34.73
586.777	35.04
587.115	34.85
587.454	34.68
587.792	35.29
588.13	35.01
588.469	34.9
588.807	35.15
589.145	35.56
589.483	35
589.821	35.38
590.159	35.02
590.497	35.19
590.835	35.42
591.173	35.27
591.511	35.27
591.849	35.02
592.187	35.3
592.524	35.46
592.862	35.39
593.2	35.65
593.537	35.46
593.875	35.09
594.212	35.55
594.55	35.91
594.887	35.65
595.224	35.83
595.561	35.74
595.899	35.93
596.236	35.78
596.573	35.76
596.91	35.64
597.247	35.79
597.584	35.82
597.921	35.92
598.258	35.89
598.594	35.82
598.931	35.69
599.268	35.49
599.604	35.8
599.941	35.88
600.277	35.44
600.614	35.8
600.95	35.87
601.287	36.11
601.623	36.29
601.959	36.46
602.296	36.52
602.632	36.28
602.968	36.57
603.304	36.44
603.64	36.62
603.976	36.3
604.312	36.87
604.648	36.34
604.984	36.31
605.319	36.23
605.655	36.27
605.991	36.38
606.326	36.63
606.662	36.35
606.998	35.86
607.333	36.1
607.668	36.24
608.004	36.2
608.339	36.06
608.674	36.38
609.01	36.77
609.345	36.77
609.68	37.05
610.015	36.92
610.35	37.37
610.685	37.05
611.02	37.1
611.355	36.75
611.689	36.93
612.024	36.75
612.359	36.67
612.694	37.02
613.028	36.84
613.363	37.06
613.697	37.06
614.032	37.03
614.366	37.23
614.7	37.14
615.035	37.43
615.369	37.33
615.703	37.38
616.037	37.43
616.371	37.63
616.705	37.42
617.039	37.62
617.373	37.6
617.707	37.47
618.041	37.81
618.375	37.66
618.709	37.71
619.042	37.99
619.376	37.93
619.71	38.33
620.043	37.7
620.377	37.97
620.71	37.92
621.043	38.2
621.377	38.24
621.71	37.8
622.043	38.4
622.376	37.93
622.709	38.3
623.043	38.34
623.376	38.34
623.709	38.33
624.041	38.17
624.374	38.66
624.707	38.22
625.04	38.79
625.373	38.22
625.705	38.2
626.038	38.29
626.37	38.65
626.703	38.12
627.035	38.73
627.368	38.35
627.7	38.79
628.032	39.33
628.365	38.93
628.697	38.57
629.029	38.2
629.361	38.31
629.693	38.66
630.025	38.07
630.357	38.59
630.689	38.66
631.021	38.8
631.353	38.93
631.684	38.93
632.016	38.76
632.348	38.64
632.679	39.03
633.011	39.31
633.342	39.04
633.674	39.44
634.005	38.78
634.336	39.21
634.668	39.54
634.999	39.12
635.33	39.07
635.661	39.29
635.992	39.07
636.323	39.5
636.654	39.19
636.985	39.12
637.316	39.32
637.647	39.34
637.977	38.76
638.308	39.64
638.639	39.55
638.969	39.46
639.3	39.72
639.63	39.82
639.961	39.71
640.291	39.77
640.622	40.04
640.952	40.18
641.282	40.04
641.612	39.82
641.943	40.2
642.273	40.24
642.603	40.17
642.933	40.15
643.263	40.03
643.592	40.21
643.922	40.45
644.252	40.44
644.582	40.2
644.911	40.75
645.241	40.58
645.571	40.11
645.9	40.45
646.23	40.61
646.559	40.17
646.888	40.54
647.218	40.32
647.547	40.1
647.876	40.85
648.205	40.76
648.534	40.64
648.863	40.49
649.192	40.36
649.521	40.62
649.85	40.99
650.179	40.74
650.508	40.62
650.837	40.79
651.165	40.4
651.494	40.38
651.822	40.33
652.151	40.79
652.479	40.31
652.808	40.71
653.136	40.77
653.465	40.81
653.793	40.57
654.121	41.62
654.449	40.83
654.777	41.15
655.105	41.26
655.433	41.92
655.761	41.38
656.089	41.56
656.417	40.76
656.745	41.15
657.073	41.46
657.4	41.79
657.728	40.63
658.056	41.8
658.383	41.35
658.711	41.22
659.038	41.23
659.365	41.43
659.693	41.25
660.02	41.52
660.347	41.38
660.674	41.09
661.001	41.08
661.329	41.65
661.656	41.7
661.982	40.98
662.309	41.34
662.636	41.36
662.963	41.54
663.29	41.9
663.616	41.13
663.943	41.81
664.27	42
664.596	41.38
664.923	41.41
665.249	41.72
665.576	41.72
665.902	41.89
666.228	42.53
666.554	41.35
666.881	42.11
667.207	41.95
667.533	41.98
667.859	42.41
668.185	42.03
668.511	42.42
668.837	41.07
669.162	42.1
669.488	42.23
669.814	41.78
670.139	41.89
670.465	42.45
670.791	42.5
671.116	42.29
671.442	42.42
671.767	42.35
672.092	42.79
672.418	42.57
672.743	43.21
