Data from 0112_forehead_Reflection__4__204.txt Node

Date: Fri Sep 22 22:27:36 CDT 2023
User: ToomeyLab
Spectrometer: FLMS14357
Trigger mode: 0
Integration Time (sec): 1.000000E-2
Scans to average: 100
Electric dark correction enabled: true
Nonlinearity correction enabled: false
Boxcar width: 0
XAxis mode: Wavelengths
Number of Pixels in Spectrum: 2048
>>>>>Begin Spectral Data<<<<<
189.047	-24.58
189.435	-24.58
189.823	-24.58
190.211	-284.03
190.599	116.37
190.987	2904.92
191.375	169.11
191.763	-105.12
192.151	109.6
192.538	679.07
192.926	161.84
193.314	14.03
193.702	-119.94
194.089	37.15
194.477	-126.03
194.864	62.06
195.252	135.79
195.639	-392.67
196.027	-3834.15
196.414	-409.53
196.801	-338.26
197.189	-42.36
197.576	2544.47
197.963	34.29
198.351	71.28
198.738	39.24
199.125	66.94
199.512	-7.63
199.899	33.04
200.286	41.3
200.673	31.19
201.06	46.44
201.447	75.18
201.833	35.92
202.22	70.67
202.607	61.49
202.994	69.4
203.38	72.36
203.767	9.17
204.154	47.23
204.54	66.56
204.927	49.3
205.313	66.71
205.699	61.28
206.086	60.6
206.472	51.68
206.858	25.26
207.245	-19.24
207.631	41.41
208.017	15.5
208.403	3.93
208.789	35.79
209.175	62.2
209.561	66.28
209.947	24.6
210.333	40.78
210.719	32.31
211.105	55.32
211.491	30.38
211.876	43.32
212.262	65.48
212.648	78.4
213.034	31.62
213.419	57.76
213.805	41.58
214.19	5.33
214.576	40.89
214.961	57.07
215.346	39.45
215.732	32.63
216.117	6.04
216.502	33.81
216.888	36.2
217.273	40.35
217.658	21.28
218.043	27.72
218.428	29.34
218.813	-7.04
219.198	-1.09
219.583	35.7
219.968	7.23
220.353	52.6
220.738	26.04
221.122	38.14
221.507	0.73
221.892	15.68
222.276	9.57
222.661	-7.1
223.046	22.62
223.43	26.94
223.815	-9.04
224.199	14.95
224.583	14.89
224.968	19.64
225.352	7.06
225.736	20
226.121	9.46
226.505	10.53
226.889	14.56
227.273	10.28
227.657	9.86
228.041	11.05
228.425	10.95
228.809	7.19
229.193	8.74
229.577	5.87
229.961	4.66
230.344	7.71
230.728	3.02
231.112	5.4
231.495	3.5
231.879	3.96
232.263	2.61
232.646	2.61
233.03	3.48
233.413	5.08
233.797	4.29
234.18	3.73
234.563	8.77
234.946	6.49
235.33	5.07
235.713	2.75
236.096	2.92
236.479	2.29
236.862	6.22
237.245	5.1
237.628	4.62
238.011	6.04
238.394	4.53
238.777	6.59
239.16	4.56
239.543	6.54
239.925	6.78
240.308	3.79
240.691	3.88
241.073	3.79
241.456	5.3
241.838	3.68
242.221	3.66
242.603	4.01
242.986	3.63
243.368	3.4
243.75	4.09
244.133	4.11
244.515	3.57
244.897	3.38
245.279	2.94
245.661	2.85
246.043	3.74
246.425	2.43
246.807	4.45
247.189	2.97
247.571	4.11
247.953	3.34
248.335	3.32
248.717	3.42
249.098	2.96
249.48	2.96
249.862	2.75
250.243	3.06
250.625	3.28
251.006	3.08
251.388	3.58
251.769	4.15
252.151	3.99
252.532	4.2
252.913	4.76
253.295	4.79
253.676	3.35
254.057	3.47
254.438	3.35
254.819	2.57
255.2	3.68
255.581	3.12
255.962	3.83
256.343	4.9
256.724	3.72
257.105	4.14
257.486	2.36
257.867	3.65
258.247	3.93
258.628	4.42
259.009	3.42
259.389	3.75
259.77	4.04
260.15	3.58
260.531	3.23
260.911	3.65
261.292	3.21
261.672	3
262.052	3.07
262.432	2.94
262.813	3.21
263.193	2.98
263.573	3.52
263.953	3.44
264.333	3.11
264.713	3.51
265.093	3.32
265.473	3.16
265.853	2.94
266.233	3.02
266.612	3.3
266.992	3.91
267.372	3.5
267.752	3.3
268.131	3.58
268.511	3.19
268.89	3.02
269.27	3.07
269.649	3.28
270.029	2.51
270.408	2.94
270.787	3.39
271.167	3.56
271.546	2.69
271.925	3.46
272.304	3.01
272.683	3.19
273.062	4.02
273.441	3.32
273.82	3.27
274.199	3.59
274.578	3.25
274.957	2.98
275.336	3.08
275.715	3.09
276.093	2.96
276.472	2.9
276.851	3.22
277.229	2.61
277.608	3.38
277.986	2.86
278.365	3.52
278.743	2.88
279.122	3.42
279.5	3.39
279.878	2.45
280.257	3.57
280.635	3.42
281.013	3.25
281.391	3.35
281.769	2.9
282.147	3.11
282.525	3.2
282.903	3.39
283.281	3.36
283.659	3.17
284.037	2.58
284.415	3.34
284.792	2.71
285.17	2.79
285.548	3.49
285.925	2.65
286.303	2.85
286.68	2.69
287.058	2.8
287.435	3.14
287.813	2.94
288.19	2.79
288.567	3.18
288.945	2.86
289.322	3.13
289.699	2.62
290.076	3.21
290.453	3.29
290.83	2.75
291.207	2.94
291.584	2.82
291.961	3.27
292.338	3.58
292.715	3.14
293.092	3.15
293.469	3.07
293.845	3.06
294.222	3.44
294.599	3.28
294.975	4.01
295.352	3.64
295.728	3.3
296.105	3.83
296.481	3.11
296.858	3.21
297.234	3.35
297.61	3.53
297.986	3.57
298.363	3.55
298.739	3.3
299.115	3.2
299.491	3.44
299.867	3.53
300.243	3.28
300.619	3.2
300.995	3.37
301.371	3.66
301.746	3.81
302.122	3.66
302.498	3.78
302.874	3.39
303.249	3.4
303.625	3.19
304	3.75
304.376	3.95
304.751	4.09
305.127	3.58
305.502	3.69
305.878	4.42
306.253	3.5
306.628	3.68
307.003	3.99
307.378	4.08
307.754	4.25
308.129	4.18
308.504	4.33
308.879	4.39
309.254	3.91
309.629	4.34
310.003	4.78
310.378	4.71
310.753	3.85
311.128	4.13
311.502	4.53
311.877	3.64
312.252	3.95
312.626	3.99
313.001	4.29
313.375	4.54
313.75	4.32
314.124	4.64
314.498	3.8
314.873	4.44
315.247	4.8
315.621	4.57
315.995	4.21
316.369	4.39
316.743	4.57
317.117	5.08
317.491	5.24
317.865	3.92
318.239	4.57
318.613	4.89
318.987	4.74
319.361	4.89
319.734	4.58
320.108	4.96
320.482	4.92
320.855	4.92
321.229	5.36
321.602	5.65
321.976	4.89
322.349	4.88
322.723	5.26
323.096	5.21
323.469	5.35
323.843	5.13
324.216	6.02
324.589	5.92
324.962	4.87
325.335	4.85
325.708	5.43
326.081	5.43
326.454	4.84
326.827	5.2
327.2	5.74
327.573	6.03
327.945	5.78
328.318	5.79
328.691	5.49
329.063	5.38
329.436	5.8
329.809	5.42
330.181	6.04
330.553	5.33
330.926	5.41
331.298	5.58
331.671	5.78
332.043	5.51
332.415	5.59
332.787	5.93
333.159	5.03
333.532	5.37
333.904	5.66
334.276	6.09
334.648	5.29
335.02	5.39
335.391	5.87
335.763	5.97
336.135	5.81
336.507	6.08
336.879	6.08
337.25	6.17
337.622	6.24
337.993	6.1
338.365	6.4
338.736	5.88
339.108	6.4
339.479	5.97
339.851	5.82
340.222	5.58
340.593	5.86
340.964	6.07
341.336	6.01
341.707	5.89
342.078	6.53
342.449	6.19
342.82	5.9
343.191	5.95
343.562	6.17
343.933	6.29
344.303	6.6
344.674	6.67
345.045	6.36
345.416	6.85
345.786	6.71
346.157	6.49
346.527	6.22
346.898	6.44
347.268	6.59
347.639	6.67
348.009	6.3
348.38	7.04
348.75	6.61
349.12	6.91
349.49	7.05
349.861	7.18
350.231	6.94
350.601	7.05
350.971	7.22
351.341	7.04
351.711	6.59
352.081	7.07
352.45	6.98
352.82	7.51
353.19	7.01
353.56	7.1
353.929	7.24
354.299	7.45
354.669	6.98
355.038	7.03
355.408	7.39
355.777	7.51
356.147	7.25
356.516	7.85
356.885	7.26
357.254	7.61
357.624	7.36
357.993	7.68
358.362	7.43
358.731	7.53
359.1	7.24
359.469	7.51
359.838	7.38
360.207	7.88
360.576	7.58
360.945	7.65
361.314	7.67
361.682	7.65
362.051	7.82
362.42	7.81
362.788	7.51
363.157	7.96
363.525	7.66
363.894	7.92
364.262	7.69
364.631	7.92
364.999	7.57
365.367	8.28
365.735	7.94
366.104	8.21
366.472	8.73
366.84	8.25
367.208	8.41
367.576	8.35
367.944	8.56
368.312	8.42
368.68	8.16
369.048	8.75
369.416	8.71
369.783	8.18
370.151	8.2
370.519	8.53
370.886	8.56
371.254	8.9
371.621	8.27
371.989	8.62
372.356	8.7
372.724	8.89
373.091	8.82
373.458	8.73
373.826	8.78
374.193	8.83
374.56	9.02
374.927	9.13
375.294	8.95
375.661	8.96
376.028	9.2
376.395	9.24
376.762	9.17
377.129	9.57
377.496	9.66
377.863	9.28
378.229	9.52
378.596	9.47
378.963	9.71
379.329	9.59
379.696	9.7
380.062	9.15
380.429	9.34
380.795	9.55
381.161	9.5
381.528	9.49
381.894	9.45
382.26	9.69
382.626	9.83
382.993	9.88
383.359	9.55
383.725	9.79
384.091	10.04
384.457	9.96
384.823	9.86
385.188	9.87
385.554	10.32
385.92	10.42
386.286	10.31
386.651	10.11
387.017	10.27
387.383	10.16
387.748	10.16
388.114	10.56
388.479	10.32
388.845	10.3
389.21	10.48
389.575	10.61
389.94	10.45
390.306	10.75
390.671	10.83
391.036	10.24
391.401	10.7
391.766	10.77
392.131	10.58
392.496	10.91
392.861	10.69
393.226	11.01
393.591	11.1
393.956	10.79
394.32	10.79
394.685	10.85
395.05	11.22
395.414	11.33
395.779	11.45
396.143	11.36
396.508	11.07
396.872	11.26
397.236	11.18
397.601	11.31
397.965	11.41
398.329	11.38
398.694	11.46
399.058	11.77
399.422	11.31
399.786	11.46
400.15	11.66
400.514	11.88
400.878	11.72
401.242	11.81
401.605	11.73
401.969	11.57
402.333	12.05
402.697	11.82
403.06	11.99
403.424	11.88
403.787	12.34
404.151	12.27
404.514	12.36
404.878	12.32
405.241	12.41
405.604	12.42
405.968	12.31
406.331	12.22
406.694	12.26
407.057	12.23
407.42	12.44
407.783	12.64
408.146	12.54
408.509	12.43
408.872	12.46
409.235	12.84
409.598	12.44
409.961	12.79
410.323	12.74
410.686	12.73
411.049	12.92
411.411	13.06
411.774	13.04
412.136	12.9
412.499	13.09
412.861	13.11
413.223	13.12
413.586	13.11
413.948	13.31
414.31	13.29
414.672	13.47
415.035	13.14
415.397	13.47
415.759	13.72
416.121	13.8
416.483	13.52
416.845	13.74
417.206	13.8
417.568	13.62
417.93	13.53
418.292	13.82
418.653	13.51
419.015	13.77
419.377	13.58
419.738	13.83
420.1	13.65
420.461	13.67
420.822	13.63
421.184	13.77
421.545	13.81
421.906	13.76
422.267	13.68
422.629	13.84
422.99	13.84
423.351	13.8
423.712	13.87
424.073	13.87
424.434	13.91
424.795	14.11
425.155	14.2
425.516	14.12
425.877	14.17
426.238	14.19
426.598	14.05
426.959	14.15
427.32	14.26
427.68	14.32
428.041	14.35
428.401	14.55
428.761	14.77
429.122	14.88
429.482	14.98
429.842	14.82
430.202	14.9
430.563	15.06
430.923	15.37
431.283	15.37
431.643	15.25
432.003	15.28
432.363	15.43
432.722	15.4
433.082	15.41
433.442	15.49
433.802	15.59
434.161	15.52
434.521	15.48
434.881	15.44
435.24	15.56
435.6	15.37
435.959	15.46
436.319	15.65
436.678	15.79
437.037	15.91
437.396	15.93
437.756	15.97
438.115	15.93
438.474	15.91
438.833	16.3
439.192	16.22
439.551	16.11
439.91	16.34
440.269	16.28
440.628	15.9
440.987	16.25
441.345	16.19
441.704	16.21
442.063	16.33
442.421	16.3
442.78	16.48
443.138	16.39
443.497	16.29
443.855	16.56
444.214	16.5
444.572	16.74
444.93	16.76
445.288	16.84
445.647	17.06
446.005	16.97
446.363	16.79
446.721	17.06
447.079	16.79
447.437	16.88
447.795	16.88
448.153	16.86
448.51	16.84
448.868	16.81
449.226	16.81
449.584	16.9
449.941	16.97
450.299	17.31
450.656	17.44
451.014	17.52
451.371	17.57
451.729	17.55
452.086	17.72
452.443	17.86
452.801	17.94
453.158	17.92
453.515	18.24
453.872	18
454.229	18.16
454.586	18.11
454.943	17.99
455.3	18.07
455.657	18.11
456.014	18.16
456.371	18.34
456.727	18.5
457.084	18.36
457.441	18.28
457.797	18.6
458.154	18.51
458.51	18.62
458.867	18.67
459.223	18.69
459.58	18.86
459.936	18.77
460.292	18.87
460.648	19.02
461.005	18.83
461.361	18.9
461.717	18.42
462.073	18.47
462.429	18.43
462.785	18.54
463.141	18.85
463.496	19.01
463.852	19.01
464.208	19.08
464.564	19.41
464.919	19.45
465.275	19.64
465.631	19.65
465.986	19.81
466.342	19.67
466.697	19.62
467.052	19.68
467.408	19.87
467.763	19.87
468.118	20.04
468.473	19.84
468.829	19.96
469.184	20.07
469.539	20.11
469.894	20.21
470.249	20.1
470.603	20.23
470.958	20.35
471.313	20.42
471.668	20.44
472.023	20.57
472.377	20.5
472.732	20.6
473.086	20.71
473.441	20.42
473.795	20.85
474.15	20.69
474.504	20.84
474.859	20.89
475.213	20.65
475.567	20.83
475.921	20.8
476.275	21.08
476.63	21.12
476.984	21.17
477.338	21.32
477.692	21.52
478.045	21.36
478.399	21.31
478.753	21.26
479.107	21.5
479.461	21.26
479.814	21.43
480.168	21.39
480.521	21.42
480.875	21.54
481.228	21.68
481.582	21.46
481.935	21.64
482.289	21.56
482.642	21.69
482.995	21.78
483.348	21.8
483.701	21.78
484.055	21.74
484.408	21.65
484.761	21.54
485.114	21.3
485.466	21.02
485.819	20.72
486.172	20.6
486.525	20.69
486.878	20.83
487.23	21.01
487.583	21.31
487.936	21.51
488.288	21.71
488.641	21.79
488.993	21.58
489.345	21.47
489.698	21.39
490.05	21.39
490.402	21.52
490.754	21.51
491.107	21.74
491.459	22
491.811	22.08
492.163	22.53
492.515	22.6
492.866	22.69
493.218	22.57
493.57	22.29
493.922	21.97
494.274	22
494.625	22.15
494.977	22.54
495.328	22.84
495.68	22.99
496.031	23.16
496.383	23.47
496.734	23.68
497.086	23.69
497.437	23.59
497.788	23.81
498.139	23.9
498.49	23.9
498.842	23.58
499.193	23.6
499.544	23.76
499.894	23.7
500.245	23.91
500.596	23.89
500.947	23.97
501.298	24.04
501.648	24.06
501.999	24.27
502.35	24.32
502.7	24.48
503.051	24.73
503.401	24.52
503.752	24.55
504.102	24.85
504.452	24.82
504.803	24.9
505.153	24.91
505.503	24.69
505.853	24.9
506.203	24.86
506.553	25.07
506.903	25.05
507.253	25.04
507.603	25.09
507.953	25.09
508.303	25.3
508.652	25.2
509.002	25.39
509.352	25.23
509.701	25.34
510.051	25.34
510.4	25.19
510.75	25.16
511.099	25.15
511.449	25.2
511.798	25.34
512.147	25.32
512.496	25.35
512.846	25.53
513.195	25.58
513.544	25.7
513.893	25.65
514.242	25.6
514.591	25.65
514.939	25.79
515.288	25.63
515.637	25.94
515.986	25.96
516.334	26.13
516.683	26.2
517.032	26.28
517.38	26.47
517.729	26.23
518.077	26.43
518.426	26.28
518.774	26.49
519.122	26.62
519.47	26.46
519.819	26.42
520.167	26.17
520.515	26.01
520.863	26.04
521.211	25.96
521.559	26.12
521.907	26.37
522.255	26.36
522.602	26.41
522.95	26.73
523.298	26.76
523.645	26.98
523.993	27.01
524.341	26.96
524.688	27.15
525.036	27.33
525.383	27.26
525.73	27.3
526.078	27.41
526.425	27.2
526.772	27.41
527.119	27.24
527.466	27.06
527.814	26.73
528.161	26.75
528.508	26.95
528.854	27.09
529.201	27.19
529.548	27.03
529.895	26.92
530.242	26.73
530.588	26.49
530.935	26.28
531.282	26.32
531.628	26.54
531.975	26.58
532.321	26.82
532.667	26.96
533.014	27.16
533.36	27.46
533.706	27.71
534.052	27.64
534.399	27.75
534.745	27.62
535.091	27.5
535.437	27.21
535.783	27.07
536.129	27.27
536.474	27.54
536.82	27.73
537.166	27.9
537.512	28.17
537.857	28.33
538.203	28.37
538.549	28.25
538.894	28.05
539.239	28
539.585	28.13
539.93	28.32
540.276	28.5
540.621	28.64
540.966	28.93
541.311	29.11
541.656	29.06
542.001	29.11
542.346	29.12
542.691	29.11
543.036	28.59
543.381	28.26
543.726	28
544.071	28.01
544.415	28.19
544.76	28.43
545.105	28.47
545.449	28.71
545.794	28.76
546.138	29.11
546.483	29.13
546.827	29.19
547.171	29.43
547.516	29.65
547.86	29.56
548.204	29.5
548.548	29.6
548.892	29.65
549.236	29.41
549.58	29.49
549.924	29.76
550.268	29.97
550.612	30.09
550.956	30.18
551.3	30.36
551.643	30.54
551.987	30.55
552.33	30.8
552.674	30.8
553.017	30.68
553.361	30.62
553.704	30.89
554.048	30.8
554.391	30.86
554.734	31.05
555.077	30.61
555.42	30.56
555.764	30.96
556.107	30.8
556.45	31.13
556.793	30.87
557.135	31.29
557.478	31.25
557.821	31.22
558.164	31.37
558.507	31.38
558.849	31.34
559.192	31.45
559.534	31.8
559.877	31.83
560.219	31.78
560.562	31.73
560.904	31.77
561.246	31.91
561.589	31.83
561.931	31.82
562.273	31.8
562.615	31.82
562.957	31.99
563.299	31.98
563.641	32.13
563.983	32.33
564.325	32.14
564.667	32.27
565.008	32.04
565.35	32.44
565.692	32.37
566.033	32.5
566.375	32.38
566.716	32.47
567.058	32.48
567.399	32.33
567.741	32.21
568.082	32.32
568.423	32.27
568.764	32.15
569.105	32.08
569.447	32.24
569.788	32.35
570.129	32.41
570.47	32.54
570.811	32.55
571.151	32.74
571.492	32.61
571.833	32.8
572.174	32.81
572.514	32.96
572.855	32.77
573.195	32.91
573.536	32.98
573.876	32.73
574.217	32.8
574.557	32.73
574.898	32.88
575.238	32.78
575.578	32.94
575.918	32.78
576.258	33.23
576.598	33.27
576.938	33.29
577.278	33.17
577.618	33.04
577.958	33.46
578.298	33.24
578.638	33.52
578.977	33.52
579.317	33.67
579.657	33.5
579.996	33.93
580.336	34
580.675	33.87
581.014	33.7
581.354	33.73
581.693	34.25
582.032	33.93
582.372	34.36
582.711	34.29
583.05	34.37
583.389	34.4
583.728	34.03
584.067	34.47
584.406	34.57
584.745	34.66
585.083	34.96
585.422	34.9
585.761	34.7
586.1	34.66
586.438	34.67
586.777	34.71
587.115	34.62
587.454	34.69
587.792	35.08
588.13	34.93
588.469	34.77
588.807	35.01
589.145	35.17
589.483	35.2
589.821	35.14
590.159	35.46
590.497	35.39
590.835	35.33
591.173	35.22
591.511	35.35
591.849	35.4
592.187	35.01
592.524	35.42
592.862	35.3
593.2	35.34
593.537	35.28
593.875	35.64
594.212	35.31
594.55	35.45
594.887	35.27
595.224	35.75
595.561	35.69
595.899	35.67
596.236	35.68
596.573	35.69
596.91	35.53
597.247	35.94
597.584	35.89
597.921	35.83
598.258	36.19
598.594	35.99
598.931	35.41
599.268	35.72
599.604	35.65
599.941	35.59
600.277	35.46
600.614	35.63
600.95	35.99
601.287	36.11
601.623	36.09
601.959	36.4
602.296	36.64
602.632	36.21
602.968	36.32
603.304	36.54
603.64	36.51
603.976	36.42
604.312	36.58
604.648	36.67
604.984	36.5
605.319	36.13
605.655	36.15
605.991	36.09
606.326	36.3
606.662	36.2
606.998	35.92
607.333	36.26
607.668	35.87
608.004	36.36
608.339	36.38
608.674	36.45
609.01	36.53
609.345	37.31
609.68	37.11
610.015	37.19
610.35	36.94
610.685	37.06
611.02	37.05
611.355	37.02
611.689	36.81
612.024	36.86
612.359	36.69
612.694	36.82
613.028	36.77
613.363	37.12
613.697	37.41
614.032	37.11
614.366	37.37
614.7	37.27
615.035	37.43
615.369	37.68
615.703	37.5
616.037	37.39
616.371	37.75
616.705	37.76
617.039	37.91
617.373	37.87
617.707	37.79
618.041	38.27
618.375	37.82
618.709	37.8
619.042	38.24
619.376	38.22
619.71	38.13
620.043	37.95
620.377	38.23
620.71	38.13
621.043	38.15
621.377	38.45
621.71	37.91
622.043	37.93
622.376	38.48
622.709	38.23
623.043	38.63
623.376	37.96
623.709	38.71
624.041	38.3
624.374	38.67
624.707	38.58
625.04	38.88
625.373	38.43
625.705	38.72
626.038	38.45
626.37	39.19
626.703	38.57
627.035	38.67
627.368	38.67
627.7	38.75
628.032	38.76
628.365	39.09
628.697	39.03
629.029	38.78
629.361	38.8
629.693	38.61
630.025	38.93
630.357	38.87
630.689	38.86
631.021	38.84
631.353	39.08
631.684	39.1
632.016	39.06
632.348	39.49
632.679	39.26
633.011	39.07
633.342	39.2
633.674	39.26
634.005	39.09
634.336	39.61
634.668	39.83
634.999	39.7
635.33	39.5
635.661	39.48
635.992	39.5
636.323	39.27
636.654	39.37
636.985	39.14
637.316	39.43
637.647	39.67
637.977	39.73
638.308	39.88
638.639	39.67
638.969	39.36
639.3	39.59
639.63	40
639.961	40
640.291	39.97
640.622	40.18
640.952	39.84
641.282	39.8
641.612	39.87
641.943	40.51
642.273	40.32
642.603	40.32
642.933	40.62
643.263	40.64
643.592	40.35
643.922	40.06
644.252	40.09
644.582	40.35
644.911	40.71
645.241	40.2
645.571	40.3
645.9	40.74
646.23	40.49
646.559	40.4
646.888	40.66
647.218	40.74
647.547	40.54
647.876	40.62
648.205	41.04
648.534	40.95
648.863	40.79
649.192	40.97
649.521	40.47
649.85	41
650.179	40.52
650.508	40.68
650.837	40.89
651.165	40.57
651.494	41.51
651.822	40.82
652.151	41.14
652.479	40.74
652.808	41.13
653.136	41.18
653.465	41.54
653.793	40.92
654.121	41.8
654.449	41.12
654.777	41.46
655.105	41.26
655.433	41.88
655.761	41.45
656.089	41.34
656.417	41.57
656.745	42.13
657.073	41.53
657.4	41.29
657.728	41.83
658.056	41.52
658.383	41.45
658.711	41.98
659.038	41.69
659.365	41.59
659.693	41.97
660.02	41.41
660.347	41.97
660.674	42
661.001	40.91
661.329	41.35
661.656	41.84
661.982	41.73
662.309	41.46
662.636	41.84
662.963	41.37
663.29	41.81
663.616	42.18
663.943	42.11
664.27	42.84
664.596	41.72
664.923	42.26
665.249	42.33
665.576	42.81
665.902	42.2
666.228	42.7
666.554	41.96
666.881	42.19
667.207	42.57
667.533	41.95
667.859	42.62
668.185	42.4
668.511	42.81
668.837	42.16
669.162	42.06
669.488	43.23
669.814	42.52
670.139	41.88
670.465	43.31
670.791	42.37
671.116	42.29
671.442	43.33
671.767	42.54
672.092	42.96
672.418	43.04
672.743	42.84
673.068	43
673.393	42.87
