Data from 0112_chest_Reflection__5__194.txt Node

Date: Fri Sep 22 22:24:26 CDT 2023
User: ToomeyLab
Spectrometer: FLMS14357
Trigger mode: 0
Integration Time (sec): 1.000000E-2
Scans to average: 100
Electric dark correction enabled: true
Nonlinearity correction enabled: false
Boxcar width: 0
XAxis mode: Wavelengths
Number of Pixels in Spectrum: 2048
>>>>>Begin Spectral Data<<<<<
189.047	26.82
189.435	26.82
189.823	26.82
190.211	493.96
190.599	244.53
190.987	1398.91
191.375	105.1
191.763	-18.7
192.151	79.48
192.538	155.6
192.926	274.64
193.314	194.3
193.702	1325.12
194.089	44.03
194.477	40.77
194.864	62.92
195.252	414.41
195.639	-643.3
196.027	15921.95
196.414	-198.81
196.801	823.15
197.189	81.78
197.576	597.54
197.963	-45.59
198.351	78.17
198.738	9.5
199.125	45.51
199.512	8.1
199.899	27.19
200.286	-2.81
200.673	-11.2
201.06	29.34
201.447	35.02
201.833	-54.25
202.22	72.13
202.607	36.79
202.994	47.91
203.38	19.97
203.767	40.06
204.154	9.72
204.54	38.94
204.927	10.86
205.313	13.9
205.699	32
206.086	43.62
206.472	24.78
206.858	41.71
207.245	-15.57
207.631	31.9
208.017	23.48
208.403	-0.56
208.789	-2.38
209.175	38.31
209.561	48.32
209.947	47.98
210.333	39.21
210.719	-4.2
211.105	25.79
211.491	22.63
211.876	28.37
212.262	-0.1
212.648	105.53
213.034	19.15
213.419	27.85
213.805	-0.58
214.19	9.93
214.576	-7.2
214.961	15.95
215.346	15.11
215.732	18.96
216.117	9.37
216.502	33.73
216.888	6.8
217.273	13.31
217.658	-7.09
218.043	0.85
218.428	21.1
218.813	-19.41
219.198	22.92
219.583	7.8
219.968	-1.43
220.353	25.99
220.738	-10.02
221.122	28.59
221.507	8.49
221.892	-7.02
222.276	4.81
222.661	-31.47
223.046	28.21
223.43	18.55
223.815	-4.28
224.199	-2.79
224.583	8.28
224.968	17.99
225.352	3.15
225.736	12.08
226.121	3.45
226.505	2
226.889	11.66
227.273	8.93
227.657	11.51
228.041	8.83
228.425	10.91
228.809	4.15
229.193	1.61
229.577	4.44
229.961	4.81
230.344	8.21
230.728	3.23
231.112	5.32
231.495	3.9
231.879	4.59
232.263	2.31
232.646	4.4
233.03	4.59
233.413	3.61
233.797	3.57
234.18	3.58
234.563	6.7
234.946	5.51
235.33	1.97
235.713	4.63
236.096	4.46
236.479	3.84
236.862	6.63
237.245	4.78
237.628	5.46
238.011	3.54
238.394	3.29
238.777	4.19
239.16	2.58
239.543	6.01
239.925	4.8
240.308	3.42
240.691	5.57
241.073	5.01
241.456	4.78
241.838	2.88
242.221	6.38
242.603	4.87
242.986	3.53
243.368	3.19
243.75	4.03
244.133	4.89
244.515	3.71
244.897	3.75
245.279	3.65
245.661	3.9
246.043	4.09
246.425	3.5
246.807	4.09
247.189	2.6
247.571	4.85
247.953	4.39
248.335	4.11
248.717	3.91
249.098	3.65
249.48	3.51
249.862	3.58
250.243	3.73
250.625	3.55
251.006	3.62
251.388	3.65
251.769	4.55
252.151	3.64
252.532	2.87
252.913	3.67
253.295	4.54
253.676	3.18
254.057	3.93
254.438	4.43
254.819	2.94
255.2	3.37
255.581	3.24
255.962	3.9
256.343	3.73
256.724	4.14
257.105	4.15
257.486	4.35
257.867	3.88
258.247	4.58
258.628	4.09
259.009	3.45
259.389	3.01
259.77	4.02
260.15	4.93
260.531	3.12
260.911	3.59
261.292	3.59
261.672	3.17
262.052	3.55
262.432	3.36
262.813	3.8
263.193	3.37
263.573	4.11
263.953	2.87
264.333	3.51
264.713	4.09
265.093	3.61
265.473	3.49
265.853	2.51
266.233	3.6
266.612	3.02
266.992	3.11
267.372	3.78
267.752	4.45
268.131	3.62
268.511	3.15
268.89	3.83
269.27	3.47
269.649	3.35
270.029	3.65
270.408	3.56
270.787	3.64
271.167	3.38
271.546	2.95
271.925	3.26
272.304	3.28
272.683	3.62
273.062	4.05
273.441	2.65
273.82	3.68
274.199	3.49
274.578	3.36
274.957	3.52
275.336	3.26
275.715	3.26
276.093	2.91
276.472	3.22
276.851	4.26
277.229	2.58
277.608	3.86
277.986	2.45
278.365	3.38
278.743	2.88
279.122	2.86
279.5	3.23
279.878	3.48
280.257	3.95
280.635	3.33
281.013	3.42
281.391	3.24
281.769	3.55
282.147	3.48
282.525	3.28
282.903	3.6
283.281	3.71
283.659	3.49
284.037	3.32
284.415	3.02
284.792	3.28
285.17	3.66
285.548	3.52
285.925	3.55
286.303	3.36
286.68	3.06
287.058	3.47
287.435	3.31
287.813	3.29
288.19	2.7
288.567	3.3
288.945	3.09
289.322	3.29
289.699	3.25
290.076	3.39
290.453	2.9
290.83	2.88
291.207	3.18
291.584	3.14
291.961	3.01
292.338	2.95
292.715	3.27
293.092	3.19
293.469	3.22
293.845	3.08
294.222	3.4
294.599	3.59
294.975	3.62
295.352	3.37
295.728	2.96
296.105	3.22
296.481	3.17
296.858	3.16
297.234	3.01
297.61	3.36
297.986	3.3
298.363	3.15
298.739	2.96
299.115	3.12
299.491	3.04
299.867	3.15
300.243	3.08
300.619	3.06
300.995	2.83
301.371	3.42
301.746	3.21
302.122	3.06
302.498	3.09
302.874	3.22
303.249	3.28
303.625	3.09
304	2.92
304.376	3.74
304.751	3.58
305.127	3.23
305.502	3.13
305.878	3.27
306.253	3.48
306.628	3.38
307.003	3.47
307.378	3.15
307.754	2.91
308.129	3.09
308.504	2.88
308.879	3.49
309.254	3.3
309.629	3.7
310.003	3.08
310.378	3.87
310.753	3.59
311.128	3.51
311.502	2.97
311.877	2.82
312.252	3.18
312.626	3.02
313.001	3.22
313.375	3.3
313.75	3.39
314.124	3.51
314.498	3.04
314.873	3.22
315.247	3.03
315.621	3.05
315.995	3.11
316.369	2.54
316.743	2.85
317.117	3.76
317.491	3.6
317.865	3
318.239	3.79
318.613	3.54
318.987	2.93
319.361	2.77
319.734	2.85
320.108	2.68
320.482	3.5
320.855	3
321.229	3.51
321.602	3.43
321.976	2.93
322.349	3.38
322.723	3.21
323.096	2.66
323.469	3.18
323.843	2.92
324.216	3.64
324.589	3.4
324.962	2.5
325.335	3.05
325.708	3.14
326.081	3.32
326.454	2.99
326.827	2.93
327.2	3.2
327.573	3.48
327.945	3.17
328.318	3.42
328.691	3.4
329.063	3.2
329.436	3.38
329.809	3.2
330.181	3.24
330.553	3.25
330.926	3.16
331.298	3.37
331.671	3.48
332.043	2.56
332.415	3.47
332.787	3.32
333.159	2.89
333.532	2.82
333.904	3.13
334.276	2.59
334.648	2.62
335.02	2.79
335.391	2.88
335.763	3.43
336.135	3.57
336.507	3.11
336.879	2.91
337.25	3.22
337.622	2.97
337.993	3.12
338.365	3.34
338.736	3.54
339.108	3.71
339.479	3.42
339.851	2.62
340.222	3.02
340.593	2.94
340.964	2.58
341.336	2.93
341.707	2.89
342.078	3.38
342.449	3.41
342.82	2.6
343.191	2.64
343.562	3
343.933	2.74
344.303	2.99
344.674	2.9
345.045	2.91
345.416	3.42
345.786	2.81
346.157	2.9
346.527	3.26
346.898	2.94
347.268	2.72
347.639	2.85
348.009	3.11
348.38	2.88
348.75	3.34
349.12	3.22
349.49	3.38
349.861	3.4
350.231	3.05
350.601	3.06
350.971	2.97
351.341	2.75
351.711	3.12
352.081	3.12
352.45	2.72
352.82	2.63
353.19	3.38
353.56	2.64
353.929	3.24
354.299	3.53
354.669	3.14
355.038	3.09
355.408	2.72
355.777	3.28
356.147	3.06
356.516	3.38
356.885	3.04
357.254	3.37
357.624	2.72
357.993	3.3
358.362	3.02
358.731	2.99
359.1	3.07
359.469	3.14
359.838	2.89
360.207	3.01
360.576	3.33
360.945	3.07
361.314	3.42
361.682	3.35
362.051	3.25
362.42	3.09
362.788	2.9
363.157	3.18
363.525	2.98
363.894	2.95
364.262	3.09
364.631	2.98
364.999	2.93
365.367	3.16
365.735	3
366.104	3.01
366.472	3.24
366.84	2.89
367.208	3.4
367.576	2.98
367.944	3.17
368.312	3.41
368.68	2.86
369.048	3.57
369.416	3.29
369.783	2.95
370.151	3.08
370.519	3.37
370.886	3.3
371.254	2.97
371.621	3.12
371.989	3.3
372.356	2.72
372.724	3.23
373.091	3.26
373.458	2.81
373.826	3.33
374.193	3.6
374.56	3.42
374.927	3.49
375.294	2.8
375.661	2.82
376.028	3.25
376.395	3.15
376.762	2.84
377.129	3.04
377.496	3.4
377.863	3.29
378.229	3.1
378.596	3.08
378.963	3.35
379.329	3.1
379.696	3.28
380.062	3.02
380.429	3.25
380.795	3.25
381.161	2.76
381.528	3.06
381.894	2.56
382.26	3.15
382.626	3.15
382.993	3.35
383.359	3.19
383.725	2.99
384.091	3.31
384.457	3.11
384.823	3.17
385.188	3.03
385.554	3.45
385.92	3.31
386.286	3.21
386.651	2.98
387.017	3.2
387.383	2.94
387.748	3.19
388.114	3.16
388.479	3.3
388.845	2.76
389.21	3.03
389.575	3.55
389.94	2.89
390.306	3.11
390.671	3.73
391.036	2.9
391.401	3.21
391.766	3.27
392.131	3.06
392.496	3.22
392.861	3.18
393.226	3.35
393.591	3.43
393.956	3.25
394.32	3.04
394.685	3.14
395.05	3.31
395.414	3.34
395.779	2.96
396.143	3.21
396.508	3.04
396.872	3.04
397.236	3.4
397.601	3.07
397.965	3.28
398.329	3.04
398.694	3.03
399.058	3.29
399.422	3.13
399.786	3.3
400.15	3.2
400.514	3.27
400.878	3.27
401.242	3.43
401.605	3.01
401.969	2.96
402.333	3.38
402.697	3.04
403.06	3.19
403.424	3.17
403.787	3.15
404.151	3.09
404.514	3.2
404.878	3.28
405.241	3.34
405.604	3.36
405.968	3.32
406.331	3.08
406.694	3.2
407.057	2.99
407.42	3.24
407.783	3.22
408.146	3.16
408.509	2.99
408.872	3.12
409.235	3.21
409.598	3.12
409.961	3.34
410.323	3.28
410.686	3.37
411.049	3.59
411.411	3.28
411.774	3.15
412.136	3.12
412.499	3.09
412.861	3.32
413.223	3.3
413.586	3.19
413.948	3.35
414.31	3.27
414.672	3.14
415.035	3.38
415.397	3.29
415.759	3.49
416.121	3.33
416.483	3.14
416.845	3.13
417.206	3.06
417.568	3.29
417.93	2.95
418.292	3.27
418.653	3.21
419.015	3.07
419.377	2.94
419.738	3.13
420.1	3.01
420.461	3.29
420.822	3.15
421.184	3.18
421.545	3.13
421.906	3.1
422.267	3.07
422.629	3.17
422.99	3.3
423.351	3.12
423.712	3.06
424.073	3.11
424.434	3.1
424.795	3.2
425.155	3.25
425.516	3.24
425.877	3.23
426.238	3.09
426.598	3.11
426.959	3.09
427.32	3.19
427.68	3.08
428.041	3.08
428.401	3.32
428.761	3.21
429.122	3.17
429.482	3.28
429.842	3.23
430.202	3.16
430.563	3.34
430.923	3.31
431.283	3.29
431.643	3.3
432.003	3.18
432.363	3.38
432.722	3.28
433.082	3.33
433.442	3.3
433.802	3.33
434.161	3.08
434.521	3.23
434.881	3.23
435.24	3.1
435.6	3.08
435.959	3.06
436.319	3.31
436.678	3.43
437.037	3.19
437.396	3.27
437.756	3.22
438.115	3.4
438.474	3.16
438.833	3.27
439.192	3.27
439.551	3.28
439.91	3.29
440.269	3.36
440.628	3.11
440.987	3.26
441.345	3.29
441.704	3.32
442.063	3.3
442.421	3.23
442.78	3.26
443.138	3.18
443.497	3.2
443.855	3.24
444.214	3.13
444.572	3.34
444.93	3.22
445.288	3.29
445.647	3.25
446.005	3.25
446.363	3.11
446.721	3.32
447.079	3.23
447.437	3.25
447.795	3.3
448.153	3.12
448.51	3.16
448.868	3.14
449.226	3.19
449.584	3.09
449.941	3.01
450.299	3.21
450.656	3.21
451.014	3.36
451.371	3.28
451.729	3.35
452.086	3.25
452.443	3.36
452.801	3.38
453.158	3.17
453.515	3.3
453.872	3.33
454.229	3.25
454.586	3.38
454.943	3.21
455.3	3.23
455.657	3.16
456.014	3.26
456.371	3.28
456.727	3.53
457.084	3.26
457.441	3.21
457.797	3.4
458.154	3.36
458.51	3.25
458.867	3.29
459.223	3.28
459.58	3.45
459.936	3.41
460.292	3.42
460.648	3.31
461.005	3.29
461.361	3.44
461.717	3.06
462.073	3.3
462.429	3.15
462.785	3.29
463.141	3.29
463.496	3.53
463.852	3.31
464.208	3.33
464.564	3.54
464.919	3.24
465.275	3.54
465.631	3.58
465.986	3.34
466.342	3.4
466.697	3.32
467.052	3.34
467.408	3.47
467.763	3.35
468.118	3.4
468.473	3.15
468.829	3.16
469.184	3.38
469.539	3.4
469.894	3.34
470.249	3.5
470.603	3.33
470.958	3.33
471.313	3.33
471.668	3.54
472.023	3.27
472.377	3.42
472.732	3.28
473.086	3.5
473.441	3.16
473.795	3.45
474.15	3.22
474.504	3.34
474.859	3.48
475.213	3.19
475.567	3.35
475.921	3.28
476.275	3.43
476.63	3.17
476.984	3.2
477.338	3.51
477.692	3.36
478.045	3.56
478.399	3.39
478.753	3.36
479.107	3.49
479.461	3.34
479.814	3.5
480.168	3.46
480.521	3.38
480.875	3.42
481.228	3.3
481.582	3.22
481.935	3.4
482.289	3.31
482.642	3.35
482.995	3.27
483.348	3.37
483.701	3.33
484.055	3.27
484.408	3.37
484.761	3.34
485.114	3.25
485.466	3.27
485.819	3.16
486.172	3.14
486.525	3.13
486.878	3.16
487.23	3.25
487.583	3.27
487.936	3.31
488.288	3.33
488.641	3.25
488.993	3.22
489.345	3.2
489.698	3.22
490.05	3.2
490.402	3.25
490.754	3.23
491.107	3.18
491.459	3.35
491.811	3.28
492.163	3.36
492.515	3.35
492.866	3.29
493.218	3.32
493.57	3.3
493.922	3.23
494.274	3.24
494.625	3.26
494.977	3.41
495.328	3.42
495.68	3.42
496.031	3.47
496.383	3.35
496.734	3.44
497.086	3.42
497.437	3.42
497.788	3.47
498.139	3.48
498.49	3.43
498.842	3.29
499.193	3.33
499.544	3.41
499.894	3.44
500.245	3.47
500.596	3.41
500.947	3.52
501.298	3.54
501.648	3.53
501.999	3.43
502.35	3.53
502.7	3.58
503.051	3.49
503.401	3.62
503.752	3.46
504.102	3.65
504.452	3.43
504.803	3.52
505.153	3.53
505.503	3.58
505.853	3.63
506.203	3.44
506.553	3.59
506.903	3.6
507.253	3.55
507.603	3.56
507.953	3.56
508.303	3.55
508.652	3.47
509.002	3.52
509.352	3.47
509.701	3.58
510.051	3.57
510.4	3.68
510.75	3.47
511.099	3.42
511.449	3.52
511.798	3.6
512.147	3.61
512.496	3.57
512.846	3.53
513.195	3.51
513.544	3.59
513.893	3.62
514.242	3.53
514.591	3.6
514.939	3.62
515.288	3.47
515.637	3.48
515.986	3.5
516.334	3.55
516.683	3.67
517.032	3.7
517.38	3.6
517.729	3.72
518.077	3.62
518.426	3.55
518.774	3.65
519.122	3.66
519.47	3.6
519.819	3.55
520.167	3.62
520.515	3.59
520.863	3.54
521.211	3.54
521.559	3.55
521.907	3.6
522.255	3.54
522.602	3.62
522.95	3.64
523.298	3.64
523.645	3.69
523.993	3.62
524.341	3.59
524.688	3.76
525.036	3.6
525.383	3.7
525.73	3.76
526.078	3.72
526.425	3.8
526.772	3.76
527.119	3.71
527.466	3.56
527.814	3.65
528.161	3.67
528.508	3.65
528.854	3.61
529.201	3.77
529.548	3.73
529.895	3.59
530.242	3.59
530.588	3.52
530.935	3.47
531.282	3.51
531.628	3.55
531.975	3.5
532.321	3.56
532.667	3.65
533.014	3.7
533.36	3.63
533.706	3.64
534.052	3.77
534.399	3.83
534.745	3.76
535.091	3.67
535.437	3.68
535.783	3.6
536.129	3.67
536.474	3.76
536.82	3.66
537.166	3.85
537.512	3.77
537.857	3.77
538.203	3.87
538.549	3.71
538.894	3.75
539.239	3.78
539.585	3.79
539.93	3.79
540.276	3.82
540.621	3.9
540.966	3.94
541.311	3.93
541.656	3.83
542.001	3.9
542.346	4.03
542.691	3.88
543.036	3.84
543.381	3.83
543.726	3.79
544.071	3.74
544.415	3.78
544.76	3.75
545.105	3.75
545.449	3.75
545.794	3.86
546.138	3.92
546.483	3.92
546.827	3.85
547.171	3.96
547.516	4.07
547.86	4.05
548.204	4.02
548.548	3.94
548.892	4.05
549.236	3.97
549.58	4.07
549.924	4.02
550.268	4.07
550.612	4.05
550.956	4.07
551.3	4.14
551.643	4.19
551.987	4.13
552.33	4.22
552.674	4.02
553.017	4.14
553.361	4.12
553.704	4.33
554.048	4.18
554.391	4.27
554.734	4.23
555.077	4.19
555.42	4.16
555.764	4.25
556.107	4.19
556.45	4.3
556.793	4.11
557.135	4.24
557.478	4.23
557.821	4.39
558.164	4.29
558.507	4.4
558.849	4.14
559.192	4.49
559.534	4.44
559.877	4.26
560.219	4.4
560.562	4.48
560.904	4.63
561.246	4.63
561.589	4.6
561.931	4.16
562.273	4.14
562.615	4.42
562.957	4.41
563.299	4.47
563.641	4.46
563.983	4.46
564.325	4.62
564.667	4.49
565.008	4.35
565.35	4.6
565.692	4.62
566.033	4.62
566.375	4.49
566.716	4.57
567.058	4.46
567.399	4.65
567.741	4.78
568.082	4.51
568.423	4.67
568.764	4.82
569.105	4.4
569.447	4.68
569.788	4.42
570.129	4.64
570.47	4.85
570.811	4.68
571.151	4.82
571.492	4.69
571.833	4.54
572.174	4.63
572.514	4.73
572.855	4.71
573.195	4.65
573.536	4.7
573.876	4.7
574.217	4.67
574.557	4.64
574.898	4.92
575.238	4.65
575.578	4.86
575.918	4.83
576.258	4.75
576.598	4.82
576.938	4.73
577.278	4.95
577.618	4.65
577.958	4.92
578.298	4.9
578.638	4.92
578.977	4.99
579.317	4.78
579.657	5.08
579.996	5.1
580.336	5.23
580.675	5.19
581.014	4.91
581.354	4.83
581.693	5.34
582.032	5.16
582.372	5.12
582.711	5.16
583.05	5.21
583.389	5.28
583.728	5.13
584.067	5.02
584.406	5.16
584.745	5.03
585.083	5.41
585.422	5.42
585.761	5.33
586.1	5.22
586.438	5.28
586.777	5.29
587.115	5.43
587.454	5.08
587.792	5.36
588.13	5.35
588.469	5.18
588.807	5.56
589.145	5.54
589.483	5.51
589.821	5.24
590.159	5.27
590.497	5.62
590.835	5.29
591.173	5.42
591.511	5.48
591.849	5.47
592.187	5.23
592.524	5.38
592.862	5.46
593.2	5.45
593.537	5.52
593.875	5.57
594.212	5.72
594.55	5.7
594.887	5.34
595.224	5.8
595.561	5.77
595.899	5.84
596.236	5.91
596.573	5.72
596.91	5.82
597.247	5.51
597.584	5.94
597.921	5.9
598.258	5.81
598.594	5.81
598.931	5.79
599.268	5.84
599.604	5.94
599.941	5.85
600.277	5.82
600.614	5.89
600.95	5.75
601.287	5.73
601.623	5.83
601.959	6.1
602.296	5.94
602.632	5.72
602.968	5.8
603.304	5.8
603.64	6.05
603.976	5.86
604.312	6.34
604.648	5.99
604.984	6.15
605.319	5.82
605.655	5.92
605.991	6.15
606.326	6.31
606.662	5.97
606.998	5.93
607.333	6.36
607.668	6.09
608.004	6.31
608.339	6.2
608.674	6.16
609.01	6.32
609.345	6.26
609.68	6.41
610.015	6.34
610.35	6.34
610.685	6.59
611.02	6.49
611.355	6.6
611.689	6.37
612.024	6.46
612.359	6.31
612.694	6.34
613.028	6.37
613.363	6.35
613.697	6.52
614.032	6.43
614.366	6.25
614.7	6.48
615.035	6.34
615.369	6.46
615.703	6.8
616.037	6.67
616.371	6.74
616.705	6.92
617.039	6.66
617.373	6.47
617.707	6.67
618.041	7.06
618.375	6.81
618.709	6.73
619.042	7.15
619.376	6.99
619.71	7
620.043	6.43
620.377	6.93
620.71	6.9
621.043	6.97
621.377	6.95
621.71	6.68
622.043	7
622.376	7.21
622.709	7.19
623.043	6.96
623.376	7.13
623.709	7.13
624.041	6.89
624.374	7.27
624.707	7.59
625.04	7.26
625.373	6.86
625.705	7.09
626.038	7.16
626.37	7.16
626.703	7.02
627.035	7.16
627.368	7.24
627.7	7.56
628.032	7.54
628.365	7.37
628.697	7.25
629.029	7.28
629.361	7.25
629.693	7.35
630.025	7.42
630.357	7.24
630.689	7.24
631.021	7.12
631.353	7.36
631.684	7.46
632.016	7.69
632.348	7.61
632.679	7.32
633.011	7.39
633.342	7.78
633.674	7.93
634.005	7.45
634.336	7.78
634.668	7.62
634.999	7.82
635.33	7.97
635.661	7.64
635.992	7.37
636.323	7.72
636.654	7.61
636.985	7.66
637.316	7.5
637.647	7.82
637.977	7.51
638.308	8.11
638.639	8.06
638.969	8.02
639.3	7.88
639.63	8.22
639.961	7.7
640.291	7.88
640.622	7.89
640.952	7.89
641.282	8.01
641.612	7.79
641.943	7.97
642.273	7.8
642.603	7.61
642.933	8.09
643.263	7.82
643.592	8.25
643.922	8.73
644.252	8.05
644.582	8.7
644.911	8.39
645.241	8.67
645.571	8.22
645.9	8.84
646.23	8.59
646.559	8.61
646.888	8.63
647.218	8.05
647.547	8.32
647.876	8.41
648.205	8.58
648.534	8.57
648.863	8.33
649.192	8.13
649.521	8.73
649.85	8.41
650.179	8.68
650.508	8.74
650.837	8.87
651.165	8.69
651.494	8.78
651.822	8.85
652.151	8.51
652.479	8.59
652.808	8.51
653.136	8.83
653.465	8.95
653.793	8.31
654.121	8.93
654.449	8.36
654.777	9.03
655.105	9.02
655.433	9.31
655.761	9.43
656.089	8.98
656.417	9
656.745	9.38
657.073	9.23
657.4	9.8
657.728	9.22
658.056	9.2
658.383	9.29
658.711	9
659.038	8.62
659.365	9.44
659.693	9.36
660.02	9.31
660.347	9.3
660.674	9.11
661.001	8.93
661.329	9.33
661.656	9.31
661.982	9.45
662.309	9.36
662.636	9.34
662.963	9.13
663.29	9.17
663.616	9.27
663.943	9.59
664.27	9.57
664.596	9.44
664.923	9.59
665.249	9.27
665.576	9.56
665.902	9.24
666.228	9.27
666.554	9.29
666.881	9.44
667.207	9.3
667.533	9.6
667.859	9.72
668.185	9.78
668.511	10.13
668.837	9.51
669.162	9.76
669.488	9.71
669.814	9.74
670.139	9.59
670.465	10.21
670.791	10.13
671.116	9.62
671.442	10.82
671.767	9.88
672.092	10.68
672.418	10.16
672.743	9.93
673.068	10.39
673.393	9.62
673.718	10.47
674.043	10.81
674.368	9.86
674.693	10.45
675.018	10.11
675.343	10.57
675.667	10.41
675.992	9.95
676.317	10.44
676.641	10.6
676.966	10.04
677.29	9.92
677.615	10.81
677.939	11.07
678.264	10.28
678.588	11.3
678.912	10.72
679.236	10.61
679.56	10.71
679.885	10.98
680.209	11.09
680.532	10.27
680.856	10.6
681.18	11.08
681.504	10.73
681.828	10.93
682.152	10.2
682.475	11.06
682.799	10.84
683.122	10.74
683.446	10.39
683.769	11.15
684.093	11.04
684.416	11.25
684.739	10.92
685.062	11.27
685.386	10.39
685.709	10.77
686.032	10.96
686.355	10.65
686.678	10.87
687.001	10.61
687.324	11.7
687.646	11.39
687.969	11.72
688.292	10.78
688.614	11.67
688.937	10.89
689.26	11.51
689.582	11.57
689.904	10.87
690.227	11.9
690.549	11.87
690.871	11.39
691.194	11.46
691.516	11.03
