Data from 0430_crown_Reflection__1__98.txt Node

Date: Tue Dec 12 18:58:24 CST 2023
User: ToomeyLab
Spectrometer: FLMS14357
Trigger mode: 0
Integration Time (sec): 1.000000E-2
Scans to average: 100
Electric dark correction enabled: true
Nonlinearity correction enabled: false
Boxcar width: 0
XAxis mode: Wavelengths
Number of Pixels in Spectrum: 2048
>>>>>Begin Spectral Data<<<<<
189.047	-744.12
189.435	-744.12
189.823	-744.12
190.211	280.09
190.599	64.39
190.987	139.97
191.375	-66.32
191.763	-203.74
192.151	-4.56
192.538	62.39
192.926	315.16
193.314	323.05
193.702	61.87
194.089	160.85
194.477	-112.89
194.864	31.53
195.252	-22.59
195.639	-4055.24
196.027	57.29
196.414	-1005.3
196.801	25.4
197.189	408.66
197.576	51.57
197.963	174.84
198.351	12.11
198.738	64.84
199.125	-36.7
199.512	-46.12
199.899	51.53
200.286	29.09
200.673	-37.33
201.06	-43.38
201.447	-61.95
201.833	11.05
202.22	0.54
202.607	-263.34
202.994	1.24
203.38	-46.6
203.767	-44.83
204.154	14.07
204.54	35.26
204.927	-51.03
205.313	30.8
205.699	-2.69
206.086	-24.16
206.472	47.97
206.858	1.92
207.245	9.63
207.631	-5.35
208.017	17.32
208.403	9.18
208.789	15.46
209.175	-18.2
209.561	7.19
209.947	-77.67
210.333	10.6
210.719	3.5
211.105	-60.52
211.491	18.09
211.876	-4.14
212.262	20.24
212.648	-30.6
213.034	-18.99
213.419	0.62
213.805	9.26
214.19	23.15
214.576	8.9
214.961	-3.04
215.346	7.42
215.732	45.45
216.117	14.43
216.502	-81.08
216.888	-22.13
217.273	-24.38
217.658	-60.66
218.043	-14.99
218.428	-0.22
218.813	18.4
219.198	-57.48
219.583	13.92
219.968	31.47
220.353	22.07
220.738	5.46
221.122	19.97
221.507	-35.32
221.892	0.05
222.276	9.14
222.661	-4.58
223.046	-3.19
223.43	2.16
223.815	-6.84
224.199	1.39
224.583	0.19
224.968	3.17
225.352	-7.64
225.736	1.4
226.121	3.02
226.505	2.81
226.889	-5.6
227.273	-5.21
227.657	1.11
228.041	-1.16
228.425	-1.45
228.809	0.8
229.193	-1.02
229.577	3.12
229.961	-0.42
230.344	1.27
230.728	1.62
231.112	2.59
231.495	1.48
231.879	3.29
232.263	1.39
232.646	0.02
233.03	2.51
233.413	1.17
233.797	0.63
234.18	-1.68
234.563	1.54
234.946	-0.4
235.33	4.17
235.713	1.67
236.096	1.69
236.479	0.06
236.862	2.29
237.245	2.86
237.628	-0.68
238.011	1.97
238.394	0.83
238.777	2.5
239.16	0.72
239.543	2.34
239.925	1.18
240.308	3.2
240.691	0.39
241.073	3.51
241.456	1.86
241.838	1.27
242.221	1.61
242.603	2.4
242.986	1.02
243.368	2.66
243.75	1.05
244.133	1.63
244.515	2.19
244.897	2.43
245.279	2.72
245.661	1.36
246.043	1.29
246.425	1.67
246.807	1.58
247.189	2.11
247.571	2.5
247.953	1.37
248.335	2.05
248.717	1.91
249.098	1.91
249.48	1.7
249.862	1.52
250.243	1.64
250.625	2.32
251.006	1.9
251.388	2.02
251.769	1.78
252.151	1.7
252.532	1.68
252.913	1.8
253.295	2.88
253.676	1.24
254.057	1.66
254.438	1.97
254.819	0.16
255.2	1.02
255.581	1.67
255.962	-0.47
256.343	1.01
256.724	1.15
257.105	1.84
257.486	1.21
257.867	1.59
258.247	1.89
258.628	2.02
259.009	1.11
259.389	2.06
259.77	0.45
260.15	1.1
260.531	2.01
260.911	1.85
261.292	1.72
261.672	1.65
262.052	1.72
262.432	2.03
262.813	2.14
263.193	1.88
263.573	1.83
263.953	2.8
264.333	2.68
264.713	1.1
265.093	1.78
265.473	1.77
265.853	0.88
266.233	1.7
266.612	1.1
266.992	2.09
267.372	1.33
267.752	2.17
268.131	1
268.511	1.54
268.89	1.05
269.27	1.49
269.649	1.57
270.029	1.54
270.408	1.76
270.787	1.51
271.167	1.81
271.546	1.44
271.925	2.48
272.304	2.12
272.683	1.31
273.062	1.41
273.441	1.9
273.82	0.76
274.199	1.64
274.578	1.47
274.957	1.78
275.336	1.7
275.715	1.76
276.093	1.64
276.472	2.01
276.851	1.71
277.229	1.32
277.608	1.45
277.986	1.87
278.365	1.27
278.743	1.81
279.122	1.68
279.5	1.21
279.878	1.35
280.257	1
280.635	1.13
281.013	1.22
281.391	1.6
281.769	1.67
282.147	1.43
282.525	1.55
282.903	1.35
283.281	0.84
283.659	1.42
284.037	1.67
284.415	1.44
284.792	1.86
285.17	1.12
285.548	2.08
285.925	1.59
286.303	1.87
286.68	1.29
287.058	1.97
287.435	1.67
287.813	1.32
288.19	1.34
288.567	1.39
288.945	1.76
289.322	0.75
289.699	1.79
290.076	1.74
290.453	1.5
290.83	1.11
291.207	2.12
291.584	1.93
291.961	1.9
292.338	2
292.715	1.73
293.092	1.54
293.469	1.34
293.845	1.71
294.222	1.34
294.599	1.54
294.975	1.35
295.352	1.2
295.728	1.79
296.105	1.38
296.481	2.12
296.858	1.96
297.234	1.68
297.61	1.89
297.986	2.42
298.363	2.15
298.739	1.89
299.115	1.63
299.491	1.95
299.867	1.57
300.243	1.74
300.619	2.25
300.995	2.15
301.371	2.1
301.746	1.63
302.122	2.54
302.498	2.01
302.874	1.88
303.249	2.46
303.625	1.71
304	1.8
304.376	1.6
304.751	2.61
305.127	1.74
305.502	2.13
305.878	1.51
306.253	1.88
306.628	2.03
307.003	1.83
307.378	1.96
307.754	2
308.129	1.64
308.504	2.72
308.879	1.39
309.254	2.38
309.629	1.28
310.003	2.06
310.378	2
310.753	2.73
311.128	2.26
311.502	1.57
311.877	1.74
312.252	1.48
312.626	1.84
313.001	1.61
313.375	1.28
313.75	2.32
314.124	2.46
314.498	2.25
314.873	1.81
315.247	1.79
315.621	1.68
315.995	1.68
316.369	1.84
316.743	2.19
317.117	1.3
317.491	1.49
317.865	1.79
318.239	2.63
318.613	2.27
318.987	2.59
319.361	1.69
319.734	1.55
320.108	1.85
320.482	1.57
320.855	1.65
321.229	1.59
321.602	2.63
321.976	2.61
322.349	2.27
322.723	1.59
323.096	2.24
323.469	1.77
323.843	2.6
324.216	2.41
324.589	2.38
324.962	2.4
325.335	2.46
325.708	2.52
326.081	2.23
326.454	1.56
326.827	1.71
327.2	2.04
327.573	1.5
327.945	1.93
328.318	2.59
328.691	1.33
329.063	1.9
329.436	2.13
329.809	2.09
330.181	1.75
330.553	1.43
330.926	1.82
331.298	1.94
331.671	2.24
332.043	1.34
332.415	1.8
332.787	2.3
333.159	1.89
333.532	2.16
333.904	2.17
334.276	2.4
334.648	1.38
335.02	1.68
335.391	1.51
335.763	1.88
336.135	1.89
336.507	2.44
336.879	1.95
337.25	1.91
337.622	1.82
337.993	1.52
338.365	1.65
338.736	1.57
339.108	1.86
339.479	2.14
339.851	1.96
340.222	1.73
340.593	2.24
340.964	2.48
341.336	2.5
341.707	1.71
342.078	2
342.449	1.79
342.82	2.36
343.191	1.94
343.562	2.02
343.933	2.47
344.303	2.23
344.674	2.12
345.045	1.82
345.416	1.83
345.786	1.76
346.157	2.05
346.527	2.69
346.898	1.44
347.268	1.83
347.639	2.04
348.009	2.08
348.38	1.55
348.75	2.22
349.12	2.34
349.49	1.93
349.861	2.77
350.231	2.29
350.601	2.66
350.971	2.33
351.341	1.95
351.711	2.43
352.081	1.87
352.45	2.1
352.82	2.35
353.19	2.06
353.56	1.71
353.929	1.8
354.299	1.73
354.669	1.93
355.038	1.63
355.408	1.89
355.777	2.43
356.147	2
356.516	2.15
356.885	2.28
357.254	1.79
357.624	1.62
357.993	1.85
358.362	1.92
358.731	2.14
359.1	1.6
359.469	1.84
359.838	1.71
360.207	1.94
360.576	2.37
360.945	1.58
361.314	2.67
361.682	2.01
362.051	2.26
362.42	2.43
362.788	1.8
363.157	2.63
363.525	2.42
363.894	1.74
364.262	2.18
364.631	1.78
364.999	2.16
365.367	2.46
365.735	2.07
366.104	2.12
366.472	2.03
366.84	1.92
367.208	2.02
367.576	2.08
367.944	2.22
368.312	1.95
368.68	2
369.048	2.31
369.416	2.16
369.783	2.36
370.151	1.9
370.519	1.69
370.886	2.3
371.254	2.05
371.621	2.34
371.989	1.85
372.356	1.87
372.724	1.78
373.091	1.96
373.458	2.19
373.826	2.11
374.193	2.08
374.56	2.23
374.927	2.06
375.294	1.91
375.661	2.31
376.028	2.19
376.395	2.22
376.762	2.49
377.129	1.98
377.496	1.79
377.863	2.13
378.229	2.32
378.596	1.74
378.963	2.22
379.329	1.93
379.696	2.05
380.062	2.26
380.429	1.96
380.795	2.11
381.161	2.33
381.528	2.33
381.894	2.17
382.26	1.86
382.626	2.35
382.993	2.43
383.359	1.93
383.725	2.02
384.091	2.33
384.457	1.99
384.823	2.07
385.188	1.95
385.554	2.05
385.92	2.09
386.286	2.52
386.651	2.03
387.017	2.38
387.383	2.16
387.748	2.19
388.114	2.27
388.479	2.31
388.845	2.01
389.21	1.88
389.575	2
389.94	2.08
390.306	2.32
390.671	2.36
391.036	2.36
391.401	1.89
391.766	1.97
392.131	2.14
392.496	2
392.861	2.01
393.226	2.1
393.591	2.19
393.956	2.29
394.32	2.04
394.685	2.22
395.05	1.81
395.414	2
395.779	2.05
396.143	2.34
396.508	2
396.872	2.26
397.236	2.11
397.601	2.23
397.965	2.26
398.329	2.14
398.694	1.94
399.058	1.98
399.422	2.24
399.786	2.15
400.15	1.87
400.514	2.44
400.878	2.23
401.242	2.33
401.605	2.19
401.969	2.53
402.333	2.3
402.697	2.17
403.06	1.99
403.424	2.23
403.787	2.03
404.151	2.48
404.514	1.94
404.878	2.05
405.241	2.1
405.604	1.97
405.968	1.95
406.331	2.31
406.694	2.39
407.057	2.07
407.42	2.04
407.783	2.09
408.146	2.13
408.509	2.13
408.872	2.28
409.235	2.09
409.598	2.32
409.961	2.04
410.323	2.29
410.686	2.23
411.049	2.3
411.411	2.31
411.774	2.23
412.136	2.32
412.499	2.2
412.861	2.27
413.223	2.41
413.586	2.09
413.948	2.11
414.31	2.16
414.672	2.22
415.035	2.25
415.397	2.13
415.759	2.02
416.121	2.2
416.483	2.13
416.845	2.23
417.206	2.14
417.568	2.26
417.93	2.36
418.292	2.16
418.653	2.24
419.015	2.16
419.377	2.08
419.738	2.2
420.1	2.08
420.461	2.14
420.822	2.22
421.184	2.26
421.545	2.4
421.906	2.12
422.267	2.23
422.629	2.14
422.99	2.18
423.351	2.19
423.712	2.22
424.073	2.21
424.434	2.19
424.795	2.13
425.155	2.19
425.516	2.1
425.877	2.15
426.238	2.18
426.598	2.21
426.959	2.06
427.32	2.21
427.68	2.14
428.041	2.12
428.401	2.2
428.761	2.11
429.122	2.21
429.482	2.32
429.842	2.24
430.202	2.26
430.563	2.21
430.923	2.23
431.283	2.15
431.643	2.24
432.003	2.01
432.363	2.22
432.722	2.06
433.082	2.06
433.442	2.37
433.802	2.26
434.161	2.27
434.521	2.17
434.881	2.19
435.24	2.29
435.6	2.31
435.959	2.26
436.319	2.32
436.678	2.42
437.037	2.2
437.396	2.06
437.756	2.25
438.115	2.31
438.474	2.2
438.833	2.45
439.192	2.31
439.551	2.31
439.91	2.16
440.269	2.19
440.628	2.13
440.987	2.21
441.345	2.32
441.704	2.32
442.063	2.23
442.421	2.26
442.78	2.21
443.138	2.21
443.497	2.32
443.855	2.25
444.214	2.25
444.572	2.24
444.93	2.36
445.288	2.11
445.647	2.35
446.005	2.06
446.363	2.17
446.721	2.14
447.079	2.22
447.437	2.16
447.795	2.27
448.153	2.22
448.51	2.19
448.868	2.16
449.226	2.28
449.584	2.18
449.941	2.19
450.299	2.23
450.656	2.09
451.014	2.21
451.371	2.37
451.729	2.32
452.086	2.28
452.443	2.46
452.801	2.4
453.158	2.14
453.515	2.29
453.872	2.29
454.229	2.27
454.586	2.14
454.943	2.2
455.3	2.22
455.657	2.24
456.014	2.35
456.371	2.45
456.727	2.33
457.084	2.24
457.441	2.32
457.797	2.35
458.154	2.25
458.51	2.19
458.867	2.35
459.223	2.36
459.58	2.25
459.936	2.08
460.292	2.38
460.648	2.31
461.005	2.3
461.361	2.16
461.717	2.31
462.073	2.19
462.429	2.22
462.785	2.26
463.141	2.17
463.496	2.12
463.852	2.38
464.208	2.36
464.564	2.27
464.919	2.37
465.275	2.51
465.631	2.42
465.986	2.21
466.342	2.2
466.697	2.38
467.052	2.45
467.408	2.44
467.763	2.46
468.118	2.31
468.473	2.48
468.829	2.44
469.184	2.27
469.539	2.38
469.894	2.6
470.249	2.21
470.603	2.5
470.958	2.41
471.313	2.59
471.668	2.37
472.023	2.3
472.377	2.25
472.732	2.15
473.086	2.41
473.441	2.55
473.795	2.21
474.15	2.4
474.504	2.37
474.859	2.38
475.213	2.29
475.567	2.41
475.921	2.2
476.275	2.21
476.63	2.28
476.984	2.39
477.338	2.27
477.692	2.27
478.045	2.42
478.399	2.31
478.753	2.28
479.107	2.43
479.461	2.42
479.814	2.41
480.168	2.22
480.521	2.32
480.875	2.37
481.228	2.35
481.582	2.26
481.935	2.53
482.289	2.42
482.642	2.45
482.995	2.35
483.348	2.36
483.701	2.51
484.055	2.33
484.408	2.26
484.761	2.33
485.114	2.23
485.466	2.2
485.819	2.16
486.172	2.14
486.525	2.18
486.878	2.21
487.23	2.23
487.583	2.27
487.936	2.27
488.288	2.23
488.641	2.26
488.993	2.23
489.345	2.22
489.698	2.18
490.05	2.22
490.402	2.24
490.754	2.21
491.107	2.22
491.459	2.28
491.811	2.37
492.163	2.34
492.515	2.29
492.866	2.2
493.218	2.3
493.57	2.21
493.922	2.2
494.274	2.32
494.625	2.34
494.977	2.33
495.328	2.43
495.68	2.36
496.031	2.46
496.383	2.36
496.734	2.37
497.086	2.33
497.437	2.37
497.788	2.43
498.139	2.42
498.49	2.52
498.842	2.36
499.193	2.39
499.544	2.36
499.894	2.39
500.245	2.44
500.596	2.35
500.947	2.4
501.298	2.37
501.648	2.53
501.999	2.25
502.35	2.38
502.7	2.47
503.051	2.32
503.401	2.47
503.752	2.51
504.102	2.41
504.452	2.37
504.803	2.39
505.153	2.39
505.503	2.51
505.853	2.46
506.203	2.37
506.553	2.31
506.903	2.44
507.253	2.39
507.603	2.43
507.953	2.31
508.303	2.41
508.652	2.42
509.002	2.45
509.352	2.31
509.701	2.39
510.051	2.43
510.4	2.5
510.75	2.43
511.099	2.28
511.449	2.44
511.798	2.5
512.147	2.34
512.496	2.57
512.846	2.41
513.195	2.26
513.544	2.38
513.893	2.38
514.242	2.36
514.591	2.32
514.939	2.51
515.288	2.27
515.637	2.39
515.986	2.4
516.334	2.43
516.683	2.3
517.032	2.51
517.38	2.34
517.729	2.5
518.077	2.36
518.426	2.41
518.774	2.46
519.122	2.35
519.47	2.35
519.819	2.35
520.167	2.25
520.515	2.35
520.863	2.42
521.211	2.32
521.559	2.39
521.907	2.38
522.255	2.43
522.602	2.51
522.95	2.38
523.298	2.4
523.645	2.55
523.993	2.58
524.341	2.41
524.688	2.39
525.036	2.62
525.383	2.54
525.73	2.34
526.078	2.36
526.425	2.36
526.772	2.4
527.119	2.38
527.466	2.44
527.814	2.33
528.161	2.41
528.508	2.4
528.854	2.38
529.201	2.43
529.548	2.41
529.895	2.32
530.242	2.29
530.588	2.31
530.935	2.34
531.282	2.35
531.628	2.38
531.975	2.34
532.321	2.38
532.667	2.34
533.014	2.32
533.36	2.42
533.706	2.34
534.052	2.35
534.399	2.36
534.745	2.38
535.091	2.34
535.437	2.3
535.783	2.4
536.129	2.38
536.474	2.42
536.82	2.46
537.166	2.51
537.512	2.42
537.857	2.48
538.203	2.43
538.549	2.42
538.894	2.4
539.239	2.36
539.585	2.43
539.93	2.57
540.276	2.46
540.621	2.39
540.966	2.33
541.311	2.44
541.656	2.38
542.001	2.48
542.346	2.34
542.691	2.38
543.036	2.34
543.381	2.25
543.726	2.34
544.071	2.38
544.415	2.34
544.76	2.41
545.105	2.4
545.449	2.49
545.794	2.46
546.138	2.29
546.483	2.43
546.827	2.52
547.171	2.48
547.516	2.48
547.86	2.47
548.204	2.43
548.548	2.33
548.892	2.41
549.236	2.5
549.58	2.5
549.924	2.48
550.268	2.57
550.612	2.28
550.956	2.41
551.3	2.71
551.643	2.52
551.987	2.6
552.33	2.48
552.674	2.59
553.017	2.64
553.361	2.64
553.704	2.47
554.048	2.5
554.391	2.55
554.734	2.48
555.077	2.62
555.42	2.42
555.764	2.67
556.107	2.57
556.45	2.38
556.793	2.44
557.135	2.48
557.478	2.61
557.821	2.41
558.164	2.49
558.507	2.55
558.849	2.53
559.192	2.51
559.534	2.6
559.877	2.58
560.219	2.42
560.562	2.42
560.904	2.57
561.246	2.54
561.589	2.45
561.931	2.57
562.273	2.4
562.615	2.44
562.957	2.63
563.299	2.61
563.641	2.65
563.983	2.42
564.325	2.72
564.667	2.55
565.008	2.45
565.35	2.36
565.692	2.5
566.033	2.62
566.375	2.58
566.716	2.51
567.058	2.64
567.399	2.66
567.741	2.48
568.082	2.48
568.423	2.49
568.764	2.7
569.105	2.47
569.447	2.7
569.788	2.61
570.129	2.51
570.47	2.65
570.811	2.61
571.151	2.55
571.492	2.75
571.833	2.53
572.174	2.45
572.514	2.54
572.855	2.64
573.195	2.54
573.536	2.41
573.876	2.54
574.217	2.62
574.557	2.44
574.898	2.59
575.238	2.63
575.578	2.45
575.918	2.5
576.258	2.55
576.598	2.57
576.938	2.53
577.278	2.57
577.618	2.63
577.958	2.65
578.298	2.68
578.638	2.56
578.977	2.59
579.317	2.54
579.657	2.52
579.996	2.68
580.336	2.82
580.675	2.64
581.014	2.62
581.354	2.58
581.693	2.62
582.032	2.67
582.372	2.74
582.711	2.65
583.05	2.49
583.389	2.83
583.728	2.6
584.067	2.63
584.406	2.77
584.745	2.86
585.083	2.55
585.422	2.87
585.761	2.82
586.1	2.67
586.438	2.86
586.777	2.65
587.115	2.5
587.454	2.88
587.792	2.53
588.13	2.84
588.469	2.73
588.807	2.49
589.145	2.74
589.483	2.53
589.821	2.63
590.159	2.72
590.497	2.64
590.835	2.61
591.173	2.46
591.511	2.63
591.849	2.49
592.187	2.54
592.524	2.7
592.862	2.59
593.2	2.46
593.537	2.51
593.875	2.86
594.212	2.87
594.55	2.52
594.887	2.86
595.224	2.6
595.561	2.96
595.899	2.62
596.236	2.73
596.573	2.89
596.91	3.03
597.247	2.61
597.584	2.54
597.921	2.61
598.258	2.66
598.594	2.75
598.931	2.77
599.268	2.58
599.604	2.54
599.941	2.46
600.277	2.51
600.614	2.69
600.95	2.83
601.287	2.83
601.623	2.63
601.959	2.67
602.296	2.83
602.632	2.53
602.968	2.75
603.304	2.65
603.64	2.93
603.976	2.35
604.312	2.52
604.648	2.48
604.984	2.73
605.319	2.51
605.655	2.52
605.991	2.76
606.326	2.59
606.662	2.71
606.998	2.5
607.333	2.66
607.668	2.71
608.004	2.57
608.339	2.9
608.674	2.6
609.01	2.7
609.345	3
609.68	2.75
610.015	2.24
610.35	2.82
610.685	2.73
611.02	2.66
611.355	2.56
611.689	2.46
612.024	2.63
612.359	2.77
612.694	2.69
613.028	2.71
613.363	2.81
613.697	2.76
614.032	2.88
614.366	2.77
614.7	2.56
615.035	2.62
615.369	2.55
615.703	2.6
616.037	2.58
616.371	2.55
616.705	2.81
617.039	2.88
617.373	2.57
617.707	2.64
618.041	2.93
618.375	2.35
618.709	2.89
619.042	2.43
619.376	2.37
619.71	2.77
620.043	2.63
620.377	2.69
620.71	2.52
621.043	2.24
621.377	2.37
621.71	2.76
622.043	2.68
622.376	2.74
622.709	2.95
623.043	2.42
623.376	2.76
623.709	2.81
624.041	2.89
624.374	2.83
624.707	2.95
625.04	2.74
625.373	3.3
625.705	3.04
626.038	2.88
626.37	2.95
626.703	2.87
627.035	2.54
627.368	2.88
627.7	2.4
628.032	2.54
628.365	2.64
628.697	2.73
629.029	2.62
629.361	2.49
629.693	2.65
630.025	2.34
630.357	2.86
630.689	2.47
631.021	2.91
631.353	2.86
631.684	2.82
632.016	2.64
632.348	2.77
632.679	2.41
633.011	3.14
633.342	2.89
633.674	2.57
634.005	2.89
634.336	2.71
634.668	2.66
634.999	2.92
635.33	2.75
635.661	2.82
635.992	2.68
636.323	2.51
636.654	2.87
636.985	2.73
637.316	2.59
637.647	2.46
637.977	3.1
638.308	3.07
638.639	2.91
638.969	2.8
639.3	2.67
639.63	3.09
639.961	2.97
640.291	2.44
640.622	2.46
640.952	3.26
641.282	2.8
641.612	2.84
641.943	2.83
642.273	2.48
642.603	2.88
642.933	2.77
643.263	2.64
643.592	3.06
643.922	2.99
644.252	3.12
644.582	2.85
644.911	2.92
645.241	2.41
645.571	3.01
645.9	2.75
646.23	2.46
646.559	3.08
646.888	3.03
647.218	2.96
647.547	2.7
647.876	2.97
648.205	2.95
648.534	2.97
648.863	2.92
649.192	3.09
649.521	3.21
649.85	3.05
650.179	3.16
650.508	3.42
650.837	2.66
651.165	2.51
651.494	2.58
651.822	2.81
652.151	3.09
652.479	3.09
652.808	2.78
653.136	2.96
653.465	3.02
653.793	2.66
654.121	2.97
654.449	2.84
654.777	3.09
655.105	2.87
655.433	3.22
655.761	2.79
656.089	2.69
656.417	3.42
656.745	2.86
657.073	2.15
657.4	2.54
657.728	2.38
658.056	3.19
658.383	2.52
658.711	2.66
659.038	2.66
659.365	2.78
659.693	2.79
660.02	2.66
660.347	3.22
660.674	2.7
661.001	3.19
661.329	2.82
661.656	2.78
661.982	2.98
662.309	3.21
662.636	2.57
662.963	2.91
663.29	3.27
663.616	2.95
663.943	2.97
664.27	3.35
664.596	2.95
664.923	3.62
665.249	2.95
665.576	2.73
665.902	2.71
666.228	2.77
666.554	2.58
666.881	2.3
667.207	3.14
667.533	2.81
667.859	2.6
668.185	2.65
668.511	2.76
668.837	2.92
669.162	3.84
669.488	2.34
669.814	3.05
670.139	2.93
670.465	2.14
670.791	2.54
671.116	2.45
671.442	3.19
671.767	2.41
672.092	3.17
672.418	2.6
672.743	2.56
673.068	2.64
673.393	2.89
673.718	3.03
674.043	3.07
674.368	2.17
674.693	2.57
675.018	2.7
675.343	2.6
675.667	3.24
675.992	2.93
676.317	2.76
676.641	2.36
676.966	2.88
677.29	2.2
677.615	2.98
677.939	2.67
678.264	3.43
678.588	3.26
678.912	3.33
679.236	3.16
679.56	2.99
679.885	3.44
680.209	2.92
680.532	3.28
680.856	2.85
681.18	3.04
681.504	3.12
681.828	2.49
682.152	2.55
682.475	3.45
682.799	2.47
683.122	2.55
683.446	3.13
683.769	4.05
684.093	2.23
684.416	3.06
684.739	3.43
685.062	3.17
685.386	2.68
685.709	3.13
686.032	3.14
686.355	3.33
686.678	3.08
687.001	2.84
687.324	2.95
687.646	2.87
687.969	2.52
688.292	3
688.614	3.54
688.937	3.56
689.26	2.88
689.582	2.86
689.904	3.39
690.227	3.11
690.549	3.03
690.871	2.74
691.194	3.36
691.516	3.51
691.838	2.53
692.16	2.85
692.482	2.99
