Data from 0430_forehead_Reflection__0__102.txt Node

Date: Tue Dec 12 19:00:28 CST 2023
User: ToomeyLab
Spectrometer: FLMS14357
Trigger mode: 0
Integration Time (sec): 1.000000E-2
Scans to average: 100
Electric dark correction enabled: true
Nonlinearity correction enabled: false
Boxcar width: 0
XAxis mode: Wavelengths
Number of Pixels in Spectrum: 2048
>>>>>Begin Spectral Data<<<<<
189.047	-406.7
189.435	-406.7
189.823	-406.7
190.211	115.28
190.599	5.47
190.987	102.42
191.375	-6.8
191.763	-138.6
192.151	103.34
192.538	-172.99
192.926	195.66
193.314	-1.52
193.702	247.15
194.089	47.57
194.477	-189.59
194.864	34.5
195.252	17.14
195.639	-2025.71
196.027	132.74
196.414	-3253.64
196.801	-20.23
197.189	265.83
197.576	208.51
197.963	9.46
198.351	3.35
198.738	14.66
199.125	113.68
199.512	-8.16
199.899	89.9
200.286	51.56
200.673	10.59
201.06	-15.41
201.447	-42.74
201.833	49.95
202.22	19.26
202.607	-203.96
202.994	31.48
203.38	47.22
203.767	-9.69
204.154	17.52
204.54	50.7
204.927	5.65
205.313	74.45
205.699	26.71
206.086	-43.84
206.472	9.29
206.858	15.05
207.245	47.15
207.631	62.98
208.017	48.46
208.403	28.83
208.789	19.12
209.175	-28.21
209.561	30.92
209.947	6.69
210.333	38.41
210.719	29.49
211.105	55.84
211.491	37.22
211.876	-1.6
212.262	29.61
212.648	17.71
213.034	27.39
213.419	12.68
213.805	34.54
214.19	33.81
214.576	29.14
214.961	42.36
215.346	37.95
215.732	53.36
216.117	29.84
216.502	7.83
216.888	11.17
217.273	8.61
217.658	25.82
218.043	17.48
218.428	16.1
218.813	18.12
219.198	2.08
219.583	32.75
219.968	28.74
220.353	-4.99
220.738	1.99
221.122	7.31
221.507	4.23
221.892	-1.98
222.276	24.27
222.661	29.47
223.046	-8.61
223.43	28.64
223.815	9.79
224.199	19.98
224.583	5.48
224.968	20.03
225.352	15.39
225.736	14.63
226.121	6.49
226.505	10.84
226.889	7.41
227.273	8.94
227.657	12.31
228.041	11.19
228.425	5.4
228.809	10.23
229.193	7.88
229.577	9.59
229.961	5.83
230.344	7.5
230.728	8.61
231.112	6.85
231.495	8.3
231.879	9.45
232.263	7.58
232.646	7.48
233.03	8.41
233.413	6.34
233.797	6.89
234.18	8.01
234.563	8.36
234.946	10.66
235.33	10.21
235.713	8.82
236.096	5.98
236.479	7.54
236.862	7.86
237.245	8.74
237.628	9.46
238.011	8.7
238.394	8.51
238.777	8.12
239.16	7.64
239.543	10.86
239.925	8.03
240.308	9.11
240.691	8.39
241.073	10.73
241.456	7.66
241.838	9.14
242.221	8.97
242.603	9.39
242.986	7.6
243.368	8.36
243.75	7.34
244.133	7.66
244.515	7.9
244.897	8.55
245.279	8.59
245.661	7.88
246.043	8.78
246.425	8.72
246.807	7.08
247.189	8.13
247.571	8.84
247.953	8.3
248.335	7.81
248.717	7.67
249.098	7.68
249.48	7.5
249.862	7.63
250.243	7.65
250.625	8.43
251.006	7.74
251.388	8.55
251.769	8.52
252.151	6.93
252.532	8.74
252.913	8.88
253.295	8.81
253.676	7.73
254.057	7.83
254.438	8.15
254.819	8.39
255.2	8.74
255.581	8.9
255.962	7.23
256.343	7.71
256.724	7.87
257.105	7.91
257.486	7.46
257.867	7.82
258.247	7.01
258.628	9.01
259.009	7.48
259.389	8.45
259.77	8.77
260.15	8.5
260.531	8.49
260.911	8.39
261.292	7.46
261.672	7.42
262.052	7.42
262.432	7.39
262.813	7.74
263.193	8.46
263.573	8.7
263.953	9.01
264.333	8.25
264.713	8.55
265.093	7.98
265.473	8.51
265.853	7.33
266.233	7.64
266.612	7.38
266.992	8.23
267.372	8.27
267.752	8.93
268.131	7.07
268.511	7.63
268.89	7.06
269.27	7.14
269.649	7.85
270.029	7.02
270.408	7.78
270.787	7.56
271.167	7.35
271.546	7.83
271.925	8.4
272.304	8.33
272.683	6.67
273.062	7.23
273.441	8.2
273.82	7.19
274.199	7.36
274.578	7.37
274.957	7.23
275.336	7.5
275.715	7.83
276.093	7.09
276.472	7.68
276.851	7.99
277.229	7.14
277.608	7.38
277.986	7.02
278.365	7.42
278.743	7.73
279.122	7.79
279.5	7.04
279.878	6.54
280.257	7.43
280.635	7.88
281.013	6.89
281.391	7.28
281.769	7.59
282.147	7.48
282.525	6.94
282.903	7.49
283.281	7.51
283.659	8.01
284.037	7.51
284.415	7.37
284.792	7.76
285.17	7.47
285.548	7.93
285.925	7.58
286.303	7.59
286.68	7.48
287.058	7.68
287.435	7.43
287.813	7.21
288.19	7.42
288.567	7.48
288.945	7.7
289.322	7.84
289.699	7.99
290.076	7.93
290.453	8.11
290.83	7.64
291.207	8.55
291.584	8.49
291.961	8.32
292.338	8.07
292.715	7.82
293.092	7.91
293.469	8.13
293.845	8.12
294.222	8.7
294.599	9.1
294.975	8.62
295.352	8.98
295.728	8.91
296.105	8.53
296.481	9.03
296.858	8.91
297.234	9.6
297.61	9.31
297.986	9.09
298.363	9.29
298.739	9.08
299.115	8.94
299.491	8.96
299.867	9.08
300.243	8.82
300.619	9.84
300.995	9.7
301.371	9.91
301.746	9.89
302.122	10.3
302.498	10.26
302.874	10.03
303.249	11.36
303.625	9.86
304	10.4
304.376	10.61
304.751	10.26
305.127	10.71
305.502	10.89
305.878	10.62
306.253	10.75
306.628	10.88
307.003	11.15
307.378	10.65
307.754	11.36
308.129	11.22
308.504	11.99
308.879	11.2
309.254	11.82
309.629	11.79
310.003	12.16
310.378	11.73
310.753	11.9
311.128	12.31
311.502	11.78
311.877	11.89
312.252	11.86
312.626	12.46
313.001	12.22
313.375	11.78
313.75	12.57
314.124	12.52
314.498	12.63
314.873	12.91
315.247	13.13
315.621	13.62
315.995	13.75
316.369	13.29
316.743	12.95
317.117	12.93
317.491	13.56
317.865	13.22
318.239	13.43
318.613	14.04
318.987	14.42
319.361	13.54
319.734	13.95
320.108	14.11
320.482	14.16
320.855	14.34
321.229	14.96
321.602	14.87
321.976	14.87
322.349	15.05
322.723	14.57
323.096	15.21
323.469	15.37
323.843	16.11
324.216	15.63
324.589	15.71
324.962	15.94
325.335	15.86
325.708	15.72
326.081	15.57
326.454	15.33
326.827	16.33
327.2	16.19
327.573	15.77
327.945	15.54
328.318	16.07
328.691	15.62
329.063	15.94
329.436	16.62
329.809	16.14
330.181	15.79
330.553	16.49
330.926	16.26
331.298	16.38
331.671	16.55
332.043	16.93
332.415	17.09
332.787	17.04
333.159	16.8
333.532	17.47
333.904	16.75
334.276	16.97
334.648	16.97
335.02	16.62
335.391	17.06
335.763	16.47
336.135	17.56
336.507	17.76
336.879	17.79
337.25	17.68
337.622	18.08
337.993	17.35
338.365	17.62
338.736	18.18
339.108	18.09
339.479	18.6
339.851	17.71
340.222	17.55
340.593	18.51
340.964	17.5
341.336	18.35
341.707	18.17
342.078	18.53
342.449	18.35
342.82	18.87
343.191	18.82
343.562	18.44
343.933	18.7
344.303	18.38
344.674	18.86
345.045	18.95
345.416	19.22
345.786	19.22
346.157	18.86
346.527	19.29
346.898	18.95
347.268	18.86
347.639	19.13
348.009	19.29
348.38	19.29
348.75	19.89
349.12	19.68
349.49	19.96
349.861	19.75
350.231	20.12
350.601	19.91
350.971	20.05
351.341	19.81
351.711	20.48
352.081	19.89
352.45	20.06
352.82	20.39
353.19	20.11
353.56	20.37
353.929	19.97
354.299	20.28
354.669	20.47
355.038	20.3
355.408	20.4
355.777	20.81
356.147	20.69
356.516	20.55
356.885	21.26
357.254	20.58
357.624	20.84
357.993	20.91
358.362	21.06
358.731	21.17
359.1	20.47
359.469	21.05
359.838	20.87
360.207	21.23
360.576	21.8
360.945	21.44
361.314	21.47
361.682	21.73
362.051	21.88
362.42	21.96
362.788	21.76
363.157	22
363.525	21.95
363.894	21.55
364.262	21.78
364.631	21.73
364.999	22.14
365.367	22.2
365.735	22.01
366.104	22.33
366.472	22.08
366.84	22.21
367.208	22.48
367.576	22.73
367.944	22.69
368.312	22.83
368.68	22.63
369.048	22.71
369.416	22.92
369.783	22.79
370.151	23.51
370.519	22.65
370.886	23.68
371.254	23.47
371.621	23.57
371.989	23.29
372.356	23.66
372.724	23.25
373.091	23.5
373.458	23.55
373.826	23.77
374.193	23.44
374.56	24.06
374.927	24.13
375.294	24
375.661	24.33
376.028	24.45
376.395	24.47
376.762	24.25
377.129	24.07
377.496	24.22
377.863	24.3
378.229	24.16
378.596	24.23
378.963	24.98
379.329	24.53
379.696	24.59
380.062	25.01
380.429	24.66
380.795	24.82
381.161	25.04
381.528	24.49
381.894	25.39
382.26	25.14
382.626	25.47
382.993	25.38
383.359	24.9
383.725	25.28
384.091	25.76
384.457	24.98
384.823	25.61
385.188	25.38
385.554	25.79
385.92	25.46
386.286	25.78
386.651	26.03
387.017	25.7
387.383	25.74
387.748	25.98
388.114	26.03
388.479	26.11
388.845	26.04
389.21	25.82
389.575	26.23
389.94	26.01
390.306	26.41
390.671	25.96
391.036	26.41
391.401	26.44
391.766	26.78
392.131	26.65
392.496	26.3
392.861	26.51
393.226	27.11
393.591	26.65
393.956	26.54
394.32	26.81
394.685	27.06
395.05	26.57
395.414	26.91
395.779	26.95
396.143	26.79
396.508	26.68
396.872	26.8
397.236	27.19
397.601	27.16
397.965	27.15
398.329	27.14
398.694	27.4
399.058	27.62
399.422	27.4
399.786	27.64
400.15	27.3
400.514	27.54
400.878	27.38
401.242	27.35
401.605	27.65
401.969	27.15
402.333	27.8
402.697	27.68
403.06	27.73
403.424	27.66
403.787	27.51
404.151	28
404.514	27.42
404.878	27.52
405.241	28.01
405.604	27.58
405.968	27.69
406.331	27.91
406.694	28.11
407.057	27.87
407.42	27.76
407.783	27.84
408.146	27.9
408.509	28.06
408.872	28.29
409.235	28.13
409.598	28.49
409.961	28.36
410.323	28.48
410.686	28.07
411.049	28.84
411.411	28.63
411.774	28.55
412.136	28.48
412.499	28.72
412.861	28.69
413.223	28.84
413.586	28.53
413.948	28.74
414.31	28.81
414.672	28.62
415.035	28.87
415.397	29.08
415.759	29.21
416.121	28.93
416.483	29.08
416.845	28.87
417.206	29.12
417.568	29.11
417.93	29.38
418.292	29.17
418.653	29.01
419.015	28.92
419.377	29.33
419.738	29.11
420.1	29.1
420.461	29.35
420.822	29.37
421.184	29.27
421.545	29.44
421.906	29.51
422.267	29.38
422.629	29.52
422.99	29.32
423.351	29.42
423.712	29.69
424.073	29.8
424.434	29.97
424.795	30.09
425.155	30.18
425.516	30.11
425.877	30.24
426.238	30.1
426.598	30.15
426.959	30.19
427.32	30.64
427.68	30.8
428.041	30.98
428.401	31.07
428.761	31.51
429.122	31.58
429.482	31.74
429.842	31.69
430.202	32.09
430.563	32.04
430.923	31.93
431.283	32.18
431.643	32.22
432.003	32.41
432.363	32.49
432.722	32.36
433.082	32.69
433.442	32.65
433.802	32.87
434.161	32.63
434.521	32.67
434.881	32.64
435.24	32.52
435.6	32.77
435.959	33.04
436.319	32.81
436.678	33.24
437.037	33.1
437.396	33.36
437.756	33.49
438.115	33.55
438.474	33.8
438.833	33.77
439.192	33.93
439.551	34.01
439.91	33.79
440.269	33.89
440.628	34.09
440.987	33.94
441.345	34.19
441.704	34.1
442.063	33.99
442.421	34.26
442.78	34.48
443.138	34.44
443.497	34.54
443.855	34.62
444.214	34.82
444.572	34.89
444.93	35.15
445.288	35.08
445.647	35.24
446.005	35.32
446.363	35.25
446.721	35.25
447.079	35.16
447.437	35.11
447.795	35.03
448.153	35.03
448.51	35.17
448.868	35.08
449.226	35.45
449.584	35.74
449.941	35.74
450.299	36.04
450.656	36.09
451.014	36.03
451.371	36.45
451.729	36.56
452.086	36.59
452.443	36.58
452.801	36.85
453.158	36.7
453.515	37.02
453.872	36.92
454.229	37.18
454.586	36.84
454.943	36.98
455.3	37.16
455.657	37.27
456.014	37.43
456.371	37.61
456.727	37.33
457.084	37.71
457.441	37.53
457.797	37.57
458.154	37.8
458.51	38.09
458.867	38.05
459.223	38.42
459.58	38.05
459.936	38.05
460.292	38.18
460.648	38.14
461.005	37.75
461.361	37.83
461.717	37.84
462.073	37.82
462.429	38.17
462.785	38.37
463.141	38.44
463.496	38.64
463.852	39.2
464.208	38.82
464.564	39.21
464.919	39.2
465.275	39.32
465.631	39.45
465.986	39.28
466.342	39.31
466.697	39.76
467.052	39.68
467.408	39.5
467.763	39.92
468.118	39.85
468.473	39.67
468.829	39.86
469.184	39.63
469.539	39.85
469.894	39.86
470.249	39.94
470.603	40.34
470.958	40.17
471.313	40.41
471.668	40.52
472.023	40.58
472.377	40.69
472.732	40.92
473.086	40.76
473.441	40.85
473.795	41.13
474.15	41.12
474.504	41.03
474.859	40.73
475.213	41.01
475.567	41.19
475.921	41.15
476.275	41.38
476.63	41.3
476.984	41.72
477.338	41.59
477.692	41.61
478.045	41.65
478.399	41.63
478.753	41.84
479.107	41.84
479.461	41.95
479.814	41.75
480.168	41.7
480.521	42.03
480.875	42.02
481.228	42.16
481.582	42.2
481.935	42.34
482.289	42.37
482.642	42.4
482.995	42.17
483.348	42.27
483.701	42.45
484.055	42.24
484.408	42.01
484.761	42.02
485.114	41.7
485.466	41.35
485.819	41.48
486.172	41.49
486.525	41.55
486.878	41.59
487.23	41.93
487.583	42.27
487.936	42.54
488.288	42.57
488.641	42.32
488.993	42.29
489.345	42.16
489.698	42.09
490.05	42.19
490.402	42.42
490.754	42.64
491.107	42.84
491.459	43.28
491.811	43.56
492.163	43.69
492.515	43.68
492.866	43.35
493.218	43.13
493.57	43.03
493.922	42.97
494.274	43.3
494.625	43.61
494.977	43.76
495.328	44.15
495.68	44.36
496.031	44.78
496.383	44.82
496.734	44.73
497.086	44.79
497.437	45.17
497.788	44.86
498.139	44.81
498.49	44.68
498.842	44.86
499.193	44.91
499.544	44.73
499.894	44.8
500.245	45.16
500.596	45
500.947	45.24
501.298	45.46
501.648	45.28
501.999	45.59
502.35	45.62
502.7	45.55
503.051	45.79
503.401	45.91
503.752	46.05
504.102	45.79
504.452	45.89
504.803	46.13
505.153	46.15
505.503	46.19
505.853	46.18
506.203	46.07
506.553	46.19
506.903	46.11
507.253	46.41
507.603	46.47
507.953	46.66
508.303	46.79
508.652	46.69
509.002	46.65
509.352	46.73
509.701	46.73
510.051	46.73
510.4	46.79
510.75	46.49
511.099	46.81
511.449	46.69
511.798	46.9
512.147	47.13
512.496	47.01
512.846	47.39
513.195	47.14
513.544	47.27
513.893	47.43
514.242	47.3
514.591	47.59
514.939	47.44
515.288	47.5
515.637	47.52
515.986	47.93
516.334	47.78
516.683	47.72
517.032	47.89
517.38	47.89
517.729	48.1
518.077	48.15
518.426	48.24
518.774	48.17
519.122	47.93
519.47	48.2
519.819	47.83
520.167	47.76
520.515	47.65
520.863	47.8
521.211	47.94
521.559	47.9
521.907	48.02
522.255	48.35
522.602	48.44
522.95	48.65
523.298	48.63
523.645	48.94
523.993	48.88
524.341	49.15
524.688	48.95
525.036	49.02
525.383	48.95
525.73	49.05
526.078	49.19
526.425	49.05
526.772	49.05
527.119	48.93
527.466	48.87
527.814	48.76
528.161	48.83
528.508	49
528.854	49.02
529.201	49.04
529.548	49.13
529.895	48.64
530.242	48.32
530.588	48.52
530.935	48.51
531.282	48.39
531.628	48.59
531.975	48.82
532.321	49.09
532.667	49.31
533.014	49.55
533.36	49.58
533.706	49.61
534.052	49.85
534.399	49.93
534.745	49.62
535.091	49.24
535.437	49.32
535.783	49.39
536.129	49.68
536.474	49.77
536.82	50
537.166	50.59
537.512	50.49
537.857	50.51
538.203	50.42
538.549	50.17
538.894	50.31
539.239	50.43
539.585	50.42
539.93	50.75
540.276	50.82
540.621	51.21
540.966	51.3
541.311	51.23
541.656	51.37
542.001	51.35
542.346	51.14
542.691	50.74
543.036	50.33
543.381	50.41
543.726	50.46
544.071	50.38
544.415	50.58
544.76	50.87
545.105	51.12
545.449	51.33
545.794	51.42
546.138	51.57
546.483	51.84
546.827	51.79
547.171	52.01
547.516	51.99
547.86	51.99
548.204	52.06
548.548	52.25
548.892	52.06
549.236	52.04
549.58	52.18
549.924	52.44
550.268	52.51
550.612	52.81
550.956	52.79
551.3	53.2
551.643	52.87
551.987	53.27
552.33	53.28
552.674	53.26
553.017	53.32
553.361	53.64
553.704	53.38
554.048	53.34
554.391	53.23
554.734	53.32
555.077	53.17
555.42	53.42
555.764	53.36
556.107	53.71
556.45	53.59
556.793	53.79
557.135	53.92
557.478	54.16
557.821	54.09
558.164	54.21
558.507	54.03
558.849	54.27
559.192	54.42
559.534	54.24
559.877	54.4
560.219	54.19
560.562	54.41
560.904	54.55
561.246	54.38
561.589	54.56
561.931	54.36
562.273	54.37
562.615	54.38
562.957	54.97
563.299	54.31
563.641	54.91
563.983	54.86
564.325	54.89
564.667	54.83
565.008	55.2
565.35	55.18
565.692	55.24
566.033	55.18
566.375	55.3
566.716	55.23
567.058	55.15
567.399	55.3
567.741	55.05
568.082	55.09
568.423	55.14
568.764	55.09
569.105	55.29
569.447	55.68
569.788	55.43
570.129	55.55
570.47	55.92
570.811	55.74
571.151	55.91
571.492	56.15
571.833	56.17
572.174	56.09
572.514	55.99
572.855	56.15
573.195	55.91
573.536	56.17
573.876	55.99
574.217	56.04
574.557	56.15
574.898	56.09
575.238	56.2
575.578	56.18
575.918	56.37
576.258	56.5
576.598	56.46
576.938	56.35
577.278	56.81
577.618	56.81
577.958	56.68
578.298	56.83
578.638	57.12
578.977	57.34
579.317	57.21
579.657	57.24
579.996	57.04
580.336	57.37
580.675	57.67
581.014	57.36
581.354	57.69
581.693	57.62
582.032	57.82
582.372	57.89
582.711	57.85
583.05	57.82
583.389	57.94
583.728	58.47
584.067	57.7
584.406	58.19
584.745	58.48
585.083	58.51
585.422	58.28
585.761	58.23
586.1	58.12
586.438	58.77
586.777	58.43
587.115	58.42
587.454	58.62
587.792	58.9
588.13	58.8
588.469	58.4
588.807	58.54
589.145	58.88
589.483	58.95
589.821	58.82
590.159	58.68
590.497	58.9
590.835	59.08
591.173	58.89
591.511	58.7
591.849	59.02
592.187	59.03
592.524	59.47
592.862	59.45
593.2	59.16
593.537	59.16
593.875	59.35
594.212	59.65
594.55	59.38
594.887	59.47
595.224	59.84
595.561	59.94
595.899	59.01
596.236	59.89
596.573	59.81
596.91	59.89
597.247	60.29
597.584	59.63
597.921	59.96
598.258	59.76
598.594	59.87
598.931	59.87
599.268	60.02
599.604	59.77
599.941	59.52
600.277	60.15
600.614	59.88
600.95	60.58
601.287	60.58
601.623	60.59
601.959	60.62
602.296	60.75
602.632	61.01
602.968	60.83
603.304	60.57
603.64	60.71
603.976	60.84
604.312	60.62
604.648	60.57
604.984	60.69
605.319	60.45
605.655	60.27
605.991	60.88
606.326	60.66
606.662	61.15
606.998	60.69
607.333	60.95
607.668	61.03
608.004	61.43
608.339	61.79
608.674	61.37
609.01	61.75
609.345	61.46
609.68	62.07
610.015	61.77
610.35	61.79
610.685	61.64
611.02	61.92
611.355	61.4
611.689	61.63
612.024	61.36
612.359	61.7
612.694	61.81
613.028	62.02
613.363	61.91
613.697	62.53
614.032	62.44
614.366	62.4
614.7	62.27
615.035	62.91
615.369	62.52
615.703	63.16
616.037	62.29
616.371	62.85
616.705	62.98
617.039	62.78
617.373	63.34
617.707	62.95
618.041	62.55
618.375	62.47
618.709	62.95
619.042	62.79
619.376	62.77
619.71	63.48
620.043	63.22
620.377	63.37
620.71	63.19
621.043	63.12
621.377	63.23
621.71	63.23
622.043	63.46
622.376	63.63
622.709	63.82
623.043	63.43
623.376	64.35
623.709	64.19
624.041	64.11
624.374	63.51
624.707	64.01
625.04	63.76
625.373	63.9
625.705	64.44
626.038	64.47
626.37	63.86
626.703	64.41
627.035	64.12
627.368	64.74
627.7	64.27
628.032	64.66
628.365	64.38
628.697	64.48
629.029	64.18
629.361	64.57
629.693	64.28
630.025	64.2
630.357	64.65
630.689	64.14
631.021	64.32
631.353	65.02
631.684	64.71
632.016	65.46
632.348	65.56
632.679	65.04
633.011	64.96
633.342	65.34
633.674	65.06
634.005	65.12
634.336	65.78
634.668	65.39
634.999	65.61
635.33	65.36
635.661	64.96
635.992	65.52
636.323	65.67
636.654	66.01
636.985	65.98
637.316	65.52
637.647	65.71
637.977	65.99
638.308	65.85
638.639	65.59
638.969	65.47
639.3	65.87
639.63	66.03
639.961	65.98
640.291	65.8
640.622	66.7
640.952	66.07
641.282	65.97
641.612	66.26
641.943	66.06
642.273	65.94
642.603	66.53
642.933	66.78
643.263	66.36
643.592	67.35
643.922	66.96
644.252	66.76
644.582	66.03
644.911	66.77
645.241	66.63
645.571	67.07
645.9	66.84
646.23	66.57
646.559	67.27
646.888	67.02
647.218	67.69
647.547	66.92
647.876	67.21
648.205	66.85
648.534	67.6
648.863	67.43
649.192	67.8
649.521	67.25
649.85	67.46
650.179	67.63
650.508	67.08
650.837	67.59
651.165	67.25
651.494	67.3
651.822	68.12
652.151	67.58
652.479	67.7
652.808	67.05
653.136	68.18
653.465	67.81
653.793	67.94
654.121	67.77
654.449	68.61
654.777	67.63
655.105	68.39
655.433	68.44
655.761	68.18
656.089	68.12
656.417	68.43
656.745	68.23
657.073	68.29
657.4	68.47
657.728	67.15
658.056	68.37
658.383	68.15
658.711	68.4
659.038	68.7
659.365	69.34
659.693	68.94
660.02	67.98
660.347	68.34
660.674	68.51
661.001	69.4
661.329	68.37
661.656	68.8
661.982	68.46
662.309	69.02
662.636	68.9
662.963	69.12
663.29	69.53
663.616	69.08
663.943	69.4
664.27	69
664.596	69.93
664.923	69.98
665.249	69.02
665.576	69.59
665.902	70.1
666.228	68.56
666.554	69.18
666.881	70.37
667.207	69.7
667.533	68.9
