Data from 0430_crown_Reflection__4__101.txt Node

Date: Tue Dec 12 18:59:02 CST 2023
User: ToomeyLab
Spectrometer: FLMS14357
Trigger mode: 0
Integration Time (sec): 1.000000E-2
Scans to average: 100
Electric dark correction enabled: true
Nonlinearity correction enabled: false
Boxcar width: 0
XAxis mode: Wavelengths
Number of Pixels in Spectrum: 2048
>>>>>Begin Spectral Data<<<<<
189.047	-15.04
189.435	-15.04
189.823	-15.04
190.211	169.72
190.599	28
190.987	78.07
191.375	168.73
191.763	-73.8
192.151	118.06
192.538	-169.23
192.926	317.9
193.314	535.13
193.702	38.28
194.089	264.94
194.477	-84.72
194.864	-3.47
195.252	24.39
195.639	-1273.33
196.027	47.93
196.414	-2378.15
196.801	114.71
197.189	1255.81
197.576	114.42
197.963	44.64
198.351	9.22
198.738	46.9
199.125	-12.29
199.512	-25.07
199.899	86.73
200.286	10.06
200.673	-7.23
201.06	-32.31
201.447	-58.78
201.833	9.65
202.22	-13.43
202.607	-439.74
202.994	5.37
203.38	-9.03
203.767	-19.7
204.154	13.16
204.54	53.44
204.927	0.48
205.313	24.47
205.699	-35.16
206.086	-29.5
206.472	31.04
206.858	10.15
207.245	-29.46
207.631	1.1
208.017	11.8
208.403	-52.65
208.789	8.51
209.175	-7.72
209.561	3.55
209.947	-36.9
210.333	-1.98
210.719	-2.85
211.105	-21.18
211.491	7.17
211.876	-5.34
212.262	23.86
212.648	15.08
213.034	7.94
213.419	-28.9
213.805	-20.74
214.19	22.73
214.576	22.4
214.961	-0.37
215.346	23.61
215.732	17.04
216.117	-8.48
216.502	-68.36
216.888	-21.46
217.273	13.58
217.658	-59.47
218.043	-25.56
218.428	10.23
218.813	2.51
219.198	-12.69
219.583	-5.48
219.968	2.6
220.353	-15.77
220.738	-3.29
221.122	4.69
221.507	3.94
221.892	5.04
222.276	16.3
222.661	-1.02
223.046	-7.91
223.43	10.75
223.815	-12.46
224.199	2.92
224.583	2.1
224.968	-1.83
225.352	-11.34
225.736	8.75
226.121	-6.03
226.505	4.79
226.889	-5.67
227.273	2.82
227.657	1.35
228.041	6.16
228.425	-0.21
228.809	-0.64
229.193	-3.6
229.577	1.72
229.961	-0.07
230.344	2.31
230.728	2.45
231.112	2.73
231.495	1.96
231.879	2.51
232.263	2.61
232.646	1.78
233.03	1.72
233.413	1.82
233.797	1.24
234.18	0.63
234.563	-0.09
234.946	5.72
235.33	3.44
235.713	3.26
236.096	0.3
236.479	2.86
236.862	1.35
237.245	2.09
237.628	1.03
238.011	1.86
238.394	0.86
238.777	3
239.16	2.61
239.543	3.38
239.925	4.68
240.308	2.31
240.691	1.42
241.073	1.81
241.456	3.73
241.838	1.44
242.221	2.89
242.603	2.19
242.986	1.6
243.368	3.13
243.75	2.26
244.133	2.83
244.515	2.88
244.897	2.78
245.279	3.31
245.661	1.96
246.043	1.81
246.425	4.48
246.807	2.59
247.189	3.79
247.571	2.87
247.953	2.86
248.335	2.65
248.717	2.71
249.098	2.58
249.48	2.7
249.862	2.24
250.243	2.56
250.625	3.12
251.006	2.39
251.388	3.48
251.769	2.87
252.151	1.65
252.532	2.18
252.913	2.39
253.295	2.31
253.676	2.52
254.057	2.21
254.438	3.15
254.819	2.87
255.2	1.78
255.581	2.71
255.962	1.16
256.343	3.04
256.724	2.77
257.105	2.66
257.486	2.29
257.867	1.48
258.247	1.96
258.628	2.67
259.009	2.35
259.389	2.94
259.77	2.73
260.15	2.26
260.531	2.89
260.911	2.99
261.292	2.51
261.672	2.29
262.052	2.52
262.432	2.52
262.813	2.65
263.193	2.78
263.573	3.24
263.953	3.64
264.333	3.02
264.713	2.49
265.093	2.62
265.473	2.81
265.853	1.63
266.233	2.43
266.612	1.51
266.992	2.55
267.372	3.13
267.752	2.85
268.131	2.31
268.511	2.67
268.89	1.92
269.27	1.54
269.649	2.76
270.029	2.32
270.408	2.81
270.787	2.39
271.167	2.44
271.546	2.39
271.925	3.61
272.304	3.71
272.683	2.08
273.062	2.26
273.441	2.64
273.82	1.82
274.199	2.36
274.578	2.03
274.957	2.69
275.336	2.22
275.715	3.11
276.093	2.21
276.472	2.62
276.851	2.14
277.229	2.25
277.608	2.06
277.986	1.98
278.365	2.98
278.743	3.27
279.122	3.13
279.5	2.59
279.878	1.63
280.257	1.73
280.635	2.02
281.013	2.18
281.391	1.77
281.769	1.7
282.147	2.27
282.525	2.03
282.903	2.48
283.281	2.09
283.659	2.62
284.037	2.86
284.415	2.71
284.792	2.74
285.17	2.37
285.548	2.68
285.925	2.15
286.303	2.39
286.68	3.14
287.058	2.51
287.435	2.52
287.813	1.76
288.19	2.28
288.567	2.51
288.945	2.56
289.322	1.78
289.699	2.44
290.076	2.66
290.453	2.45
290.83	2.6
291.207	3.03
291.584	2.47
291.961	2.06
292.338	2.3
292.715	2.3
293.092	2.06
293.469	2.07
293.845	2.49
294.222	2.55
294.599	2.17
294.975	1.94
295.352	2.72
295.728	2.75
296.105	3.06
296.481	3.31
296.858	2.79
297.234	2.56
297.61	2.79
297.986	2.89
298.363	2.85
298.739	2.68
299.115	2.49
299.491	2.81
299.867	2.64
300.243	2.29
300.619	2.6
300.995	3.25
301.371	2.98
301.746	2.87
302.122	3.77
302.498	2.71
302.874	3.31
303.249	3.6
303.625	2.88
304	2.98
304.376	2.75
304.751	2.83
305.127	3.34
305.502	3.22
305.878	2.37
306.253	2.86
306.628	2.72
307.003	2.7
307.378	2.61
307.754	3.04
308.129	3.3
308.504	3.53
308.879	1.92
309.254	2.21
309.629	2.99
310.003	3.35
310.378	3.17
310.753	3.58
311.128	3.09
311.502	2.71
311.877	2.8
312.252	2.66
312.626	3.05
313.001	2.4
313.375	2.65
313.75	2.85
314.124	2.76
314.498	3.07
314.873	3.54
315.247	3.4
315.621	2.89
315.995	3.19
316.369	3.24
316.743	2.71
317.117	2.2
317.491	3.18
317.865	3.29
318.239	3.06
318.613	3.29
318.987	3.5
319.361	3.04
319.734	1.9
320.108	2.78
320.482	3.19
320.855	2.33
321.229	3.23
321.602	3.15
321.976	3.11
322.349	3.1
322.723	3.03
323.096	2.81
323.469	3.06
323.843	3.69
324.216	3.8
324.589	3.41
324.962	3.05
325.335	3.42
325.708	3.35
326.081	2.93
326.454	2.89
326.827	3.72
327.2	3.05
327.573	2.46
327.945	3.17
328.318	3.27
328.691	2.95
329.063	3.07
329.436	3.78
329.809	3.45
330.181	2.86
330.553	3.04
330.926	3.17
331.298	3.1
331.671	3.31
332.043	3.37
332.415	3.26
332.787	3.2
333.159	2.89
333.532	2.85
333.904	2.87
334.276	3.74
334.648	2.74
335.02	2.8
335.391	2.92
335.763	2.85
336.135	3.18
336.507	3.43
336.879	3
337.25	3.22
337.622	3.12
337.993	2.89
338.365	3.17
338.736	3.56
339.108	2.3
339.479	3.14
339.851	2.9
340.222	2.25
340.593	3.03
340.964	3.44
341.336	3.26
341.707	2.81
342.078	2.74
342.449	2.83
342.82	3.25
343.191	3.27
343.562	2.99
343.933	3.29
344.303	3.34
344.674	3.11
345.045	3.12
345.416	3.32
345.786	3.11
346.157	2.88
346.527	3.42
346.898	2.51
347.268	3.24
347.639	3.09
348.009	3.11
348.38	3.05
348.75	3.62
349.12	3.27
349.49	3.16
349.861	3.21
350.231	2.91
350.601	3.04
350.971	3.04
351.341	3.14
351.711	3.43
352.081	3.03
352.45	3.06
352.82	3.45
353.19	3.16
353.56	3.09
353.929	2.66
354.299	2.95
354.669	3.13
355.038	2.19
355.408	2.82
355.777	3.2
356.147	2.54
356.516	3.39
356.885	3.17
357.254	3.08
357.624	2.64
357.993	3.05
358.362	3.15
358.731	3.36
359.1	3.07
359.469	3
359.838	3.12
360.207	3.23
360.576	3.29
360.945	2.88
361.314	3.23
361.682	3.16
362.051	3.58
362.42	3.04
362.788	3.2
363.157	3.43
363.525	3.02
363.894	2.93
364.262	2.82
364.631	2.85
364.999	3.25
365.367	3.27
365.735	2.88
366.104	3.01
366.472	2.73
366.84	2.98
367.208	3.08
367.576	2.84
367.944	3.37
368.312	3.02
368.68	3.07
369.048	3
369.416	2.96
369.783	3.25
370.151	3.27
370.519	2.75
370.886	2.78
371.254	3.25
371.621	3.32
371.989	2.78
372.356	3.03
372.724	3.34
373.091	2.6
373.458	3.09
373.826	3.42
374.193	2.82
374.56	3.21
374.927	3.3
375.294	2.94
375.661	3.49
376.028	3.27
376.395	3.32
376.762	3.43
377.129	3.09
377.496	3
377.863	3.37
378.229	3
378.596	3.22
378.963	3.15
379.329	3.1
379.696	3.02
380.062	3.6
380.429	3.21
380.795	3.28
381.161	3.3
381.528	3
381.894	3.34
382.26	2.93
382.626	3.07
382.993	3.24
383.359	3.11
383.725	3.12
384.091	3.37
384.457	3.2
384.823	3.3
385.188	3.27
385.554	3.45
385.92	3.19
386.286	3.47
386.651	3.31
387.017	3.53
387.383	3.35
387.748	3.06
388.114	3.48
388.479	3.45
388.845	2.97
389.21	3.15
389.575	2.85
389.94	3.16
390.306	3.22
390.671	3.34
391.036	3.23
391.401	3.33
391.766	3.1
392.131	3.46
392.496	2.96
392.861	3.06
393.226	3.4
393.591	3.36
393.956	3.31
394.32	3.24
394.685	3.37
395.05	3.04
395.414	3.16
395.779	3.08
396.143	3.36
396.508	3.1
396.872	3.37
397.236	3.29
397.601	3.31
397.965	3.08
398.329	3.12
398.694	3.07
399.058	3.38
399.422	3.38
399.786	3.31
400.15	3.22
400.514	3.41
400.878	3.18
401.242	3.16
401.605	3.31
401.969	3.29
402.333	3.29
402.697	3.16
403.06	2.94
403.424	3.39
403.787	3.07
404.151	3.24
404.514	3.03
404.878	3.23
405.241	3.07
405.604	3.11
405.968	3.11
406.331	3.39
406.694	3.44
407.057	3.09
407.42	3.23
407.783	3.23
408.146	3.28
408.509	3.38
408.872	3.31
409.235	3.18
409.598	3.06
409.961	3.15
410.323	3.21
410.686	3.23
411.049	3.3
411.411	3.24
411.774	3.29
412.136	3.4
412.499	3.56
412.861	3.21
413.223	3.55
413.586	3.15
413.948	3.29
414.31	3.49
414.672	3.47
415.035	2.94
415.397	3.25
415.759	3.28
416.121	3.33
416.483	3.34
416.845	3.12
417.206	3.53
417.568	3.25
417.93	3.32
418.292	3.25
418.653	3.39
419.015	3.19
419.377	3.25
419.738	3.27
420.1	3.16
420.461	3.3
420.822	3.35
421.184	3.19
421.545	3.43
421.906	3.22
422.267	3.29
422.629	3.25
422.99	3.27
423.351	3.19
423.712	3.32
424.073	3.25
424.434	3.22
424.795	3.25
425.155	3.1
425.516	3.01
425.877	3.19
426.238	3.2
426.598	3.21
426.959	3.27
427.32	3.11
427.68	3.26
428.041	3.38
428.401	3.26
428.761	3.33
429.122	3.35
429.482	3.59
429.842	3.39
430.202	3.13
430.563	3.36
430.923	3.29
431.283	3.32
431.643	3.44
432.003	3.13
432.363	3.47
432.722	3.36
433.082	3.33
433.442	3.45
433.802	3.37
434.161	3.38
434.521	3.3
434.881	3.34
435.24	3.42
435.6	3.32
435.959	3.39
436.319	3.45
436.678	3.56
437.037	3.38
437.396	3.22
437.756	3.34
438.115	3.37
438.474	3.23
438.833	3.38
439.192	3.62
439.551	3.29
439.91	3.45
440.269	3.38
440.628	3.22
440.987	3.25
441.345	3.52
441.704	3.29
442.063	3.31
442.421	3.42
442.78	3.34
443.138	3.39
443.497	3.39
443.855	3.32
444.214	3.36
444.572	3.47
444.93	3.32
445.288	3.25
445.647	3.48
446.005	3.37
446.363	3.39
446.721	3.33
447.079	3.29
447.437	3.23
447.795	3.36
448.153	3.28
448.51	3.29
448.868	3.36
449.226	3.42
449.584	3.36
449.941	3.36
450.299	3.42
450.656	3.45
451.014	3.4
451.371	3.43
451.729	3.58
452.086	3.3
452.443	3.67
452.801	3.51
453.158	3.39
453.515	3.5
453.872	3.45
454.229	3.48
454.586	3.39
454.943	3.44
455.3	3.41
455.657	3.36
456.014	3.67
456.371	3.48
456.727	3.43
457.084	3.45
457.441	3.56
457.797	3.36
458.154	3.49
458.51	3.48
458.867	3.57
459.223	3.49
459.58	3.3
459.936	3.32
460.292	3.46
460.648	3.42
461.005	3.42
461.361	3.4
461.717	3.46
462.073	3.36
462.429	3.43
462.785	3.34
463.141	3.45
463.496	3.53
463.852	3.51
464.208	3.52
464.564	3.67
464.919	3.62
465.275	3.57
465.631	3.64
465.986	3.46
466.342	3.33
466.697	3.63
467.052	3.59
467.408	3.56
467.763	3.65
468.118	3.68
468.473	3.61
468.829	3.58
469.184	3.33
469.539	3.72
469.894	3.49
470.249	3.57
470.603	3.73
470.958	3.61
471.313	3.87
471.668	3.59
472.023	3.55
472.377	3.51
472.732	3.59
473.086	3.42
473.441	3.7
473.795	3.54
474.15	3.57
474.504	3.43
474.859	3.49
475.213	3.38
475.567	3.64
475.921	3.66
476.275	3.5
476.63	3.47
476.984	3.67
477.338	3.58
477.692	3.51
478.045	3.6
478.399	3.51
478.753	3.5
479.107	3.58
479.461	3.58
479.814	3.68
480.168	3.52
480.521	3.39
480.875	3.61
481.228	3.62
481.582	3.66
481.935	3.75
482.289	3.53
482.642	3.74
482.995	3.56
483.348	3.41
483.701	3.72
484.055	3.48
484.408	3.52
484.761	3.55
485.114	3.42
485.466	3.36
485.819	3.33
486.172	3.34
486.525	3.42
486.878	3.43
487.23	3.39
487.583	3.5
487.936	3.52
488.288	3.38
488.641	3.47
488.993	3.48
489.345	3.46
489.698	3.41
490.05	3.46
490.402	3.48
490.754	3.54
491.107	3.53
491.459	3.54
491.811	3.59
492.163	3.6
492.515	3.55
492.866	3.62
493.218	3.45
493.57	3.46
493.922	3.42
494.274	3.57
494.625	3.52
494.977	3.67
495.328	3.71
495.68	3.54
496.031	3.74
496.383	3.61
496.734	3.6
497.086	3.68
497.437	3.73
497.788	3.65
498.139	3.66
498.49	3.83
498.842	3.61
499.193	3.67
499.544	3.69
499.894	3.56
500.245	3.72
500.596	3.77
500.947	3.64
501.298	3.66
501.648	3.75
501.999	3.72
502.35	3.68
502.7	3.6
503.051	3.67
503.401	3.73
503.752	3.9
504.102	3.87
504.452	3.67
504.803	3.81
505.153	3.81
505.503	3.85
505.853	3.91
506.203	3.84
506.553	3.86
506.903	3.94
507.253	3.69
507.603	3.8
507.953	3.74
508.303	3.88
508.652	3.75
509.002	3.85
509.352	3.74
509.701	3.87
510.051	3.81
510.4	3.68
510.75	3.75
511.099	3.69
511.449	3.77
511.798	3.67
512.147	3.75
512.496	3.96
512.846	3.8
513.195	3.73
513.544	3.88
513.893	3.71
514.242	3.78
514.591	3.75
514.939	3.76
515.288	3.73
515.637	3.77
515.986	3.8
516.334	4.02
516.683	3.87
517.032	3.79
517.38	3.75
517.729	3.94
518.077	3.87
518.426	3.97
518.774	3.8
519.122	3.86
519.47	3.79
519.819	3.78
520.167	3.72
520.515	3.75
520.863	3.78
521.211	3.81
521.559	3.78
521.907	3.78
522.255	3.77
522.602	3.89
522.95	3.84
523.298	3.8
523.645	3.91
523.993	4
524.341	3.87
524.688	3.97
525.036	3.94
525.383	3.81
525.73	3.75
526.078	3.83
526.425	3.84
526.772	3.79
527.119	3.89
527.466	3.86
527.814	3.76
528.161	3.86
528.508	3.83
528.854	3.82
529.201	3.9
529.548	3.93
529.895	3.7
530.242	3.66
530.588	3.65
530.935	3.71
531.282	3.75
531.628	3.76
531.975	3.76
532.321	3.75
532.667	3.84
533.014	3.77
533.36	3.89
533.706	3.85
534.052	3.83
534.399	3.87
534.745	3.8
535.091	3.71
535.437	3.82
535.783	3.75
536.129	3.87
536.474	3.87
536.82	3.85
537.166	3.95
537.512	3.94
537.857	4.03
538.203	3.93
538.549	3.81
538.894	3.85
539.239	3.83
539.585	3.97
539.93	3.92
540.276	3.91
540.621	3.99
540.966	3.82
541.311	3.99
541.656	3.92
542.001	3.98
542.346	3.91
542.691	3.88
543.036	3.77
543.381	3.77
543.726	3.8
544.071	3.81
544.415	3.88
544.76	3.97
545.105	3.92
545.449	3.96
545.794	4.06
546.138	3.89
546.483	3.96
546.827	4.11
547.171	4.2
547.516	4.05
547.86	4.02
548.204	4.02
548.548	4.04
548.892	3.93
549.236	4
549.58	4.13
549.924	3.94
550.268	4.13
550.612	3.96
550.956	4.11
551.3	4.16
551.643	4.28
551.987	4.15
552.33	4.16
552.674	4.16
553.017	4.18
553.361	4.47
553.704	4.01
554.048	4.19
554.391	4.16
554.734	4.07
555.077	4.15
555.42	4.06
555.764	4.3
556.107	4.23
556.45	4.06
556.793	4.01
557.135	4.25
557.478	4.15
557.821	4.21
558.164	4.19
558.507	4.42
558.849	4.17
559.192	4.19
559.534	4.37
559.877	4.33
560.219	4.11
560.562	4.28
560.904	4.16
561.246	4.27
561.589	4.2
561.931	4.09
562.273	4.12
562.615	4.23
562.957	4.13
563.299	4.25
563.641	4.22
563.983	4.24
564.325	4.2
564.667	4.18
565.008	3.97
565.35	4.29
565.692	4.19
566.033	4.39
566.375	4.27
566.716	4.05
567.058	4.58
567.399	4.24
567.741	4.3
568.082	4.09
568.423	4.12
568.764	4.32
569.105	4.06
569.447	4.41
569.788	4.27
570.129	4.22
570.47	4.21
570.811	4.45
571.151	4.34
571.492	4.4
571.833	4.32
572.174	4.25
572.514	4.3
572.855	4.31
573.195	4.13
573.536	4.18
573.876	4.36
574.217	4.29
574.557	4.13
574.898	4.34
575.238	4.37
575.578	4.14
575.918	4.44
576.258	4.46
576.598	4.32
576.938	4.32
577.278	4.26
577.618	4.32
577.958	4.23
578.298	4.46
578.638	4.35
578.977	4.52
579.317	4.31
579.657	4.43
579.996	4.36
580.336	4.3
580.675	4.49
581.014	4.35
581.354	4.24
581.693	4.2
582.032	4.11
582.372	4.53
582.711	4.33
583.05	4.66
583.389	4.51
583.728	4.44
584.067	4.64
584.406	4.51
584.745	4.42
585.083	4.29
585.422	4.39
585.761	4.93
586.1	4.39
586.438	4.63
586.777	4.47
587.115	4.61
587.454	4.57
587.792	4.29
588.13	4.52
588.469	4.45
588.807	4.61
589.145	4.66
589.483	4.67
589.821	4.67
590.159	4.25
590.497	4.38
590.835	4.41
591.173	4.48
591.511	4.49
591.849	4.45
592.187	4.63
592.524	4.52
592.862	4.4
593.2	4.46
593.537	4.26
593.875	4.82
594.212	4.74
594.55	4.63
594.887	4.74
595.224	4.4
595.561	4.61
595.899	4.32
596.236	4.46
596.573	4.59
596.91	4.76
597.247	4.48
597.584	4.48
597.921	4.6
598.258	4.61
598.594	4.62
598.931	4.62
599.268	4.46
599.604	4.48
599.941	4.53
600.277	4.51
600.614	4.77
600.95	4.66
601.287	4.45
601.623	4.66
601.959	4.41
602.296	4.82
602.632	4.54
602.968	4.65
603.304	4.49
603.64	4.72
603.976	4.54
604.312	4.49
604.648	4.54
604.984	4.73
605.319	4.52
605.655	4.34
605.991	4.67
606.326	4.49
606.662	4.68
606.998	4.59
607.333	4.51
607.668	4.4
608.004	4.53
608.339	4.56
608.674	4.55
609.01	4.62
609.345	4.53
609.68	4.78
610.015	4.35
610.35	4.63
610.685	4.6
611.02	4.63
611.355	4.48
611.689	4.61
612.024	4.64
612.359	4.81
612.694	4.61
613.028	4.63
613.363	4.92
613.697	4.48
614.032	4.62
614.366	4.76
614.7	4.56
615.035	4.81
615.369	4.67
615.703	4.72
616.037	4.43
616.371	4.46
616.705	4.83
617.039	4.96
617.373	4.6
617.707	4.3
618.041	4.94
618.375	4.35
618.709	4.77
619.042	4.76
619.376	4.52
619.71	4.44
620.043	4.5
620.377	5.03
620.71	4.37
621.043	4.38
621.377	4.35
621.71	4.57
622.043	4.96
622.376	5.01
622.709	4.8
623.043	4.93
623.376	5.2
623.709	5.06
624.041	4.92
624.374	4.67
624.707	5.09
625.04	4.51
625.373	5.29
625.705	5.04
626.038	4.76
626.37	4.96
626.703	5.14
627.035	4.83
627.368	4.89
627.7	4.64
628.032	4.82
628.365	4.64
628.697	4.78
629.029	4.82
629.361	4.81
629.693	4.62
630.025	4.68
630.357	5.16
630.689	4.57
631.021	4.75
631.353	4.79
631.684	5.17
632.016	4.85
632.348	5.03
632.679	4.77
633.011	5.27
633.342	5.19
633.674	5.08
634.005	4.99
634.336	5.01
634.668	4.76
634.999	4.94
635.33	5.09
635.661	4.82
635.992	5.03
636.323	4.55
636.654	5.06
636.985	5.04
637.316	4.96
637.647	5.06
637.977	5.01
638.308	4.89
638.639	4.73
638.969	4.61
639.3	4.71
639.63	5.2
639.961	4.92
640.291	4.76
640.622	4.82
640.952	5.32
641.282	5.14
641.612	4.94
641.943	5.02
642.273	5.24
642.603	5.17
642.933	5.16
643.263	4.7
643.592	5.09
643.922	5.61
644.252	5.45
644.582	4.58
644.911	5.13
645.241	4.63
645.571	5.16
645.9	5.09
646.23	4.56
646.559	5.1
646.888	5.04
647.218	5.17
647.547	4.88
647.876	5.04
648.205	5.1
648.534	5.18
648.863	5.17
649.192	5.67
649.521	5.31
649.85	5.1
650.179	5.47
650.508	5.32
650.837	4.94
651.165	4.9
651.494	4.95
651.822	5.09
652.151	5.41
652.479	5.11
652.808	5.36
653.136	5.13
653.465	5.23
653.793	5.22
654.121	5.08
654.449	5.49
654.777	5.33
655.105	5.4
655.433	5.3
655.761	5.63
656.089	5.07
656.417	5.41
656.745	5.29
657.073	4.87
657.4	5.55
657.728	4.76
658.056	5.04
658.383	4.68
658.711	5.33
659.038	5.56
659.365	4.83
659.693	5.36
660.02	5.06
660.347	5
660.674	5.14
661.001	5.18
661.329	5.27
661.656	4.79
661.982	4.93
662.309	5.27
662.636	4.86
662.963	5.52
663.29	5.97
663.616	5.13
663.943	5.2
664.27	5.67
664.596	5.2
664.923	5.86
665.249	5.35
665.576	5.6
665.902	5.01
666.228	5.37
666.554	4.9
666.881	5.27
667.207	5.13
667.533	5.1
667.859	4.97
668.185	5.01
668.511	5.64
668.837	5.21
669.162	5.94
669.488	5.11
669.814	5.75
670.139	5.68
670.465	4.65
670.791	5.59
671.116	5.07
671.442	5.12
671.767	5.2
672.092	6.16
672.418	5.08
672.743	5.45
673.068	5.07
673.393	5.7
673.718	5.56
674.043	5.97
674.368	5.07
674.693	4.66
675.018	5.2
675.343	5.1
675.667	5.84
675.992	5.6
676.317	5.21
676.641	5
676.966	5.35
677.29	5.19
677.615	5.04
677.939	5.74
678.264	5.91
678.588	5.68
678.912	5.71
679.236	5.03
679.56	5.66
679.885	6
680.209	5.51
680.532	6.13
680.856	5.5
681.18	5.03
681.504	4.8
681.828	5.76
682.152	5.12
682.475	5.55
682.799	5.36
683.122	5.81
683.446	5.38
683.769	6.32
684.093	5.18
684.416	5.43
684.739	6.01
685.062	5.47
685.386	5.91
685.709	6.06
686.032	5.99
686.355	5.5
686.678	6.05
687.001	5.21
687.324	5.38
687.646	5.96
687.969	5.28
688.292	5.7
688.614	6.09
688.937	4.86
689.26	5.94
689.582	5.1
689.904	5.35
690.227	5.73
690.549	5.62
690.871	6.01
691.194	5.23
691.516	5.87
691.838	5.53
692.16	5.86
