Data from 0430_chest_Reflection__0__92.txt Node

Date: Tue Dec 12 18:56:33 CST 2023
User: ToomeyLab
Spectrometer: FLMS14357
Trigger mode: 0
Integration Time (sec): 1.000000E-2
Scans to average: 100
Electric dark correction enabled: true
Nonlinearity correction enabled: false
Boxcar width: 0
XAxis mode: Wavelengths
Number of Pixels in Spectrum: 2048
>>>>>Begin Spectral Data<<<<<
189.047	-211
189.435	-211
189.823	-211
190.211	150.41
190.599	-3.92
190.987	107.51
191.375	171.32
191.763	-314.97
192.151	116.07
192.538	-253.11
192.926	50.57
193.314	198.68
193.702	71.4
194.089	-204.68
194.477	-21.87
194.864	20.8
195.252	31.85
195.639	-1442.86
196.027	93.9
196.414	-395.36
196.801	26.42
197.189	-179.73
197.576	123.63
197.963	46.77
198.351	22.74
198.738	-2.62
199.125	9.4
199.512	-18.15
199.899	17.49
200.286	9.31
200.673	-17.39
201.06	-44.5
201.447	-46.34
201.833	-17.52
202.22	-25.39
202.607	-177.43
202.994	61.52
203.38	57.3
203.767	-12.16
204.154	35.63
204.54	40.99
204.927	23.44
205.313	9.78
205.699	-28.82
206.086	-28.89
206.472	17.2
206.858	16.48
207.245	23.08
207.631	27.75
208.017	-20.04
208.403	-37.15
208.789	11.33
209.175	-37.86
209.561	26.04
209.947	-7.53
210.333	16.6
210.719	-25
211.105	-12.56
211.491	31.39
211.876	7.94
212.262	8.27
212.648	-11.49
213.034	-14.52
213.419	-24.9
213.805	-16.88
214.19	22.95
214.576	10.67
214.961	17.66
215.346	-17.19
215.732	23.98
216.117	3.62
216.502	-30.52
216.888	16.83
217.273	6.29
217.658	-48.09
218.043	-5.39
218.428	4.51
218.813	-7.54
219.198	-30.14
219.583	2.47
219.968	10.27
220.353	14.38
220.738	2.56
221.122	-8.05
221.507	-34.17
221.892	7.5
222.276	3.78
222.661	8.3
223.046	-3.01
223.43	0.4
223.815	-4.62
224.199	8.23
224.583	-9.29
224.968	5
225.352	-11.34
225.736	12.18
226.121	-3.46
226.505	-6.6
226.889	-5.1
227.273	-5.68
227.657	3.44
228.041	4.05
228.425	-1.17
228.809	-3.7
229.193	0.79
229.577	1.89
229.961	0.19
230.344	2.68
230.728	2.33
231.112	1.37
231.495	1.15
231.879	2
232.263	1.56
232.646	1.64
233.03	2.06
233.413	1.45
233.797	-0.28
234.18	-0.68
234.563	0.78
234.946	2.4
235.33	2.5
235.713	1.78
236.096	1.51
236.479	2.57
236.862	2.85
237.245	1.65
237.628	1.61
238.011	3.54
238.394	0.88
238.777	2.51
239.16	1.65
239.543	2.71
239.925	3.15
240.308	0.84
240.691	3.22
241.073	2.57
241.456	1.65
241.838	1.66
242.221	2.46
242.603	1.38
242.986	0.54
243.368	1.75
243.75	0.86
244.133	2.11
244.515	2.14
244.897	2.07
245.279	2.48
245.661	1.66
246.043	1.28
246.425	2.06
246.807	1.49
247.189	2.64
247.571	2.01
247.953	2.03
248.335	1.96
248.717	2.02
249.098	1.86
249.48	1.47
249.862	1.58
250.243	1.53
250.625	2
251.006	2.39
251.388	2.29
251.769	2.25
252.151	1.28
252.532	1.76
252.913	1.34
253.295	2.79
253.676	1.48
254.057	1.29
254.438	2.36
254.819	1.51
255.2	0.69
255.581	2.38
255.962	0.91
256.343	1.36
256.724	3.01
257.105	2.79
257.486	0.58
257.867	2.46
258.247	2.68
258.628	1.71
259.009	1.33
259.389	2.25
259.77	2.03
260.15	1.18
260.531	2.35
260.911	2.1
261.292	1.72
261.672	1.57
262.052	1.82
262.432	2.14
262.813	1.8
263.193	2.17
263.573	1.72
263.953	2.73
264.333	2.63
264.713	1.55
265.093	1.72
265.473	2.21
265.853	1.89
266.233	0.58
266.612	0.72
266.992	2.24
267.372	1.79
267.752	2.38
268.131	0.68
268.511	1.36
268.89	0.96
269.27	1
269.649	1.54
270.029	2.09
270.408	1.81
270.787	0.8
271.167	1.35
271.546	1.77
271.925	2.31
272.304	1.93
272.683	1.44
273.062	1.76
273.441	2.09
273.82	1.03
274.199	1.41
274.578	1.17
274.957	1.38
275.336	1.72
275.715	1.58
276.093	1.34
276.472	2.32
276.851	1.57
277.229	1.36
277.608	2.11
277.986	0.88
278.365	2.21
278.743	2.42
279.122	2.15
279.5	1.16
279.878	0.73
280.257	1.12
280.635	1.68
281.013	2.08
281.391	2.05
281.769	1.66
282.147	1.68
282.525	1.64
282.903	1.2
283.281	1.58
283.659	1.99
284.037	1.51
284.415	1.47
284.792	1.17
285.17	0.85
285.548	1.7
285.925	1.38
286.303	1.44
286.68	1.96
287.058	1.6
287.435	1.65
287.813	1.39
288.19	1.85
288.567	1.46
288.945	1.87
289.322	1.22
289.699	1.67
290.076	2.33
290.453	2.12
290.83	1.7
291.207	2.14
291.584	1.55
291.961	1.82
292.338	1.86
292.715	2.13
293.092	1.76
293.469	1.99
293.845	2.29
294.222	1.74
294.599	2.09
294.975	1.97
295.352	1.51
295.728	1.6
296.105	2.29
296.481	2.16
296.858	2.15
297.234	2.28
297.61	1.67
297.986	1.98
298.363	2.15
298.739	1.94
299.115	1.8
299.491	1.92
299.867	1.85
300.243	1.68
300.619	1.78
300.995	2.29
301.371	2.43
301.746	2
302.122	3
302.498	2.11
302.874	2.39
303.249	2.48
303.625	1.74
304	2.69
304.376	2.24
304.751	2.66
305.127	2.13
305.502	2.2
305.878	2.23
306.253	1.78
306.628	1.63
307.003	2.17
307.378	2.3
307.754	2.13
308.129	2.12
308.504	2.79
308.879	1.76
309.254	2.85
309.629	2.07
310.003	2.58
310.378	2.22
310.753	2.4
311.128	2.82
311.502	1.63
311.877	1.87
312.252	1.81
312.626	2.42
313.001	1.75
313.375	1.48
313.75	2.39
314.124	2.66
314.498	2.28
314.873	2.32
315.247	2.46
315.621	2.3
315.995	2.51
316.369	2.27
316.743	2.43
317.117	1.55
317.491	2.31
317.865	2.2
318.239	1.55
318.613	2.78
318.987	2.5
319.361	1.95
319.734	1.97
320.108	2.58
320.482	2.63
320.855	2.03
321.229	3.02
321.602	2.95
321.976	2.2
322.349	2.28
322.723	2.41
323.096	2.83
323.469	2.38
323.843	3.12
324.216	2.56
324.589	2.83
324.962	3.14
325.335	3.08
325.708	3.08
326.081	2.74
326.454	2.65
326.827	3.01
327.2	2.48
327.573	2.07
327.945	2.57
328.318	2.75
328.691	1.83
329.063	2.54
329.436	2.65
329.809	2.6
330.181	1.88
330.553	2.3
330.926	2.68
331.298	2.2
331.671	2.45
332.043	2.22
332.415	3.04
332.787	2.53
333.159	2.93
333.532	2.24
333.904	2.31
334.276	3.23
334.648	2.02
335.02	1.83
335.391	2.2
335.763	2.42
336.135	2.89
336.507	2.98
336.879	2.52
337.25	2.55
337.622	2.5
337.993	2.55
338.365	2.51
338.736	2.25
339.108	2.75
339.479	3.03
339.851	2.53
340.222	1.86
340.593	2.59
340.964	2.59
341.336	2.65
341.707	1.83
342.078	1.84
342.449	2.54
342.82	2.7
343.191	2.62
343.562	2.22
343.933	2.76
344.303	2.79
344.674	2.87
345.045	2.85
345.416	2.52
345.786	2.18
346.157	2.73
346.527	2.92
346.898	2.54
347.268	2.33
347.639	2.57
348.009	2.87
348.38	2.54
348.75	2.59
349.12	2.72
349.49	2.75
349.861	2.67
350.231	2.33
350.601	2.78
350.971	2.94
351.341	2.93
351.711	2.65
352.081	3.36
352.45	2.54
352.82	2.81
353.19	2.78
353.56	2.45
353.929	2.49
354.299	2.52
354.669	2.95
355.038	1.99
355.408	2.3
355.777	2.72
356.147	2.38
356.516	2.65
356.885	2.46
357.254	2.92
357.624	2.37
357.993	2.74
358.362	2.48
358.731	2.54
359.1	2.15
359.469	2.68
359.838	2.35
360.207	2.83
360.576	2.93
360.945	2.35
361.314	2.68
361.682	2.63
362.051	2.78
362.42	2.77
362.788	2.65
363.157	2.91
363.525	2.67
363.894	2.56
364.262	2.6
364.631	2.41
364.999	2.84
365.367	2.64
365.735	2.79
366.104	2.76
366.472	2.59
366.84	2.76
367.208	2.77
367.576	2.44
367.944	2.69
368.312	2.77
368.68	2.49
369.048	2.56
369.416	2.67
369.783	2.48
370.151	2.85
370.519	2.41
370.886	2.62
371.254	2.61
371.621	2.74
371.989	2.7
372.356	2.8
372.724	2.39
373.091	2.67
373.458	2.85
373.826	2.85
374.193	2.51
374.56	2.98
374.927	2.82
375.294	2.8
375.661	3.09
376.028	3.3
376.395	3.13
376.762	2.92
377.129	2.64
377.496	2.69
377.863	2.51
378.229	2.78
378.596	2.51
378.963	2.88
379.329	2.74
379.696	2.61
380.062	3.09
380.429	2.92
380.795	2.83
381.161	2.93
381.528	2.51
381.894	2.79
382.26	2.64
382.626	2.67
382.993	2.97
383.359	2.49
383.725	2.85
384.091	2.57
384.457	2.81
384.823	2.88
385.188	2.59
385.554	2.72
385.92	2.79
386.286	3.05
386.651	3.06
387.017	3.2
387.383	2.91
387.748	2.71
388.114	2.93
388.479	2.97
388.845	2.76
389.21	2.81
389.575	2.59
389.94	2.92
390.306	2.93
390.671	2.52
391.036	2.83
391.401	2.75
391.766	2.85
392.131	2.9
392.496	2.66
392.861	2.68
393.226	2.92
393.591	2.62
393.956	2.63
394.32	3.09
394.685	3.08
395.05	2.62
395.414	2.94
395.779	2.81
396.143	2.94
396.508	2.64
396.872	2.83
397.236	2.84
397.601	2.94
397.965	2.83
398.329	2.88
398.694	2.68
399.058	2.91
399.422	2.93
399.786	2.77
400.15	2.84
400.514	2.98
400.878	3
401.242	2.53
401.605	2.95
401.969	2.89
402.333	3.07
402.697	2.85
403.06	2.69
403.424	3.12
403.787	2.78
404.151	2.87
404.514	2.48
404.878	2.92
405.241	2.94
405.604	2.81
405.968	2.82
406.331	2.95
406.694	3.04
407.057	2.68
407.42	2.92
407.783	2.73
408.146	2.84
408.509	3.11
408.872	2.97
409.235	3.12
409.598	2.91
409.961	2.75
410.323	2.77
410.686	2.87
411.049	3.09
411.411	2.98
411.774	2.92
412.136	3.04
412.499	2.76
412.861	3.04
413.223	3.26
413.586	2.9
413.948	2.99
414.31	3.09
414.672	3.06
415.035	2.96
415.397	2.81
415.759	3.1
416.121	2.77
416.483	3.1
416.845	2.98
417.206	3.05
417.568	2.91
417.93	2.96
418.292	3.11
418.653	3.14
419.015	2.95
419.377	3.06
419.738	3.07
420.1	2.86
420.461	3.08
420.822	2.97
421.184	2.92
421.545	3.17
421.906	2.98
422.267	2.82
422.629	3.02
422.99	2.94
423.351	2.92
423.712	2.87
424.073	2.94
424.434	2.94
424.795	3.15
425.155	2.9
425.516	2.85
425.877	2.89
426.238	3.05
426.598	2.98
426.959	2.96
427.32	3
427.68	3.04
428.041	3.09
428.401	3.02
428.761	2.97
429.122	3.14
429.482	3.13
429.842	3.21
430.202	2.91
430.563	3.08
430.923	3.12
431.283	3.2
431.643	3.25
432.003	3.03
432.363	3.21
432.722	3.14
433.082	3.09
433.442	3.14
433.802	3.16
434.161	3.14
434.521	3.25
434.881	3.16
435.24	3.15
435.6	3.01
435.959	3.23
436.319	3.11
436.678	3.17
437.037	3.2
437.396	3.07
437.756	3.15
438.115	3.12
438.474	3.09
438.833	3.24
439.192	3.2
439.551	3.17
439.91	3.07
440.269	3.23
440.628	3.29
440.987	2.93
441.345	3.26
441.704	3.1
442.063	3.16
442.421	3.19
442.78	3.04
443.138	3.12
443.497	3.09
443.855	3.11
444.214	3.16
444.572	3.17
444.93	3.29
445.288	3.12
445.647	3.22
446.005	3.14
446.363	3.21
446.721	3.05
447.079	3.15
447.437	3.11
447.795	3.15
448.153	3.11
448.51	3.2
448.868	3.15
449.226	3.28
449.584	3.17
449.941	3.14
450.299	3.2
450.656	3.13
451.014	3.17
451.371	3.12
451.729	3.33
452.086	3.12
452.443	3.38
452.801	3.28
453.158	3.21
453.515	3.3
453.872	3.28
454.229	3.36
454.586	3.16
454.943	3.33
455.3	3.23
455.657	3.32
456.014	3.56
456.371	3.44
456.727	3.29
457.084	3.35
457.441	3.37
457.797	3.27
458.154	3.22
458.51	3.21
458.867	3.35
459.223	3.52
459.58	3.39
459.936	3.23
460.292	3.29
460.648	3.31
461.005	3.24
461.361	3.32
461.717	3.35
462.073	3.27
462.429	3.33
462.785	3.21
463.141	3.38
463.496	3.28
463.852	3.42
464.208	3.47
464.564	3.44
464.919	3.53
465.275	3.57
465.631	3.51
465.986	3.51
466.342	3.37
466.697	3.36
467.052	3.61
467.408	3.49
467.763	3.46
468.118	3.41
468.473	3.41
468.829	3.56
469.184	3.35
469.539	3.52
469.894	3.58
470.249	3.56
470.603	3.45
470.958	3.48
471.313	3.62
471.668	3.41
472.023	3.49
472.377	3.28
472.732	3.36
473.086	3.37
473.441	3.64
473.795	3.53
474.15	3.61
474.504	3.57
474.859	3.45
475.213	3.45
475.567	3.44
475.921	3.61
476.275	3.46
476.63	3.48
476.984	3.65
477.338	3.32
477.692	3.32
478.045	3.66
478.399	3.53
478.753	3.35
479.107	3.5
479.461	3.45
479.814	3.52
480.168	3.37
480.521	3.4
480.875	3.68
481.228	3.6
481.582	3.54
481.935	3.6
482.289	3.54
482.642	3.62
482.995	3.49
483.348	3.57
483.701	3.73
484.055	3.55
484.408	3.5
484.761	3.43
485.114	3.37
485.466	3.28
485.819	3.29
486.172	3.31
486.525	3.38
486.878	3.44
487.23	3.41
487.583	3.48
487.936	3.51
488.288	3.49
488.641	3.45
488.993	3.39
489.345	3.39
489.698	3.39
490.05	3.43
490.402	3.48
490.754	3.46
491.107	3.5
491.459	3.57
491.811	3.61
492.163	3.55
492.515	3.66
492.866	3.46
493.218	3.49
493.57	3.45
493.922	3.4
494.274	3.51
494.625	3.63
494.977	3.66
495.328	3.78
495.68	3.72
496.031	3.79
496.383	3.69
496.734	3.79
497.086	3.71
497.437	3.72
497.788	3.74
498.139	3.68
498.49	3.81
498.842	3.64
499.193	3.7
499.544	3.7
499.894	3.68
500.245	3.84
500.596	3.82
500.947	3.75
501.298	3.8
501.648	3.81
501.999	3.81
502.35	3.76
502.7	3.8
503.051	3.74
503.401	3.77
503.752	3.98
504.102	3.82
504.452	3.89
504.803	3.76
505.153	3.81
505.503	3.85
505.853	4.03
506.203	3.83
506.553	3.86
506.903	3.98
507.253	3.83
507.603	3.86
507.953	3.92
508.303	3.93
508.652	4.02
509.002	3.96
509.352	3.85
509.701	3.92
510.051	3.92
510.4	3.97
510.75	3.91
511.099	3.89
511.449	3.9
511.798	3.92
512.147	4
512.496	4.06
512.846	4.11
513.195	3.99
513.544	3.99
513.893	4.05
514.242	3.89
514.591	4
514.939	4.1
515.288	4.07
515.637	3.96
515.986	3.97
516.334	3.98
516.683	3.98
517.032	4.08
517.38	4.02
517.729	4.07
518.077	3.96
518.426	4.17
518.774	4.12
519.122	4.13
519.47	4.02
519.819	3.91
520.167	4.02
520.515	4.02
520.863	4.06
521.211	4
521.559	4.12
521.907	4.02
522.255	4.09
522.602	4.2
522.95	4.12
523.298	4.2
523.645	4.35
523.993	4.34
524.341	4.25
524.688	4.29
525.036	4.26
525.383	4.26
525.73	4.06
526.078	4.28
526.425	4.19
526.772	4.09
527.119	4.1
527.466	4.17
527.814	4.1
528.161	4.16
528.508	4.23
528.854	4.21
529.201	4.21
529.548	4.18
529.895	4.13
530.242	3.97
530.588	4.01
530.935	4.04
531.282	4.09
531.628	4.16
531.975	4.19
532.321	4.18
532.667	4.2
533.014	4.17
533.36	4.18
533.706	4.19
534.052	4.26
534.399	4.31
534.745	4.22
535.091	4.15
535.437	4.27
535.783	4.23
536.129	4.28
536.474	4.25
536.82	4.24
537.166	4.44
537.512	4.34
537.857	4.46
538.203	4.29
538.549	4.37
538.894	4.46
539.239	4.29
539.585	4.47
539.93	4.51
540.276	4.53
540.621	4.48
540.966	4.47
541.311	4.48
541.656	4.46
542.001	4.5
542.346	4.44
542.691	4.38
543.036	4.38
543.381	4.27
543.726	4.37
544.071	4.42
544.415	4.42
544.76	4.48
545.105	4.48
545.449	4.56
545.794	4.67
546.138	4.52
546.483	4.69
546.827	4.69
547.171	4.64
547.516	4.66
547.86	4.64
548.204	4.57
548.548	4.67
548.892	4.77
549.236	4.62
549.58	4.76
549.924	4.74
550.268	4.81
550.612	4.78
550.956	4.79
551.3	4.8
551.643	4.92
551.987	5
552.33	4.99
552.674	4.92
553.017	5.03
553.361	5.01
553.704	4.76
554.048	4.95
554.391	4.9
554.734	4.89
555.077	5.02
555.42	4.94
555.764	5.1
556.107	5.1
556.45	4.81
556.793	4.84
557.135	4.97
557.478	5.19
557.821	4.89
558.164	5.14
558.507	5.26
558.849	5.16
559.192	5.19
559.534	5.22
559.877	5.11
560.219	5.29
560.562	5.13
560.904	5.25
561.246	5.28
561.589	5.12
561.931	5.16
562.273	5.06
562.615	5.11
562.957	5.18
563.299	5.17
563.641	5.36
563.983	5.26
564.325	5.45
564.667	5.3
565.008	5.14
565.35	5.27
565.692	5.35
566.033	5.52
566.375	5.41
566.716	5.16
567.058	5.36
567.399	5.41
567.741	5.45
568.082	5.2
568.423	5.34
568.764	5.53
569.105	5.39
569.447	5.54
569.788	5.54
570.129	5.31
570.47	5.55
570.811	5.34
571.151	5.55
571.492	5.64
571.833	5.56
572.174	5.48
572.514	5.41
572.855	5.6
573.195	5.54
573.536	5.48
573.876	5.55
574.217	5.64
574.557	5.62
574.898	5.58
575.238	5.65
575.578	5.67
575.918	5.59
576.258	5.8
576.598	5.68
576.938	5.8
577.278	5.8
577.618	5.62
577.958	5.72
578.298	5.93
578.638	5.7
578.977	5.77
579.317	5.75
579.657	5.79
579.996	5.81
580.336	5.7
580.675	5.92
581.014	5.93
581.354	5.91
581.693	5.97
582.032	5.9
582.372	5.99
582.711	6.08
583.05	6.32
583.389	6.17
583.728	6.18
584.067	6.49
584.406	6.29
584.745	6.37
585.083	6
585.422	6.33
585.761	6.39
586.1	6.22
586.438	6.34
586.777	6.36
587.115	5.96
587.454	6.66
587.792	6
588.13	6.27
588.469	6.23
588.807	6.26
589.145	6.38
589.483	6.38
589.821	6.11
590.159	6.12
590.497	6.33
590.835	6.4
591.173	6.25
591.511	6.48
591.849	6.39
592.187	6.32
592.524	6.2
592.862	6.64
593.2	6.52
593.537	6.33
593.875	6.68
594.212	6.54
594.55	6.85
594.887	6.73
595.224	6.33
595.561	6.71
595.899	6.61
596.236	6.87
596.573	6.56
596.91	6.93
597.247	6.94
597.584	6.55
597.921	6.94
598.258	6.82
598.594	6.79
598.931	6.72
599.268	6.66
599.604	6.55
599.941	6.74
600.277	6.84
600.614	6.99
600.95	6.94
601.287	6.75
601.623	6.9
601.959	6.97
602.296	7.05
602.632	6.9
602.968	7.22
603.304	6.82
603.64	7.11
603.976	7.08
604.312	6.94
604.648	7.03
604.984	7.07
605.319	6.98
605.655	6.99
605.991	7.31
606.326	6.77
606.662	7.07
606.998	6.88
607.333	7.15
607.668	7.11
608.004	7.04
608.339	7.38
608.674	7.31
609.01	7.16
609.345	7.18
609.68	7.34
610.015	7.03
610.35	7.37
610.685	7.51
611.02	7.38
611.355	7.1
611.689	7.05
612.024	7.15
612.359	7.39
612.694	7.35
613.028	7.5
613.363	7.38
613.697	7.42
614.032	7.55
614.366	7.64
614.7	7.66
615.035	7.73
615.369	7.42
615.703	7.47
616.037	7.45
616.371	7.71
616.705	7.66
617.039	7.58
617.373	7.55
617.707	7.37
618.041	7.67
618.375	7.53
618.709	7.82
619.042	7.93
619.376	7.71
619.71	7.84
620.043	8.01
620.377	7.86
620.71	7.62
621.043	7.72
621.377	7.65
621.71	8.05
622.043	8.13
622.376	8.15
622.709	7.64
623.043	7.83
623.376	8.05
623.709	8.27
624.041	7.73
624.374	7.98
624.707	8.06
625.04	8.09
625.373	7.87
625.705	8.32
626.038	8.1
626.37	8.41
626.703	8.4
627.035	8.26
627.368	8.03
627.7	7.69
628.032	7.91
628.365	8.23
628.697	8.04
629.029	8.2
629.361	8.1
629.693	8.23
630.025	8.15
630.357	8.39
630.689	8.22
631.021	8.13
631.353	8.72
631.684	8.32
632.016	8.39
632.348	8.73
632.679	8.29
633.011	8.83
633.342	8.91
633.674	8.7
634.005	8.98
634.336	8.93
634.668	8.53
634.999	8.51
635.33	8.48
635.661	8.33
635.992	8.88
636.323	8.46
636.654	8.65
636.985	8.89
637.316	8.86
637.647	8.74
637.977	8.8
638.308	8.52
638.639	8.71
638.969	8.84
639.3	8.65
639.63	9.26
639.961	9.14
640.291	8.56
640.622	8.51
640.952	8.78
641.282	9.11
641.612	9.27
641.943	9.09
642.273	9.26
642.603	9.14
642.933	9.11
643.263	9.34
643.592	9.37
643.922	9.84
644.252	9.34
644.582	8.92
644.911	9.02
645.241	8.68
645.571	9.42
645.9	9.42
646.23	9.17
646.559	9.45
646.888	9.26
647.218	9.38
647.547	9.43
647.876	9.34
648.205	9.05
648.534	9.67
648.863	9.59
649.192	9.64
649.521	9.92
649.85	9.25
650.179	9.72
650.508	9.92
650.837	9.42
651.165	9.54
651.494	9.56
651.822	9.73
652.151	9.49
652.479	9.86
652.808	9.96
653.136	9.88
653.465	9.56
653.793	9.91
654.121	9.71
654.449	9.54
654.777	9.9
655.105	10.01
655.433	10.05
655.761	9.96
656.089	9.85
656.417	9.9
656.745	10.43
657.073	9.34
657.4	9.95
657.728	9.58
658.056	9.91
658.383	9.41
658.711	9.93
659.038	10.08
659.365	9.91
659.693	10.11
660.02	9.45
660.347	10.08
660.674	10.06
661.001	10.12
661.329	10.2
661.656	9.94
661.982	9.98
662.309	10.16
662.636	10.26
662.963	10.54
663.29	10.69
663.616	9.87
663.943	10.13
664.27	9.99
664.596	9.92
664.923	10.42
665.249	9.51
665.576	10
665.902	10.25
666.228	10.49
666.554	10.09
666.881	9.92
667.207	10.41
667.533	10.83
667.859	10.49
668.185	10.75
668.511	10.53
668.837	10.48
669.162	11.4
669.488	10.51
669.814	10.8
670.139	10.11
670.465	10.13
670.791	10.58
671.116	10.79
671.442	10.67
671.767	10.95
672.092	11.35
672.418	10.6
672.743	11.17
673.068	10.38
673.393	10.66
673.718	11.27
674.043	10.91
674.368	10.54
674.693	10.66
675.018	10.82
675.343	10.92
675.667	11.33
675.992	10.56
676.317	10.18
676.641	10.45
676.966	11.43
677.29	10.94
677.615	11.14
677.939	11.63
678.264	11.17
678.588	11.19
678.912	11.28
679.236	10.94
679.56	11.38
679.885	11.58
680.209	11.29
680.532	11.79
680.856	10.94
681.18	11.07
681.504	11.04
681.828	11.46
682.152	11.23
682.475	11.59
682.799	11.43
683.122	11.28
683.446	11.59
683.769	12.2
684.093	10.95
684.416	11.44
684.739	11.76
685.062	11.56
685.386	11.7
685.709	11.56
686.032	11.27
686.355	11.11
686.678	11.59
687.001	11.23
687.324	11.82
687.646	11.84
687.969	11.96
688.292	11.82
688.614	11.41
688.937	12.18
689.26	12.59
689.582	11.7
689.904	11.45
690.227	11.79
