Data from 0430_chest_Reflection__1__93.txt Node

Date: Tue Dec 12 18:56:42 CST 2023
User: ToomeyLab
Spectrometer: FLMS14357
Trigger mode: 0
Integration Time (sec): 1.000000E-2
Scans to average: 100
Electric dark correction enabled: true
Nonlinearity correction enabled: false
Boxcar width: 0
XAxis mode: Wavelengths
Number of Pixels in Spectrum: 2048
>>>>>Begin Spectral Data<<<<<
189.047	-185.59
189.435	-185.59
189.823	-185.59
190.211	-51.72
190.599	41.29
190.987	42.74
191.375	151.25
191.763	112.75
192.151	-50.27
192.538	-113.05
192.926	-174.48
193.314	62.94
193.702	114.57
194.089	301.28
194.477	-245.65
194.864	52.17
195.252	-24.73
195.639	4369.52
196.027	9.11
196.414	-2762.91
196.801	78.93
197.189	992.26
197.576	-85.21
197.963	49.32
198.351	-9.54
198.738	-2.57
199.125	-123.04
199.512	-0.5
199.899	-14.46
200.286	8.65
200.673	-41.63
201.06	33.2
201.447	-52.2
201.833	-16.56
202.22	16.97
202.607	-155.68
202.994	25.08
203.38	13.76
203.767	-61.15
204.154	-6.44
204.54	42.86
204.927	2.92
205.313	11.31
205.699	-11.35
206.086	-31.32
206.472	25.13
206.858	15.56
207.245	13.84
207.631	-1.59
208.017	-24.96
208.403	-4.84
208.789	-9.46
209.175	-31.73
209.561	-22.13
209.947	-4.64
210.333	10.08
210.719	3.49
211.105	-7.65
211.491	8.39
211.876	-15.39
212.262	52.61
212.648	-31.29
213.034	-41.71
213.419	1.56
213.805	-23.56
214.19	-5.35
214.576	15.25
214.961	16.77
215.346	2.32
215.732	14.07
216.117	17.68
216.502	-21.73
216.888	-43.24
217.273	-19.26
217.658	-33.61
218.043	-6.65
218.428	-0.94
218.813	11.04
219.198	-36.28
219.583	8.12
219.968	30.04
220.353	5.52
220.738	-7.15
221.122	2.91
221.507	-6
221.892	-14.55
222.276	5.37
222.661	-6.27
223.046	-14.06
223.43	0.32
223.815	5.15
224.199	6.16
224.583	3.39
224.968	8.6
225.352	-6.31
225.736	-0.87
226.121	-0.18
226.505	7.85
226.889	5.62
227.273	2.95
227.657	9.05
228.041	4.9
228.425	1.94
228.809	3.43
229.193	0.95
229.577	3.91
229.961	2.39
230.344	3.79
230.728	4.18
231.112	4.13
231.495	3.9
231.879	3.99
232.263	3.69
232.646	4.71
233.03	3.35
233.413	1.68
233.797	1.74
234.18	0.4
234.563	2.76
234.946	4.62
235.33	5.63
235.713	5.9
236.096	3.48
236.479	1.86
236.862	3.53
237.245	3.13
237.628	2.81
238.011	3.53
238.394	3.35
238.777	5.03
239.16	4.53
239.543	3.43
239.925	3.88
240.308	4.62
240.691	3.65
241.073	5.31
241.456	4.56
241.838	2.64
242.221	4.58
242.603	5.08
242.986	3.79
243.368	4.25
243.75	3.43
244.133	3.85
244.515	3.84
244.897	4.07
245.279	4.78
245.661	3.07
246.043	2.82
246.425	5.33
246.807	2.93
247.189	4.01
247.571	4.38
247.953	3.84
248.335	3.27
248.717	3.89
249.098	4.07
249.48	3.63
249.862	3.63
250.243	3.74
250.625	4.31
251.006	3.71
251.388	4.42
251.769	4.4
252.151	3.39
252.532	3.3
252.913	4.65
253.295	4.56
253.676	3.41
254.057	3.48
254.438	3.95
254.819	3.91
255.2	3.72
255.581	3.84
255.962	2.64
256.343	4.06
256.724	2.91
257.105	5.13
257.486	3.72
257.867	2.2
258.247	2.83
258.628	3.01
259.009	3.09
259.389	3.05
259.77	2.95
260.15	3.67
260.531	4.36
260.911	3.12
261.292	3.38
261.672	3.44
262.052	3.53
262.432	3.69
262.813	3.77
263.193	3.72
263.573	3.88
263.953	4.59
264.333	3.97
264.713	3.72
265.093	3.61
265.473	3.6
265.853	3.44
266.233	2.77
266.612	3.31
266.992	3.71
267.372	4.2
267.752	4.49
268.131	3.04
268.511	3.07
268.89	3.21
269.27	2.53
269.649	3.81
270.029	3.34
270.408	4.03
270.787	3.35
271.167	3.15
271.546	3.4
271.925	4.11
272.304	4.23
272.683	3.63
273.062	3.56
273.441	3.59
273.82	3.15
274.199	3.61
274.578	3.66
274.957	3.77
275.336	3.69
275.715	3.7
276.093	2.55
276.472	4.15
276.851	4.15
277.229	3.37
277.608	3.78
277.986	2.73
278.365	3.94
278.743	3.28
279.122	3.36
279.5	3.29
279.878	3.04
280.257	3.47
280.635	3.13
281.013	3.2
281.391	3.68
281.769	3.17
282.147	3.14
282.525	3.23
282.903	3.19
283.281	3.19
283.659	3.83
284.037	3.53
284.415	3.43
284.792	3.73
285.17	3.42
285.548	3.17
285.925	3.63
286.303	3.42
286.68	3.39
287.058	3.23
287.435	3.48
287.813	3.05
288.19	3.69
288.567	3.8
288.945	3.27
289.322	2.63
289.699	3.68
290.076	3.28
290.453	3.34
290.83	3.2
291.207	3.98
291.584	3.75
291.961	3.61
292.338	3.51
292.715	3.37
293.092	3.1
293.469	3.69
293.845	3.28
294.222	3.63
294.599	4.05
294.975	3.16
295.352	3.4
295.728	3.62
296.105	3.86
296.481	4.07
296.858	2.84
297.234	4.08
297.61	3.98
297.986	3.9
298.363	4.12
298.739	3.53
299.115	3.47
299.491	3.83
299.867	3.79
300.243	3.28
300.619	3.88
300.995	4.2
301.371	3.96
301.746	3.47
302.122	4.47
302.498	3.29
302.874	3.82
303.249	4.7
303.625	3.41
304	4.16
304.376	3.88
304.751	4.18
305.127	4.23
305.502	4.24
305.878	3.89
306.253	3.89
306.628	3.9
307.003	3.7
307.378	4.16
307.754	4.05
308.129	3.49
308.504	4.49
308.879	3.55
309.254	3.88
309.629	3.14
310.003	4.43
310.378	4.32
310.753	3.71
311.128	4.3
311.502	3.99
311.877	3.64
312.252	3.47
312.626	3.69
313.001	3.88
313.375	3.92
313.75	3.74
314.124	3.92
314.498	3.33
314.873	4.23
315.247	4.57
315.621	3.46
315.995	4.24
316.369	3.88
316.743	3.55
317.117	3.53
317.491	3.56
317.865	3.8
318.239	4.06
318.613	4.63
318.987	4
319.361	3.42
319.734	3.76
320.108	3.9
320.482	3.73
320.855	3.66
321.229	4.55
321.602	4.19
321.976	4.55
322.349	3.72
322.723	3.7
323.096	3.84
323.469	4.46
323.843	4.87
324.216	4.93
324.589	4.11
324.962	4.2
325.335	4.69
325.708	4.22
326.081	4.66
326.454	4.22
326.827	5.14
327.2	4.3
327.573	3.99
327.945	4.47
328.318	3.92
328.691	3.11
329.063	4.21
329.436	4.48
329.809	4.29
330.181	3.64
330.553	3.45
330.926	4.04
331.298	4.12
331.671	4.63
332.043	4.25
332.415	4.64
332.787	3.67
333.159	4.17
333.532	4.62
333.904	4.4
334.276	4.61
334.648	4.07
335.02	3.7
335.391	3.73
335.763	3.85
336.135	4.01
336.507	4.76
336.879	4.13
337.25	4.36
337.622	4.27
337.993	3.9
338.365	3.66
338.736	4.26
339.108	4.06
339.479	4.46
339.851	4.12
340.222	4.02
340.593	4.15
340.964	4.47
341.336	3.64
341.707	3.79
342.078	3.46
342.449	4.44
342.82	4.36
343.191	3.89
343.562	4.38
343.933	4.53
344.303	4.13
344.674	4.39
345.045	4.79
345.416	4.19
345.786	4.32
346.157	4.29
346.527	4.36
346.898	3.75
347.268	4.53
347.639	4.45
348.009	4.18
348.38	4.05
348.75	4.21
349.12	4.33
349.49	3.89
349.861	4.66
350.231	4.54
350.601	4.46
350.971	4.53
351.341	4.14
351.711	4.65
352.081	3.91
352.45	4.37
352.82	4.54
353.19	3.61
353.56	4.09
353.929	4.03
354.299	3.82
354.669	4.44
355.038	4.07
355.408	4.22
355.777	4.72
356.147	4.25
356.516	4.24
356.885	3.96
357.254	4.45
357.624	4.09
357.993	4.35
358.362	4.45
358.731	4.15
359.1	3.88
359.469	4.03
359.838	4.15
360.207	4.17
360.576	4.34
360.945	3.99
361.314	4.7
361.682	4.24
362.051	4.44
362.42	4.5
362.788	4.18
363.157	4.57
363.525	4.38
363.894	4.26
364.262	4.33
364.631	3.83
364.999	4.23
365.367	4.69
365.735	4.33
366.104	4.2
366.472	4.29
366.84	4.24
367.208	4.56
367.576	4.26
367.944	4.53
368.312	4.18
368.68	4.54
369.048	4.76
369.416	4.56
369.783	4.4
370.151	4.52
370.519	4.58
370.886	4.18
371.254	4.18
371.621	4.47
371.989	3.91
372.356	4.2
372.724	4.15
373.091	4.36
373.458	4.34
373.826	4.24
374.193	4.31
374.56	4.41
374.927	4.46
375.294	3.93
375.661	4.47
376.028	4.54
376.395	4.9
376.762	4.55
377.129	4.38
377.496	4.04
377.863	4.32
378.229	4.06
378.596	4.19
378.963	4.55
379.329	4.48
379.696	4.2
380.062	4.57
380.429	4.42
380.795	4.42
381.161	4.56
381.528	4.69
381.894	4.66
382.26	4.22
382.626	4.4
382.993	4.81
383.359	4.24
383.725	4.33
384.091	4.54
384.457	4.38
384.823	4.55
385.188	4.56
385.554	4.38
385.92	4.44
386.286	4.76
386.651	4.55
387.017	4.9
387.383	4.55
387.748	4.6
388.114	4.53
388.479	4.84
388.845	4.52
389.21	4.54
389.575	4.41
389.94	4.56
390.306	4.59
390.671	4.48
391.036	4.56
391.401	4.5
391.766	4.64
392.131	4.77
392.496	4.61
392.861	4.45
393.226	4.59
393.591	4.74
393.956	4.44
394.32	4.55
394.685	4.69
395.05	4.44
395.414	4.65
395.779	4.46
396.143	4.72
396.508	4.5
396.872	4.51
397.236	4.57
397.601	4.6
397.965	4.47
398.329	4.76
398.694	4.55
399.058	4.71
399.422	4.51
399.786	4.42
400.15	4.25
400.514	4.84
400.878	4.77
401.242	4.52
401.605	4.68
401.969	4.56
402.333	4.55
402.697	4.58
403.06	4.36
403.424	4.64
403.787	4.36
404.151	4.96
404.514	4.29
404.878	4.49
405.241	4.6
405.604	4.25
405.968	4.52
406.331	4.75
406.694	4.79
407.057	4.43
407.42	4.66
407.783	4.74
408.146	4.42
408.509	4.71
408.872	4.53
409.235	4.66
409.598	4.5
409.961	4.53
410.323	4.64
410.686	4.74
411.049	4.76
411.411	4.74
411.774	4.77
412.136	4.73
412.499	4.79
412.861	4.71
413.223	5.13
413.586	4.72
413.948	4.85
414.31	5.07
414.672	4.91
415.035	4.63
415.397	4.58
415.759	4.44
416.121	4.62
416.483	4.79
416.845	4.69
417.206	4.79
417.568	4.77
417.93	4.81
418.292	4.84
418.653	4.68
419.015	4.7
419.377	4.46
419.738	4.74
420.1	4.53
420.461	4.8
420.822	4.74
421.184	4.72
421.545	4.86
421.906	4.5
422.267	4.7
422.629	4.56
422.99	4.63
423.351	4.62
423.712	4.76
424.073	4.82
424.434	4.76
424.795	4.75
425.155	4.53
425.516	4.62
425.877	4.55
426.238	4.69
426.598	4.61
426.959	4.65
427.32	4.7
427.68	4.7
428.041	4.84
428.401	4.8
428.761	4.78
429.122	4.71
429.482	5.03
429.842	4.85
430.202	4.8
430.563	4.82
430.923	4.74
431.283	4.76
431.643	4.77
432.003	4.76
432.363	4.86
432.722	4.77
433.082	4.81
433.442	4.9
433.802	4.86
434.161	4.74
434.521	4.88
434.881	4.77
435.24	4.95
435.6	4.98
435.959	4.94
436.319	4.91
436.678	5
437.037	4.79
437.396	4.65
437.756	4.87
438.115	4.97
438.474	4.83
438.833	4.95
439.192	5.1
439.551	4.93
439.91	4.87
440.269	5.02
440.628	4.79
440.987	4.77
441.345	4.97
441.704	4.81
442.063	5.01
442.421	4.94
442.78	4.95
443.138	4.82
443.497	4.98
443.855	4.92
444.214	5.01
444.572	5.02
444.93	4.9
445.288	4.91
445.647	4.99
446.005	5.02
446.363	4.91
446.721	4.99
447.079	4.84
447.437	4.76
447.795	5.02
448.153	4.83
448.51	4.86
448.868	4.92
449.226	5.01
449.584	4.88
449.941	4.97
450.299	4.9
450.656	5.01
451.014	4.98
451.371	4.98
451.729	5.22
452.086	5.05
452.443	5.19
452.801	5.1
453.158	5.11
453.515	5.02
453.872	5.04
454.229	5.16
454.586	4.98
454.943	5.07
455.3	5.01
455.657	5.12
456.014	5.14
456.371	5.08
456.727	5.12
457.084	5.14
457.441	5.25
457.797	5.1
458.154	4.97
458.51	4.99
458.867	5.27
459.223	5.17
459.58	5.07
459.936	4.95
460.292	5.25
460.648	5.03
461.005	4.98
461.361	4.99
461.717	5.16
462.073	4.96
462.429	5.05
462.785	5.02
463.141	5.23
463.496	5.09
463.852	5.34
464.208	5.14
464.564	5.2
464.919	5.22
465.275	5.24
465.631	5.51
465.986	5.18
466.342	5.07
466.697	5.21
467.052	5.53
467.408	5.45
467.763	5.25
468.118	5.32
468.473	5.23
468.829	5.32
469.184	5.1
469.539	5.32
469.894	5.37
470.249	5.28
470.603	5.36
470.958	5.27
471.313	5.46
471.668	5.39
472.023	5.29
472.377	5.4
472.732	5.33
473.086	5.44
473.441	5.36
473.795	5.44
474.15	5.41
474.504	5.32
474.859	5.37
475.213	5.25
475.567	5.34
475.921	5.36
476.275	5.27
476.63	5.3
476.984	5.56
477.338	5.39
477.692	5.31
478.045	5.41
478.399	5.35
478.753	5.28
479.107	5.41
479.461	5.37
479.814	5.41
480.168	5.32
480.521	5.3
480.875	5.45
481.228	5.51
481.582	5.48
481.935	5.43
482.289	5.52
482.642	5.5
482.995	5.37
483.348	5.35
483.701	5.48
484.055	5.46
484.408	5.36
484.761	5.38
485.114	5.24
485.466	5.12
485.819	5.11
486.172	5.07
486.525	5.2
486.878	5.21
487.23	5.25
487.583	5.3
487.936	5.29
488.288	5.31
488.641	5.3
488.993	5.32
489.345	5.22
489.698	5.25
490.05	5.27
490.402	5.27
490.754	5.33
491.107	5.38
491.459	5.43
491.811	5.45
492.163	5.43
492.515	5.52
492.866	5.42
493.218	5.33
493.57	5.27
493.922	5.29
494.274	5.42
494.625	5.44
494.977	5.55
495.328	5.75
495.68	5.56
496.031	5.6
496.383	5.72
496.734	5.7
497.086	5.63
497.437	5.74
497.788	5.63
498.139	5.55
498.49	5.81
498.842	5.65
499.193	5.57
499.544	5.63
499.894	5.65
500.245	5.75
500.596	5.68
500.947	5.65
501.298	5.75
501.648	5.85
501.999	5.75
502.35	5.8
502.7	5.8
503.051	5.85
503.401	5.88
503.752	5.98
504.102	5.91
504.452	5.85
504.803	5.94
505.153	5.82
505.503	5.91
505.853	6
506.203	5.9
506.553	5.82
506.903	6.07
507.253	5.91
507.603	5.99
507.953	5.94
508.303	5.99
508.652	5.89
509.002	5.97
509.352	5.83
509.701	5.92
510.051	6.02
510.4	5.89
510.75	5.92
511.099	5.93
511.449	6
511.798	5.96
512.147	6.02
512.496	6.02
512.846	6.05
513.195	5.98
513.544	6.13
513.893	6.09
514.242	6.01
514.591	5.91
514.939	6.04
515.288	5.92
515.637	5.95
515.986	6.16
516.334	6.3
516.683	6.11
517.032	6.19
517.38	6.14
517.729	6.2
518.077	6.2
518.426	6.28
518.774	6.17
519.122	6.23
519.47	6.18
519.819	6.15
520.167	6.1
520.515	6.07
520.863	6.24
521.211	6.13
521.559	6.18
521.907	6.14
522.255	6.17
522.602	6.3
522.95	6.31
523.298	6.25
523.645	6.35
523.993	6.4
524.341	6.52
524.688	6.31
525.036	6.39
525.383	6.32
525.73	6.29
526.078	6.44
526.425	6.37
526.772	6.35
527.119	6.31
527.466	6.31
527.814	6.26
528.161	6.35
528.508	6.37
528.854	6.36
529.201	6.42
529.548	6.37
529.895	6.33
530.242	6.23
530.588	6.12
530.935	6.22
531.282	6.31
531.628	6.35
531.975	6.37
532.321	6.44
532.667	6.46
533.014	6.57
533.36	6.52
533.706	6.58
534.052	6.52
534.399	6.64
534.745	6.57
535.091	6.45
535.437	6.47
535.783	6.51
536.129	6.58
536.474	6.64
536.82	6.66
537.166	6.81
537.512	6.74
537.857	6.8
538.203	6.81
538.549	6.75
538.894	6.86
539.239	6.78
539.585	6.82
539.93	6.89
540.276	6.87
540.621	7.04
540.966	6.94
541.311	7
541.656	7.04
542.001	6.95
542.346	6.85
542.691	6.94
543.036	6.76
543.381	6.75
543.726	6.75
544.071	6.8
544.415	6.86
544.76	6.98
545.105	6.99
545.449	7.06
545.794	7.08
546.138	7.05
546.483	7.19
546.827	7.18
547.171	7.22
547.516	7.24
547.86	7.29
548.204	7.16
548.548	7.25
548.892	7.32
549.236	7.35
549.58	7.37
549.924	7.34
550.268	7.47
550.612	7.48
550.956	7.52
551.3	7.71
551.643	7.64
551.987	7.71
552.33	7.59
552.674	7.65
553.017	7.79
553.361	7.96
553.704	7.55
554.048	7.65
554.391	7.6
554.734	7.69
555.077	7.79
555.42	7.8
555.764	7.84
556.107	7.98
556.45	7.7
556.793	7.69
557.135	7.86
557.478	7.78
557.821	7.84
558.164	8.04
558.507	8.05
558.849	8.08
559.192	7.92
559.534	8.28
559.877	8
560.219	8.17
560.562	8.09
560.904	8.18
561.246	8.14
561.589	8.06
561.931	8.26
562.273	8.27
562.615	8.38
562.957	8.26
563.299	8.37
563.641	8.29
563.983	8.11
564.325	8.42
564.667	8.51
565.008	8.36
565.35	8.46
565.692	8.5
566.033	8.5
566.375	8.44
566.716	8.37
567.058	8.71
567.399	8.38
567.741	8.53
568.082	8.34
568.423	8.47
568.764	8.58
569.105	8.58
569.447	8.63
569.788	8.74
570.129	8.56
570.47	8.76
570.811	8.74
571.151	8.96
571.492	8.93
571.833	8.86
572.174	8.94
572.514	8.78
572.855	8.91
573.195	8.97
573.536	8.85
573.876	8.91
574.217	9.07
574.557	8.75
574.898	8.97
575.238	9.06
575.578	8.93
575.918	9.06
576.258	9.22
576.598	9.06
576.938	9.07
577.278	9.25
577.618	9.39
577.958	9.25
578.298	9.27
578.638	9.12
578.977	9.38
579.317	9.28
579.657	9.45
579.996	9.47
580.336	9.5
580.675	9.44
581.014	9.65
581.354	9.46
581.693	9.28
582.032	9.44
582.372	9.86
582.711	9.68
583.05	9.85
583.389	9.89
583.728	9.72
584.067	10.08
584.406	10
584.745	10.07
585.083	9.73
585.422	10.09
585.761	10.19
586.1	9.96
586.438	10.14
586.777	10.04
587.115	9.84
587.454	10.08
587.792	10.06
588.13	10.47
588.469	10.35
588.807	10.09
589.145	10.2
589.483	10.75
589.821	10.35
590.159	10.28
590.497	10.34
590.835	10.27
591.173	10.51
591.511	10.33
591.849	10.44
592.187	10.39
592.524	10.34
592.862	10.4
593.2	10.42
593.537	10.5
593.875	10.59
594.212	10.71
594.55	10.81
594.887	10.97
595.224	10.74
595.561	10.8
595.899	10.74
596.236	11.01
596.573	10.7
596.91	10.98
597.247	10.94
597.584	11.02
597.921	11.21
598.258	11.2
598.594	10.97
598.931	10.99
599.268	11.04
599.604	10.86
599.941	10.95
600.277	11.2
600.614	11.36
600.95	11.27
601.287	11.34
601.623	11.51
601.959	11.42
602.296	11.42
602.632	11.25
602.968	11.48
603.304	11.19
603.64	11.78
603.976	11.31
604.312	11.48
604.648	11.53
604.984	11.85
605.319	11.78
605.655	11.59
605.991	11.78
606.326	11.66
606.662	11.92
606.998	11.62
607.333	11.76
607.668	11.84
608.004	11.98
608.339	11.94
608.674	11.91
609.01	11.88
609.345	12.14
609.68	12.31
610.015	12.02
610.35	12.14
610.685	12.15
611.02	12.37
611.355	12.12
611.689	12.15
612.024	12.31
612.359	12.39
612.694	12.33
613.028	12.57
613.363	12.45
613.697	12.33
614.032	12.39
614.366	12.74
614.7	12.47
615.035	12.74
615.369	12.23
615.703	12.71
616.037	12.5
616.371	12.75
616.705	12.9
617.039	12.76
617.373	12.6
617.707	12.49
618.041	12.9
618.375	12.88
618.709	13
619.042	12.87
619.376	12.97
619.71	13.21
620.043	13.31
620.377	13.11
620.71	13.11
621.043	13.27
621.377	12.93
621.71	13.33
622.043	13.16
622.376	13.26
622.709	13.33
623.043	13.32
623.376	14.09
623.709	13.74
624.041	13.32
624.374	13.52
624.707	13.78
625.04	13.45
625.373	13.95
625.705	13.8
626.038	14.03
626.37	14.11
626.703	14.06
627.035	13.78
627.368	14.29
627.7	13.91
628.032	13.8
628.365	14.13
628.697	13.97
629.029	13.79
629.361	13.74
629.693	13.92
630.025	13.82
630.357	14.13
630.689	13.74
631.021	14.3
631.353	14.18
631.684	14.47
632.016	14.41
632.348	14.6
632.679	14.01
633.011	14.74
633.342	14.54
633.674	14.99
634.005	14.28
634.336	14.36
634.668	14.77
634.999	14.89
635.33	14.93
635.661	14.53
635.992	14.89
636.323	14.61
636.654	14.7
636.985	15.18
637.316	14.47
637.647	14.78
637.977	14.65
638.308	15.13
638.639	14.94
638.969	15.18
639.3	15
639.63	15.45
639.961	14.96
640.291	14.96
640.622	15.33
640.952	15.41
641.282	15.94
641.612	15.62
641.943	15.15
642.273	15.65
642.603	15.79
642.933	15.34
643.263	15.75
643.592	15.58
643.922	15.83
644.252	15.83
644.582	15.32
644.911	15.68
645.241	15.25
645.571	16.05
645.9	15.36
646.23	15.47
646.559	16.29
646.888	16.09
647.218	15.92
647.547	16.15
647.876	15.7
648.205	15.89
648.534	16.5
648.863	16.39
649.192	16.5
649.521	16.54
649.85	15.76
650.179	16.47
650.508	16.16
650.837	16.84
651.165	16.49
651.494	16.84
651.822	16.15
652.151	16.64
652.479	16.6
652.808	16.26
653.136	16.44
653.465	16.67
653.793	16.95
654.121	16.68
654.449	17.11
654.777	17.28
655.105	16.53
655.433	16.54
655.761	17.27
656.089	17.16
656.417	17.66
656.745	16.99
657.073	16.31
657.4	17.28
657.728	16.27
658.056	16.77
658.383	16.45
658.711	17.21
659.038	17.3
659.365	17.18
659.693	17.3
660.02	16.88
660.347	17.15
660.674	17.39
661.001	17.49
661.329	17.41
661.656	17.43
661.982	17.31
662.309	17.61
662.636	17.76
662.963	18.09
663.29	18.27
663.616	17.54
663.943	18.36
664.27	18.31
664.596	18.32
664.923	18.47
665.249	17.68
665.576	18.09
665.902	18.7
666.228	18.34
666.554	18.09
666.881	17.9
667.207	18.15
667.533	18.15
667.859	18.15
668.185	18.21
668.511	18.32
668.837	18.39
669.162	18.93
669.488	18.05
669.814	18.21
670.139	18.21
670.465	17.6
670.791	18.38
671.116	18.53
671.442	18.51
671.767	18.35
672.092	18.89
672.418	18.54
672.743	18.66
673.068	18.35
673.393	19.23
673.718	19.14
674.043	18.72
674.368	18.15
674.693	18.39
675.018	18.79
675.343	18.55
675.667	19.08
675.992	19.45
676.317	18.29
676.641	18.89
676.966	19.63
677.29	18.37
677.615	19.13
677.939	19.18
678.264	19.14
678.588	19.66
678.912	19.9
679.236	19.19
679.56	19.81
679.885	19.54
680.209	20.42
680.532	19.36
680.856	19.53
681.18	19.52
681.504	19.27
681.828	20.11
682.152	19.18
682.475	20.07
682.799	20.41
683.122	20.36
683.446	19.91
683.769	20.65
684.093	19.33
684.416	20.17
684.739	19.88
685.062	19.87
