Data from 0023_crown_Reflection__4__50.txt Node

Date: Thu Oct 20 20:43:06 CDT 2022
User: ToomeyLab
Spectrometer: FLMS14357
Trigger mode: 0
Integration Time (sec): 1.000000E-2
Scans to average: 100
Electric dark correction enabled: true
Nonlinearity correction enabled: false
Boxcar width: 0
XAxis mode: Wavelengths
Number of Pixels in Spectrum: 2048
>>>>>Begin Spectral Data<<<<<
189.047	177.13
189.435	177.13
189.823	177.13
190.211	546.45
190.599	328.43
190.987	-291.22
191.375	2296.88
191.763	217.46
192.151	-97.63
192.538	-50.95
192.926	-195.54
193.314	61.01
193.702	13.11
194.089	-271.57
194.477	62.44
194.864	196.13
195.252	123.62
195.639	109.27
196.027	65.36
196.414	-103.51
196.801	-463.26
197.189	-149.25
197.576	38.19
197.963	501.25
198.351	25.62
198.738	37.65
199.125	34.81
199.512	-4.03
199.899	-10.17
200.286	10.22
200.673	41.12
201.06	44.46
201.447	52.3
201.833	86.28
202.22	-11.85
202.607	27.89
202.994	19.52
203.38	-13.55
203.767	26.97
204.154	29.86
204.54	41.06
204.927	53.58
205.313	15.35
205.699	31.53
206.086	42.15
206.472	28.8
206.858	16.47
207.245	39.6
207.631	0.97
208.017	33.59
208.403	21.64
208.789	15.82
209.175	51.08
209.561	9.58
209.947	-0.01
210.333	20.11
210.719	20.64
211.105	-24.98
211.491	-9.31
211.876	33.06
212.262	6.72
212.648	-18.28
213.034	24.47
213.419	24.99
213.805	31.76
214.19	21.84
214.576	28.8
214.961	31.6
215.346	6.27
215.732	14.34
216.117	29.2
216.502	36.61
216.888	46.94
217.273	29.77
217.658	18.43
218.043	-8.8
218.428	9.73
218.813	-2.1
219.198	5.17
219.583	22.49
219.968	3.55
220.353	-9.55
220.738	-7.97
221.122	16.45
221.507	5.47
221.892	16.85
222.276	9.85
222.661	5.22
223.046	5.08
223.43	7.68
223.815	-5.88
224.199	2.95
224.583	2.07
224.968	5.21
225.352	6.37
225.736	4.48
226.121	15.96
226.505	2.45
226.889	6
227.273	4.99
227.657	5.25
228.041	4.79
228.425	4.13
228.809	2.94
229.193	3.37
229.577	3.35
229.961	2.06
230.344	3.34
230.728	3.79
231.112	3.13
231.495	3.57
231.879	3.89
232.263	4.76
232.646	4.01
233.03	2.44
233.413	3.64
233.797	3.23
234.18	-0.46
234.563	3.53
234.946	2.33
235.33	3.33
235.713	5.21
236.096	4.41
236.479	1.88
236.862	4.76
237.245	4.1
237.628	3.05
238.011	1.85
238.394	3.73
238.777	1.98
239.16	3.71
239.543	3.33
239.925	3.08
240.308	2.51
240.691	4.13
241.073	3.72
241.456	3.37
241.838	2.34
242.221	4.16
242.603	3.53
242.986	3.47
243.368	3.25
243.75	3.46
244.133	2.97
244.515	3.2
244.897	3.42
245.279	3.54
245.661	3.23
246.043	3.94
246.425	3.34
246.807	3.89
247.189	3.29
247.571	3.15
247.953	3.5
248.335	3.45
248.717	3.45
249.098	3.23
249.48	3.09
249.862	3.53
250.243	3.31
250.625	3.54
251.006	4.15
251.388	3.43
251.769	3.91
252.151	3.78
252.532	3.16
252.913	3.39
253.295	3.55
253.676	3.65
254.057	3.47
254.438	3.7
254.819	4.25
255.2	1.91
255.581	3.82
255.962	3.29
256.343	5.01
256.724	4.06
257.105	3.6
257.486	3.46
257.867	3.83
258.247	3.85
258.628	3.14
259.009	2.88
259.389	2.64
259.77	3.85
260.15	3.35
260.531	3.55
260.911	2.97
261.292	2.99
261.672	3.16
262.052	2.99
262.432	3.22
262.813	2.99
263.193	2.98
263.573	2.59
263.953	3.56
264.333	4.25
264.713	3.14
265.093	3.39
265.473	3.59
265.853	3.02
266.233	2.67
266.612	2.87
266.992	3.67
267.372	3.19
267.752	3.27
268.131	2.7
268.511	3.05
268.89	3.37
269.27	3.28
269.649	3.24
270.029	3.25
270.408	2.79
270.787	3.07
271.167	3.86
271.546	2.91
271.925	3.08
272.304	3.35
272.683	2.9
273.062	3.42
273.441	3.1
273.82	2.81
274.199	3.23
274.578	3.39
274.957	3.23
275.336	3.39
275.715	3.05
276.093	3.18
276.472	2.84
276.851	3.31
277.229	2.55
277.608	2.46
277.986	2.9
278.365	3.03
278.743	2.69
279.122	3.56
279.5	2.53
279.878	2.99
280.257	3.05
280.635	3.65
281.013	3.9
281.391	3.31
281.769	2.77
282.147	3.18
282.525	2.56
282.903	3.37
283.281	2.98
283.659	3.11
284.037	3.01
284.415	3.02
284.792	2.94
285.17	2.86
285.548	2.51
285.925	3.02
286.303	3.28
286.68	3.08
287.058	3.45
287.435	2.85
287.813	2.71
288.19	3.17
288.567	2.84
288.945	3.05
289.322	2.72
289.699	3.37
290.076	3.28
290.453	3.13
290.83	3.57
291.207	2.98
291.584	2.87
291.961	3.13
292.338	3.19
292.715	3.02
293.092	3.43
293.469	3.69
293.845	3.53
294.222	3.38
294.599	3.49
294.975	3.43
295.352	3.52
295.728	3.88
296.105	3.58
296.481	3.5
296.858	3.39
297.234	3.63
297.61	3.41
297.986	3.59
298.363	3.94
298.739	4.04
299.115	3.76
299.491	3.94
299.867	3.81
300.243	3.95
300.619	3.96
300.995	3.79
301.371	3.89
301.746	4.05
302.122	3.32
302.498	4.19
302.874	4
303.249	3.57
303.625	4.08
304	4.17
304.376	3.84
304.751	4.28
305.127	3.45
305.502	3.99
305.878	4.14
306.253	4.03
306.628	4.02
307.003	4.05
307.378	4.46
307.754	3.88
308.129	3.9
308.504	4.21
308.879	4.75
309.254	4.44
309.629	4.41
310.003	4.11
310.378	4.03
310.753	4.05
311.128	3.99
311.502	4.37
311.877	4.36
312.252	4.53
312.626	4.38
313.001	4.38
313.375	4.52
313.75	4.16
314.124	4.11
314.498	4.54
314.873	4.08
315.247	4.68
315.621	4.52
315.995	4.65
316.369	4.44
316.743	4.76
317.117	4.43
317.491	4.03
317.865	4.56
318.239	4.31
318.613	5.03
318.987	4.52
319.361	4.78
319.734	5.28
320.108	4.8
320.482	4.46
320.855	4.88
321.229	4.98
321.602	4.64
321.976	4.93
322.349	4.71
322.723	4.61
323.096	4.64
323.469	4.84
323.843	5.2
324.216	5.21
324.589	5.42
324.962	5.66
325.335	4.56
325.708	5.12
326.081	5.08
326.454	4.9
326.827	5.18
327.2	5.23
327.573	4.93
327.945	4.93
328.318	4.99
328.691	5.04
329.063	4.86
329.436	4.54
329.809	4.98
330.181	5.15
330.553	4.62
330.926	4.61
331.298	4.85
331.671	5.14
332.043	5.16
332.415	5.49
332.787	5.64
333.159	5.14
333.532	5.4
333.904	4.97
334.276	5.32
334.648	5.14
335.02	5.05
335.391	5.51
335.763	5.04
336.135	5.42
336.507	5.33
336.879	5.35
337.25	4.97
337.622	4.96
337.993	5.48
338.365	5.18
338.736	5.21
339.108	5.41
339.479	5.35
339.851	5.47
340.222	5.04
340.593	5.45
340.964	5.52
341.336	5.21
341.707	5.5
342.078	5.28
342.449	5.47
342.82	5.21
343.191	5.2
343.562	5.1
343.933	5.05
344.303	5.94
344.674	4.92
345.045	5.28
345.416	5.75
345.786	5.84
346.157	5.18
346.527	5.29
346.898	5.48
347.268	5.21
347.639	5.54
348.009	5.46
348.38	5.39
348.75	5.33
349.12	5
349.49	5.33
349.861	5.76
350.231	5.22
350.601	5.61
350.971	5.27
351.341	5.42
351.711	5.6
352.081	5.42
352.45	5.35
352.82	5.2
353.19	5.51
353.56	5.27
353.929	5.33
354.299	5
354.669	5.78
355.038	5.46
355.408	5.21
355.777	5.48
356.147	5.24
356.516	5.73
356.885	5.63
357.254	5.82
357.624	5.1
357.993	5.19
358.362	5.64
358.731	5.87
359.1	5.81
359.469	5.76
359.838	5.77
360.207	5.89
360.576	5.34
360.945	5.36
361.314	5.86
361.682	5.49
362.051	5.59
362.42	5.25
362.788	5.6
363.157	5.49
363.525	5.85
363.894	5.54
364.262	5.41
364.631	5.74
364.999	5.62
365.367	5.58
365.735	5.63
366.104	5.75
366.472	5.46
366.84	5.71
367.208	5.66
367.576	5.94
367.944	5.92
368.312	5.84
368.68	5.95
369.048	5.59
369.416	5.93
369.783	5.84
370.151	5.83
370.519	6.21
370.886	5.89
371.254	5.93
371.621	6.13
371.989	5.58
372.356	5.89
372.724	6.11
373.091	6.04
373.458	5.6
373.826	6
374.193	5.91
374.56	6
374.927	5.8
375.294	5.95
375.661	5.89
376.028	5.77
376.395	5.94
376.762	5.91
377.129	6.3
377.496	5.8
377.863	6.11
378.229	6.02
378.596	5.94
378.963	5.93
379.329	5.9
379.696	6.11
380.062	5.93
380.429	5.67
380.795	5.86
381.161	6.34
381.528	6.12
381.894	5.72
382.26	6.17
382.626	5.89
382.993	5.98
383.359	5.95
383.725	6.16
384.091	6.06
384.457	5.97
384.823	6.14
385.188	6.26
385.554	6.11
385.92	5.8
386.286	6.03
386.651	6.2
387.017	6.03
387.383	6.19
387.748	6.3
388.114	6.09
388.479	6.38
388.845	6.24
389.21	6.16
389.575	6.07
389.94	6.26
390.306	6.15
390.671	6.15
391.036	5.98
391.401	6.21
391.766	6.38
392.131	6.15
392.496	6.24
392.861	6.52
393.226	6.21
393.591	6.18
393.956	6.05
394.32	5.98
394.685	6.21
395.05	6.04
395.414	6.35
395.779	6.16
396.143	6.36
396.508	6.07
396.872	6.04
397.236	6.29
397.601	6.34
397.965	6.27
398.329	6.05
398.694	6.32
399.058	6.35
399.422	6.14
399.786	6.19
400.15	6.14
400.514	6.2
400.878	6.25
401.242	6.51
401.605	6.2
401.969	6.12
402.333	6.27
402.697	6.47
403.06	6.31
403.424	6.38
403.787	6.16
404.151	6.42
404.514	6.24
404.878	6.51
405.241	6.39
405.604	6.62
405.968	6.45
406.331	6.26
406.694	6.42
407.057	6.2
407.42	6.42
407.783	6.37
408.146	6.48
408.509	6.4
408.872	6.34
409.235	6.34
409.598	6.61
409.961	6.34
410.323	6.3
410.686	6.47
411.049	6.41
411.411	6.64
411.774	6.7
412.136	6.55
412.499	6.62
412.861	6.42
413.223	6.51
413.586	6.63
413.948	6.34
414.31	6.37
414.672	6.44
415.035	6.7
415.397	6.6
415.759	6.56
416.121	6.4
416.483	6.41
416.845	6.59
417.206	6.52
417.568	6.49
417.93	6.44
418.292	6.54
418.653	6.63
419.015	6.56
419.377	6.52
419.738	6.66
420.1	6.53
420.461	6.6
420.822	6.59
421.184	6.48
421.545	6.38
421.906	6.51
422.267	6.5
422.629	6.58
422.99	6.49
423.351	6.51
423.712	6.49
424.073	6.48
424.434	6.52
424.795	6.52
425.155	6.62
425.516	6.56
425.877	6.5
426.238	6.53
426.598	6.4
426.959	6.53
427.32	6.54
427.68	6.58
428.041	6.67
428.401	6.81
428.761	6.71
429.122	6.58
429.482	6.69
429.842	6.84
430.202	6.78
430.563	6.93
430.923	6.78
431.283	6.9
431.643	6.8
432.003	7
432.363	6.79
432.722	7
433.082	7.03
433.442	7.06
433.802	7.01
434.161	7.07
434.521	7.01
434.881	6.97
435.24	6.87
435.6	6.91
435.959	6.73
436.319	6.84
436.678	6.92
437.037	7.06
437.396	6.88
437.756	6.85
438.115	7
438.474	6.93
438.833	7.05
439.192	6.78
439.551	6.93
439.91	7.08
440.269	7.08
440.628	7.06
440.987	7.11
441.345	7.02
441.704	7.06
442.063	6.96
442.421	7
442.78	7.09
443.138	7.03
443.497	6.94
443.855	7.19
444.214	7.05
444.572	7.07
444.93	7.11
445.288	7.2
445.647	7.16
446.005	7.18
446.363	7.2
446.721	7.07
447.079	7.05
447.437	7.17
447.795	7.11
448.153	7.02
448.51	7.02
448.868	7.07
449.226	7.05
449.584	7.05
449.941	7.05
450.299	7.11
450.656	7.18
451.014	7.09
451.371	7.23
451.729	7.19
452.086	7.38
452.443	7.15
452.801	7.48
453.158	7.38
453.515	7.39
453.872	7.27
454.229	7.48
454.586	7.35
454.943	7.27
455.3	7.36
455.657	7.25
456.014	7.44
456.371	7.33
456.727	7.39
457.084	7.29
457.441	7.31
457.797	7.59
458.154	7.4
458.51	7.3
458.867	7.41
459.223	7.54
459.58	7.43
459.936	7.42
460.292	7.5
460.648	7.64
461.005	7.5
461.361	7.29
461.717	7.29
462.073	7.17
462.429	7.39
462.785	7.25
463.141	7.34
463.496	7.38
463.852	7.67
464.208	7.59
464.564	7.47
464.919	7.59
465.275	7.42
465.631	7.63
465.986	7.69
466.342	7.62
466.697	7.52
467.052	7.81
467.408	7.53
467.763	7.68
468.118	7.63
468.473	7.54
468.829	7.64
469.184	7.53
469.539	7.52
469.894	7.64
470.249	7.56
470.603	7.59
470.958	7.61
471.313	7.68
471.668	7.64
472.023	7.8
472.377	7.64
472.732	7.6
473.086	7.85
473.441	7.63
473.795	7.81
474.15	7.76
474.504	7.75
474.859	7.89
475.213	7.77
475.567	7.6
475.921	7.71
476.275	7.71
476.63	7.91
476.984	7.81
477.338	7.81
477.692	8.01
478.045	7.98
478.399	7.89
478.753	7.87
479.107	7.81
479.461	8.03
479.814	7.73
480.168	7.91
480.521	7.84
480.875	7.87
481.228	7.87
481.582	7.83
481.935	7.77
482.289	7.86
482.642	8.02
482.995	7.88
483.348	7.86
483.701	7.89
484.055	7.9
484.408	7.91
484.761	7.92
485.114	7.88
485.466	7.74
485.819	7.48
486.172	7.36
486.525	7.36
486.878	7.4
487.23	7.49
487.583	7.72
487.936	7.89
488.288	7.95
488.641	7.95
488.993	7.84
489.345	7.76
489.698	7.73
490.05	7.65
490.402	7.6
490.754	7.68
491.107	7.72
491.459	7.81
491.811	7.95
492.163	8.06
492.515	8.15
492.866	8.15
493.218	8.01
493.57	7.86
493.922	7.73
494.274	7.8
494.625	7.9
494.977	7.84
495.328	7.98
495.68	8.08
496.031	8.22
496.383	8.29
496.734	8.2
497.086	8.3
497.437	8.33
497.788	8.28
498.139	8.26
498.49	8.17
498.842	8.15
499.193	8.19
499.544	8.3
499.894	8.18
500.245	8.14
500.596	8.27
500.947	8.31
501.298	8.37
501.648	8.29
501.999	8.24
502.35	8.49
502.7	8.43
503.051	8.52
503.401	8.51
503.752	8.53
504.102	8.31
504.452	8.54
504.803	8.64
505.153	8.56
505.503	8.56
505.853	8.5
506.203	8.46
506.553	8.47
506.903	8.56
507.253	8.44
507.603	8.64
507.953	8.64
508.303	8.77
508.652	8.68
509.002	8.76
509.352	8.77
509.701	8.54
510.051	8.63
510.4	8.65
510.75	8.59
511.099	8.55
511.449	8.62
511.798	8.81
512.147	8.5
512.496	8.69
512.846	8.69
513.195	8.74
513.544	8.92
513.893	8.71
514.242	8.76
514.591	8.65
514.939	8.8
515.288	8.77
515.637	8.78
515.986	8.78
516.334	8.75
516.683	8.85
517.032	8.9
517.38	8.8
517.729	9.04
518.077	8.99
518.426	8.98
518.774	8.98
519.122	8.97
519.47	8.94
519.819	8.94
520.167	8.94
520.515	8.88
520.863	8.78
521.211	8.74
521.559	8.88
521.907	8.72
522.255	8.81
522.602	8.97
522.95	8.92
523.298	8.88
523.645	9.01
523.993	9.17
524.341	9.12
524.688	9.06
525.036	9.09
525.383	9.14
525.73	9.15
526.078	9.21
526.425	9.33
526.772	9.22
527.119	9.21
527.466	9.12
527.814	9.02
528.161	9.1
528.508	9
528.854	9.28
529.201	9.25
529.548	9.3
529.895	9.27
530.242	9.11
530.588	8.91
530.935	8.78
531.282	8.78
531.628	8.71
531.975	8.86
532.321	9
532.667	8.98
533.014	9.23
533.36	9.32
533.706	9.46
534.052	9.42
534.399	9.42
534.745	9.46
535.091	9.24
535.437	9.16
535.783	9.11
536.129	9.12
536.474	9.15
536.82	9.23
537.166	9.44
537.512	9.51
537.857	9.73
538.203	9.6
538.549	9.53
538.894	9.37
539.239	9.44
539.585	9.29
539.93	9.44
540.276	9.6
540.621	9.6
540.966	9.77
541.311	9.74
541.656	10.01
542.001	9.92
542.346	9.97
542.691	9.84
543.036	9.65
543.381	9.52
543.726	9.42
544.071	9.38
544.415	9.43
544.76	9.57
545.105	9.68
545.449	9.68
545.794	9.67
546.138	9.76
546.483	9.88
546.827	9.96
547.171	9.92
547.516	10.04
547.86	9.97
548.204	9.93
548.548	10.08
548.892	9.9
549.236	9.9
549.58	9.73
549.924	9.81
550.268	9.99
550.612	10.11
550.956	10.08
551.3	10.3
551.643	10.13
551.987	10.23
552.33	10.35
552.674	10.62
553.017	10.32
553.361	10.51
553.704	10.42
554.048	10.44
554.391	10.47
554.734	10.32
555.077	10.39
555.42	10.27
555.764	10.42
556.107	10.48
556.45	10.49
556.793	10.53
557.135	10.44
557.478	10.54
557.821	10.5
558.164	10.55
558.507	10.83
558.849	10.62
559.192	10.81
559.534	10.83
559.877	10.82
560.219	10.69
560.562	10.76
560.904	10.95
561.246	10.54
561.589	10.9
561.931	10.84
562.273	10.77
562.615	11
562.957	11
563.299	11.03
563.641	10.73
563.983	10.87
564.325	11.06
564.667	11.03
565.008	11.02
565.35	10.89
565.692	11.04
566.033	11.15
566.375	10.98
566.716	11.25
567.058	11
567.399	11.26
567.741	11.32
568.082	11.15
568.423	11.15
568.764	10.87
569.105	11.05
569.447	11.29
569.788	11.09
570.129	11.31
570.47	11.29
570.811	11.14
571.151	11.32
571.492	11.45
571.833	11.44
572.174	11.52
572.514	11.44
572.855	11.61
573.195	11.5
573.536	11.36
573.876	11.55
574.217	11.43
574.557	11.39
574.898	11.53
575.238	11.61
575.578	11.72
575.918	11.66
576.258	11.55
576.598	11.37
576.938	11.75
577.278	11.84
577.618	11.62
577.958	11.78
578.298	11.85
578.638	11.89
578.977	11.75
579.317	11.41
579.657	11.86
579.996	11.89
580.336	11.61
580.675	11.84
581.014	12.03
581.354	11.98
581.693	12
582.032	12
582.372	11.94
582.711	12.22
583.05	12.16
583.389	12.21
583.728	12.02
584.067	12.08
584.406	12.5
584.745	12.37
585.083	12.38
585.422	12.21
585.761	12.56
586.1	12.36
586.438	12.29
586.777	12.44
587.115	12.37
587.454	12.74
587.792	12.35
588.13	12.43
588.469	12.46
588.807	12.37
589.145	12.51
589.483	12.52
589.821	12.21
590.159	12.45
590.497	12.68
590.835	12.85
591.173	12.63
591.511	12.77
591.849	12.76
592.187	12.58
592.524	12.73
592.862	12.86
593.2	12.87
593.537	12.97
593.875	12.6
594.212	12.99
594.55	12.68
594.887	13.16
595.224	12.97
595.561	13.25
595.899	13.03
596.236	13.07
596.573	13.1
596.91	13.05
597.247	13.04
597.584	13.13
597.921	13.22
598.258	13.41
598.594	13.21
598.931	13.32
599.268	13.14
599.604	12.92
599.941	13.24
600.277	13.02
600.614	12.89
600.95	13.26
601.287	13.22
601.623	13.36
601.959	13.38
602.296	13.55
602.632	13.22
602.968	13.66
603.304	13.35
603.64	13.54
603.976	13.6
604.312	13.86
604.648	13.66
604.984	13.62
605.319	13.59
605.655	13.82
605.991	13.59
606.326	13.75
606.662	13.5
606.998	13.59
607.333	13.48
607.668	13.62
608.004	13.57
608.339	13.7
608.674	13.78
609.01	13.89
609.345	13.67
609.68	13.96
610.015	13.99
610.35	14.24
610.685	14.16
611.02	14.16
611.355	13.91
611.689	13.98
612.024	14.03
612.359	13.72
612.694	13.88
613.028	14.1
613.363	14.05
613.697	14.38
614.032	14.36
614.366	14.18
614.7	14.37
615.035	14.21
615.369	14.26
615.703	14.07
616.037	14.33
616.371	14.33
616.705	14.45
617.039	14.49
617.373	14.62
617.707	14.34
618.041	14.48
618.375	14.61
618.709	14.69
619.042	14.64
619.376	14.46
619.71	14.6
620.043	14.41
620.377	14.84
620.71	14.52
621.043	14.97
621.377	14.76
621.71	14.75
622.043	14.62
622.376	14.83
622.709	14.71
623.043	15.24
623.376	14.84
623.709	14.93
624.041	14.74
624.374	15
624.707	14.91
625.04	14.97
625.373	15.62
625.705	15.14
626.038	15.14
626.37	15.12
626.703	15.13
627.035	15.2
627.368	15.32
627.7	15.15
628.032	15.17
628.365	15.44
628.697	14.9
629.029	15.17
629.361	15.3
629.693	15.23
630.025	15.12
630.357	15.26
630.689	15.62
631.021	15.19
631.353	15.53
631.684	15.09
632.016	15.54
632.348	15.52
632.679	15.92
633.011	15.42
633.342	15.4
633.674	15.21
634.005	15.42
634.336	15.91
634.668	16.02
634.999	15.84
635.33	15.83
635.661	16.01
635.992	16.01
636.323	16.08
636.654	15.75
636.985	15.67
637.316	15.89
637.647	15.52
637.977	15.82
638.308	15.98
638.639	15.64
638.969	15.47
639.3	16.09
639.63	16.36
639.961	16.22
640.291	15.74
640.622	15.99
640.952	16.23
641.282	16.04
641.612	16.27
641.943	16.28
642.273	16.54
642.603	16.28
642.933	16.19
643.263	16.06
643.592	16.35
643.922	16.56
644.252	16.41
644.582	16.14
644.911	15.81
645.241	16.66
645.571	16.67
645.9	16.14
646.23	16.45
646.559	16.72
646.888	16.59
647.218	16.51
647.547	16.77
647.876	17.05
648.205	16.68
648.534	16.73
648.863	16.52
649.192	16.22
649.521	16.92
649.85	16.81
650.179	17.16
650.508	16.9
650.837	16.92
651.165	16.49
651.494	16.85
651.822	16.98
652.151	16.94
652.479	17.03
652.808	17.39
653.136	16.94
653.465	16.92
653.793	17.25
654.121	17.42
654.449	16.82
654.777	16.46
655.105	17.19
655.433	17.08
655.761	17.2
656.089	17.05
656.417	17.37
656.745	16.62
657.073	17.31
657.4	17.3
657.728	17.67
658.056	16.89
658.383	17.04
658.711	17.55
659.038	17.48
659.365	17.21
659.693	17.32
660.02	17.58
660.347	17.65
660.674	17.46
661.001	18.02
661.329	17.77
661.656	17.36
661.982	17.19
662.309	17.48
662.636	17.21
662.963	17.54
663.29	17.69
663.616	17.78
663.943	17.62
664.27	18
664.596	17.04
664.923	17.54
665.249	18.21
665.576	17.88
665.902	18.43
666.228	18.24
666.554	17.43
666.881	17.67
667.207	18.19
667.533	18.21
667.859	18.18
668.185	17.91
668.511	17.58
668.837	17.85
669.162	18.16
669.488	18
669.814	18.17
670.139	18.68
670.465	18.27
670.791	18.1
671.116	18.59
671.442	18.37
671.767	18.56
672.092	18.49
672.418	17.73
672.743	18.47
673.068	18.31
673.393	18.28
673.718	18.75
674.043	18.16
674.368	18.35
674.693	18.52
675.018	18.4
675.343	17.73
675.667	18.63
675.992	18.92
676.317	18.13
676.641	17.94
676.966	19.09
677.29	18.99
677.615	17.89
677.939	18.88
678.264	18.82
678.588	18.61
678.912	18.06
679.236	18.53
679.56	18.61
679.885	19.05
680.209	19.52
680.532	18.41
680.856	18.37
681.18	18.82
681.504	19
681.828	19.73
682.152	18.84
682.475	19.07
682.799	18.95
683.122	18.6
683.446	19.12
683.769	19.55
