Data from 0023_forehead_Reflection__1__57.txt Node

Date: Thu Oct 20 20:46:29 CDT 2022
User: ToomeyLab
Spectrometer: FLMS14357
Trigger mode: 0
Integration Time (sec): 1.000000E-2
Scans to average: 100
Electric dark correction enabled: true
Nonlinearity correction enabled: false
Boxcar width: 0
XAxis mode: Wavelengths
Number of Pixels in Spectrum: 2048
>>>>>Begin Spectral Data<<<<<
189.047	201.49
189.435	201.49
189.823	201.49
190.211	244.67
190.599	271.67
190.987	288.7
191.375	5457.81
191.763	107.81
192.151	32.18
192.538	-11.21
192.926	-395.05
193.314	-33.98
193.702	115.52
194.089	-266.69
194.477	7.28
194.864	155.31
195.252	53.87
195.639	-105.38
196.027	124.14
196.414	3.37
196.801	-49.43
197.189	-3.99
197.576	93.02
197.963	2426.87
198.351	54.79
198.738	36.34
199.125	49.9
199.512	30.89
199.899	4.75
200.286	-8.67
200.673	11.35
201.06	47.26
201.447	21.3
201.833	64.92
202.22	-4.32
202.607	43.87
202.994	32.99
203.38	-24.43
203.767	34.09
204.154	5.96
204.54	2.14
204.927	43.48
205.313	43.12
205.699	43.52
206.086	53.66
206.472	15.4
206.858	15.85
207.245	-3.38
207.631	11.44
208.017	27.67
208.403	26.27
208.789	24.06
209.175	52.59
209.561	16.73
209.947	36.9
210.333	29.55
210.719	-6.77
211.105	-39.15
211.491	-20.89
211.876	-14.66
212.262	53.56
212.648	-10.69
213.034	-8.31
213.419	26.91
213.805	5.01
214.19	6.19
214.576	9.18
214.961	-11.94
215.346	-10.52
215.732	0.5
216.117	20.06
216.502	24.66
216.888	28.57
217.273	37.67
217.658	13.58
218.043	-3.64
218.428	4.42
218.813	-10.52
219.198	20.62
219.583	6.53
219.968	5.3
220.353	0.85
220.738	9.52
221.122	-5.01
221.507	3.4
221.892	3.62
222.276	10.12
222.661	1.35
223.046	12.64
223.43	10.4
223.815	-16.47
224.199	0.68
224.583	-6.94
224.968	3.68
225.352	7.35
225.736	-0.24
226.121	5.2
226.505	5.56
226.889	1.12
227.273	1.2
227.657	2.1
228.041	2.85
228.425	1.08
228.809	1.74
229.193	0.77
229.577	1.68
229.961	0.55
230.344	1.56
230.728	1.98
231.112	1.44
231.495	1.01
231.879	0.86
232.263	2.07
232.646	2.45
233.03	0.3
233.413	1.37
233.797	-0.49
234.18	0.93
234.563	0.9
234.946	1.45
235.33	1.25
235.713	4.18
236.096	1.4
236.479	-0.32
236.862	3.75
237.245	2.45
237.628	1.68
238.011	0.52
238.394	1.31
238.777	0.26
239.16	3.02
239.543	0.07
239.925	1.49
240.308	3.05
240.691	1.27
241.073	0.63
241.456	1.98
241.838	0.91
242.221	2.18
242.603	2.17
242.986	1.38
243.368	1.44
243.75	1.53
244.133	1.32
244.515	1.12
244.897	1.55
245.279	0.91
245.661	1.4
246.043	0.2
246.425	1.35
246.807	1.34
247.189	0.89
247.571	0.7
247.953	1.17
248.335	1.07
248.717	1.29
249.098	1.3
249.48	1.32
249.862	1.59
250.243	1.66
250.625	1.85
251.006	2.19
251.388	0.83
251.769	1.17
252.151	1.75
252.532	1.16
252.913	1.55
253.295	1.08
253.676	1.07
254.057	1.41
254.438	1.31
254.819	2.44
255.2	1.1
255.581	1.63
255.962	0.19
256.343	2.71
256.724	2.34
257.105	1.79
257.486	0.79
257.867	1.29
258.247	1.58
258.628	1.21
259.009	0.55
259.389	0.86
259.77	1.62
260.15	1.24
260.531	1.34
260.911	1.11
261.292	1.24
261.672	1.26
262.052	1.29
262.432	1.14
262.813	1.45
263.193	1.2
263.573	0.89
263.953	1.15
264.333	0.67
264.713	1.3
265.093	1.16
265.473	2.15
265.853	1.51
266.233	1.1
266.612	1.59
266.992	1.88
267.372	1.25
267.752	1.93
268.131	1.08
268.511	1.05
268.89	1.39
269.27	1.47
269.649	1.48
270.029	1.58
270.408	1.22
270.787	1.17
271.167	1.79
271.546	1.27
271.925	1.65
272.304	1.28
272.683	1.09
273.062	1.15
273.441	1.42
273.82	1.03
274.199	1.46
274.578	1.4
274.957	1.78
275.336	1.54
275.715	1.1
276.093	1.12
276.472	1.21
276.851	1.78
277.229	0.51
277.608	1.11
277.986	1.19
278.365	0.77
278.743	1.27
279.122	1.88
279.5	0.79
279.878	1.21
280.257	1.1
280.635	1.87
281.013	1.96
281.391	1.75
281.769	1.52
282.147	1.52
282.525	1.45
282.903	1.32
283.281	1.38
283.659	1.25
284.037	1.35
284.415	1.39
284.792	1.13
285.17	1.08
285.548	1.14
285.925	1.55
286.303	1.48
286.68	1.22
287.058	1.14
287.435	1.06
287.813	1.03
288.19	1.29
288.567	0.95
288.945	1.74
289.322	0.74
289.699	1.66
290.076	1.42
290.453	0.83
290.83	1.03
291.207	1.37
291.584	1.22
291.961	1.46
292.338	1.45
292.715	1.12
293.092	1.77
293.469	1.3
293.845	1.69
294.222	0.91
294.599	1.49
294.975	1.5
295.352	1.43
295.728	1.79
296.105	1.14
296.481	1.23
296.858	1.98
297.234	1.5
297.61	1.21
297.986	1.46
298.363	1.37
298.739	1.76
299.115	1.55
299.491	1.89
299.867	1.28
300.243	1.18
300.619	1.68
300.995	1.73
301.371	1.39
301.746	1.68
302.122	1.49
302.498	1.84
302.874	1.51
303.249	1.52
303.625	1.66
304	1.99
304.376	1.73
304.751	1.77
305.127	1.04
305.502	1.69
305.878	1.87
306.253	1.92
306.628	1.46
307.003	1.8
307.378	1.89
307.754	1.71
308.129	1.57
308.504	1.65
308.879	1.83
309.254	1.78
309.629	2
310.003	1.95
310.378	2.31
310.753	2.04
311.128	1.7
311.502	1.79
311.877	1.61
312.252	1.92
312.626	1.5
313.001	1.56
313.375	2.03
313.75	1.63
314.124	1.37
314.498	1.76
314.873	2.17
315.247	2.11
315.621	1.41
315.995	1.66
316.369	1.88
316.743	2.44
317.117	2.21
317.491	1.81
317.865	2.46
318.239	2.09
318.613	2.43
318.987	2
319.361	2.44
319.734	2.31
320.108	2.26
320.482	1.78
320.855	2.29
321.229	2.27
321.602	2.76
321.976	2.64
322.349	2.46
322.723	2.16
323.096	1.81
323.469	1.91
323.843	2.74
324.216	2.15
324.589	2.36
324.962	2.63
325.335	1.42
325.708	1.83
326.081	2.11
326.454	2.1
326.827	2.48
327.2	2.58
327.573	2.4
327.945	2.29
328.318	2.11
328.691	2.32
329.063	2.11
329.436	2
329.809	2.44
330.181	2.41
330.553	1.77
330.926	1.74
331.298	1.66
331.671	2.53
332.043	2.64
332.415	2.59
332.787	2.64
333.159	1.87
333.532	2.71
333.904	1.91
334.276	2.02
334.648	2.4
335.02	2.38
335.391	1.76
335.763	1.94
336.135	2.45
336.507	2.58
336.879	2.4
337.25	2.18
337.622	2.13
337.993	2.56
338.365	2.05
338.736	2.44
339.108	2.21
339.479	2.47
339.851	2.34
340.222	2.13
340.593	1.99
340.964	2.61
341.336	2.16
341.707	2.6
342.078	2.8
342.449	2.28
342.82	2.31
343.191	2.32
343.562	2.18
343.933	2.43
344.303	2.96
344.674	1.91
345.045	2.18
345.416	2.07
345.786	2.54
346.157	2.21
346.527	1.86
346.898	2.61
347.268	2.47
347.639	2.51
348.009	2.26
348.38	2.62
348.75	2.36
349.12	2.09
349.49	2.29
349.861	3.05
350.231	2.49
350.601	2.61
350.971	2.32
351.341	2.28
351.711	2.35
352.081	2.89
352.45	2.57
352.82	2.63
353.19	2.73
353.56	2.42
353.929	2.47
354.299	2.29
354.669	2.63
355.038	2.42
355.408	2.52
355.777	2.35
356.147	2.39
356.516	2.64
356.885	2.74
357.254	2.91
357.624	2.35
357.993	2.4
358.362	2.83
358.731	2.4
359.1	2.49
359.469	2.8
359.838	2.76
360.207	2.62
360.576	2.26
360.945	2.33
361.314	3.2
361.682	2.42
362.051	2.61
362.42	2.27
362.788	2.33
363.157	2.41
363.525	2.5
363.894	2.59
364.262	2.26
364.631	2.72
364.999	2.49
365.367	2.32
365.735	2.33
366.104	2.81
366.472	2.46
366.84	2.43
367.208	2.83
367.576	2.71
367.944	3.1
368.312	3.23
368.68	3.05
369.048	2.59
369.416	3.02
369.783	2.84
370.151	2.57
370.519	3.03
370.886	2.51
371.254	2.63
371.621	2.82
371.989	2.53
372.356	2.64
372.724	2.93
373.091	2.94
373.458	2.96
373.826	2.69
374.193	2.77
374.56	3.07
374.927	2.8
375.294	2.95
375.661	2.62
376.028	2.94
376.395	2.98
376.762	2.6
377.129	2.87
377.496	2.86
377.863	2.6
378.229	2.63
378.596	2.53
378.963	2.83
379.329	2.6
379.696	3.07
380.062	3.24
380.429	3.03
380.795	2.78
381.161	2.79
381.528	2.94
381.894	2.71
382.26	2.78
382.626	2.85
382.993	3.06
383.359	2.91
383.725	2.74
384.091	2.76
384.457	2.94
384.823	2.88
385.188	2.9
385.554	3.2
385.92	2.79
386.286	2.88
386.651	2.92
387.017	2.75
387.383	2.8
387.748	2.78
388.114	2.82
388.479	3.08
388.845	3.03
389.21	2.91
389.575	2.64
389.94	3.11
390.306	3
390.671	2.74
391.036	3.14
391.401	2.85
391.766	3.1
392.131	2.8
392.496	2.82
392.861	3.11
393.226	3.05
393.591	2.77
393.956	2.9
394.32	2.92
394.685	3.1
395.05	2.9
395.414	2.93
395.779	2.93
396.143	3.06
396.508	2.79
396.872	2.8
397.236	3.14
397.601	3.12
397.965	3.19
398.329	2.91
398.694	3.24
399.058	3.17
399.422	3.07
399.786	3
400.15	2.87
400.514	2.85
400.878	3.02
401.242	3.2
401.605	3.13
401.969	3.1
402.333	3.08
402.697	3.38
403.06	3.08
403.424	3.12
403.787	2.92
404.151	3.16
404.514	2.84
404.878	2.87
405.241	3.06
405.604	3.3
405.968	3.07
406.331	3.17
406.694	3.1
407.057	2.98
407.42	3
407.783	2.97
408.146	3.06
408.509	3.31
408.872	3.21
409.235	3.02
409.598	3.16
409.961	3.07
410.323	3.14
410.686	3.1
411.049	3.08
411.411	3.13
411.774	3.4
412.136	3.3
412.499	3.3
412.861	3.1
413.223	3.32
413.586	3.37
413.948	3.33
414.31	3.27
414.672	3.19
415.035	3.37
415.397	3.45
415.759	3.09
416.121	3.02
416.483	3.43
416.845	3.28
417.206	3.2
417.568	3.25
417.93	2.98
418.292	3.18
418.653	3.16
419.015	3.16
419.377	3.23
419.738	3.25
420.1	3.24
420.461	3.2
420.822	3.29
421.184	3.27
421.545	3.1
421.906	3.18
422.267	3.12
422.629	3.22
422.99	3.19
423.351	3.24
423.712	3.18
424.073	3.2
424.434	3.28
424.795	3.27
425.155	3.23
425.516	3.23
425.877	3.2
426.238	3.33
426.598	3.22
426.959	3.44
427.32	3.46
427.68	3.35
428.041	3.55
428.401	3.59
428.761	3.63
429.122	3.45
429.482	3.43
429.842	3.47
430.202	3.45
430.563	3.53
430.923	3.4
431.283	3.54
431.643	3.45
432.003	3.61
432.363	3.61
432.722	3.59
433.082	3.44
433.442	3.57
433.802	3.63
434.161	3.69
434.521	3.59
434.881	3.54
435.24	3.49
435.6	3.56
435.959	3.62
436.319	3.6
436.678	3.75
437.037	3.76
437.396	3.57
437.756	3.53
438.115	3.62
438.474	3.63
438.833	3.58
439.192	3.62
439.551	3.69
439.91	3.71
440.269	3.66
440.628	3.68
440.987	3.7
441.345	3.57
441.704	3.65
442.063	3.58
442.421	3.63
442.78	3.81
443.138	3.85
443.497	3.68
443.855	3.75
444.214	3.84
444.572	3.86
444.93	3.74
445.288	3.85
445.647	3.76
446.005	3.75
446.363	3.7
446.721	3.79
447.079	3.65
447.437	3.76
447.795	3.67
448.153	3.81
448.51	3.71
448.868	3.77
449.226	3.87
449.584	3.92
449.941	3.88
450.299	3.94
450.656	3.97
451.014	3.97
451.371	4
451.729	3.98
452.086	3.85
452.443	4.13
452.801	3.92
453.158	3.87
453.515	3.85
453.872	3.83
454.229	4.04
454.586	4.01
454.943	4.09
455.3	4.08
455.657	4
456.014	4.16
456.371	4.08
456.727	4.2
457.084	4.12
457.441	4.07
457.797	4.22
458.154	4.19
458.51	4.09
458.867	4
459.223	4.08
459.58	4.02
459.936	4.05
460.292	3.96
460.648	4.03
461.005	3.94
461.361	3.86
461.717	4.05
462.073	4.04
462.429	4.27
462.785	4.15
463.141	4.3
463.496	4.2
463.852	4.34
464.208	4.37
464.564	4.32
464.919	4.46
465.275	4.21
465.631	4.33
465.986	4.23
466.342	4.28
466.697	4.2
467.052	4.49
467.408	4.38
467.763	4.29
468.118	4.37
468.473	4.22
468.829	4.37
469.184	4.31
469.539	4.35
469.894	4.43
470.249	4.24
470.603	4.39
470.958	4.45
471.313	4.42
471.668	4.36
472.023	4.44
472.377	4.5
472.732	4.44
473.086	4.36
473.441	4.52
473.795	4.53
474.15	4.57
474.504	4.55
474.859	4.6
475.213	4.6
475.567	4.5
475.921	4.45
476.275	4.49
476.63	4.5
476.984	4.5
477.338	4.64
477.692	4.65
478.045	4.46
478.399	4.59
478.753	4.61
479.107	4.45
479.461	4.59
479.814	4.49
480.168	4.56
480.521	4.55
480.875	4.57
481.228	4.62
481.582	4.61
481.935	4.61
482.289	4.64
482.642	4.55
482.995	4.48
483.348	4.49
483.701	4.54
484.055	4.49
484.408	4.31
484.761	4.21
485.114	4.08
485.466	4.11
485.819	4.33
486.172	4.49
486.525	4.62
486.878	4.66
487.23	4.69
487.583	4.61
487.936	4.53
488.288	4.41
488.641	4.38
488.993	4.38
489.345	4.42
489.698	4.44
490.05	4.6
490.402	4.69
490.754	4.76
491.107	4.71
491.459	4.8
491.811	4.76
492.163	4.68
492.515	4.61
492.866	4.46
493.218	4.43
493.57	4.61
493.922	4.78
494.274	4.89
494.625	4.93
494.977	4.89
495.328	5.02
495.68	4.84
496.031	4.95
496.383	4.96
496.734	4.92
497.086	4.97
497.437	4.93
497.788	5.01
498.139	4.86
498.49	4.88
498.842	4.97
499.193	5
499.544	4.99
499.894	5.01
500.245	4.94
500.596	5.08
500.947	5.15
501.298	5.13
501.648	5.23
501.999	5.14
502.35	5.33
502.7	5.43
503.051	5.28
503.401	5.31
503.752	5.14
504.102	5.22
504.452	5.21
504.803	5.27
505.153	5.15
505.503	5.22
505.853	4.97
506.203	5.2
506.553	5.14
506.903	5.35
507.253	5.2
507.603	5.3
507.953	5.29
508.303	5.42
508.652	5.27
509.002	5.23
509.352	5.31
509.701	5.22
510.051	5.21
510.4	5.22
510.75	5.25
511.099	5.29
511.449	5.36
511.798	5.38
512.147	5.22
512.496	5.29
512.846	5.33
513.195	5.27
513.544	5.38
513.893	5.3
514.242	5.4
514.591	5.51
514.939	5.39
515.288	5.58
515.637	5.4
515.986	5.39
516.334	5.52
516.683	5.5
517.032	5.45
517.38	5.45
517.729	5.51
518.077	5.5
518.426	5.54
518.774	5.51
519.122	5.39
519.47	5.41
519.819	5.25
520.167	5.39
520.515	5.49
520.863	5.54
521.211	5.53
521.559	5.68
521.907	5.55
522.255	5.53
522.602	5.62
522.95	5.63
523.298	5.65
523.645	5.71
523.993	5.74
524.341	5.7
524.688	5.67
525.036	5.83
525.383	5.71
525.73	5.68
526.078	5.6
526.425	5.63
526.772	5.51
527.119	5.54
527.466	5.56
527.814	5.62
528.161	5.67
528.508	5.66
528.854	5.66
529.201	5.53
529.548	5.34
529.895	5.23
530.242	5.32
530.588	5.49
530.935	5.58
531.282	5.71
531.628	5.74
531.975	5.81
532.321	5.84
532.667	5.8
533.014	5.83
533.36	5.76
533.706	5.77
534.052	5.7
534.399	5.59
534.745	5.52
535.091	5.66
535.437	5.76
535.783	5.89
536.129	6.02
536.474	5.99
536.82	6
537.166	6.06
537.512	5.96
537.857	5.94
538.203	5.84
538.549	5.82
538.894	6.01
539.239	6.15
539.585	6.03
539.93	6.1
540.276	6.21
540.621	6.13
540.966	6.14
541.311	6.07
541.656	6
542.001	5.84
542.346	5.83
542.691	5.64
543.036	5.74
543.381	5.96
543.726	6.01
544.071	6.17
544.415	6.06
544.76	6.07
545.105	6.19
545.449	6.16
545.794	6.38
546.138	6.33
546.483	6.23
546.827	6.25
547.171	6.19
547.516	6.34
547.86	6.22
548.204	6.26
548.548	6.16
548.892	6.31
549.236	6.36
549.58	6.37
549.924	6.51
550.268	6.5
550.612	6.55
550.956	6.49
551.3	6.69
551.643	6.48
551.987	6.54
552.33	6.73
552.674	6.74
553.017	6.45
553.361	6.71
553.704	6.61
554.048	6.53
554.391	6.59
554.734	6.48
555.077	6.65
555.42	6.73
555.764	6.72
556.107	6.67
556.45	6.83
556.793	6.82
557.135	6.78
557.478	6.81
557.821	6.72
558.164	6.55
558.507	6.88
558.849	6.91
559.192	7.08
559.534	6.99
559.877	6.84
560.219	6.83
560.562	6.89
560.904	7.18
561.246	6.64
561.589	6.84
561.931	7.01
562.273	6.78
562.615	6.88
562.957	7
563.299	6.92
563.641	7.03
563.983	7.13
564.325	7.02
564.667	7.12
565.008	7.03
565.35	6.91
565.692	7.01
566.033	7.1
566.375	6.88
566.716	6.95
567.058	6.85
567.399	6.97
567.741	7.04
568.082	6.82
568.423	7.03
568.764	7.02
569.105	7.15
569.447	7.3
569.788	7.15
570.129	7.25
570.47	7.19
570.811	7.21
571.151	7.08
571.492	7.28
571.833	7.29
572.174	7.18
572.514	7.18
572.855	7.13
573.195	7.08
573.536	7.04
573.876	7.21
574.217	7.06
574.557	7.3
574.898	7.45
575.238	7.36
575.578	7.47
575.918	7.34
576.258	7.31
576.598	7.1
576.938	7.44
577.278	7.35
577.618	7.33
577.958	7.62
578.298	7.49
578.638	7.43
578.977	7.45
579.317	7.29
579.657	7.5
579.996	7.72
580.336	7.37
580.675	7.36
581.014	8.1
581.354	7.59
581.693	7.68
582.032	7.79
582.372	7.63
582.711	7.52
583.05	7.92
583.389	7.84
583.728	7.71
584.067	7.69
584.406	7.54
584.745	7.58
585.083	7.91
585.422	7.72
585.761	7.94
586.1	7.56
586.438	7.7
586.777	7.97
587.115	8.08
587.454	8.01
587.792	7.92
588.13	7.73
588.469	7.9
588.807	7.89
589.145	7.79
589.483	7.66
589.821	7.71
590.159	7.66
590.497	7.85
590.835	7.84
591.173	8.05
591.511	7.96
591.849	8.17
592.187	7.87
592.524	8
592.862	8.16
593.2	7.93
593.537	8.05
593.875	8.09
594.212	8.16
594.55	7.95
594.887	8.38
595.224	7.8
595.561	8.11
595.899	7.95
596.236	8.33
596.573	8.03
596.91	8
597.247	8.08
597.584	8.13
597.921	7.93
598.258	7.87
598.594	7.94
598.931	8
599.268	8.04
599.604	8.28
599.941	8.4
600.277	8.42
600.614	8.35
600.95	8.48
601.287	8.23
601.623	8.31
601.959	8.35
602.296	8.26
602.632	8.29
602.968	8.39
603.304	8.26
603.64	8.44
603.976	8.2
604.312	8.11
604.648	8.02
604.984	8.05
605.319	8.27
605.655	8.11
605.991	8.15
606.326	8.16
606.662	8.29
606.998	8.44
607.333	8.32
607.668	8.66
608.004	8.76
608.339	8.62
608.674	8.58
609.01	8.52
609.345	8.5
609.68	8.88
610.015	8.38
610.35	8.45
610.685	8.32
611.02	8.53
611.355	8.43
611.689	8.61
612.024	8.49
612.359	8.68
612.694	8.59
613.028	8.69
613.363	8.66
613.697	8.82
614.032	8.87
614.366	8.99
614.7	8.71
615.035	9.25
615.369	8.71
615.703	8.78
616.037	8.94
616.371	8.9
616.705	9
617.039	9.05
617.373	9.24
617.707	8.66
618.041	8.93
618.375	8.68
618.709	9.1
619.042	9.05
619.376	8.8
619.71	8.82
620.043	9
620.377	9.06
620.71	9.04
621.043	9.17
621.377	9.14
621.71	9.19
622.043	9.26
622.376	9.2
622.709	9.13
623.043	9.81
623.376	9.25
623.709	9.1
624.041	9.15
624.374	9.38
624.707	9.1
625.04	9.08
625.373	9.36
625.705	9.23
626.038	9.14
626.37	9.18
626.703	9.14
627.035	9.38
627.368	9.39
627.7	9.33
628.032	9.41
628.365	9.38
628.697	9.01
629.029	9.14
629.361	9.42
629.693	9.27
630.025	9.4
630.357	9.33
630.689	9.58
631.021	9.38
631.353	9.37
631.684	9.64
632.016	9.58
632.348	9.66
632.679	9.87
633.011	9.43
633.342	9.77
633.674	9.2
634.005	9.47
634.336	9.71
634.668	9.64
634.999	9.49
635.33	9.51
635.661	9.51
635.992	9.5
636.323	10
636.654	9.71
636.985	9.63
637.316	9.57
637.647	9.6
637.977	10.05
638.308	9.78
638.639	9.28
638.969	9.43
639.3	9.95
639.63	9.87
639.961	9.91
640.291	9.79
640.622	9.61
640.952	10.16
641.282	10.01
641.612	10.22
641.943	10.06
642.273	10.59
642.603	9.93
642.933	9.88
643.263	9.5
643.592	9.81
643.922	9.91
644.252	9.91
644.582	9.84
644.911	9.41
645.241	10.38
645.571	10.47
645.9	10.05
646.23	10.17
646.559	10.28
646.888	9.96
647.218	10.26
647.547	10.55
647.876	10.64
648.205	10.8
648.534	10.36
648.863	10.28
649.192	10.1
649.521	10.71
649.85	10.6
650.179	10.37
650.508	10.38
650.837	9.9
651.165	10.29
651.494	10.34
651.822	10.23
652.151	9.97
652.479	10.33
652.808	10.49
653.136	10.46
653.465	10.33
653.793	10.54
654.121	10.73
654.449	10.66
654.777	10.27
655.105	10.81
655.433	10.65
655.761	10.58
656.089	10.57
656.417	10.36
656.745	10.23
657.073	10.59
657.4	10.67
657.728	11.05
658.056	10.67
658.383	10.55
658.711	11.18
659.038	10.32
659.365	10.84
659.693	10.35
660.02	10.29
660.347	10.57
660.674	10.47
661.001	10.69
661.329	10.64
661.656	10.41
661.982	10.25
662.309	10.74
662.636	10.53
662.963	10.75
663.29	10.68
663.616	11.15
663.943	10.58
664.27	10.81
664.596	10.78
664.923	11
665.249	11.62
665.576	11.23
665.902	10.81
666.228	11.48
666.554	10.33
666.881	10.61
667.207	11.18
667.533	11.16
667.859	11.22
668.185	11.5
668.511	10.6
668.837	11.52
669.162	11.04
669.488	10.68
669.814	10.68
670.139	10.57
670.465	11.27
670.791	10.65
671.116	11.54
671.442	11.26
671.767	11.09
672.092	10.88
672.418	10.91
672.743	10.86
673.068	11.18
673.393	11.39
673.718	11.17
674.043	11.37
674.368	11.5
674.693	10.69
675.018	10.79
675.343	11.23
675.667	11.64
675.992	11.34
676.317	11.4
676.641	10.35
676.966	11.81
677.29	11.39
677.615	10.52
677.939	11.61
678.264	11.4
678.588	11.36
678.912	11
679.236	11.95
679.56	10.92
679.885	11.28
680.209	11.63
680.532	10.79
680.856	11.39
681.18	11.12
681.504	10.96
681.828	11.66
682.152	11.1
682.475	11.23
682.799	11.2
683.122	11.38
683.446	11.79
683.769	11.78
684.093	11.84
684.416	12.22
684.739	11.66
685.062	12.2
685.386	12.07
685.709	12.43
686.032	12.36
686.355	12.63
686.678	11.43
687.001	11.56
687.324	12.23
687.646	12.25
687.969	12.43
688.292	11.66
688.614	11.82
688.937	11.43
689.26	11.66
689.582	11.21
689.904	12.01
690.227	12.67
