Data from 0023_forehead_Reflection__0__56.txt Node

Date: Thu Oct 20 20:46:18 CDT 2022
User: ToomeyLab
Spectrometer: FLMS14357
Trigger mode: 0
Integration Time (sec): 1.000000E-2
Scans to average: 100
Electric dark correction enabled: true
Nonlinearity correction enabled: false
Boxcar width: 0
XAxis mode: Wavelengths
Number of Pixels in Spectrum: 2048
>>>>>Begin Spectral Data<<<<<
189.047	485.01
189.435	485.01
189.823	485.01
190.211	98.65
190.599	383.77
190.987	-69.81
191.375	-2029.69
191.763	95.31
192.151	-45.93
192.538	65.42
192.926	-195.49
193.314	31.91
193.702	109.66
194.089	-240.87
194.477	23.58
194.864	43.8
195.252	-28.83
195.639	160.51
196.027	42.49
196.414	174.96
196.801	749.05
197.189	-114.23
197.576	100.75
197.963	661.87
198.351	40.42
198.738	-8.79
199.125	25.25
199.512	-14.32
199.899	28.21
200.286	18.7
200.673	-5.9
201.06	28.33
201.447	-1.31
201.833	5.48
202.22	26.09
202.607	29.87
202.994	10.46
203.38	56.99
203.767	28.9
204.154	27.78
204.54	19.73
204.927	29.16
205.313	19.31
205.699	18.11
206.086	24.46
206.472	28.6
206.858	17.12
207.245	35.4
207.631	9.05
208.017	25.73
208.403	10.81
208.789	9.78
209.175	41.76
209.561	27.14
209.947	27.89
210.333	49.61
210.719	20.73
211.105	-42.81
211.491	24.47
211.876	-7.7
212.262	14.44
212.648	-19.5
213.034	8.69
213.419	14.56
213.805	17.85
214.19	8.26
214.576	-19.25
214.961	-6.05
215.346	-8.77
215.732	13.78
216.117	12.85
216.502	33.88
216.888	25.31
217.273	22.54
217.658	30.04
218.043	-12.64
218.428	5.65
218.813	13.04
219.198	16.18
219.583	26.83
219.968	-2.49
220.353	-0.78
220.738	-6.98
221.122	-6.21
221.507	-5.43
221.892	4.55
222.276	5.62
222.661	-2.14
223.046	5.23
223.43	7.39
223.815	-9.88
224.199	-1.18
224.583	1.51
224.968	10.96
225.352	7.59
225.736	0.95
226.121	7.91
226.505	4.91
226.889	0.81
227.273	-0.41
227.657	5.86
228.041	5.54
228.425	3.92
228.809	4.51
229.193	3.38
229.577	1.99
229.961	1.52
230.344	2.42
230.728	3.83
231.112	2.34
231.495	3.28
231.879	3.03
232.263	3.55
232.646	2.07
233.03	1.03
233.413	2.14
233.797	1.55
234.18	3.07
234.563	1.45
234.946	1.79
235.33	3.1
235.713	4.9
236.096	2.37
236.479	1.24
236.862	3.98
237.245	3.15
237.628	2.18
238.011	1.78
238.394	2.91
238.777	2.24
239.16	3.57
239.543	2.95
239.925	3.23
240.308	2.72
240.691	3.77
241.073	2.93
241.456	1.17
241.838	2.52
242.221	2.89
242.603	2.94
242.986	2.57
243.368	2.7
243.75	2.57
244.133	2.62
244.515	2.7
244.897	2.56
245.279	2.4
245.661	2.09
246.043	2.56
246.425	2.5
246.807	3.24
247.189	2.78
247.571	2.13
247.953	2.58
248.335	2.37
248.717	2.53
249.098	2.36
249.48	2.36
249.862	2.61
250.243	2.46
250.625	3.18
251.006	2.23
251.388	2.92
251.769	2.41
252.151	3.28
252.532	2.58
252.913	2.44
253.295	2.63
253.676	2.64
254.057	2.56
254.438	2.94
254.819	3.87
255.2	2.24
255.581	1.92
255.962	2.13
256.343	3.63
256.724	3.06
257.105	2.35
257.486	1.99
257.867	1.86
258.247	1.95
258.628	1.64
259.009	2.24
259.389	2.7
259.77	2.9
260.15	2.47
260.531	2.58
260.911	2.16
261.292	2.35
261.672	2.41
262.052	2.58
262.432	2.41
262.813	2.68
263.193	2.78
263.573	2.01
263.953	2.33
264.333	2.49
264.713	2.4
265.093	2.82
265.473	3.35
265.853	2.19
266.233	2.61
266.612	1.42
266.992	2.99
267.372	2.27
267.752	2.83
268.131	1.83
268.511	2.43
268.89	2.51
269.27	2.67
269.649	2.26
270.029	2.94
270.408	2.04
270.787	2.34
271.167	3.11
271.546	2.39
271.925	2.49
272.304	3.07
272.683	2.37
273.062	2.29
273.441	2.57
273.82	2.34
274.199	2.64
274.578	2.61
274.957	2.75
275.336	2.45
275.715	2.02
276.093	2.67
276.472	2.59
276.851	2.49
277.229	1.89
277.608	2.02
277.986	2.1
278.365	2.41
278.743	2.63
279.122	3.5
279.5	2.19
279.878	2.7
280.257	2.31
280.635	2.64
281.013	2.88
281.391	2.58
281.769	2.18
282.147	2.96
282.525	2.16
282.903	2.7
283.281	2.26
283.659	2.45
284.037	2.21
284.415	2.72
284.792	2.26
285.17	2.48
285.548	2.26
285.925	2.56
286.303	2.51
286.68	2.71
287.058	2.27
287.435	2.43
287.813	2.44
288.19	2.8
288.567	2.21
288.945	2.54
289.322	2
289.699	3.31
290.076	2.27
290.453	2.47
290.83	2.37
291.207	2.59
291.584	2.19
291.961	2.76
292.338	2.42
292.715	2.46
293.092	2.59
293.469	2.61
293.845	2.12
294.222	2.53
294.599	3.03
294.975	2.85
295.352	2.83
295.728	2.88
296.105	2.49
296.481	2.88
296.858	2.73
297.234	2.61
297.61	2.55
297.986	2.65
298.363	2.69
298.739	2.88
299.115	2.91
299.491	2.93
299.867	2.82
300.243	2.8
300.619	2.93
300.995	2.73
301.371	3
301.746	3.1
302.122	2.79
302.498	3.04
302.874	2.7
303.249	3.08
303.625	3.01
304	3.25
304.376	3.05
304.751	3.28
305.127	2.61
305.502	2.65
305.878	3.29
306.253	3.17
306.628	2.89
307.003	2.92
307.378	3.24
307.754	3.33
308.129	3.2
308.504	3.39
308.879	3.31
309.254	3.38
309.629	3.2
310.003	3.16
310.378	3.48
310.753	3.57
311.128	3.18
311.502	3.14
311.877	3.25
312.252	3.36
312.626	3.15
313.001	3.47
313.375	3.33
313.75	3.48
314.124	3.64
314.498	3.35
314.873	3.73
315.247	4.06
315.621	3.52
315.995	3.74
316.369	3.52
316.743	3.78
317.117	3.62
317.491	3.6
317.865	4.22
318.239	4.48
318.613	4
318.987	4.1
319.361	3.72
319.734	4.1
320.108	4.06
320.482	3.71
320.855	4.07
321.229	3.87
321.602	3.84
321.976	4.13
322.349	3.86
322.723	4.37
323.096	3.72
323.469	4.36
323.843	3.98
324.216	3.59
324.589	4.53
324.962	4.47
325.335	3.93
325.708	3.96
326.081	4.23
326.454	4.85
326.827	4.11
327.2	3.78
327.573	4.3
327.945	4.27
328.318	4.03
328.691	4.14
329.063	3.9
329.436	3.88
329.809	4.44
330.181	4.21
330.553	3.89
330.926	3.82
331.298	3.5
331.671	4.22
332.043	4.59
332.415	4.66
332.787	4.06
333.159	4.31
333.532	4.56
333.904	3.88
334.276	4.61
334.648	4.19
335.02	4.23
335.391	4.21
335.763	4.64
336.135	4.24
336.507	4.24
336.879	4.58
337.25	4.25
337.622	4.59
337.993	4.58
338.365	4.29
338.736	4.67
339.108	3.98
339.479	4.47
339.851	4.66
340.222	4.52
340.593	4.56
340.964	4.33
341.336	4.52
341.707	4.38
342.078	4.49
342.449	4.65
342.82	4.5
343.191	4.57
343.562	4.79
343.933	4.78
344.303	4.94
344.674	3.96
345.045	4.47
345.416	4.52
345.786	4.94
346.157	4.72
346.527	4.41
346.898	4.6
347.268	4.69
347.639	5.08
348.009	5.04
348.38	5.26
348.75	4.44
349.12	4.36
349.49	4.89
349.861	4.71
350.231	4.51
350.601	5.13
350.971	4.49
351.341	4.89
351.711	4.79
352.081	5.36
352.45	4.97
352.82	4.89
353.19	5.31
353.56	4.79
353.929	5.1
354.299	4.88
354.669	5.07
355.038	4.87
355.408	4.96
355.777	4.88
356.147	5.12
356.516	5.4
356.885	5.17
357.254	5.5
357.624	4.98
357.993	4.96
358.362	5.5
358.731	5.48
359.1	5.44
359.469	5.41
359.838	5.33
360.207	5.76
360.576	4.93
360.945	4.93
361.314	5.39
361.682	5.09
362.051	5.33
362.42	4.92
362.788	5.13
363.157	5.31
363.525	5.36
363.894	5.47
364.262	5.34
364.631	5.51
364.999	5.25
365.367	5.27
365.735	5.56
366.104	5.55
366.472	5.33
366.84	5.35
367.208	5.63
367.576	5.48
367.944	5.71
368.312	5.83
368.68	5.83
369.048	5.63
369.416	5.93
369.783	5.82
370.151	5.79
370.519	5.97
370.886	5.79
371.254	5.8
371.621	5.54
371.989	5.33
372.356	5.91
372.724	5.92
373.091	5.94
373.458	5.77
373.826	5.83
374.193	5.87
374.56	5.95
374.927	6.24
375.294	6.08
375.661	6.1
376.028	6.06
376.395	5.52
376.762	5.72
377.129	6.47
377.496	5.93
377.863	6.14
378.229	6.19
378.596	6
378.963	6.24
379.329	5.9
379.696	6.44
380.062	6.22
380.429	6.12
380.795	6.31
381.161	6.34
381.528	6.29
381.894	6.34
382.26	6.25
382.626	6.39
382.993	6.39
383.359	6.28
383.725	6.09
384.091	6.17
384.457	6.35
384.823	6.41
385.188	6.42
385.554	6.28
385.92	6.26
386.286	6.5
386.651	6.5
387.017	6.27
387.383	6.68
387.748	6.44
388.114	6.53
388.479	6.72
388.845	6.67
389.21	6.66
389.575	6.16
389.94	6.62
390.306	6.68
390.671	6.6
391.036	6.73
391.401	6.71
391.766	7.03
392.131	6.58
392.496	6.7
392.861	6.75
393.226	6.6
393.591	6.67
393.956	6.57
394.32	6.52
394.685	6.94
395.05	6.7
395.414	7.01
395.779	6.8
396.143	6.9
396.508	6.83
396.872	6.78
397.236	7.07
397.601	7.11
397.965	6.98
398.329	6.94
398.694	7.02
399.058	7.22
399.422	6.82
399.786	7.03
400.15	6.98
400.514	6.96
400.878	7.05
401.242	7.4
401.605	7.31
401.969	7.12
402.333	7.19
402.697	7.15
403.06	7.02
403.424	7.21
403.787	7.2
404.151	7.35
404.514	7.03
404.878	7.36
405.241	7.14
405.604	7.34
405.968	7.32
406.331	7.34
406.694	7.24
407.057	7.16
407.42	7.34
407.783	7.32
408.146	7.49
408.509	7.5
408.872	7.44
409.235	7.41
409.598	7.42
409.961	7.29
410.323	7.45
410.686	7.52
411.049	7.37
411.411	7.6
411.774	7.48
412.136	7.29
412.499	7.57
412.861	7.61
413.223	7.67
413.586	7.73
413.948	7.62
414.31	7.69
414.672	7.59
415.035	7.7
415.397	7.63
415.759	7.62
416.121	7.57
416.483	7.8
416.845	7.68
417.206	7.6
417.568	7.73
417.93	7.51
418.292	7.78
418.653	7.67
419.015	7.75
419.377	7.64
419.738	7.77
420.1	7.71
420.461	7.85
420.822	7.78
421.184	7.78
421.545	7.76
421.906	7.68
422.267	7.66
422.629	7.72
422.99	7.71
423.351	7.81
423.712	7.76
424.073	7.87
424.434	7.98
424.795	7.95
425.155	7.96
425.516	7.87
425.877	7.81
426.238	7.96
426.598	7.87
426.959	8.02
427.32	8.21
427.68	8.15
428.041	8.2
428.401	8.31
428.761	8.2
429.122	8.36
429.482	8.5
429.842	8.44
430.202	8.32
430.563	8.44
430.923	8.47
431.283	8.54
431.643	8.28
432.003	8.72
432.363	8.59
432.722	8.66
433.082	8.5
433.442	8.52
433.802	8.61
434.161	8.59
434.521	8.68
434.881	8.69
435.24	8.48
435.6	8.63
435.959	8.79
436.319	8.78
436.678	8.73
437.037	8.93
437.396	8.74
437.756	8.66
438.115	8.84
438.474	8.9
438.833	8.79
439.192	8.66
439.551	8.82
439.91	8.92
440.269	8.89
440.628	8.89
440.987	8.97
441.345	8.86
441.704	8.87
442.063	8.82
442.421	8.88
442.78	8.96
443.138	9.1
443.497	8.96
443.855	9.08
444.214	9.1
444.572	9.23
444.93	9.28
445.288	9.23
445.647	9.2
446.005	9.14
446.363	9.16
446.721	9.19
447.079	9.16
447.437	9.21
447.795	9.08
448.153	9.14
448.51	9.21
448.868	9.12
449.226	9.25
449.584	9.29
449.941	9.47
450.299	9.31
450.656	9.41
451.014	9.31
451.371	9.48
451.729	9.65
452.086	9.63
452.443	9.74
452.801	9.6
453.158	9.62
453.515	9.74
453.872	9.55
454.229	9.82
454.586	9.81
454.943	9.79
455.3	9.58
455.657	9.86
456.014	9.99
456.371	9.8
456.727	9.84
457.084	9.88
457.441	9.63
457.797	10.06
458.154	9.83
458.51	9.98
458.867	9.96
459.223	10.15
459.58	10.12
459.936	10.09
460.292	9.97
460.648	9.97
461.005	9.89
461.361	9.75
461.717	9.87
462.073	9.84
462.429	10.05
462.785	10.15
463.141	10.21
463.496	10.17
463.852	10.3
464.208	10.39
464.564	10.47
464.919	10.54
465.275	10.35
465.631	10.32
465.986	10.37
466.342	10.34
466.697	10.29
467.052	10.61
467.408	10.56
467.763	10.6
468.118	10.55
468.473	10.5
468.829	10.47
469.184	10.56
469.539	10.59
469.894	10.53
470.249	10.57
470.603	10.68
470.958	10.7
471.313	10.89
471.668	10.73
472.023	10.81
472.377	10.97
472.732	10.7
473.086	10.74
473.441	10.89
473.795	10.97
474.15	10.76
474.504	10.91
474.859	10.91
475.213	11
475.567	10.98
475.921	10.89
476.275	10.98
476.63	11.1
476.984	11.08
477.338	11.13
477.692	11.19
478.045	11.07
478.399	11.11
478.753	11.18
479.107	11
479.461	11.16
479.814	11.11
480.168	11.2
480.521	11.11
480.875	11.36
481.228	11.21
481.582	11.23
481.935	11.31
482.289	11.25
482.642	11.23
482.995	11.26
483.348	11.23
483.701	11.28
484.055	11.22
484.408	11
484.761	10.92
485.114	10.8
485.466	10.78
485.819	10.75
486.172	10.85
486.525	10.98
486.878	11.1
487.23	11.14
487.583	11.23
487.936	11.24
488.288	11.21
488.641	11.15
488.993	11.12
489.345	11.15
489.698	11.15
490.05	11.25
490.402	11.28
490.754	11.42
491.107	11.43
491.459	11.6
491.811	11.59
492.163	11.64
492.515	11.58
492.866	11.41
493.218	11.44
493.57	11.42
493.922	11.55
494.274	11.72
494.625	11.81
494.977	11.92
495.328	11.99
495.68	12.03
496.031	12.23
496.383	12.18
496.734	12.13
497.086	12.05
497.437	12.28
497.788	12.23
498.139	12.15
498.49	12.14
498.842	12.18
499.193	12.22
499.544	12.28
499.894	12.33
500.245	12.25
500.596	12.34
500.947	12.47
501.298	12.52
501.648	12.47
501.999	12.51
502.35	12.55
502.7	12.73
503.051	12.8
503.401	12.73
503.752	12.58
504.102	12.65
504.452	12.81
504.803	12.88
505.153	12.78
505.503	12.83
505.853	12.79
506.203	12.74
506.553	12.86
506.903	12.94
507.253	12.78
507.603	12.9
507.953	12.89
508.303	13.02
508.652	13.11
509.002	13.07
509.352	13.14
509.701	12.9
510.051	12.94
510.4	12.92
510.75	12.92
511.099	13.01
511.449	12.98
511.798	13.1
512.147	13.11
512.496	13.1
512.846	13.17
513.195	13.17
513.544	13.2
513.893	13.17
514.242	13.22
514.591	13.26
514.939	13.29
515.288	13.52
515.637	13.45
515.986	13.56
516.334	13.45
516.683	13.46
517.032	13.5
517.38	13.4
517.729	13.65
518.077	13.49
518.426	13.6
518.774	13.64
519.122	13.41
519.47	13.49
519.819	13.35
520.167	13.37
520.515	13.38
520.863	13.5
521.211	13.45
521.559	13.65
521.907	13.63
522.255	13.76
522.602	13.74
522.95	13.78
523.298	13.85
523.645	13.94
523.993	14.03
524.341	13.96
524.688	13.92
525.036	14.02
525.383	14.1
525.73	14.01
526.078	13.91
526.425	13.92
526.772	13.83
527.119	13.83
527.466	13.85
527.814	13.86
528.161	14.02
528.508	13.86
528.854	13.97
529.201	13.79
529.548	13.75
529.895	13.61
530.242	13.56
530.588	13.65
530.935	13.65
531.282	13.75
531.628	13.82
531.975	14.07
532.321	14.12
532.667	14.1
533.014	14.26
533.36	14.28
533.706	14.34
534.052	14.29
534.399	14.13
534.745	14.14
535.091	14.13
535.437	14.21
535.783	14.26
536.129	14.38
536.474	14.44
536.82	14.63
537.166	14.65
537.512	14.52
537.857	14.63
538.203	14.68
538.549	14.59
538.894	14.56
539.239	14.82
539.585	14.79
539.93	14.8
540.276	15.03
540.621	15.04
540.966	15.05
541.311	15.03
541.656	15.03
542.001	14.86
542.346	14.71
542.691	14.55
543.036	14.56
543.381	14.69
543.726	14.72
544.071	14.78
544.415	14.85
544.76	14.95
545.105	15.09
545.449	15.08
545.794	15.17
546.138	15.2
546.483	15.29
546.827	15.3
547.171	15.34
547.516	15.33
547.86	15.31
548.204	15.28
548.548	15.53
548.892	15.56
549.236	15.51
549.58	15.48
549.924	15.73
550.268	15.75
550.612	15.82
550.956	15.86
551.3	16.05
551.643	15.95
551.987	16.02
552.33	16.24
552.674	16.1
553.017	15.97
553.361	16.16
553.704	16.1
554.048	16.09
554.391	16.23
554.734	16.04
555.077	16.17
555.42	16.26
555.764	16.29
556.107	16.47
556.45	16.48
556.793	16.47
557.135	16.42
557.478	16.45
557.821	16.48
558.164	16.31
558.507	16.51
558.849	16.48
559.192	16.66
559.534	16.69
559.877	16.7
560.219	16.76
560.562	16.76
560.904	16.86
561.246	16.54
561.589	16.78
561.931	16.85
562.273	16.69
562.615	17.04
562.957	17
563.299	16.91
563.641	16.82
563.983	17.02
564.325	16.83
564.667	17.06
565.008	16.91
565.35	17
565.692	17.18
566.033	17.13
566.375	17
566.716	16.93
567.058	17.03
567.399	17.25
567.741	17.29
568.082	17.05
568.423	17.09
568.764	17.2
569.105	17.23
569.447	17.42
569.788	17.3
570.129	17.28
570.47	17.58
570.811	17.41
571.151	17.5
571.492	17.53
571.833	17.58
572.174	17.42
572.514	17.45
572.855	17.59
573.195	17.31
573.536	17.42
573.876	17.61
574.217	17.32
574.557	17.6
574.898	17.56
575.238	17.79
575.578	17.9
575.918	17.68
576.258	17.82
576.598	17.68
576.938	17.85
577.278	17.71
577.618	18.01
577.958	17.94
578.298	17.89
578.638	17.86
578.977	17.96
579.317	17.78
579.657	18.04
579.996	18.09
580.336	18.03
580.675	18.23
581.014	18.16
581.354	18.51
581.693	18.05
582.032	18.52
582.372	18.23
582.711	18.39
583.05	18.43
583.389	18.46
583.728	18.39
584.067	18.56
584.406	18.42
584.745	18.57
585.083	18.55
585.422	18.57
585.761	18.69
586.1	18.68
586.438	18.77
586.777	18.76
587.115	18.79
587.454	18.81
587.792	18.67
588.13	18.89
588.469	18.91
588.807	18.61
589.145	18.73
589.483	18.87
589.821	18.78
590.159	18.93
590.497	19.06
590.835	18.85
591.173	18.98
591.511	18.9
591.849	19.06
592.187	18.81
592.524	19.23
592.862	19.32
593.2	18.98
593.537	19.37
593.875	18.95
594.212	19.32
594.55	19.19
594.887	19.48
595.224	19.21
595.561	19.3
595.899	19.23
596.236	19.49
596.573	19.26
596.91	19.4
597.247	19.28
597.584	19.35
597.921	19.36
598.258	19.4
598.594	19.33
598.931	19.57
599.268	19.36
599.604	19.54
599.941	19.7
600.277	19.59
600.614	19.54
600.95	19.75
601.287	19.78
601.623	19.64
601.959	19.65
602.296	20.18
602.632	19.67
602.968	19.97
603.304	19.72
603.64	19.88
603.976	20.2
604.312	20.09
604.648	20.02
604.984	19.94
605.319	20.13
605.655	19.99
605.991	19.95
606.326	20
606.662	19.96
606.998	19.93
607.333	19.83
607.668	20.27
608.004	20.16
608.339	20.09
608.674	20.66
609.01	20.41
609.345	20.31
609.68	20.53
610.015	20.35
610.35	20.55
610.685	20.47
611.02	20.39
611.355	20.29
611.689	20.76
612.024	20.48
612.359	20.44
612.694	20.89
613.028	20.64
613.363	20.61
613.697	20.89
614.032	20.98
614.366	20.98
614.7	21.01
615.035	20.92
615.369	20.79
615.703	20.8
616.037	21.03
616.371	21.09
616.705	21.37
617.039	20.94
617.373	21.53
617.707	20.81
618.041	21.05
618.375	20.97
618.709	21.31
619.042	21.05
619.376	21.13
619.71	21.17
620.043	21.22
620.377	21.3
620.71	21.35
621.043	21.71
621.377	21.36
621.71	21.54
622.043	21.26
622.376	21.54
622.709	21.71
623.043	21.9
623.376	21.56
623.709	21.91
624.041	21.38
624.374	22.11
624.707	21.6
625.04	21.82
625.373	21.91
625.705	22.04
626.038	22.1
626.37	21.95
626.703	21.94
627.035	22.04
627.368	22.05
627.7	22.05
628.032	22.04
628.365	21.85
628.697	21.74
629.029	21.79
629.361	22.32
629.693	21.68
630.025	22.07
630.357	21.77
630.689	22.44
631.021	22.28
631.353	22.08
631.684	21.93
632.016	22.29
632.348	22.2
632.679	22.24
633.011	22.21
633.342	22.45
633.674	22.3
634.005	22.32
634.336	22.44
634.668	22.45
634.999	22.23
635.33	22.3
635.661	22.45
635.992	22.19
636.323	23.03
636.654	22.58
636.985	22.5
637.316	22.65
637.647	22.41
637.977	22.77
638.308	22.82
638.639	22.32
638.969	22.59
639.3	22.88
639.63	23.15
639.961	23.03
640.291	22.95
640.622	23.03
640.952	23.06
641.282	23.1
641.612	22.79
641.943	23.1
642.273	23.11
642.603	22.75
642.933	22.8
643.263	23.06
643.592	23.26
643.922	22.99
644.252	23.34
644.582	23.13
644.911	23.04
645.241	23.84
645.571	23.65
645.9	23.46
646.23	23.63
646.559	23.28
646.888	23.43
647.218	23.31
647.547	23.5
647.876	24
648.205	24.45
648.534	24.09
648.863	23.46
649.192	23.48
649.521	24.22
649.85	23.74
650.179	23.88
650.508	23.79
650.837	23.85
651.165	23.48
651.494	24.01
651.822	23.67
652.151	23.89
652.479	24.01
652.808	24.24
653.136	24.18
653.465	23.86
653.793	23.53
654.121	23.93
654.449	24.08
654.777	24.18
655.105	24.05
655.433	24.05
655.761	24.25
656.089	24.03
656.417	24.28
656.745	23.89
657.073	24.67
657.4	24.67
657.728	24.68
658.056	24.28
658.383	24.82
658.711	24.89
659.038	24.45
659.365	24.26
659.693	24.27
660.02	24.26
660.347	24.65
660.674	24.57
661.001	24.39
661.329	24.55
661.656	24.44
661.982	24.31
662.309	24.37
662.636	24.65
662.963	24.86
663.29	24.42
663.616	24.83
663.943	24.85
664.27	24.87
664.596	24.9
664.923	24.49
665.249	25.64
665.576	25.02
665.902	25.76
666.228	25.55
666.554	24.94
666.881	25.05
667.207	24.88
667.533	25.54
667.859	24.82
668.185	25.65
668.511	24.64
668.837	25.46
669.162	25.66
669.488	25.42
669.814	25.55
670.139	25.43
670.465	25.52
670.791	25.4
671.116	25.67
671.442	25.4
671.767	25.73
672.092	25.56
672.418	24.88
672.743	25.06
673.068	25.38
673.393	26.18
673.718	25.89
674.043	25.38
674.368	26.43
674.693	24.92
675.018	25.97
675.343	25.32
675.667	26.02
675.992	25.92
676.317	25.39
676.641	25.32
676.966	26.12
677.29	26.11
677.615	25.8
677.939	26.16
