Data from 0023_forehead_Reflection__3__59.txt Node

Date: Thu Oct 20 20:46:48 CDT 2022
User: ToomeyLab
Spectrometer: FLMS14357
Trigger mode: 0
Integration Time (sec): 1.000000E-2
Scans to average: 100
Electric dark correction enabled: true
Nonlinearity correction enabled: false
Boxcar width: 0
XAxis mode: Wavelengths
Number of Pixels in Spectrum: 2048
>>>>>Begin Spectral Data<<<<<
189.047	122.87
189.435	122.87
189.823	122.87
190.211	221.73
190.599	283.94
190.987	-430.05
191.375	-1196.88
191.763	109.01
192.151	-33.75
192.538	-158.83
192.926	26.85
193.314	138.99
193.702	58.32
194.089	-346.02
194.477	97.82
194.864	101.49
195.252	76
195.639	-12.24
196.027	-2.4
196.414	40.92
196.801	-794.32
197.189	20.33
197.576	-50.9
197.963	938.75
198.351	36.34
198.738	-12.86
199.125	12.24
199.512	58.91
199.899	-27.63
200.286	20.78
200.673	11.87
201.06	48.63
201.447	36.32
201.833	19.26
202.22	12.06
202.607	35.25
202.994	22.8
203.38	30.67
203.767	22.44
204.154	1.05
204.54	2.76
204.927	45.25
205.313	13.15
205.699	-10.8
206.086	16.46
206.472	20.94
206.858	40.03
207.245	32.7
207.631	-5.13
208.017	26.21
208.403	37.35
208.789	17.35
209.175	39
209.561	21.7
209.947	41.21
210.333	42.09
210.719	12.06
211.105	-32.62
211.491	7.93
211.876	11.98
212.262	1.7
212.648	19.02
213.034	35.55
213.419	4.79
213.805	-0.8
214.19	21.19
214.576	-0.41
214.961	9.4
215.346	6.13
215.732	9.75
216.117	34.41
216.502	25.63
216.888	32.06
217.273	35.16
217.658	18.3
218.043	-29.79
218.428	9.31
218.813	-9.9
219.198	11.28
219.583	26.61
219.968	7.9
220.353	1.22
220.738	12.8
221.122	9.18
221.507	13.3
221.892	6.15
222.276	3.85
222.661	8.06
223.046	6.88
223.43	14.37
223.815	-12.88
224.199	-1.51
224.583	-1.02
224.968	9.75
225.352	2.09
225.736	3.35
226.121	14.79
226.505	8.74
226.889	0.19
227.273	2.62
227.657	7.76
228.041	3.96
228.425	5.06
228.809	3.57
229.193	2.55
229.577	2.87
229.961	1.98
230.344	2.59
230.728	3.42
231.112	2.61
231.495	2.86
231.879	2.47
232.263	3.26
232.646	2.98
233.03	1.66
233.413	2.93
233.797	2.82
234.18	2
234.563	1.62
234.946	3.1
235.33	3.58
235.713	4.98
236.096	1.78
236.479	2.89
236.862	2.11
237.245	4.06
237.628	2.89
238.011	2.29
238.394	2.95
238.777	4
239.16	2.35
239.543	4.23
239.925	3.28
240.308	4.46
240.691	3.09
241.073	3.13
241.456	2.53
241.838	2.18
242.221	3.04
242.603	3.09
242.986	2.92
243.368	2.73
243.75	2.94
244.133	2.56
244.515	2.65
244.897	2.8
245.279	2.8
245.661	3.1
246.043	2.53
246.425	3.03
246.807	3.35
247.189	2.99
247.571	2.13
247.953	2.59
248.335	2.58
248.717	2.57
249.098	2.24
249.48	2.61
249.862	2.62
250.243	2.53
250.625	2.64
251.006	3.66
251.388	3.66
251.769	2.8
252.151	3.69
252.532	2.89
252.913	2.87
253.295	2.63
253.676	3.02
254.057	2.45
254.438	3.08
254.819	3.31
255.2	2.71
255.581	3.52
255.962	1.97
256.343	3.87
256.724	2.56
257.105	1.78
257.486	2.19
257.867	3.23
258.247	2.47
258.628	2.01
259.009	2.31
259.389	2.67
259.77	3.05
260.15	3.04
260.531	2.67
260.911	2.31
261.292	2.55
261.672	2.37
262.052	2.64
262.432	2.96
262.813	3.03
263.193	2.87
263.573	2.61
263.953	2.53
264.333	2.69
264.713	2.91
265.093	2.68
265.473	3.21
265.853	2.43
266.233	2.16
266.612	2.8
266.992	3.33
267.372	3.03
267.752	2.64
268.131	2.61
268.511	2.22
268.89	2.8
269.27	2.73
269.649	3.14
270.029	2.78
270.408	2.56
270.787	2.74
271.167	3.49
271.546	2.86
271.925	2.64
272.304	2.61
272.683	2.77
273.062	2.69
273.441	2.7
273.82	2.45
274.199	2.56
274.578	2.92
274.957	3.1
275.336	2.5
275.715	2.33
276.093	2.61
276.472	2.51
276.851	2.52
277.229	2.1
277.608	2.44
277.986	2.17
278.365	2.65
278.743	2.87
279.122	3.11
279.5	1.97
279.878	2.43
280.257	2.81
280.635	2.95
281.013	3.27
281.391	2.55
281.769	2.43
282.147	2.99
282.525	2.47
282.903	2.43
283.281	2.59
283.659	2.07
284.037	2.51
284.415	2.7
284.792	2.74
285.17	2.67
285.548	2.6
285.925	2.54
286.303	2.86
286.68	2.67
287.058	2.81
287.435	2.48
287.813	2.43
288.19	2.84
288.567	2.57
288.945	2.84
289.322	2.38
289.699	3.24
290.076	3.16
290.453	2.5
290.83	2.67
291.207	2.73
291.584	2.45
291.961	2.69
292.338	2.48
292.715	2.54
293.092	3.12
293.469	3.09
293.845	3.09
294.222	3.14
294.599	2.89
294.975	2.7
295.352	3.21
295.728	3.36
296.105	2.95
296.481	3.11
296.858	2.95
297.234	2.59
297.61	2.46
297.986	2.87
298.363	2.97
298.739	3.23
299.115	3.07
299.491	3.36
299.867	3.11
300.243	3.02
300.619	3.17
300.995	3.24
301.371	2.88
301.746	3.4
302.122	2.84
302.498	3.2
302.874	3.27
303.249	2.96
303.625	2.85
304	3.58
304.376	3.58
304.751	3.93
305.127	2.73
305.502	2.9
305.878	2.89
306.253	3.37
306.628	3.41
307.003	3.48
307.378	3.18
307.754	3.23
308.129	3.76
308.504	3.4
308.879	3.74
309.254	3.45
309.629	3.53
310.003	3.55
310.378	3.88
310.753	4.08
311.128	3.4
311.502	3.64
311.877	3.66
312.252	3.74
312.626	3.63
313.001	3.54
313.375	3.79
313.75	3.72
314.124	3.72
314.498	3.4
314.873	3.75
315.247	3.87
315.621	3.43
315.995	3.97
316.369	3.51
316.743	4.29
317.117	4.36
317.491	4.03
317.865	4.34
318.239	4.32
318.613	4.03
318.987	4.39
319.361	4.09
319.734	4.66
320.108	4.2
320.482	3.68
320.855	4.4
321.229	3.99
321.602	4.51
321.976	4.63
322.349	3.86
322.723	4.52
323.096	4.36
323.469	4.68
323.843	4.66
324.216	4.43
324.589	4.59
324.962	4.62
325.335	4.24
325.708	4.22
326.081	4.55
326.454	4.56
326.827	4.54
327.2	4.95
327.573	4.85
327.945	4.74
328.318	4.51
328.691	4.29
329.063	4.28
329.436	4.71
329.809	5.16
330.181	4.84
330.553	4.36
330.926	4.27
331.298	4.09
331.671	5.11
332.043	4.69
332.415	5.08
332.787	4.72
333.159	4.71
333.532	5.03
333.904	4.73
334.276	5.02
334.648	5.19
335.02	4.64
335.391	4.41
335.763	4.87
336.135	4.73
336.507	5.44
336.879	4.75
337.25	5.2
337.622	4.64
337.993	5.17
338.365	5.04
338.736	5.28
339.108	4.61
339.479	5.29
339.851	5.49
340.222	4.93
340.593	4.73
340.964	5.15
341.336	5
341.707	5.15
342.078	5.03
342.449	5.17
342.82	5.18
343.191	5.27
343.562	5.43
343.933	4.97
344.303	5.06
344.674	4.81
345.045	5.15
345.416	5.23
345.786	5.88
346.157	5.33
346.527	5.18
346.898	5.24
347.268	4.98
347.639	5.42
348.009	5.44
348.38	5.29
348.75	5.14
349.12	5.35
349.49	5.29
349.861	5.59
350.231	5.19
350.601	5.91
350.971	5.56
351.341	5.37
351.711	5.82
352.081	6.24
352.45	5.55
352.82	5.37
353.19	5.9
353.56	5.3
353.929	6
354.299	5.19
354.669	5.69
355.038	5.58
355.408	5.65
355.777	5.69
356.147	5.55
356.516	6.12
356.885	5.91
357.254	5.97
357.624	5.79
357.993	5.91
358.362	5.77
358.731	6.07
359.1	6.11
359.469	5.89
359.838	6.16
360.207	6.16
360.576	5.83
360.945	5.67
361.314	6
361.682	5.94
362.051	6.06
362.42	5.79
362.788	5.96
363.157	5.86
363.525	5.9
363.894	5.93
364.262	5.98
364.631	6.21
364.999	6.02
365.367	5.95
365.735	6.05
366.104	6.36
366.472	6.35
366.84	6.35
367.208	6.16
367.576	6.04
367.944	6.51
368.312	6.52
368.68	6.71
369.048	6.26
369.416	6.42
369.783	6.61
370.151	6.68
370.519	6.82
370.886	6.4
371.254	6.59
371.621	6.72
371.989	6.36
372.356	6.74
372.724	6.96
373.091	6.7
373.458	6.69
373.826	6.89
374.193	6.82
374.56	6.91
374.927	7.04
375.294	6.9
375.661	6.97
376.028	6.89
376.395	6.54
376.762	6.55
377.129	7.07
377.496	6.59
377.863	7.05
378.229	6.79
378.596	6.75
378.963	6.86
379.329	6.75
379.696	7.08
380.062	7.18
380.429	7.07
380.795	7.08
381.161	7
381.528	6.8
381.894	7.17
382.26	7.04
382.626	7.21
382.993	7.51
383.359	7.3
383.725	7.32
384.091	7.19
384.457	7.16
384.823	7.28
385.188	7.4
385.554	7.45
385.92	7.45
386.286	7.66
386.651	7.46
387.017	7.05
387.383	7.32
387.748	7.46
388.114	7.62
388.479	7.74
388.845	7.74
389.21	7.68
389.575	7.56
389.94	7.71
390.306	7.49
390.671	7.53
391.036	7.88
391.401	7.63
391.766	7.83
392.131	7.56
392.496	7.73
392.861	7.7
393.226	7.5
393.591	7.5
393.956	7.73
394.32	7.9
394.685	7.65
395.05	7.52
395.414	7.7
395.779	7.86
396.143	7.83
396.508	7.8
396.872	7.69
397.236	8.07
397.601	7.79
397.965	8.09
398.329	7.89
398.694	8.16
399.058	8.18
399.422	7.89
399.786	8.17
400.15	7.93
400.514	8.1
400.878	8.36
401.242	8.41
401.605	8.3
401.969	7.98
402.333	8.18
402.697	8.48
403.06	8.32
403.424	8.33
403.787	7.97
404.151	8.33
404.514	8.1
404.878	8.11
405.241	8.26
405.604	8.56
405.968	8.38
406.331	8.32
406.694	8.36
407.057	8.33
407.42	8.27
407.783	8.19
408.146	8.63
408.509	8.67
408.872	8.56
409.235	8.47
409.598	8.42
409.961	8.42
410.323	8.65
410.686	8.51
411.049	8.47
411.411	8.82
411.774	8.73
412.136	8.58
412.499	8.85
412.861	8.71
413.223	8.92
413.586	8.85
413.948	9
414.31	8.95
414.672	8.91
415.035	8.75
415.397	9.05
415.759	8.94
416.121	8.85
416.483	8.92
416.845	8.95
417.206	8.94
417.568	9.03
417.93	8.62
418.292	8.95
418.653	9.06
419.015	8.98
419.377	8.88
419.738	9.02
420.1	8.78
420.461	8.91
420.822	9.07
421.184	8.96
421.545	8.95
421.906	8.97
422.267	8.89
422.629	8.95
422.99	8.97
423.351	8.97
423.712	9.14
424.073	9.04
424.434	9.09
424.795	9.21
425.155	9.16
425.516	9.09
425.877	9.02
426.238	9.13
426.598	9.23
426.959	9.33
427.32	9.41
427.68	9.45
428.041	9.57
428.401	9.69
428.761	9.63
429.122	9.62
429.482	9.83
429.842	9.74
430.202	9.75
430.563	9.81
430.923	9.91
431.283	9.85
431.643	9.84
432.003	9.99
432.363	10.04
432.722	10.09
433.082	9.83
433.442	10
433.802	9.97
434.161	9.86
434.521	9.92
434.881	10.01
435.24	9.88
435.6	10.09
435.959	10.28
436.319	10.08
436.678	10.16
437.037	10.3
437.396	10.24
437.756	10.1
438.115	10.18
438.474	10.4
438.833	10.33
439.192	10.24
439.551	10.22
439.91	10.4
440.269	10.41
440.628	10.4
440.987	10.43
441.345	10.3
441.704	10.45
442.063	10.24
442.421	10.28
442.78	10.52
443.138	10.55
443.497	10.59
443.855	10.71
444.214	10.72
444.572	10.84
444.93	10.79
445.288	10.88
445.647	10.57
446.005	10.77
446.363	10.54
446.721	10.6
447.079	10.66
447.437	10.54
447.795	10.56
448.153	10.7
448.51	10.65
448.868	10.64
449.226	10.81
449.584	11
449.941	10.99
450.299	10.98
450.656	11.08
451.014	11.17
451.371	11.22
451.729	11.12
452.086	11.11
452.443	11.28
452.801	11.42
453.158	11.39
453.515	11.49
453.872	11.36
454.229	11.44
454.586	11.54
454.943	11.62
455.3	11.42
455.657	11.47
456.014	11.59
456.371	11.6
456.727	11.55
457.084	11.57
457.441	11.61
457.797	11.81
458.154	11.78
458.51	11.76
458.867	11.7
459.223	11.7
459.58	11.79
459.936	11.67
460.292	11.64
460.648	11.57
461.005	11.6
461.361	11.4
461.717	11.59
462.073	11.6
462.429	11.81
462.785	11.82
463.141	11.96
463.496	11.92
463.852	12.31
464.208	12.17
464.564	12.16
464.919	12.35
465.275	12.08
465.631	12.3
465.986	12.24
466.342	12.28
466.697	12.27
467.052	12.37
467.408	12.46
467.763	12.4
468.118	12.4
468.473	12.28
468.829	12.52
469.184	12.46
469.539	12.43
469.894	12.55
470.249	12.58
470.603	12.49
470.958	12.69
471.313	12.48
471.668	12.44
472.023	12.7
472.377	12.82
472.732	12.81
473.086	12.69
473.441	12.76
473.795	12.95
474.15	12.7
474.504	12.85
474.859	12.9
475.213	12.91
475.567	12.96
475.921	13.1
476.275	13.02
476.63	12.98
476.984	13.08
477.338	12.97
477.692	13.26
478.045	13.12
478.399	13.22
478.753	13.21
479.107	13.12
479.461	13.14
479.814	13.2
480.168	13.13
480.521	13.14
480.875	13.18
481.228	13.42
481.582	13.31
481.935	13.4
482.289	13.39
482.642	13.34
482.995	13.23
483.348	13.15
483.701	13.22
484.055	13.17
484.408	13.02
484.761	12.79
485.114	12.6
485.466	12.63
485.819	12.73
486.172	12.87
486.525	13.08
486.878	13.11
487.23	13.27
487.583	13.27
487.936	13.22
488.288	13.11
488.641	13.08
488.993	13.01
489.345	13.16
489.698	13.21
490.05	13.25
490.402	13.45
490.754	13.57
491.107	13.69
491.459	13.74
491.811	13.84
492.163	13.81
492.515	13.66
492.866	13.34
493.218	13.4
493.57	13.57
493.922	13.75
494.274	13.9
494.625	14.03
494.977	14.1
495.328	14.29
495.68	14.3
496.031	14.42
496.383	14.31
496.734	14.56
497.086	14.46
497.437	14.58
497.788	14.35
498.139	14.3
498.49	14.37
498.842	14.36
499.193	14.47
499.544	14.65
499.894	14.6
500.245	14.62
500.596	14.64
500.947	14.78
501.298	14.79
501.648	14.91
501.999	14.97
502.35	15.07
502.7	15.2
503.051	15.07
503.401	15.16
503.752	15.16
504.102	15.09
504.452	15.2
504.803	15.18
505.153	15.07
505.503	15.21
505.853	15.12
506.203	15.27
506.553	15.21
506.903	15.27
507.253	15.18
507.603	15.31
507.953	15.48
508.303	15.47
508.652	15.46
509.002	15.48
509.352	15.44
509.701	15.29
510.051	15.39
510.4	15.36
510.75	15.38
511.099	15.41
511.449	15.4
511.798	15.51
512.147	15.46
512.496	15.55
512.846	15.67
513.195	15.62
513.544	15.66
513.893	15.53
514.242	15.71
514.591	15.7
514.939	15.81
515.288	16.01
515.637	15.78
515.986	16.06
516.334	16.05
516.683	16.04
517.032	16.15
517.38	16.06
517.729	16.22
518.077	16.18
518.426	16.02
518.774	16.11
519.122	16.07
519.47	15.94
519.819	15.86
520.167	15.9
520.515	15.94
520.863	16.11
521.211	16.18
521.559	16.3
521.907	16.16
522.255	16.31
522.602	16.41
522.95	16.46
523.298	16.45
523.645	16.52
523.993	16.66
524.341	16.7
524.688	16.61
525.036	16.71
525.383	16.76
525.73	16.7
526.078	16.64
526.425	16.61
526.772	16.47
527.119	16.44
527.466	16.5
527.814	16.41
528.161	16.56
528.508	16.57
528.854	16.56
529.201	16.42
529.548	16.21
529.895	16.08
530.242	16.11
530.588	16.18
530.935	16.33
531.282	16.42
531.628	16.52
531.975	16.73
532.321	16.77
532.667	16.81
533.014	16.9
533.36	16.97
533.706	16.95
534.052	16.92
534.399	16.7
534.745	16.69
535.091	16.69
535.437	16.8
535.783	17.02
536.129	17.11
536.474	17.27
536.82	17.33
537.166	17.47
537.512	17.37
537.857	17.34
538.203	17.32
538.549	17.36
538.894	17.4
539.239	17.51
539.585	17.53
539.93	17.73
540.276	17.85
540.621	17.9
540.966	17.78
541.311	17.87
541.656	17.93
542.001	17.62
542.346	17.42
542.691	17.21
543.036	17.25
543.381	17.42
543.726	17.5
544.071	17.58
544.415	17.61
544.76	17.8
545.105	18.04
545.449	17.89
545.794	18.08
546.138	18.3
546.483	18.15
546.827	18.31
547.171	18.28
547.516	18.34
547.86	18.39
548.204	18.16
548.548	18.28
548.892	18.53
549.236	18.45
549.58	18.49
549.924	18.72
550.268	18.8
550.612	18.87
550.956	18.95
551.3	19.06
551.643	19.16
551.987	19.18
552.33	19.23
552.674	19.2
553.017	18.95
553.361	19.15
553.704	19.12
554.048	19.22
554.391	19.15
554.734	19.17
555.077	19.21
555.42	19.23
555.764	19.29
556.107	19.42
556.45	19.53
556.793	19.71
557.135	19.63
557.478	19.73
557.821	19.64
558.164	19.47
558.507	19.66
558.849	19.76
559.192	19.77
559.534	19.95
559.877	19.82
560.219	19.75
560.562	20.02
560.904	20.24
561.246	19.66
561.589	20
561.931	19.89
562.273	19.87
562.615	20.14
562.957	20.24
563.299	20.08
563.641	20.06
563.983	20.24
564.325	20.12
564.667	20.33
565.008	20.27
565.35	20.23
565.692	20.24
566.033	20.41
566.375	20.31
566.716	20.33
567.058	20.08
567.399	20.37
567.741	20.3
568.082	20.26
568.423	20.3
568.764	20.4
569.105	20.49
569.447	20.74
569.788	20.58
570.129	20.54
570.47	20.71
570.811	20.78
571.151	20.75
571.492	20.7
571.833	20.78
572.174	20.8
572.514	20.65
572.855	20.81
573.195	20.85
573.536	20.63
573.876	20.84
574.217	20.57
574.557	20.8
574.898	20.92
575.238	20.94
575.578	21.36
575.918	21.1
576.258	21.05
576.598	21.04
576.938	21.1
577.278	21.05
577.618	21.22
577.958	21.53
578.298	21.26
578.638	21.29
578.977	21.45
579.317	21.27
579.657	21.56
579.996	21.54
580.336	21.7
580.675	21.47
581.014	21.84
581.354	21.85
581.693	21.68
582.032	21.7
582.372	21.77
582.711	21.81
583.05	22.02
583.389	21.89
583.728	22.02
584.067	21.96
584.406	22.06
584.745	22.08
585.083	22.27
585.422	22.13
585.761	22.29
586.1	22.27
586.438	22.09
586.777	22.41
587.115	22.31
587.454	22.5
587.792	22.17
588.13	22.4
588.469	22.42
588.807	22.3
589.145	22.22
589.483	22.41
589.821	22.34
590.159	22.55
590.497	22.34
590.835	22.46
591.173	22.37
591.511	22.59
591.849	22.58
592.187	22.61
592.524	22.64
592.862	22.73
593.2	22.55
593.537	22.89
593.875	22.74
594.212	22.74
594.55	22.56
594.887	23.11
595.224	23.07
595.561	22.99
595.899	22.77
596.236	23.11
596.573	23.27
596.91	23.21
597.247	23.16
597.584	22.94
597.921	23.03
598.258	22.98
598.594	22.94
598.931	23.24
599.268	23.16
599.604	23.12
599.941	23.29
600.277	23.46
600.614	23.25
600.95	23.72
601.287	23.58
601.623	23.35
601.959	23.4
602.296	23.34
602.632	23.34
602.968	23.96
603.304	23.55
603.64	23.58
603.976	23.56
604.312	23.72
604.648	23.77
604.984	23.48
605.319	23.78
605.655	23.55
605.991	23.41
606.326	23.71
606.662	23.62
606.998	23.76
607.333	23.68
607.668	23.83
608.004	24
608.339	24.28
608.674	24.35
609.01	24.04
609.345	24.03
609.68	24.28
610.015	24.19
610.35	24.3
610.685	24.16
611.02	24.21
611.355	24.19
611.689	24.22
612.024	24.28
612.359	24.34
612.694	24.47
613.028	24.55
613.363	24.58
613.697	24.79
614.032	25.02
614.366	24.91
614.7	24.78
615.035	24.87
615.369	24.67
615.703	24.84
616.037	24.81
616.371	24.75
616.705	24.98
617.039	25.21
617.373	25.14
617.707	24.97
618.041	24.98
618.375	24.88
618.709	25.21
619.042	24.98
619.376	25.15
619.71	25.49
620.043	25.11
620.377	25.4
620.71	25.13
621.043	25.66
621.377	25.42
621.71	25.71
622.043	25.46
622.376	25.43
622.709	25.53
623.043	25.92
623.376	25.72
623.709	25.78
624.041	25.72
624.374	25.83
624.707	25.71
625.04	25.63
625.373	25.88
625.705	25.71
626.038	25.52
626.37	25.72
626.703	25.93
627.035	25.69
627.368	25.94
627.7	25.55
628.032	25.88
628.365	25.83
628.697	25.66
629.029	26.07
629.361	26.23
629.693	26.09
630.025	26.16
630.357	25.73
630.689	26.14
631.021	26.31
631.353	26.18
631.684	26.28
632.016	26.56
632.348	26.34
632.679	26.78
633.011	26.12
633.342	26.88
633.674	26.57
634.005	26.68
634.336	26.46
634.668	26.28
634.999	26.51
635.33	25.92
635.661	26.52
635.992	26.6
636.323	26.74
636.654	26.75
636.985	26.5
637.316	26.93
637.647	26.77
637.977	26.88
638.308	26.92
638.639	26.67
638.969	26.97
639.3	27.24
639.63	26.99
639.961	27.23
640.291	26.93
640.622	26.79
640.952	27.08
641.282	27.6
641.612	27.48
641.943	27.56
642.273	27.15
642.603	27.28
642.933	27.17
643.263	26.96
643.592	27.2
643.922	28.08
644.252	28.04
644.582	27.26
644.911	27.16
645.241	27.86
645.571	27.9
645.9	27.99
646.23	27.36
646.559	27.7
646.888	27.87
647.218	27.78
647.547	28.24
647.876	27.91
648.205	28.86
648.534	27.69
648.863	27.84
649.192	27.7
649.521	28.07
649.85	28.01
650.179	28.25
650.508	28.12
650.837	28.13
651.165	27.85
651.494	28.29
651.822	28.53
652.151	28.28
652.479	27.9
652.808	28.34
653.136	28.43
653.465	27.98
653.793	28.23
654.121	28.6
654.449	28.5
654.777	28.51
655.105	28.36
655.433	28.36
655.761	28.5
656.089	27.97
656.417	29.03
656.745	28.86
657.073	28.79
657.4	28.46
657.728	28.89
658.056	28.72
658.383	28.72
658.711	29.49
659.038	29.11
659.365	28.56
659.693	29.1
660.02	28.54
660.347	28.84
660.674	28.65
661.001	28.96
661.329	28.6
661.656	28.53
661.982	28.63
662.309	29.01
662.636	28.82
662.963	28.86
663.29	28.79
663.616	29.48
663.943	29.07
664.27	29.51
664.596	29.01
664.923	29.1
665.249	29.33
665.576	29.85
665.902	29.19
666.228	30.22
666.554	29.55
666.881	29.88
667.207	29.94
667.533	29.87
667.859	30.11
668.185	30.47
668.511	29.18
668.837	29.65
669.162	30.48
669.488	30.22
669.814	30.01
670.139	29.54
670.465	29.36
670.791	29.31
671.116	30.23
671.442	30.34
671.767	30.01
672.092	29.78
672.418	29.53
672.743	30
673.068	29.97
673.393	29.89
673.718	30.5
674.043	30.11
674.368	30.66
674.693	29.98
675.018	30.26
675.343	29.56
675.667	30.44
675.992	30.53
676.317	30.27
676.641	29.67
