Data from 0023_crown_Reflection__2__53.txt Node

Date: Thu Oct 20 20:45:10 CDT 2022
User: ToomeyLab
Spectrometer: FLMS14357
Trigger mode: 0
Integration Time (sec): 1.000000E-2
Scans to average: 100
Electric dark correction enabled: true
Nonlinearity correction enabled: false
Boxcar width: 0
XAxis mode: Wavelengths
Number of Pixels in Spectrum: 2048
>>>>>Begin Spectral Data<<<<<
189.047	308.17
189.435	308.17
189.823	308.17
190.211	314.99
190.599	193.65
190.987	-447.21
191.375	5129.69
191.763	137.04
192.151	-49.94
192.538	172.62
192.926	96.36
193.314	19.08
193.702	127.2
194.089	43.06
194.477	168.83
194.864	92.71
195.252	72.17
195.639	-16.87
196.027	176.7
196.414	-27.47
196.801	287.31
197.189	-174.92
197.576	-64.33
197.963	188.12
198.351	63.89
198.738	26.46
199.125	39.49
199.512	-51.54
199.899	43.7
200.286	-12.95
200.673	8.94
201.06	38.49
201.447	20.97
201.833	87.03
202.22	40
202.607	32.72
202.994	19.96
203.38	-4.93
203.767	34.59
204.154	5.8
204.54	16.81
204.927	29.55
205.313	15.48
205.699	20.42
206.086	39.79
206.472	8.41
206.858	21.96
207.245	24.12
207.631	28.33
208.017	16.1
208.403	47.08
208.789	29.83
209.175	39.27
209.561	20.84
209.947	46.16
210.333	14.9
210.719	20.94
211.105	6.23
211.491	15.06
211.876	0.89
212.262	-42.11
212.648	-7.44
213.034	9.54
213.419	13.49
213.805	23.98
214.19	19.17
214.576	3.74
214.961	5
215.346	-2.54
215.732	4.13
216.117	29.79
216.502	0.32
216.888	27.12
217.273	28.75
217.658	6.33
218.043	-8.37
218.428	2.34
218.813	-13.25
219.198	2.28
219.583	31.5
219.968	10.51
220.353	-0.69
220.738	11.21
221.122	23.33
221.507	-0.4
221.892	12.26
222.276	5.63
222.661	2.03
223.046	7.03
223.43	10.86
223.815	0.3
224.199	5.87
224.583	5.67
224.968	3.73
225.352	9.48
225.736	6.4
226.121	14.72
226.505	2.92
226.889	5.45
227.273	1.34
227.657	2.33
228.041	4.18
228.425	2.46
228.809	4.32
229.193	3.81
229.577	5
229.961	3.23
230.344	4.36
230.728	4.68
231.112	4.22
231.495	5.11
231.879	3.35
232.263	4.16
232.646	3.55
233.03	2.39
233.413	2.28
233.797	5.37
234.18	2.88
234.563	4.45
234.946	2.73
235.33	3.8
235.713	5.49
236.096	3.75
236.479	3.59
236.862	4.47
237.245	3.08
237.628	3.65
238.011	4.41
238.394	3.55
238.777	3.07
239.16	4.06
239.543	3.67
239.925	4.03
240.308	4.45
240.691	4.39
241.073	4.15
241.456	3.54
241.838	3.4
242.221	4.84
242.603	3.98
242.986	3.54
243.368	4.34
243.75	3.83
244.133	4.17
244.515	4.2
244.897	3.8
245.279	4.12
245.661	3.9
246.043	3.13
246.425	4.26
246.807	4.86
247.189	3.83
247.571	3.77
247.953	4.18
248.335	3.93
248.717	3.82
249.098	4.11
249.48	3.7
249.862	4.24
250.243	3.53
250.625	4.35
251.006	4.63
251.388	4.83
251.769	4
252.151	4.3
252.532	3.6
252.913	4.22
253.295	3.81
253.676	4.07
254.057	3.59
254.438	3.88
254.819	4.84
255.2	3.79
255.581	3.99
255.962	4.21
256.343	5.15
256.724	3.61
257.105	4.11
257.486	4.38
257.867	4.71
258.247	4.18
258.628	3.97
259.009	3.39
259.389	3.69
259.77	4.12
260.15	3.4
260.531	4.18
260.911	3.48
261.292	3.53
261.672	3.64
262.052	3.94
262.432	3.6
262.813	3.97
263.193	3.91
263.573	3.24
263.953	3.76
264.333	4.05
264.713	4.03
265.093	4.37
265.473	5.19
265.853	3.44
266.233	3.67
266.612	4.13
266.992	4.8
267.372	4.04
267.752	3.52
268.131	3.3
268.511	3.74
268.89	3.62
269.27	3.98
269.649	3.7
270.029	3.97
270.408	3.11
270.787	3.41
271.167	4.2
271.546	3.8
271.925	3.94
272.304	4.18
272.683	3.71
273.062	3.66
273.441	4.03
273.82	3.33
274.199	3.59
274.578	3.84
274.957	3.89
275.336	4.07
275.715	3.64
276.093	3.59
276.472	3.66
276.851	3.83
277.229	3.03
277.608	3.04
277.986	2.84
278.365	3.13
278.743	3.84
279.122	4.45
279.5	3.18
279.878	3.18
280.257	3.4
280.635	3.91
281.013	4.03
281.391	4.07
281.769	4.02
282.147	4.14
282.525	3.65
282.903	3.67
283.281	3.48
283.659	3.31
284.037	3.51
284.415	3.61
284.792	3.45
285.17	3.24
285.548	3.28
285.925	3.41
286.303	3.69
286.68	3.75
287.058	3.52
287.435	3.73
287.813	3.33
288.19	3.83
288.567	3.39
288.945	4.16
289.322	3.34
289.699	4.14
290.076	3.74
290.453	3.62
290.83	3.96
291.207	3.99
291.584	3.6
291.961	3.53
292.338	3.87
292.715	3
293.092	3.77
293.469	4.09
293.845	3.66
294.222	3.46
294.599	3.88
294.975	3.45
295.352	4.03
295.728	3.75
296.105	3.56
296.481	4.06
296.858	4.07
297.234	3.91
297.61	3.21
297.986	3.47
298.363	3.67
298.739	3.87
299.115	3.69
299.491	3.63
299.867	3.79
300.243	3.98
300.619	4.34
300.995	3.98
301.371	3.73
301.746	3.97
302.122	3.7
302.498	4.28
302.874	3.87
303.249	3.75
303.625	3.86
304	4.26
304.376	4.08
304.751	3.66
305.127	3.37
305.502	3.86
305.878	3.82
306.253	3.71
306.628	3.83
307.003	3.61
307.378	4.3
307.754	4.32
308.129	3.63
308.504	3.34
308.879	4.2
309.254	3.89
309.629	4.45
310.003	4.38
310.378	3.93
310.753	4.14
311.128	3.63
311.502	4.27
311.877	3.97
312.252	3.93
312.626	3.58
313.001	4.01
313.375	4.21
313.75	3.75
314.124	3.77
314.498	3.86
314.873	4.23
315.247	4.24
315.621	3.69
315.995	3.93
316.369	3.72
316.743	4.45
317.117	4.38
317.491	3.69
317.865	4.21
318.239	4.18
318.613	4.32
318.987	4.63
319.361	4.23
319.734	4.72
320.108	4.26
320.482	3.75
320.855	3.82
321.229	3.98
321.602	4.21
321.976	4.16
322.349	3.99
322.723	4.44
323.096	4.08
323.469	4.13
323.843	4.57
324.216	3.97
324.589	4.37
324.962	4.4
325.335	3.51
325.708	3.91
326.081	4.38
326.454	4.12
326.827	4.2
327.2	4.41
327.573	4.02
327.945	4.37
328.318	3.81
328.691	3.92
329.063	3.97
329.436	3.81
329.809	4.09
330.181	4.45
330.553	3.81
330.926	4.31
331.298	3.32
331.671	3.89
332.043	4.34
332.415	4.42
332.787	4.5
333.159	4.16
333.532	3.83
333.904	4.06
334.276	4.33
334.648	3.81
335.02	4.15
335.391	3.69
335.763	3.98
336.135	4.07
336.507	4.22
336.879	3.92
337.25	4.29
337.622	4.45
337.993	4.15
338.365	4.63
338.736	4.52
339.108	3.93
339.479	4.09
339.851	4.49
340.222	3.9
340.593	3.87
340.964	4.19
341.336	3.78
341.707	4.06
342.078	4.44
342.449	4.18
342.82	4.33
343.191	4.21
343.562	4.14
343.933	4.23
344.303	4.52
344.674	3.74
345.045	4.15
345.416	3.58
345.786	3.95
346.157	3.95
346.527	3.71
346.898	3.79
347.268	4.04
347.639	4.29
348.009	3.84
348.38	4.61
348.75	4.15
349.12	3.67
349.49	4.23
349.861	4.32
350.231	3.92
350.601	4.54
350.971	3.8
351.341	4.25
351.711	4.42
352.081	4.23
352.45	4.33
352.82	4
353.19	4
353.56	4.3
353.929	4.42
354.299	3.82
354.669	4.5
355.038	4.27
355.408	4.15
355.777	4.19
356.147	4
356.516	4.33
356.885	4.26
357.254	4.39
357.624	3.93
357.993	4.06
358.362	4.12
358.731	4.21
359.1	4.17
359.469	4.47
359.838	4.28
360.207	4.25
360.576	3.9
360.945	3.54
361.314	4.27
361.682	3.79
362.051	4.11
362.42	3.91
362.788	4.16
363.157	4.24
363.525	4.16
363.894	4.18
364.262	3.97
364.631	4.42
364.999	4.11
365.367	4
365.735	4.21
366.104	4.59
366.472	4.28
366.84	4.08
367.208	4.34
367.576	4.19
367.944	4.61
368.312	4.48
368.68	4.27
369.048	4.17
369.416	4.36
369.783	3.99
370.151	4.08
370.519	4.26
370.886	4.29
371.254	4.21
371.621	4.45
371.989	3.82
372.356	4.35
372.724	4.46
373.091	4.33
373.458	4.07
373.826	4.27
374.193	4.1
374.56	4.48
374.927	4.27
375.294	4.4
375.661	4.07
376.028	4.12
376.395	4.18
376.762	4.15
377.129	4.44
377.496	4.29
377.863	4.18
378.229	4.38
378.596	4.1
378.963	4.18
379.329	4.17
379.696	4.28
380.062	4.21
380.429	4.51
380.795	4.22
381.161	4.22
381.528	4.11
381.894	4.22
382.26	4.01
382.626	4.17
382.993	4.29
383.359	4.33
383.725	4.26
384.091	4.09
384.457	3.97
384.823	4.27
385.188	4.27
385.554	4.44
385.92	4.32
386.286	4.44
386.651	4.43
387.017	4.32
387.383	4.46
387.748	4.35
388.114	4.42
388.479	4.38
388.845	4.5
389.21	4.47
389.575	4.25
389.94	4.62
390.306	4.37
390.671	4.13
391.036	4.45
391.401	4.49
391.766	4.52
392.131	4.27
392.496	4.22
392.861	4.58
393.226	4.32
393.591	4.11
393.956	4.25
394.32	4.25
394.685	4.34
395.05	4.12
395.414	4.49
395.779	4.33
396.143	4.43
396.508	4.22
396.872	4.13
397.236	4.46
397.601	4.31
397.965	4.21
398.329	4.08
398.694	4.26
399.058	4.49
399.422	4.07
399.786	4.52
400.15	4.2
400.514	4.33
400.878	4.28
401.242	4.55
401.605	4.35
401.969	4.35
402.333	4.36
402.697	4.57
403.06	4.18
403.424	4.31
403.787	4.21
404.151	4.34
404.514	4.17
404.878	4.29
405.241	4.22
405.604	4.57
405.968	4.27
406.331	4.15
406.694	4.25
407.057	4.23
407.42	4.39
407.783	4.27
408.146	4.46
408.509	4.5
408.872	4.48
409.235	4.17
409.598	4.48
409.961	4.27
410.323	4.48
410.686	4.56
411.049	4.19
411.411	4.37
411.774	4.43
412.136	4.47
412.499	4.4
412.861	4.51
413.223	4.41
413.586	4.48
413.948	4.55
414.31	4.45
414.672	4.6
415.035	4.53
415.397	4.47
415.759	4.55
416.121	4.33
416.483	4.54
416.845	4.51
417.206	4.28
417.568	4.59
417.93	4.11
418.292	4.47
418.653	4.3
419.015	4.32
419.377	4.31
419.738	4.44
420.1	4.34
420.461	4.28
420.822	4.44
421.184	4.44
421.545	4.31
421.906	4.34
422.267	4.27
422.629	4.38
422.99	4.33
423.351	4.34
423.712	4.3
424.073	4.41
424.434	4.35
424.795	4.5
425.155	4.29
425.516	4.36
425.877	4.35
426.238	4.45
426.598	4.31
426.959	4.39
427.32	4.46
427.68	4.53
428.041	4.53
428.401	4.66
428.761	4.63
429.122	4.58
429.482	4.54
429.842	4.55
430.202	4.54
430.563	4.63
430.923	4.47
431.283	4.5
431.643	4.44
432.003	4.71
432.363	4.51
432.722	4.7
433.082	4.53
433.442	4.78
433.802	4.69
434.161	4.5
434.521	4.66
434.881	4.51
435.24	4.48
435.6	4.71
435.959	4.64
436.319	4.58
436.678	4.69
437.037	4.74
437.396	4.67
437.756	4.52
438.115	4.68
438.474	4.77
438.833	4.59
439.192	4.61
439.551	4.58
439.91	4.79
440.269	4.67
440.628	4.61
440.987	4.69
441.345	4.52
441.704	4.65
442.063	4.5
442.421	4.58
442.78	4.68
443.138	4.78
443.497	4.63
443.855	4.78
444.214	4.71
444.572	4.67
444.93	4.69
445.288	4.74
445.647	4.6
446.005	4.67
446.363	4.69
446.721	4.72
447.079	4.55
447.437	4.7
447.795	4.56
448.153	4.64
448.51	4.62
448.868	4.57
449.226	4.65
449.584	4.75
449.941	4.69
450.299	4.84
450.656	4.8
451.014	4.69
451.371	4.87
451.729	4.78
452.086	4.63
452.443	4.79
452.801	4.99
453.158	4.7
453.515	4.85
453.872	4.85
454.229	4.79
454.586	4.82
454.943	4.91
455.3	4.95
455.657	4.88
456.014	4.9
456.371	4.92
456.727	4.75
457.084	4.87
457.441	4.73
457.797	4.94
458.154	4.88
458.51	4.75
458.867	4.9
459.223	4.95
459.58	4.7
459.936	4.76
460.292	4.9
460.648	4.87
461.005	4.82
461.361	4.63
461.717	4.64
462.073	4.71
462.429	4.85
462.785	4.8
463.141	4.89
463.496	4.85
463.852	5.01
464.208	4.93
464.564	4.95
464.919	5.04
465.275	4.97
465.631	4.95
465.986	4.85
466.342	4.95
466.697	4.92
467.052	4.97
467.408	4.95
467.763	5
468.118	4.99
468.473	4.93
468.829	4.93
469.184	4.86
469.539	4.92
469.894	4.95
470.249	4.91
470.603	4.97
470.958	5.12
471.313	4.99
471.668	4.91
472.023	5.04
472.377	5.11
472.732	4.91
473.086	5.01
473.441	5.09
473.795	5.17
474.15	5.05
474.504	5
474.859	5.13
475.213	5.17
475.567	5.06
475.921	4.93
476.275	5.09
476.63	5.08
476.984	5.16
477.338	5.05
477.692	5.16
478.045	5.2
478.399	5.03
478.753	5.01
479.107	4.9
479.461	5.18
479.814	5.02
480.168	5.04
480.521	5
480.875	5.14
481.228	4.96
481.582	5.04
481.935	5.07
482.289	5.06
482.642	5.05
482.995	5
483.348	5.03
483.701	5.11
484.055	4.97
484.408	4.85
484.761	4.81
485.114	4.68
485.466	4.71
485.819	4.79
486.172	4.85
486.525	4.93
486.878	4.96
487.23	5
487.583	5.02
487.936	4.97
488.288	4.91
488.641	4.9
488.993	4.89
489.345	4.89
489.698	4.93
490.05	5.03
490.402	5.02
490.754	5.08
491.107	5.06
491.459	5.14
491.811	5.17
492.163	5
492.515	4.99
492.866	4.94
493.218	4.89
493.57	5.03
493.922	5.09
494.274	5.17
494.625	5.22
494.977	5.18
495.328	5.22
495.68	5.16
496.031	5.2
496.383	5.28
496.734	5.13
497.086	5.2
497.437	5.21
497.788	5.13
498.139	5.18
498.49	5.12
498.842	5.19
499.193	5.19
499.544	5.26
499.894	5.18
500.245	5.18
500.596	5.23
500.947	5.38
501.298	5.34
501.648	5.37
501.999	5.36
502.35	5.37
502.7	5.53
503.051	5.37
503.401	5.41
503.752	5.28
504.102	5.24
504.452	5.4
504.803	5.43
505.153	5.39
505.503	5.27
505.853	5.36
506.203	5.27
506.553	5.43
506.903	5.44
507.253	5.45
507.603	5.4
507.953	5.4
508.303	5.61
508.652	5.36
509.002	5.48
509.352	5.41
509.701	5.29
510.051	5.38
510.4	5.28
510.75	5.36
511.099	5.29
511.449	5.39
511.798	5.47
512.147	5.35
512.496	5.45
512.846	5.35
513.195	5.31
513.544	5.35
513.893	5.43
514.242	5.42
514.591	5.43
514.939	5.43
515.288	5.55
515.637	5.43
515.986	5.48
516.334	5.47
516.683	5.42
517.032	5.48
517.38	5.48
517.729	5.62
518.077	5.46
518.426	5.44
518.774	5.58
519.122	5.47
519.47	5.51
519.819	5.36
520.167	5.48
520.515	5.4
520.863	5.44
521.211	5.51
521.559	5.56
521.907	5.4
522.255	5.48
522.602	5.53
522.95	5.51
523.298	5.56
523.645	5.47
523.993	5.65
524.341	5.44
524.688	5.47
525.036	5.66
525.383	5.57
525.73	5.58
526.078	5.57
526.425	5.48
526.772	5.51
527.119	5.41
527.466	5.49
527.814	5.44
528.161	5.64
528.508	5.46
528.854	5.52
529.201	5.38
529.548	5.29
529.895	5.25
530.242	5.28
530.588	5.35
530.935	5.43
531.282	5.48
531.628	5.49
531.975	5.54
532.321	5.59
532.667	5.58
533.014	5.55
533.36	5.5
533.706	5.61
534.052	5.45
534.399	5.46
534.745	5.44
535.091	5.5
535.437	5.58
535.783	5.63
536.129	5.65
536.474	5.59
536.82	5.7
537.166	5.72
537.512	5.66
537.857	5.59
538.203	5.61
538.549	5.63
538.894	5.67
539.239	5.8
539.585	5.57
539.93	5.62
540.276	5.84
540.621	5.73
540.966	5.73
541.311	5.72
541.656	5.88
542.001	5.58
542.346	5.58
542.691	5.47
543.036	5.49
543.381	5.58
543.726	5.68
544.071	5.61
544.415	5.64
544.76	5.7
545.105	5.83
545.449	5.75
545.794	5.69
546.138	5.82
546.483	5.87
546.827	5.72
547.171	5.72
547.516	5.85
547.86	5.77
548.204	5.71
548.548	5.77
548.892	5.82
549.236	5.8
549.58	5.84
549.924	5.91
550.268	6.01
550.612	5.94
550.956	5.94
551.3	6
551.643	6.04
551.987	6.09
552.33	6.24
552.674	6.09
553.017	5.81
553.361	6.03
553.704	5.96
554.048	5.9
554.391	6.05
554.734	5.94
555.077	6.1
555.42	6.02
555.764	6.08
556.107	6.13
556.45	6.16
556.793	6.08
557.135	6.04
557.478	6.09
557.821	6.05
558.164	6.02
558.507	6.08
558.849	6.2
559.192	6.16
559.534	6.28
559.877	6.06
560.219	6.06
560.562	6.21
560.904	6.08
561.246	5.73
561.589	6.12
561.931	5.92
562.273	6.06
562.615	6.07
562.957	6.21
563.299	6.25
563.641	6.33
563.983	6.25
564.325	6.16
564.667	6.14
565.008	6.14
565.35	6.09
565.692	6.28
566.033	6.19
566.375	6.15
566.716	6.1
567.058	6.05
567.399	6.24
567.741	6.23
568.082	6.06
568.423	6.27
568.764	6.27
569.105	6.15
569.447	6.35
569.788	6.27
570.129	6.3
570.47	6.2
570.811	6.15
571.151	6.18
571.492	6.33
571.833	6.41
572.174	6.21
572.514	6.2
572.855	6.35
573.195	6.09
573.536	6.17
573.876	6.21
574.217	6.25
574.557	6.24
574.898	6.26
575.238	6.46
575.578	6.41
575.918	6.24
576.258	6.33
576.598	6.35
576.938	6.32
577.278	6.38
577.618	6.3
577.958	6.51
578.298	6.39
578.638	6.52
578.977	6.25
579.317	6.05
579.657	6.56
579.996	6.52
580.336	6.18
580.675	6.18
581.014	6.52
581.354	6.33
581.693	6.33
582.032	6.5
582.372	6.47
582.711	6.43
583.05	6.51
583.389	6.4
583.728	6.29
584.067	6.53
584.406	6.56
584.745	6.44
585.083	6.48
585.422	6.59
585.761	6.67
586.1	6.5
586.438	6.39
586.777	6.39
587.115	6.54
587.454	6.63
587.792	6.43
588.13	6.39
588.469	6.37
588.807	6.4
589.145	6.4
589.483	6.33
589.821	6.51
590.159	6.54
590.497	6.62
590.835	6.84
591.173	6.54
591.511	6.66
591.849	6.53
592.187	6.58
592.524	6.58
592.862	6.41
593.2	6.61
593.537	6.51
593.875	6.71
594.212	6.52
594.55	6.37
594.887	6.84
595.224	6.58
595.561	6.59
595.899	6.57
596.236	6.69
596.573	6.36
596.91	6.83
597.247	6.77
597.584	6.69
597.921	6.69
598.258	6.57
598.594	6.47
598.931	6.76
599.268	6.64
599.604	6.49
599.941	6.83
600.277	6.8
600.614	6.52
600.95	7.15
601.287	6.79
601.623	6.72
601.959	6.78
602.296	6.66
602.632	6.62
602.968	6.95
603.304	6.92
603.64	6.54
603.976	6.81
604.312	6.77
604.648	6.56
604.984	6.72
605.319	6.71
605.655	6.65
605.991	6.49
606.326	6.7
606.662	6.73
606.998	6.86
607.333	6.76
607.668	6.75
608.004	6.75
608.339	6.73
608.674	6.8
609.01	6.84
609.345	6.9
609.68	6.95
610.015	6.68
610.35	6.96
610.685	6.84
611.02	6.89
611.355	6.93
611.689	6.93
612.024	6.78
612.359	6.96
612.694	6.82
613.028	7.01
613.363	6.61
613.697	6.95
614.032	6.97
614.366	7
614.7	7.13
615.035	7.17
615.369	7.09
615.703	6.9
616.037	6.93
616.371	7.04
616.705	7.38
617.039	7.16
617.373	7.31
617.707	7.01
618.041	6.97
618.375	6.98
618.709	7.25
619.042	6.93
619.376	6.92
619.71	6.56
620.043	7.02
620.377	7.37
620.71	6.84
621.043	7.09
621.377	7.21
621.71	7.11
622.043	7.15
622.376	7.16
622.709	7.02
623.043	7.43
623.376	7.33
623.709	7.39
624.041	7.27
624.374	7.4
624.707	7.33
625.04	7.2
625.373	7.4
625.705	7.35
626.038	7.36
626.37	7.29
626.703	7.19
627.035	7.38
627.368	7.38
627.7	7.05
628.032	7.35
628.365	7.18
628.697	6.95
629.029	7.13
629.361	7.58
629.693	7.21
630.025	7.25
630.357	7.06
630.689	7.48
631.021	7.28
631.353	7.16
631.684	7.16
632.016	7.03
632.348	7.12
632.679	7.74
633.011	7.17
633.342	7.55
633.674	7.19
634.005	7.58
634.336	7.58
634.668	7.59
634.999	7.43
635.33	6.89
635.661	7.37
635.992	7.17
636.323	7.48
636.654	7.41
636.985	7.23
637.316	7.2
637.647	7.21
637.977	7.4
638.308	7.43
638.639	6.98
638.969	7.26
639.3	7.75
639.63	7.39
639.961	7.79
640.291	7.21
640.622	7.53
640.952	7.71
641.282	7.83
641.612	7.76
641.943	7.65
642.273	7.86
642.603	7.52
642.933	7.27
643.263	7.48
643.592	7.45
643.922	7.39
644.252	7.6
644.582	7.4
644.911	7
645.241	7.89
645.571	7.81
645.9	7.62
646.23	7.28
646.559	7.43
646.888	7.34
647.218	7.54
647.547	7.45
647.876	7.6
648.205	8.02
648.534	7.48
648.863	7.27
649.192	7.78
649.521	7.97
649.85	7.78
650.179	7.77
650.508	7.67
650.837	7.69
651.165	7.93
651.494	7.49
651.822	7.78
652.151	7.25
652.479	7.69
652.808	7.99
653.136	7.56
653.465	7.65
653.793	7.35
654.121	7.66
654.449	8.03
654.777	7.75
655.105	7.93
655.433	7.91
655.761	7.92
656.089	7.82
656.417	7.49
656.745	7.72
657.073	8.16
657.4	7.99
657.728	8.5
658.056	8.09
658.383	8.54
658.711	8.34
659.038	7.76
659.365	7.8
659.693	7.97
660.02	7.69
660.347	8.04
660.674	7.67
661.001	8.08
661.329	7.99
661.656	7.93
661.982	7.68
662.309	7.96
662.636	7.79
662.963	8.12
663.29	7.81
663.616	8.35
663.943	7.88
664.27	8.25
664.596	8
664.923	7.81
665.249	8.22
665.576	8.49
665.902	8.1
666.228	8.67
666.554	8.16
666.881	7.82
667.207	8.36
667.533	8.1
667.859	8.53
668.185	8.57
668.511	7.88
668.837	7.82
669.162	8.01
669.488	8.07
669.814	8.09
670.139	7.93
670.465	8.17
670.791	7.95
671.116	8.49
671.442	8.5
671.767	8.48
672.092	7.81
672.418	8.29
672.743	8.57
673.068	8.32
673.393	8.52
673.718	8.31
674.043	8.2
674.368	8.4
674.693	7.53
675.018	8.21
675.343	7.97
675.667	8.42
675.992	8.81
676.317	8
676.641	7.8
676.966	9.19
677.29	8.05
677.615	8.1
677.939	8.67
678.264	8.6
678.588	8.31
678.912	7.7
679.236	8.34
679.56	7.83
679.885	8.22
680.209	9.07
680.532	8.12
680.856	8.14
681.18	7.97
681.504	7.98
681.828	8.57
682.152	8.19
682.475	8.06
682.799	7.9
683.122	8.41
683.446	8.68
683.769	8.16
684.093	8.47
684.416	8.83
684.739	8.49
685.062	8.93
685.386	8.98
685.709	9.11
686.032	8.81
686.355	7.86
686.678	8.72
687.001	8.89
687.324	8.83
687.646	8.5
687.969	8.85
688.292	8.75
688.614	8.77
688.937	7.86
689.26	8.47
689.582	8.47
689.904	8.89
690.227	8.8
690.549	9.07
690.871	8.31
691.194	8.45
691.516	8.58
691.838	8.47
692.16	8.51
692.482	8.69
692.804	8.8
693.126	8.33
693.448	9.73
