Data from 0023_crown_Reflection__0__46.txt Node

Date: Thu Oct 20 20:42:15 CDT 2022
User: ToomeyLab
Spectrometer: FLMS14357
Trigger mode: 0
Integration Time (sec): 1.000000E-2
Scans to average: 100
Electric dark correction enabled: true
Nonlinearity correction enabled: false
Boxcar width: 0
XAxis mode: Wavelengths
Number of Pixels in Spectrum: 2048
>>>>>Begin Spectral Data<<<<<
189.047	421.59
189.435	421.59
189.823	421.59
190.211	63.64
190.599	259.14
190.987	-340.43
191.375	1950
191.763	-79.41
192.151	-82.76
192.538	5.43
192.926	-78.26
193.314	86.09
193.702	160
194.089	-50.55
194.477	9.82
194.864	182.54
195.252	103.04
195.639	107.2
196.027	43.1
196.414	74.82
196.801	-136.36
197.189	268.67
197.576	38.83
197.963	1360
198.351	51.46
198.738	0.41
199.125	16.57
199.512	19.51
199.899	22.94
200.286	-39.5
200.673	42.66
201.06	27.42
201.447	28.14
201.833	31.92
202.22	4.35
202.607	-19.57
202.994	6.71
203.38	-8.9
203.767	5.82
204.154	-5.18
204.54	12.88
204.927	9.61
205.313	23.57
205.699	16.5
206.086	24.76
206.472	-0.1
206.858	12.24
207.245	25.95
207.631	-21.57
208.017	36.22
208.403	38.62
208.789	-0.34
209.175	36.03
209.561	3.17
209.947	43.67
210.333	22.2
210.719	24.64
211.105	-58.16
211.491	14.23
211.876	3.99
212.262	35.53
212.648	8.29
213.034	9.43
213.419	26.65
213.805	-15.74
214.19	17.61
214.576	12.71
214.961	1.05
215.346	-13.41
215.732	16.27
216.117	8.46
216.502	18.73
216.888	21.35
217.273	18.62
217.658	22.6
218.043	10.91
218.428	5.03
218.813	10.47
219.198	8.74
219.583	32.33
219.968	7.63
220.353	2.99
220.738	12.25
221.122	19.84
221.507	6.71
221.892	10.04
222.276	12.69
222.661	7.37
223.046	8.25
223.43	5.53
223.815	-6.74
224.199	8.79
224.583	2.34
224.968	3.89
225.352	-1.44
225.736	7.33
226.121	1.75
226.505	4.85
226.889	4.62
227.273	3.96
227.657	4.82
228.041	4.03
228.425	1.96
228.809	2.44
229.193	3.63
229.577	1.78
229.961	2.44
230.344	2.75
230.728	2.67
231.112	2.22
231.495	1.58
231.879	2.26
232.263	3.47
232.646	2.32
233.03	1.52
233.413	2.13
233.797	2.99
234.18	2.37
234.563	3.3
234.946	2.19
235.33	1.59
235.713	4.16
236.096	3.1
236.479	1.72
236.862	5.04
237.245	3.02
237.628	2.49
238.011	2.04
238.394	2.81
238.777	2.24
239.16	1.2
239.543	1.3
239.925	2.36
240.308	3.18
240.691	2.57
241.073	2.54
241.456	1.23
241.838	2.06
242.221	2.17
242.603	2.94
242.986	2.36
243.368	2.07
243.75	2.36
244.133	2.19
244.515	2.32
244.897	2.25
245.279	2.23
245.661	2.14
246.043	2.08
246.425	1.65
246.807	2.69
247.189	2.69
247.571	1.73
247.953	2.4
248.335	2.23
248.717	2.15
249.098	2.06
249.48	1.61
249.862	2.31
250.243	1.8
250.625	2.73
251.006	2.43
251.388	2.14
251.769	2.07
252.151	3.03
252.532	1.76
252.913	2.29
253.295	2.05
253.676	2.35
254.057	2.46
254.438	2.38
254.819	3.39
255.2	2.13
255.581	2.67
255.962	2.92
256.343	3.94
256.724	2.19
257.105	2.88
257.486	2.6
257.867	2.27
258.247	1.75
258.628	1.91
259.009	2.17
259.389	1.9
259.77	2.43
260.15	2.03
260.531	2.4
260.911	1.66
261.292	1.87
261.672	1.83
262.052	2.16
262.432	2.36
262.813	2.11
263.193	2.18
263.573	1.68
263.953	1.95
264.333	2.14
264.713	2.32
265.093	2.57
265.473	3.32
265.853	2.4
266.233	1.58
266.612	2.07
266.992	2.56
267.372	2.08
267.752	2.04
268.131	1.92
268.511	2.21
268.89	2.19
269.27	2.49
269.649	2.47
270.029	2.77
270.408	2.04
270.787	2.06
271.167	2.56
271.546	2.33
271.925	2.53
272.304	2
272.683	2.3
273.062	2.33
273.441	2.48
273.82	2.04
274.199	2.15
274.578	2.22
274.957	2.37
275.336	2.29
275.715	1.87
276.093	2.53
276.472	2.09
276.851	2.55
277.229	1.8
277.608	1.9
277.986	1.7
278.365	1.6
278.743	1.97
279.122	2.73
279.5	1.43
279.878	2.45
280.257	2.61
280.635	2.47
281.013	2.65
281.391	2.43
281.769	1.78
282.147	2.49
282.525	2.28
282.903	2.24
283.281	1.95
283.659	1.84
284.037	1.85
284.415	2.4
284.792	2.19
285.17	1.88
285.548	1.65
285.925	1.83
286.303	2.16
286.68	1.58
287.058	2.1
287.435	2.12
287.813	1.8
288.19	1.93
288.567	1.72
288.945	1.92
289.322	1.75
289.699	2.62
290.076	2.31
290.453	2.36
290.83	2.31
291.207	2.66
291.584	1.63
291.961	2.23
292.338	2.23
292.715	2.06
293.092	2.67
293.469	2.57
293.845	2.25
294.222	1.96
294.599	2.02
294.975	2.15
295.352	2.4
295.728	2.41
296.105	2.07
296.481	2.52
296.858	2.15
297.234	2.34
297.61	1.95
297.986	2.07
298.363	2.22
298.739	2.35
299.115	2.43
299.491	2.45
299.867	2.04
300.243	2.37
300.619	2.63
300.995	2.23
301.371	2.27
301.746	2.11
302.122	2.1
302.498	2.91
302.874	2.29
303.249	2.33
303.625	2.31
304	2.35
304.376	2.46
304.751	2.14
305.127	1.63
305.502	2.12
305.878	2.42
306.253	2.58
306.628	2.5
307.003	2.47
307.378	3
307.754	2.43
308.129	2.65
308.504	2.58
308.879	2.74
309.254	2.7
309.629	2.65
310.003	2.44
310.378	2.56
310.753	2.65
311.128	2.37
311.502	2.5
311.877	2.32
312.252	2.31
312.626	2.27
313.001	2.36
313.375	2.66
313.75	2.45
314.124	2.41
314.498	2.44
314.873	2.7
315.247	2.7
315.621	2.71
315.995	2.8
316.369	2.28
316.743	2.61
317.117	3.23
317.491	2.35
317.865	3.17
318.239	3.18
318.613	3.02
318.987	2.87
319.361	2.6
319.734	3.25
320.108	2.71
320.482	2.48
320.855	2.56
321.229	3.16
321.602	2.94
321.976	3.1
322.349	3.28
322.723	3.22
323.096	2.82
323.469	2.63
323.843	3.02
324.216	2.74
324.589	2.98
324.962	3.01
325.335	2.34
325.708	3.01
326.081	2.81
326.454	2.92
326.827	2.86
327.2	3.46
327.573	2.94
327.945	2.8
328.318	3
328.691	2.71
329.063	2.45
329.436	2.57
329.809	2.57
330.181	2.64
330.553	2.62
330.926	2.88
331.298	2.66
331.671	2.99
332.043	3.39
332.415	3.72
332.787	3.09
333.159	2.95
333.532	3.01
333.904	2.93
334.276	3.09
334.648	3.07
335.02	2.83
335.391	3.28
335.763	2.97
336.135	3.1
336.507	3.17
336.879	2.74
337.25	2.78
337.622	3.09
337.993	3.22
338.365	3.03
338.736	3.28
339.108	2.88
339.479	2.68
339.851	3.46
340.222	2.69
340.593	2.96
340.964	3.01
341.336	3.12
341.707	2.97
342.078	2.9
342.449	3.09
342.82	2.97
343.191	3.1
343.562	2.92
343.933	2.93
344.303	3.46
344.674	2.84
345.045	3.41
345.416	3.38
345.786	3.01
346.157	2.97
346.527	3.07
346.898	3.01
347.268	2.94
347.639	2.94
348.009	2.65
348.38	3.16
348.75	2.83
349.12	3.04
349.49	2.77
349.861	3.49
350.231	2.46
350.601	2.96
350.971	3.17
351.341	2.81
351.711	2.84
352.081	3.61
352.45	2.93
352.82	3.28
353.19	3.36
353.56	3.26
353.929	3.03
354.299	2.89
354.669	3.29
355.038	2.97
355.408	2.85
355.777	3.08
356.147	3.03
356.516	3.21
356.885	3.45
357.254	3.46
357.624	3.15
357.993	3.04
358.362	3
358.731	3.25
359.1	3.14
359.469	3.14
359.838	3.42
360.207	3.13
360.576	2.7
360.945	3.17
361.314	3.35
361.682	3.23
362.051	3.22
362.42	3.06
362.788	3.02
363.157	2.92
363.525	3.02
363.894	3.07
364.262	2.93
364.631	3.15
364.999	3.14
365.367	3.02
365.735	2.93
366.104	3.24
366.472	3.17
366.84	3.06
367.208	3.14
367.576	3
367.944	3.65
368.312	3.39
368.68	3.49
369.048	2.77
369.416	3.28
369.783	2.99
370.151	3.22
370.519	3.71
370.886	3.14
371.254	3.03
371.621	3.12
371.989	2.94
372.356	3.18
372.724	3.54
373.091	3.24
373.458	3.1
373.826	3.2
374.193	3.29
374.56	3.25
374.927	3.16
375.294	3.46
375.661	3.4
376.028	3.42
376.395	3.05
376.762	2.81
377.129	3.52
377.496	3.47
377.863	3.44
378.229	3.24
378.596	3.18
378.963	3.42
379.329	3.17
379.696	3.2
380.062	3.25
380.429	3.57
380.795	3.3
381.161	3.48
381.528	2.96
381.894	3.13
382.26	3.19
382.626	3.39
382.993	3.48
383.359	3.4
383.725	3.26
384.091	3.09
384.457	3.07
384.823	3.4
385.188	3.49
385.554	3.39
385.92	3.36
386.286	3.5
386.651	3.29
387.017	3.18
387.383	3.43
387.748	3.46
388.114	3.54
388.479	3.63
388.845	3.49
389.21	3.29
389.575	3.33
389.94	3.65
390.306	3.08
390.671	3.07
391.036	3.32
391.401	3.28
391.766	3.62
392.131	3.41
392.496	3.24
392.861	3.34
393.226	3.35
393.591	3.11
393.956	3.31
394.32	3.27
394.685	3.45
395.05	3.11
395.414	3.31
395.779	3.33
396.143	3.34
396.508	3.44
396.872	3.29
397.236	3.37
397.601	3.52
397.965	3.54
398.329	3.28
398.694	3.6
399.058	3.52
399.422	3.34
399.786	3.38
400.15	3.24
400.514	3.4
400.878	3.56
401.242	3.64
401.605	3.56
401.969	3.52
402.333	3.28
402.697	3.39
403.06	3.3
403.424	3.68
403.787	3.3
404.151	3.62
404.514	3.33
404.878	3.49
405.241	3.23
405.604	3.82
405.968	3.33
406.331	3.52
406.694	3.5
407.057	3.4
407.42	3.59
407.783	3.6
408.146	3.68
408.509	3.72
408.872	3.67
409.235	3.49
409.598	3.5
409.961	3.28
410.323	3.39
410.686	3.62
411.049	3.38
411.411	3.44
411.774	3.61
412.136	3.49
412.499	3.6
412.861	3.7
413.223	3.49
413.586	3.68
413.948	3.58
414.31	3.63
414.672	3.56
415.035	3.7
415.397	3.53
415.759	3.69
416.121	3.45
416.483	3.87
416.845	3.75
417.206	3.54
417.568	3.42
417.93	3.28
418.292	3.76
418.653	3.38
419.015	3.54
419.377	3.46
419.738	3.55
420.1	3.4
420.461	3.65
420.822	3.5
421.184	3.51
421.545	3.53
421.906	3.49
422.267	3.41
422.629	3.49
422.99	3.37
423.351	3.48
423.712	3.41
424.073	3.54
424.434	3.53
424.795	3.53
425.155	3.57
425.516	3.43
425.877	3.44
426.238	3.57
426.598	3.41
426.959	3.59
427.32	3.65
427.68	3.63
428.041	3.66
428.401	3.68
428.761	3.83
429.122	3.75
429.482	3.7
429.842	3.66
430.202	3.69
430.563	3.68
430.923	3.86
431.283	3.78
431.643	3.73
432.003	3.76
432.363	3.63
432.722	3.72
433.082	3.91
433.442	3.94
433.802	3.82
434.161	3.77
434.521	3.87
434.881	3.77
435.24	3.66
435.6	3.76
435.959	3.77
436.319	3.77
436.678	3.77
437.037	3.92
437.396	3.68
437.756	3.58
438.115	3.85
438.474	3.89
438.833	3.82
439.192	3.74
439.551	3.81
439.91	3.83
440.269	3.85
440.628	3.85
440.987	3.78
441.345	3.84
441.704	3.82
442.063	3.73
442.421	3.7
442.78	3.77
443.138	3.86
443.497	3.86
443.855	3.95
444.214	3.8
444.572	3.92
444.93	3.92
445.288	3.96
445.647	3.73
446.005	3.93
446.363	3.8
446.721	3.87
447.079	3.81
447.437	3.82
447.795	3.79
448.153	3.81
448.51	3.8
448.868	3.81
449.226	3.9
449.584	3.93
449.941	3.87
450.299	3.9
450.656	4.09
451.014	4
451.371	3.95
451.729	3.95
452.086	4
452.443	4
452.801	4.11
453.158	4.12
453.515	4.14
453.872	4.06
454.229	4.09
454.586	4.08
454.943	4.12
455.3	4.05
455.657	4.12
456.014	4.11
456.371	4.2
456.727	4.09
457.084	4.15
457.441	4.02
457.797	4.28
458.154	4.12
458.51	3.99
458.867	4.09
459.223	4.1
459.58	4
459.936	4.05
460.292	4.03
460.648	4.17
461.005	3.99
461.361	3.86
461.717	3.93
462.073	3.95
462.429	4.15
462.785	4.05
463.141	4.1
463.496	4.03
463.852	4.29
464.208	4.23
464.564	4.12
464.919	4.29
465.275	4.1
465.631	4.15
465.986	4.18
466.342	4.22
466.697	4.12
467.052	4.24
467.408	4.2
467.763	4.2
468.118	4.07
468.473	4.21
468.829	4.22
469.184	4.13
469.539	4.21
469.894	4.24
470.249	4.15
470.603	4.27
470.958	4.26
471.313	4.29
471.668	4.15
472.023	4.3
472.377	4.45
472.732	4.24
473.086	4.18
473.441	4.23
473.795	4.32
474.15	4.32
474.504	4.26
474.859	4.28
475.213	4.32
475.567	4.39
475.921	4.27
476.275	4.5
476.63	4.37
476.984	4.34
477.338	4.38
477.692	4.5
478.045	4.3
478.399	4.47
478.753	4.27
479.107	4.27
479.461	4.37
479.814	4.33
480.168	4.4
480.521	4.36
480.875	4.28
481.228	4.32
481.582	4.33
481.935	4.38
482.289	4.36
482.642	4.33
482.995	4.17
483.348	4.31
483.701	4.37
484.055	4.3
484.408	4.12
484.761	4.1
485.114	3.98
485.466	3.97
485.819	4.07
486.172	4.22
486.525	4.28
486.878	4.3
487.23	4.33
487.583	4.33
487.936	4.22
488.288	4.2
488.641	4.14
488.993	4.13
489.345	4.18
489.698	4.2
490.05	4.26
490.402	4.33
490.754	4.47
491.107	4.39
491.459	4.48
491.811	4.53
492.163	4.36
492.515	4.33
492.866	4.16
493.218	4.19
493.57	4.27
493.922	4.45
494.274	4.55
494.625	4.48
494.977	4.53
495.328	4.6
495.68	4.64
496.031	4.7
496.383	4.56
496.734	4.61
497.086	4.67
497.437	4.61
497.788	4.52
498.139	4.49
498.49	4.49
498.842	4.6
499.193	4.58
499.544	4.61
499.894	4.5
500.245	4.63
500.596	4.57
500.947	4.75
501.298	4.72
501.648	4.7
501.999	4.73
502.35	4.92
502.7	4.88
503.051	4.78
503.401	4.83
503.752	4.66
504.102	4.73
504.452	4.8
504.803	4.88
505.153	4.73
505.503	4.79
505.853	4.65
506.203	4.79
506.553	4.71
506.903	4.81
507.253	4.79
507.603	4.77
507.953	4.9
508.303	4.98
508.652	4.8
509.002	4.9
509.352	4.93
509.701	4.79
510.051	4.67
510.4	4.79
510.75	4.91
511.099	4.79
511.449	4.85
511.798	4.87
512.147	4.71
512.496	4.81
512.846	4.96
513.195	4.86
513.544	4.87
513.893	4.86
514.242	4.89
514.591	4.94
514.939	4.99
515.288	4.99
515.637	4.98
515.986	5.02
516.334	4.95
516.683	4.96
517.032	5.04
517.38	5.04
517.729	5
518.077	5.05
518.426	4.88
518.774	5.1
519.122	4.95
519.47	4.83
519.819	4.83
520.167	5
520.515	5.01
520.863	4.97
521.211	5.11
521.559	5.11
521.907	5.04
522.255	5.09
522.602	5.11
522.95	5.01
523.298	5.22
523.645	5.13
523.993	5.09
524.341	5.19
524.688	5.12
525.036	5.26
525.383	5.23
525.73	5.24
526.078	5.21
526.425	5.24
526.772	5.07
527.119	4.98
527.466	5.08
527.814	5.14
528.161	5.18
528.508	5.12
528.854	5.17
529.201	5.01
529.548	4.92
529.895	4.89
530.242	4.88
530.588	4.95
530.935	5.08
531.282	5.15
531.628	5.2
531.975	5.28
532.321	5.31
532.667	5.27
533.014	5.26
533.36	5.36
533.706	5.38
534.052	5.17
534.399	5.23
534.745	5.17
535.091	5.2
535.437	5.34
535.783	5.33
536.129	5.5
536.474	5.51
536.82	5.46
537.166	5.57
537.512	5.47
537.857	5.46
538.203	5.44
538.549	5.41
538.894	5.46
539.239	5.64
539.585	5.48
539.93	5.67
540.276	5.71
540.621	5.88
540.966	5.6
541.311	5.64
541.656	5.7
542.001	5.51
542.346	5.46
542.691	5.37
543.036	5.41
543.381	5.55
543.726	5.59
544.071	5.67
544.415	5.68
544.76	5.67
545.105	5.68
545.449	5.75
545.794	5.88
546.138	5.9
546.483	5.91
546.827	5.86
547.171	5.79
547.516	5.89
547.86	5.88
548.204	5.84
548.548	5.83
548.892	5.96
549.236	5.97
549.58	6.04
549.924	6.05
550.268	6.13
550.612	6.11
550.956	6.1
551.3	6.27
551.643	6.28
551.987	6.1
552.33	6.48
552.674	6.31
553.017	6.36
553.361	6.37
553.704	6.3
554.048	6.2
554.391	6.33
554.734	6.2
555.077	6.25
555.42	6.28
555.764	6.45
556.107	6.56
556.45	6.55
556.793	6.75
557.135	6.5
557.478	6.69
557.821	6.59
558.164	6.45
558.507	6.48
558.849	6.61
559.192	6.73
559.534	6.82
559.877	6.6
560.219	6.77
560.562	6.69
560.904	6.94
561.246	6.64
561.589	6.69
561.931	6.69
562.273	6.9
562.615	6.99
562.957	6.87
563.299	6.91
563.641	6.97
563.983	7.02
564.325	7.07
564.667	7.02
565.008	7.1
565.35	6.72
565.692	6.89
566.033	7.15
566.375	6.89
566.716	6.85
567.058	6.8
567.399	7.2
567.741	7.08
568.082	7.06
568.423	7.14
568.764	7.1
569.105	7.18
569.447	7.43
569.788	7.31
570.129	7.45
570.47	7.3
570.811	7.38
571.151	7.34
571.492	7.22
571.833	7.32
572.174	7.29
572.514	7.21
572.855	7.45
573.195	7.22
573.536	7.24
573.876	7.39
574.217	7.23
574.557	7.47
574.898	7.61
575.238	7.62
575.578	7.6
575.918	7.58
576.258	7.63
576.598	7.6
576.938	7.56
577.278	7.67
577.618	7.65
577.958	8.04
578.298	7.83
578.638	7.81
578.977	7.86
579.317	7.64
579.657	7.82
579.996	7.95
580.336	7.84
580.675	7.97
581.014	8.01
581.354	8.05
581.693	8.09
582.032	8.28
582.372	8.19
582.711	8.05
583.05	8.33
583.389	8.34
583.728	8.12
584.067	8.09
584.406	8.16
584.745	8.35
585.083	8.22
585.422	8.33
585.761	8.63
586.1	8.28
586.438	8.46
586.777	8.66
587.115	8.55
587.454	8.61
587.792	8.34
588.13	8.62
588.469	8.48
588.807	8.53
589.145	8.55
589.483	8.57
589.821	8.65
590.159	8.62
590.497	8.71
590.835	8.85
591.173	8.76
591.511	8.72
591.849	8.81
592.187	8.74
592.524	8.89
592.862	8.8
593.2	8.88
593.537	8.94
593.875	8.72
594.212	9.14
594.55	9.03
594.887	9.32
595.224	9.04
595.561	9.2
595.899	8.99
596.236	9.14
596.573	9.23
596.91	9.28
597.247	9.15
597.584	9.16
597.921	9.34
598.258	9.22
598.594	9.13
598.931	9.23
599.268	9.3
599.604	9.42
599.941	9.44
600.277	9.48
600.614	9.42
600.95	9.77
601.287	9.63
601.623	9.72
601.959	9.56
602.296	9.53
602.632	9.5
602.968	10.04
603.304	9.59
603.64	9.65
603.976	10.02
604.312	9.83
604.648	9.58
604.984	9.64
605.319	9.71
605.655	9.71
605.991	9.57
606.326	9.58
606.662	9.76
606.998	9.86
607.333	9.96
607.668	10.15
608.004	10.25
608.339	10.14
608.674	10.32
609.01	10.11
609.345	9.98
609.68	10.38
610.015	10.36
610.35	10.31
610.685	10.24
611.02	10.28
611.355	10.29
611.689	10.26
612.024	10.36
612.359	10.45
612.694	10.53
613.028	10.61
613.363	10.51
613.697	10.73
614.032	10.7
614.366	10.84
614.7	10.89
615.035	10.83
615.369	10.75
615.703	10.7
616.037	11.03
616.371	10.68
616.705	11.19
617.039	11.18
617.373	11.21
617.707	10.84
618.041	11.02
618.375	10.54
618.709	11.31
619.042	10.83
619.376	11.2
619.71	11.25
620.043	11.31
620.377	11.27
620.71	10.99
621.043	11.29
621.377	11.16
621.71	11.45
622.043	11.53
622.376	11.37
622.709	11.48
623.043	11.63
623.376	11.79
623.709	11.56
624.041	11.48
624.374	11.97
624.707	11.54
625.04	11.67
625.373	11.97
625.705	11.91
626.038	11.8
626.37	11.9
626.703	11.93
627.035	11.88
627.368	11.85
627.7	11.98
628.032	11.86
628.365	11.8
628.697	11.8
629.029	11.93
629.361	12.17
629.693	11.64
630.025	12.06
630.357	12.05
630.689	12.39
631.021	11.99
631.353	12.14
631.684	12.65
632.016	12.37
632.348	12.49
632.679	12.59
633.011	12.38
633.342	12.43
633.674	12.44
634.005	12.68
634.336	12.66
634.668	12.44
634.999	12.77
635.33	12.2
635.661	12.57
635.992	12.45
636.323	13.1
636.654	12.58
636.985	12.67
637.316	12.69
637.647	12.9
637.977	12.98
638.308	12.93
638.639	12.85
638.969	12.66
639.3	13.11
639.63	13.28
639.961	13.44
640.291	12.99
640.622	12.83
640.952	13.42
641.282	13.43
641.612	13.36
641.943	13.43
642.273	13.88
642.603	12.94
642.933	13.6
643.263	13.41
643.592	12.99
643.922	13.69
644.252	13.76
644.582	13.61
644.911	13.54
645.241	13.95
645.571	14.12
645.9	14.04
646.23	13.56
646.559	13.61
646.888	13.61
647.218	13.6
647.547	14.11
647.876	14.17
648.205	14.52
648.534	14.3
648.863	13.97
649.192	14.03
649.521	14.47
649.85	14.22
650.179	14.15
650.508	14.42
650.837	14.27
651.165	14
651.494	14.44
651.822	14.35
652.151	14.24
652.479	14.29
652.808	14.62
653.136	14.81
653.465	14.2
653.793	14.57
654.121	14.74
654.449	14.48
654.777	14.49
655.105	14.07
655.433	14.9
655.761	14.44
656.089	14.98
656.417	15.34
656.745	14.63
657.073	15.14
657.4	14.99
657.728	15.43
658.056	15.01
658.383	15.18
658.711	15.5
659.038	15.17
659.365	14.65
659.693	14.93
660.02	15.04
660.347	15.05
660.674	14.81
661.001	15.21
661.329	15.24
661.656	15.09
661.982	15.29
662.309	15.14
662.636	15.17
662.963	15.72
663.29	15.17
663.616	16.04
663.943	15.46
664.27	15.33
664.596	15.41
664.923	15.89
665.249	16.05
665.576	15.5
665.902	15.51
666.228	16.06
666.554	15.67
666.881	15.74
667.207	16.01
667.533	16.23
667.859	15.86
668.185	15.95
668.511	16.05
668.837	16.16
669.162	16.61
669.488	16.31
669.814	16.63
670.139	16.04
670.465	16.05
670.791	16.12
671.116	16.67
671.442	16.76
671.767	16.54
672.092	16.43
672.418	15.94
672.743	16.52
673.068	16.47
673.393	16.61
673.718	16.72
674.043	16.63
674.368	16.59
674.693	16.71
675.018	16.97
675.343	16.04
675.667	16.29
675.992	16.45
676.317	16.57
676.641	16.25
676.966	17.49
677.29	17.28
677.615	17.21
677.939	17.14
678.264	17.37
678.588	16.92
678.912	16.98
679.236	17.66
679.56	17.06
679.885	17.19
680.209	17.42
680.532	16.85
680.856	17.25
681.18	17.5
681.504	16.78
681.828	17.47
682.152	17.37
682.475	16.91
682.799	17.34
683.122	17.38
683.446	17.61
683.769	17.64
684.093	18.09
684.416	18.19
684.739	18.36
685.062	18.83
685.386	18.46
685.709	18.49
686.032	18.58
686.355	18.58
686.678	18.05
687.001	17.86
687.324	17.88
687.646	18.14
687.969	18.22
