Data from 0023_crown_Reflection__1__47.txt Node

Date: Thu Oct 20 20:42:27 CDT 2022
User: ToomeyLab
Spectrometer: FLMS14357
Trigger mode: 0
Integration Time (sec): 1.000000E-2
Scans to average: 100
Electric dark correction enabled: true
Nonlinearity correction enabled: false
Boxcar width: 0
XAxis mode: Wavelengths
Number of Pixels in Spectrum: 2048
>>>>>Begin Spectral Data<<<<<
189.047	500.78
189.435	500.78
189.823	500.78
190.211	283.74
190.599	305.75
190.987	-109.97
191.375	-1107.81
191.763	-112.22
192.151	19.2
192.538	-232.27
192.926	-68.42
193.314	193.58
193.702	137.05
194.089	-412.43
194.477	15.93
194.864	27.23
195.252	60.19
195.639	49.44
196.027	72.5
196.414	11.74
196.801	-547.54
197.189	119.65
197.576	13.51
197.963	-1016.87
198.351	53.99
198.738	70.37
199.125	7.54
199.512	-11.38
199.899	6.57
200.286	-30.58
200.673	27.06
201.06	19.56
201.447	36.27
201.833	-13.46
202.22	7.96
202.607	18.36
202.994	39.13
203.38	12.45
203.767	24.93
204.154	16.52
204.54	51.92
204.927	38.3
205.313	34.27
205.699	31.44
206.086	30.75
206.472	23.83
206.858	14.09
207.245	37.63
207.631	7.19
208.017	8.28
208.403	44.93
208.789	28.03
209.175	42.18
209.561	11.2
209.947	40.85
210.333	43.25
210.719	34.84
211.105	-55.97
211.491	-6.19
211.876	45.59
212.262	-28.41
212.648	0.9
213.034	19.74
213.419	21.14
213.805	3.83
214.19	15.95
214.576	12.01
214.961	-5.39
215.346	-0.95
215.732	36.15
216.117	29.4
216.502	23.1
216.888	23.66
217.273	33.6
217.658	13.61
218.043	-0.84
218.428	-2.6
218.813	22.8
219.198	15.59
219.583	14.58
219.968	8.19
220.353	9.46
220.738	4.43
221.122	15.16
221.507	-1.88
221.892	10.89
222.276	10.44
222.661	9.87
223.046	15.85
223.43	14.82
223.815	-6.45
224.199	1.51
224.583	7.84
224.968	4.94
225.352	4.29
225.736	-3.28
226.121	14.63
226.505	6.23
226.889	1.54
227.273	1.32
227.657	6.37
228.041	2.62
228.425	3.24
228.809	2.08
229.193	2.47
229.577	3.4
229.961	1.76
230.344	2.3
230.728	2.69
231.112	1.51
231.495	2.35
231.879	1.09
232.263	2.41
232.646	2.33
233.03	0.56
233.413	2.3
233.797	0.96
234.18	1.63
234.563	1.44
234.946	2.12
235.33	2.31
235.713	3.54
236.096	1.71
236.479	0.8
236.862	4.35
237.245	2.45
237.628	1.25
238.011	2.3
238.394	2.53
238.777	2.51
239.16	1.45
239.543	2.12
239.925	3.36
240.308	3.07
240.691	2.39
241.073	2.54
241.456	1.09
241.838	1.27
242.221	3.33
242.603	3.13
242.986	2
243.368	2.38
243.75	2.6
244.133	2.15
244.515	2.24
244.897	2.17
245.279	1.96
245.661	1.68
246.043	2.07
246.425	3.73
246.807	2.54
247.189	3.33
247.571	2.19
247.953	2.69
248.335	2.5
248.717	2.59
249.098	2.69
249.48	2.44
249.862	2.8
250.243	2.52
250.625	2.71
251.006	3.87
251.388	3.12
251.769	3.13
252.151	3.03
252.532	2.15
252.913	2.75
253.295	2.56
253.676	2.83
254.057	2.59
254.438	3.34
254.819	3.39
255.2	2.32
255.581	3.53
255.962	2.64
256.343	3.9
256.724	3.79
257.105	2.95
257.486	3.7
257.867	2.76
258.247	2.56
258.628	2.34
259.009	2.59
259.389	2.1
259.77	2.77
260.15	2.6
260.531	2.8
260.911	2.22
261.292	2.33
261.672	2.37
262.052	2.62
262.432	2.83
262.813	2.72
263.193	2.75
263.573	2.24
263.953	2.56
264.333	2.62
264.713	2.46
265.093	2.51
265.473	3.13
265.853	2.15
266.233	2.34
266.612	2.48
266.992	3.39
267.372	2.87
267.752	2.54
268.131	2.32
268.511	2.37
268.89	2.88
269.27	2.63
269.649	2.87
270.029	2.84
270.408	1.91
270.787	2.07
271.167	2.78
271.546	2.41
271.925	2.32
272.304	2.32
272.683	2.45
273.062	2.64
273.441	2.34
273.82	2
274.199	2.47
274.578	2.6
274.957	2.91
275.336	2.55
275.715	2.33
276.093	2.56
276.472	2.55
276.851	2.68
277.229	2.33
277.608	2.09
277.986	2.34
278.365	2.22
278.743	2.34
279.122	2.56
279.5	2.45
279.878	2.41
280.257	2.47
280.635	2.51
281.013	3.03
281.391	2.74
281.769	2.28
282.147	2.32
282.525	2.61
282.903	2.65
283.281	2.37
283.659	2.53
284.037	2.42
284.415	2.86
284.792	2.28
285.17	2.44
285.548	2.39
285.925	2.54
286.303	2.59
286.68	2.54
287.058	2.62
287.435	2.28
287.813	2.1
288.19	2.63
288.567	2.24
288.945	3.02
289.322	2.24
289.699	2.9
290.076	2.76
290.453	3.03
290.83	2.73
291.207	2.9
291.584	2.2
291.961	2.78
292.338	2.51
292.715	2.43
293.092	3.3
293.469	3.17
293.845	2.61
294.222	2.84
294.599	3.07
294.975	2.92
295.352	3.16
295.728	3.22
296.105	3.53
296.481	3.25
296.858	3.66
297.234	2.98
297.61	2.99
297.986	3.27
298.363	3.29
298.739	3.54
299.115	3.23
299.491	3.54
299.867	3.24
300.243	3.35
300.619	3.84
300.995	3.79
301.371	3.32
301.746	3.55
302.122	2.85
302.498	3.85
302.874	3.78
303.249	3.25
303.625	3.48
304	3.67
304.376	4.02
304.751	4.04
305.127	3.28
305.502	3.61
305.878	3.19
306.253	4.13
306.628	4.05
307.003	3.88
307.378	3.84
307.754	4.05
308.129	3.91
308.504	3.81
308.879	4.38
309.254	4.01
309.629	4.16
310.003	3.91
310.378	4.19
310.753	4.04
311.128	3.76
311.502	3.79
311.877	4.12
312.252	4.36
312.626	3.99
313.001	4.05
313.375	4.36
313.75	4.28
314.124	3.99
314.498	3.88
314.873	4.49
315.247	4.13
315.621	4.27
315.995	4.55
316.369	4.21
316.743	4.63
317.117	4.38
317.491	4.38
317.865	4.53
318.239	4.54
318.613	4.57
318.987	4.84
319.361	4.34
319.734	4.72
320.108	4.57
320.482	4.34
320.855	5.17
321.229	5.06
321.602	4.79
321.976	5.09
322.349	5.04
322.723	4.99
323.096	4.55
323.469	4.81
323.843	5.41
324.216	4.71
324.589	4.99
324.962	5.26
325.335	4.12
325.708	4.65
326.081	5.03
326.454	5.04
326.827	4.73
327.2	5.06
327.573	4.86
327.945	4.98
328.318	4.68
328.691	4.9
329.063	4.45
329.436	4.65
329.809	5.14
330.181	5.13
330.553	4.75
330.926	4.97
331.298	4.5
331.671	5.31
332.043	5.78
332.415	5.33
332.787	5.28
333.159	5.51
333.532	5.09
333.904	4.65
334.276	5.31
334.648	5.15
335.02	5.23
335.391	5.11
335.763	5.11
336.135	5.28
336.507	5.19
336.879	5.28
337.25	4.82
337.622	5.11
337.993	5.49
338.365	5.27
338.736	5.3
339.108	5.35
339.479	5.02
339.851	5.83
340.222	5.36
340.593	5.09
340.964	5.32
341.336	5.03
341.707	5.24
342.078	4.91
342.449	5.24
342.82	5.32
343.191	5.59
343.562	5.44
343.933	5.2
344.303	5.31
344.674	4.41
345.045	5.4
345.416	4.86
345.786	5.25
346.157	5.28
346.527	4.79
346.898	4.93
347.268	5
347.639	5.41
348.009	5.13
348.38	5.27
348.75	5.18
349.12	5.18
349.49	5.2
349.861	5.37
350.231	5.09
350.601	5.23
350.971	5.07
351.341	5.22
351.711	5.15
352.081	5.98
352.45	5.12
352.82	4.8
353.19	5.45
353.56	5.23
353.929	5.44
354.299	4.84
354.669	5.49
355.038	5.17
355.408	4.9
355.777	5.61
356.147	5.27
356.516	5.43
356.885	5.48
357.254	5.67
357.624	4.98
357.993	5.35
358.362	5.44
358.731	5.42
359.1	5.37
359.469	5.32
359.838	5.18
360.207	5.83
360.576	5.58
360.945	5.07
361.314	5.45
361.682	5.13
362.051	5.47
362.42	5.2
362.788	5.26
363.157	5.31
363.525	5.4
363.894	5.61
364.262	5.18
364.631	5.63
364.999	5.61
365.367	5.33
365.735	5.66
366.104	5.64
366.472	5.41
366.84	5.23
367.208	5.17
367.576	5.42
367.944	5.46
368.312	5.53
368.68	5.81
369.048	5.52
369.416	5.65
369.783	5.71
370.151	5.4
370.519	5.73
370.886	5.62
371.254	5.77
371.621	5.65
371.989	5.42
372.356	5.75
372.724	5.84
373.091	5.72
373.458	5.73
373.826	5.99
374.193	5.62
374.56	5.83
374.927	5.95
375.294	5.76
375.661	5.71
376.028	5.55
376.395	5.6
376.762	5.18
377.129	5.76
377.496	5.5
377.863	5.55
378.229	5.58
378.596	5.47
378.963	5.55
379.329	5.51
379.696	5.97
380.062	5.85
380.429	5.76
380.795	5.63
381.161	5.79
381.528	5.39
381.894	5.56
382.26	5.86
382.626	5.6
382.993	5.52
383.359	6.05
383.725	5.6
384.091	5.46
384.457	5.42
384.823	5.51
385.188	5.91
385.554	5.89
385.92	5.96
386.286	5.96
386.651	5.79
387.017	5.8
387.383	6.09
387.748	5.84
388.114	5.96
388.479	5.87
388.845	6.02
389.21	5.73
389.575	5.62
389.94	6.1
390.306	5.86
390.671	5.55
391.036	5.94
391.401	6
391.766	6.15
392.131	5.79
392.496	5.66
392.861	5.92
393.226	6.17
393.591	5.84
393.956	5.73
394.32	5.88
394.685	5.96
395.05	5.85
395.414	6.09
395.779	5.91
396.143	6.07
396.508	5.89
396.872	5.7
397.236	6.06
397.601	6.15
397.965	6.23
398.329	5.81
398.694	6.04
399.058	6.16
399.422	6.15
399.786	6.12
400.15	6.06
400.514	5.75
400.878	5.93
401.242	6.22
401.605	6.01
401.969	6.01
402.333	5.81
402.697	6.14
403.06	6.17
403.424	5.94
403.787	6.03
404.151	6.14
404.514	5.96
404.878	6.12
405.241	6
405.604	6.31
405.968	6.07
406.331	6.15
406.694	6.06
407.057	5.92
407.42	6.01
407.783	6.07
408.146	6.23
408.509	6.34
408.872	6.13
409.235	6.05
409.598	6.14
409.961	6.04
410.323	5.98
410.686	6.36
411.049	6.13
411.411	6.33
411.774	6.2
412.136	6.07
412.499	6.26
412.861	6.21
413.223	6.35
413.586	6.55
413.948	6.35
414.31	6.2
414.672	6.16
415.035	6.38
415.397	6.2
415.759	6.33
416.121	6
416.483	6.33
416.845	6.31
417.206	6.24
417.568	6.21
417.93	6.05
418.292	6.13
418.653	6.29
419.015	6.25
419.377	6.17
419.738	6.15
420.1	6.14
420.461	6.2
420.822	6.16
421.184	6.23
421.545	6.16
421.906	6.1
422.267	6.18
422.629	6.15
422.99	5.97
423.351	6.18
423.712	6.16
424.073	6.15
424.434	6.24
424.795	6.15
425.155	6.15
425.516	6.11
425.877	6.09
426.238	6.26
426.598	6.17
426.959	6.27
427.32	6.41
427.68	6.21
428.041	6.45
428.401	6.48
428.761	6.48
429.122	6.53
429.482	6.41
429.842	6.52
430.202	6.51
430.563	6.42
430.923	6.41
431.283	6.55
431.643	6.46
432.003	6.53
432.363	6.53
432.722	6.56
433.082	6.52
433.442	6.66
433.802	6.48
434.161	6.52
434.521	6.44
434.881	6.41
435.24	6.32
435.6	6.57
435.959	6.52
436.319	6.67
436.678	6.47
437.037	6.7
437.396	6.76
437.756	6.49
438.115	6.45
438.474	6.62
438.833	6.72
439.192	6.64
439.551	6.59
439.91	6.6
440.269	6.62
440.628	6.58
440.987	6.63
441.345	6.59
441.704	6.6
442.063	6.41
442.421	6.45
442.78	6.61
443.138	6.73
443.497	6.64
443.855	6.79
444.214	6.77
444.572	6.59
444.93	6.49
445.288	6.88
445.647	6.51
446.005	6.67
446.363	6.69
446.721	6.7
447.079	6.67
447.437	6.61
447.795	6.5
448.153	6.55
448.51	6.66
448.868	6.69
449.226	6.77
449.584	6.76
449.941	6.73
450.299	6.8
450.656	6.76
451.014	6.83
451.371	6.9
451.729	6.9
452.086	6.81
452.443	6.91
452.801	7.03
453.158	6.9
453.515	6.84
453.872	6.76
454.229	7
454.586	6.9
454.943	7.03
455.3	6.99
455.657	7.04
456.014	6.97
456.371	6.98
456.727	6.95
457.084	7.01
457.441	6.93
457.797	7.12
458.154	7.14
458.51	7.05
458.867	6.98
459.223	7.01
459.58	6.95
459.936	6.88
460.292	6.85
460.648	6.92
461.005	6.89
461.361	6.76
461.717	6.98
462.073	6.91
462.429	7.16
462.785	6.9
463.141	7.03
463.496	7.22
463.852	7.38
464.208	7.28
464.564	7.27
464.919	7.26
465.275	7.11
465.631	7.13
465.986	7.09
466.342	7.08
466.697	7.27
467.052	7.2
467.408	7.27
467.763	7.21
468.118	7.23
468.473	7.11
468.829	7.19
469.184	7.19
469.539	7.17
469.894	7.18
470.249	7.16
470.603	7.38
470.958	7.28
471.313	7.31
471.668	7.35
472.023	7.41
472.377	7.41
472.732	7.32
473.086	7.21
473.441	7.29
473.795	7.34
474.15	7.38
474.504	7.29
474.859	7.5
475.213	7.42
475.567	7.42
475.921	7.32
476.275	7.56
476.63	7.49
476.984	7.37
477.338	7.23
477.692	7.55
478.045	7.55
478.399	7.53
478.753	7.35
479.107	7.23
479.461	7.42
479.814	7.25
480.168	7.41
480.521	7.35
480.875	7.39
481.228	7.59
481.582	7.4
481.935	7.52
482.289	7.51
482.642	7.42
482.995	7.3
483.348	7.4
483.701	7.31
484.055	7.27
484.408	7.14
484.761	7.03
485.114	6.89
485.466	6.88
485.819	7.03
486.172	7.15
486.525	7.28
486.878	7.42
487.23	7.39
487.583	7.39
487.936	7.25
488.288	7.22
488.641	7.2
488.993	7.13
489.345	7.19
489.698	7.26
490.05	7.36
490.402	7.43
490.754	7.54
491.107	7.52
491.459	7.55
491.811	7.63
492.163	7.56
492.515	7.41
492.866	7.24
493.218	7.3
493.57	7.41
493.922	7.53
494.274	7.65
494.625	7.73
494.977	7.82
495.328	7.91
495.68	7.71
496.031	7.89
496.383	7.79
496.734	7.92
497.086	7.88
497.437	7.85
497.788	7.74
498.139	7.7
498.49	7.62
498.842	7.79
499.193	7.83
499.544	7.9
499.894	7.78
500.245	7.82
500.596	7.95
500.947	7.99
501.298	8.11
501.648	8.04
501.999	7.85
502.35	8.05
502.7	8.06
503.051	8.23
503.401	8.04
503.752	8.05
504.102	8.02
504.452	7.97
504.803	8.24
505.153	8.02
505.503	8.05
505.853	8.02
506.203	8.05
506.553	8.09
506.903	8.18
507.253	8.03
507.603	8.14
507.953	8.16
508.303	8.27
508.652	8.26
509.002	8.24
509.352	8.15
509.701	8.15
510.051	8.14
510.4	8.04
510.75	8.04
511.099	8.18
511.449	8.21
511.798	8.19
512.147	8.13
512.496	8.28
512.846	8.23
513.195	8.29
513.544	8.27
513.893	8.22
514.242	8.29
514.591	8.27
514.939	8.38
515.288	8.45
515.637	8.36
515.986	8.51
516.334	8.43
516.683	8.51
517.032	8.55
517.38	8.33
517.729	8.6
518.077	8.53
518.426	8.33
518.774	8.38
519.122	8.36
519.47	8.29
519.819	8.22
520.167	8.28
520.515	8.43
520.863	8.4
521.211	8.47
521.559	8.58
521.907	8.49
522.255	8.44
522.602	8.64
522.95	8.51
523.298	8.59
523.645	8.6
523.993	8.66
524.341	8.77
524.688	8.64
525.036	8.66
525.383	8.63
525.73	8.73
526.078	8.58
526.425	8.5
526.772	8.47
527.119	8.49
527.466	8.38
527.814	8.48
528.161	8.71
528.508	8.48
528.854	8.68
529.201	8.43
529.548	8.28
529.895	8.15
530.242	8.19
530.588	8.34
530.935	8.47
531.282	8.6
531.628	8.55
531.975	8.71
532.321	8.7
532.667	8.77
533.014	8.82
533.36	8.8
533.706	8.8
534.052	8.67
534.399	8.63
534.745	8.51
535.091	8.62
535.437	8.76
535.783	8.85
536.129	8.94
536.474	8.86
536.82	8.99
537.166	9.06
537.512	8.95
537.857	8.85
538.203	8.92
538.549	8.97
538.894	9.09
539.239	9.2
539.585	9.14
539.93	9.11
540.276	9.3
540.621	9.19
540.966	9.14
541.311	9.11
541.656	9.2
542.001	8.95
542.346	8.88
542.691	8.74
543.036	8.78
543.381	8.91
543.726	9.05
544.071	9.13
544.415	9.14
544.76	9.15
545.105	9.31
545.449	9.22
545.794	9.39
546.138	9.35
546.483	9.41
546.827	9.33
547.171	9.32
547.516	9.48
547.86	9.38
548.204	9.33
548.548	9.36
548.892	9.54
549.236	9.49
549.58	9.57
549.924	9.77
550.268	9.86
550.612	9.9
550.956	9.65
551.3	9.67
551.643	9.83
551.987	9.76
552.33	9.97
552.674	9.94
553.017	9.74
553.361	9.88
553.704	9.79
554.048	9.85
554.391	9.85
554.734	9.9
555.077	9.85
555.42	9.96
555.764	9.96
556.107	10.04
556.45	10.17
556.793	10.05
557.135	10.09
557.478	10.15
557.821	9.92
558.164	10.03
558.507	10.01
558.849	10.16
559.192	10.2
559.534	10.33
559.877	10.25
560.219	10.21
560.562	10.25
560.904	10.44
561.246	10.09
561.589	10.23
561.931	10.25
562.273	10.25
562.615	10.24
562.957	10.5
563.299	10.58
563.641	10.38
563.983	10.41
564.325	10.43
564.667	10.48
565.008	10.29
565.35	10.3
565.692	10.48
566.033	10.63
566.375	10.36
566.716	10.27
567.058	10.29
567.399	10.52
567.741	10.46
568.082	10.36
568.423	10.51
568.764	10.65
569.105	10.49
569.447	10.75
569.788	10.63
570.129	10.69
570.47	10.61
570.811	10.52
571.151	10.58
571.492	10.76
571.833	10.86
572.174	10.73
572.514	10.77
572.855	10.79
573.195	10.66
573.536	10.57
573.876	10.64
574.217	10.59
574.557	10.84
574.898	10.87
575.238	10.98
575.578	11.01
575.918	10.93
576.258	10.92
576.598	10.8
576.938	10.9
577.278	11.01
577.618	10.87
577.958	11.18
578.298	11.05
578.638	11.05
578.977	11.1
579.317	10.88
579.657	11.43
579.996	11.31
580.336	11.17
580.675	11.01
581.014	11.4
581.354	11.42
581.693	11.29
582.032	11.36
582.372	11.18
582.711	11.36
583.05	11.5
583.389	11.44
583.728	11.27
584.067	11.39
584.406	11.42
584.745	11.53
585.083	11.56
585.422	11.52
585.761	11.62
586.1	11.49
586.438	11.63
586.777	11.59
587.115	11.75
587.454	11.94
587.792	11.33
588.13	11.64
588.469	11.65
588.807	11.65
589.145	11.64
589.483	11.76
589.821	11.38
590.159	11.64
590.497	11.76
590.835	11.96
591.173	11.76
591.511	11.66
591.849	11.95
592.187	11.65
592.524	11.9
592.862	12.1
593.2	11.87
593.537	12
593.875	11.73
594.212	11.98
594.55	11.91
594.887	12.22
595.224	11.84
595.561	12.1
595.899	11.92
596.236	12.11
596.573	12.01
596.91	12.15
597.247	11.95
597.584	12.13
597.921	12.13
598.258	12.02
598.594	12
598.931	12.18
599.268	11.87
599.604	12.09
599.941	12.22
600.277	12.32
600.614	12.3
600.95	12.69
601.287	12.39
601.623	12.34
601.959	12.31
602.296	12.3
602.632	12.12
602.968	12.43
603.304	12.43
603.64	12.57
603.976	12.47
604.312	12.46
604.648	12.26
604.984	12.3
605.319	12.36
605.655	12.52
605.991	12.14
606.326	12.28
606.662	12.3
606.998	12.66
607.333	12.46
607.668	12.77
608.004	12.77
608.339	12.8
608.674	12.47
609.01	12.8
609.345	12.77
609.68	12.82
610.015	12.79
610.35	12.79
610.685	12.47
611.02	12.6
611.355	12.68
611.689	12.74
612.024	12.77
612.359	12.78
612.694	12.93
613.028	12.99
613.363	12.75
613.697	13.15
614.032	13.23
614.366	13.14
614.7	13.22
615.035	13.43
615.369	13.27
615.703	13.29
616.037	13.15
616.371	13.22
616.705	13.23
617.039	13.29
617.373	13.35
617.707	12.92
618.041	13.3
618.375	13.23
618.709	13.59
619.042	13.09
619.376	13.29
619.71	13.11
620.043	13.79
620.377	13.55
620.71	13.18
621.043	13.66
621.377	13.29
621.71	13.71
622.043	13.56
622.376	13.69
622.709	13.66
623.043	13.8
623.376	13.16
623.709	13.62
624.041	13.44
624.374	13.8
624.707	13.69
625.04	13.68
625.373	13.84
625.705	13.65
626.038	13.79
626.37	13.67
626.703	13.75
627.035	13.99
627.368	13.81
627.7	13.95
628.032	13.8
628.365	13.68
628.697	13.37
629.029	13.68
629.361	13.99
629.693	13.73
630.025	13.95
630.357	13.98
630.689	14.06
631.021	13.89
631.353	13.91
631.684	14.24
632.016	13.97
632.348	14.13
632.679	14.43
633.011	14.21
633.342	14.54
633.674	14.01
634.005	14.1
634.336	14.03
634.668	14.01
634.999	14.03
635.33	13.87
635.661	13.88
635.992	14.1
636.323	14.54
636.654	14.29
636.985	14.33
637.316	14.53
637.647	14.68
637.977	14.2
638.308	14.2
638.639	14.14
638.969	14.47
639.3	14.81
639.63	14.52
639.961	14.55
640.291	14.28
640.622	14.61
640.952	14.65
641.282	14.45
641.612	14.7
641.943	14.64
642.273	14.97
642.603	14.92
642.933	14.8
643.263	14.52
643.592	14.32
643.922	14.95
644.252	14.55
644.582	14.48
644.911	14.85
645.241	15.09
645.571	14.97
645.9	14.69
646.23	14.33
646.559	14.78
646.888	15.13
647.218	14.58
647.547	15.21
647.876	15.09
648.205	15.16
648.534	14.98
648.863	14.87
649.192	14.87
649.521	15.42
649.85	15.4
650.179	14.94
650.508	15.34
650.837	14.86
651.165	14.82
651.494	15.16
651.822	14.95
652.151	14.84
652.479	14.91
652.808	15.47
653.136	15.11
653.465	15.25
653.793	15.33
654.121	15.28
654.449	15.1
654.777	15.17
655.105	15.47
655.433	15.71
655.761	15.4
656.089	15.79
656.417	15.33
656.745	15.44
657.073	15.31
657.4	15.45
657.728	15.86
658.056	15.43
658.383	15.61
658.711	15.87
659.038	15.33
659.365	14.97
659.693	15.33
660.02	15.15
660.347	15.76
660.674	15.44
661.001	15.36
661.329	15.33
661.656	15.47
661.982	15.23
662.309	15.79
662.636	15.81
662.963	15.76
663.29	15.67
663.616	15.97
663.943	15.15
664.27	15.92
664.596	15.59
664.923	15.59
665.249	16.09
665.576	15.9
665.902	16.41
666.228	16.35
666.554	15.67
666.881	15.81
667.207	16.27
667.533	16.53
667.859	16.21
668.185	16.44
668.511	15.81
668.837	16.3
669.162	16.5
669.488	16.06
669.814	15.39
670.139	16.01
670.465	16.08
670.791	16.13
671.116	16.75
671.442	16.48
671.767	16.29
672.092	16.56
672.418	15.79
672.743	16.27
673.068	16.65
673.393	16.64
673.718	16.24
674.043	16.54
674.368	17.02
674.693	16.22
675.018	15.97
675.343	16.51
675.667	16.82
675.992	16.13
676.317	16.53
676.641	15.91
676.966	16.78
677.29	17.14
677.615	16.72
677.939	17.25
678.264	16.7
678.588	17.11
678.912	16.68
679.236	17.26
679.56	16.8
679.885	16.98
680.209	16.69
680.532	16.16
680.856	16.87
681.18	16.36
681.504	16.42
681.828	17.21
682.152	16.86
682.475	16.68
682.799	16.6
683.122	17.27
683.446	17.56
683.769	16.9
