Data from 0023_crown_Reflection__3__49.txt Node

Date: Thu Oct 20 20:42:49 CDT 2022
User: ToomeyLab
Spectrometer: FLMS14357
Trigger mode: 0
Integration Time (sec): 1.000000E-2
Scans to average: 100
Electric dark correction enabled: true
Nonlinearity correction enabled: false
Boxcar width: 0
XAxis mode: Wavelengths
Number of Pixels in Spectrum: 2048
>>>>>Begin Spectral Data<<<<<
189.047	320.24
189.435	320.24
189.823	320.24
190.211	428.2
190.599	247.75
190.987	-20.88
191.375	-1604.69
191.763	340.9
192.151	1.31
192.538	48.03
192.926	-278.97
193.314	117.34
193.702	96.52
194.089	-201.3
194.477	17.77
194.864	151.74
195.252	66.61
195.639	10.09
196.027	66.06
196.414	-21.45
196.801	-102.46
197.189	6.25
197.576	-16.09
197.963	521.87
198.351	41.45
198.738	69.29
199.125	48.57
199.512	22.27
199.899	17.62
200.286	46.95
200.673	14.89
201.06	32.01
201.447	55.62
201.833	11.67
202.22	22.35
202.607	26.34
202.994	37.01
203.38	9.9
203.767	26.71
204.154	35.92
204.54	31.87
204.927	20.27
205.313	64.23
205.699	33.16
206.086	48.36
206.472	54.88
206.858	23.24
207.245	48.37
207.631	-1.37
208.017	32.86
208.403	7.6
208.789	42.28
209.175	48.03
209.561	16.1
209.947	35.72
210.333	57.54
210.719	20
211.105	-40.56
211.491	40.87
211.876	13.99
212.262	3.2
212.648	10.05
213.034	28.18
213.419	17.38
213.805	-0.12
214.19	16.63
214.576	5.66
214.961	14.83
215.346	9.75
215.732	23.67
216.117	22.37
216.502	26.52
216.888	42.54
217.273	68.44
217.658	40.52
218.043	1.12
218.428	15.14
218.813	2.99
219.198	33.15
219.583	31.95
219.968	13.98
220.353	-8.28
220.738	13.17
221.122	6.55
221.507	6.75
221.892	14.98
222.276	8.03
222.661	11.71
223.046	17.23
223.43	10.79
223.815	5.28
224.199	4.18
224.583	4.34
224.968	8.96
225.352	12.85
225.736	8.33
226.121	10.23
226.505	4.97
226.889	7.06
227.273	6.43
227.657	8.65
228.041	9.3
228.425	6.71
228.809	4.08
229.193	6.62
229.577	5.77
229.961	4.07
230.344	5.05
230.728	5.5
231.112	4.75
231.495	5.03
231.879	5.83
232.263	6.46
232.646	5.46
233.03	3.72
233.413	5.05
233.797	4.1
234.18	3.8
234.563	3.2
234.946	4.13
235.33	4.42
235.713	6.05
236.096	4.72
236.479	3.93
236.862	7.33
237.245	5.35
237.628	4.84
238.011	4.29
238.394	4.95
238.777	4.32
239.16	5.54
239.543	5
239.925	4.93
240.308	5.77
240.691	5.75
241.073	6.4
241.456	4.14
241.838	4.61
242.221	5.42
242.603	5.04
242.986	4.7
243.368	4.63
243.75	4.8
244.133	4.92
244.515	5.24
244.897	5.23
245.279	4.46
245.661	5.15
246.043	4.61
246.425	5.78
246.807	4.91
247.189	5.09
247.571	4.95
247.953	4.79
248.335	4.7
248.717	4.82
249.098	4.61
249.48	4.98
249.862	4.88
250.243	5.16
250.625	5.31
251.006	5.63
251.388	5.18
251.769	5.26
252.151	5.18
252.532	5.28
252.913	5.16
253.295	4.99
253.676	4.87
254.057	4.96
254.438	5.25
254.819	6.16
255.2	4.98
255.581	5.6
255.962	5.59
256.343	7.15
256.724	4.8
257.105	5.32
257.486	5.17
257.867	5
258.247	4.4
258.628	4.63
259.009	4.79
259.389	5.02
259.77	5.34
260.15	4.84
260.531	5.09
260.911	4.49
261.292	4.46
261.672	4.67
262.052	4.71
262.432	5
262.813	5.14
263.193	4.58
263.573	3.87
263.953	4.52
264.333	4.89
264.713	4.64
265.093	5.22
265.473	4.92
265.853	4.34
266.233	5.03
266.612	4.48
266.992	5.46
267.372	4.77
267.752	4.57
268.131	4.42
268.511	4.42
268.89	4.75
269.27	4.79
269.649	4.55
270.029	4.85
270.408	4.4
270.787	4.42
271.167	5.24
271.546	4.42
271.925	4.56
272.304	4.67
272.683	4.6
273.062	4.6
273.441	4.67
273.82	4.41
274.199	4.67
274.578	4.88
274.957	4.77
275.336	5.15
275.715	4.65
276.093	4.37
276.472	4.48
276.851	4.7
277.229	4.25
277.608	4.2
277.986	4.4
278.365	4.05
278.743	4.2
279.122	5.1
279.5	3.95
279.878	4.65
280.257	4.8
280.635	5.03
281.013	4.92
281.391	4.74
281.769	4.57
282.147	5.06
282.525	4.35
282.903	4.33
283.281	4.88
283.659	4.65
284.037	4.59
284.415	4.79
284.792	4.36
285.17	4.16
285.548	4.44
285.925	4.69
286.303	4.87
286.68	4.54
287.058	4.61
287.435	4.47
287.813	4.35
288.19	4.77
288.567	4.18
288.945	5.21
289.322	4.15
289.699	5.43
290.076	4.95
290.453	4.63
290.83	5.01
291.207	5.1
291.584	4.09
291.961	4.61
292.338	4.37
292.715	4.33
293.092	5.05
293.469	5.08
293.845	4.61
294.222	4.44
294.599	5.52
294.975	5.07
295.352	5.44
295.728	5.25
296.105	4.99
296.481	5.24
296.858	5.03
297.234	5.24
297.61	4.95
297.986	4.67
298.363	5.21
298.739	5.21
299.115	5.09
299.491	5.35
299.867	5.19
300.243	5.14
300.619	5.45
300.995	4.98
301.371	5.21
301.746	5.11
302.122	5.12
302.498	5.72
302.874	5.45
303.249	5.1
303.625	5.34
304	5.56
304.376	5.55
304.751	5.18
305.127	4.89
305.502	5.25
305.878	5.42
306.253	5.41
306.628	5.36
307.003	5.52
307.378	5.42
307.754	5.72
308.129	5.8
308.504	5.16
308.879	5.83
309.254	5.78
309.629	5.36
310.003	5.83
310.378	5.57
310.753	5.45
311.128	5.45
311.502	5.46
311.877	5.42
312.252	5.7
312.626	5.39
313.001	5.59
313.375	5.72
313.75	5.5
314.124	5.39
314.498	5.77
314.873	6.02
315.247	5.85
315.621	5.72
315.995	5.99
316.369	5.63
316.743	5.84
317.117	6.02
317.491	5.72
317.865	6.27
318.239	6.44
318.613	5.99
318.987	5.73
319.361	5.87
319.734	6.17
320.108	6.51
320.482	5.72
320.855	5.72
321.229	6
321.602	6.23
321.976	6.05
322.349	5.81
322.723	6.99
323.096	5.86
323.469	6.16
323.843	6.2
324.216	6.25
324.589	6.51
324.962	6.13
325.335	5.64
325.708	6.17
326.081	6.5
326.454	6.47
326.827	5.66
327.2	6.59
327.573	6.39
327.945	6.5
328.318	6.48
328.691	6.21
329.063	5.67
329.436	5.69
329.809	6.16
330.181	6.86
330.553	5.78
330.926	5.95
331.298	5.53
331.671	6.42
332.043	6.54
332.415	6.23
332.787	6.47
333.159	6.3
333.532	6
333.904	6.26
334.276	6.78
334.648	6.15
335.02	6.16
335.391	6.2
335.763	6.3
336.135	6.3
336.507	6.27
336.879	6.5
337.25	5.72
337.622	6.01
337.993	6.58
338.365	6.71
338.736	6.56
339.108	6.13
339.479	6.5
339.851	6.71
340.222	6.2
340.593	6.26
340.964	6.41
341.336	6.39
341.707	6.3
342.078	6.27
342.449	6.49
342.82	6.35
343.191	6.58
343.562	6.34
343.933	6.34
344.303	6.83
344.674	6.09
345.045	6.43
345.416	6.48
345.786	6.76
346.157	6.52
346.527	6.36
346.898	6.22
347.268	6.26
347.639	6.47
348.009	6.27
348.38	6.6
348.75	6.08
349.12	6.11
349.49	6.3
349.861	6.87
350.231	6.34
350.601	6.8
350.971	6.3
351.341	6.13
351.711	6.34
352.081	6.82
352.45	6.42
352.82	6.46
353.19	6.3
353.56	6.29
353.929	6.5
354.299	6.08
354.669	6.69
355.038	6.12
355.408	6.25
355.777	6.44
356.147	6.52
356.516	6.85
356.885	6.74
357.254	6.52
357.624	5.99
357.993	6.55
358.362	6.47
358.731	6.53
359.1	6.62
359.469	6.78
359.838	6.49
360.207	6.6
360.576	6.39
360.945	6.47
361.314	6.63
361.682	6.66
362.051	6.46
362.42	6.24
362.788	6.43
363.157	6.37
363.525	6.4
363.894	6.31
364.262	6.31
364.631	6.56
364.999	6.56
365.367	6.19
365.735	6.54
366.104	6.62
366.472	6.74
366.84	6.27
367.208	6.69
367.576	6.41
367.944	6.89
368.312	6.57
368.68	7.16
369.048	6.48
369.416	6.75
369.783	6.83
370.151	6.62
370.519	7.03
370.886	6.62
371.254	6.71
371.621	6.75
371.989	6.6
372.356	7.05
372.724	6.85
373.091	6.99
373.458	6.66
373.826	6.76
374.193	6.71
374.56	6.88
374.927	6.95
375.294	7.08
375.661	6.78
376.028	6.64
376.395	6.58
376.762	6.83
377.129	6.87
377.496	7.01
377.863	6.92
378.229	6.86
378.596	6.89
378.963	6.86
379.329	6.54
379.696	6.86
380.062	6.78
380.429	6.86
380.795	6.74
381.161	7.01
381.528	6.78
381.894	6.5
382.26	6.89
382.626	6.91
382.993	6.87
383.359	6.88
383.725	7.03
384.091	6.96
384.457	6.73
384.823	6.76
385.188	7.04
385.554	6.98
385.92	6.92
386.286	7.05
386.651	6.82
387.017	6.86
387.383	7.02
387.748	6.79
388.114	6.97
388.479	7.24
388.845	7.22
389.21	6.91
389.575	6.92
389.94	7.24
390.306	7.03
390.671	6.68
391.036	7.09
391.401	6.94
391.766	7.22
392.131	7.01
392.496	7.02
392.861	6.95
393.226	7.17
393.591	6.78
393.956	6.99
394.32	7.06
394.685	7.02
395.05	6.85
395.414	7.07
395.779	7.27
396.143	7.14
396.508	6.99
396.872	6.9
397.236	7.27
397.601	7.18
397.965	7.04
398.329	7.03
398.694	7
399.058	7.04
399.422	6.98
399.786	7.22
400.15	7.07
400.514	7.07
400.878	7.29
401.242	7.18
401.605	7.2
401.969	7.02
402.333	7.11
402.697	7.3
403.06	7.16
403.424	7.35
403.787	6.86
404.151	7.16
404.514	7.01
404.878	7.05
405.241	7.25
405.604	7.29
405.968	7.01
406.331	7.24
406.694	7.13
407.057	7.01
407.42	7.13
407.783	7.08
408.146	7.13
408.509	7.25
408.872	7.15
409.235	7.49
409.598	7.2
409.961	7.22
410.323	7.15
410.686	7.12
411.049	7.15
411.411	7.37
411.774	7.45
412.136	7.26
412.499	7.25
412.861	7.01
413.223	7.62
413.586	7.52
413.948	7.39
414.31	7.39
414.672	7.34
415.035	7.53
415.397	7.56
415.759	7.53
416.121	7.18
416.483	7.45
416.845	7.41
417.206	7.48
417.568	7.48
417.93	7.26
418.292	7.29
418.653	7.26
419.015	7.3
419.377	7.29
419.738	7.4
420.1	7.28
420.461	7.35
420.822	7.4
421.184	7.36
421.545	7.37
421.906	7.29
422.267	7.26
422.629	7.3
422.99	7.13
423.351	7.27
423.712	7.23
424.073	7.29
424.434	7.28
424.795	7.3
425.155	7.36
425.516	7.29
425.877	7.3
426.238	7.33
426.598	7.19
426.959	7.41
427.32	7.38
427.68	7.42
428.041	7.52
428.401	7.62
428.761	7.48
429.122	7.51
429.482	7.63
429.842	7.57
430.202	7.66
430.563	7.71
430.923	7.64
431.283	7.82
431.643	7.59
432.003	7.8
432.363	7.69
432.722	7.82
433.082	7.73
433.442	7.71
433.802	7.64
434.161	7.78
434.521	7.79
434.881	7.7
435.24	7.59
435.6	7.61
435.959	7.77
436.319	7.81
436.678	7.65
437.037	7.88
437.396	7.79
437.756	7.75
438.115	7.65
438.474	7.78
438.833	7.82
439.192	7.69
439.551	7.66
439.91	7.78
440.269	7.85
440.628	7.76
440.987	7.82
441.345	7.78
441.704	7.78
442.063	7.67
442.421	7.76
442.78	7.82
443.138	7.83
443.497	7.62
443.855	7.73
444.214	7.73
444.572	7.82
444.93	7.8
445.288	7.9
445.647	7.8
446.005	7.76
446.363	7.98
446.721	7.91
447.079	7.79
447.437	7.8
447.795	7.82
448.153	7.78
448.51	7.76
448.868	7.8
449.226	7.89
449.584	7.87
449.941	7.86
450.299	7.87
450.656	7.82
451.014	8.01
451.371	8.03
451.729	8
452.086	7.93
452.443	8.09
452.801	8.11
453.158	8.06
453.515	8.01
453.872	8.07
454.229	8.18
454.586	8.03
454.943	8.19
455.3	8.22
455.657	8.17
456.014	8.24
456.371	8.13
456.727	8.22
457.084	8.23
457.441	8.16
457.797	8.43
458.154	8.26
458.51	8.29
458.867	8.13
459.223	8.2
459.58	8.15
459.936	8.21
460.292	8.13
460.648	8.26
461.005	8.14
461.361	7.91
461.717	8.14
462.073	8.09
462.429	8.18
462.785	8.09
463.141	8.1
463.496	8.17
463.852	8.41
464.208	8.49
464.564	8.5
464.919	8.67
465.275	8.14
465.631	8.28
465.986	8.28
466.342	8.28
466.697	8.3
467.052	8.38
467.408	8.28
467.763	8.3
468.118	8.36
468.473	8.37
468.829	8.44
469.184	8.32
469.539	8.4
469.894	8.29
470.249	8.28
470.603	8.43
470.958	8.54
471.313	8.47
471.668	8.44
472.023	8.49
472.377	8.46
472.732	8.51
473.086	8.55
473.441	8.61
473.795	8.53
474.15	8.51
474.504	8.55
474.859	8.62
475.213	8.43
475.567	8.58
475.921	8.55
476.275	8.5
476.63	8.45
476.984	8.64
477.338	8.64
477.692	8.85
478.045	8.63
478.399	8.67
478.753	8.55
479.107	8.59
479.461	8.66
479.814	8.46
480.168	8.73
480.521	8.55
480.875	8.54
481.228	8.65
481.582	8.71
481.935	8.71
482.289	8.73
482.642	8.59
482.995	8.64
483.348	8.57
483.701	8.61
484.055	8.56
484.408	8.51
484.761	8.49
485.114	8.37
485.466	8.31
485.819	8.25
486.172	8.21
486.525	8.31
486.878	8.33
487.23	8.4
487.583	8.51
487.936	8.51
488.288	8.51
488.641	8.52
488.993	8.48
489.345	8.45
489.698	8.5
490.05	8.51
490.402	8.51
490.754	8.63
491.107	8.6
491.459	8.67
491.811	8.8
492.163	8.79
492.515	8.76
492.866	8.74
493.218	8.6
493.57	8.61
493.922	8.59
494.274	8.75
494.625	8.82
494.977	8.81
495.328	8.96
495.68	8.95
496.031	9.01
496.383	9.03
496.734	9.11
497.086	9.06
497.437	9.12
497.788	9.12
498.139	9.11
498.49	8.99
498.842	9.12
499.193	9.01
499.544	9.13
499.894	9.11
500.245	9.07
500.596	8.98
500.947	9.21
501.298	9.25
501.648	9.27
501.999	9.27
502.35	9.37
502.7	9.42
503.051	9.32
503.401	9.38
503.752	9.28
504.102	9.41
504.452	9.46
504.803	9.51
505.153	9.45
505.503	9.41
505.853	9.38
506.203	9.47
506.553	9.35
506.903	9.44
507.253	9.5
507.603	9.5
507.953	9.46
508.303	9.46
508.652	9.57
509.002	9.64
509.352	9.65
509.701	9.42
510.051	9.63
510.4	9.4
510.75	9.43
511.099	9.5
511.449	9.49
511.798	9.62
512.147	9.6
512.496	9.71
512.846	9.53
513.195	9.53
513.544	9.71
513.893	9.59
514.242	9.75
514.591	9.74
514.939	9.68
515.288	9.92
515.637	9.78
515.986	9.99
516.334	9.8
516.683	9.68
517.032	9.85
517.38	9.85
517.729	9.96
518.077	9.86
518.426	9.87
518.774	9.93
519.122	9.91
519.47	9.83
519.819	9.81
520.167	9.86
520.515	9.86
520.863	9.87
521.211	9.94
521.559	10.02
521.907	9.83
522.255	9.91
522.602	9.94
522.95	10
523.298	10.12
523.645	10.02
523.993	10.17
524.341	10.09
524.688	10.14
525.036	10.29
525.383	10.23
525.73	10.26
526.078	10.19
526.425	10.26
526.772	10.14
527.119	10.19
527.466	10.2
527.814	10.25
528.161	10.2
528.508	10.27
528.854	10.25
529.201	10.24
529.548	10.14
529.895	10.07
530.242	10.05
530.588	10
530.935	10.03
531.282	10.04
531.628	10.04
531.975	10.19
532.321	10.29
532.667	10.3
533.014	10.32
533.36	10.4
533.706	10.5
534.052	10.46
534.399	10.38
534.745	10.38
535.091	10.42
535.437	10.4
535.783	10.31
536.129	10.41
536.474	10.5
536.82	10.67
537.166	10.77
537.512	10.82
537.857	10.79
538.203	10.66
538.549	10.73
538.894	10.78
539.239	10.71
539.585	10.65
539.93	10.85
540.276	10.94
540.621	10.97
540.966	11.04
541.311	11.09
541.656	11.07
542.001	10.92
542.346	10.99
542.691	10.92
543.036	10.81
543.381	10.77
543.726	10.77
544.071	10.8
544.415	10.92
544.76	10.99
545.105	11.04
545.449	11.11
545.794	11.2
546.138	11.25
546.483	11.3
546.827	11.36
547.171	11.34
547.516	11.25
547.86	11.28
548.204	11.41
548.548	11.48
548.892	11.53
549.236	11.53
549.58	11.35
549.924	11.59
550.268	11.64
550.612	11.67
550.956	11.58
551.3	11.69
551.643	11.79
551.987	11.9
552.33	12.17
552.674	11.79
553.017	11.82
553.361	11.97
553.704	11.94
554.048	11.93
554.391	11.98
554.734	11.8
555.077	11.97
555.42	11.8
555.764	11.98
556.107	12.08
556.45	12.17
556.793	12.08
557.135	12.23
557.478	12.32
557.821	12.32
558.164	12.13
558.507	12.32
558.849	12.22
559.192	12.5
559.534	12.5
559.877	12.55
560.219	12.35
560.562	12.45
560.904	12.69
561.246	12.2
561.589	12.57
561.931	12.58
562.273	12.52
562.615	12.5
562.957	12.75
563.299	12.84
563.641	12.59
563.983	12.75
564.325	12.7
564.667	12.82
565.008	12.78
565.35	12.7
565.692	12.88
566.033	12.84
566.375	12.84
566.716	12.78
567.058	12.63
567.399	13.09
567.741	12.99
568.082	12.98
568.423	13.03
568.764	13.07
569.105	13.05
569.447	13.2
569.788	13.02
570.129	13.19
570.47	13.29
570.811	13.05
571.151	13.32
571.492	13.43
571.833	13.43
572.174	13.18
572.514	13.27
572.855	13.51
573.195	13.38
573.536	13.4
573.876	13.5
574.217	13.35
574.557	13.51
574.898	13.55
575.238	13.73
575.578	13.8
575.918	13.68
576.258	13.82
576.598	13.45
576.938	13.67
577.278	13.71
577.618	13.7
577.958	14
578.298	13.92
578.638	13.8
578.977	13.9
579.317	13.64
579.657	14.13
579.996	14.06
580.336	14.12
580.675	13.88
581.014	14.25
581.354	14.36
581.693	14.29
582.032	14.23
582.372	14.29
582.711	14.27
583.05	14.47
583.389	14.55
583.728	14.55
584.067	14.34
584.406	14.38
584.745	14.56
585.083	14.76
585.422	14.55
585.761	14.9
586.1	14.62
586.438	14.52
586.777	14.83
587.115	14.95
587.454	14.81
587.792	14.62
588.13	14.83
588.469	14.94
588.807	14.89
589.145	14.71
589.483	14.74
589.821	14.94
590.159	15.07
590.497	15.14
590.835	15.03
591.173	15.05
591.511	15.23
591.849	15.14
592.187	15.2
592.524	15.21
592.862	15.44
593.2	15.27
593.537	15.33
593.875	15.19
594.212	15.56
594.55	15.38
594.887	15.62
595.224	15.37
595.561	15.66
595.899	15.55
596.236	15.58
596.573	15.53
596.91	15.66
597.247	15.59
597.584	15.51
597.921	15.5
598.258	15.83
598.594	15.66
598.931	15.56
599.268	15.57
599.604	15.84
599.941	16.07
600.277	15.84
600.614	15.67
600.95	16.37
601.287	16.07
601.623	16.07
601.959	16.2
602.296	15.88
602.632	16.1
602.968	16.3
603.304	16.32
603.64	16.27
603.976	16.62
604.312	16.14
604.648	16.31
604.984	16.28
605.319	16.43
605.655	16.42
605.991	16.27
606.326	16.56
606.662	16.3
606.998	16.37
607.333	16.69
607.668	16.57
608.004	16.66
608.339	16.73
608.674	16.79
609.01	16.75
609.345	16.73
609.68	17.09
610.015	16.97
610.35	16.96
610.685	16.78
611.02	16.78
611.355	16.78
611.689	17.09
612.024	17.04
612.359	17.04
612.694	16.99
613.028	17.12
613.363	17.26
613.697	17.33
614.032	17.56
614.366	17.39
614.7	17.4
615.035	17.45
615.369	17.32
615.703	17.45
616.037	17.43
616.371	17.53
616.705	17.93
617.039	17.91
617.373	17.94
617.707	17.52
618.041	17.64
618.375	17.53
618.709	17.7
619.042	17.69
619.376	17.5
619.71	17.59
620.043	17.97
620.377	17.95
620.71	17.96
621.043	17.85
621.377	18.2
621.71	18.11
622.043	18.05
622.376	18.23
622.709	18.12
623.043	18.73
623.376	18.15
623.709	18.15
624.041	18.21
624.374	18.65
624.707	18.45
625.04	18.29
625.373	18.61
625.705	18.55
626.038	18.62
626.37	18.58
626.703	18.38
627.035	18.54
627.368	18.61
627.7	18.75
628.032	18.6
628.365	18.66
628.697	18.65
629.029	18.63
629.361	18.9
629.693	18.75
630.025	18.7
630.357	18.84
630.689	19.02
631.021	18.76
631.353	19.02
631.684	19.31
632.016	19.28
632.348	19.28
632.679	19.3
633.011	19.12
633.342	19.55
633.674	19.2
634.005	19.4
634.336	19.48
634.668	19.28
634.999	19.08
635.33	19.18
635.661	19.81
635.992	19.23
636.323	19.96
636.654	19.49
636.985	19.86
637.316	19.5
637.647	19.43
637.977	19.66
638.308	19.76
638.639	19.57
638.969	19.61
639.3	19.71
639.63	19.95
639.961	19.94
640.291	19.88
640.622	19.49
640.952	20.13
641.282	20.13
641.612	20.08
641.943	20.04
642.273	20.68
642.603	20.14
642.933	19.97
643.263	20.18
643.592	20.36
643.922	20.19
644.252	20.26
644.582	19.97
644.911	20.03
645.241	20.68
645.571	20.41
645.9	20.57
646.23	20.76
646.559	19.98
646.888	20.8
647.218	21.03
647.547	20.86
647.876	20.99
648.205	20.72
648.534	20.78
648.863	20.73
649.192	20.7
649.521	21.42
649.85	21.23
650.179	21.04
650.508	20.91
650.837	21.02
651.165	21.03
651.494	21.41
651.822	21.17
652.151	20.84
652.479	21.11
652.808	21.38
653.136	21.11
653.465	21.19
653.793	21.26
654.121	21.55
654.449	21.1
654.777	21.11
655.105	21.42
655.433	21.38
655.761	21.65
656.089	21.77
656.417	21.5
656.745	21.38
657.073	21.79
657.4	21.85
657.728	22.48
658.056	21.79
658.383	21.92
658.711	22.19
659.038	22.03
659.365	21.92
659.693	22.41
660.02	21.82
660.347	22.21
660.674	21.39
661.001	21.83
661.329	21.83
661.656	22.22
661.982	21.75
662.309	22.23
662.636	22.24
662.963	22.13
663.29	22.13
663.616	22.33
663.943	22.15
664.27	21.79
664.596	22.02
664.923	22.12
665.249	22.08
665.576	22.35
665.902	23.23
666.228	22.75
666.554	22.07
666.881	23
667.207	22.81
667.533	22.95
667.859	22.57
668.185	22.8
668.511	22.36
668.837	22.96
669.162	23.11
669.488	22.88
669.814	22.99
670.139	22.64
670.465	22.34
670.791	22.95
671.116	23.51
671.442	22.78
671.767	23.18
672.092	22.71
672.418	22.47
672.743	23.36
673.068	23.46
673.393	22.96
673.718	23.6
674.043	23.85
674.368	23.5
674.693	23.64
675.018	23.1
675.343	23.15
675.667	23.74
675.992	23.45
676.317	23.58
676.641	23.14
676.966	23.85
677.29	23.65
677.615	22.98
677.939	23.78
678.264	24.11
678.588	24.12
678.912	23.5
679.236	24.05
679.56	24.14
679.885	23.66
680.209	24.38
680.532	23.81
680.856	23.57
681.18	24.01
681.504	23.99
681.828	24.42
682.152	24.23
682.475	23.89
