Data from 0023_crown_Reflection__0__51.txt Node

Date: Thu Oct 20 20:44:49 CDT 2022
User: ToomeyLab
Spectrometer: FLMS14357
Trigger mode: 0
Integration Time (sec): 1.000000E-2
Scans to average: 100
Electric dark correction enabled: true
Nonlinearity correction enabled: false
Boxcar width: 0
XAxis mode: Wavelengths
Number of Pixels in Spectrum: 2048
>>>>>Begin Spectral Data<<<<<
189.047	418.75
189.435	418.75
189.823	418.75
190.211	192.61
190.599	216.94
190.987	-103.19
191.375	687.5
191.763	49.26
192.151	-90.52
192.538	-59.24
192.926	-282.17
193.314	84.44
193.702	86.71
194.089	7.14
194.477	74.78
194.864	236.9
195.252	151.9
195.639	-8.26
196.027	18.35
196.414	-80.22
196.801	-256.06
197.189	-329.52
197.576	-0.52
197.963	275
198.351	10.76
198.738	21.3
199.125	31.11
199.512	27.61
199.899	27.43
200.286	13.12
200.673	6.47
201.06	24.69
201.447	7.89
201.833	-31.43
202.22	20.39
202.607	14.36
202.994	50.81
203.38	-61.9
203.767	6.96
204.154	0.22
204.54	33.42
204.927	38.73
205.313	38.12
205.699	7.52
206.086	9.99
206.472	34.23
206.858	7.49
207.245	28.34
207.631	3.86
208.017	3.12
208.403	37.2
208.789	20.73
209.175	40.69
209.561	-1.58
209.947	20.34
210.333	3.72
210.719	-8.47
211.105	-39.87
211.491	-33.5
211.876	17.46
212.262	-14.26
212.648	-32.57
213.034	19.81
213.419	21.28
213.805	27.97
214.19	13.14
214.576	5.72
214.961	10.58
215.346	-2.05
215.732	6.35
216.117	5.65
216.502	18.46
216.888	18.91
217.273	33.43
217.658	22.92
218.043	-16.25
218.428	8.71
218.813	-9.11
219.198	11.88
219.583	21.38
219.968	-2.26
220.353	-7.92
220.738	10.19
221.122	12.74
221.507	2.77
221.892	-4.25
222.276	-3.49
222.661	12
223.046	12.43
223.43	2.58
223.815	-7.42
224.199	4.76
224.583	13.24
224.968	2.04
225.352	5.4
225.736	2.05
226.121	13.52
226.505	7.19
226.889	6.12
227.273	2.91
227.657	2.53
228.041	1.68
228.425	3.71
228.809	5.56
229.193	4.66
229.577	4.1
229.961	3.76
230.344	3.14
230.728	3.89
231.112	4.06
231.495	2.27
231.879	3.28
232.263	4
232.646	4.04
233.03	3.25
233.413	3.7
233.797	2.8
234.18	1.84
234.563	2.16
234.946	1.56
235.33	2.77
235.713	4.23
236.096	3.99
236.479	2.29
236.862	5.38
237.245	2.64
237.628	3.05
238.011	2.09
238.394	4.41
238.777	1.93
239.16	2.52
239.543	3.1
239.925	3.87
240.308	3.53
240.691	3.33
241.073	3.89
241.456	1.89
241.838	2.59
242.221	3.65
242.603	3.91
242.986	3.66
243.368	3.42
243.75	3.68
244.133	3.55
244.515	3.93
244.897	3.63
245.279	3.49
245.661	3.4
246.043	2.98
246.425	3.41
246.807	4.21
247.189	3.31
247.571	3.16
247.953	3.4
248.335	3.36
248.717	3.47
249.098	3.46
249.48	3.42
249.862	3.69
250.243	3.41
250.625	3.88
251.006	3.79
251.388	4.06
251.769	2.88
252.151	3.83
252.532	3.03
252.913	3.41
253.295	3
253.676	3.44
254.057	3.31
254.438	4.11
254.819	4.31
255.2	2.49
255.581	4.1
255.962	2.69
256.343	4.61
256.724	3.14
257.105	3.81
257.486	2.8
257.867	3.06
258.247	3.09
258.628	2.8
259.009	2.92
259.389	2.82
259.77	3.82
260.15	3.1
260.531	3.34
260.911	2.96
261.292	3.14
261.672	3.21
262.052	3.65
262.432	3.81
262.813	3.09
263.193	3.41
263.573	2.73
263.953	3.29
264.333	3.15
264.713	3.07
265.093	3.77
265.473	3.82
265.853	2.98
266.233	2.4
266.612	3.28
266.992	4.08
267.372	3.56
267.752	3.09
268.131	3.06
268.511	3.04
268.89	3.31
269.27	3.5
269.649	3.09
270.029	3.76
270.408	3.42
270.787	3.12
271.167	3.5
271.546	3.28
271.925	3.23
272.304	3.22
272.683	3.43
273.062	3.43
273.441	3.31
273.82	3.18
274.199	2.98
274.578	3.52
274.957	3.64
275.336	3.3
275.715	3.31
276.093	3.6
276.472	3.05
276.851	3.12
277.229	2.53
277.608	3.26
277.986	2.74
278.365	2.86
278.743	3.46
279.122	3.59
279.5	3.03
279.878	2.83
280.257	3.2
280.635	3.29
281.013	3.75
281.391	3.19
281.769	3.1
282.147	3.51
282.525	3.05
282.903	2.85
283.281	3.03
283.659	3.19
284.037	3
284.415	3.29
284.792	2.4
285.17	3.07
285.548	2.72
285.925	3.09
286.303	3.29
286.68	3.25
287.058	3.1
287.435	3.2
287.813	2.83
288.19	3.27
288.567	2.86
288.945	3.21
289.322	2.3
289.699	3.31
290.076	2.98
290.453	3.24
290.83	2.98
291.207	3.32
291.584	2.7
291.961	3.04
292.338	2.64
292.715	3.22
293.092	3.53
293.469	3.65
293.845	3.32
294.222	3.02
294.599	3.32
294.975	3.15
295.352	3.59
295.728	3.66
296.105	3.56
296.481	2.79
296.858	2.92
297.234	3.17
297.61	3.24
297.986	2.94
298.363	2.99
298.739	3.14
299.115	3.16
299.491	3.53
299.867	3.25
300.243	3.24
300.619	3.5
300.995	2.99
301.371	3.36
301.746	3.2
302.122	2.9
302.498	3.65
302.874	3.19
303.249	2.91
303.625	3.19
304	3.59
304.376	3.25
304.751	3.05
305.127	2.44
305.502	2.82
305.878	3.29
306.253	3.51
306.628	3.09
307.003	3.44
307.378	3.38
307.754	3.09
308.129	3.07
308.504	2.84
308.879	3.08
309.254	3.14
309.629	3.14
310.003	3.09
310.378	3.45
310.753	3.25
311.128	2.89
311.502	3.39
311.877	3.05
312.252	3.41
312.626	3.04
313.001	3.11
313.375	3.32
313.75	3.29
314.124	3.32
314.498	2.72
314.873	3.26
315.247	3.25
315.621	2.99
315.995	3.25
316.369	2.91
316.743	3.28
317.117	3.04
317.491	3.51
317.865	3.56
318.239	3.4
318.613	3.23
318.987	4.03
319.361	3.08
319.734	3.22
320.108	4.04
320.482	2.89
320.855	3.45
321.229	3.56
321.602	3.73
321.976	3.32
322.349	2.97
322.723	3.37
323.096	3.11
323.469	3.38
323.843	3.65
324.216	3.19
324.589	3.42
324.962	3.35
325.335	2.82
325.708	3.17
326.081	3.31
326.454	3.24
326.827	3.45
327.2	3.24
327.573	3.47
327.945	3.39
328.318	3.49
328.691	3.45
329.063	3.2
329.436	2.41
329.809	3.32
330.181	3.17
330.553	3.12
330.926	2.85
331.298	2.69
331.671	3.56
332.043	3.61
332.415	3.32
332.787	3.6
333.159	3.31
333.532	3.39
333.904	2.71
334.276	3.38
334.648	3.61
335.02	2.97
335.391	3.62
335.763	3.47
336.135	3.53
336.507	3.31
336.879	3.06
337.25	3.17
337.622	3.66
337.993	3.26
338.365	3.45
338.736	3.32
339.108	2.93
339.479	3.12
339.851	3.53
340.222	3.35
340.593	2.83
340.964	3.36
341.336	3.3
341.707	3.24
342.078	3.42
342.449	3.25
342.82	3.27
343.191	3.2
343.562	3.44
343.933	3.44
344.303	3.47
344.674	2.83
345.045	3.28
345.416	3.22
345.786	3.54
346.157	3.11
346.527	2.88
346.898	3.14
347.268	3.09
347.639	3.38
348.009	3.19
348.38	3.16
348.75	3.05
349.12	2.89
349.49	3.51
349.861	3.72
350.231	3.53
350.601	3.19
350.971	3.35
351.341	3.43
351.711	3.22
352.081	3.75
352.45	3.34
352.82	3.35
353.19	3.36
353.56	3.01
353.929	3.18
354.299	2.58
354.669	3.25
355.038	2.82
355.408	3.19
355.777	3.25
356.147	3.46
356.516	3.11
356.885	3.42
357.254	3.45
357.624	3.2
357.993	3.15
358.362	3.32
358.731	3.15
359.1	3.17
359.469	3.34
359.838	3.38
360.207	3.42
360.576	3.28
360.945	2.82
361.314	3.38
361.682	3.12
362.051	3.34
362.42	2.93
362.788	3.12
363.157	3.26
363.525	3.12
363.894	3.17
364.262	3.25
364.631	3.59
364.999	3.15
365.367	3.13
365.735	3.24
366.104	3.52
366.472	3.45
366.84	3.31
367.208	3.35
367.576	3.19
367.944	3.75
368.312	3.51
368.68	3.35
369.048	2.79
369.416	3.57
369.783	3.5
370.151	3.41
370.519	3.84
370.886	3.36
371.254	3.58
371.621	2.81
371.989	2.9
372.356	3.64
372.724	3.54
373.091	3.52
373.458	3.34
373.826	3.61
374.193	3.61
374.56	3.59
374.927	3.53
375.294	3.21
375.661	3.27
376.028	3.12
376.395	3.19
376.762	3.35
377.129	3.52
377.496	3.35
377.863	3.44
378.229	3.46
378.596	3.17
378.963	3.37
379.329	3.18
379.696	3.68
380.062	3.36
380.429	3.31
380.795	3.3
381.161	3.18
381.528	3.11
381.894	3.53
382.26	3.11
382.626	3.27
382.993	3.25
383.359	3.49
383.725	3.48
384.091	3.22
384.457	3.41
384.823	3.35
385.188	3.38
385.554	3.56
385.92	3.06
386.286	3.34
386.651	3.28
387.017	3
387.383	3.32
387.748	3.33
388.114	3.37
388.479	3.43
388.845	3.31
389.21	3.25
389.575	3.06
389.94	3.31
390.306	3.13
390.671	3.23
391.036	3.37
391.401	3.28
391.766	3.62
392.131	3.35
392.496	3.31
392.861	3.48
393.226	3.56
393.591	3.07
393.956	3.44
394.32	3.37
394.685	3.48
395.05	3.09
395.414	3.4
395.779	3.13
396.143	3.43
396.508	3.49
396.872	3.33
397.236	3.61
397.601	3.31
397.965	3.54
398.329	3.36
398.694	3.25
399.058	3.52
399.422	3.28
399.786	3.28
400.15	3.27
400.514	3.2
400.878	3.45
401.242	3.45
401.605	3.2
401.969	3.58
402.333	3.52
402.697	3.53
403.06	3.36
403.424	3.49
403.787	3.21
404.151	3.38
404.514	3.19
404.878	3.52
405.241	3.27
405.604	3.67
405.968	3.39
406.331	3.59
406.694	3.44
407.057	3.44
407.42	3.31
407.783	3.26
408.146	3.63
408.509	3.66
408.872	3.63
409.235	3.39
409.598	3.37
409.961	3.34
410.323	3.53
410.686	3.75
411.049	3.26
411.411	3.42
411.774	3.52
412.136	3.48
412.499	3.56
412.861	3.46
413.223	3.59
413.586	3.59
413.948	3.56
414.31	3.44
414.672	3.44
415.035	3.57
415.397	3.48
415.759	3.6
416.121	3.46
416.483	3.55
416.845	3.47
417.206	3.37
417.568	3.59
417.93	3.24
418.292	3.56
418.653	3.34
419.015	3.32
419.377	3.38
419.738	3.37
420.1	3.44
420.461	3.44
420.822	3.48
421.184	3.21
421.545	3.46
421.906	3.36
422.267	3.33
422.629	3.4
422.99	3.32
423.351	3.44
423.712	3.45
424.073	3.4
424.434	3.38
424.795	3.45
425.155	3.34
425.516	3.29
425.877	3.38
426.238	3.44
426.598	3.44
426.959	3.55
427.32	3.53
427.68	3.51
428.041	3.56
428.401	3.62
428.761	3.53
429.122	3.56
429.482	3.66
429.842	3.48
430.202	3.56
430.563	3.44
430.923	3.47
431.283	3.73
431.643	3.56
432.003	3.76
432.363	3.63
432.722	3.67
433.082	3.67
433.442	3.73
433.802	3.63
434.161	3.5
434.521	3.63
434.881	3.66
435.24	3.51
435.6	3.59
435.959	3.78
436.319	3.7
436.678	3.71
437.037	3.73
437.396	3.59
437.756	3.49
438.115	3.72
438.474	3.63
438.833	3.59
439.192	3.64
439.551	3.5
439.91	3.61
440.269	3.6
440.628	3.61
440.987	3.62
441.345	3.65
441.704	3.61
442.063	3.47
442.421	3.48
442.78	3.62
443.138	3.7
443.497	3.55
443.855	3.81
444.214	3.62
444.572	3.75
444.93	3.74
445.288	3.74
445.647	3.56
446.005	3.69
446.363	3.68
446.721	3.62
447.079	3.59
447.437	3.63
447.795	3.56
448.153	3.59
448.51	3.63
448.868	3.63
449.226	3.73
449.584	3.71
449.941	3.72
450.299	3.81
450.656	3.85
451.014	3.62
451.371	3.82
451.729	3.82
452.086	3.82
452.443	3.72
452.801	3.89
453.158	3.76
453.515	3.87
453.872	3.61
454.229	3.84
454.586	3.74
454.943	3.9
455.3	3.75
455.657	3.74
456.014	3.96
456.371	3.97
456.727	3.84
457.084	3.8
457.441	3.75
457.797	3.88
458.154	3.81
458.51	3.74
458.867	3.81
459.223	3.7
459.58	3.71
459.936	3.73
460.292	3.75
460.648	3.7
461.005	3.61
461.361	3.58
461.717	3.71
462.073	3.8
462.429	3.86
462.785	3.79
463.141	3.91
463.496	3.81
463.852	4.09
464.208	3.92
464.564	3.83
464.919	3.99
465.275	3.87
465.631	3.89
465.986	4.05
466.342	3.63
466.697	3.87
467.052	3.96
467.408	3.82
467.763	3.8
468.118	4
468.473	3.94
468.829	4
469.184	3.8
469.539	3.95
469.894	3.86
470.249	3.74
470.603	4.07
470.958	4.08
471.313	4.14
471.668	3.84
472.023	4.04
472.377	3.92
472.732	4
473.086	3.95
473.441	3.88
473.795	4.06
474.15	3.92
474.504	3.83
474.859	3.9
475.213	4.02
475.567	3.96
475.921	4.08
476.275	3.84
476.63	4.02
476.984	3.93
477.338	3.94
477.692	4.05
478.045	4.08
478.399	4.12
478.753	4.03
479.107	3.91
479.461	3.97
479.814	3.99
480.168	3.88
480.521	3.91
480.875	3.95
481.228	4.03
481.582	3.84
481.935	4.02
482.289	4.02
482.642	3.88
482.995	3.86
483.348	3.9
483.701	3.88
484.055	3.82
484.408	3.71
484.761	3.65
485.114	3.48
485.466	3.53
485.819	3.7
486.172	3.91
486.525	4
486.878	4.02
487.23	4.06
487.583	4.01
487.936	3.82
488.288	3.79
488.641	3.76
488.993	3.74
489.345	3.76
489.698	3.85
490.05	3.97
490.402	3.97
490.754	4.02
491.107	4.02
491.459	4.03
491.811	4.15
492.163	3.98
492.515	3.91
492.866	3.72
493.218	3.73
493.57	3.89
493.922	4.1
494.274	4.16
494.625	4.15
494.977	4.11
495.328	4.18
495.68	4.07
496.031	4.25
496.383	4.25
496.734	4.15
497.086	4.14
497.437	4.12
497.788	4
498.139	4.07
498.49	4.05
498.842	4.02
499.193	4.12
499.544	4.19
499.894	4.16
500.245	4.12
500.596	4.03
500.947	4.21
501.298	4.2
501.648	4.22
501.999	4.28
502.35	4.26
502.7	4.23
503.051	4.35
503.401	4.34
503.752	4.24
504.102	4.24
504.452	4.3
504.803	4.4
505.153	4.18
505.503	4.15
505.853	4.02
506.203	4.22
506.553	4.14
506.903	4.36
507.253	4.13
507.603	4.16
507.953	4.34
508.303	4.44
508.652	4.26
509.002	4.16
509.352	4.18
509.701	4.26
510.051	4.17
510.4	4.18
510.75	4.28
511.099	4.14
511.449	4.31
511.798	4.25
512.147	4.25
512.496	4.27
512.846	4.31
513.195	4.28
513.544	4.19
513.893	4.26
514.242	4.3
514.591	4.28
514.939	4.32
515.288	4.46
515.637	4.37
515.986	4.43
516.334	4.4
516.683	4.4
517.032	4.39
517.38	4.32
517.729	4.4
518.077	4.3
518.426	4.29
518.774	4.3
519.122	4.2
519.47	4.19
519.819	4.17
520.167	4.21
520.515	4.26
520.863	4.33
521.211	4.47
521.559	4.46
521.907	4.3
522.255	4.34
522.602	4.38
522.95	4.24
523.298	4.35
523.645	4.33
523.993	4.34
524.341	4.4
524.688	4.4
525.036	4.45
525.383	4.44
525.73	4.34
526.078	4.28
526.425	4.37
526.772	4.18
527.119	4.17
527.466	4.27
527.814	4.36
528.161	4.42
528.508	4.29
528.854	4.38
529.201	4.12
529.548	4.12
529.895	3.98
530.242	4.03
530.588	4.19
530.935	4.33
531.282	4.43
531.628	4.42
531.975	4.48
532.321	4.46
532.667	4.46
533.014	4.46
533.36	4.36
533.706	4.38
534.052	4.31
534.399	4.25
534.745	4.15
535.091	4.28
535.437	4.43
535.783	4.53
536.129	4.52
536.474	4.48
536.82	4.58
537.166	4.58
537.512	4.42
537.857	4.42
538.203	4.34
538.549	4.4
538.894	4.61
539.239	4.64
539.585	4.55
539.93	4.62
540.276	4.6
540.621	4.6
540.966	4.56
541.311	4.63
541.656	4.59
542.001	4.36
542.346	4.32
542.691	4.16
543.036	4.26
543.381	4.42
543.726	4.57
544.071	4.53
544.415	4.46
544.76	4.57
545.105	4.61
545.449	4.59
545.794	4.63
546.138	4.69
546.483	4.69
546.827	4.6
547.171	4.58
547.516	4.56
547.86	4.56
548.204	4.57
548.548	4.63
548.892	4.69
549.236	4.69
549.58	4.74
549.924	4.71
550.268	4.75
550.612	4.8
550.956	4.74
551.3	4.82
551.643	4.64
551.987	4.71
552.33	5.08
552.674	4.83
553.017	4.7
553.361	4.9
553.704	4.69
554.048	4.77
554.391	4.85
554.734	4.84
555.077	4.85
555.42	4.81
555.764	4.85
556.107	4.88
556.45	4.91
556.793	4.86
557.135	4.88
557.478	5.04
557.821	4.86
558.164	4.64
558.507	4.93
558.849	4.83
559.192	4.94
559.534	5.05
559.877	4.92
560.219	4.99
560.562	4.96
560.904	4.98
561.246	4.73
561.589	4.74
561.931	4.97
562.273	4.88
562.615	4.82
562.957	5.12
563.299	4.91
563.641	4.92
563.983	5.03
564.325	4.86
564.667	5.02
565.008	5
565.35	4.94
565.692	4.82
566.033	5.16
566.375	4.85
566.716	4.88
567.058	4.71
567.399	4.94
567.741	4.83
568.082	4.79
568.423	4.97
568.764	5
569.105	4.92
569.447	5.14
569.788	4.98
570.129	4.93
570.47	5.03
570.811	4.96
571.151	4.96
571.492	5.04
571.833	5.16
572.174	5
572.514	4.91
572.855	5.15
573.195	4.92
573.536	4.87
573.876	4.94
574.217	4.92
574.557	4.95
574.898	5.12
575.238	5.2
575.578	5.18
575.918	5.16
576.258	4.96
576.598	4.9
576.938	4.91
577.278	4.94
577.618	4.84
577.958	5.17
578.298	5.28
578.638	4.99
578.977	5.17
579.317	4.91
579.657	4.95
579.996	5.1
580.336	4.9
580.675	5.07
581.014	5.41
581.354	5.17
581.693	5.12
582.032	5.25
582.372	5.04
582.711	5.07
583.05	5.26
583.389	5.18
583.728	5.23
584.067	5.28
584.406	5.2
584.745	5.22
585.083	5.25
585.422	5.09
585.761	5.36
586.1	5.32
586.438	5.15
586.777	5.25
587.115	5.11
587.454	5.22
587.792	5.11
588.13	5.13
588.469	5.28
588.807	5.4
589.145	5.21
589.483	5.16
589.821	4.94
590.159	5.05
590.497	5.15
590.835	5.5
591.173	5.39
591.511	5.39
591.849	5.51
592.187	5.22
592.524	5.26
592.862	5.31
593.2	5.42
593.537	5.47
593.875	5.19
594.212	5.52
594.55	5.03
594.887	5.43
595.224	5.08
595.561	5.48
595.899	5.2
596.236	5.46
596.573	5.37
596.91	5.55
597.247	5.31
597.584	5.3
597.921	5.3
598.258	5.1
598.594	5.25
598.931	5.21
599.268	5.24
599.604	5.37
599.941	5.55
600.277	5.44
600.614	5.35
600.95	5.58
601.287	5.37
601.623	5.42
601.959	5.33
602.296	5.16
602.632	5.09
602.968	5.62
603.304	5.43
603.64	5.53
603.976	5.41
604.312	5.37
604.648	5.36
604.984	5.31
605.319	5.47
605.655	5.52
605.991	5.28
606.326	5.25
606.662	5.31
606.998	5.38
607.333	5.46
607.668	5.66
608.004	5.64
608.339	5.62
608.674	5.55
609.01	5.51
609.345	5.68
609.68	5.48
610.015	5.61
610.35	5.6
610.685	5.31
611.02	5.34
611.355	5.47
611.689	5.52
612.024	5.61
612.359	5.6
612.694	5.82
613.028	5.7
613.363	5.6
613.697	5.73
614.032	5.84
614.366	5.75
614.7	5.83
615.035	5.5
615.369	5.83
615.703	5.53
616.037	5.67
616.371	5.73
616.705	5.81
617.039	5.58
617.373	5.81
617.707	5.71
618.041	5.7
618.375	5.58
618.709	5.8
619.042	5.8
619.376	5.64
619.71	5.68
620.043	5.7
620.377	5.9
620.71	5.79
621.043	5.74
621.377	5.95
621.71	5.81
622.043	5.78
622.376	6.04
622.709	5.82
623.043	6.18
623.376	5.87
623.709	5.87
624.041	5.62
624.374	6.13
624.707	5.59
625.04	5.73
625.373	6.21
625.705	5.84
626.038	6.01
626.37	5.86
626.703	6.01
627.035	5.75
627.368	5.53
627.7	5.82
628.032	6.06
628.365	5.69
628.697	5.59
629.029	5.77
629.361	5.98
629.693	5.73
630.025	5.84
630.357	5.66
630.689	6.04
631.021	6.03
631.353	5.69
631.684	6.06
632.016	6.13
632.348	5.9
632.679	5.93
633.011	5.67
633.342	5.87
633.674	5.97
634.005	5.99
634.336	6.15
634.668	6.04
634.999	5.97
635.33	5.66
635.661	5.97
635.992	5.99
636.323	6.15
636.654	5.94
636.985	5.88
637.316	5.63
637.647	5.78
637.977	6.01
638.308	5.88
638.639	5.69
638.969	5.83
639.3	5.68
639.63	6.13
639.961	6.11
640.291	6.07
640.622	5.64
640.952	6.26
641.282	6.25
641.612	6.33
641.943	6.43
642.273	6.64
642.603	5.72
642.933	6.26
643.263	6.04
643.592	5.99
643.922	6.18
644.252	6.21
644.582	5.93
644.911	5.65
645.241	6.71
645.571	6.33
645.9	6.08
646.23	5.89
646.559	6.2
646.888	6.17
647.218	6.14
647.547	6.37
647.876	6.31
648.205	6.6
648.534	6.27
648.863	5.88
649.192	5.99
649.521	6.75
649.85	6.37
650.179	6.34
650.508	6.5
650.837	6
651.165	5.77
651.494	6.43
651.822	6.08
652.151	6.04
652.479	6.18
652.808	6.82
653.136	5.98
653.465	6.13
653.793	6.49
654.121	6.74
654.449	6.28
654.777	5.97
655.105	6.5
655.433	6.44
655.761	6.75
656.089	6.18
656.417	6.43
656.745	5.75
657.073	6.37
657.4	6.08
657.728	7.09
658.056	6.57
658.383	6.63
658.711	6.89
659.038	6.48
659.365	5.93
659.693	6.16
660.02	6.56
660.347	6.42
660.674	6.51
661.001	6.15
661.329	6.5
661.656	6.3
661.982	6.13
662.309	6.22
662.636	6.28
662.963	6.49
663.29	6.36
663.616	6.48
663.943	6.3
664.27	6.5
664.596	6.36
664.923	6.79
665.249	6.48
665.576	6.97
665.902	6.28
666.228	6.97
666.554	6.65
666.881	6.26
667.207	6.71
667.533	6.45
667.859	6.29
668.185	6.86
668.511	5.95
668.837	6.72
669.162	6.43
669.488	6.7
669.814	6.72
670.139	6.56
670.465	6.56
670.791	6.52
671.116	6.73
671.442	6.84
671.767	7.17
672.092	7
672.418	6.4
672.743	6.6
673.068	6.58
673.393	6.62
673.718	6.62
674.043	7.2
674.368	7
674.693	6.49
675.018	6.73
675.343	6.55
675.667	7.16
675.992	6.63
676.317	6.62
676.641	5.8
676.966	7.39
677.29	7.17
677.615	6.68
677.939	7.42
678.264	7.1
678.588	7.53
678.912	5.99
679.236	7
679.56	6.27
679.885	7.08
680.209	7.05
680.532	6.35
680.856	6.73
681.18	6.64
681.504	6.1
681.828	7.32
682.152	6.78
682.475	6.71
682.799	6.8
683.122	7.12
683.446	7.65
683.769	7
684.093	7.2
684.416	7.52
684.739	7.29
685.062	7.35
685.386	6.94
685.709	7.55
686.032	7.63
686.355	7.41
686.678	6.92
687.001	7.56
687.324	7.19
687.646	7.18
687.969	7.16
688.292	7.26
688.614	7.3
688.937	6.7
689.26	6.78
689.582	7.06
689.904	7.21
690.227	7.27
690.549	7.31
690.871	7.18
691.194	6.55
691.516	7.47
691.838	7.08
692.16	6.91
692.482	7.16
692.804	7.38
693.126	7.76
693.448	8.67
