Data from 0023_forehead_Reflection__4__60.txt Node

Date: Thu Oct 20 20:46:57 CDT 2022
User: ToomeyLab
Spectrometer: FLMS14357
Trigger mode: 0
Integration Time (sec): 1.000000E-2
Scans to average: 100
Electric dark correction enabled: true
Nonlinearity correction enabled: false
Boxcar width: 0
XAxis mode: Wavelengths
Number of Pixels in Spectrum: 2048
>>>>>Begin Spectral Data<<<<<
189.047	474.93
189.435	474.93
189.823	474.93
190.211	30.61
190.599	219.86
190.987	589.49
191.375	-301.56
191.763	-75.09
192.151	23.43
192.538	-118.41
192.926	-297.34
193.314	108.65
193.702	147.7
194.089	-339.63
194.477	190.15
194.864	177.83
195.252	68.08
195.639	59.72
196.027	14.16
196.414	154.72
196.801	391.1
197.189	-164.98
197.576	127.86
197.963	260.62
198.351	66.08
198.738	-6.58
199.125	37.49
199.512	-6.46
199.899	25.28
200.286	-14.77
200.673	13.05
201.06	45.46
201.447	46.4
201.833	-7.51
202.22	5.97
202.607	13.4
202.994	15.76
203.38	-25.7
203.767	13.23
204.154	36.97
204.54	13.19
204.927	14.45
205.313	42.41
205.699	16.42
206.086	30.01
206.472	27.29
206.858	5.83
207.245	34.04
207.631	-5.15
208.017	42.09
208.403	25.04
208.789	6.44
209.175	65.96
209.561	26.39
209.947	43.04
210.333	-1.96
210.719	2.71
211.105	-45.23
211.491	14.41
211.876	-2.54
212.262	14.88
212.648	31.12
213.034	17.04
213.419	18.1
213.805	2.23
214.19	-6.17
214.576	-12.89
214.961	11.87
215.346	8.75
215.732	0.54
216.117	48.11
216.502	6.44
216.888	43.44
217.273	21.66
217.658	5.81
218.043	-25.82
218.428	12.44
218.813	12.07
219.198	19.43
219.583	17.37
219.968	0.89
220.353	-18.52
220.738	7.14
221.122	14.45
221.507	2.39
221.892	-2.79
222.276	12.05
222.661	7.36
223.046	7.5
223.43	15.4
223.815	-3.77
224.199	8.96
224.583	1.28
224.968	1.99
225.352	5.71
225.736	3.83
226.121	0.97
226.505	2.23
226.889	6.51
227.273	4.96
227.657	4.03
228.041	4.8
228.425	1.06
228.809	0.02
229.193	3.04
229.577	2.27
229.961	1.52
230.344	2.11
230.728	2.39
231.112	2.22
231.495	1.83
231.879	3.21
232.263	1.92
232.646	2.19
233.03	0.75
233.413	2.45
233.797	0.39
234.18	1.13
234.563	0.65
234.946	2.89
235.33	2.56
235.713	3.4
236.096	0.71
236.479	-0.26
236.862	3.74
237.245	3.02
237.628	2.2
238.011	1.55
238.394	1.32
238.777	0.82
239.16	1.88
239.543	1.4
239.925	1.16
240.308	2.91
240.691	1.44
241.073	1.93
241.456	2.46
241.838	2.34
242.221	2.31
242.603	2.69
242.986	1.85
243.368	1.85
243.75	2.25
244.133	1.92
244.515	1.7
244.897	1.99
245.279	2.37
245.661	2.24
246.043	1.22
246.425	2.26
246.807	2.53
247.189	2.04
247.571	1.95
247.953	2.1
248.335	1.81
248.717	2.02
249.098	1.94
249.48	1.6
249.862	1.76
250.243	2
250.625	2.18
251.006	2.73
251.388	2.49
251.769	3.54
252.151	1.57
252.532	2.19
252.913	2.05
253.295	2.26
253.676	1.82
254.057	2.22
254.438	2.97
254.819	2.98
255.2	1.96
255.581	2.96
255.962	2.74
256.343	4.12
256.724	1.62
257.105	2.36
257.486	2.27
257.867	2.43
258.247	2.1
258.628	1.51
259.009	2.03
259.389	1.73
259.77	2.55
260.15	1.81
260.531	2.17
260.911	1.58
261.292	1.85
261.672	1.76
262.052	1.98
262.432	2.06
262.813	2.09
263.193	1.56
263.573	1.84
263.953	2.09
264.333	1.98
264.713	1.64
265.093	2.18
265.473	2.92
265.853	1.72
266.233	2.14
266.612	1.98
266.992	2.58
267.372	2.37
267.752	1.81
268.131	1.41
268.511	1.98
268.89	2.18
269.27	2.03
269.649	1.81
270.029	2.23
270.408	1.48
270.787	2.26
271.167	2.35
271.546	2.11
271.925	1.8
272.304	2.17
272.683	1.68
273.062	2.13
273.441	2.15
273.82	1.92
274.199	2.02
274.578	2.11
274.957	2.05
275.336	2.35
275.715	2
276.093	2.18
276.472	2.11
276.851	1.72
277.229	1.56
277.608	1.69
277.986	1.28
278.365	1.85
278.743	1.78
279.122	2.44
279.5	1.44
279.878	2.07
280.257	1.74
280.635	2.17
281.013	2.57
281.391	2.12
281.769	2.23
282.147	2.37
282.525	1.64
282.903	2.22
283.281	1.89
283.659	1.53
284.037	1.98
284.415	2.37
284.792	2.07
285.17	2.11
285.548	2
285.925	1.92
286.303	2.01
286.68	1.93
287.058	1.96
287.435	1.78
287.813	1.88
288.19	2.11
288.567	1.83
288.945	2.37
289.322	1.73
289.699	2.39
290.076	2.26
290.453	1.86
290.83	1.71
291.207	2.32
291.584	1.86
291.961	1.82
292.338	1.9
292.715	2.06
293.092	2.54
293.469	2.68
293.845	1.36
294.222	1.48
294.599	2.8
294.975	2.1
295.352	2.53
295.728	2.79
296.105	2.12
296.481	2.41
296.858	2.46
297.234	1.89
297.61	1.86
297.986	2.14
298.363	2.36
298.739	2.25
299.115	2.42
299.491	2.61
299.867	2.17
300.243	2.05
300.619	2.68
300.995	2.27
301.371	2.08
301.746	2.24
302.122	2.2
302.498	2.85
302.874	2.64
303.249	2.33
303.625	2.61
304	2.74
304.376	2.48
304.751	2.57
305.127	1.95
305.502	2.41
305.878	2.6
306.253	2.47
306.628	2.69
307.003	2.34
307.378	2.77
307.754	2.71
308.129	2.72
308.504	2.68
308.879	3.61
309.254	2.4
309.629	2.48
310.003	2.81
310.378	2.89
310.753	2.54
311.128	2.27
311.502	2.76
311.877	2.76
312.252	2.54
312.626	2.78
313.001	2.58
313.375	3.05
313.75	2.99
314.124	3.09
314.498	2.73
314.873	3.09
315.247	3.21
315.621	3.07
315.995	3.12
316.369	3.03
316.743	3.27
317.117	3.07
317.491	3.1
317.865	3.02
318.239	3.13
318.613	3.44
318.987	3.37
319.361	3.66
319.734	3.5
320.108	3.44
320.482	2.87
320.855	3.18
321.229	3.26
321.602	3.71
321.976	3.38
322.349	3.51
322.723	3.61
323.096	3.04
323.469	3.4
323.843	3.31
324.216	3.48
324.589	3.45
324.962	3.23
325.335	2.76
325.708	3.47
326.081	3.67
326.454	3.47
326.827	3.39
327.2	3.81
327.573	3.63
327.945	3.65
328.318	3.47
328.691	3.98
329.063	3.27
329.436	3.83
329.809	3.73
330.181	3.53
330.553	3.48
330.926	3.21
331.298	3.07
331.671	3.9
332.043	3.76
332.415	3.9
332.787	3.66
333.159	3.21
333.532	4.09
333.904	3.14
334.276	3.94
334.648	3.42
335.02	3.4
335.391	3.7
335.763	3.37
336.135	3.42
336.507	3.65
336.879	3.85
337.25	3.58
337.622	3.73
337.993	4.13
338.365	4.02
338.736	3.86
339.108	3.88
339.479	3.64
339.851	4.29
340.222	3.61
340.593	3.68
340.964	3.77
341.336	3.98
341.707	3.76
342.078	3.63
342.449	3.52
342.82	3.75
343.191	3.79
343.562	4.17
343.933	4.25
344.303	4.27
344.674	3.28
345.045	3.93
345.416	4.11
345.786	4.28
346.157	3.9
346.527	3.55
346.898	3.92
347.268	3.93
347.639	4.23
348.009	3.71
348.38	4.04
348.75	4.24
349.12	4.08
349.49	4.06
349.861	4.39
350.231	4.1
350.601	4.45
350.971	4.08
351.341	4.11
351.711	4.35
352.081	4.72
352.45	4.4
352.82	3.89
353.19	4.16
353.56	4.54
353.929	4.61
354.299	3.61
354.669	4.65
355.038	4.42
355.408	3.9
355.777	4.45
356.147	4.56
356.516	4.61
356.885	4.39
357.254	4.55
357.624	4.16
357.993	4.03
358.362	4.36
358.731	4.37
359.1	4.5
359.469	4.29
359.838	4.51
360.207	4.64
360.576	4.69
360.945	4.19
361.314	4.57
361.682	4.43
362.051	4.63
362.42	4.34
362.788	4.41
363.157	4.26
363.525	4.49
363.894	4.57
364.262	4.5
364.631	4.57
364.999	4.62
365.367	4.59
365.735	4.6
366.104	4.52
366.472	4.44
366.84	4.59
367.208	4.86
367.576	4.57
367.944	4.91
368.312	4.83
368.68	5.03
369.048	4.88
369.416	5.22
369.783	4.9
370.151	4.86
370.519	5.05
370.886	4.85
371.254	5.23
371.621	5.02
371.989	4.8
372.356	5.11
372.724	5.13
373.091	5.07
373.458	4.97
373.826	5.3
374.193	5.1
374.56	5.21
374.927	5.27
375.294	5.17
375.661	5.38
376.028	5.06
376.395	5.04
376.762	4.98
377.129	5.47
377.496	5.16
377.863	5.21
378.229	5.13
378.596	5.14
378.963	5.16
379.329	5.17
379.696	5.28
380.062	5.35
380.429	5.58
380.795	5.41
381.161	5.47
381.528	5.26
381.894	5.41
382.26	5.33
382.626	5.7
382.993	5.38
383.359	5.38
383.725	5.61
384.091	5.19
384.457	5
384.823	5.32
385.188	5.5
385.554	5.61
385.92	5.41
386.286	5.4
386.651	5.47
387.017	5.37
387.383	5.84
387.748	5.51
388.114	5.68
388.479	5.83
388.845	5.58
389.21	5.45
389.575	5.28
389.94	5.72
390.306	5.51
390.671	5.49
391.036	5.59
391.401	5.53
391.766	5.61
392.131	5.75
392.496	5.31
392.861	5.81
393.226	5.56
393.591	5.38
393.956	5.69
394.32	5.68
394.685	5.7
395.05	5.67
395.414	5.74
395.779	5.8
396.143	5.82
396.508	5.74
396.872	5.77
397.236	6.11
397.601	5.97
397.965	6.1
398.329	5.81
398.694	5.94
399.058	6.19
399.422	5.82
399.786	6.06
400.15	5.85
400.514	5.91
400.878	6.17
401.242	6.33
401.605	6.1
401.969	6.34
402.333	6.22
402.697	6.28
403.06	6.03
403.424	6.26
403.787	6.23
404.151	6.24
404.514	6.12
404.878	6.03
405.241	6.03
405.604	6.28
405.968	6.08
406.331	6.18
406.694	6
407.057	6.01
407.42	6.23
407.783	6.07
408.146	6.33
408.509	6.33
408.872	6.34
409.235	6.23
409.598	6.36
409.961	6.33
410.323	6.35
410.686	6.31
411.049	6.18
411.411	6.35
411.774	6.45
412.136	6.44
412.499	6.5
412.861	6.59
413.223	6.59
413.586	6.74
413.948	6.69
414.31	6.48
414.672	6.68
415.035	6.76
415.397	6.63
415.759	6.49
416.121	6.69
416.483	6.74
416.845	6.77
417.206	6.6
417.568	6.38
417.93	6.15
418.292	6.45
418.653	6.52
419.015	6.5
419.377	6.46
419.738	6.63
420.1	6.52
420.461	6.55
420.822	6.65
421.184	6.51
421.545	6.54
421.906	6.57
422.267	6.45
422.629	6.5
422.99	6.54
423.351	6.7
423.712	6.73
424.073	6.69
424.434	6.82
424.795	6.72
425.155	6.72
425.516	6.63
425.877	6.67
426.238	6.81
426.598	6.7
426.959	6.88
427.32	6.98
427.68	7
428.041	6.98
428.401	7.11
428.761	7.19
429.122	7.2
429.482	7.36
429.842	7.25
430.202	7.31
430.563	7.01
430.923	7.35
431.283	7.31
431.643	7.38
432.003	7.5
432.363	7.38
432.722	7.38
433.082	7.46
433.442	7.51
433.802	7.51
434.161	7.33
434.521	7.37
434.881	7.37
435.24	7.29
435.6	7.41
435.959	7.53
436.319	7.58
436.678	7.7
437.037	7.67
437.396	7.48
437.756	7.53
438.115	7.59
438.474	7.6
438.833	7.56
439.192	7.66
439.551	7.57
439.91	7.71
440.269	7.56
440.628	7.73
440.987	7.64
441.345	7.72
441.704	7.74
442.063	7.57
442.421	7.67
442.78	7.67
443.138	7.94
443.497	7.89
443.855	7.94
444.214	7.84
444.572	7.99
444.93	8
445.288	8.02
445.647	7.72
446.005	8.03
446.363	7.9
446.721	7.95
447.079	7.74
447.437	7.85
447.795	7.86
448.153	7.83
448.51	7.93
448.868	7.94
449.226	8.04
449.584	8.18
449.941	8.09
450.299	8.32
450.656	8.24
451.014	8.22
451.371	8.35
451.729	8.48
452.086	8.28
452.443	8.43
452.801	8.49
453.158	8.36
453.515	8.34
453.872	8.34
454.229	8.48
454.586	8.47
454.943	8.7
455.3	8.6
455.657	8.59
456.014	8.68
456.371	8.64
456.727	8.61
457.084	8.89
457.441	8.65
457.797	8.71
458.154	8.66
458.51	8.73
458.867	8.68
459.223	8.79
459.58	8.53
459.936	8.7
460.292	8.66
460.648	8.56
461.005	8.51
461.361	8.41
461.717	8.59
462.073	8.78
462.429	8.95
462.785	8.83
463.141	9.08
463.496	9
463.852	9.14
464.208	9.13
464.564	9.17
464.919	9.26
465.275	9.16
465.631	9.05
465.986	9.14
466.342	9.16
466.697	9.12
467.052	9.39
467.408	9.34
467.763	9.37
468.118	9.24
468.473	9.3
468.829	9.29
469.184	9.32
469.539	9.25
469.894	9.37
470.249	9.35
470.603	9.52
470.958	9.53
471.313	9.52
471.668	9.3
472.023	9.4
472.377	9.6
472.732	9.48
473.086	9.5
473.441	9.66
473.795	9.63
474.15	9.72
474.504	9.69
474.859	9.7
475.213	9.79
475.567	9.77
475.921	9.74
476.275	9.93
476.63	9.72
476.984	9.85
477.338	9.86
477.692	10
478.045	9.85
478.399	9.84
478.753	9.84
479.107	9.82
479.461	9.87
479.814	9.82
480.168	9.86
480.521	9.98
480.875	9.95
481.228	10.05
481.582	9.96
481.935	9.96
482.289	10.06
482.642	9.87
482.995	9.9
483.348	9.8
483.701	9.78
484.055	9.85
484.408	9.54
484.761	9.35
485.114	9.17
485.466	9.23
485.819	9.48
486.172	9.66
486.525	9.88
486.878	10
487.23	10
487.583	9.95
487.936	9.89
488.288	9.78
488.641	9.63
488.993	9.73
489.345	9.69
489.698	9.8
490.05	10.03
490.402	10.12
490.754	10.31
491.107	10.38
491.459	10.38
491.811	10.46
492.163	10.29
492.515	10.14
492.866	9.87
493.218	9.89
493.57	10.13
493.922	10.4
494.274	10.58
494.625	10.65
494.977	10.73
495.328	10.88
495.68	10.95
496.031	10.88
496.383	10.88
496.734	10.96
497.086	10.89
497.437	10.99
497.788	10.75
498.139	10.69
498.49	10.78
498.842	10.86
499.193	10.93
499.544	11.05
499.894	10.94
500.245	10.95
500.596	11.05
500.947	11.3
501.298	11.24
501.648	11.26
501.999	11.25
502.35	11.25
502.7	11.43
503.051	11.44
503.401	11.48
503.752	11.28
504.102	11.47
504.452	11.47
504.803	11.58
505.153	11.31
505.503	11.4
505.853	11.31
506.203	11.28
506.553	11.4
506.903	11.46
507.253	11.5
507.603	11.55
507.953	11.5
508.303	11.73
508.652	11.7
509.002	11.63
509.352	11.59
509.701	11.56
510.051	11.5
510.4	11.52
510.75	11.54
511.099	11.68
511.449	11.74
511.798	11.69
512.147	11.76
512.496	11.84
512.846	11.83
513.195	11.66
513.544	11.73
513.893	11.76
514.242	11.86
514.591	12
514.939	12.02
515.288	12.17
515.637	11.99
515.986	12.18
516.334	12.1
516.683	12.17
517.032	12.14
517.38	12.21
517.729	12.21
518.077	12.27
518.426	12.17
518.774	12.21
519.122	12.13
519.47	11.99
519.819	11.8
520.167	11.89
520.515	12.01
520.863	12.2
521.211	12.1
521.559	12.33
521.907	12.23
522.255	12.36
522.602	12.6
522.95	12.45
523.298	12.53
523.645	12.47
523.993	12.68
524.341	12.64
524.688	12.64
525.036	12.69
525.383	12.72
525.73	12.62
526.078	12.47
526.425	12.45
526.772	12.36
527.119	12.34
527.466	12.37
527.814	12.48
528.161	12.6
528.508	12.53
528.854	12.6
529.201	12.3
529.548	12.07
529.895	11.87
530.242	11.87
530.588	12.14
530.935	12.36
531.282	12.58
531.628	12.56
531.975	12.74
532.321	12.85
532.667	12.81
533.014	12.81
533.36	12.85
533.706	12.89
534.052	12.69
534.399	12.48
534.745	12.39
535.091	12.59
535.437	12.89
535.783	12.92
536.129	13.14
536.474	13.13
536.82	13.33
537.166	13.25
537.512	13.23
537.857	12.94
538.203	13.04
538.549	13.16
538.894	13.25
539.239	13.41
539.585	13.4
539.93	13.47
540.276	13.57
540.621	13.63
540.966	13.53
541.311	13.6
541.656	13.52
542.001	13.28
542.346	13.05
542.691	12.88
543.036	12.89
543.381	13.13
543.726	13.33
544.071	13.47
544.415	13.48
544.76	13.54
545.105	13.64
545.449	13.7
545.794	13.85
546.138	14.01
546.483	14.04
546.827	13.93
547.171	13.91
547.516	13.87
547.86	13.94
548.204	13.93
548.548	13.88
548.892	14.13
549.236	14.08
549.58	14.16
549.924	14.34
550.268	14.39
550.612	14.49
550.956	14.48
551.3	14.45
551.643	14.72
551.987	14.54
552.33	14.8
552.674	14.85
553.017	14.58
553.361	14.68
553.704	14.6
554.048	14.58
554.391	14.7
554.734	14.49
555.077	14.76
555.42	14.79
555.764	14.89
556.107	14.82
556.45	15
556.793	15.06
557.135	14.89
557.478	15.09
557.821	15.05
558.164	14.98
558.507	15.24
558.849	15.11
559.192	15.09
559.534	15.38
559.877	15.31
560.219	15.14
560.562	15.31
560.904	15.41
561.246	15.13
561.589	15.16
561.931	15.25
562.273	15.22
562.615	15.21
562.957	15.55
563.299	15.49
563.641	15.38
563.983	15.66
564.325	15.51
564.667	15.54
565.008	15.61
565.35	15.39
565.692	15.57
566.033	15.65
566.375	15.52
566.716	15.36
567.058	15.5
567.399	15.69
567.741	15.55
568.082	15.45
568.423	15.57
568.764	15.74
569.105	15.7
569.447	15.88
569.788	15.96
570.129	15.7
570.47	15.94
570.811	15.85
571.151	15.89
571.492	15.73
571.833	16.12
572.174	15.81
572.514	15.87
572.855	16
573.195	15.79
573.536	15.72
573.876	15.89
574.217	15.84
574.557	16.1
574.898	16.32
575.238	16.33
575.578	16.37
575.918	16.27
576.258	16.34
576.598	16.06
576.938	16.22
577.278	16.2
577.618	16.29
577.958	16.51
578.298	16.38
578.638	16.29
578.977	16.66
579.317	16.21
579.657	16.64
579.996	16.81
580.336	16.66
580.675	16.61
581.014	16.86
581.354	16.7
581.693	17.01
582.032	16.76
582.372	16.87
582.711	16.98
583.05	17.11
583.389	17.11
583.728	16.92
584.067	17.18
584.406	17.08
584.745	17.27
585.083	17.2
585.422	17.13
585.761	17.22
586.1	17.41
586.438	17.33
586.777	17.11
587.115	17.27
587.454	17.54
587.792	17.24
588.13	17.39
588.469	17.24
588.807	17.24
589.145	17.36
589.483	17.49
589.821	17.12
590.159	17.34
590.497	17.26
590.835	17.29
591.173	17.59
591.511	17.36
591.849	17.36
592.187	17.3
592.524	17.58
592.862	17.75
593.2	17.46
593.537	17.89
593.875	17.59
594.212	17.74
594.55	17.6
594.887	18.13
595.224	17.8
595.561	17.77
595.899	17.62
596.236	18.11
596.573	17.82
596.91	17.86
597.247	17.96
597.584	17.78
597.921	17.64
598.258	17.76
598.594	17.65
598.931	17.78
599.268	17.92
599.604	17.98
599.941	18.28
600.277	17.96
600.614	18.1
600.95	18.64
601.287	18.35
601.623	18.07
601.959	18.59
602.296	18.37
602.632	17.92
602.968	18.48
603.304	18.3
603.64	18.37
603.976	18.49
604.312	18.29
604.648	18.24
604.984	18.33
605.319	18.3
605.655	18.34
605.991	18.11
606.326	18.21
606.662	18.4
606.998	18.53
607.333	18.7
607.668	18.76
608.004	19.07
608.339	18.78
608.674	19.06
609.01	18.99
609.345	18.95
609.68	19.07
610.015	18.93
610.35	18.64
610.685	18.74
611.02	18.83
611.355	18.9
611.689	18.99
612.024	19.01
612.359	18.92
612.694	19.1
613.028	19.45
613.363	19.08
613.697	19.51
614.032	19.31
614.366	19.46
614.7	19.4
615.035	19.43
615.369	19.46
615.703	19.39
616.037	19.45
616.371	19.6
616.705	19.78
617.039	19.84
617.373	19.72
617.707	19.38
618.041	19.68
618.375	19.45
618.709	19.53
619.042	19.8
619.376	19.72
619.71	19.63
620.043	19.43
620.377	20.01
620.71	19.72
621.043	19.8
621.377	19.94
621.71	19.95
622.043	19.72
622.376	20.18
622.709	19.89
623.043	20.68
623.376	20.35
623.709	19.95
624.041	20.1
624.374	20.28
624.707	20.11
625.04	20.11
625.373	20.47
625.705	20.2
626.038	20.46
626.37	20.32
626.703	20.48
627.035	20.58
627.368	20.2
627.7	20.57
628.032	20.32
628.365	20.33
628.697	20.26
629.029	20.5
629.361	20.43
629.693	20.12
630.025	20.39
630.357	20.23
630.689	20.74
631.021	20.66
631.353	20.68
631.684	21.05
632.016	20.78
632.348	20.78
632.679	21
633.011	20.67
633.342	20.75
633.674	20.73
634.005	21.17
634.336	20.88
634.668	20.82
634.999	20.94
635.33	20.59
635.661	20.78
635.992	20.72
636.323	21.59
636.654	20.88
636.985	20.85
637.316	21.39
637.647	21.03
637.977	21.22
638.308	21.23
638.639	20.89
638.969	21.06
639.3	21.44
639.63	21.8
639.961	21.76
640.291	21.52
640.622	21.61
640.952	21.45
641.282	21.95
641.612	21.67
641.943	21.6
642.273	21.97
642.603	21.77
642.933	21.6
643.263	21.62
643.592	21.47
643.922	21.98
644.252	21.88
644.582	21.46
644.911	21.76
645.241	22.11
645.571	21.69
645.9	22.11
646.23	21.3
646.559	21.73
646.888	21.66
647.218	22.17
647.547	22.02
647.876	22.38
648.205	22.58
648.534	21.91
648.863	21.85
649.192	21.98
649.521	22.48
649.85	22.38
650.179	22.34
650.508	22.35
650.837	22.33
651.165	22.01
651.494	22.07
651.822	22.05
652.151	22.43
652.479	22.5
652.808	22.37
653.136	22.45
653.465	22.65
653.793	21.89
654.121	22.6
654.449	22.58
654.777	22.11
655.105	22.52
655.433	23.02
655.761	22.82
656.089	22.86
656.417	22.88
656.745	22.45
657.073	22.7
657.4	22.64
657.728	23.62
658.056	22.38
658.383	22.94
658.711	23.01
659.038	23
659.365	22.88
659.693	22.65
660.02	22.74
660.347	22.84
660.674	22.58
661.001	22.75
661.329	23.04
661.656	22.87
661.982	22.81
662.309	23.2
662.636	22.96
662.963	23.48
663.29	22.7
663.616	22.97
663.943	23.45
664.27	23.21
664.596	23.69
664.923	23.58
665.249	23.27
665.576	23.7
665.902	24.15
666.228	23.8
666.554	23.36
666.881	23.83
667.207	23.89
667.533	24.04
667.859	23.88
668.185	23.98
668.511	23.44
668.837	23.82
669.162	24.12
669.488	23.93
669.814	23.62
670.139	23.48
670.465	23.82
670.791	23.25
671.116	24.3
671.442	23.7
671.767	24.13
672.092	24.14
672.418	23.53
672.743	24.19
673.068	23.24
673.393	24.23
673.718	23.8
674.043	24.1
674.368	24.2
674.693	23.98
675.018	24.51
675.343	24.14
675.667	24.12
675.992	24.4
676.317	23.94
676.641	24.25
676.966	24.8
677.29	24.59
677.615	23.93
677.939	24.02
678.264	25.19
678.588	24.51
678.912	24.05
679.236	24.51
679.56	23.96
679.885	25.41
680.209	24.46
