Data from 0023_crown_Reflection__2__48.txt Node

Date: Thu Oct 20 20:42:38 CDT 2022
User: ToomeyLab
Spectrometer: FLMS14357
Trigger mode: 0
Integration Time (sec): 1.000000E-2
Scans to average: 100
Electric dark correction enabled: true
Nonlinearity correction enabled: false
Boxcar width: 0
XAxis mode: Wavelengths
Number of Pixels in Spectrum: 2048
>>>>>Begin Spectral Data<<<<<
189.047	581.32
189.435	581.32
189.823	581.32
190.211	107.46
190.599	252.99
190.987	-265.03
191.375	-1210.94
191.763	69.94
192.151	-27.74
192.538	-163.65
192.926	-241.36
193.314	-45.41
193.702	143.59
194.089	-502.68
194.477	52.04
194.864	33.68
195.252	113.85
195.639	29.48
196.027	145.6
196.414	22.62
196.801	-104.73
197.189	-266.94
197.576	79.88
197.963	1604.37
198.351	15.24
198.738	2.27
199.125	34.63
199.512	-33.87
199.899	25.38
200.286	-75.86
200.673	-13.65
201.06	22.01
201.447	-0.69
201.833	127.87
202.22	34.57
202.607	21.43
202.994	14.6
203.38	4.89
203.767	30.82
204.154	-9.38
204.54	-5.33
204.927	15.04
205.313	40.83
205.699	30.86
206.086	14.78
206.472	1.27
206.858	16.06
207.245	19.57
207.631	-6.3
208.017	5.11
208.403	40.51
208.789	31.62
209.175	35.04
209.561	8.6
209.947	27.66
210.333	-35.91
210.719	29.76
211.105	3.48
211.491	2.88
211.876	-5.59
212.262	-39.81
212.648	4.9
213.034	6.76
213.419	20.34
213.805	10.51
214.19	6.31
214.576	6.83
214.961	16.24
215.346	3.61
215.732	14.52
216.117	8.21
216.502	30.44
216.888	9.24
217.273	30.06
217.658	25.79
218.043	-15.02
218.428	0.41
218.813	6.88
219.198	26.85
219.583	12.88
219.968	5.25
220.353	-16.69
220.738	0.63
221.122	-4.23
221.507	9.07
221.892	16.55
222.276	3.24
222.661	5.36
223.046	15.92
223.43	4.65
223.815	0.55
224.199	-0.88
224.583	-5.21
224.968	7.25
225.352	6.96
225.736	-3.01
226.121	6.29
226.505	4.68
226.889	8.11
227.273	5.42
227.657	7.8
228.041	0.77
228.425	6.98
228.809	3.82
229.193	5.51
229.577	4.69
229.961	4.32
230.344	4.15
230.728	4.14
231.112	3.27
231.495	4.5
231.879	4.13
232.263	4.85
232.646	3.81
233.03	2.91
233.413	3.22
233.797	3.56
234.18	3.39
234.563	4.35
234.946	5.23
235.33	4.62
235.713	5.95
236.096	3.79
236.479	2.16
236.862	4.99
237.245	4.56
237.628	2.85
238.011	3.62
238.394	4.81
238.777	3.75
239.16	4.91
239.543	3.61
239.925	5.6
240.308	4.45
240.691	5
241.073	4.03
241.456	4.21
241.838	3.45
242.221	4.71
242.603	4.75
242.986	4.5
243.368	4.41
243.75	4.24
244.133	4.22
244.515	4.48
244.897	3.89
245.279	3.23
245.661	4.37
246.043	3.8
246.425	4.22
246.807	4.96
247.189	4.81
247.571	4.06
247.953	4.29
248.335	4.46
248.717	4.5
249.098	4.47
249.48	4.07
249.862	4.72
250.243	3.93
250.625	4.65
251.006	5.01
251.388	4.51
251.769	3.34
252.151	4.79
252.532	4.34
252.913	4.54
253.295	4.38
253.676	4.03
254.057	4.34
254.438	5.03
254.819	5.78
255.2	3.94
255.581	5.08
255.962	4.47
256.343	5.07
256.724	4.36
257.105	5.69
257.486	4.26
257.867	3.95
258.247	4.71
258.628	3.7
259.009	4.29
259.389	3.48
259.77	5.07
260.15	4.32
260.531	4.28
260.911	4.29
261.292	4.07
261.672	4.25
262.052	4.36
262.432	4.51
262.813	4.49
263.193	4.45
263.573	4.15
263.953	4.32
264.333	5.04
264.713	4.21
265.093	4.14
265.473	4.51
265.853	4.26
266.233	4.58
266.612	3.8
266.992	4.43
267.372	4.12
267.752	3.78
268.131	3.79
268.511	3.98
268.89	4.1
269.27	4.17
269.649	4.07
270.029	4.54
270.408	3.8
270.787	3.7
271.167	4.5
271.546	4.03
271.925	4.06
272.304	3.85
272.683	4.13
273.062	4.07
273.441	4.29
273.82	4.19
274.199	3.96
274.578	4.27
274.957	4.36
275.336	4.11
275.715	4.13
276.093	4.38
276.472	3.86
276.851	4.46
277.229	3.91
277.608	4.32
277.986	3.57
278.365	3.56
278.743	4.22
279.122	4.69
279.5	3.47
279.878	4.37
280.257	4.14
280.635	4.37
281.013	4.08
281.391	4.32
281.769	4.36
282.147	4.53
282.525	3.95
282.903	3.98
283.281	3.93
283.659	3.71
284.037	4.19
284.415	4.49
284.792	3.67
285.17	4.61
285.548	3.48
285.925	3.9
286.303	3.96
286.68	4.14
287.058	3.96
287.435	4.27
287.813	3.91
288.19	4.47
288.567	4.11
288.945	4.67
289.322	3.68
289.699	4.46
290.076	4.19
290.453	4.09
290.83	4.25
291.207	4.35
291.584	3.72
291.961	4.23
292.338	4.14
292.715	4.12
293.092	4.57
293.469	4.76
293.845	4.37
294.222	3.55
294.599	4.59
294.975	4.24
295.352	4.62
295.728	4.88
296.105	4.89
296.481	4.87
296.858	4.6
297.234	4.8
297.61	4.41
297.986	4.15
298.363	4.53
298.739	4.56
299.115	4.75
299.491	4.58
299.867	4.6
300.243	4.38
300.619	4.33
300.995	4.55
301.371	4.61
301.746	4.73
302.122	4.49
302.498	5.17
302.874	4.61
303.249	4.73
303.625	4.81
304	4.73
304.376	4.75
304.751	4.75
305.127	3.89
305.502	4.73
305.878	4.88
306.253	4.71
306.628	4.39
307.003	4.53
307.378	4.49
307.754	4.6
308.129	4.77
308.504	4.31
308.879	4.62
309.254	4.79
309.629	4.72
310.003	5.05
310.378	4.69
310.753	4.84
311.128	4.52
311.502	4.76
311.877	4.59
312.252	4.78
312.626	4.95
313.001	4.86
313.375	5.17
313.75	5.17
314.124	4.8
314.498	4.73
314.873	4.83
315.247	4.77
315.621	5.49
315.995	5.03
316.369	4.58
316.743	5.19
317.117	5.02
317.491	4.65
317.865	5.2
318.239	5.19
318.613	5.25
318.987	5.32
319.361	4.9
319.734	5.58
320.108	5.09
320.482	5.11
320.855	5.01
321.229	5.51
321.602	5.49
321.976	5.39
322.349	5.05
322.723	5.35
323.096	4.96
323.469	4.99
323.843	5.5
324.216	5.16
324.589	5.12
324.962	5.69
325.335	4.71
325.708	5.54
326.081	5.16
326.454	5.26
326.827	4.87
327.2	5.29
327.573	5.41
327.945	5.49
328.318	5.26
328.691	5.31
329.063	5.28
329.436	5.09
329.809	5.38
330.181	5.52
330.553	5.19
330.926	4.78
331.298	4.53
331.671	5.74
332.043	5.23
332.415	5.79
332.787	5.9
333.159	5.35
333.532	5.38
333.904	5.15
334.276	5.2
334.648	5.21
335.02	5.35
335.391	5.31
335.763	5.06
336.135	5.1
336.507	5.41
336.879	5.69
337.25	4.91
337.622	5.68
337.993	5.78
338.365	4.99
338.736	5.01
339.108	5.34
339.479	5.44
339.851	5.64
340.222	5.18
340.593	5.02
340.964	5.31
341.336	5.42
341.707	5.2
342.078	5.34
342.449	5.44
342.82	5.58
343.191	5.27
343.562	5.47
343.933	5.68
344.303	4.92
344.674	4.93
345.045	5.54
345.416	5.3
345.786	5.64
346.157	5.38
346.527	5.4
346.898	5.37
347.268	5.48
347.639	5.66
348.009	4.97
348.38	5.39
348.75	5.38
349.12	5.16
349.49	5.62
349.861	5.6
350.231	5.17
350.601	5.87
350.971	5.78
351.341	5.59
351.711	5.48
352.081	5.73
352.45	5.47
352.82	5.09
353.19	5.43
353.56	5.36
353.929	5.51
354.299	5.45
354.669	5.82
355.038	5.62
355.408	5.6
355.777	5.33
356.147	5.66
356.516	5.95
356.885	5.61
357.254	5.61
357.624	5.2
357.993	5.41
358.362	5.9
358.731	5.84
359.1	5.83
359.469	5.71
359.838	5.77
360.207	5.68
360.576	5.31
360.945	5.45
361.314	5.9
361.682	5.26
362.051	5.52
362.42	5.34
362.788	5.44
363.157	5.45
363.525	5.54
363.894	5.5
364.262	5.4
364.631	5.86
364.999	5.5
365.367	5.52
365.735	5.52
366.104	5.6
366.472	5.5
366.84	5.54
367.208	5.85
367.576	5.84
367.944	5.99
368.312	5.7
368.68	5.89
369.048	5.43
369.416	5.5
369.783	5.5
370.151	5.57
370.519	5.84
370.886	5.76
371.254	5.84
371.621	5.52
371.989	5.66
372.356	5.87
372.724	6.16
373.091	5.93
373.458	5.64
373.826	5.58
374.193	5.8
374.56	5.86
374.927	5.93
375.294	6
375.661	6.02
376.028	5.83
376.395	5.64
376.762	5.63
377.129	6.06
377.496	5.58
377.863	5.63
378.229	5.63
378.596	5.61
378.963	5.67
379.329	5.52
379.696	5.69
380.062	6.01
380.429	5.93
380.795	5.67
381.161	5.79
381.528	5.34
381.894	5.64
382.26	5.52
382.626	5.98
382.993	6.09
383.359	5.62
383.725	5.93
384.091	5.86
384.457	5.53
384.823	5.77
385.188	5.75
385.554	5.82
385.92	5.78
386.286	5.91
386.651	5.9
387.017	5.73
387.383	5.97
387.748	5.82
388.114	5.99
388.479	6.05
388.845	6.11
389.21	6.04
389.575	5.61
389.94	5.96
390.306	5.89
390.671	5.8
391.036	6.13
391.401	5.98
391.766	5.97
392.131	5.81
392.496	5.87
392.861	5.89
393.226	5.99
393.591	5.69
393.956	5.68
394.32	5.84
394.685	6.1
395.05	5.91
395.414	6.07
395.779	6.13
396.143	6.09
396.508	5.71
396.872	5.82
397.236	6.03
397.601	6.03
397.965	5.86
398.329	5.85
398.694	6.1
399.058	6.15
399.422	6.19
399.786	6.15
400.15	5.61
400.514	5.93
400.878	5.96
401.242	6.21
401.605	6.13
401.969	6.04
402.333	5.75
402.697	6.23
403.06	5.95
403.424	6.09
403.787	5.86
404.151	6.1
404.514	5.73
404.878	5.96
405.241	6.04
405.604	6.22
405.968	5.92
406.331	6.03
406.694	6.14
407.057	5.93
407.42	5.99
407.783	5.95
408.146	6.1
408.509	6.27
408.872	6.07
409.235	5.96
409.598	6.19
409.961	6.03
410.323	6.1
410.686	6.2
411.049	5.89
411.411	6.2
411.774	6.15
412.136	6.19
412.499	6.07
412.861	6.07
413.223	6.39
413.586	6.34
413.948	6.38
414.31	5.93
414.672	6.22
415.035	6.16
415.397	6.1
415.759	6.31
416.121	6.18
416.483	6.36
416.845	6.2
417.206	6.08
417.568	6.18
417.93	5.84
418.292	6.13
418.653	6.09
419.015	5.99
419.377	6.21
419.738	6.25
420.1	6.1
420.461	6.15
420.822	6.17
421.184	6.14
421.545	6.04
421.906	6.08
422.267	6.07
422.629	6.03
422.99	6.16
423.351	6.15
423.712	6.08
424.073	6.11
424.434	6.14
424.795	6.13
425.155	6.13
425.516	6.12
425.877	6.13
426.238	6.2
426.598	6.04
426.959	6.18
427.32	6.36
427.68	6.2
428.041	6.4
428.401	6.22
428.761	6.45
429.122	6.4
429.482	6.32
429.842	6.28
430.202	6.37
430.563	6.35
430.923	6.44
431.283	6.32
431.643	6.39
432.003	6.4
432.363	6.28
432.722	6.24
433.082	6.34
433.442	6.53
433.802	6.54
434.161	6.41
434.521	6.41
434.881	6.41
435.24	6.3
435.6	6.5
435.959	6.56
436.319	6.48
436.678	6.38
437.037	6.6
437.396	6.53
437.756	6.48
438.115	6.64
438.474	6.49
438.833	6.49
439.192	6.37
439.551	6.37
439.91	6.62
440.269	6.37
440.628	6.4
440.987	6.5
441.345	6.54
441.704	6.42
442.063	6.36
442.421	6.48
442.78	6.45
443.138	6.49
443.497	6.4
443.855	6.56
444.214	6.51
444.572	6.56
444.93	6.56
445.288	6.53
445.647	6.47
446.005	6.64
446.363	6.55
446.721	6.55
447.079	6.49
447.437	6.47
447.795	6.44
448.153	6.51
448.51	6.44
448.868	6.47
449.226	6.56
449.584	6.58
449.941	6.64
450.299	6.63
450.656	6.52
451.014	6.62
451.371	6.7
451.729	6.74
452.086	6.76
452.443	6.88
452.801	6.76
453.158	6.77
453.515	6.65
453.872	6.79
454.229	6.76
454.586	6.78
454.943	6.77
455.3	6.63
455.657	6.63
456.014	6.96
456.371	6.78
456.727	6.79
457.084	6.8
457.441	6.8
457.797	6.99
458.154	6.87
458.51	6.71
458.867	6.87
459.223	6.69
459.58	6.74
459.936	6.87
460.292	6.81
460.648	6.78
461.005	6.68
461.361	6.53
461.717	6.65
462.073	6.81
462.429	6.82
462.785	6.75
463.141	6.86
463.496	6.72
463.852	7
464.208	7.06
464.564	6.86
464.919	7
465.275	7.07
465.631	6.82
465.986	6.77
466.342	6.93
466.697	6.9
467.052	6.96
467.408	6.86
467.763	6.9
468.118	7.12
468.473	6.85
468.829	6.95
469.184	6.94
469.539	7.01
469.894	6.88
470.249	6.98
470.603	7.11
470.958	6.97
471.313	7.08
471.668	6.9
472.023	6.95
472.377	7.12
472.732	7.06
473.086	6.84
473.441	6.97
473.795	7.07
474.15	7.06
474.504	7.02
474.859	7.01
475.213	7.2
475.567	7.06
475.921	7.14
476.275	7.04
476.63	7.11
476.984	7.2
477.338	7.22
477.692	7.21
478.045	7.21
478.399	7.19
478.753	7.06
479.107	7.01
479.461	7.16
479.814	7.14
480.168	7.13
480.521	7.15
480.875	7.1
481.228	7.13
481.582	7.14
481.935	7.26
482.289	7.3
482.642	7.18
482.995	7.11
483.348	7.05
483.701	7.12
484.055	7.02
484.408	6.97
484.761	6.93
485.114	6.75
485.466	6.76
485.819	6.79
486.172	6.93
486.525	7.03
486.878	7.01
487.23	7.06
487.583	7.11
487.936	7.06
488.288	7.02
488.641	7
488.993	6.98
489.345	6.95
489.698	6.99
490.05	7.08
490.402	7.08
490.754	7.19
491.107	7.17
491.459	7.19
491.811	7.27
492.163	7.2
492.515	7.19
492.866	7.08
493.218	7.01
493.57	7.13
493.922	7.24
494.274	7.37
494.625	7.27
494.977	7.31
495.328	7.51
495.68	7.41
496.031	7.6
496.383	7.48
496.734	7.55
497.086	7.42
497.437	7.5
497.788	7.45
498.139	7.39
498.49	7.46
498.842	7.47
499.193	7.45
499.544	7.6
499.894	7.5
500.245	7.47
500.596	7.55
500.947	7.63
501.298	7.65
501.648	7.67
501.999	7.6
502.35	7.76
502.7	7.67
503.051	7.73
503.401	7.7
503.752	7.59
504.102	7.77
504.452	7.67
504.803	7.75
505.153	7.7
505.503	7.77
505.853	7.69
506.203	7.78
506.553	7.8
506.903	7.78
507.253	7.72
507.603	7.71
507.953	7.73
508.303	7.97
508.652	7.85
509.002	7.91
509.352	7.84
509.701	7.8
510.051	7.74
510.4	7.85
510.75	7.75
511.099	7.83
511.449	7.86
511.798	7.83
512.147	7.76
512.496	7.85
512.846	7.9
513.195	7.88
513.544	7.93
513.893	7.89
514.242	7.96
514.591	7.95
514.939	8.01
515.288	8.09
515.637	7.99
515.986	8.08
516.334	8.11
516.683	8.09
517.032	8.18
517.38	8
517.729	8.13
518.077	8.13
518.426	7.98
518.774	8.08
519.122	7.97
519.47	7.97
519.819	7.95
520.167	8.07
520.515	8.08
520.863	8.07
521.211	8.18
521.559	8.21
521.907	8.11
522.255	8.18
522.602	8.26
522.95	8.25
523.298	8.22
523.645	8.21
523.993	8.53
524.341	8.4
524.688	8.3
525.036	8.41
525.383	8.33
525.73	8.34
526.078	8.32
526.425	8.19
526.772	8.28
527.119	8.16
527.466	8.24
527.814	8.31
528.161	8.31
528.508	8.31
528.854	8.45
529.201	8.25
529.548	8.2
529.895	8.03
530.242	8.07
530.588	8.11
530.935	8.2
531.282	8.29
531.628	8.32
531.975	8.42
532.321	8.45
532.667	8.46
533.014	8.48
533.36	8.5
533.706	8.55
534.052	8.53
534.399	8.42
534.745	8.36
535.091	8.48
535.437	8.49
535.783	8.62
536.129	8.61
536.474	8.67
536.82	8.72
537.166	8.74
537.512	8.74
537.857	8.78
538.203	8.7
538.549	8.76
538.894	8.78
539.239	8.9
539.585	8.87
539.93	8.9
540.276	8.95
540.621	9.01
540.966	8.99
541.311	8.88
541.656	8.95
542.001	8.85
542.346	8.78
542.691	8.65
543.036	8.76
543.381	8.75
543.726	8.81
544.071	8.87
544.415	8.98
544.76	8.93
545.105	8.95
545.449	9.01
545.794	9.13
546.138	9.22
546.483	9.24
546.827	9.09
547.171	9.16
547.516	9.27
547.86	9.29
548.204	9.14
548.548	9.14
548.892	9.34
549.236	9.27
549.58	9.28
549.924	9.4
550.268	9.37
550.612	9.46
550.956	9.44
551.3	9.47
551.643	9.5
551.987	9.54
552.33	9.94
552.674	9.73
553.017	9.62
553.361	9.71
553.704	9.84
554.048	9.77
554.391	9.89
554.734	9.61
555.077	9.73
555.42	9.81
555.764	9.84
556.107	9.87
556.45	9.76
556.793	10.09
557.135	9.91
557.478	10.12
557.821	9.89
558.164	9.93
558.507	10.04
558.849	10.03
559.192	10.2
559.534	10.24
559.877	10.15
560.219	10.17
560.562	10.19
560.904	10.24
561.246	9.96
561.589	10.11
561.931	10.32
562.273	10
562.615	10.33
562.957	10.28
563.299	10.41
563.641	10.2
563.983	10.35
564.325	10.38
564.667	10.62
565.008	10.46
565.35	10.41
565.692	10.4
566.033	10.38
566.375	10.25
566.716	10.31
567.058	10.35
567.399	10.51
567.741	10.47
568.082	10.58
568.423	10.55
568.764	10.57
569.105	10.52
569.447	10.69
569.788	10.6
570.129	10.68
570.47	10.69
570.811	10.55
571.151	10.84
571.492	10.88
571.833	10.89
572.174	10.78
572.514	10.83
572.855	10.95
573.195	10.86
573.536	10.67
573.876	10.91
574.217	10.83
574.557	10.86
574.898	11.02
575.238	11.07
575.578	11.18
575.918	11.11
576.258	11.02
576.598	10.98
576.938	11.13
577.278	11.22
577.618	11.17
577.958	11.34
578.298	11.29
578.638	11.12
578.977	11.26
579.317	11.18
579.657	11.35
579.996	11.54
580.336	11.36
580.675	11.42
581.014	11.54
581.354	11.48
581.693	11.55
582.032	11.69
582.372	11.58
582.711	11.63
583.05	11.61
583.389	11.66
583.728	11.69
584.067	11.69
584.406	11.67
584.745	11.8
585.083	11.81
585.422	11.95
585.761	12.13
586.1	11.92
586.438	11.85
586.777	12.02
587.115	12.06
587.454	12.01
587.792	12.07
588.13	11.89
588.469	12.04
588.807	11.88
589.145	12.02
589.483	12.2
589.821	11.97
590.159	12.06
590.497	12.29
590.835	12.39
591.173	12.18
591.511	12.38
591.849	12.28
592.187	12.19
592.524	12.26
592.862	12.61
593.2	12.26
593.537	12.52
593.875	12.51
594.212	12.63
594.55	12.28
594.887	12.62
595.224	12.52
595.561	12.63
595.899	12.7
596.236	12.61
596.573	12.41
596.91	12.78
597.247	12.58
597.584	12.72
597.921	12.66
598.258	12.77
598.594	12.82
598.931	12.87
599.268	12.56
599.604	12.56
599.941	12.94
600.277	12.92
600.614	12.77
600.95	13.06
601.287	12.9
601.623	12.97
601.959	13.21
602.296	13.18
602.632	13.24
602.968	13.34
603.304	12.94
603.64	13.25
603.976	13.34
604.312	13.25
604.648	13.08
604.984	13.06
605.319	13.26
605.655	13.22
605.991	13.13
606.326	13.25
606.662	13.2
606.998	13.41
607.333	13.24
607.668	13.66
608.004	13.75
608.339	13.55
608.674	13.83
609.01	13.44
609.345	13.58
609.68	13.85
610.015	13.86
610.35	13.65
610.685	13.61
611.02	13.76
611.355	13.79
611.689	13.72
612.024	13.9
612.359	13.88
612.694	14.08
613.028	13.74
613.363	14
613.697	14.18
614.032	14.21
614.366	14.08
614.7	14.02
615.035	14.2
615.369	14.15
615.703	14.17
616.037	14.34
616.371	14.27
616.705	14.44
617.039	14.58
617.373	14.59
617.707	14.4
618.041	14.36
618.375	14.31
618.709	14.57
619.042	14.33
619.376	14.33
619.71	14.68
620.043	14.41
620.377	14.62
620.71	14.32
621.043	14.68
621.377	14.57
621.71	14.81
622.043	14.73
622.376	15.21
622.709	14.75
623.043	15.07
623.376	14.75
623.709	15.09
624.041	14.9
624.374	15.29
624.707	15.12
625.04	15.1
625.373	15.05
625.705	14.96
626.038	15.19
626.37	15.23
626.703	15.23
627.035	14.93
627.368	15.13
627.7	15.45
628.032	15.12
628.365	15.36
628.697	15.04
629.029	15.1
629.361	15.29
629.693	15.25
630.025	15.18
630.357	15.17
630.689	15.54
631.021	15.49
631.353	15.22
631.684	15.64
632.016	15.78
632.348	15.61
632.679	15.72
633.011	15.26
633.342	15.86
633.674	15.99
634.005	15.98
634.336	15.55
634.668	15.71
634.999	15.74
635.33	15.38
635.661	15.81
635.992	15.8
636.323	16.23
636.654	16.09
636.985	15.69
637.316	15.96
637.647	16.27
637.977	15.96
638.308	15.84
638.639	16.02
638.969	16.19
639.3	15.86
639.63	16.31
639.961	15.84
640.291	15.93
640.622	16.07
640.952	16.26
641.282	16.31
641.612	16.21
641.943	16
642.273	16.83
642.603	16.4
642.933	16.34
643.263	16.32
643.592	16.25
643.922	16.59
644.252	16.86
644.582	16.34
644.911	16.8
645.241	16.82
645.571	16.74
645.9	16.79
646.23	16.69
646.559	16.64
646.888	17.07
647.218	16.75
647.547	16.92
647.876	16.76
648.205	17.26
648.534	17.18
648.863	16.81
649.192	16.74
649.521	17.43
649.85	16.98
650.179	17.16
650.508	17.42
650.837	17.25
651.165	17.15
651.494	17.2
651.822	16.87
652.151	16.78
652.479	17.24
652.808	17.39
653.136	17.24
653.465	17.06
653.793	16.98
654.121	17.4
654.449	17.44
654.777	17.28
655.105	17.24
655.433	17.6
655.761	17.52
656.089	17.77
656.417	17.84
656.745	17.25
657.073	17.58
657.4	17.55
657.728	18.1
658.056	17.8
658.383	18.06
658.711	18.45
659.038	17.87
659.365	17.56
659.693	17.87
660.02	17.49
660.347	18.14
660.674	17.79
661.001	17.77
661.329	17.92
661.656	17.78
661.982	17.82
662.309	18.09
662.636	18.2
662.963	17.99
663.29	17.74
663.616	18.33
663.943	18.13
664.27	18.02
664.596	17.82
664.923	17.96
665.249	18.25
665.576	18.67
665.902	18.38
666.228	18.79
666.554	18.29
666.881	18.03
667.207	18.69
667.533	18.68
667.859	18.75
668.185	18.53
668.511	18.12
668.837	18.49
669.162	19.01
669.488	19.13
669.814	19.07
670.139	19.07
670.465	18.97
670.791	18.71
671.116	18.78
671.442	19.06
671.767	18.76
672.092	18.54
672.418	18.97
672.743	19.08
673.068	18.74
673.393	18.9
673.718	19.38
674.043	19.2
674.368	19.36
674.693	18.82
675.018	18.75
675.343	18.91
675.667	19.29
675.992	18.89
676.317	19.36
676.641	18.55
676.966	19.49
677.29	19.34
677.615	19.54
677.939	19.53
678.264	19.58
678.588	19.84
678.912	19.27
679.236	19.67
679.56	19.21
679.885	19.47
680.209	19.59
680.532	19.42
680.856	19.28
681.18	19.82
681.504	19.88
681.828	19.89
682.152	19.28
682.475	19.47
682.799	19.38
683.122	19.32
683.446	19.76
683.769	20.38
684.093	20.41
