Data from 0023_crown_Reflection__1__52.txt Node

Date: Thu Oct 20 20:44:59 CDT 2022
User: ToomeyLab
Spectrometer: FLMS14357
Trigger mode: 0
Integration Time (sec): 1.000000E-2
Scans to average: 100
Electric dark correction enabled: true
Nonlinearity correction enabled: false
Boxcar width: 0
XAxis mode: Wavelengths
Number of Pixels in Spectrum: 2048
>>>>>Begin Spectral Data<<<<<
189.047	139.42
189.435	139.42
189.823	139.42
190.211	140.55
190.599	354.67
190.987	-278.06
191.375	-2807.81
191.763	11.31
192.151	-24.25
192.538	-77.92
192.926	-47.55
193.314	120.07
193.702	107.91
194.089	-211.33
194.477	98.52
194.864	324.06
195.252	75.78
195.639	62.58
196.027	68.12
196.414	-94.02
196.801	-680.87
197.189	52.18
197.576	17.98
197.963	-1706.87
198.351	13.89
198.738	5.16
199.125	8.8
199.512	-38.73
199.899	-4.02
200.286	23.17
200.673	5.41
201.06	48.44
201.447	12.86
201.833	8.37
202.22	1.49
202.607	51.78
202.994	12.68
203.38	11.42
203.767	24.59
204.154	-13.06
204.54	40.83
204.927	26.27
205.313	8.86
205.699	12.01
206.086	17.75
206.472	20.7
206.858	41.31
207.245	36.95
207.631	17.24
208.017	1.96
208.403	24.74
208.789	21.16
209.175	61.85
209.561	29.62
209.947	13.97
210.333	-1.62
210.719	3.87
211.105	-29.51
211.491	9.42
211.876	0.26
212.262	-22.66
212.648	-15.31
213.034	18.92
213.419	17.53
213.805	-7.44
214.19	-4.84
214.576	15.74
214.961	-29.53
215.346	-9.64
215.732	6.84
216.117	39.57
216.502	35.91
216.888	26.33
217.273	13.86
217.658	16.05
218.043	-4.26
218.428	2.75
218.813	-4.7
219.198	2.25
219.583	14.46
219.968	-12.36
220.353	3.99
220.738	19.81
221.122	-3.04
221.507	-2.29
221.892	10.55
222.276	13.1
222.661	4.34
223.046	11.02
223.43	4.02
223.815	-4.14
224.199	0.36
224.583	7.47
224.968	0.76
225.352	10.04
225.736	7.22
226.121	10.35
226.505	0.26
226.889	4.78
227.273	2.15
227.657	2.91
228.041	7.16
228.425	4.96
228.809	3.04
229.193	6.06
229.577	4.9
229.961	3.84
230.344	4.46
230.728	4.25
231.112	3.32
231.495	4.14
231.879	4.75
232.263	3.74
232.646	3.41
233.03	2.68
233.413	1.94
233.797	3.64
234.18	2.33
234.563	4.09
234.946	3.13
235.33	3.43
235.713	5.72
236.096	4.28
236.479	1.33
236.862	5.56
237.245	4.34
237.628	3.76
238.011	3.48
238.394	4.31
238.777	4
239.16	4.48
239.543	3.88
239.925	4.42
240.308	4.17
240.691	1.93
241.073	4.28
241.456	3.68
241.838	3.41
242.221	4.09
242.603	3.88
242.986	3.69
243.368	3.55
243.75	3.78
244.133	3.56
244.515	3.62
244.897	3.59
245.279	3.99
245.661	4.17
246.043	3.48
246.425	2.88
246.807	3.26
247.189	3.6
247.571	3.39
247.953	3.66
248.335	3.28
248.717	3.45
249.098	3.52
249.48	3.41
249.862	3.98
250.243	3.23
250.625	4.09
251.006	4.13
251.388	3.52
251.769	3.09
252.151	3.64
252.532	3.64
252.913	3.5
253.295	3.21
253.676	3.4
254.057	3.85
254.438	4.43
254.819	4.38
255.2	3.48
255.581	3.86
255.962	2.52
256.343	4.91
256.724	2.83
257.105	2.63
257.486	3.61
257.867	2.82
258.247	3.39
258.628	2.72
259.009	3.05
259.389	3.06
259.77	3.99
260.15	3.49
260.531	3.67
260.911	3.12
261.292	3.12
261.672	3.25
262.052	3.55
262.432	3.52
262.813	3.47
263.193	3.14
263.573	3.1
263.953	3.13
264.333	3.59
264.713	2.96
265.093	3.04
265.473	4.15
265.853	2.47
266.233	3.89
266.612	2.55
266.992	4.09
267.372	3.54
267.752	3.49
268.131	2.67
268.511	3.31
268.89	2.87
269.27	3.63
269.649	3.85
270.029	3.72
270.408	2.89
270.787	3.42
271.167	3.63
271.546	3.01
271.925	3.29
272.304	3.83
272.683	3.21
273.062	3
273.441	3.7
273.82	3.09
274.199	3.22
274.578	3.73
274.957	3.57
275.336	3.35
275.715	3.18
276.093	3.1
276.472	3.21
276.851	3.34
277.229	2.48
277.608	2.95
277.986	3.18
278.365	3.65
278.743	3.41
279.122	3.87
279.5	3.1
279.878	3.74
280.257	3.15
280.635	3.5
281.013	3.59
281.391	3.45
281.769	3.02
282.147	3.43
282.525	3.26
282.903	3.37
283.281	3.27
283.659	3.05
284.037	2.94
284.415	3.47
284.792	3.15
285.17	3.16
285.548	2.89
285.925	3.48
286.303	3.34
286.68	3.05
287.058	3.18
287.435	3.14
287.813	3.08
288.19	3.57
288.567	2.65
288.945	3.73
289.322	2.84
289.699	3.62
290.076	3.26
290.453	3.14
290.83	3.31
291.207	3.52
291.584	2.72
291.961	3.26
292.338	3.1
292.715	3.17
293.092	3.39
293.469	3.45
293.845	3.49
294.222	2.94
294.599	3.59
294.975	3.15
295.352	3.28
295.728	3.27
296.105	3.26
296.481	3.46
296.858	2.81
297.234	2.89
297.61	2.75
297.986	2.97
298.363	3.19
298.739	3.08
299.115	3.47
299.491	3.61
299.867	3.41
300.243	3.44
300.619	3.59
300.995	3.22
301.371	3.17
301.746	3.12
302.122	3.14
302.498	3.46
302.874	3.4
303.249	3.14
303.625	3.24
304	3.65
304.376	3.29
304.751	2.83
305.127	2.45
305.502	3.11
305.878	3.29
306.253	3.49
306.628	3.34
307.003	2.98
307.378	3.42
307.754	3.47
308.129	3.43
308.504	3.06
308.879	3.19
309.254	3.43
309.629	3.07
310.003	3.54
310.378	3.47
310.753	3.43
311.128	3.21
311.502	3.34
311.877	3.29
312.252	3.35
312.626	3.18
313.001	3.28
313.375	3.41
313.75	3.16
314.124	3.33
314.498	3.25
314.873	3.58
315.247	2.98
315.621	3.31
315.995	3.4
316.369	3.39
316.743	3.75
317.117	3.23
317.491	3.08
317.865	3.95
318.239	3.28
318.613	3.44
318.987	3.46
319.361	3.31
319.734	3.53
320.108	3.71
320.482	3.21
320.855	3.35
321.229	3.64
321.602	3.21
321.976	3.78
322.349	3.46
322.723	3.84
323.096	3.17
323.469	3.34
323.843	3.62
324.216	3.54
324.589	3.41
324.962	3.63
325.335	2.79
325.708	3.41
326.081	3.48
326.454	3.78
326.827	3.3
327.2	3.64
327.573	3.43
327.945	3.56
328.318	3.31
328.691	3.25
329.063	3.07
329.436	2.72
329.809	3.13
330.181	3.33
330.553	2.89
330.926	3.29
331.298	2.98
331.671	3.28
332.043	3.27
332.415	3.66
332.787	3.77
333.159	3.64
333.532	3.63
333.904	3.01
334.276	3.36
334.648	3.5
335.02	3.35
335.391	3.51
335.763	3.35
336.135	2.89
336.507	3.14
336.879	3.28
337.25	3.21
337.622	3.65
337.993	3.61
338.365	3.16
338.736	3.62
339.108	3.08
339.479	3.27
339.851	3.62
340.222	3.03
340.593	3.38
340.964	3.26
341.336	3.05
341.707	3.99
342.078	3.33
342.449	3.16
342.82	3.37
343.191	3.17
343.562	3.23
343.933	3.34
344.303	3.5
344.674	2.64
345.045	3.18
345.416	3.42
345.786	3.13
346.157	3.49
346.527	3.07
346.898	3.4
347.268	3.36
347.639	3.52
348.009	2.92
348.38	3.58
348.75	2.85
349.12	3.15
349.49	3.31
349.861	3.93
350.231	3.3
350.601	3.59
350.971	2.88
351.341	3.66
351.711	3.1
352.081	3.68
352.45	3.23
352.82	3.26
353.19	3.48
353.56	3.27
353.929	3.56
354.299	3.15
354.669	3.44
355.038	3.06
355.408	3.03
355.777	3.34
356.147	3.2
356.516	3.52
356.885	3.55
357.254	3.37
357.624	3.13
357.993	3.05
358.362	3.57
358.731	3.53
359.1	3.62
359.469	3.42
359.838	3.43
360.207	3.76
360.576	2.92
360.945	3.06
361.314	3.38
361.682	3.36
362.051	3.53
362.42	3.05
362.788	3.27
363.157	3.5
363.525	3.34
363.894	3.49
364.262	3.43
364.631	3.73
364.999	3.26
365.367	3.04
365.735	3.35
366.104	3.45
366.472	3.3
366.84	3.55
367.208	3.5
367.576	3.17
367.944	3.45
368.312	3.58
368.68	3.4
369.048	3.08
369.416	3.6
369.783	3.72
370.151	3.37
370.519	3.6
370.886	3.47
371.254	3.39
371.621	3.26
371.989	3.21
372.356	3.52
372.724	3.66
373.091	3.49
373.458	3.59
373.826	3.44
374.193	3.53
374.56	3.52
374.927	3.49
375.294	3.48
375.661	3.64
376.028	3.33
376.395	3.5
376.762	3.18
377.129	3.65
377.496	3.41
377.863	3.14
378.229	3.29
378.596	3.3
378.963	3.43
379.329	3.17
379.696	3.41
380.062	3.59
380.429	3.86
380.795	3.33
381.161	3.49
381.528	3.38
381.894	3.27
382.26	3.43
382.626	3.63
382.993	3.41
383.359	3.34
383.725	3.49
384.091	3.33
384.457	3.22
384.823	3.21
385.188	3.42
385.554	3.49
385.92	3.36
386.286	3.44
386.651	3.54
387.017	3.28
387.383	3.72
387.748	3.2
388.114	3.63
388.479	3.67
388.845	3.55
389.21	3.38
389.575	3.29
389.94	3.78
390.306	3.29
390.671	3.21
391.036	3.61
391.401	3.54
391.766	3.48
392.131	3.26
392.496	3.34
392.861	3.52
393.226	3.36
393.591	3.4
393.956	3.35
394.32	3.18
394.685	3.53
395.05	3.29
395.414	3.51
395.779	3.53
396.143	3.46
396.508	3.46
396.872	3.43
397.236	3.62
397.601	3.78
397.965	3.66
398.329	3.23
398.694	3.42
399.058	3.63
399.422	3.44
399.786	3.43
400.15	3.17
400.514	3.38
400.878	3.36
401.242	3.55
401.605	3.31
401.969	3.49
402.333	3.15
402.697	3.77
403.06	3.18
403.424	3.44
403.787	3.38
404.151	3.47
404.514	3.42
404.878	3.37
405.241	3.37
405.604	3.59
405.968	3.4
406.331	3.59
406.694	3.55
407.057	3.46
407.42	3.38
407.783	3.43
408.146	3.47
408.509	3.61
408.872	3.64
409.235	3.33
409.598	3.49
409.961	3.39
410.323	3.47
410.686	3.51
411.049	3.32
411.411	3.54
411.774	3.55
412.136	3.6
412.499	3.6
412.861	3.33
413.223	3.52
413.586	3.75
413.948	3.59
414.31	3.46
414.672	3.34
415.035	3.51
415.397	3.57
415.759	3.46
416.121	3.42
416.483	3.55
416.845	3.61
417.206	3.4
417.568	3.37
417.93	3.32
418.292	3.54
418.653	3.41
419.015	3.49
419.377	3.33
419.738	3.55
420.1	3.4
420.461	3.42
420.822	3.47
421.184	3.5
421.545	3.42
421.906	3.39
422.267	3.32
422.629	3.51
422.99	3.36
423.351	3.47
423.712	3.48
424.073	3.41
424.434	3.41
424.795	3.43
425.155	3.44
425.516	3.35
425.877	3.41
426.238	3.41
426.598	3.31
426.959	3.52
427.32	3.52
427.68	3.44
428.041	3.55
428.401	3.57
428.761	3.63
429.122	3.63
429.482	3.68
429.842	3.69
430.202	3.79
430.563	3.55
430.923	3.63
431.283	3.54
431.643	3.55
432.003	3.78
432.363	3.65
432.722	3.66
433.082	3.7
433.442	3.7
433.802	3.59
434.161	3.43
434.521	3.66
434.881	3.65
435.24	3.5
435.6	3.6
435.959	3.56
436.319	3.62
436.678	3.53
437.037	3.84
437.396	3.49
437.756	3.55
438.115	3.59
438.474	3.65
438.833	3.56
439.192	3.51
439.551	3.5
439.91	3.65
440.269	3.71
440.628	3.56
440.987	3.56
441.345	3.56
441.704	3.71
442.063	3.58
442.421	3.55
442.78	3.59
443.138	3.65
443.497	3.72
443.855	3.66
444.214	3.58
444.572	3.63
444.93	3.71
445.288	3.62
445.647	3.54
446.005	3.65
446.363	3.67
446.721	3.61
447.079	3.48
447.437	3.54
447.795	3.43
448.153	3.66
448.51	3.49
448.868	3.59
449.226	3.58
449.584	3.66
449.941	3.75
450.299	3.61
450.656	3.78
451.014	3.64
451.371	3.77
451.729	3.8
452.086	3.66
452.443	3.7
452.801	3.63
453.158	3.6
453.515	3.72
453.872	3.65
454.229	3.79
454.586	3.7
454.943	3.76
455.3	3.6
455.657	3.67
456.014	3.83
456.371	3.73
456.727	3.64
457.084	3.7
457.441	3.54
457.797	3.84
458.154	3.83
458.51	3.73
458.867	3.73
459.223	3.77
459.58	3.66
459.936	3.64
460.292	3.63
460.648	3.65
461.005	3.57
461.361	3.48
461.717	3.68
462.073	3.65
462.429	3.77
462.785	3.7
463.141	3.83
463.496	3.6
463.852	3.92
464.208	3.85
464.564	3.78
464.919	3.94
465.275	3.61
465.631	3.73
465.986	3.71
466.342	3.77
466.697	3.76
467.052	3.68
467.408	3.81
467.763	3.81
468.118	3.76
468.473	3.7
468.829	3.74
469.184	3.72
469.539	3.89
469.894	3.75
470.249	3.47
470.603	3.87
470.958	3.76
471.313	3.83
471.668	3.71
472.023	3.85
472.377	3.8
472.732	3.83
473.086	3.87
473.441	3.78
473.795	3.93
474.15	3.71
474.504	3.74
474.859	3.83
475.213	3.96
475.567	3.93
475.921	3.84
476.275	3.83
476.63	3.87
476.984	3.88
477.338	3.83
477.692	3.81
478.045	3.9
478.399	3.91
478.753	3.75
479.107	3.9
479.461	3.79
479.814	3.71
480.168	3.89
480.521	3.69
480.875	3.74
481.228	3.78
481.582	3.81
481.935	3.84
482.289	3.72
482.642	3.75
482.995	3.73
483.348	3.78
483.701	3.77
484.055	3.71
484.408	3.63
484.761	3.55
485.114	3.42
485.466	3.47
485.819	3.58
486.172	3.73
486.525	3.84
486.878	3.86
487.23	3.87
487.583	3.84
487.936	3.68
488.288	3.66
488.641	3.6
488.993	3.66
489.345	3.67
489.698	3.72
490.05	3.77
490.402	3.81
490.754	3.9
491.107	3.84
491.459	3.97
491.811	3.91
492.163	3.76
492.515	3.69
492.866	3.59
493.218	3.63
493.57	3.76
493.922	3.86
494.274	4.01
494.625	4.01
494.977	3.99
495.328	4.02
495.68	3.93
496.031	4.03
496.383	4.02
496.734	4.01
497.086	3.85
497.437	3.95
497.788	3.83
498.139	3.82
498.49	3.8
498.842	3.96
499.193	3.86
499.544	3.99
499.894	4.02
500.245	3.86
500.596	3.96
500.947	4.08
501.298	3.99
501.648	4.12
501.999	4.07
502.35	4.04
502.7	4.13
503.051	4.11
503.401	4.12
503.752	4.06
504.102	3.91
504.452	4.02
504.803	4.11
505.153	3.96
505.503	4.02
505.853	3.79
506.203	3.96
506.553	3.96
506.903	4.03
507.253	3.97
507.603	4.08
507.953	4.06
508.303	4.17
508.652	4.04
509.002	4.04
509.352	4.03
509.701	3.98
510.051	3.92
510.4	3.96
510.75	3.93
511.099	4.07
511.449	4.01
511.798	4.09
512.147	3.91
512.496	4.03
512.846	3.95
513.195	3.92
513.544	3.97
513.893	4
514.242	3.96
514.591	4.01
514.939	4.01
515.288	4.14
515.637	4.13
515.986	4.21
516.334	4.13
516.683	4.05
517.032	4.07
517.38	4.03
517.729	4.08
518.077	4.07
518.426	3.96
518.774	4.14
519.122	3.93
519.47	3.95
519.819	3.97
520.167	4.04
520.515	4.09
520.863	4.06
521.211	4.09
521.559	4.25
521.907	4.09
522.255	4.06
522.602	4.15
522.95	3.97
523.298	4.1
523.645	4.05
523.993	4.21
524.341	4.2
524.688	4.12
525.036	4.11
525.383	4.18
525.73	4.13
526.078	4
526.425	4.08
526.772	3.97
527.119	3.95
527.466	4
527.814	4.02
528.161	4.17
528.508	4.03
528.854	4.1
529.201	3.93
529.548	3.87
529.895	3.71
530.242	3.77
530.588	3.88
530.935	4
531.282	4.15
531.628	4.13
531.975	4.1
532.321	4.18
532.667	4.12
533.014	4.14
533.36	4.06
533.706	4.04
534.052	3.95
534.399	3.96
534.745	3.87
535.091	3.98
535.437	4.09
535.783	4.16
536.129	4.21
536.474	4.16
536.82	4.22
537.166	4.26
537.512	4.12
537.857	4.07
538.203	4.12
538.549	4.13
538.894	4.26
539.239	4.31
539.585	4.15
539.93	4.15
540.276	4.28
540.621	4.21
540.966	4.28
541.311	4.23
541.656	4.19
542.001	4.05
542.346	4.02
542.691	3.87
543.036	3.9
543.381	4.04
543.726	4.15
544.071	4.14
544.415	4.13
544.76	4.16
545.105	4.19
545.449	4.26
545.794	4.29
546.138	4.35
546.483	4.33
546.827	4.24
547.171	4.14
547.516	4.24
547.86	4.25
548.204	4.2
548.548	4.21
548.892	4.25
549.236	4.17
549.58	4.34
549.924	4.36
550.268	4.43
550.612	4.32
550.956	4.36
551.3	4.37
551.643	4.21
551.987	4.34
552.33	4.62
552.674	4.52
553.017	4.25
553.361	4.38
553.704	4.42
554.048	4.34
554.391	4.44
554.734	4.33
555.077	4.43
555.42	4.41
555.764	4.51
556.107	4.42
556.45	4.43
556.793	4.46
557.135	4.38
557.478	4.56
557.821	4.34
558.164	4.39
558.507	4.5
558.849	4.45
559.192	4.52
559.534	4.64
559.877	4.56
560.219	4.53
560.562	4.56
560.904	4.51
561.246	4.33
561.589	4.47
561.931	4.55
562.273	4.46
562.615	4.45
562.957	4.66
563.299	4.55
563.641	4.4
563.983	4.41
564.325	4.71
564.667	4.53
565.008	4.52
565.35	4.48
565.692	4.58
566.033	4.5
566.375	4.36
566.716	4.28
567.058	4.44
567.399	4.5
567.741	4.55
568.082	4.46
568.423	4.48
568.764	4.48
569.105	4.58
569.447	4.63
569.788	4.61
570.129	4.48
570.47	4.34
570.811	4.41
571.151	4.46
571.492	4.66
571.833	4.5
572.174	4.57
572.514	4.55
572.855	4.52
573.195	4.44
573.536	4.33
573.876	4.37
574.217	4.41
574.557	4.49
574.898	4.61
575.238	4.72
575.578	4.58
575.918	4.44
576.258	4.51
576.598	4.46
576.938	4.53
577.278	4.58
577.618	4.45
577.958	4.73
578.298	4.62
578.638	4.56
578.977	4.34
579.317	4.32
579.657	4.79
579.996	4.83
580.336	4.54
580.675	4.5
581.014	4.69
581.354	4.77
581.693	4.74
582.032	4.61
582.372	4.64
582.711	4.51
583.05	4.67
583.389	4.76
583.728	4.56
584.067	4.86
584.406	4.72
584.745	4.43
585.083	4.7
585.422	4.69
585.761	4.71
586.1	4.74
586.438	4.8
586.777	4.69
587.115	4.81
587.454	4.78
587.792	4.54
588.13	4.5
588.469	4.46
588.807	4.65
589.145	4.81
589.483	4.6
589.821	4.4
590.159	4.5
590.497	4.72
590.835	4.82
591.173	4.67
591.511	4.7
591.849	4.7
592.187	4.52
592.524	4.66
592.862	4.86
593.2	4.64
593.537	4.96
593.875	4.62
594.212	4.7
594.55	4.82
594.887	4.98
595.224	4.76
595.561	4.87
595.899	4.72
596.236	4.84
596.573	4.64
596.91	4.86
597.247	4.68
597.584	4.7
597.921	4.6
598.258	4.62
598.594	4.67
598.931	4.72
599.268	4.72
599.604	4.84
599.941	5
600.277	4.72
600.614	4.61
600.95	4.95
601.287	4.65
601.623	4.9
601.959	4.92
602.296	4.65
602.632	4.89
602.968	4.84
603.304	4.72
603.64	4.75
603.976	5.01
604.312	4.93
604.648	4.64
604.984	4.52
605.319	4.72
605.655	4.56
605.991	4.65
606.326	4.75
606.662	4.5
606.998	4.74
607.333	4.91
607.668	4.94
608.004	5.06
608.339	4.82
608.674	4.82
609.01	4.69
609.345	4.61
609.68	4.84
610.015	4.95
610.35	4.92
610.685	4.57
611.02	4.68
611.355	4.85
611.689	4.78
612.024	4.93
612.359	4.68
612.694	4.99
613.028	5.05
613.363	4.66
613.697	5.05
614.032	4.91
614.366	4.94
614.7	5.02
615.035	5.05
615.369	4.95
615.703	4.74
616.037	5.01
616.371	5.16
616.705	5.09
617.039	5
617.373	5.08
617.707	4.8
618.041	4.95
618.375	4.77
618.709	4.99
619.042	4.84
619.376	5.22
619.71	4.99
620.043	5.14
620.377	5.19
620.71	5.04
621.043	5.14
621.377	5.18
621.71	5.15
622.043	5.03
622.376	4.96
622.709	4.95
623.043	5.37
623.376	4.73
623.709	4.96
624.041	4.77
624.374	4.85
624.707	5.19
625.04	4.95
625.373	5.32
625.705	5.1
626.038	5.22
626.37	5
626.703	5.27
627.035	5.08
627.368	4.97
627.7	5.16
628.032	5.12
628.365	5.15
628.697	4.84
629.029	4.93
629.361	5.14
629.693	5.09
630.025	5.26
630.357	5.18
630.689	5.34
631.021	5.01
631.353	4.76
631.684	5.16
632.016	5.07
632.348	5.12
632.679	5.36
633.011	5
633.342	5.28
633.674	4.85
634.005	5.29
634.336	5.04
634.668	4.9
634.999	4.9
635.33	4.93
635.661	5
635.992	4.89
636.323	5.35
636.654	5.05
636.985	5.08
637.316	5.25
637.647	5.07
637.977	5.08
638.308	5.1
638.639	4.93
638.969	5.26
639.3	5.1
639.63	5.38
639.961	4.94
640.291	5.11
640.622	5.17
640.952	5.78
641.282	5.22
641.612	5.17
641.943	5.08
642.273	5.67
642.603	5.26
642.933	5.17
643.263	5.43
643.592	5.17
643.922	5.2
644.252	5.29
644.582	5.13
644.911	4.87
645.241	5.42
645.571	5.64
645.9	5.42
646.23	5.12
646.559	5.27
646.888	5.15
647.218	5.37
647.547	5.57
647.876	5.14
648.205	5.45
648.534	5.46
648.863	5.24
649.192	5.19
649.521	5.7
649.85	5.64
650.179	5.26
650.508	5.5
650.837	5.14
651.165	5.11
651.494	5.61
651.822	5.23
652.151	5.43
652.479	5.11
652.808	5.72
653.136	5.36
653.465	5.39
653.793	5.39
654.121	5.19
654.449	5.54
654.777	5.2
655.105	5.32
655.433	5.75
655.761	5.86
656.089	5.25
656.417	5.62
656.745	5.18
657.073	5.42
657.4	5.59
657.728	5.66
658.056	5.1
658.383	5.72
658.711	5.67
659.038	5.37
659.365	5.3
659.693	5.44
660.02	5.23
660.347	5.73
660.674	5.16
661.001	5.4
661.329	5.06
661.656	5.25
661.982	5.34
662.309	5.36
662.636	5.39
662.963	5.81
663.29	5.29
663.616	5.81
663.943	5.13
664.27	5.1
664.596	5.14
664.923	5.45
665.249	5.63
665.576	5.65
665.902	5.9
666.228	6.41
666.554	5.09
666.881	5.69
667.207	6.11
667.533	6.22
667.859	6
668.185	6.06
668.511	5.4
668.837	5.71
669.162	5.57
669.488	5.49
669.814	5.91
670.139	5.86
670.465	5.56
670.791	4.98
671.116	6.05
671.442	5.87
671.767	6
672.092	5.66
672.418	5.43
672.743	5.88
673.068	5.41
673.393	5.67
673.718	5.74
674.043	5.62
674.368	5.6
674.693	5.25
675.018	5.49
675.343	5.17
675.667	5.5
675.992	5.67
676.317	5.66
676.641	5.51
676.966	6.19
677.29	5.7
677.615	5.08
677.939	6.42
678.264	5.4
678.588	5.57
678.912	5.46
679.236	6.33
679.56	4.89
679.885	5.97
680.209	6.05
680.532	5.26
680.856	6.11
681.18	5.25
681.504	5
681.828	5.97
682.152	5.55
682.475	5.64
682.799	5.42
683.122	5.73
683.446	6.22
683.769	5.55
684.093	5.55
684.416	6.36
684.739	6.11
685.062	6.55
685.386	5.96
685.709	6.18
686.032	6.75
686.355	6.52
686.678	5.34
687.001	5.84
687.324	5.82
687.646	6.1
687.969	6.21
688.292	5.78
688.614	5.92
688.937	5.77
689.26	5.65
689.582	5.4
689.904	5.98
690.227	5.96
690.549	6.16
690.871	5.62
691.194	5.85
691.516	6.09
691.838	5.75
692.16	6.6
692.482	6.61
