Data from 0051_chest_Reflection__1__31.txt Node

Date: Fri Dec 16 14:06:26 CST 2022
User: ToomeyLab
Spectrometer: FLMS14357
Trigger mode: 0
Integration Time (sec): 1.000000E-2
Scans to average: 100
Electric dark correction enabled: true
Nonlinearity correction enabled: false
Boxcar width: 0
XAxis mode: Wavelengths
Number of Pixels in Spectrum: 2048
>>>>>Begin Spectral Data<<<<<
189.047	119.63
189.435	119.63
189.823	119.63
190.211	26.77
190.599	159.34
190.987	53.13
191.375	-8.49
191.763	38.76
192.151	-359.55
192.538	100.47
192.926	28.62
193.314	52.56
193.702	-141.21
194.089	-41.3
194.477	9.2
194.864	-57.7
195.252	10.98
195.639	94.47
196.027	92.52
196.414	526.14
196.801	684.62
197.189	628.15
197.576	-17.33
197.963	45.34
198.351	-22.02
198.738	16.3
199.125	21.15
199.512	-2.59
199.899	3.32
200.286	-17.91
200.673	36
201.06	15.17
201.447	5.68
201.833	-17.58
202.22	29.41
202.607	10.38
202.994	15
203.38	-28.81
203.767	-19.06
204.154	-34.44
204.54	30.45
204.927	1.73
205.313	43.1
205.699	0.74
206.086	14.52
206.472	21.93
206.858	33.42
207.245	11.63
207.631	-17.37
208.017	7.74
208.403	30.59
208.789	-7.68
209.175	35.18
209.561	5.84
209.947	-9.51
210.333	5.07
210.719	-7.99
211.105	-0.05
211.491	11.98
211.876	-3.13
212.262	-27.43
212.648	-12.9
213.034	10.8
213.419	14.81
213.805	14.44
214.19	30.11
214.576	-27.87
214.961	1.44
215.346	-22.69
215.732	-20.36
216.117	0.47
216.502	-13.63
216.888	-27.56
217.273	8.89
217.658	-6.32
218.043	2.28
218.428	12.62
218.813	-5.51
219.198	-11.26
219.583	16.58
219.968	6.62
220.353	13.66
220.738	-15.12
221.122	-6.59
221.507	1.89
221.892	6.51
222.276	5.85
222.661	-1.17
223.046	7.16
223.43	-3.92
223.815	6.98
224.199	8.49
224.583	3.48
224.968	11.42
225.352	0.23
225.736	2.05
226.121	-6.54
226.505	6.28
226.889	8.77
227.273	0.08
227.657	-0.19
228.041	6.27
228.425	2.94
228.809	1.81
229.193	1.09
229.577	1.53
229.961	2.74
230.344	2.89
230.728	2.66
231.112	2.57
231.495	2.08
231.879	2.03
232.263	2.06
232.646	1.82
233.03	1.02
233.413	1.92
233.797	3.32
234.18	1.66
234.563	2.19
234.946	0.56
235.33	2.82
235.713	1.42
236.096	2.58
236.479	1.37
236.862	2.54
237.245	3.12
237.628	1.83
238.011	1.27
238.394	3.21
238.777	2.44
239.16	0.73
239.543	1.64
239.925	2.56
240.308	2.69
240.691	2.92
241.073	3
241.456	2
241.838	1.87
242.221	1.64
242.603	2.16
242.986	3.36
243.368	2.05
243.75	1.98
244.133	2.3
244.515	2.44
244.897	1.66
245.279	1.71
245.661	2.58
246.043	2.64
246.425	2.36
246.807	2.04
247.189	2.21
247.571	2.44
247.953	2.38
248.335	2.3
248.717	2.34
249.098	2.64
249.48	1.93
249.862	2.56
250.243	2.37
250.625	2.26
251.006	2.37
251.388	2.75
251.769	2.26
252.151	2.33
252.532	2.15
252.913	2.52
253.295	2.23
253.676	2.26
254.057	2.39
254.438	1.66
254.819	1.68
255.2	1.83
255.581	2.2
255.962	2.06
256.343	3.11
256.724	3.13
257.105	2.94
257.486	2.21
257.867	0.47
258.247	1.79
258.628	2.03
259.009	1.72
259.389	2.41
259.77	1.79
260.15	2.52
260.531	2.28
260.911	2.16
261.292	2.23
261.672	2.06
262.052	2.18
262.432	1.56
262.813	2.06
263.193	1.63
263.573	2.05
263.953	2.29
264.333	2.67
264.713	2.41
265.093	1.86
265.473	2.79
265.853	2.1
266.233	1.37
266.612	1.98
266.992	1.94
267.372	2.6
267.752	1.34
268.131	2.24
268.511	2.69
268.89	2.41
269.27	2.13
269.649	2.43
270.029	2.02
270.408	2.27
270.787	1.58
271.167	2.14
271.546	1.72
271.925	2.02
272.304	2.13
272.683	1.59
273.062	2.19
273.441	2.33
273.82	2.1
274.199	2.12
274.578	2.09
274.957	2.34
275.336	1.81
275.715	2.48
276.093	2.72
276.472	2.47
276.851	2.31
277.229	1.95
277.608	1.75
277.986	2.1
278.365	1.88
278.743	1.7
279.122	1.6
279.5	1.75
279.878	1.41
280.257	2.42
280.635	1.61
281.013	2.79
281.391	1.89
281.769	1.9
282.147	2.16
282.525	1.59
282.903	2.23
283.281	1.81
283.659	1.98
284.037	2.16
284.415	2.17
284.792	2.11
285.17	1.95
285.548	2.03
285.925	2.39
286.303	1.87
286.68	1.98
287.058	2.12
287.435	1.78
287.813	1.78
288.19	2.47
288.567	1.84
288.945	1.8
289.322	1.93
289.699	2.01
290.076	2.56
290.453	1.42
290.83	1.99
291.207	2.04
291.584	1.74
291.961	2.46
292.338	2.11
292.715	1.89
293.092	1.95
293.469	2.21
293.845	2.27
294.222	2.3
294.599	2.39
294.975	1.99
295.352	1.51
295.728	1.83
296.105	2.09
296.481	2.58
296.858	2.31
297.234	2.36
297.61	2.48
297.986	2.25
298.363	1.84
298.739	2.38
299.115	1.99
299.491	2.48
299.867	2.18
300.243	2.34
300.619	2.18
300.995	2.44
301.371	2.43
301.746	2.02
302.122	2.27
302.498	2.55
302.874	2.23
303.249	2.48
303.625	2.68
304	1.77
304.376	2.49
304.751	2.26
305.127	2.07
305.502	2.65
305.878	2.48
306.253	2.31
306.628	2.66
307.003	2.7
307.378	1.97
307.754	2.75
308.129	1.66
308.504	2.27
308.879	2.27
309.254	2.68
309.629	2.65
310.003	2.93
310.378	2.57
310.753	2.69
311.128	2.39
311.502	1.89
311.877	2.28
312.252	2.42
312.626	2.26
313.001	2.12
313.375	2.69
313.75	2.32
314.124	2.88
314.498	2.2
314.873	2.04
315.247	2.28
315.621	2.74
315.995	2.91
316.369	2.58
316.743	2.45
317.117	2.72
317.491	2.81
317.865	1.81
318.239	2.69
318.613	2.39
318.987	2.63
319.361	3.01
319.734	2.49
320.108	2.55
320.482	2.38
320.855	2.8
321.229	2.84
321.602	2.21
321.976	2.68
322.349	2.12
322.723	2.66
323.096	2.41
323.469	2.25
323.843	2.59
324.216	2.17
324.589	2.68
324.962	2.6
325.335	2.48
325.708	2.58
326.081	2.93
326.454	2.53
326.827	2.92
327.2	2.85
327.573	3.14
327.945	2.57
328.318	2.64
328.691	2.7
329.063	2.82
329.436	2.3
329.809	2.08
330.181	2.44
330.553	2.76
330.926	2.93
331.298	2.18
331.671	2.51
332.043	2.47
332.415	2.76
332.787	3.03
333.159	2.77
333.532	2.61
333.904	2.66
334.276	2.9
334.648	3.06
335.02	2.78
335.391	3.29
335.763	2.66
336.135	2.93
336.507	3.19
336.879	2.96
337.25	3.09
337.622	2.91
337.993	2.72
338.365	3.34
338.736	2.8
339.108	2.71
339.479	2.25
339.851	2.88
340.222	2.56
340.593	2.46
340.964	2.41
341.336	2.63
341.707	2.71
342.078	2.15
342.449	3.34
342.82	2.6
343.191	1.98
343.562	2.82
343.933	2.63
344.303	2.79
344.674	2.8
345.045	3.05
345.416	2.72
345.786	2.39
346.157	2.83
346.527	2.42
346.898	2.67
347.268	2.7
347.639	2.59
348.009	2.67
348.38	3.05
348.75	2.87
349.12	3
349.49	2.56
349.861	3.26
350.231	3.31
350.601	2.59
350.971	2.42
351.341	2.71
351.711	2.81
352.081	2.82
352.45	3.22
352.82	2.99
353.19	2.98
353.56	2.83
353.929	2.6
354.299	2.47
354.669	2.76
355.038	2.88
355.408	3.26
355.777	2.61
356.147	3.01
356.516	2.89
356.885	2.68
357.254	2.63
357.624	2.93
357.993	2.48
358.362	2.75
358.731	2.57
359.1	3.07
359.469	3.03
359.838	2.9
360.207	2.71
360.576	2.46
360.945	2.76
361.314	2.71
361.682	2.56
362.051	2.8
362.42	3.23
362.788	2.65
363.157	2.68
363.525	2.61
363.894	2.48
364.262	2.41
364.631	3.27
364.999	2.43
365.367	3.06
365.735	2.49
366.104	2.52
366.472	3.08
366.84	2.72
367.208	2.64
367.576	2.92
367.944	2.96
368.312	2.52
368.68	2.95
369.048	3.15
369.416	2.94
369.783	2.42
370.151	2.49
370.519	2.53
370.886	2.76
371.254	3.05
371.621	3.09
371.989	2.73
372.356	2.92
372.724	2.78
373.091	2.74
373.458	2.69
373.826	2.7
374.193	3.06
374.56	2.59
374.927	2.82
375.294	3.2
375.661	3.25
376.028	2.8
376.395	2.63
376.762	3.12
377.129	3.11
377.496	2.75
377.863	3.23
378.229	2.81
378.596	2.89
378.963	2.61
379.329	2.81
379.696	2.76
380.062	3.03
380.429	2.95
380.795	2.74
381.161	2.76
381.528	2.31
381.894	2.98
382.26	2.76
382.626	2.72
382.993	2.85
383.359	2.77
383.725	2.92
384.091	2.81
384.457	2.83
384.823	2.89
385.188	2.91
385.554	2.81
385.92	2.98
386.286	3.09
386.651	3.02
387.017	3.15
387.383	2.87
387.748	2.63
388.114	3.02
388.479	2.97
388.845	2.74
389.21	3.02
389.575	2.89
389.94	3.01
390.306	2.88
390.671	2.77
391.036	2.82
391.401	2.91
391.766	2.97
392.131	2.85
392.496	2.94
392.861	2.89
393.226	2.83
393.591	2.89
393.956	3
394.32	2.9
394.685	3.04
395.05	2.62
395.414	2.81
395.779	2.99
396.143	3.21
396.508	2.93
396.872	2.9
397.236	2.65
397.601	3.21
397.965	2.66
398.329	3.15
398.694	2.6
399.058	3.16
399.422	3.09
399.786	2.96
400.15	2.85
400.514	2.88
400.878	2.81
401.242	3.21
401.605	2.94
401.969	3.11
402.333	2.91
402.697	3.13
403.06	3.01
403.424	3.09
403.787	3.21
404.151	2.82
404.514	3.28
404.878	2.88
405.241	3.11
405.604	2.81
405.968	2.95
406.331	3.09
406.694	2.96
407.057	3.23
407.42	3.06
407.783	2.86
408.146	2.91
408.509	2.99
408.872	2.8
409.235	3.26
409.598	3.1
409.961	3.24
410.323	3.17
410.686	2.88
411.049	3.09
411.411	3.18
411.774	3.01
412.136	3.07
412.499	2.93
412.861	2.69
413.223	3.05
413.586	2.84
413.948	3.19
414.31	3.17
414.672	3.01
415.035	2.97
415.397	3.06
415.759	3.08
416.121	3.4
416.483	3.16
416.845	3.05
417.206	3.18
417.568	3.13
417.93	3.1
418.292	3
418.653	3.27
419.015	3.24
419.377	3.06
419.738	3
420.1	3.06
420.461	3.05
420.822	3.08
421.184	3.03
421.545	2.98
421.906	2.95
422.267	2.86
422.629	3.03
422.99	3.04
423.351	3.07
423.712	3.08
424.073	3.07
424.434	2.98
424.795	3.02
425.155	2.99
425.516	2.99
425.877	3.13
426.238	2.96
426.598	3.13
426.959	3.07
427.32	3.13
427.68	3.18
428.041	3.11
428.401	3.07
428.761	3.04
429.122	3.01
429.482	2.92
429.842	3.22
430.202	3.17
430.563	3.07
430.923	2.92
431.283	3.18
431.643	3.2
432.003	3.21
432.363	3.18
432.722	2.94
433.082	3.14
433.442	3.09
433.802	3.26
434.161	3.08
434.521	3.13
434.881	3.2
435.24	3.03
435.6	3.24
435.959	3.11
436.319	3.11
436.678	3.3
437.037	3.14
437.396	3.33
437.756	3.19
438.115	3.29
438.474	3.23
438.833	3.42
439.192	3.34
439.551	3.13
439.91	3.24
440.269	3.31
440.628	3.15
440.987	3.01
441.345	3.12
441.704	3.25
442.063	3.14
442.421	3.28
442.78	3.14
443.138	3.21
443.497	3.15
443.855	3.18
444.214	3.23
444.572	3.16
444.93	3.25
445.288	3.29
445.647	3.24
446.005	3.14
446.363	3.19
446.721	3.02
447.079	3.16
447.437	3.18
447.795	3.25
448.153	3.23
448.51	3.11
448.868	3.32
449.226	3.32
449.584	3.21
449.941	3.45
450.299	3.26
450.656	3.29
451.014	3.28
451.371	3.34
451.729	3.21
452.086	3.08
452.443	3.35
452.801	3.3
453.158	3.27
453.515	3.18
453.872	3.39
454.229	3.17
454.586	3.28
454.943	3.33
455.3	3.48
455.657	3.21
456.014	3.41
456.371	3.44
456.727	3.26
457.084	3.32
457.441	3.22
457.797	3.39
458.154	3.26
458.51	3.27
458.867	3.22
459.223	3.35
459.58	3.16
459.936	3.21
460.292	3.32
460.648	3.29
461.005	3.22
461.361	3.22
461.717	3.29
462.073	3.32
462.429	3.39
462.785	3.43
463.141	3.39
463.496	3.3
463.852	3.51
464.208	3.37
464.564	3.37
464.919	3.28
465.275	3.31
465.631	3.3
465.986	3.28
466.342	3.44
466.697	3.39
467.052	3.41
467.408	3.32
467.763	3.36
468.118	3.5
468.473	3.64
468.829	3.43
469.184	3.46
469.539	3.3
469.894	3.4
470.249	3.51
470.603	3.59
470.958	3.7
471.313	3.46
471.668	3.52
472.023	3.53
472.377	3.52
472.732	3.4
473.086	3.31
473.441	3.58
473.795	3.53
474.15	3.41
474.504	3.49
474.859	3.46
475.213	3.37
475.567	3.47
475.921	3.65
476.275	3.54
476.63	3.58
476.984	3.51
477.338	3.72
477.692	3.6
478.045	3.51
478.399	3.51
478.753	3.37
479.107	3.38
479.461	3.58
479.814	3.48
480.168	3.51
480.521	3.48
480.875	3.68
481.228	3.55
481.582	3.49
481.935	3.59
482.289	3.5
482.642	3.46
482.995	3.41
483.348	3.44
483.701	3.45
484.055	3.43
484.408	3.4
484.761	3.27
485.114	3.21
485.466	3.28
485.819	3.32
486.172	3.36
486.525	3.41
486.878	3.4
487.23	3.43
487.583	3.47
487.936	3.46
488.288	3.42
488.641	3.38
488.993	3.29
489.345	3.36
489.698	3.38
490.05	3.42
490.402	3.51
490.754	3.55
491.107	3.51
491.459	3.55
491.811	3.62
492.163	3.66
492.515	3.55
492.866	3.39
493.218	3.42
493.57	3.55
493.922	3.51
494.274	3.6
494.625	3.6
494.977	3.63
495.328	3.68
495.68	3.81
496.031	3.7
496.383	3.68
496.734	3.75
497.086	3.51
497.437	3.74
497.788	3.65
498.139	3.62
498.49	3.69
498.842	3.62
499.193	3.7
499.544	3.77
499.894	3.69
500.245	3.69
500.596	3.69
500.947	3.68
501.298	3.68
501.648	3.73
501.999	3.8
502.35	3.82
502.7	3.87
503.051	3.85
503.401	3.72
503.752	3.7
504.102	3.7
504.452	3.77
504.803	3.63
505.153	3.87
505.503	3.71
505.853	3.71
506.203	3.94
506.553	3.75
506.903	3.77
507.253	3.81
507.603	3.74
507.953	3.92
508.303	3.8
508.652	3.87
509.002	3.94
509.352	3.86
509.701	3.83
510.051	3.94
510.4	3.86
510.75	3.87
511.099	3.76
511.449	3.86
511.798	3.92
512.147	3.9
512.496	3.87
512.846	3.88
513.195	3.96
513.544	3.87
513.893	3.82
514.242	4.02
514.591	4.02
514.939	3.9
515.288	4.08
515.637	4.03
515.986	3.91
516.334	4
516.683	3.99
517.032	3.91
517.38	4
517.729	3.95
518.077	3.99
518.426	4
518.774	3.99
519.122	3.91
519.47	3.83
519.819	3.93
520.167	3.98
520.515	3.99
520.863	3.98
521.211	3.99
521.559	4.02
521.907	4.01
522.255	4.05
522.602	4.14
522.95	4.14
523.298	4.04
523.645	3.94
523.993	4.12
524.341	4.09
524.688	4.15
525.036	4.18
525.383	4.21
525.73	4.16
526.078	4.26
526.425	4.15
526.772	3.95
527.119	3.99
527.466	4.02
527.814	4.03
528.161	4.07
528.508	4.12
528.854	4.1
529.201	4.08
529.548	4.01
529.895	3.99
530.242	3.98
530.588	4.03
530.935	4.06
531.282	4.12
531.628	4.15
531.975	4.19
532.321	4.18
532.667	4.23
533.014	4.26
533.36	4.24
533.706	4.2
534.052	4.16
534.399	4.13
534.745	4.13
535.091	4.21
535.437	4.28
535.783	4.34
536.129	4.25
536.474	4.4
536.82	4.32
537.166	4.41
537.512	4.39
537.857	4.25
538.203	4.27
538.549	4.38
538.894	4.41
539.239	4.56
539.585	4.52
539.93	4.47
540.276	4.54
540.621	4.5
540.966	4.55
541.311	4.5
541.656	4.5
542.001	4.59
542.346	4.45
542.691	4.3
543.036	4.3
543.381	4.44
543.726	4.53
544.071	4.55
544.415	4.49
544.76	4.47
545.105	4.6
545.449	4.62
545.794	4.71
546.138	4.78
546.483	4.66
546.827	4.65
547.171	4.64
547.516	4.72
547.86	4.69
548.204	4.59
548.548	4.75
548.892	4.78
549.236	4.85
549.58	4.77
549.924	4.81
550.268	4.92
550.612	4.94
550.956	4.92
551.3	4.84
551.643	4.95
551.987	5.05
552.33	4.96
552.674	5.1
553.017	4.99
553.361	5.08
553.704	4.96
554.048	5.08
554.391	4.98
554.734	4.96
555.077	5.01
555.42	5.14
555.764	5.07
556.107	4.99
556.45	5.07
556.793	5.27
557.135	5.21
557.478	5.41
557.821	5.21
558.164	5.26
558.507	5.19
558.849	5.16
559.192	5.34
559.534	5.19
559.877	5.32
560.219	5.39
560.562	5.26
560.904	5.24
561.246	5.35
561.589	5.41
561.931	5.5
562.273	5.31
562.615	5.48
562.957	5.39
563.299	5.54
563.641	5.57
563.983	5.36
564.325	5.28
564.667	5.37
565.008	5.4
565.35	5.51
565.692	5.63
566.033	5.55
566.375	5.29
566.716	5.7
567.058	5.68
567.399	5.54
567.741	5.65
568.082	5.45
568.423	5.53
568.764	5.73
569.105	5.8
569.447	5.63
569.788	5.64
570.129	5.66
570.47	5.7
570.811	5.86
571.151	5.79
571.492	5.93
571.833	5.9
572.174	5.81
572.514	5.68
572.855	5.9
573.195	5.88
573.536	5.85
573.876	5.9
574.217	5.94
574.557	5.94
574.898	5.87
575.238	5.8
575.578	6.07
575.918	5.92
576.258	6
576.598	5.99
576.938	6.19
577.278	6.12
577.618	6.07
577.958	6.19
578.298	6.25
578.638	6.12
578.977	6.27
579.317	6.22
579.657	6.3
579.996	6.19
580.336	6.05
580.675	6.4
581.014	6.18
581.354	6.41
581.693	6.32
582.032	6.21
582.372	6.52
582.711	6.57
583.05	6.55
583.389	6.55
583.728	6.6
584.067	6.51
584.406	6.67
584.745	6.3
585.083	6.56
585.422	6.76
585.761	6.88
586.1	6.77
586.438	6.51
586.777	6.72
587.115	6.95
587.454	6.8
587.792	6.6
588.13	7.09
588.469	7.11
588.807	7
589.145	6.79
589.483	6.77
589.821	6.98
590.159	6.95
590.497	6.46
590.835	6.97
591.173	6.96
591.511	7.21
591.849	7.1
592.187	7.2
592.524	7.02
592.862	7.18
593.2	7.23
593.537	6.91
593.875	7.25
594.212	7.21
594.55	7.11
594.887	7.28
595.224	7.14
595.561	7.15
595.899	7.44
596.236	7.31
596.573	7.15
596.91	7.5
597.247	7.38
597.584	7.39
597.921	7.33
598.258	7.29
598.594	7.23
598.931	7.34
599.268	7.59
599.604	7.67
599.941	7.65
600.277	7.63
600.614	7.84
600.95	7.71
601.287	7.58
601.623	7.89
601.959	7.69
602.296	7.94
602.632	7.97
602.968	7.74
603.304	7.86
603.64	7.73
603.976	7.78
604.312	8.17
604.648	7.83
604.984	7.89
605.319	7.99
605.655	7.86
605.991	7.85
606.326	7.93
606.662	7.94
606.998	8.02
607.333	8.04
607.668	8.19
608.004	8.1
608.339	8.09
608.674	8.07
609.01	8.41
609.345	8.37
609.68	8.04
610.015	8.27
610.35	8.24
610.685	8.28
611.02	8.32
611.355	8.36
611.689	8.16
612.024	8.42
612.359	8.49
612.694	8.54
613.028	8.88
613.363	8.41
613.697	8.7
614.032	8.68
614.366	8.52
614.7	8.75
615.035	8.84
615.369	8.59
615.703	8.81
616.037	8.89
616.371	8.72
616.705	8.74
617.039	8.7
617.373	8.9
617.707	8.79
618.041	9.17
618.375	8.71
618.709	9.04
619.042	8.7
619.376	9
619.71	9.06
620.043	9.09
620.377	9.18
620.71	9.27
621.043	8.83
621.377	9.04
621.71	9.22
622.043	9.5
622.376	9.03
622.709	9.73
623.043	9.21
623.376	9.52
623.709	9.5
624.041	9.13
624.374	9.25
624.707	9.48
625.04	9.9
625.373	9.42
625.705	9.78
626.038	9.43
626.37	9.68
626.703	9.67
627.035	9.73
627.368	9.78
627.7	9.68
628.032	9.64
628.365	9.3
628.697	9.78
629.029	9.93
629.361	9.62
629.693	9.85
630.025	9.97
630.357	9.9
630.689	10.22
631.021	9.95
631.353	9.97
631.684	10.08
632.016	9.7
632.348	10.22
632.679	10.21
633.011	10.24
633.342	10.02
633.674	10.34
634.005	10.32
634.336	10.04
634.668	10.43
634.999	10.38
635.33	10.29
635.661	10.51
635.992	10.13
636.323	10.63
636.654	10.38
636.985	10.12
637.316	11.01
637.647	10.8
637.977	10.41
638.308	10.84
638.639	10.65
638.969	10.38
639.3	10.95
639.63	10.42
639.961	10.26
640.291	11.12
640.622	11.01
640.952	11.01
641.282	10.8
641.612	10.68
641.943	10.74
642.273	10.52
642.603	10.92
642.933	10.88
643.263	11.19
643.592	10.93
643.922	11.19
644.252	11.34
644.582	11.27
644.911	10.95
645.241	10.83
645.571	11.12
645.9	11.28
646.23	11.24
646.559	11.1
646.888	11.25
647.218	11.17
647.547	11.29
647.876	11.48
648.205	11.2
648.534	11.53
648.863	11.71
649.192	11.39
649.521	11.1
649.85	11.75
650.179	11.38
650.508	11.4
650.837	11.68
651.165	11.62
651.494	11.81
651.822	11.78
652.151	12.35
652.479	11.92
652.808	11.44
653.136	11.96
653.465	12.13
653.793	12.23
654.121	11.83
654.449	12.1
654.777	12.44
655.105	12.13
655.433	12.08
655.761	11.71
656.089	12.28
656.417	12.33
656.745	12.43
657.073	12.93
657.4	12.08
657.728	12.09
658.056	11.98
658.383	12.66
658.711	12.5
659.038	12.68
659.365	12.11
659.693	12.4
660.02	12.06
660.347	12.32
660.674	12.04
661.001	12.05
661.329	12.38
661.656	12.31
661.982	12.8
662.309	12.76
662.636	12.74
662.963	12.89
663.29	12.43
663.616	12.8
663.943	13.22
664.27	13.06
664.596	12.52
664.923	13.27
665.249	13.21
665.576	13.68
665.902	12.76
666.228	12.07
666.554	12.8
666.881	13.27
667.207	12.95
667.533	13.15
667.859	13.23
668.185	12.85
668.511	12.81
668.837	13.31
669.162	13.17
669.488	13.95
669.814	13.42
670.139	13.57
670.465	13.47
670.791	13.29
671.116	12.8
671.442	13.42
671.767	13.47
672.092	14.11
672.418	13.5
672.743	13.8
673.068	12.97
673.393	13.71
673.718	13.72
674.043	13.24
674.368	14.26
674.693	13.81
675.018	13.34
675.343	14.39
675.667	13.58
675.992	13.6
676.317	14.08
676.641	14.17
676.966	14.24
677.29	13.42
677.615	14.44
677.939	14.03
678.264	13.75
678.588	14.17
678.912	14.29
679.236	14.68
679.56	14.12
679.885	14.08
680.209	13.72
680.532	14.1
680.856	15.07
681.18	14.39
681.504	13.85
681.828	14.03
682.152	14.09
682.475	14.39
682.799	14.35
683.122	14.2
683.446	14.11
683.769	14.9
684.093	14.65
684.416	14.45
684.739	14.67
685.062	14.97
685.386	14.56
685.709	15.04
686.032	14.25
686.355	14.84
686.678	15.11
687.001	14.6
687.324	14.36
687.646	15.08
687.969	15.21
688.292	15.75
688.614	15.39
688.937	15.07
