Data from 0051_crown_Reflection__0__36.txt Node

Date: Fri Dec 16 14:08:04 CST 2022
User: ToomeyLab
Spectrometer: FLMS14357
Trigger mode: 0
Integration Time (sec): 1.000000E-2
Scans to average: 100
Electric dark correction enabled: true
Nonlinearity correction enabled: false
Boxcar width: 0
XAxis mode: Wavelengths
Number of Pixels in Spectrum: 2048
>>>>>Begin Spectral Data<<<<<
189.047	171.1
189.435	171.1
189.823	171.1
190.211	249.55
190.599	19.44
190.987	226.25
191.375	-18.88
191.763	39.69
192.151	-217.12
192.538	108.65
192.926	99.85
193.314	92.03
193.702	11.33
194.089	-15.84
194.477	-6.95
194.864	6.01
195.252	-44.98
195.639	185.54
196.027	31.13
196.414	-749.41
196.801	1952.49
197.189	127.68
197.576	200.04
197.963	-157.56
198.351	24.49
198.738	-16.95
199.125	37.64
199.512	2.99
199.899	9.68
200.286	-31.61
200.673	31.95
201.06	56.63
201.447	17.65
201.833	-4.42
202.22	26.15
202.607	-15.56
202.994	-12.04
203.38	-23.33
203.767	-9.13
204.154	-39.42
204.54	24.58
204.927	16.66
205.313	27.98
205.699	-17.96
206.086	-8.36
206.472	-11.12
206.858	5.78
207.245	15.5
207.631	12.33
208.017	18.3
208.403	5.78
208.789	15.84
209.175	23.78
209.561	10.76
209.947	-12.69
210.333	-22.63
210.719	-5.75
211.105	-1.13
211.491	-7.13
211.876	-3.98
212.262	-9.56
212.648	2.68
213.034	4.2
213.419	21.2
213.805	-1.93
214.19	21.59
214.576	15.96
214.961	13.96
215.346	-18.72
215.732	1.73
216.117	-17.7
216.502	-3.81
216.888	24.83
217.273	17.42
217.658	-36.89
218.043	11.96
218.428	18.06
218.813	3.8
219.198	-24.75
219.583	-2.49
219.968	-1.55
220.353	26.07
220.738	12.7
221.122	5.59
221.507	10.64
221.892	-0.02
222.276	10.86
222.661	-9.93
223.046	1.88
223.43	-4.34
223.815	6.58
224.199	9.18
224.583	11.55
224.968	5.74
225.352	3.77
225.736	14.22
226.121	3.68
226.505	9.54
226.889	7.52
227.273	8.06
227.657	4.3
228.041	8.33
228.425	7.61
228.809	6.17
229.193	5.92
229.577	5.86
229.961	6.11
230.344	6.7
230.728	5.8
231.112	6.11
231.495	6.35
231.879	6.33
232.263	4.47
232.646	6.31
233.03	4.44
233.413	5.86
233.797	7.8
234.18	5.53
234.563	4.37
234.946	4.88
235.33	6.36
235.713	4.15
236.096	4.83
236.479	6.44
236.862	6.86
237.245	6.11
237.628	7.16
238.011	6.62
238.394	7.12
238.777	6.68
239.16	5.3
239.543	4.35
239.925	4.92
240.308	5.53
240.691	5.01
241.073	5.01
241.456	5.75
241.838	5.05
242.221	5.25
242.603	5.45
242.986	5.84
243.368	5.3
243.75	5.51
244.133	5.52
244.515	5.5
244.897	5.3
245.279	5.7
245.661	5.24
246.043	5.21
246.425	5.16
246.807	5.08
247.189	4.76
247.571	5.41
247.953	5.37
248.335	5.53
248.717	5.36
249.098	5.5
249.48	4.81
249.862	5.4
250.243	4.99
250.625	5.25
251.006	5.31
251.388	5.65
251.769	4.85
252.151	5.17
252.532	5.74
252.913	5.39
253.295	5.44
253.676	5.43
254.057	4.87
254.438	5.39
254.819	5.79
255.2	4.17
255.581	5.02
255.962	5.18
256.343	5.66
256.724	4.35
257.105	4.58
257.486	5.3
257.867	3.81
258.247	5.01
258.628	5.78
259.009	5.2
259.389	5.53
259.77	4.75
260.15	5.49
260.531	4.83
260.911	5
261.292	4.8
261.672	4.83
262.052	4.8
262.432	4.47
262.813	4.95
263.193	4.67
263.573	4.81
263.953	4.05
264.333	5.06
264.713	4.47
265.093	4.44
265.473	5.73
265.853	3.71
266.233	4.32
266.612	4.71
266.992	4.5
267.372	4.86
267.752	4.37
268.131	4.73
268.511	5.15
268.89	4.3
269.27	4.96
269.649	4.72
270.029	5.07
270.408	4.45
270.787	4.65
271.167	4.19
271.546	3.93
271.925	4.63
272.304	4.6
272.683	4.08
273.062	4.63
273.441	4.64
273.82	4.54
274.199	4.54
274.578	4.07
274.957	4.31
275.336	4.41
275.715	4.48
276.093	4.7
276.472	4.66
276.851	4.92
277.229	4.86
277.608	4.57
277.986	3.99
278.365	4
278.743	4.64
279.122	4.24
279.5	4.19
279.878	3.83
280.257	4.29
280.635	4.33
281.013	4.56
281.391	4.24
281.769	4.04
282.147	4.42
282.525	3.99
282.903	4.6
283.281	4.13
283.659	4.34
284.037	4.3
284.415	4.24
284.792	4.13
285.17	3.86
285.548	3.84
285.925	4.01
286.303	4.27
286.68	4.17
287.058	4.06
287.435	4.09
287.813	4.34
288.19	4.87
288.567	4.35
288.945	4.49
289.322	4.12
289.699	4.05
290.076	4.4
290.453	3.94
290.83	4.02
291.207	4.1
291.584	3.97
291.961	4.16
292.338	4.37
292.715	4.54
293.092	4.06
293.469	4.06
293.845	3.91
294.222	4.16
294.599	4.48
294.975	4.26
295.352	3.88
295.728	3.95
296.105	4.38
296.481	4.92
296.858	4.11
297.234	3.95
297.61	4.2
297.986	3.9
298.363	3.73
298.739	4.3
299.115	3.8
299.491	3.93
299.867	4.32
300.243	3.91
300.619	4
300.995	4.1
301.371	3.98
301.746	3.64
302.122	4.05
302.498	3.7
302.874	4.54
303.249	4.45
303.625	4.07
304	4
304.376	4.5
304.751	4.23
305.127	4.35
305.502	4.33
305.878	4.09
306.253	3.41
306.628	4.06
307.003	3.69
307.378	4.21
307.754	4.11
308.129	3.49
308.504	4.04
308.879	3.78
309.254	4.34
309.629	3.86
310.003	4.48
310.378	4.59
310.753	4.04
311.128	3.99
311.502	3.75
311.877	3.99
312.252	4.13
312.626	3.81
313.001	4.26
313.375	4.13
313.75	4.2
314.124	4.73
314.498	3.74
314.873	4.21
315.247	3.75
315.621	4.32
315.995	4.01
316.369	4.27
316.743	3.97
317.117	4.01
317.491	4.33
317.865	3.68
318.239	4.3
318.613	4.09
318.987	4.45
319.361	4.67
319.734	4.93
320.108	4.25
320.482	3.58
320.855	4.46
321.229	4.77
321.602	4.24
321.976	4.42
322.349	3.56
322.723	3.78
323.096	3.89
323.469	3.69
323.843	4.33
324.216	3.95
324.589	4.26
324.962	4.52
325.335	4.09
325.708	4.2
326.081	4.34
326.454	4.71
326.827	4.63
327.2	4.92
327.573	4.15
327.945	4.32
328.318	4.16
328.691	4.23
329.063	4.49
329.436	4.35
329.809	4
330.181	4.35
330.553	4.46
330.926	4.3
331.298	4.03
331.671	3.73
332.043	4.13
332.415	4.95
332.787	4.76
333.159	4.59
333.532	4.79
333.904	4.36
334.276	4.72
334.648	4.34
335.02	3.78
335.391	4.4
335.763	4.02
336.135	4.7
336.507	4.78
336.879	4.36
337.25	4.23
337.622	4.19
337.993	4.61
338.365	4.53
338.736	4.54
339.108	4.29
339.479	4.27
339.851	4.57
340.222	4.37
340.593	4.15
340.964	4.11
341.336	4.28
341.707	4.19
342.078	4.03
342.449	4.56
342.82	4.38
343.191	3.92
343.562	4.59
343.933	4.66
344.303	4.74
344.674	4.41
345.045	4.76
345.416	4.37
345.786	3.89
346.157	4.39
346.527	4.12
346.898	4.03
347.268	4.51
347.639	4.32
348.009	4.45
348.38	4.72
348.75	4.7
349.12	4.32
349.49	4.06
349.861	4.92
350.231	4.69
350.601	4.37
350.971	4.36
351.341	4.36
351.711	4.47
352.081	4.42
352.45	4.57
352.82	4.31
353.19	4.84
353.56	4.19
353.929	4.91
354.299	4.05
354.669	4.15
355.038	4.26
355.408	5.23
355.777	4.45
356.147	4.8
356.516	4.83
356.885	4.23
357.254	4.57
357.624	4.66
357.993	4.4
358.362	4.78
358.731	4.41
359.1	4.72
359.469	4.54
359.838	4.47
360.207	4.41
360.576	4.66
360.945	4.51
361.314	4.52
361.682	4.22
362.051	4.54
362.42	4.9
362.788	4.76
363.157	4.22
363.525	4.47
363.894	4.3
364.262	4.47
364.631	5.15
364.999	4.51
365.367	4.76
365.735	4.34
366.104	4.27
366.472	4.72
366.84	4.82
367.208	4.11
367.576	4.55
367.944	4.91
368.312	4.56
368.68	4.73
369.048	4.82
369.416	4.75
369.783	4.64
370.151	4.71
370.519	4.53
370.886	4.26
371.254	4.71
371.621	4.55
371.989	4.77
372.356	4.93
372.724	4.64
373.091	4.67
373.458	4.64
373.826	4.83
374.193	4.77
374.56	4.49
374.927	4.66
375.294	4.8
375.661	4.81
376.028	4.63
376.395	4.56
376.762	4.84
377.129	5.18
377.496	4.55
377.863	4.74
378.229	4.7
378.596	4.6
378.963	4.38
379.329	4.82
379.696	4.44
380.062	5.06
380.429	4.57
380.795	4.63
381.161	4.88
381.528	4.39
381.894	4.77
382.26	4.67
382.626	4.78
382.993	4.67
383.359	4.77
383.725	4.62
384.091	4.47
384.457	4.76
384.823	4.83
385.188	4.9
385.554	4.39
385.92	4.99
386.286	4.84
386.651	4.62
387.017	4.95
387.383	4.9
387.748	4.6
388.114	4.61
388.479	4.81
388.845	4.78
389.21	4.98
389.575	4.92
389.94	4.77
390.306	4.73
390.671	4.74
391.036	4.8
391.401	5.02
391.766	4.73
392.131	4.95
392.496	4.7
392.861	4.69
393.226	4.87
393.591	4.81
393.956	4.84
394.32	4.87
394.685	5.05
395.05	4.52
395.414	4.95
395.779	4.69
396.143	5.14
396.508	4.99
396.872	4.93
397.236	4.59
397.601	4.95
397.965	4.64
398.329	5.05
398.694	4.65
399.058	4.84
399.422	4.91
399.786	4.61
400.15	4.89
400.514	4.97
400.878	4.93
401.242	4.73
401.605	4.74
401.969	4.79
402.333	4.69
402.697	4.89
403.06	5.11
403.424	4.87
403.787	4.96
404.151	4.63
404.514	4.83
404.878	4.77
405.241	4.95
405.604	4.83
405.968	4.72
406.331	4.83
406.694	4.86
407.057	4.95
407.42	4.73
407.783	4.93
408.146	4.85
408.509	4.95
408.872	4.61
409.235	5.01
409.598	4.91
409.961	5.04
410.323	4.83
410.686	4.76
411.049	4.59
411.411	4.83
411.774	4.83
412.136	5.01
412.499	4.87
412.861	4.76
413.223	5.08
413.586	4.99
413.948	4.86
414.31	4.73
414.672	4.58
415.035	5.01
415.397	4.89
415.759	4.7
416.121	4.9
416.483	4.91
416.845	4.9
417.206	4.88
417.568	4.91
417.93	4.77
418.292	4.96
418.653	4.91
419.015	4.81
419.377	4.89
419.738	4.74
420.1	4.65
420.461	4.76
420.822	4.81
421.184	4.87
421.545	4.74
421.906	4.74
422.267	4.71
422.629	4.74
422.99	4.82
423.351	4.74
423.712	4.75
424.073	4.84
424.434	4.77
424.795	4.68
425.155	4.84
425.516	4.78
425.877	4.82
426.238	4.67
426.598	4.76
426.959	4.75
427.32	4.83
427.68	4.74
428.041	4.85
428.401	4.78
428.761	4.94
429.122	4.68
429.482	4.76
429.842	4.91
430.202	4.87
430.563	4.88
430.923	4.75
431.283	5.04
431.643	4.82
432.003	4.88
432.363	4.94
432.722	4.82
433.082	4.83
433.442	4.92
433.802	4.79
434.161	4.95
434.521	4.94
434.881	4.87
435.24	4.74
435.6	4.85
435.959	4.79
436.319	4.83
436.678	4.92
437.037	4.85
437.396	4.88
437.756	4.92
438.115	4.81
438.474	4.83
438.833	4.82
439.192	4.99
439.551	4.88
439.91	5.03
440.269	4.94
440.628	4.88
440.987	4.63
441.345	4.77
441.704	4.78
442.063	4.76
442.421	4.8
442.78	4.72
443.138	4.83
443.497	4.75
443.855	4.81
444.214	4.85
444.572	4.79
444.93	4.8
445.288	4.81
445.647	4.9
446.005	4.67
446.363	4.74
446.721	4.63
447.079	4.72
447.437	4.72
447.795	4.7
448.153	4.7
448.51	4.72
448.868	4.78
449.226	4.83
449.584	4.77
449.941	4.89
450.299	4.74
450.656	4.9
451.014	4.75
451.371	4.89
451.729	4.82
452.086	4.66
452.443	4.74
452.801	4.89
453.158	4.71
453.515	4.65
453.872	4.85
454.229	4.78
454.586	4.7
454.943	4.81
455.3	4.96
455.657	4.68
456.014	4.84
456.371	4.98
456.727	4.79
457.084	4.73
457.441	4.79
457.797	4.8
458.154	4.8
458.51	4.78
458.867	4.85
459.223	4.95
459.58	4.81
459.936	4.72
460.292	4.86
460.648	4.67
461.005	4.65
461.361	4.79
461.717	4.66
462.073	4.76
462.429	4.81
462.785	4.72
463.141	4.96
463.496	4.77
463.852	4.84
464.208	4.82
464.564	4.69
464.919	4.8
465.275	4.93
465.631	4.78
465.986	4.82
466.342	5.01
466.697	4.96
467.052	4.91
467.408	4.92
467.763	4.63
468.118	4.77
468.473	4.88
468.829	4.89
469.184	4.96
469.539	4.8
469.894	4.76
470.249	4.92
470.603	4.87
470.958	4.81
471.313	4.64
471.668	4.78
472.023	5.04
472.377	4.82
472.732	4.75
473.086	4.59
473.441	5.08
473.795	4.98
474.15	4.8
474.504	4.86
474.859	4.88
475.213	4.79
475.567	4.73
475.921	4.82
476.275	4.88
476.63	4.77
476.984	4.61
477.338	5.04
477.692	4.83
478.045	4.79
478.399	4.86
478.753	4.6
479.107	4.74
479.461	4.85
479.814	4.72
480.168	4.84
480.521	4.86
480.875	4.96
481.228	4.83
481.582	4.6
481.935	4.75
482.289	4.72
482.642	4.73
482.995	4.77
483.348	4.61
483.701	4.58
484.055	4.53
484.408	4.59
484.761	4.38
485.114	4.34
485.466	4.38
485.819	4.44
486.172	4.51
486.525	4.59
486.878	4.57
487.23	4.6
487.583	4.56
487.936	4.61
488.288	4.49
488.641	4.47
488.993	4.41
489.345	4.43
489.698	4.54
490.05	4.53
490.402	4.61
490.754	4.68
491.107	4.6
491.459	4.68
491.811	4.68
492.163	4.67
492.515	4.59
492.866	4.39
493.218	4.45
493.57	4.51
493.922	4.52
494.274	4.66
494.625	4.74
494.977	4.68
495.328	4.81
495.68	4.9
496.031	4.65
496.383	4.69
496.734	4.76
497.086	4.6
497.437	4.82
497.788	4.61
498.139	4.71
498.49	4.68
498.842	4.62
499.193	4.61
499.544	4.73
499.894	4.73
500.245	4.74
500.596	4.72
500.947	4.76
501.298	4.72
501.648	4.73
501.999	4.82
502.35	4.74
502.7	4.81
503.051	4.81
503.401	4.84
503.752	4.56
504.102	4.71
504.452	4.59
504.803	4.57
505.153	4.81
505.503	4.64
505.853	4.64
506.203	4.63
506.553	4.75
506.903	4.67
507.253	4.69
507.603	4.66
507.953	4.91
508.303	4.77
508.652	4.61
509.002	4.8
509.352	4.66
509.701	4.63
510.051	4.67
510.4	4.67
510.75	4.67
511.099	4.65
511.449	4.73
511.798	4.79
512.147	4.69
512.496	4.71
512.846	4.68
513.195	4.73
513.544	4.68
513.893	4.52
514.242	4.78
514.591	4.72
514.939	4.62
515.288	4.72
515.637	4.81
515.986	4.57
516.334	4.76
516.683	4.65
517.032	4.59
517.38	4.76
517.729	4.65
518.077	4.77
518.426	4.66
518.774	4.65
519.122	4.6
519.47	4.6
519.819	4.58
520.167	4.6
520.515	4.54
520.863	4.56
521.211	4.65
521.559	4.66
521.907	4.67
522.255	4.66
522.602	4.78
522.95	4.74
523.298	4.61
523.645	4.68
523.993	4.86
524.341	4.65
524.688	4.56
525.036	4.76
525.383	4.7
525.73	4.73
526.078	4.71
526.425	4.59
526.772	4.51
527.119	4.49
527.466	4.55
527.814	4.56
528.161	4.59
528.508	4.59
528.854	4.52
529.201	4.48
529.548	4.41
529.895	4.41
530.242	4.38
530.588	4.43
530.935	4.48
531.282	4.53
531.628	4.58
531.975	4.59
532.321	4.58
532.667	4.61
533.014	4.52
533.36	4.57
533.706	4.56
534.052	4.51
534.399	4.42
534.745	4.4
535.091	4.44
535.437	4.48
535.783	4.63
536.129	4.57
536.474	4.68
536.82	4.55
537.166	4.65
537.512	4.6
537.857	4.54
538.203	4.58
538.549	4.63
538.894	4.66
539.239	4.76
539.585	4.64
539.93	4.71
540.276	4.63
540.621	4.58
540.966	4.69
541.311	4.63
541.656	4.58
542.001	4.59
542.346	4.49
542.691	4.38
543.036	4.4
543.381	4.48
543.726	4.53
544.071	4.61
544.415	4.56
544.76	4.48
545.105	4.62
545.449	4.54
545.794	4.59
546.138	4.7
546.483	4.7
546.827	4.52
547.171	4.64
547.516	4.76
547.86	4.59
548.204	4.54
548.548	4.65
548.892	4.6
549.236	4.65
549.58	4.75
549.924	4.67
550.268	4.87
550.612	4.89
550.956	4.76
551.3	4.76
551.643	4.64
551.987	4.62
552.33	4.71
552.674	4.71
553.017	4.76
553.361	4.6
553.704	4.57
554.048	4.78
554.391	4.63
554.734	4.59
555.077	4.73
555.42	4.78
555.764	4.53
556.107	4.64
556.45	4.69
556.793	4.83
557.135	4.83
557.478	4.75
557.821	4.61
558.164	4.72
558.507	4.76
558.849	4.62
559.192	4.85
559.534	4.75
559.877	4.86
560.219	4.87
560.562	4.82
560.904	4.61
561.246	4.77
561.589	4.77
561.931	4.94
562.273	4.68
562.615	4.84
562.957	4.85
563.299	4.79
563.641	4.89
563.983	4.77
564.325	4.8
564.667	4.62
565.008	4.63
565.35	4.73
565.692	4.63
566.033	4.88
566.375	4.61
566.716	4.72
567.058	4.6
567.399	4.73
567.741	4.87
568.082	4.65
568.423	4.63
568.764	4.66
569.105	4.72
569.447	4.56
569.788	4.79
570.129	4.81
570.47	4.68
570.811	4.59
571.151	4.67
571.492	4.83
571.833	4.66
572.174	4.61
572.514	4.61
572.855	4.71
573.195	4.6
573.536	4.63
573.876	4.64
574.217	4.75
574.557	4.68
574.898	4.56
575.238	4.58
575.578	4.82
575.918	4.69
576.258	4.63
576.598	4.64
576.938	4.78
577.278	4.59
577.618	4.57
577.958	4.78
578.298	4.7
578.638	4.82
578.977	4.67
579.317	4.78
579.657	4.86
579.996	4.69
580.336	4.64
580.675	4.7
581.014	4.61
581.354	4.67
581.693	4.58
582.032	4.6
582.372	4.92
582.711	4.73
583.05	4.98
583.389	4.75
583.728	4.75
584.067	4.72
584.406	4.8
584.745	4.53
585.083	4.91
585.422	4.6
585.761	4.82
586.1	4.81
586.438	4.83
586.777	4.83
587.115	4.87
587.454	4.61
587.792	4.52
588.13	5.07
588.469	4.91
588.807	5.13
589.145	4.86
589.483	4.68
589.821	4.54
590.159	4.67
590.497	4.46
590.835	4.38
591.173	4.84
591.511	4.84
591.849	4.8
592.187	4.78
592.524	4.64
592.862	4.71
593.2	4.7
593.537	4.61
593.875	4.69
594.212	4.63
594.55	4.68
594.887	4.62
595.224	4.67
595.561	4.79
595.899	4.63
596.236	4.8
596.573	4.57
596.91	4.8
597.247	4.68
597.584	4.82
597.921	4.62
598.258	4.61
598.594	4.48
598.931	4.59
599.268	4.67
599.604	4.63
599.941	4.63
600.277	4.76
600.614	4.71
600.95	4.83
601.287	4.61
601.623	4.77
601.959	4.5
602.296	4.66
602.632	4.84
602.968	4.56
603.304	4.55
603.64	4.6
603.976	4.67
604.312	4.75
604.648	4.72
604.984	4.62
605.319	4.72
605.655	4.68
605.991	4.65
606.326	4.59
606.662	4.52
606.998	4.64
607.333	4.63
607.668	4.62
608.004	4.58
608.339	4.72
608.674	4.69
609.01	4.64
609.345	4.86
609.68	4.41
610.015	4.87
610.35	4.73
610.685	4.7
611.02	4.65
611.355	4.7
611.689	4.4
612.024	4.9
612.359	4.78
612.694	4.84
613.028	4.94
613.363	4.36
613.697	4.81
614.032	4.81
614.366	4.71
614.7	5.15
615.035	4.73
615.369	4.69
615.703	4.96
616.037	4.67
616.371	4.73
616.705	4.62
617.039	4.85
617.373	4.74
617.707	4.77
618.041	4.96
618.375	5.01
618.709	4.82
619.042	4.59
619.376	4.76
619.71	4.81
620.043	4.65
620.377	4.81
620.71	4.92
621.043	4.71
621.377	4.79
621.71	4.65
622.043	4.96
622.376	4.61
622.709	5.11
623.043	4.84
623.376	4.88
623.709	5.01
624.041	4.46
624.374	4.51
624.707	4.59
625.04	4.71
625.373	4.51
625.705	4.68
626.038	4.51
626.37	4.47
626.703	4.6
627.035	4.71
627.368	4.76
627.7	4.69
628.032	4.69
628.365	4.65
628.697	4.43
629.029	5.01
629.361	4.39
629.693	4.99
630.025	4.68
630.357	4.38
630.689	5.03
631.021	4.66
631.353	4.77
631.684	4.75
632.016	4.58
632.348	4.7
632.679	4.79
633.011	4.54
633.342	4.68
633.674	4.24
634.005	4.39
634.336	4.73
634.668	4.52
634.999	4.63
635.33	4.75
635.661	4.88
635.992	4.64
636.323	4.56
636.654	4.59
636.985	4.44
637.316	4.95
637.647	4.76
637.977	4.7
638.308	4.48
638.639	4.72
638.969	4.54
639.3	4.83
639.63	4.81
639.961	4.68
640.291	5.22
640.622	4.86
640.952	4.84
641.282	4.75
641.612	4.8
641.943	4.86
642.273	4.73
642.603	4.6
642.933	4.68
643.263	5.16
643.592	4.46
643.922	4.92
644.252	4.86
644.582	4.65
644.911	4.64
645.241	4.63
645.571	5.09
645.9	4.85
646.23	4.57
646.559	4.62
646.888	4.02
647.218	4.84
647.547	5.04
647.876	5.18
648.205	4.88
648.534	4.55
648.863	5.37
649.192	4.55
649.521	4.37
649.85	5.05
650.179	4.71
650.508	4.58
650.837	4.37
651.165	5.05
651.494	4.86
651.822	4.76
652.151	5.23
652.479	4.9
652.808	4.76
653.136	4.85
653.465	5.12
653.793	4.93
654.121	4.9
654.449	4.86
654.777	4.55
655.105	4.86
655.433	4.84
655.761	4.87
656.089	5.19
656.417	4.53
656.745	4.93
657.073	4.67
657.4	4.8
657.728	4.99
658.056	4.94
658.383	5.33
658.711	4.65
659.038	5.39
659.365	5.32
659.693	4.65
660.02	4.57
660.347	4.82
660.674	4.73
661.001	4.41
661.329	4.6
661.656	4.66
661.982	4.85
662.309	4.95
662.636	4.69
662.963	4.72
663.29	4.83
663.616	4.67
663.943	5.24
664.27	5.32
664.596	4.61
664.923	5.12
665.249	4.74
665.576	4.87
665.902	4.5
666.228	4.26
666.554	4.43
666.881	4.84
667.207	5.16
667.533	5.29
667.859	4.52
668.185	4.8
668.511	4.49
668.837	4.34
669.162	4.34
669.488	4.71
669.814	5.36
670.139	5.41
670.465	5.08
670.791	5.1
671.116	4.78
671.442	4.86
671.767	4.71
672.092	5.1
672.418	4.99
672.743	5.2
673.068	4.59
673.393	4.84
673.718	4.85
674.043	5.03
674.368	4.89
674.693	5.61
675.018	5.02
675.343	5.26
675.667	5
675.992	4.43
676.317	5.16
676.641	4.89
676.966	5.29
677.29	5.16
677.615	5
677.939	4.71
678.264	4.67
678.588	5.35
678.912	4.78
679.236	5.06
679.56	4.33
679.885	5.05
680.209	4.44
680.532	4.76
680.856	4.9
681.18	4.56
681.504	4.41
681.828	4.68
682.152	4.72
682.475	4.83
682.799	5.06
683.122	5.02
683.446	4.41
683.769	5.38
684.093	4.86
684.416	4.77
684.739	5.21
685.062	4.79
685.386	4.53
685.709	4.68
686.032	4.99
686.355	4.97
686.678	4.58
687.001	4.21
687.324	4.21
687.646	5.18
687.969	4.67
688.292	5.79
688.614	5.23
688.937	4.95
689.26	4.52
689.582	5.35
689.904	5.71
690.227	5
690.549	5.45
690.871	5.63
691.194	5.73
691.516	4.71
691.838	4.44
692.16	5.28
692.482	5.13
