Data from 0051_chest_Reflection__2__32.txt Node

Date: Fri Dec 16 14:06:35 CST 2022
User: ToomeyLab
Spectrometer: FLMS14357
Trigger mode: 0
Integration Time (sec): 1.000000E-2
Scans to average: 100
Electric dark correction enabled: true
Nonlinearity correction enabled: false
Boxcar width: 0
XAxis mode: Wavelengths
Number of Pixels in Spectrum: 2048
>>>>>Begin Spectral Data<<<<<
189.047	127.78
189.435	127.78
189.823	127.78
190.211	77.22
190.599	28.18
190.987	230.06
191.375	-54.99
191.763	114.4
192.151	-5.21
192.538	100.94
192.926	126.22
193.314	108.6
193.702	-13.63
194.089	-5.59
194.477	91.24
194.864	-15.23
195.252	9.27
195.639	104.86
196.027	-508.14
196.414	184.71
196.801	443.89
197.189	476.98
197.576	-120.35
197.963	227.03
198.351	-3.07
198.738	0.6
199.125	26.3
199.512	26.24
199.899	-14.83
200.286	-18.6
200.673	36.67
201.06	49.27
201.447	40.07
201.833	-10.1
202.22	37.62
202.607	35.11
202.994	44.72
203.38	-19.36
203.767	-75.94
204.154	-31.09
204.54	40.63
204.927	2.99
205.313	31.11
205.699	15.48
206.086	23.81
206.472	-14.06
206.858	22.3
207.245	2.13
207.631	6.82
208.017	28.36
208.403	25.93
208.789	25.3
209.175	43.45
209.561	0.32
209.947	22.13
210.333	10.98
210.719	12.11
211.105	4.41
211.491	0.03
211.876	-26.41
212.262	-43.71
212.648	-19.16
213.034	-10.17
213.419	27.76
213.805	10.23
214.19	33.34
214.576	-0.77
214.961	9.33
215.346	-5.31
215.732	2.89
216.117	27
216.502	2.08
216.888	4.96
217.273	35.63
217.658	-17.17
218.043	26.53
218.428	16.01
218.813	9.4
219.198	-22.5
219.583	0.6
219.968	1.36
220.353	19.56
220.738	7.86
221.122	1.62
221.507	14.27
221.892	-4.93
222.276	6.71
222.661	7.76
223.046	9.24
223.43	-0.62
223.815	1.27
224.199	4.54
224.583	-3.97
224.968	13.58
225.352	6.21
225.736	9.62
226.121	1.66
226.505	-0.49
226.889	7.71
227.273	4.03
227.657	-1.55
228.041	5.42
228.425	5.15
228.809	1.3
229.193	1.7
229.577	3.75
229.961	3.34
230.344	3.18
230.728	2.31
231.112	3.18
231.495	2.5
231.879	3.06
232.263	1.28
232.646	2.21
233.03	0.94
233.413	2.49
233.797	4.83
234.18	0.3
234.563	2.47
234.946	3.03
235.33	1.95
235.713	2.69
236.096	3.38
236.479	2.55
236.862	3.6
237.245	2.73
237.628	3.23
238.011	2.94
238.394	4.18
238.777	4.06
239.16	1.43
239.543	2.83
239.925	2.26
240.308	3.4
240.691	2.25
241.073	2.36
241.456	2.53
241.838	3.31
242.221	2.79
242.603	2.75
242.986	3.73
243.368	2.82
243.75	2.6
244.133	2.76
244.515	3.01
244.897	2.74
245.279	2.28
245.661	3.04
246.043	3.22
246.425	2.63
246.807	3.42
247.189	2.85
247.571	2.99
247.953	2.55
248.335	2.79
248.717	2.76
249.098	2.92
249.48	2.13
249.862	2.56
250.243	2.54
250.625	2.8
251.006	3.14
251.388	4.08
251.769	3.04
252.151	2.8
252.532	2.3
252.913	2.6
253.295	2.44
253.676	2.99
254.057	2.72
254.438	2.67
254.819	3.19
255.2	3.27
255.581	3.58
255.962	3.73
256.343	4.53
256.724	2.39
257.105	3.33
257.486	2.5
257.867	2.33
258.247	2.55
258.628	3.33
259.009	2.74
259.389	2.84
259.77	2.71
260.15	2.92
260.531	2.67
260.911	2.62
261.292	2.66
261.672	2.45
262.052	2.57
262.432	2.24
262.813	3.03
263.193	2.92
263.573	3.29
263.953	2.5
264.333	3.24
264.713	2.83
265.093	2.29
265.473	3.5
265.853	2.88
266.233	1.83
266.612	2.54
266.992	2.44
267.372	2.67
267.752	2.21
268.131	2.6
268.511	2.69
268.89	2.89
269.27	3.03
269.649	2.66
270.029	2.34
270.408	2.32
270.787	2.68
271.167	3
271.546	2.4
271.925	2.36
272.304	2.75
272.683	2.62
273.062	2.94
273.441	2.57
273.82	2.61
274.199	3.02
274.578	2.41
274.957	2.57
275.336	2.17
275.715	3.09
276.093	3.09
276.472	2.44
276.851	2.87
277.229	2.7
277.608	2.77
277.986	2.22
278.365	2.32
278.743	2.71
279.122	1.79
279.5	1.92
279.878	2.03
280.257	2.8
280.635	2.45
281.013	2.71
281.391	2.45
281.769	2.28
282.147	2.97
282.525	2.46
282.903	2.76
283.281	2.61
283.659	2.6
284.037	2.5
284.415	2.55
284.792	2.25
285.17	2.04
285.548	2.1
285.925	2
286.303	2.4
286.68	2.76
287.058	2.34
287.435	2.16
287.813	2.74
288.19	2.82
288.567	2.39
288.945	2.38
289.322	2.48
289.699	2.66
290.076	2.7
290.453	2.15
290.83	2.52
291.207	2.85
291.584	2.29
291.961	2.58
292.338	2.42
292.715	2.95
293.092	2.67
293.469	2.46
293.845	2.8
294.222	2.54
294.599	2.71
294.975	3.11
295.352	2.24
295.728	2.66
296.105	2.51
296.481	3.06
296.858	2.7
297.234	2.53
297.61	2.76
297.986	2.55
298.363	2.04
298.739	2.61
299.115	2.29
299.491	2.71
299.867	2.47
300.243	2.75
300.619	2.6
300.995	3.27
301.371	3.2
301.746	2.47
302.122	2.81
302.498	2.75
302.874	3.03
303.249	2.77
303.625	2.2
304	2.79
304.376	2.64
304.751	2.52
305.127	3.02
305.502	3.04
305.878	2.81
306.253	2.71
306.628	2.76
307.003	2.68
307.378	2.46
307.754	2.92
308.129	2.3
308.504	2.44
308.879	2.84
309.254	3.31
309.629	2.69
310.003	3.08
310.378	2.82
310.753	2.88
311.128	2.74
311.502	2.65
311.877	2.97
312.252	2.68
312.626	2.67
313.001	2.54
313.375	2.91
313.75	2.67
314.124	3.07
314.498	2.56
314.873	2.92
315.247	2.69
315.621	2.96
315.995	2.89
316.369	3.36
316.743	3.22
317.117	2.93
317.491	3.08
317.865	2.19
318.239	2.92
318.613	2.76
318.987	3.01
319.361	2.81
319.734	3.08
320.108	3.32
320.482	2.61
320.855	2.65
321.229	3.02
321.602	2.85
321.976	3.07
322.349	2.78
322.723	2.77
323.096	2.78
323.469	2.65
323.843	2.77
324.216	2.52
324.589	3.41
324.962	3.17
325.335	2.73
325.708	2.96
326.081	3.5
326.454	3.02
326.827	3.03
327.2	3.21
327.573	3.22
327.945	2.69
328.318	2.85
328.691	3.38
329.063	2.33
329.436	2.94
329.809	2.57
330.181	2.84
330.553	3.48
330.926	3.38
331.298	3.12
331.671	2.98
332.043	3.16
332.415	3.13
332.787	3.31
333.159	2.98
333.532	3.06
333.904	3.23
334.276	2.97
334.648	3
335.02	2.91
335.391	3.39
335.763	2.92
336.135	2.72
336.507	2.96
336.879	2.61
337.25	2.83
337.622	3.24
337.993	3.1
338.365	2.98
338.736	3.28
339.108	2.69
339.479	2.85
339.851	3.36
340.222	3.04
340.593	2.72
340.964	2.83
341.336	2.43
341.707	2.76
342.078	2.7
342.449	2.94
342.82	2.98
343.191	2.61
343.562	3.11
343.933	3.09
344.303	3.2
344.674	3.24
345.045	3.53
345.416	2.82
345.786	2.57
346.157	2.72
346.527	2.86
346.898	3.09
347.268	3.02
347.639	2.87
348.009	3.08
348.38	3.27
348.75	2.91
349.12	3.17
349.49	3.06
349.861	3.37
350.231	3.21
350.601	3.08
350.971	2.94
351.341	2.87
351.711	2.87
352.081	3.12
352.45	2.97
352.82	3.18
353.19	2.82
353.56	2.85
353.929	2.95
354.299	2.96
354.669	3.09
355.038	2.61
355.408	3.31
355.777	3.32
356.147	3.19
356.516	3.24
356.885	2.84
357.254	3.13
357.624	2.98
357.993	2.88
358.362	3.01
358.731	2.82
359.1	3.06
359.469	2.74
359.838	2.73
360.207	2.83
360.576	3.08
360.945	3.09
361.314	3.07
361.682	2.6
362.051	2.98
362.42	3.23
362.788	3.06
363.157	2.83
363.525	2.78
363.894	2.62
364.262	2.99
364.631	3.54
364.999	2.75
365.367	3.39
365.735	2.82
366.104	2.98
366.472	3.09
366.84	3.21
367.208	2.71
367.576	2.99
367.944	3.26
368.312	2.57
368.68	3.15
369.048	3.29
369.416	2.9
369.783	3.15
370.151	2.99
370.519	2.7
370.886	2.76
371.254	3.04
371.621	3.12
371.989	3.06
372.356	2.82
372.724	2.94
373.091	3.07
373.458	2.94
373.826	2.78
374.193	3.29
374.56	2.92
374.927	3.03
375.294	3.07
375.661	3.17
376.028	3.02
376.395	3.09
376.762	3.24
377.129	3.24
377.496	3.05
377.863	3.35
378.229	2.99
378.596	3.01
378.963	2.66
379.329	3.08
379.696	2.98
380.062	3.03
380.429	3.18
380.795	2.81
381.161	2.98
381.528	2.73
381.894	3.05
382.26	2.81
382.626	3.15
382.993	2.88
383.359	2.84
383.725	3.07
384.091	2.9
384.457	2.97
384.823	2.96
385.188	3.3
385.554	3.33
385.92	3.41
386.286	3.32
386.651	3.1
387.017	3.31
387.383	3.01
387.748	2.98
388.114	3.17
388.479	3.04
388.845	3.17
389.21	3.07
389.575	3.08
389.94	3.28
390.306	3.07
390.671	3.16
391.036	2.99
391.401	3.54
391.766	3.21
392.131	3.15
392.496	3.19
392.861	3.1
393.226	3.24
393.591	3.16
393.956	3.23
394.32	3.12
394.685	3.34
395.05	2.95
395.414	3.13
395.779	3.04
396.143	3
396.508	3.22
396.872	3.13
397.236	2.75
397.601	3.36
397.965	3.15
398.329	3.34
398.694	2.88
399.058	3.36
399.422	3.1
399.786	3.04
400.15	3.2
400.514	3.14
400.878	2.99
401.242	3.31
401.605	3.06
401.969	3.34
402.333	3.19
402.697	3.49
403.06	3.11
403.424	3.11
403.787	3.3
404.151	2.98
404.514	3.06
404.878	3.22
405.241	3.19
405.604	3.08
405.968	3.24
406.331	3.13
406.694	3.17
407.057	3.42
407.42	3.27
407.783	3.31
408.146	3.04
408.509	3.1
408.872	2.96
409.235	3.08
409.598	3.23
409.961	3.28
410.323	3.2
410.686	3.12
411.049	3.15
411.411	3.19
411.774	3.19
412.136	3.21
412.499	3.24
412.861	3.24
413.223	3.34
413.586	3.34
413.948	3.29
414.31	3.3
414.672	2.92
415.035	3.38
415.397	3.44
415.759	3.26
416.121	3.45
416.483	3.48
416.845	3.23
417.206	3.23
417.568	3.19
417.93	3.21
418.292	3.18
418.653	3.21
419.015	3.1
419.377	3.23
419.738	3.12
420.1	3.23
420.461	3.08
420.822	3.26
421.184	3.09
421.545	3.11
421.906	3.2
422.267	3.2
422.629	3.23
422.99	3.24
423.351	3.24
423.712	3.21
424.073	3.22
424.434	3.16
424.795	3.18
425.155	3.16
425.516	3.15
425.877	3.21
426.238	3.1
426.598	3.22
426.959	3.1
427.32	3.22
427.68	3.26
428.041	3.36
428.401	3.23
428.761	3.28
429.122	3.07
429.482	3.26
429.842	3.41
430.202	3.2
430.563	3.14
430.923	3.24
431.283	3.32
431.643	3.23
432.003	3.24
432.363	3.52
432.722	3.31
433.082	3.21
433.442	3.24
433.802	3.23
434.161	3.24
434.521	3.34
434.881	3.33
435.24	3.27
435.6	3.37
435.959	3.27
436.319	3.24
436.678	3.34
437.037	3.35
437.396	3.4
437.756	3.27
438.115	3.31
438.474	3.42
438.833	3.43
439.192	3.5
439.551	3.4
439.91	3.52
440.269	3.38
440.628	3.28
440.987	3.21
441.345	3.26
441.704	3.38
442.063	3.31
442.421	3.34
442.78	3.27
443.138	3.26
443.497	3.3
443.855	3.31
444.214	3.47
444.572	3.47
444.93	3.58
445.288	3.33
445.647	3.48
446.005	3.28
446.363	3.47
446.721	3.25
447.079	3.33
447.437	3.37
447.795	3.34
448.153	3.35
448.51	3.23
448.868	3.42
449.226	3.35
449.584	3.35
449.941	3.53
450.299	3.43
450.656	3.54
451.014	3.39
451.371	3.56
451.729	3.41
452.086	3.4
452.443	3.43
452.801	3.5
453.158	3.44
453.515	3.37
453.872	3.52
454.229	3.31
454.586	3.44
454.943	3.4
455.3	3.54
455.657	3.38
456.014	3.44
456.371	3.56
456.727	3.42
457.084	3.32
457.441	3.45
457.797	3.6
458.154	3.53
458.51	3.58
458.867	3.44
459.223	3.53
459.58	3.5
459.936	3.52
460.292	3.61
460.648	3.43
461.005	3.3
461.361	3.37
461.717	3.44
462.073	3.47
462.429	3.56
462.785	3.42
463.141	3.61
463.496	3.35
463.852	3.64
464.208	3.54
464.564	3.44
464.919	3.39
465.275	3.56
465.631	3.48
465.986	3.49
466.342	3.49
466.697	3.48
467.052	3.73
467.408	3.53
467.763	3.45
468.118	3.53
468.473	3.75
468.829	3.61
469.184	3.61
469.539	3.43
469.894	3.53
470.249	3.69
470.603	3.68
470.958	3.68
471.313	3.6
471.668	3.66
472.023	3.79
472.377	3.6
472.732	3.59
473.086	3.43
473.441	3.58
473.795	3.63
474.15	3.5
474.504	3.61
474.859	3.68
475.213	3.65
475.567	3.48
475.921	3.68
476.275	3.64
476.63	3.53
476.984	3.54
477.338	3.9
477.692	3.63
478.045	3.5
478.399	3.7
478.753	3.52
479.107	3.53
479.461	3.76
479.814	3.5
480.168	3.71
480.521	3.66
480.875	3.77
481.228	3.71
481.582	3.63
481.935	3.7
482.289	3.67
482.642	3.68
482.995	3.65
483.348	3.55
483.701	3.59
484.055	3.53
484.408	3.52
484.761	3.44
485.114	3.36
485.466	3.41
485.819	3.41
486.172	3.48
486.525	3.54
486.878	3.56
487.23	3.56
487.583	3.54
487.936	3.61
488.288	3.5
488.641	3.55
488.993	3.47
489.345	3.49
489.698	3.57
490.05	3.51
490.402	3.61
490.754	3.63
491.107	3.69
491.459	3.74
491.811	3.74
492.163	3.72
492.515	3.63
492.866	3.44
493.218	3.54
493.57	3.6
493.922	3.61
494.274	3.7
494.625	3.75
494.977	3.74
495.328	3.82
495.68	3.94
496.031	3.8
496.383	3.73
496.734	3.79
497.086	3.71
497.437	3.88
497.788	3.8
498.139	3.75
498.49	3.85
498.842	3.75
499.193	3.85
499.544	3.79
499.894	3.95
500.245	3.8
500.596	3.8
500.947	3.84
501.298	3.76
501.648	3.79
501.999	4.08
502.35	3.97
502.7	3.93
503.051	4.12
503.401	3.92
503.752	3.88
504.102	3.82
504.452	3.8
504.803	3.8
505.153	3.97
505.503	3.91
505.853	3.78
506.203	3.92
506.553	4.08
506.903	3.9
507.253	3.99
507.603	3.89
507.953	4.04
508.303	3.97
508.652	3.82
509.002	3.99
509.352	3.96
509.701	3.96
510.051	4
510.4	3.83
510.75	3.95
511.099	3.9
511.449	3.99
511.798	4.13
512.147	3.95
512.496	4.04
512.846	3.9
513.195	3.99
513.544	3.98
513.893	3.98
514.242	4.02
514.591	4.08
514.939	3.91
515.288	3.98
515.637	4.07
515.986	4.06
516.334	4.2
516.683	4.05
517.032	4.1
517.38	4.15
517.729	4.13
518.077	4.09
518.426	4.03
518.774	4.1
519.122	4.06
519.47	4.11
519.819	3.99
520.167	4.02
520.515	3.98
520.863	3.98
521.211	4.11
521.559	4.14
521.907	4.13
522.255	4.13
522.602	4.21
522.95	4.16
523.298	4.07
523.645	4.21
523.993	4.39
524.341	4.23
524.688	4.27
525.036	4.31
525.383	4.36
525.73	4.26
526.078	4.32
526.425	4.15
526.772	4.07
527.119	4.15
527.466	4.14
527.814	4.13
528.161	4.28
528.508	4.17
528.854	4.15
529.201	4.16
529.548	4.11
529.895	4.09
530.242	4.05
530.588	4.16
530.935	4.16
531.282	4.23
531.628	4.29
531.975	4.26
532.321	4.26
532.667	4.26
533.014	4.35
533.36	4.3
533.706	4.37
534.052	4.32
534.399	4.27
534.745	4.24
535.091	4.28
535.437	4.35
535.783	4.47
536.129	4.42
536.474	4.52
536.82	4.38
537.166	4.49
537.512	4.46
537.857	4.4
538.203	4.43
538.549	4.52
538.894	4.43
539.239	4.6
539.585	4.51
539.93	4.57
540.276	4.53
540.621	4.53
540.966	4.55
541.311	4.62
541.656	4.59
542.001	4.56
542.346	4.52
542.691	4.38
543.036	4.44
543.381	4.54
543.726	4.6
544.071	4.57
544.415	4.63
544.76	4.52
545.105	4.62
545.449	4.57
545.794	4.73
546.138	4.8
546.483	4.62
546.827	4.85
547.171	4.74
547.516	4.86
547.86	4.79
548.204	4.71
548.548	4.87
548.892	4.78
549.236	4.92
549.58	4.93
549.924	4.98
550.268	5.04
550.612	5.02
550.956	4.96
551.3	5.05
551.643	5.01
551.987	4.88
552.33	5.03
552.674	5.05
553.017	5.1
553.361	4.98
553.704	5.04
554.048	5.11
554.391	5.1
554.734	5.03
555.077	5.11
555.42	5.07
555.764	5.33
556.107	5.21
556.45	5.13
556.793	5.18
557.135	5.35
557.478	5.19
557.821	5.19
558.164	5.41
558.507	5.33
558.849	5.34
559.192	5.41
559.534	5.22
559.877	5.4
560.219	5.47
560.562	5.57
560.904	5.43
561.246	5.41
561.589	5.26
561.931	5.38
562.273	5.44
562.615	5.48
562.957	5.47
563.299	5.69
563.641	5.56
563.983	5.57
564.325	5.33
564.667	5.66
565.008	5.56
565.35	5.71
565.692	5.75
566.033	5.61
566.375	5.54
566.716	5.61
567.058	5.59
567.399	5.66
567.741	5.69
568.082	5.62
568.423	5.68
568.764	5.72
569.105	5.8
569.447	5.73
569.788	5.83
570.129	5.76
570.47	5.8
570.811	5.85
571.151	5.93
571.492	5.99
571.833	5.81
572.174	5.67
572.514	5.81
572.855	5.87
573.195	5.82
573.536	5.87
573.876	5.93
574.217	6.11
574.557	6
574.898	5.99
575.238	5.86
575.578	6.15
575.918	5.92
576.258	5.91
576.598	6.07
576.938	6.15
577.278	6.07
577.618	6.18
577.958	6.11
578.298	6.44
578.638	6.23
578.977	6.31
579.317	6.27
579.657	6.27
579.996	6.37
580.336	6.22
580.675	6.44
581.014	6.1
581.354	6.48
581.693	6.22
582.032	6.45
582.372	6.56
582.711	6.5
583.05	6.62
583.389	6.56
583.728	6.49
584.067	6.66
584.406	6.78
584.745	6.72
585.083	6.77
585.422	6.53
585.761	6.81
586.1	7.03
586.438	6.77
586.777	6.87
587.115	6.88
587.454	6.78
587.792	6.68
588.13	6.99
588.469	6.9
588.807	7.01
589.145	7.18
589.483	6.92
589.821	7.05
590.159	6.8
590.497	6.6
590.835	7.09
591.173	6.91
591.511	7.11
591.849	7.04
592.187	7.14
592.524	7.03
592.862	7.05
593.2	7.22
593.537	7.1
593.875	7.08
594.212	7.23
594.55	7.21
594.887	7.42
595.224	7.3
595.561	7.18
595.899	7.08
596.236	7.34
596.573	7.1
596.91	7.26
597.247	7.3
597.584	7.49
597.921	7.29
598.258	7.31
598.594	7.14
598.931	7.31
599.268	7.46
599.604	7.54
599.941	7.57
600.277	7.5
600.614	7.31
600.95	7.73
601.287	7.66
601.623	7.59
601.959	7.59
602.296	7.83
602.632	7.83
602.968	7.63
603.304	7.64
603.64	7.71
603.976	7.76
604.312	7.95
604.648	7.91
604.984	7.75
605.319	7.87
605.655	7.88
605.991	7.78
606.326	7.73
606.662	7.73
606.998	7.97
607.333	7.89
607.668	8.01
608.004	8.06
608.339	7.95
608.674	7.97
609.01	8.08
609.345	8.22
609.68	7.91
610.015	8.17
610.35	8.06
610.685	8.19
611.02	8.29
611.355	8.25
611.689	7.95
612.024	8.26
612.359	8.34
612.694	8.5
613.028	8.53
613.363	8.35
613.697	8.49
614.032	8.37
614.366	8.36
614.7	8.81
615.035	8.43
615.369	8.8
615.703	8.87
616.037	8.45
616.371	8.5
616.705	8.44
617.039	8.89
617.373	8.72
617.707	8.66
618.041	8.91
618.375	8.82
618.709	8.69
619.042	8.77
619.376	8.61
619.71	8.71
620.043	8.75
620.377	8.6
620.71	8.86
621.043	8.57
621.377	8.83
621.71	9.01
622.043	9.05
622.376	9.05
622.709	9.17
623.043	8.91
623.376	9.25
623.709	9.14
624.041	9.11
624.374	9.24
624.707	9.23
625.04	9.41
625.373	9.33
625.705	9.38
626.038	8.9
626.37	9.47
626.703	9.13
627.035	9.24
627.368	9.47
627.7	9.44
628.032	9.65
628.365	9.16
628.697	9.57
629.029	9.44
629.361	9.46
629.693	9.79
630.025	9.65
630.357	9.3
630.689	9.9
631.021	9.68
631.353	10.07
631.684	9.71
632.016	9.57
632.348	9.79
632.679	9.84
633.011	10
633.342	9.47
633.674	9.8
634.005	9.9
634.336	10.02
634.668	10.02
634.999	9.95
635.33	10
635.661	10.29
635.992	10.04
636.323	10
636.654	10.2
636.985	10.07
637.316	10.03
637.647	10.11
637.977	9.98
638.308	10.17
638.639	10.03
638.969	10.23
639.3	10.27
639.63	10.23
639.961	10.09
640.291	10.56
640.622	10.63
640.952	10.16
641.282	10.25
641.612	10.37
641.943	10.53
642.273	10.37
642.603	10.34
642.933	10.9
643.263	10.85
643.592	10.62
643.922	11.4
644.252	11.01
644.582	10.42
644.911	10.74
645.241	10.46
645.571	10.93
645.9	10.9
646.23	10.24
646.559	11.24
646.888	10.48
647.218	10.42
647.547	11.04
647.876	10.93
648.205	11.1
648.534	10.77
648.863	11.19
649.192	10.91
649.521	10.65
649.85	11.32
650.179	10.85
650.508	11.57
650.837	11.13
651.165	11.09
651.494	11.03
651.822	11.27
652.151	11.53
652.479	11.64
652.808	11.15
653.136	11.02
653.465	11.66
653.793	11.75
654.121	11.35
654.449	11.02
654.777	11.42
655.105	11.74
655.433	11.99
655.761	11.14
656.089	11.52
656.417	10.86
656.745	12.1
657.073	12.44
657.4	11.63
657.728	11.58
658.056	11.51
658.383	11.9
658.711	11.61
659.038	11.78
659.365	11.87
659.693	11.67
660.02	11.8
660.347	11.86
660.674	11.65
661.001	11.56
661.329	11.95
661.656	11.64
661.982	12.06
662.309	12.16
662.636	12.03
662.963	12.94
663.29	12.18
663.616	12.44
663.943	12.46
664.27	12.29
664.596	12.31
664.923	12.68
665.249	12.1
665.576	12.04
665.902	12.42
666.228	12.1
666.554	12.67
666.881	12.85
667.207	12.12
667.533	12.43
667.859	12.37
668.185	12.96
668.511	12.24
668.837	12.4
669.162	12.74
669.488	12.87
669.814	12.77
670.139	13.13
670.465	13.03
670.791	12.98
671.116	12.32
671.442	12.65
671.767	12.89
672.092	13.02
672.418	12.98
672.743	12.88
673.068	13.08
673.393	13.3
673.718	12.74
674.043	13.35
674.368	13.34
674.693	13.25
675.018	13.42
675.343	13.58
675.667	13.34
675.992	12.45
676.317	13.6
676.641	13.3
676.966	13.24
677.29	12.89
677.615	13.24
677.939	13.25
678.264	12.92
678.588	13.69
678.912	13.74
679.236	13.43
679.56	13.23
679.885	13.66
680.209	13.85
680.532	14.09
680.856	14.29
681.18	13.89
681.504	12.91
681.828	13.17
682.152	13.52
682.475	14.15
682.799	13.92
683.122	13.76
683.446	13.81
683.769	13.94
684.093	13.92
684.416	13.84
684.739	14.64
685.062	14.05
685.386	14.24
685.709	13.83
686.032	13.58
686.355	13.62
686.678	14.09
687.001	13.68
687.324	13.38
687.646	14.17
687.969	14.42
688.292	14.74
688.614	14.48
688.937	14.28
689.26	13.4
