Data from 0051_crown_Reflection__3__39.txt Node

Date: Fri Dec 16 14:08:37 CST 2022
User: ToomeyLab
Spectrometer: FLMS14357
Trigger mode: 0
Integration Time (sec): 1.000000E-2
Scans to average: 100
Electric dark correction enabled: true
Nonlinearity correction enabled: false
Boxcar width: 0
XAxis mode: Wavelengths
Number of Pixels in Spectrum: 2048
>>>>>Begin Spectral Data<<<<<
189.047	90.16
189.435	90.16
189.823	90.16
190.211	22.62
190.599	38.12
190.987	405.99
191.375	-263.31
191.763	87.4
192.151	530.52
192.538	162.67
192.926	-161.54
193.314	78.97
193.702	-8.99
194.089	-10.83
194.477	30.13
194.864	36.6
195.252	-53.17
195.639	94.53
196.027	384.38
196.414	-11.76
196.801	-337.56
197.189	683.36
197.576	-41.29
197.963	59.51
198.351	18.48
198.738	-21.02
199.125	14.92
199.512	-7.88
199.899	-22.93
200.286	-13.14
200.673	3.77
201.06	22.66
201.447	-1.15
201.833	27.96
202.22	43.21
202.607	-1.15
202.994	13.78
203.38	17.87
203.767	-36.35
204.154	-70.61
204.54	15.61
204.927	18.6
205.313	26.26
205.699	2.07
206.086	7.49
206.472	20.87
206.858	12.18
207.245	2.31
207.631	-4.93
208.017	32.12
208.403	24.23
208.789	-4.18
209.175	32.81
209.561	8.42
209.947	-9.67
210.333	-15.56
210.719	36.59
211.105	2.47
211.491	-2.42
211.876	7.8
212.262	15.39
212.648	-39.13
213.034	-1.53
213.419	27.55
213.805	11.3
214.19	-7.29
214.576	-19.32
214.961	9.56
215.346	5.29
215.732	8.99
216.117	8.2
216.502	-0.37
216.888	-17.42
217.273	38.67
217.658	-17.58
218.043	-5.15
218.428	10.74
218.813	-15.87
219.198	-11.66
219.583	7.35
219.968	31.63
220.353	19.79
220.738	-0.23
221.122	-2.97
221.507	5.76
221.892	1.75
222.276	12.32
222.661	-2.15
223.046	7.59
223.43	6.56
223.815	8.33
224.199	6.08
224.583	8.92
224.968	13.99
225.352	0.07
225.736	17.57
226.121	0.11
226.505	9.01
226.889	10.64
227.273	6.46
227.657	9.28
228.041	7.54
228.425	9.16
228.809	8.34
229.193	7.56
229.577	7.66
229.961	8.34
230.344	7.85
230.728	8.29
231.112	7.94
231.495	6.82
231.879	7.57
232.263	7.7
232.646	6.47
233.03	5.5
233.413	5.24
233.797	10.91
234.18	4.87
234.563	8.04
234.946	8.95
235.33	7.81
235.713	6.71
236.096	8.07
236.479	7.74
236.862	7.88
237.245	8.84
237.628	7.87
238.011	7.28
238.394	8.79
238.777	7.94
239.16	5.42
239.543	5.84
239.925	7.82
240.308	7.93
240.691	7.78
241.073	7.59
241.456	6.99
241.838	7.55
242.221	7.28
242.603	6.87
242.986	7.47
243.368	7.24
243.75	7
244.133	7.07
244.515	6.8
244.897	7.21
245.279	6.78
245.661	7.26
246.043	6.24
246.425	5.82
246.807	7.8
247.189	6.84
247.571	6.8
247.953	7.11
248.335	6.93
248.717	6.86
249.098	6.65
249.48	6.8
249.862	6.87
250.243	6.64
250.625	6.94
251.006	6.28
251.388	7.32
251.769	7.31
252.151	6.48
252.532	6.32
252.913	6.91
253.295	7
253.676	6.43
254.057	6.23
254.438	5.78
254.819	6.11
255.2	5.94
255.581	6.1
255.962	6.18
256.343	6.81
256.724	6.64
257.105	5.74
257.486	6.74
257.867	4.28
258.247	6.63
258.628	6.83
259.009	5.68
259.389	6.72
259.77	6.03
260.15	6.87
260.531	6.61
260.911	6.33
261.292	6.08
261.672	6.09
262.052	5.92
262.432	6.02
262.813	6.46
263.193	6.49
263.573	6.17
263.953	6.11
264.333	6.24
264.713	5.53
265.093	6.02
265.473	6.47
265.853	5.43
266.233	6.11
266.612	5.78
266.992	6.23
267.372	6.32
267.752	5.51
268.131	5.77
268.511	5.83
268.89	6.23
269.27	5.84
269.649	6.4
270.029	6.3
270.408	5.76
270.787	5.93
271.167	5.86
271.546	5.19
271.925	5.82
272.304	5.82
272.683	5.9
273.062	6.04
273.441	5.74
273.82	6.07
274.199	5.98
274.578	5.54
274.957	6.05
275.336	5.75
275.715	5.92
276.093	6.52
276.472	5.98
276.851	5.97
277.229	6.13
277.608	5.63
277.986	5.4
278.365	5.99
278.743	5.87
279.122	5.4
279.5	5.19
279.878	4.64
280.257	5.69
280.635	5.34
281.013	5.63
281.391	5.14
281.769	5.51
282.147	5.23
282.525	5.72
282.903	5.41
283.281	5.34
283.659	5.89
284.037	5.28
284.415	5.72
284.792	5.55
285.17	4.76
285.548	5.42
285.925	5.58
286.303	5.36
286.68	5.57
287.058	5.57
287.435	5.48
287.813	5.65
288.19	5.5
288.567	5.24
288.945	5.28
289.322	5.32
289.699	5.11
290.076	5.41
290.453	5.2
290.83	5.51
291.207	5.21
291.584	4.84
291.961	5.43
292.338	5.12
292.715	5.34
293.092	5.59
293.469	5
293.845	5.19
294.222	5.08
294.599	5.74
294.975	5.31
295.352	4.84
295.728	5.24
296.105	5.2
296.481	5.64
296.858	5.45
297.234	5.12
297.61	5.46
297.986	5.35
298.363	4.87
298.739	5.51
299.115	4.93
299.491	5.34
299.867	5.3
300.243	5.05
300.619	5
300.995	5.28
301.371	5.27
301.746	5.32
302.122	5.39
302.498	5.43
302.874	5.51
303.249	5.29
303.625	4.99
304	5.21
304.376	5.32
304.751	4.81
305.127	5.14
305.502	5.51
305.878	4.76
306.253	4.66
306.628	5.62
307.003	5.35
307.378	5.22
307.754	5.59
308.129	5.21
308.504	5.4
308.879	4.75
309.254	5.44
309.629	5.14
310.003	5.05
310.378	5.48
310.753	5.59
311.128	4.83
311.502	5.3
311.877	5.17
312.252	4.76
312.626	4.77
313.001	5.42
313.375	5.11
313.75	4.98
314.124	5.55
314.498	5.05
314.873	5.58
315.247	4.88
315.621	5.34
315.995	5.08
316.369	5.15
316.743	5.23
317.117	5.47
317.491	5.8
317.865	4.76
318.239	5.5
318.613	5.52
318.987	5.54
319.361	5.36
319.734	5.96
320.108	5.19
320.482	5.1
320.855	5.45
321.229	5.52
321.602	5.17
321.976	5.67
322.349	4.45
322.723	4.85
323.096	5.03
323.469	5.15
323.843	5.85
324.216	4.99
324.589	5.73
324.962	5.56
325.335	4.99
325.708	5.38
326.081	5.86
326.454	5.45
326.827	5.78
327.2	5.58
327.573	5.54
327.945	5.25
328.318	5.52
328.691	5.76
329.063	4.92
329.436	4.97
329.809	5.2
330.181	5.18
330.553	5.56
330.926	5.19
331.298	4.57
331.671	5.18
332.043	4.94
332.415	5.3
332.787	5.81
333.159	5.41
333.532	5.3
333.904	5.64
334.276	5.54
334.648	5.77
335.02	5.21
335.391	5.31
335.763	5.61
336.135	5.3
336.507	5.65
336.879	5.45
337.25	5.32
337.622	5.31
337.993	5.2
338.365	5.42
338.736	5.49
339.108	5.12
339.479	5.41
339.851	5.66
340.222	5.59
340.593	5.23
340.964	5.83
341.336	4.99
341.707	5.48
342.078	4.9
342.449	5.96
342.82	5.63
343.191	5.21
343.562	5.62
343.933	5.38
344.303	5.63
344.674	5.61
345.045	6.14
345.416	5.49
345.786	5.16
346.157	5.52
346.527	5.62
346.898	5.6
347.268	5.33
347.639	5.37
348.009	5.66
348.38	5.71
348.75	5.89
349.12	5.6
349.49	5.58
349.861	5.8
350.231	5.74
350.601	5.73
350.971	5.54
351.341	5.57
351.711	5.32
352.081	5.19
352.45	5.67
352.82	5.89
353.19	5.5
353.56	5.59
353.929	5.47
354.299	5.78
354.669	5.67
355.038	5.75
355.408	6.25
355.777	5.17
356.147	5.71
356.516	6.15
356.885	5.77
357.254	5.73
357.624	5.29
357.993	5.62
358.362	5.87
358.731	5.58
359.1	6.12
359.469	5.61
359.838	5.76
360.207	5.56
360.576	5.7
360.945	5.5
361.314	5.86
361.682	5.59
362.051	5.6
362.42	5.9
362.788	5.92
363.157	5.7
363.525	5.65
363.894	5.72
364.262	5.53
364.631	6.08
364.999	5.58
365.367	5.85
365.735	5.59
366.104	5.5
366.472	5.92
366.84	5.79
367.208	5.4
367.576	5.99
367.944	6.02
368.312	5.37
368.68	6.16
369.048	5.93
369.416	5.65
369.783	5.55
370.151	5.61
370.519	5.85
370.886	5.47
371.254	5.41
371.621	5.41
371.989	5.67
372.356	5.71
372.724	6.09
373.091	5.75
373.458	5.81
373.826	5.67
374.193	6.15
374.56	6
374.927	5.71
375.294	6.14
375.661	6.1
376.028	5.85
376.395	5.93
376.762	6.2
377.129	5.9
377.496	5.94
377.863	5.74
378.229	5.62
378.596	5.83
378.963	5.86
379.329	6
379.696	6.06
380.062	6.12
380.429	5.93
380.795	5.92
381.161	5.72
381.528	5.66
381.894	5.99
382.26	6.05
382.626	5.57
382.993	5.85
383.359	5.95
383.725	6.43
384.091	5.96
384.457	6.04
384.823	5.87
385.188	6.35
385.554	6.22
385.92	6.06
386.286	6.2
386.651	5.86
387.017	6.16
387.383	6.06
387.748	5.85
388.114	6.1
388.479	6.09
388.845	6.11
389.21	6.12
389.575	6.09
389.94	6.07
390.306	6.03
390.671	5.81
391.036	6.21
391.401	6.27
391.766	6.11
392.131	6.07
392.496	5.92
392.861	5.69
393.226	6.02
393.591	6.12
393.956	6.21
394.32	5.84
394.685	6.27
395.05	5.86
395.414	5.94
395.779	5.95
396.143	5.87
396.508	6.19
396.872	5.96
397.236	5.81
397.601	6.27
397.965	5.79
398.329	6.31
398.694	5.81
399.058	6.07
399.422	5.99
399.786	6.05
400.15	6.16
400.514	6.19
400.878	6.16
401.242	6.25
401.605	5.96
401.969	6.44
402.333	6.22
402.697	6.31
403.06	6.39
403.424	6.07
403.787	6.06
404.151	6.09
404.514	6.19
404.878	6.13
405.241	6.06
405.604	6.18
405.968	5.96
406.331	6.19
406.694	5.99
407.057	6.54
407.42	6.1
407.783	6.05
408.146	6.09
408.509	5.94
408.872	6.05
409.235	6
409.598	6.32
409.961	6.22
410.323	6.13
410.686	6.17
411.049	6.05
411.411	6.2
411.774	6.06
412.136	6.37
412.499	6.14
412.861	6.08
413.223	6.18
413.586	6.07
413.948	6.14
414.31	6.25
414.672	5.99
415.035	6.29
415.397	6.19
415.759	6.09
416.121	6.49
416.483	6.36
416.845	6.07
417.206	6.19
417.568	6.27
417.93	6.18
418.292	6.17
418.653	6.27
419.015	6.2
419.377	6.18
419.738	6.09
420.1	6.04
420.461	6.03
420.822	6.14
421.184	6.1
421.545	6.05
421.906	6.13
422.267	6.02
422.629	5.93
422.99	6.05
423.351	6.06
423.712	6.03
424.073	6.18
424.434	6.03
424.795	6.09
425.155	5.97
425.516	6.07
425.877	6.12
426.238	5.92
426.598	6.09
426.959	6.01
427.32	6.16
427.68	6.12
428.041	6.19
428.401	6.12
428.761	6.06
429.122	6.29
429.482	6.16
429.842	6.2
430.202	6.06
430.563	6.1
430.923	6.27
431.283	6.31
431.643	6.1
432.003	6.09
432.363	6.26
432.722	6.11
433.082	6.12
433.442	6.15
433.802	6.23
434.161	6.05
434.521	6.09
434.881	6.19
435.24	6.05
435.6	6.03
435.959	6.15
436.319	6.13
436.678	6.14
437.037	6.14
437.396	6.21
437.756	6.09
438.115	6.09
438.474	6.28
438.833	6.28
439.192	6.28
439.551	6.34
439.91	6.17
440.269	6.22
440.628	6.07
440.987	6.03
441.345	6.1
441.704	6.13
442.063	6.03
442.421	6.11
442.78	6.1
443.138	6
443.497	6.03
443.855	6.13
444.214	6.2
444.572	6.12
444.93	6.13
445.288	6.2
445.647	6.21
446.005	6.01
446.363	6.13
446.721	6.01
447.079	6.1
447.437	5.99
447.795	6.01
448.153	5.97
448.51	6.01
448.868	6.14
449.226	6.09
449.584	6.16
449.941	6.22
450.299	6.08
450.656	6.12
451.014	6.05
451.371	6.13
451.729	6.19
452.086	6.14
452.443	6.02
452.801	6.13
453.158	6.1
453.515	6.12
453.872	6.27
454.229	6.08
454.586	6.07
454.943	6.04
455.3	6.27
455.657	6.11
456.014	6.17
456.371	6.35
456.727	6.11
457.084	6.2
457.441	6.19
457.797	6.17
458.154	6.06
458.51	6.19
458.867	6.03
459.223	6.15
459.58	6.02
459.936	6.04
460.292	6.12
460.648	6.12
461.005	5.98
461.361	6
461.717	6
462.073	6.16
462.429	6.08
462.785	6.15
463.141	6.18
463.496	6.11
463.852	6.37
464.208	6.22
464.564	6.01
464.919	6.09
465.275	6.12
465.631	6.05
465.986	5.95
466.342	6.16
466.697	6.09
467.052	6.21
467.408	6.18
467.763	5.96
468.118	6.2
468.473	6.23
468.829	6.1
469.184	6.22
469.539	5.85
469.894	6
470.249	6.16
470.603	6.18
470.958	6.29
471.313	5.98
471.668	6.15
472.023	6.28
472.377	6.03
472.732	5.97
473.086	6.04
473.441	6.2
473.795	6.27
474.15	6.17
474.504	6.11
474.859	6.18
475.213	6.27
475.567	5.93
475.921	6.04
476.275	6.19
476.63	6
476.984	6.05
477.338	6.17
477.692	6.08
478.045	5.9
478.399	6.15
478.753	5.96
479.107	6.19
479.461	6.05
479.814	6.01
480.168	6.02
480.521	5.98
480.875	6.18
481.228	6.12
481.582	6.01
481.935	6.03
482.289	6
482.642	6.05
482.995	5.99
483.348	5.91
483.701	5.93
484.055	5.91
484.408	5.86
484.761	5.76
485.114	5.71
485.466	5.7
485.819	5.72
486.172	5.74
486.525	5.84
486.878	5.85
487.23	5.85
487.583	5.96
487.936	5.85
488.288	5.81
488.641	5.8
488.993	5.72
489.345	5.76
489.698	5.82
490.05	5.79
490.402	5.9
490.754	5.94
491.107	5.87
491.459	5.93
491.811	5.99
492.163	6.01
492.515	5.91
492.866	5.79
493.218	5.79
493.57	5.83
493.922	5.79
494.274	5.91
494.625	5.94
494.977	5.88
495.328	6.09
495.68	6.03
496.031	6.01
496.383	5.94
496.734	6.19
497.086	5.84
497.437	6.05
497.788	5.95
498.139	6.04
498.49	6
498.842	5.97
499.193	5.95
499.544	6.09
499.894	6.04
500.245	6.01
500.596	5.96
500.947	5.93
501.298	5.88
501.648	6.16
501.999	6.17
502.35	6.13
502.7	6.07
503.051	6.11
503.401	6.05
503.752	6.03
504.102	6.06
504.452	6.03
504.803	5.94
505.153	6.11
505.503	5.94
505.853	5.83
506.203	6
506.553	6.09
506.903	5.99
507.253	5.97
507.603	5.99
507.953	6
508.303	6.09
508.652	6.07
509.002	6.07
509.352	6.01
509.701	5.99
510.051	5.95
510.4	5.97
510.75	5.95
511.099	5.92
511.449	5.91
511.798	6.09
512.147	5.97
512.496	6.03
512.846	5.91
513.195	6.02
513.544	5.91
513.893	5.78
514.242	6.07
514.591	5.86
514.939	5.97
515.288	5.97
515.637	6.09
515.986	5.96
516.334	6.03
516.683	5.98
517.032	6.01
517.38	6.01
517.729	5.9
518.077	5.99
518.426	5.92
518.774	5.81
519.122	5.96
519.47	5.93
519.819	5.96
520.167	5.87
520.515	5.88
520.863	5.83
521.211	5.98
521.559	5.92
521.907	5.92
522.255	5.97
522.602	6.06
522.95	5.94
523.298	5.97
523.645	5.85
523.993	6.08
524.341	6.02
524.688	5.97
525.036	6.07
525.383	5.91
525.73	5.94
526.078	6
526.425	5.9
526.772	5.83
527.119	5.82
527.466	5.83
527.814	5.86
528.161	5.89
528.508	5.83
528.854	5.79
529.201	5.81
529.548	5.73
529.895	5.64
530.242	5.62
530.588	5.72
530.935	5.67
531.282	5.76
531.628	5.76
531.975	5.78
532.321	5.84
532.667	5.91
533.014	5.94
533.36	5.85
533.706	5.94
534.052	5.8
534.399	5.69
534.745	5.68
535.091	5.75
535.437	5.78
535.783	5.87
536.129	5.91
536.474	5.88
536.82	5.93
537.166	5.96
537.512	5.92
537.857	5.89
538.203	5.82
538.549	5.97
538.894	5.89
539.239	5.99
539.585	5.95
539.93	5.96
540.276	5.88
540.621	5.95
540.966	5.97
541.311	5.91
541.656	5.87
542.001	5.89
542.346	5.73
542.691	5.71
543.036	5.73
543.381	5.71
543.726	5.76
544.071	5.84
544.415	5.79
544.76	5.75
545.105	5.83
545.449	5.79
545.794	5.77
546.138	5.99
546.483	5.78
546.827	5.94
547.171	5.88
547.516	6.04
547.86	6
548.204	5.71
548.548	5.93
548.892	5.89
549.236	6.02
549.58	5.92
549.924	5.96
550.268	6.01
550.612	5.84
550.956	5.8
551.3	5.97
551.643	5.93
551.987	5.91
552.33	5.97
552.674	5.95
553.017	6.04
553.361	5.78
553.704	5.87
554.048	6.01
554.391	5.93
554.734	5.92
555.077	5.94
555.42	5.81
555.764	6.03
556.107	5.89
556.45	5.94
556.793	6.13
557.135	6
557.478	6.1
557.821	5.94
558.164	6.07
558.507	5.89
558.849	5.9
559.192	6.1
559.534	5.88
559.877	5.99
560.219	5.97
560.562	6.02
560.904	6.03
561.246	6.1
561.589	5.98
561.931	6.14
562.273	5.83
562.615	5.97
562.957	5.9
563.299	6.07
563.641	5.86
563.983	6.04
564.325	5.92
564.667	5.79
565.008	5.83
565.35	6.13
565.692	6.15
566.033	6.06
566.375	5.77
566.716	5.89
567.058	5.93
567.399	5.95
567.741	6.05
568.082	5.87
568.423	5.89
568.764	5.87
569.105	6.12
569.447	5.98
569.788	5.95
570.129	5.94
570.47	5.99
570.811	6.07
571.151	5.92
571.492	6.06
571.833	5.88
572.174	5.9
572.514	5.68
572.855	5.94
573.195	5.88
573.536	5.78
573.876	5.94
574.217	5.86
574.557	5.98
574.898	5.75
575.238	5.76
575.578	5.87
575.918	5.88
576.258	5.88
576.598	5.95
576.938	6.08
577.278	5.78
577.618	5.96
577.958	5.85
578.298	5.97
578.638	5.92
578.977	5.92
579.317	6.03
579.657	5.88
579.996	5.92
580.336	6
580.675	6.09
581.014	5.87
581.354	5.9
581.693	5.95
582.032	5.92
582.372	5.84
582.711	5.91
583.05	6.02
583.389	5.9
583.728	6.04
584.067	5.96
584.406	5.91
584.745	5.86
585.083	6.08
585.422	5.9
585.761	5.86
586.1	6.17
586.438	6.19
586.777	5.84
587.115	5.9
587.454	5.85
587.792	5.9
588.13	6.11
588.469	6.21
588.807	6.2
589.145	5.86
589.483	5.71
589.821	6.13
590.159	5.87
590.497	5.74
590.835	5.92
591.173	5.98
591.511	6.09
591.849	5.96
592.187	5.85
592.524	5.73
592.862	6.03
593.2	5.82
593.537	5.96
593.875	5.99
594.212	5.87
594.55	5.88
594.887	5.96
595.224	5.94
595.561	5.87
595.899	5.76
596.236	5.89
596.573	5.75
596.91	5.85
597.247	5.87
597.584	5.8
597.921	5.99
598.258	5.75
598.594	5.77
598.931	5.7
599.268	5.81
599.604	5.93
599.941	5.8
600.277	5.84
600.614	5.92
600.95	5.85
601.287	5.9
601.623	5.95
601.959	5.99
602.296	5.83
602.632	6.01
602.968	5.82
603.304	5.69
603.64	5.59
603.976	5.89
604.312	5.73
604.648	5.94
604.984	5.84
605.319	5.82
605.655	5.84
605.991	5.77
606.326	5.86
606.662	5.67
606.998	5.93
607.333	5.78
607.668	5.78
608.004	5.89
608.339	5.78
608.674	5.77
609.01	6.05
609.345	6.11
609.68	5.74
610.015	5.99
610.35	5.85
610.685	5.87
611.02	5.97
611.355	6.01
611.689	5.69
612.024	5.92
612.359	5.98
612.694	5.99
613.028	6.16
613.363	5.68
613.697	5.98
614.032	6.02
614.366	5.88
614.7	6.3
615.035	5.91
615.369	6.12
615.703	6.2
616.037	5.82
616.371	5.83
616.705	5.86
617.039	5.91
617.373	6.05
617.707	5.68
618.041	6.13
618.375	5.68
618.709	5.74
619.042	5.72
619.376	5.7
619.71	5.97
620.043	5.91
620.377	5.69
620.71	5.98
621.043	5.66
621.377	5.67
621.71	5.76
622.043	6.13
622.376	5.6
622.709	6.14
623.043	5.76
623.376	6.01
623.709	6.21
624.041	5.69
624.374	5.86
624.707	5.81
625.04	6.17
625.373	5.67
625.705	5.97
626.038	5.72
626.37	6.17
626.703	5.96
627.035	5.68
627.368	6.04
627.7	5.9
628.032	6.1
628.365	5.69
628.697	5.61
629.029	6.13
629.361	5.66
629.693	5.97
630.025	5.79
630.357	5.63
630.689	6.1
631.021	5.8
631.353	6.18
631.684	5.73
632.016	6
632.348	5.61
632.679	5.72
633.011	5.87
633.342	5.91
633.674	5.76
634.005	6.19
634.336	5.86
634.668	5.69
634.999	6.13
635.33	5.97
635.661	5.87
635.992	5.88
636.323	6.01
636.654	5.91
636.985	5.86
637.316	6.02
637.647	6.11
637.977	5.7
638.308	5.71
638.639	5.95
638.969	5.76
639.3	6.04
639.63	5.83
639.961	5.86
640.291	6.34
640.622	6.05
640.952	6.14
641.282	5.79
641.612	6.02
641.943	6.01
642.273	6.25
642.603	5.48
642.933	5.75
643.263	6.19
643.592	6.15
643.922	6.35
644.252	5.69
644.582	5.73
644.911	5.79
645.241	5.78
645.571	5.81
645.9	6.15
646.23	5.78
646.559	5.85
646.888	5.34
647.218	5.89
647.547	5.98
647.876	5.86
648.205	5.97
648.534	5.93
648.863	5.87
649.192	5.71
649.521	6.06
649.85	6.34
650.179	5.91
650.508	6.27
650.837	6
651.165	5.87
651.494	5.79
651.822	6.09
652.151	6.52
652.479	6.28
652.808	5.61
653.136	5.48
653.465	5.91
653.793	6.14
654.121	5.89
654.449	5.99
654.777	6.36
655.105	6.23
655.433	6.37
655.761	5.62
656.089	6.16
656.417	5.89
656.745	6.34
657.073	6.41
657.4	6.12
657.728	6.09
658.056	5.55
658.383	5.79
658.711	5.8
659.038	6.06
659.365	6.27
659.693	5.86
660.02	5.7
660.347	6.11
660.674	5.5
661.001	5.83
661.329	5.99
661.656	5.86
661.982	5.73
662.309	5.72
662.636	5.66
662.963	6.4
663.29	5.97
663.616	5.69
663.943	5.94
664.27	6.15
664.596	5.75
664.923	6.71
665.249	5.91
665.576	5.77
665.902	5.87
666.228	5.34
666.554	5.71
666.881	5.67
667.207	5.54
667.533	6.09
667.859	5.95
668.185	6.28
668.511	5.48
668.837	4.94
669.162	6.13
669.488	6.12
669.814	6.29
670.139	6.84
670.465	6.64
670.791	6.75
671.116	5.37
671.442	6.35
671.767	5.93
672.092	6.56
672.418	6.46
672.743	6.13
673.068	5.86
673.393	5.95
673.718	5.75
674.043	5.9
674.368	6.06
674.693	6.07
675.018	6.33
675.343	6.15
675.667	6.1
675.992	6.23
676.317	6.13
676.641	6.2
676.966	6.21
677.29	5.9
677.615	6.49
677.939	6.11
678.264	6.48
678.588	6.49
678.912	6.28
679.236	6.15
679.56	6.06
679.885	6.09
680.209	6
680.532	5.87
680.856	5.89
681.18	6.24
681.504	5.98
681.828	5.57
682.152	5.79
682.475	5.9
682.799	5.89
683.122	6.2
683.446	5.9
683.769	6.54
684.093	6.15
684.416	5.78
684.739	6.61
685.062	6.22
685.386	5.47
685.709	5.94
686.032	6.04
686.355	6.02
686.678	6.15
687.001	5.23
687.324	5.26
687.646	5.58
687.969	6.12
688.292	6.37
688.614	6.63
688.937	6.1
689.26	6.11
689.582	5.74
689.904	5.8
690.227	6.42
690.549	6.54
690.871	6.8
691.194	6.11
691.516	5.81
691.838	5.78
692.16	6.43
692.482	6.62
692.804	5.76
693.126	6.27
693.448	6.02
