Data from 0051_chest_Reflection__3__33.txt Node

Date: Fri Dec 16 14:06:45 CST 2022
User: ToomeyLab
Spectrometer: FLMS14357
Trigger mode: 0
Integration Time (sec): 1.000000E-2
Scans to average: 100
Electric dark correction enabled: true
Nonlinearity correction enabled: false
Boxcar width: 0
XAxis mode: Wavelengths
Number of Pixels in Spectrum: 2048
>>>>>Begin Spectral Data<<<<<
189.047	-2.27
189.435	-2.27
189.823	-2.27
190.211	-85.84
190.599	83.68
190.987	-5.72
191.375	183.43
191.763	91.46
192.151	234
192.538	160.91
192.926	-6.92
193.314	75.98
193.702	-31.03
194.089	-27.25
194.477	-8.08
194.864	93.96
195.252	-15.17
195.639	167.74
196.027	12.43
196.414	39.87
196.801	-42.99
197.189	773.72
197.576	36.82
197.963	-82.38
198.351	24.95
198.738	-5.15
199.125	31.94
199.512	11.41
199.899	12.97
200.286	16.26
200.673	18.85
201.06	34.76
201.447	38.85
201.833	21.16
202.22	55.17
202.607	9.89
202.994	40.55
203.38	-1
203.767	-9.87
204.154	-19.83
204.54	44.18
204.927	-1.97
205.313	21.02
205.699	5.31
206.086	-3.06
206.472	8.51
206.858	23.07
207.245	5.71
207.631	10.65
208.017	13.41
208.403	30.28
208.789	5.3
209.175	55.07
209.561	-2.4
209.947	18.07
210.333	17.47
210.719	-10.59
211.105	-31.19
211.491	27.67
211.876	-7.5
212.262	-6.11
212.648	0.92
213.034	0.19
213.419	27.67
213.805	6.4
214.19	5.02
214.576	11.05
214.961	19.16
215.346	-3.27
215.732	21.06
216.117	33.69
216.502	-5.82
216.888	-3.32
217.273	35.15
217.658	0.42
218.043	13.99
218.428	21.34
218.813	-13.27
219.198	-24.9
219.583	4.12
219.968	20.56
220.353	21.22
220.738	-9.95
221.122	1.02
221.507	3.83
221.892	19.9
222.276	16.61
222.661	2.08
223.046	0.63
223.43	-3.69
223.815	10.63
224.199	5.32
224.583	8.59
224.968	17.78
225.352	1.15
225.736	5.57
226.121	9.26
226.505	8.8
226.889	14.35
227.273	3.86
227.657	7.91
228.041	8.27
228.425	8.5
228.809	8.03
229.193	3.33
229.577	5.15
229.961	5.18
230.344	5.27
230.728	5.64
231.112	5.63
231.495	5.11
231.879	5.32
232.263	5.7
232.646	5.16
233.03	5.05
233.413	5.2
233.797	6.37
234.18	6.26
234.563	5.09
234.946	4.68
235.33	7.19
235.713	6.38
236.096	5.08
236.479	6.6
236.862	8.84
237.245	8.5
237.628	5.02
238.011	6.84
238.394	6.26
238.777	5.29
239.16	4.72
239.543	5.57
239.925	7.16
240.308	6.19
240.691	6.56
241.073	5.79
241.456	5.28
241.838	5.19
242.221	5.81
242.603	5.63
242.986	6.32
243.368	5.73
243.75	5.77
244.133	5.7
244.515	5.14
244.897	5.4
245.279	5.83
245.661	6.05
246.043	6.14
246.425	5.75
246.807	6.46
247.189	6.18
247.571	6.14
247.953	5.6
248.335	5.63
248.717	5.4
249.098	5.34
249.48	4.97
249.862	5.72
250.243	5.41
250.625	6.17
251.006	5.84
251.388	5.77
251.769	5.51
252.151	5.32
252.532	5.48
252.913	5.48
253.295	5.59
253.676	5.94
254.057	4.94
254.438	5.16
254.819	6.29
255.2	5.13
255.581	4.65
255.962	4.92
256.343	6.3
256.724	5.18
257.105	6.08
257.486	4.48
257.867	4.28
258.247	5.92
258.628	5.8
259.009	5.54
259.389	5.48
259.77	5.28
260.15	5.86
260.531	5.36
260.911	5.1
261.292	5.13
261.672	4.96
262.052	4.81
262.432	4.67
262.813	5
263.193	4.72
263.573	5.26
263.953	4.96
264.333	5.47
264.713	4.98
265.093	4.87
265.473	5.59
265.853	4.93
266.233	5.24
266.612	5.11
266.992	4.23
267.372	5.5
267.752	4.66
268.131	5.22
268.511	5.19
268.89	5.27
269.27	5.49
269.649	5.31
270.029	4.39
270.408	4.87
270.787	4.75
271.167	5.17
271.546	4.67
271.925	4.8
272.304	5.1
272.683	4.94
273.062	4.99
273.441	4.9
273.82	5.13
274.199	5.16
274.578	4.5
274.957	5.03
275.336	5.16
275.715	5.07
276.093	5.14
276.472	5.18
276.851	5.05
277.229	5.18
277.608	4.82
277.986	4.93
278.365	4.53
278.743	5.26
279.122	4.83
279.5	4.74
279.878	4.34
280.257	5.09
280.635	5.13
281.013	5.41
281.391	4.14
281.769	5.03
282.147	4.62
282.525	4.96
282.903	4.87
283.281	4.86
283.659	4.57
284.037	4.56
284.415	4.85
284.792	5.05
285.17	4.81
285.548	4.39
285.925	4.3
286.303	4.77
286.68	4.49
287.058	4.67
287.435	4.51
287.813	4.73
288.19	5.15
288.567	4.65
288.945	4.61
289.322	4.63
289.699	4.73
290.076	5.12
290.453	4.4
290.83	4.63
291.207	4.36
291.584	4.53
291.961	4.75
292.338	4.71
292.715	4.64
293.092	4.58
293.469	4.96
293.845	5.08
294.222	4.67
294.599	5.1
294.975	4.87
295.352	4.3
295.728	4.7
296.105	4.33
296.481	5.27
296.858	4.94
297.234	4.75
297.61	4.74
297.986	4.89
298.363	4.4
298.739	4.7
299.115	4.42
299.491	4.58
299.867	5.1
300.243	4.6
300.619	4.58
300.995	4.78
301.371	4.82
301.746	4.69
302.122	4.83
302.498	4.79
302.874	4.58
303.249	4.4
303.625	4.79
304	4.34
304.376	4.99
304.751	4.91
305.127	4.74
305.502	4.77
305.878	4.81
306.253	4.49
306.628	4.66
307.003	5.01
307.378	4.18
307.754	5.1
308.129	3.98
308.504	4.57
308.879	4.57
309.254	5.17
309.629	4.68
310.003	5.26
310.378	4.69
310.753	4.63
311.128	4.56
311.502	4.46
311.877	4.68
312.252	4.49
312.626	4.71
313.001	4.76
313.375	4.68
313.75	4.48
314.124	5.1
314.498	4.47
314.873	4.87
315.247	4.42
315.621	5.16
315.995	4.64
316.369	4.78
316.743	5.26
317.117	4.49
317.491	5.17
317.865	4.23
318.239	5.16
318.613	4.59
318.987	4.82
319.361	4.49
319.734	4.85
320.108	4.55
320.482	4.71
320.855	5.08
321.229	4.94
321.602	4.82
321.976	4.8
322.349	4.64
322.723	4.36
323.096	4.84
323.469	4.67
323.843	5.17
324.216	4.37
324.589	4.94
324.962	5.18
325.335	4.99
325.708	4.7
326.081	4.98
326.454	4.89
326.827	4.91
327.2	5.14
327.573	5.09
327.945	4.53
328.318	4.99
328.691	4.82
329.063	4.49
329.436	4.91
329.809	4.42
330.181	5.06
330.553	4.58
330.926	4.99
331.298	4.3
331.671	4.71
332.043	4.89
332.415	5.06
332.787	5.26
333.159	4.89
333.532	4.98
333.904	4.97
334.276	4.56
334.648	4.67
335.02	4.92
335.391	5.05
335.763	4.5
336.135	4.84
336.507	4.64
336.879	4.85
337.25	4.76
337.622	4.81
337.993	4.77
338.365	4.84
338.736	5.14
339.108	4.59
339.479	4.52
339.851	5.27
340.222	5.39
340.593	4.94
340.964	4.51
341.336	4.56
341.707	4.61
342.078	4.7
342.449	4.8
342.82	4.62
343.191	4.6
343.562	4.65
343.933	4.52
344.303	4.71
344.674	4.76
345.045	5.12
345.416	4.7
345.786	4.64
346.157	4.56
346.527	4.73
346.898	4.66
347.268	4.35
347.639	4.58
348.009	4.81
348.38	4.61
348.75	4.73
349.12	4.77
349.49	4.39
349.861	5.08
350.231	5.29
350.601	4.86
350.971	4.9
351.341	4.66
351.711	4.67
352.081	4.87
352.45	4.47
352.82	4.78
353.19	4.64
353.56	5.04
353.929	4.72
354.299	5.08
354.669	4.98
355.038	5.19
355.408	5.07
355.777	4.66
356.147	4.9
356.516	4.81
356.885	4.71
357.254	5
357.624	4.83
357.993	4.56
358.362	5
358.731	4.63
359.1	4.97
359.469	5.15
359.838	4.67
360.207	4.37
360.576	5.01
360.945	4.42
361.314	5
361.682	4.56
362.051	4.74
362.42	5.14
362.788	4.98
363.157	4.81
363.525	4.54
363.894	4.77
364.262	4.47
364.631	5.49
364.999	4.67
365.367	5.07
365.735	4.64
366.104	4.58
366.472	4.84
366.84	4.92
367.208	4.55
367.576	5.01
367.944	4.88
368.312	4.67
368.68	4.84
369.048	4.88
369.416	4.69
369.783	4.63
370.151	4.47
370.519	4.89
370.886	4.39
371.254	4.9
371.621	4.83
371.989	4.62
372.356	4.64
372.724	4.88
373.091	4.81
373.458	4.75
373.826	4.77
374.193	5.25
374.56	4.37
374.927	4.84
375.294	5.32
375.661	4.81
376.028	5.07
376.395	5.06
376.762	5.02
377.129	5.06
377.496	4.83
377.863	4.94
378.229	4.64
378.596	4.96
378.963	4.75
379.329	4.7
379.696	4.9
380.062	5.18
380.429	4.81
380.795	4.74
381.161	5.13
381.528	4.43
381.894	5.03
382.26	4.87
382.626	4.53
382.993	4.81
383.359	4.98
383.725	4.9
384.091	4.88
384.457	4.93
384.823	5.06
385.188	4.99
385.554	5.07
385.92	5.13
386.286	5.25
386.651	4.99
387.017	4.76
387.383	4.9
387.748	4.83
388.114	5.11
388.479	5.1
388.845	5.13
389.21	5.21
389.575	5.09
389.94	4.9
390.306	4.97
390.671	4.8
391.036	5.33
391.401	5.29
391.766	4.93
392.131	5
392.496	5.07
392.861	4.95
393.226	4.98
393.591	4.92
393.956	5.17
394.32	4.75
394.685	5.08
395.05	4.92
395.414	5.2
395.779	4.88
396.143	4.99
396.508	5.08
396.872	5.01
397.236	4.84
397.601	5.11
397.965	4.74
398.329	5.05
398.694	5.25
399.058	5.13
399.422	5.17
399.786	5.19
400.15	4.92
400.514	4.93
400.878	4.84
401.242	5.09
401.605	4.94
401.969	5
402.333	4.77
402.697	5.28
403.06	5.1
403.424	4.96
403.787	5.12
404.151	4.96
404.514	5.25
404.878	5.17
405.241	5.19
405.604	4.99
405.968	5.14
406.331	5.2
406.694	5.17
407.057	5.34
407.42	5.08
407.783	5.34
408.146	5.14
408.509	5.18
408.872	4.96
409.235	5.31
409.598	5.09
409.961	5.09
410.323	5.13
410.686	5.23
411.049	5.14
411.411	5.12
411.774	5.12
412.136	5.12
412.499	5.02
412.861	4.76
413.223	5.33
413.586	5.26
413.948	5.13
414.31	5.35
414.672	5.4
415.035	5.44
415.397	5.1
415.759	5.16
416.121	5.48
416.483	5.29
416.845	5.31
417.206	5.16
417.568	5.21
417.93	5.19
418.292	5.12
418.653	5.09
419.015	5.26
419.377	5.36
419.738	5.2
420.1	5.21
420.461	5.03
420.822	5.19
421.184	5.18
421.545	5.11
421.906	5.15
422.267	5.07
422.629	5.09
422.99	5.19
423.351	5.14
423.712	5.09
424.073	5.17
424.434	5.09
424.795	5.07
425.155	5.21
425.516	5.12
425.877	5.14
426.238	5.06
426.598	5.21
426.959	5.11
427.32	5.21
427.68	5.3
428.041	5.11
428.401	5.2
428.761	5.1
429.122	5.15
429.482	5.19
429.842	5.28
430.202	5.18
430.563	5.34
430.923	5.24
431.283	5.47
431.643	5.31
432.003	5.33
432.363	5.39
432.722	5.3
433.082	5.22
433.442	5.37
433.802	5.42
434.161	5.29
434.521	5.34
434.881	5.29
435.24	5.12
435.6	5.35
435.959	5.26
436.319	5.14
436.678	5.28
437.037	5.39
437.396	5.46
437.756	5.34
438.115	5.32
438.474	5.38
438.833	5.51
439.192	5.43
439.551	5.3
439.91	5.32
440.269	5.54
440.628	5.36
440.987	5.21
441.345	5.18
441.704	5.33
442.063	5.28
442.421	5.36
442.78	5.27
443.138	5.15
443.497	5.33
443.855	5.33
444.214	5.44
444.572	5.22
444.93	5.35
445.288	5.31
445.647	5.38
446.005	5.22
446.363	5.46
446.721	5.27
447.079	5.37
447.437	5.32
447.795	5.2
448.153	5.27
448.51	5.21
448.868	5.35
449.226	5.3
449.584	5.39
449.941	5.38
450.299	5.33
450.656	5.35
451.014	5.39
451.371	5.44
451.729	5.4
452.086	5.39
452.443	5.33
452.801	5.46
453.158	5.5
453.515	5.39
453.872	5.48
454.229	5.41
454.586	5.45
454.943	5.35
455.3	5.59
455.657	5.38
456.014	5.46
456.371	5.59
456.727	5.49
457.084	5.41
457.441	5.4
457.797	5.55
458.154	5.5
458.51	5.42
458.867	5.44
459.223	5.43
459.58	5.45
459.936	5.44
460.292	5.48
460.648	5.38
461.005	5.36
461.361	5.4
461.717	5.35
462.073	5.49
462.429	5.45
462.785	5.46
463.141	5.61
463.496	5.45
463.852	5.63
464.208	5.54
464.564	5.42
464.919	5.6
465.275	5.38
465.631	5.61
465.986	5.5
466.342	5.58
466.697	5.42
467.052	5.61
467.408	5.5
467.763	5.39
468.118	5.6
468.473	5.65
468.829	5.52
469.184	5.63
469.539	5.45
469.894	5.62
470.249	5.49
470.603	5.55
470.958	5.62
471.313	5.66
471.668	5.82
472.023	5.81
472.377	5.42
472.732	5.59
473.086	5.45
473.441	5.65
473.795	5.65
474.15	5.59
474.504	5.67
474.859	5.61
475.213	5.61
475.567	5.59
475.921	5.73
476.275	5.55
476.63	5.54
476.984	5.71
477.338	5.98
477.692	5.62
478.045	5.63
478.399	5.81
478.753	5.53
479.107	5.56
479.461	5.75
479.814	5.67
480.168	5.58
480.521	5.58
480.875	5.88
481.228	5.72
481.582	5.66
481.935	5.59
482.289	5.6
482.642	5.68
482.995	5.68
483.348	5.53
483.701	5.59
484.055	5.52
484.408	5.57
484.761	5.42
485.114	5.4
485.466	5.36
485.819	5.36
486.172	5.39
486.525	5.38
486.878	5.42
487.23	5.56
487.583	5.57
487.936	5.58
488.288	5.55
488.641	5.5
488.993	5.36
489.345	5.45
489.698	5.49
490.05	5.49
490.402	5.53
490.754	5.58
491.107	5.62
491.459	5.61
491.811	5.74
492.163	5.72
492.515	5.66
492.866	5.54
493.218	5.48
493.57	5.55
493.922	5.55
494.274	5.62
494.625	5.59
494.977	5.64
495.328	5.84
495.68	5.91
496.031	5.92
496.383	5.86
496.734	5.92
497.086	5.75
497.437	5.96
497.788	5.8
498.139	5.82
498.49	5.9
498.842	5.87
499.193	5.8
499.544	5.78
499.894	5.81
500.245	5.85
500.596	5.85
500.947	5.91
501.298	5.84
501.648	5.92
501.999	6.05
502.35	6
502.7	6.07
503.051	6
503.401	5.95
503.752	5.99
504.102	5.94
504.452	5.98
504.803	5.86
505.153	5.96
505.503	5.93
505.853	5.85
506.203	6.09
506.553	5.95
506.903	5.86
507.253	6.04
507.603	5.99
507.953	6.06
508.303	6.12
508.652	5.95
509.002	6.09
509.352	5.98
509.701	6.05
510.051	6.07
510.4	6
510.75	6.04
511.099	6.01
511.449	6.07
511.798	6.2
512.147	6.06
512.496	6.12
512.846	6.01
513.195	6.12
513.544	6.12
513.893	5.95
514.242	6.12
514.591	6.11
514.939	6.07
515.288	6.12
515.637	6.24
515.986	6.14
516.334	6.16
516.683	6.17
517.032	6.04
517.38	6.17
517.729	6.23
518.077	6.24
518.426	6.24
518.774	6.11
519.122	6.14
519.47	6.21
519.819	6.17
520.167	6.18
520.515	6.04
520.863	6.16
521.211	6.16
521.559	6.29
521.907	6.16
522.255	6.31
522.602	6.34
522.95	6.32
523.298	6.36
523.645	6.32
523.993	6.37
524.341	6.3
524.688	6.36
525.036	6.51
525.383	6.48
525.73	6.44
526.078	6.33
526.425	6.37
526.772	6.3
527.119	6.31
527.466	6.33
527.814	6.3
528.161	6.34
528.508	6.34
528.854	6.28
529.201	6.32
529.548	6.26
529.895	6.22
530.242	6.19
530.588	6.2
530.935	6.17
531.282	6.24
531.628	6.26
531.975	6.35
532.321	6.43
532.667	6.5
533.014	6.46
533.36	6.5
533.706	6.52
534.052	6.51
534.399	6.43
534.745	6.38
535.091	6.39
535.437	6.4
535.783	6.44
536.129	6.48
536.474	6.52
536.82	6.55
537.166	6.62
537.512	6.54
537.857	6.6
538.203	6.69
538.549	6.68
538.894	6.67
539.239	6.77
539.585	6.69
539.93	6.65
540.276	6.84
540.621	6.75
540.966	6.85
541.311	6.87
541.656	6.84
542.001	6.87
542.346	6.77
542.691	6.69
543.036	6.69
543.381	6.65
543.726	6.7
544.071	6.72
544.415	6.8
544.76	6.74
545.105	6.77
545.449	6.8
545.794	6.92
546.138	7
546.483	6.94
546.827	7.08
547.171	7.05
547.516	7.17
547.86	7.11
548.204	6.99
548.548	7.15
548.892	7.1
549.236	7.15
549.58	7.08
549.924	7.19
550.268	7.14
550.612	7.31
550.956	7.3
551.3	7.31
551.643	7.4
551.987	7.35
552.33	7.32
552.674	7.59
553.017	7.5
553.361	7.49
553.704	7.22
554.048	7.47
554.391	7.46
554.734	7.53
555.077	7.55
555.42	7.59
555.764	7.43
556.107	7.49
556.45	7.56
556.793	7.71
557.135	7.61
557.478	7.63
557.821	7.64
558.164	7.87
558.507	7.61
558.849	7.55
559.192	7.74
559.534	7.77
559.877	7.86
560.219	7.86
560.562	7.85
560.904	7.85
561.246	7.91
561.589	8.04
561.931	8.08
562.273	7.82
562.615	8
562.957	7.85
563.299	8.13
563.641	8.13
563.983	8.1
564.325	7.85
564.667	8
565.008	7.9
565.35	8.2
565.692	8.25
566.033	8.23
566.375	7.94
566.716	8.23
567.058	8.33
567.399	8.28
567.741	8.26
568.082	8.25
568.423	8.29
568.764	8.18
569.105	8.45
569.447	8.37
569.788	8.44
570.129	8.38
570.47	8.51
570.811	8.37
571.151	8.64
571.492	8.59
571.833	8.54
572.174	8.42
572.514	8.45
572.855	8.66
573.195	8.55
573.536	8.52
573.876	8.58
574.217	8.61
574.557	8.65
574.898	8.56
575.238	8.6
575.578	8.8
575.918	8.59
576.258	8.76
576.598	8.65
576.938	9.05
577.278	8.71
577.618	8.82
577.958	8.85
578.298	9.09
578.638	8.87
578.977	8.98
579.317	9.11
579.657	9.02
579.996	9.05
580.336	8.95
580.675	9.13
581.014	9.09
581.354	9.1
581.693	9.31
582.032	9.2
582.372	9.17
582.711	9.18
583.05	9.55
583.389	9.46
583.728	9.53
584.067	9.27
584.406	9.7
584.745	9.42
585.083	9.69
585.422	9.56
585.761	9.64
586.1	9.6
586.438	9.83
586.777	9.62
587.115	9.67
587.454	9.58
587.792	9.61
588.13	10.22
588.469	10.02
588.807	10.1
589.145	9.97
589.483	9.92
589.821	9.76
590.159	10.15
590.497	9.93
590.835	9.94
591.173	10.04
591.511	10.12
591.849	10.08
592.187	10.08
592.524	10.02
592.862	10.1
593.2	10.05
593.537	10.01
593.875	9.94
594.212	10.13
594.55	10.19
594.887	10.64
595.224	10.07
595.561	10.48
595.899	10.33
596.236	10.37
596.573	10.45
596.91	10.27
597.247	10.61
597.584	10.58
597.921	10.56
598.258	10.55
598.594	10.56
598.931	10.55
599.268	10.57
599.604	10.75
599.941	10.58
600.277	10.7
600.614	10.84
600.95	11.07
601.287	10.82
601.623	11.03
601.959	11.19
602.296	11.2
602.632	11.25
602.968	11.02
603.304	10.99
603.64	11.17
603.976	11.06
604.312	11.42
604.648	11.12
604.984	11.18
605.319	11.19
605.655	11.1
605.991	11.29
606.326	11.26
606.662	11.13
606.998	11.26
607.333	11.16
607.668	11.24
608.004	11.34
608.339	11.33
608.674	11.46
609.01	11.65
609.345	11.76
609.68	11.62
610.015	11.4
610.35	11.59
610.685	11.65
611.02	12.04
611.355	11.73
611.689	11.65
612.024	11.94
612.359	12.09
612.694	11.89
613.028	12.2
613.363	11.7
613.697	12.1
614.032	12.04
614.366	11.71
614.7	12.32
615.035	11.83
615.369	12.46
615.703	12.5
616.037	12.3
616.371	12.21
616.705	12.36
617.039	12.44
617.373	12.33
617.707	12.62
618.041	12.87
618.375	12.33
618.709	12.42
619.042	12.34
619.376	12.27
619.71	12.56
620.043	12.5
620.377	12.73
620.71	12.59
621.043	12.31
621.377	12.74
621.71	13.22
622.043	13.32
622.376	12.69
622.709	13.14
623.043	12.94
623.376	13.19
623.709	13.08
624.041	12.83
624.374	12.8
624.707	13.18
625.04	13.14
625.373	13.12
625.705	13.23
626.038	13.26
626.37	13.31
626.703	13.26
627.035	13.38
627.368	13.55
627.7	13.62
628.032	13.32
628.365	13.3
628.697	13.64
629.029	13.71
629.361	13.48
629.693	13.79
630.025	13.54
630.357	13.54
630.689	14.04
631.021	13.73
631.353	13.82
631.684	13.72
632.016	13.93
632.348	13.67
632.679	13.81
633.011	13.79
633.342	14.08
633.674	13.96
634.005	14.11
634.336	13.77
634.668	14.03
634.999	14.23
635.33	14.2
635.661	14.44
635.992	14.16
636.323	14.56
636.654	14.22
636.985	14.12
637.316	14.31
637.647	14.21
637.977	14.37
638.308	14.25
638.639	14.44
638.969	14.68
639.3	14.8
639.63	14.36
639.961	14.53
640.291	14.85
640.622	14.87
640.952	14.61
641.282	14.22
641.612	14.46
641.943	15.05
642.273	14.9
642.603	14.94
642.933	14.91
643.263	15.48
643.592	15.15
643.922	15.66
644.252	14.94
644.582	14.95
644.911	14.95
645.241	15.03
645.571	15.1
645.9	15.18
646.23	14.98
646.559	15.56
646.888	14.76
647.218	15.83
647.547	15.37
647.876	15.68
648.205	15.4
648.534	15.67
648.863	15.83
649.192	15.27
649.521	15.28
649.85	16.2
650.179	15.12
650.508	15.66
650.837	15.95
651.165	15.6
651.494	16.04
651.822	15.96
652.151	15.99
652.479	15.89
652.808	15.45
653.136	15.55
653.465	16.53
653.793	16.11
654.121	16.22
654.449	16.23
654.777	16.28
655.105	16.83
655.433	16.24
655.761	16.27
656.089	16.76
656.417	16.25
656.745	16.88
657.073	16.57
657.4	16.55
657.728	16.92
658.056	16.16
658.383	16.56
658.711	16.54
659.038	16.05
659.365	16.48
659.693	16.8
660.02	16.52
660.347	16.74
660.674	16.67
661.001	16.18
661.329	16.51
661.656	16.68
661.982	17.06
662.309	16.84
662.636	16.82
662.963	17.04
663.29	16.88
663.616	17.13
663.943	17.35
664.27	16.92
664.596	17.54
664.923	17.76
665.249	16.99
665.576	17.23
665.902	17.29
666.228	17.52
666.554	17.25
666.881	17.18
667.207	17.11
667.533	17.75
667.859	17.5
668.185	18.07
668.511	17.51
668.837	17.02
669.162	17.84
669.488	17.95
669.814	18.31
670.139	18.19
670.465	18.01
670.791	17.97
671.116	17.73
671.442	17.84
671.767	18.12
672.092	18.16
672.418	17.84
672.743	18.36
673.068	18.06
673.393	17.54
673.718	18.16
674.043	18.64
674.368	18.54
674.693	18.94
675.018	18.21
675.343	18.65
675.667	17.87
675.992	18.42
676.317	18.51
676.641	18.33
676.966	19.24
677.29	18.99
677.615	18.97
677.939	18.5
678.264	18.1
678.588	19.04
678.912	18.57
679.236	19.36
679.56	18.55
679.885	18.67
680.209	18.85
680.532	18.89
680.856	19.11
681.18	19.08
681.504	18.73
681.828	18.4
682.152	18.56
682.475	18.98
682.799	18.81
683.122	19.02
683.446	19.29
683.769	19.32
684.093	19.11
684.416	18.98
684.739	19.43
685.062	19.44
685.386	19.03
685.709	19.86
686.032	19.4
686.355	19.74
686.678	20.29
