Data from 0051_forehead_Reflection__4__45.txt Node

Date: Fri Dec 16 14:10:01 CST 2022
User: ToomeyLab
Spectrometer: FLMS14357
Trigger mode: 0
Integration Time (sec): 1.000000E-2
Scans to average: 100
Electric dark correction enabled: true
Nonlinearity correction enabled: false
Boxcar width: 0
XAxis mode: Wavelengths
Number of Pixels in Spectrum: 2048
>>>>>Begin Spectral Data<<<<<
189.047	95.06
189.435	95.06
189.823	95.06
190.211	14.4
190.599	195.82
190.987	617.71
191.375	21.19
191.763	9.22
192.151	87.1
192.538	129.1
192.926	36.2
193.314	100.33
193.702	149.62
194.089	93.84
194.477	-20.86
194.864	-116.3
195.252	35.69
195.639	63.66
196.027	464.8
196.414	-206.93
196.801	-585.97
197.189	1005.13
197.576	192.81
197.963	-22.44
198.351	30.37
198.738	-2.57
199.125	26.84
199.512	12.64
199.899	23.29
200.286	-3.85
200.673	52.81
201.06	28.97
201.447	42.67
201.833	5.02
202.22	68.39
202.607	21.94
202.994	15.57
203.38	-8.04
203.767	47.5
204.154	-2.41
204.54	57.43
204.927	23.8
205.313	15.44
205.699	-7.55
206.086	9.54
206.472	-10.46
206.858	-11
207.245	16.94
207.631	3.55
208.017	15.65
208.403	16.79
208.789	21.07
209.175	37.5
209.561	8.58
209.947	37.38
210.333	15.96
210.719	14.1
211.105	-6.3
211.491	10.92
211.876	47.37
212.262	-28.99
212.648	-32.94
213.034	21.77
213.419	30.42
213.805	12.8
214.19	13.37
214.576	-2.73
214.961	-17.43
215.346	-6.11
215.732	30.57
216.117	6.72
216.502	-1.53
216.888	-16.7
217.273	25.7
217.658	-1.4
218.043	13.92
218.428	26.37
218.813	-9.67
219.198	11.51
219.583	3.3
219.968	-13.79
220.353	15.72
220.738	-0.51
221.122	4.06
221.507	10.72
221.892	-2.04
222.276	18.05
222.661	5.35
223.046	0.87
223.43	3.91
223.815	10.66
224.199	10.54
224.583	12.78
224.968	12.53
225.352	-7.44
225.736	4.41
226.121	-1.83
226.505	4.72
226.889	6.86
227.273	5.11
227.657	2.67
228.041	5.74
228.425	-0.3
228.809	4.6
229.193	1.58
229.577	2.03
229.961	2.45
230.344	2.09
230.728	2.26
231.112	1.76
231.495	2.72
231.879	3.27
232.263	2.26
232.646	2.81
233.03	1.51
233.413	2.47
233.797	4.79
234.18	1.91
234.563	1.93
234.946	1.27
235.33	1.29
235.713	3.78
236.096	2.59
236.479	2.88
236.862	4.2
237.245	4.21
237.628	3.44
238.011	2.42
238.394	4.35
238.777	2.99
239.16	1.13
239.543	2.97
239.925	4.41
240.308	5.08
240.691	2.34
241.073	3.47
241.456	2.55
241.838	1.86
242.221	3.48
242.603	2.86
242.986	3.02
243.368	2.45
243.75	2.44
244.133	2.41
244.515	2.35
244.897	2.28
245.279	2.98
245.661	3.25
246.043	2.83
246.425	2.89
246.807	2.88
247.189	2.49
247.571	2.75
247.953	2.47
248.335	2.67
248.717	2.64
249.098	2.64
249.48	2.22
249.862	2.48
250.243	2.73
250.625	2.19
251.006	3.31
251.388	3.87
251.769	2.84
252.151	3.02
252.532	2.68
252.913	2.81
253.295	2.71
253.676	2.96
254.057	2.67
254.438	2.25
254.819	3.43
255.2	3.24
255.581	2.14
255.962	2.67
256.343	2.7
256.724	1.91
257.105	2.87
257.486	1.88
257.867	1.59
258.247	3.5
258.628	3.89
259.009	3.14
259.389	3.28
259.77	2.46
260.15	3.16
260.531	2.83
260.911	2.88
261.292	2.51
261.672	2.52
262.052	2.53
262.432	2.56
262.813	2.62
263.193	2.51
263.573	3.09
263.953	2.57
264.333	3.01
264.713	2.7
265.093	1.99
265.473	2.91
265.853	2.88
266.233	3.21
266.612	2.84
266.992	2.32
267.372	2.54
267.752	2.29
268.131	2.9
268.511	2.68
268.89	3
269.27	2.81
269.649	3.18
270.029	2.3
270.408	2.58
270.787	2.11
271.167	2.37
271.546	2.23
271.925	2.74
272.304	2.42
272.683	2.47
273.062	3.02
273.441	3.15
273.82	2.76
274.199	2.81
274.578	2.71
274.957	2.55
275.336	2.46
275.715	3.22
276.093	2.6
276.472	2.26
276.851	2.81
277.229	2.68
277.608	2.46
277.986	2.66
278.365	2.46
278.743	2.84
279.122	2.63
279.5	2.55
279.878	2.15
280.257	2.98
280.635	2.3
281.013	2.56
281.391	2.36
281.769	2.77
282.147	3.03
282.525	2.59
282.903	2.71
283.281	2.41
283.659	2.83
284.037	2.6
284.415	2.86
284.792	3.05
285.17	2.92
285.548	2.22
285.925	2.58
286.303	2.52
286.68	2.73
287.058	2.45
287.435	2.46
287.813	2.59
288.19	2.85
288.567	2.66
288.945	2.93
289.322	2.78
289.699	2.59
290.076	3
290.453	2.65
290.83	3.14
291.207	2.57
291.584	2.41
291.961	2.85
292.338	2.79
292.715	2.96
293.092	2.75
293.469	3.16
293.845	3.03
294.222	2.78
294.599	3.33
294.975	3.05
295.352	2.38
295.728	3.13
296.105	3.07
296.481	3.43
296.858	3.39
297.234	3.3
297.61	3.22
297.986	3.28
298.363	2.64
298.739	3.34
299.115	2.98
299.491	3.4
299.867	3.42
300.243	3.04
300.619	2.93
300.995	3.68
301.371	3.54
301.746	3.43
302.122	3.37
302.498	3.36
302.874	3.41
303.249	3.38
303.625	3.52
304	3.24
304.376	3.78
304.751	3.7
305.127	3.76
305.502	3.88
305.878	3.69
306.253	3.7
306.628	4.04
307.003	3.92
307.378	3.63
307.754	4.07
308.129	3.51
308.504	3.9
308.879	4.18
309.254	3.95
309.629	4.21
310.003	4.85
310.378	4.28
310.753	4.09
311.128	4.35
311.502	3.53
311.877	3.92
312.252	4.03
312.626	4.15
313.001	4.16
313.375	3.98
313.75	4.27
314.124	4.87
314.498	4.1
314.873	4.13
315.247	4.15
315.621	5.02
315.995	4.61
316.369	4.95
316.743	5.11
317.117	5
317.491	4.77
317.865	4.1
318.239	5.43
318.613	4.99
318.987	4.79
319.361	5.14
319.734	5.02
320.108	5.21
320.482	4.78
320.855	5.25
321.229	6.03
321.602	5.68
321.976	5.13
322.349	4.73
322.723	4.65
323.096	4.83
323.469	4.91
323.843	5.38
324.216	5.35
324.589	5.4
324.962	5.96
325.335	5.57
325.708	5.52
326.081	5.55
326.454	5.61
326.827	5.74
327.2	6.26
327.573	5.66
327.945	5.7
328.318	5.88
328.691	5.81
329.063	5.92
329.436	5.81
329.809	6.05
330.181	6.35
330.553	5.83
330.926	6.06
331.298	6.09
331.671	6.33
332.043	6
332.415	6.53
332.787	6.93
333.159	6.37
333.532	6.42
333.904	6.46
334.276	7.08
334.648	6.54
335.02	6.55
335.391	6.37
335.763	6.38
336.135	6.64
336.507	6.55
336.879	6.52
337.25	6.99
337.622	6.88
337.993	6.88
338.365	6.82
338.736	6.75
339.108	6.31
339.479	6.93
339.851	7.02
340.222	7.61
340.593	6.84
340.964	7.1
341.336	6.5
341.707	6.95
342.078	6.57
342.449	7.6
342.82	6.97
343.191	6.9
343.562	7.37
343.933	7.23
344.303	7.43
344.674	6.86
345.045	7.43
345.416	7.48
345.786	7.01
346.157	7.27
346.527	6.98
346.898	7.45
347.268	7.09
347.639	7.33
348.009	7.49
348.38	7.71
348.75	7.65
349.12	7.79
349.49	7.42
349.861	8.05
350.231	7.96
350.601	7.77
350.971	7.81
351.341	7.79
351.711	7.82
352.081	8.19
352.45	8.08
352.82	7.85
353.19	7.78
353.56	8.15
353.929	8.25
354.299	7.87
354.669	8.03
355.038	8.33
355.408	8.4
355.777	8.15
356.147	8.38
356.516	8.42
356.885	7.93
357.254	8.64
357.624	8.44
357.993	8.3
358.362	8.35
358.731	8.29
359.1	8.65
359.469	8.39
359.838	8.59
360.207	8.5
360.576	8.41
360.945	8.8
361.314	8.85
361.682	8.46
362.051	8.63
362.42	8.79
362.788	8.69
363.157	8.56
363.525	8.42
363.894	8.47
364.262	8.26
364.631	9.38
364.999	8.93
365.367	9.02
365.735	8.8
366.104	8.72
366.472	8.87
366.84	9.07
367.208	8.97
367.576	9.27
367.944	9.4
368.312	9.24
368.68	9.23
369.048	9.54
369.416	9.28
369.783	9.17
370.151	9.69
370.519	9.31
370.886	9.56
371.254	9.64
371.621	9.37
371.989	9.57
372.356	9.77
372.724	9.43
373.091	9.76
373.458	9.47
373.826	9.61
374.193	10.21
374.56	9.69
374.927	9.51
375.294	9.86
375.661	10.1
376.028	10.11
376.395	9.91
376.762	10
377.129	9.91
377.496	10.05
377.863	10.25
378.229	9.8
378.596	9.78
378.963	9.95
379.329	10.11
379.696	10.14
380.062	10.58
380.429	10.2
380.795	10.17
381.161	10.43
381.528	10.18
381.894	10.72
382.26	10.4
382.626	10.41
382.993	10.47
383.359	10.68
383.725	10.69
384.091	10.76
384.457	11.09
384.823	10.77
385.188	11.03
385.554	10.69
385.92	10.85
386.286	10.94
386.651	11.04
387.017	11.09
387.383	11.14
387.748	10.8
388.114	11.11
388.479	11.03
388.845	11.45
389.21	11.26
389.575	11.21
389.94	11.32
390.306	11.08
390.671	11.38
391.036	11.55
391.401	11.63
391.766	11.57
392.131	11.18
392.496	11.33
392.861	11.22
393.226	11.41
393.591	11.49
393.956	11.57
394.32	11.36
394.685	11.67
395.05	11.62
395.414	11.35
395.779	11.51
396.143	11.82
396.508	12.02
396.872	11.84
397.236	11.41
397.601	11.93
397.965	11.59
398.329	11.91
398.694	11.87
399.058	12.02
399.422	12.16
399.786	11.97
400.15	12.12
400.514	12.23
400.878	12.11
401.242	12.25
401.605	12.34
401.969	11.92
402.333	12.24
402.697	12.27
403.06	12.42
403.424	12.47
403.787	12.75
404.151	12.3
404.514	12.28
404.878	12.5
405.241	12.45
405.604	12.58
405.968	12.58
406.331	12.59
406.694	12.67
407.057	12.68
407.42	12.71
407.783	12.65
408.146	12.83
408.509	12.63
408.872	12.84
409.235	13.24
409.598	13.01
409.961	13.18
410.323	12.89
410.686	13.14
411.049	12.86
411.411	13.04
411.774	13.03
412.136	13.32
412.499	13.2
412.861	13.16
413.223	13.38
413.586	13.2
413.948	13.28
414.31	13.47
414.672	13.48
415.035	13.51
415.397	13.55
415.759	13.59
416.121	13.82
416.483	13.73
416.845	13.44
417.206	13.72
417.568	13.65
417.93	13.51
418.292	13.66
418.653	13.69
419.015	13.56
419.377	13.56
419.738	13.65
420.1	13.6
420.461	13.64
420.822	13.78
421.184	13.7
421.545	13.58
421.906	13.74
422.267	13.58
422.629	13.69
422.99	13.7
423.351	13.84
423.712	13.9
424.073	13.97
424.434	13.86
424.795	13.93
425.155	13.86
425.516	13.88
425.877	13.98
426.238	13.94
426.598	14.16
426.959	14.15
427.32	14.21
427.68	14.59
428.041	14.44
428.401	14.27
428.761	14.57
429.122	14.57
429.482	14.47
429.842	14.87
430.202	14.85
430.563	14.77
430.923	14.71
431.283	14.88
431.643	14.77
432.003	14.87
432.363	14.91
432.722	14.82
433.082	15.06
433.442	15.1
433.802	14.94
434.161	14.96
434.521	14.96
434.881	15.07
435.24	15
435.6	14.95
435.959	15.07
436.319	15
436.678	15.28
437.037	15.36
437.396	15.32
437.756	15.27
438.115	15.32
438.474	15.38
438.833	15.59
439.192	15.34
439.551	15.46
439.91	15.46
440.269	15.49
440.628	15.27
440.987	15.39
441.345	15.43
441.704	15.55
442.063	15.53
442.421	15.62
442.78	15.49
443.138	15.72
443.497	15.79
443.855	15.78
444.214	15.95
444.572	15.75
444.93	16.08
445.288	16.04
445.647	15.98
446.005	16.03
446.363	15.94
446.721	15.8
447.079	15.82
447.437	15.74
447.795	15.79
448.153	15.96
448.51	15.87
448.868	16.05
449.226	15.97
449.584	16.1
449.941	16.38
450.299	16.27
450.656	16.57
451.014	16.57
451.371	16.56
451.729	16.62
452.086	16.52
452.443	16.57
452.801	16.71
453.158	16.71
453.515	16.55
453.872	16.78
454.229	16.75
454.586	16.78
454.943	16.69
455.3	17.03
455.657	16.95
456.014	17.05
456.371	16.96
456.727	17.03
457.084	17
457.441	17.1
457.797	17.43
458.154	17.29
458.51	17.17
458.867	17.08
459.223	17.3
459.58	17.17
459.936	17.09
460.292	17.18
460.648	17.11
461.005	16.85
461.361	16.97
461.717	17.18
462.073	17.35
462.429	17.4
462.785	17.7
463.141	17.8
463.496	17.7
463.852	17.84
464.208	17.75
464.564	17.74
464.919	17.95
465.275	17.99
465.631	17.88
465.986	17.93
466.342	18.14
466.697	17.98
467.052	18.13
467.408	18.19
467.763	18.14
468.118	18.09
468.473	18.16
468.829	18.36
469.184	18.25
469.539	18.28
469.894	18.35
470.249	18.53
470.603	18.52
470.958	18.62
471.313	18.16
471.668	18.58
472.023	18.59
472.377	18.54
472.732	18.61
473.086	18.54
473.441	18.94
473.795	18.88
474.15	18.78
474.504	18.81
474.859	19.02
475.213	18.86
475.567	18.76
475.921	19
476.275	19.04
476.63	19.04
476.984	19.02
477.338	19.24
477.692	19.08
478.045	19.15
478.399	18.98
478.753	18.99
479.107	19.03
479.461	19.23
479.814	19
480.168	19.25
480.521	19.2
480.875	19.43
481.228	19.43
481.582	19.21
481.935	19.35
482.289	19.17
482.642	19.35
482.995	19.25
483.348	19.1
483.701	19.08
484.055	19.07
484.408	18.79
484.761	18.31
485.114	18.28
485.466	18.43
485.819	18.71
486.172	18.94
486.525	19.13
486.878	19.28
487.23	19.41
487.583	19.33
487.936	19.25
488.288	19.11
488.641	19
488.993	18.94
489.345	19.04
489.698	19.18
490.05	19.26
490.402	19.62
490.754	19.8
491.107	19.88
491.459	19.96
491.811	20.02
492.163	19.81
492.515	19.55
492.866	19.24
493.218	19.35
493.57	19.71
493.922	20.05
494.274	20.25
494.625	20.29
494.977	20.43
495.328	20.7
495.68	20.78
496.031	20.74
496.383	20.7
496.734	20.75
497.086	20.67
497.437	20.76
497.788	20.67
498.139	20.65
498.49	20.64
498.842	20.76
499.193	20.86
499.544	21.11
499.894	20.97
500.245	20.96
500.596	21.22
500.947	21.09
501.298	21.29
501.648	21.28
501.999	21.38
502.35	21.31
502.7	21.61
503.051	21.63
503.401	21.57
503.752	21.59
504.102	21.53
504.452	21.73
504.803	21.59
505.153	21.78
505.503	21.65
505.853	21.58
506.203	21.69
506.553	21.98
506.903	22
507.253	21.86
507.603	21.85
507.953	22.1
508.303	22.03
508.652	22.02
509.002	22.07
509.352	21.88
509.701	21.99
510.051	22.02
510.4	21.84
510.75	22.1
511.099	22.16
511.449	22.13
511.798	22.38
512.147	22.15
512.496	22.29
512.846	22.28
513.195	22.43
513.544	22.39
513.893	22.08
514.242	22.5
514.591	22.52
514.939	22.61
515.288	22.61
515.637	22.81
515.986	22.73
516.334	22.76
516.683	22.83
517.032	22.9
517.38	22.79
517.729	22.98
518.077	22.96
518.426	22.78
518.774	22.67
519.122	22.63
519.47	22.64
519.819	22.57
520.167	22.51
520.515	22.62
520.863	23.01
521.211	23.02
521.559	23.03
521.907	23.13
522.255	23.31
522.602	23.38
522.95	23.62
523.298	23.53
523.645	23.45
523.993	23.49
524.341	23.6
524.688	23.7
525.036	23.9
525.383	23.63
525.73	23.61
526.078	23.75
526.425	23.49
526.772	23.18
527.119	23.06
527.466	23.28
527.814	23.42
528.161	23.54
528.508	23.44
528.854	23.42
529.201	23.15
529.548	22.8
529.895	22.69
530.242	22.82
530.588	23.16
530.935	23.38
531.282	23.6
531.628	23.72
531.975	23.83
532.321	23.92
532.667	24.09
533.014	23.99
533.36	24.03
533.706	24.1
534.052	23.79
534.399	23.56
534.745	23.48
535.091	23.69
535.437	23.93
535.783	24.21
536.129	24.36
536.474	24.56
536.82	24.57
537.166	24.7
537.512	24.38
537.857	24.24
538.203	24.25
538.549	24.59
538.894	24.64
539.239	24.96
539.585	24.92
539.93	25.08
540.276	25.37
540.621	25.29
540.966	25.29
541.311	25.22
541.656	24.84
542.001	24.94
542.346	24.42
542.691	24.25
543.036	24.35
543.381	24.67
543.726	24.81
544.071	25.05
544.415	24.97
544.76	25
545.105	25.24
545.449	25.36
545.794	25.62
546.138	25.69
546.483	25.74
546.827	25.63
547.171	25.64
547.516	25.77
547.86	25.64
548.204	25.59
548.548	25.73
548.892	25.9
549.236	26.18
549.58	26.32
549.924	26.3
550.268	26.49
550.612	26.57
550.956	26.44
551.3	26.64
551.643	26.56
551.987	26.8
552.33	26.64
552.674	26.79
553.017	26.78
553.361	26.66
553.704	26.46
554.048	26.63
554.391	26.53
554.734	26.75
555.077	27
555.42	26.88
555.764	27.11
556.107	27.07
556.45	27.07
556.793	27.2
557.135	27.44
557.478	27.19
557.821	27.28
558.164	27.51
558.507	27.32
558.849	27.55
559.192	27.67
559.534	27.51
559.877	27.79
560.219	27.8
560.562	27.9
560.904	27.64
561.246	27.87
561.589	28.08
561.931	28.11
562.273	27.63
562.615	27.82
562.957	27.89
563.299	27.88
563.641	27.98
563.983	27.87
564.325	27.89
564.667	28.07
565.008	28.1
565.35	28.21
565.692	28.17
566.033	28.16
566.375	27.84
566.716	28.15
567.058	28.21
567.399	28.18
567.741	28.15
568.082	27.96
568.423	28.16
568.764	28.19
569.105	28.33
569.447	28.47
569.788	28.38
570.129	28.54
570.47	28.68
570.811	28.62
571.151	28.81
571.492	28.7
571.833	28.65
572.174	28.56
572.514	28.58
572.855	28.71
573.195	28.62
573.536	28.74
573.876	28.78
574.217	28.82
574.557	29.05
574.898	29.05
575.238	29.1
575.578	28.93
575.918	29.05
576.258	29.18
576.598	29.13
576.938	29.27
577.278	29.1
577.618	29.28
577.958	29.21
578.298	29.45
578.638	29.54
578.977	29.5
579.317	29.64
579.657	29.8
579.996	29.72
580.336	29.84
580.675	29.85
581.014	29.96
581.354	29.97
581.693	29.86
582.032	30
582.372	30
582.711	30.3
583.05	30.26
583.389	30.18
583.728	30.05
584.067	30.12
584.406	30.58
584.745	30.41
585.083	30.63
585.422	30.54
585.761	30.55
586.1	30.58
586.438	30.4
586.777	30.58
587.115	30.35
587.454	30.59
587.792	30.7
588.13	30.93
588.469	31.22
588.807	30.91
589.145	30.77
589.483	30.74
589.821	31.09
590.159	30.91
590.497	30.63
590.835	30.9
591.173	30.93
591.511	30.8
591.849	30.95
592.187	31.21
592.524	30.82
592.862	31.39
593.2	31.46
593.537	31.31
593.875	31.25
594.212	31.44
594.55	31.37
594.887	31.69
595.224	31.28
595.561	31.32
595.899	31.31
596.236	31.65
596.573	31.03
596.91	31.72
597.247	31.48
597.584	31.5
597.921	31.26
598.258	31.07
598.594	31.04
598.931	31.29
599.268	31.42
599.604	31.69
599.941	31.79
600.277	31.93
600.614	31.99
600.95	32.03
601.287	32.03
601.623	32.38
601.959	31.86
602.296	32.13
602.632	32.26
602.968	31.95
603.304	31.94
603.64	32.09
603.976	32.04
604.312	32.3
604.648	32.23
604.984	31.97
605.319	32.14
605.655	32.06
605.991	31.98
606.326	31.67
606.662	32.02
606.998	32.16
607.333	32.46
607.668	32.49
608.004	32.56
608.339	32.81
608.674	32.6
609.01	33.21
609.345	32.74
609.68	33.01
610.015	32.8
610.35	32.79
610.685	32.53
611.02	32.65
611.355	32.66
611.689	32.49
612.024	32.86
612.359	33.05
612.694	33.15
613.028	33.62
613.363	33.01
613.697	33.42
614.032	33.49
614.366	33.34
614.7	33.5
615.035	33.41
615.369	33.46
615.703	33.94
616.037	33.59
616.371	33.29
616.705	33.65
617.039	33.6
617.373	33.66
617.707	33.54
618.041	33.68
618.375	33.57
618.709	33.96
619.042	33.81
619.376	33.72
619.71	33.95
620.043	33.48
620.377	33.79
620.71	34.33
621.043	33.77
621.377	33.79
621.71	34
622.043	34.15
622.376	33.92
622.709	34.59
623.043	34.15
623.376	34.09
623.709	34.45
624.041	34.38
624.374	34.29
624.707	34.21
625.04	34.38
625.373	34.09
625.705	34.12
626.038	34.34
626.37	34.59
626.703	34.6
627.035	34.37
627.368	34.41
627.7	34.4
628.032	34.37
628.365	34.12
628.697	34.62
629.029	34.51
629.361	34.21
629.693	34.64
630.025	35.07
630.357	35.15
630.689	35.02
631.021	35.13
631.353	34.85
631.684	34.97
632.016	35.08
632.348	35.18
632.679	34.83
633.011	35.43
633.342	35.27
633.674	35.27
634.005	34.89
634.336	34.9
634.668	34.91
634.999	35.69
635.33	35.26
635.661	35.3
635.992	35.08
636.323	35.17
636.654	35.51
636.985	35.73
637.316	35.47
637.647	35.75
637.977	35.38
638.308	35.13
638.639	35.53
638.969	35.38
639.3	35.95
639.63	35.55
639.961	35.23
640.291	35.8
640.622	35.92
640.952	36.02
641.282	36
641.612	35.81
641.943	35.97
642.273	36.13
642.603	36.26
642.933	35.85
643.263	36.48
643.592	36.21
643.922	36.56
644.252	36.21
644.582	36.41
644.911	36.13
645.241	36.28
645.571	36.42
645.9	36.58
646.23	36.28
646.559	36.35
646.888	36.41
647.218	36.54
647.547	36.39
647.876	36.77
648.205	36.51
648.534	36.14
648.863	36.98
649.192	36.63
649.521	36.52
649.85	36.87
650.179	36.3
650.508	36.89
650.837	36.75
651.165	36.76
651.494	36.44
651.822	36.96
652.151	37.18
652.479	36.77
652.808	36.26
653.136	36.7
653.465	37.29
653.793	36.95
654.121	36.85
654.449	36.86
654.777	37.23
655.105	36.68
655.433	37.36
655.761	37.23
656.089	37.29
656.417	37.21
656.745	37.43
657.073	37.24
657.4	37.48
657.728	36.81
658.056	37.25
658.383	37.29
658.711	37.27
659.038	37.27
659.365	37.08
659.693	36.78
660.02	37.36
660.347	36.79
660.674	37.23
661.001	36.47
661.329	37.35
661.656	37.54
661.982	37.8
662.309	38.09
662.636	37.43
662.963	37.78
663.29	37.98
663.616	37.84
663.943	37.57
664.27	38
664.596	38
664.923	38.52
665.249	37.94
665.576	37.63
665.902	38.33
666.228	37.7
666.554	37.37
666.881	38.1
667.207	38.05
667.533	38.81
667.859	38.37
668.185	38.36
668.511	37.75
668.837	37.84
669.162	38.23
669.488	38.66
669.814	38.45
670.139	38.72
670.465	38.53
670.791	38.28
671.116	37.88
671.442	38.22
671.767	38.15
672.092	38.04
672.418	38.56
672.743	38.97
673.068	38.57
673.393	38.35
