Data from 0051_chest_Reflection__5__35.txt Node

Date: Fri Dec 16 14:07:17 CST 2022
User: ToomeyLab
Spectrometer: FLMS14357
Trigger mode: 0
Integration Time (sec): 1.000000E-2
Scans to average: 100
Electric dark correction enabled: true
Nonlinearity correction enabled: false
Boxcar width: 0
XAxis mode: Wavelengths
Number of Pixels in Spectrum: 2048
>>>>>Begin Spectral Data<<<<<
189.047	122.73
189.435	122.73
189.823	122.73
190.211	361.03
190.599	-252.95
190.987	231.52
191.375	253.67
191.763	3.06
192.151	-160.05
192.538	213.59
192.926	-70.72
193.314	71.02
193.702	194.07
194.089	29.46
194.477	64.25
194.864	40.52
195.252	-7.33
195.639	116.07
196.027	435.31
196.414	-187.58
196.801	-113.57
197.189	618.82
197.576	5.66
197.963	135.76
198.351	35.82
198.738	5.19
199.125	25.27
199.512	12.66
199.899	-11
200.286	3.1
200.673	31.32
201.06	47.91
201.447	38.4
201.833	-17.99
202.22	29.38
202.607	20.34
202.994	23.71
203.38	42.44
203.767	-22.52
204.154	-3.82
204.54	16.76
204.927	37.55
205.313	21.04
205.699	16.95
206.086	5.95
206.472	32.27
206.858	20.89
207.245	31.09
207.631	-3.62
208.017	61.16
208.403	16.01
208.789	15.51
209.175	33.41
209.561	33.18
209.947	14.21
210.333	-39.9
210.719	19
211.105	20.19
211.491	20.84
211.876	16.65
212.262	-27.56
212.648	-32.91
213.034	-10.81
213.419	5.96
213.805	-1.35
214.19	11.07
214.576	-4.04
214.961	29.06
215.346	-10.57
215.732	-5.51
216.117	17.7
216.502	18.32
216.888	-6.71
217.273	8.21
217.658	11.02
218.043	-2.53
218.428	15.28
218.813	10.97
219.198	-19.46
219.583	-8.86
219.968	13.83
220.353	22.63
220.738	-12.25
221.122	-8.42
221.507	-1.43
221.892	12.52
222.276	12.28
222.661	-2.43
223.046	19.19
223.43	9.46
223.815	7.48
224.199	12.74
224.583	3.5
224.968	4.22
225.352	-2.08
225.736	5.1
226.121	5.01
226.505	7.98
226.889	9.2
227.273	9.94
227.657	5.73
228.041	7.57
228.425	6.98
228.809	7.96
229.193	4.85
229.577	5.55
229.961	6.35
230.344	5.95
230.728	5.53
231.112	4.84
231.495	5.93
231.879	5.95
232.263	6.01
232.646	6.02
233.03	4.85
233.413	5.73
233.797	7.66
234.18	5.67
234.563	6.39
234.946	6.58
235.33	5.95
235.713	5.8
236.096	5.34
236.479	7.5
236.862	7.8
237.245	6.96
237.628	6.92
238.011	5.82
238.394	8.44
238.777	5.63
239.16	6.06
239.543	4.71
239.925	6.72
240.308	5.42
240.691	5.55
241.073	6.29
241.456	6.05
241.838	5.58
242.221	5.81
242.603	5.65
242.986	6.59
243.368	5.78
243.75	5.28
244.133	5.35
244.515	5.38
244.897	5.63
245.279	5.62
245.661	4.82
246.043	5.82
246.425	4.35
246.807	5.84
247.189	4.97
247.571	5.9
247.953	5.58
248.335	5.7
248.717	5.45
249.098	5.41
249.48	5.11
249.862	5.73
250.243	5.51
250.625	5.41
251.006	5.06
251.388	4.98
251.769	5.96
252.151	6.12
252.532	5.82
252.913	5.53
253.295	5.18
253.676	5.77
254.057	5.48
254.438	5.57
254.819	5.65
255.2	5.52
255.581	5
255.962	4.68
256.343	6.07
256.724	5.38
257.105	5.18
257.486	5.25
257.867	4.21
258.247	4.26
258.628	5.84
259.009	5.65
259.389	5.87
259.77	5.13
260.15	5.57
260.531	5.03
260.911	5.08
261.292	5.06
261.672	4.92
262.052	4.96
262.432	4.84
262.813	5.11
263.193	5.05
263.573	5.03
263.953	4.69
264.333	4.87
264.713	4.67
265.093	4.64
265.473	5.27
265.853	5.12
266.233	4.83
266.612	5.34
266.992	4.71
267.372	4.59
267.752	4.75
268.131	4.81
268.511	5.33
268.89	5.12
269.27	5.11
269.649	5.05
270.029	4.8
270.408	4.99
270.787	4.97
271.167	5.44
271.546	4.28
271.925	4.53
272.304	4.98
272.683	5
273.062	4.88
273.441	5.14
273.82	5.07
274.199	4.87
274.578	4.45
274.957	4.45
275.336	4.92
275.715	4.92
276.093	4.67
276.472	5
276.851	4.62
277.229	5.24
277.608	4.65
277.986	5.07
278.365	4.63
278.743	5.16
279.122	4.26
279.5	4.26
279.878	3.92
280.257	5.15
280.635	3.86
281.013	5.35
281.391	4.69
281.769	4.66
282.147	4.88
282.525	4.28
282.903	4.85
283.281	4.38
283.659	4.57
284.037	4.17
284.415	4.37
284.792	4.92
285.17	4.49
285.548	4.4
285.925	4.3
286.303	4.21
286.68	4.72
287.058	4.34
287.435	4.41
287.813	4.85
288.19	4.64
288.567	4.53
288.945	4.62
289.322	4.59
289.699	4.46
290.076	4.75
290.453	4.45
290.83	4.51
291.207	4.48
291.584	4.63
291.961	4.49
292.338	4.54
292.715	4.84
293.092	4.43
293.469	4.89
293.845	4.89
294.222	4.96
294.599	4.93
294.975	5.18
295.352	4.45
295.728	4.9
296.105	4.87
296.481	5.01
296.858	4.51
297.234	4.39
297.61	4.51
297.986	4.76
298.363	4.37
298.739	4.5
299.115	4.37
299.491	4.67
299.867	4.39
300.243	4.69
300.619	4.6
300.995	4.68
301.371	4.8
301.746	4.69
302.122	4.62
302.498	4.6
302.874	4.48
303.249	4.7
303.625	4.83
304	4.25
304.376	4.96
304.751	4.96
305.127	5.12
305.502	4.88
305.878	4.85
306.253	4.38
306.628	4.69
307.003	5
307.378	4.79
307.754	4.26
308.129	3.98
308.504	4.73
308.879	4.81
309.254	4.91
309.629	4.75
310.003	5.06
310.378	5.03
310.753	4.97
311.128	4.76
311.502	4.56
311.877	4.77
312.252	4.44
312.626	4.62
313.001	4.57
313.375	4.81
313.75	4.51
314.124	5.07
314.498	4.19
314.873	5.02
315.247	4.74
315.621	5.02
315.995	4.42
316.369	4.62
316.743	5.03
317.117	4.83
317.491	4.89
317.865	4.12
318.239	5.23
318.613	5.08
318.987	5.15
319.361	4.95
319.734	4.42
320.108	5.08
320.482	4.95
320.855	4.6
321.229	5.2
321.602	4.39
321.976	4.8
322.349	4.24
322.723	4.19
323.096	4.49
323.469	4.7
323.843	4.6
324.216	4.3
324.589	5.4
324.962	4.57
325.335	4.84
325.708	4.56
326.081	5.38
326.454	4.7
326.827	4.9
327.2	5.25
327.573	4.78
327.945	4.39
328.318	4.7
328.691	4.67
329.063	4.68
329.436	5.13
329.809	4.44
330.181	4.73
330.553	5.22
330.926	4.64
331.298	4.73
331.671	4.74
332.043	4.62
332.415	5.19
332.787	5.06
333.159	4.34
333.532	5.05
333.904	5.3
334.276	5.09
334.648	4.67
335.02	4.33
335.391	4.76
335.763	4.69
336.135	5.3
336.507	4.8
336.879	4.6
337.25	4.87
337.622	4.97
337.993	5.29
338.365	4.83
338.736	4.64
339.108	5.05
339.479	5.24
339.851	5.08
340.222	5.06
340.593	4.49
340.964	5.19
341.336	4.39
341.707	4.35
342.078	4.85
342.449	5.05
342.82	4.84
343.191	4.58
343.562	5.09
343.933	5.21
344.303	4.97
344.674	4.94
345.045	4.79
345.416	4.7
345.786	4.31
346.157	5.05
346.527	4.59
346.898	4.82
347.268	4.8
347.639	5.06
348.009	4.9
348.38	4.73
348.75	5.13
349.12	5.27
349.49	4.48
349.861	5.37
350.231	5.11
350.601	4.74
350.971	4.96
351.341	4.83
351.711	4.73
352.081	4.53
352.45	4.85
352.82	4.73
353.19	5.03
353.56	4.94
353.929	4.7
354.299	4.76
354.669	4.81
355.038	4.71
355.408	5.28
355.777	4.78
356.147	4.92
356.516	5.19
356.885	5.09
357.254	5.18
357.624	5.04
357.993	4.72
358.362	5.08
358.731	4.75
359.1	5.1
359.469	5.01
359.838	4.86
360.207	4.68
360.576	4.96
360.945	5.08
361.314	5.11
361.682	4.73
362.051	4.68
362.42	4.94
362.788	4.85
363.157	4.78
363.525	4.81
363.894	4.55
364.262	4.84
364.631	5.48
364.999	4.46
365.367	5.35
365.735	4.7
366.104	4.6
366.472	5.04
366.84	5.05
367.208	4.86
367.576	5.07
367.944	5.1
368.312	4.69
368.68	5.13
369.048	5.09
369.416	4.91
369.783	4.97
370.151	5.11
370.519	4.76
370.886	4.83
371.254	5.17
371.621	5
371.989	5.09
372.356	4.89
372.724	4.86
373.091	5.03
373.458	4.85
373.826	4.65
374.193	5.49
374.56	4.75
374.927	4.54
375.294	5.13
375.661	4.64
376.028	4.96
376.395	4.83
376.762	5.05
377.129	4.96
377.496	5
377.863	5.29
378.229	4.9
378.596	4.83
378.963	4.81
379.329	4.88
379.696	4.88
380.062	5.27
380.429	5.2
380.795	5.07
381.161	4.83
381.528	4.56
381.894	5.28
382.26	5.06
382.626	4.99
382.993	4.78
383.359	4.89
383.725	5.1
384.091	5
384.457	4.69
384.823	5.19
385.188	5.29
385.554	5.06
385.92	5.26
386.286	5.29
386.651	4.98
387.017	5.25
387.383	5.04
387.748	4.96
388.114	5.1
388.479	5.11
388.845	5.31
389.21	5.35
389.575	5.09
389.94	5.16
390.306	5.18
390.671	5.03
391.036	5.03
391.401	5.54
391.766	5.25
392.131	4.87
392.496	5.15
392.861	5.11
393.226	5.16
393.591	5.24
393.956	5.34
394.32	5.1
394.685	5.56
395.05	5.13
395.414	5.13
395.779	5.08
396.143	5.18
396.508	5.1
396.872	5.19
397.236	4.98
397.601	5.21
397.965	5.07
398.329	5.32
398.694	4.98
399.058	5.29
399.422	5.07
399.786	5.4
400.15	5.24
400.514	5.24
400.878	5.17
401.242	5.41
401.605	5.11
401.969	5.23
402.333	5.02
402.697	5.13
403.06	5.37
403.424	5.09
403.787	5.37
404.151	4.99
404.514	5.3
404.878	5.34
405.241	5.31
405.604	5.37
405.968	5.19
406.331	5.44
406.694	5.19
407.057	5.43
407.42	5.16
407.783	5.04
408.146	5.15
408.509	5.34
408.872	5.24
409.235	5.28
409.598	5.33
409.961	5.54
410.323	5.03
410.686	5.32
411.049	5.03
411.411	5.47
411.774	5.31
412.136	5.34
412.499	5.16
412.861	5.2
413.223	5.18
413.586	5.36
413.948	5.38
414.31	5.34
414.672	5.3
415.035	5.41
415.397	5.53
415.759	5.28
416.121	5.4
416.483	5.46
416.845	5.21
417.206	5.35
417.568	5.44
417.93	5.24
418.292	5.16
418.653	5.38
419.015	5.45
419.377	5.37
419.738	5.3
420.1	5.21
420.461	5.26
420.822	5.24
421.184	5.32
421.545	5.17
421.906	5.19
422.267	5.12
422.629	5.26
422.99	5.24
423.351	5.29
423.712	5.3
424.073	5.42
424.434	5.2
424.795	5.29
425.155	5.24
425.516	5.26
425.877	5.24
426.238	5.17
426.598	5.15
426.959	5.16
427.32	5.27
427.68	5.38
428.041	5.43
428.401	5.22
428.761	5.17
429.122	5.36
429.482	5.33
429.842	5.39
430.202	5.5
430.563	5.34
430.923	5.38
431.283	5.53
431.643	5.34
432.003	5.54
432.363	5.48
432.722	5.42
433.082	5.42
433.442	5.25
433.802	5.35
434.161	5.38
434.521	5.36
434.881	5.46
435.24	5.3
435.6	5.41
435.959	5.31
436.319	5.41
436.678	5.41
437.037	5.45
437.396	5.37
437.756	5.41
438.115	5.45
438.474	5.43
438.833	5.51
439.192	5.54
439.551	5.57
439.91	5.4
440.269	5.56
440.628	5.53
440.987	5.32
441.345	5.39
441.704	5.5
442.063	5.38
442.421	5.41
442.78	5.42
443.138	5.36
443.497	5.4
443.855	5.46
444.214	5.52
444.572	5.44
444.93	5.59
445.288	5.48
445.647	5.53
446.005	5.38
446.363	5.41
446.721	5.3
447.079	5.59
447.437	5.43
447.795	5.31
448.153	5.41
448.51	5.46
448.868	5.54
449.226	5.49
449.584	5.36
449.941	5.62
450.299	5.48
450.656	5.54
451.014	5.49
451.371	5.61
451.729	5.57
452.086	5.41
452.443	5.42
452.801	5.6
453.158	5.57
453.515	5.43
453.872	5.8
454.229	5.51
454.586	5.66
454.943	5.6
455.3	5.59
455.657	5.6
456.014	5.68
456.371	5.68
456.727	5.55
457.084	5.63
457.441	5.55
457.797	5.74
458.154	5.71
458.51	5.51
458.867	5.6
459.223	5.56
459.58	5.59
459.936	5.52
460.292	5.69
460.648	5.63
461.005	5.5
461.361	5.49
461.717	5.5
462.073	5.55
462.429	5.67
462.785	5.62
463.141	5.79
463.496	5.63
463.852	5.83
464.208	5.77
464.564	5.65
464.919	5.56
465.275	5.79
465.631	5.7
465.986	5.58
466.342	5.66
466.697	5.66
467.052	5.75
467.408	5.67
467.763	5.71
468.118	5.79
468.473	5.84
468.829	5.75
469.184	5.81
469.539	5.76
469.894	5.71
470.249	5.71
470.603	5.82
470.958	5.82
471.313	5.71
471.668	5.81
472.023	5.86
472.377	5.8
472.732	5.65
473.086	5.87
473.441	5.91
473.795	5.87
474.15	5.74
474.504	5.83
474.859	5.87
475.213	5.8
475.567	5.67
475.921	5.86
476.275	5.91
476.63	5.83
476.984	5.82
477.338	6.08
477.692	5.94
478.045	5.8
478.399	5.82
478.753	5.73
479.107	5.78
479.461	5.87
479.814	5.83
480.168	5.84
480.521	5.81
480.875	5.9
481.228	6.02
481.582	5.8
481.935	5.88
482.289	5.77
482.642	5.83
482.995	5.71
483.348	5.76
483.701	5.75
484.055	5.75
484.408	5.75
484.761	5.57
485.114	5.57
485.466	5.54
485.819	5.52
486.172	5.57
486.525	5.63
486.878	5.63
487.23	5.75
487.583	5.72
487.936	5.79
488.288	5.72
488.641	5.72
488.993	5.63
489.345	5.68
489.698	5.72
490.05	5.66
490.402	5.79
490.754	5.81
491.107	5.83
491.459	5.96
491.811	5.91
492.163	5.9
492.515	5.88
492.866	5.64
493.218	5.7
493.57	5.78
493.922	5.76
494.274	5.92
494.625	5.89
494.977	5.88
495.328	5.94
495.68	6.09
496.031	6.04
496.383	6.01
496.734	6.08
497.086	5.98
497.437	6.13
497.788	6.04
498.139	6.02
498.49	6.05
498.842	6.09
499.193	5.99
499.544	6.11
499.894	6.07
500.245	6.08
500.596	6.06
500.947	6.15
501.298	6.13
501.648	6.13
501.999	6.19
502.35	6.27
502.7	6.3
503.051	6.39
503.401	6.37
503.752	6.24
504.102	6.17
504.452	6.25
504.803	6.17
505.153	6.25
505.503	6.22
505.853	6.12
506.203	6.34
506.553	6.23
506.903	6.22
507.253	6.37
507.603	6.19
507.953	6.45
508.303	6.25
508.652	6.27
509.002	6.35
509.352	6.35
509.701	6.35
510.051	6.26
510.4	6.28
510.75	6.35
511.099	6.43
511.449	6.37
511.798	6.37
512.147	6.27
512.496	6.45
512.846	6.37
513.195	6.41
513.544	6.4
513.893	6.33
514.242	6.54
514.591	6.47
514.939	6.42
515.288	6.5
515.637	6.49
515.986	6.41
516.334	6.5
516.683	6.56
517.032	6.43
517.38	6.41
517.729	6.49
518.077	6.55
518.426	6.49
518.774	6.42
519.122	6.51
519.47	6.5
519.819	6.44
520.167	6.43
520.515	6.46
520.863	6.48
521.211	6.56
521.559	6.56
521.907	6.55
522.255	6.62
522.602	6.64
522.95	6.67
523.298	6.6
523.645	6.72
523.993	6.74
524.341	6.68
524.688	6.77
525.036	6.78
525.383	6.83
525.73	6.83
526.078	6.72
526.425	6.7
526.772	6.57
527.119	6.65
527.466	6.66
527.814	6.64
528.161	6.77
528.508	6.69
528.854	6.64
529.201	6.66
529.548	6.65
529.895	6.52
530.242	6.57
530.588	6.64
530.935	6.57
531.282	6.75
531.628	6.71
531.975	6.73
532.321	6.74
532.667	6.84
533.014	6.89
533.36	6.95
533.706	6.88
534.052	6.9
534.399	6.85
534.745	6.79
535.091	6.88
535.437	6.87
535.783	6.97
536.129	7.02
536.474	7
536.82	7.02
537.166	7.09
537.512	7.08
537.857	7.02
538.203	7.11
538.549	7.19
538.894	7.04
539.239	7.19
539.585	7.26
539.93	7.27
540.276	7.27
540.621	7.26
540.966	7.39
541.311	7.37
541.656	7.31
542.001	7.28
542.346	7.17
542.691	7.11
543.036	7.13
543.381	7.19
543.726	7.28
544.071	7.21
544.415	7.33
544.76	7.22
545.105	7.37
545.449	7.42
545.794	7.39
546.138	7.58
546.483	7.42
546.827	7.59
547.171	7.51
547.516	7.62
547.86	7.57
548.204	7.62
548.548	7.68
548.892	7.6
549.236	7.66
549.58	7.7
549.924	7.68
550.268	7.86
550.612	7.91
550.956	7.85
551.3	7.95
551.643	8
551.987	7.92
552.33	7.89
552.674	8.14
553.017	8.07
553.361	8.02
553.704	8.01
554.048	8.05
554.391	8.07
554.734	8.06
555.077	8.19
555.42	8.15
555.764	8.03
556.107	8.12
556.45	8.18
556.793	8.24
557.135	8.31
557.478	8.41
557.821	8.24
558.164	8.35
558.507	8.39
558.849	8.37
559.192	8.35
559.534	8.27
559.877	8.51
560.219	8.53
560.562	8.54
560.904	8.47
561.246	8.45
561.589	8.59
561.931	8.79
562.273	8.77
562.615	8.61
562.957	8.55
563.299	8.62
563.641	8.77
563.983	8.66
564.325	8.6
564.667	8.77
565.008	8.6
565.35	8.76
565.692	8.79
566.033	8.84
566.375	8.75
566.716	8.83
567.058	9.03
567.399	9.08
567.741	9.03
568.082	9.03
568.423	9.01
568.764	9.07
569.105	9.19
569.447	8.96
569.788	9.2
570.129	9.1
570.47	9.12
570.811	9.37
571.151	9.26
571.492	9.32
571.833	9.22
572.174	9.26
572.514	9.26
572.855	9.39
573.195	9.28
573.536	9.21
573.876	9.25
574.217	9.46
574.557	9.45
574.898	9.4
575.238	9.57
575.578	9.53
575.918	9.48
576.258	9.51
576.598	9.6
576.938	9.67
577.278	9.53
577.618	9.69
577.958	9.71
578.298	9.84
578.638	9.69
578.977	9.87
579.317	9.99
579.657	9.83
579.996	9.87
580.336	9.85
580.675	9.98
581.014	10.02
581.354	10.13
581.693	10
582.032	9.94
582.372	10.23
582.711	10.08
583.05	10.45
583.389	10.25
583.728	10.27
584.067	10.45
584.406	10.49
584.745	10.2
585.083	10.62
585.422	10.48
585.761	10.69
586.1	10.7
586.438	10.74
586.777	10.65
587.115	10.73
587.454	10.62
587.792	10.44
588.13	10.96
588.469	10.84
588.807	10.73
589.145	10.8
589.483	10.72
589.821	10.78
590.159	10.93
590.497	10.69
590.835	10.8
591.173	11.13
591.511	10.89
591.849	11.15
592.187	10.77
592.524	11.14
592.862	11.08
593.2	11.06
593.537	11.14
593.875	11.18
594.212	11.19
594.55	11.3
594.887	11.56
595.224	11.17
595.561	11.41
595.899	11.3
596.236	11.33
596.573	11.29
596.91	11.59
597.247	11.56
597.584	11.54
597.921	11.36
598.258	11.58
598.594	11.48
598.931	11.48
599.268	11.57
599.604	11.71
599.941	11.55
600.277	11.7
600.614	11.69
600.95	11.75
601.287	11.98
601.623	11.95
601.959	12.07
602.296	12.13
602.632	12.18
602.968	12.08
603.304	12.23
603.64	12.08
603.976	12.16
604.312	12.32
604.648	12.26
604.984	12.1
605.319	12.37
605.655	12.03
605.991	12.14
606.326	12.24
606.662	12.24
606.998	12.32
607.333	12.23
607.668	12.38
608.004	12.4
608.339	12.48
608.674	12.41
609.01	12.91
609.345	12.94
609.68	12.61
610.015	12.48
610.35	12.69
610.685	12.78
611.02	12.92
611.355	13.04
611.689	12.83
612.024	12.94
612.359	12.92
612.694	12.96
613.028	13.43
613.363	13.25
613.697	13.27
614.032	13.19
614.366	13.11
614.7	13.45
615.035	13.52
615.369	13.37
615.703	13.63
616.037	13.18
616.371	13.31
616.705	13.71
617.039	13.51
617.373	13.44
617.707	13.6
618.041	13.98
618.375	13.33
618.709	13.9
619.042	13.73
619.376	13.63
619.71	13.81
620.043	13.56
620.377	13.87
620.71	13.79
621.043	13.77
621.377	13.89
621.71	14.23
622.043	14.46
622.376	14.01
622.709	14.43
623.043	13.67
623.376	14.26
623.709	14.22
624.041	14.42
624.374	14.41
624.707	13.95
625.04	14.62
625.373	14.4
625.705	14.65
626.038	14.51
626.37	14.61
626.703	14.54
627.035	14.5
627.368	14.79
627.7	14.82
628.032	14.56
628.365	14.26
628.697	14.51
629.029	14.97
629.361	14.57
629.693	14.67
630.025	14.87
630.357	14.91
630.689	15.05
631.021	14.7
631.353	15.31
631.684	15.06
632.016	15.16
632.348	15.34
632.679	15.04
633.011	15.22
633.342	15.06
633.674	15.28
634.005	15.53
634.336	15.17
634.668	15.44
634.999	15.68
635.33	15.46
635.661	15.72
635.992	15.02
636.323	15.72
636.654	15.52
636.985	15.8
637.316	16.09
637.647	15.75
637.977	15.58
638.308	15.56
638.639	15.49
638.969	15.93
639.3	16.31
639.63	15.64
639.961	16.28
640.291	16.46
640.622	16.27
640.952	16.44
641.282	15.85
641.612	15.87
641.943	16.27
642.273	16.11
642.603	16.05
642.933	16.46
643.263	16.68
643.592	16.58
643.922	16.57
644.252	16.44
644.582	16.7
644.911	16.92
645.241	16.58
645.571	16.54
645.9	17.02
646.23	16.48
646.559	16.89
646.888	16.87
647.218	16.96
647.547	17.28
647.876	16.94
648.205	17.03
648.534	16.49
648.863	17.16
649.192	16.68
649.521	17.01
649.85	17.75
650.179	17
650.508	17.26
650.837	17.26
651.165	17.46
651.494	17.49
651.822	17.51
652.151	18
652.479	17.8
652.808	17.29
653.136	17.42
653.465	17.52
653.793	17.6
654.121	17.5
654.449	17.73
654.777	17.86
655.105	17.54
655.433	18.04
655.761	17.66
656.089	17.89
656.417	17.79
656.745	18.06
657.073	18.23
657.4	18.22
657.728	17.66
658.056	17.85
658.383	18.6
658.711	17.73
659.038	18.28
659.365	18.18
659.693	18.21
660.02	17.89
660.347	18.3
660.674	18.26
661.001	18.19
661.329	18.15
661.656	18.28
661.982	18.46
662.309	18.68
662.636	18.12
662.963	18.75
663.29	18.17
663.616	18.77
663.943	18.47
664.27	18.64
664.596	18.7
664.923	18.94
665.249	18.17
665.576	18.61
665.902	18.74
666.228	18.68
666.554	18.91
666.881	19.39
667.207	19.02
667.533	19.13
667.859	19.16
668.185	19.53
668.511	18.58
668.837	19.04
669.162	19.07
669.488	19.97
669.814	19.24
670.139	19.68
670.465	19.62
670.791	19.87
671.116	19.31
671.442	19.89
671.767	19.89
672.092	19.72
672.418	19.8
672.743	19.9
673.068	19.5
673.393	19.91
673.718	20.36
674.043	20.25
674.368	20.41
674.693	20.08
675.018	19.95
675.343	20.11
675.667	20.02
675.992	19.82
676.317	19.79
676.641	20.32
676.966	19.89
677.29	20.16
677.615	19.88
677.939	20.27
678.264	20.33
678.588	20.93
678.912	20.61
679.236	20.41
679.56	20.11
679.885	20.99
680.209	20.4
680.532	20.44
680.856	20.8
681.18	20.4
681.504	20.67
681.828	20.49
682.152	20.7
682.475	20.49
682.799	20.88
683.122	20.91
683.446	20.92
683.769	21.06
684.093	21.29
684.416	21.15
684.739	21.22
685.062	20.47
685.386	21.09
