Data from 0051_chest_Reflection__4__34.txt Node

Date: Fri Dec 16 14:07:06 CST 2022
User: ToomeyLab
Spectrometer: FLMS14357
Trigger mode: 0
Integration Time (sec): 1.000000E-2
Scans to average: 100
Electric dark correction enabled: true
Nonlinearity correction enabled: false
Boxcar width: 0
XAxis mode: Wavelengths
Number of Pixels in Spectrum: 2048
>>>>>Begin Spectral Data<<<<<
189.047	79.31
189.435	79.31
189.823	79.31
190.211	-61.51
190.599	68.55
190.987	-251.77
191.375	241.06
191.763	165.89
192.151	215.38
192.538	43.51
192.926	-137.8
193.314	148.42
193.702	47.61
194.089	50.48
194.477	61.68
194.864	-50.59
195.252	13.08
195.639	144.24
196.027	166.78
196.414	-249.41
196.801	338.46
197.189	498.29
197.576	76.8
197.963	-215.41
198.351	-3.69
198.738	5.57
199.125	11.13
199.512	-3.42
199.899	-31.86
200.286	-30.13
200.673	43.59
201.06	25.41
201.447	44.54
201.833	-14.93
202.22	2.27
202.607	-8.06
202.994	16.32
203.38	-29.35
203.767	-26.07
204.154	-70.22
204.54	-2.55
204.927	36.61
205.313	23.5
205.699	-15.03
206.086	-14.05
206.472	-2
206.858	10.63
207.245	2.35
207.631	1.39
208.017	20.62
208.403	12.3
208.789	-5.12
209.175	18.77
209.561	-21.7
209.947	-23.51
210.333	6.72
210.719	-10.2
211.105	-26.86
211.491	2.52
211.876	-24.02
212.262	3.39
212.648	-51.67
213.034	4.75
213.419	36.84
213.805	-12.13
214.19	-28.69
214.576	7.13
214.961	-7.03
215.346	-10.7
215.732	16.14
216.117	-19.76
216.502	-9.22
216.888	-43.2
217.273	21.65
217.658	-16.88
218.043	1.6
218.428	24.4
218.813	-21.39
219.198	-10.77
219.583	2.45
219.968	-28.57
220.353	11.18
220.738	-13.95
221.122	-3.22
221.507	-16.99
221.892	-4.04
222.276	-7.88
222.661	-4.39
223.046	1.49
223.43	-11.17
223.815	-1.33
224.199	0.85
224.583	-9.02
224.968	-2.91
225.352	-0.61
225.736	2.98
226.121	0.82
226.505	1.82
226.889	1.31
227.273	5.79
227.657	-1.95
228.041	5.77
228.425	1.5
228.809	0.19
229.193	-1.02
229.577	2
229.961	2.24
230.344	1.62
230.728	1.45
231.112	1.25
231.495	1.51
231.879	2.67
232.263	-0.06
232.646	1.89
233.03	0.8
233.413	1.66
233.797	5.11
234.18	1.36
234.563	2.31
234.946	2.77
235.33	2.92
235.713	1.82
236.096	3.1
236.479	1.33
236.862	1.77
237.245	2.65
237.628	1.23
238.011	1.87
238.394	3.47
238.777	2.18
239.16	0.19
239.543	0.45
239.925	2.72
240.308	2.78
240.691	1.97
241.073	2.7
241.456	1.66
241.838	1.54
242.221	2.64
242.603	1.59
242.986	2.62
243.368	1.99
243.75	1.75
244.133	2.28
244.515	2.31
244.897	1.68
245.279	2.25
245.661	1.75
246.043	2.64
246.425	1.51
246.807	2.03
247.189	1.43
247.571	2.02
247.953	1.8
248.335	2.17
248.717	1.84
249.098	2.13
249.48	1.7
249.862	2.42
250.243	1.49
250.625	2.31
251.006	2
251.388	2.36
251.769	1.95
252.151	1.94
252.532	2.16
252.913	1.87
253.295	1.76
253.676	2.13
254.057	2.1
254.438	1.63
254.819	1.98
255.2	1.72
255.581	1.2
255.962	2.53
256.343	1.94
256.724	2.43
257.105	2.07
257.486	2.17
257.867	0.93
258.247	1.7
258.628	2.17
259.009	1.97
259.389	2.46
259.77	2.1
260.15	2.65
260.531	1.95
260.911	1.98
261.292	1.91
261.672	1.87
262.052	1.85
262.432	2.11
262.813	2.24
263.193	1.5
263.573	1.96
263.953	1.94
264.333	1.41
264.713	2.38
265.093	1.32
265.473	2.67
265.853	2.22
266.233	1.96
266.612	2.08
266.992	1.99
267.372	1.9
267.752	1.62
268.131	1.8
268.511	2.07
268.89	1.81
269.27	1.99
269.649	2.38
270.029	1.58
270.408	1.54
270.787	1.49
271.167	2.09
271.546	1.1
271.925	1.66
272.304	2
272.683	1.81
273.062	2.01
273.441	1.97
273.82	1.95
274.199	2.19
274.578	1.64
274.957	1.63
275.336	1.31
275.715	2.11
276.093	2.06
276.472	1.46
276.851	2.05
277.229	2.52
277.608	2.12
277.986	1.65
278.365	1.87
278.743	2.33
279.122	1.3
279.5	1.34
279.878	1.48
280.257	1.9
280.635	1.47
281.013	1.99
281.391	2.18
281.769	1.44
282.147	1.74
282.525	1.78
282.903	1.59
283.281	1.72
283.659	1.82
284.037	1.58
284.415	1.91
284.792	1.9
285.17	1.29
285.548	1.91
285.925	2
286.303	1.65
286.68	1.87
287.058	1.71
287.435	1.52
287.813	1.94
288.19	2.24
288.567	1.46
288.945	2.19
289.322	2.03
289.699	1.89
290.076	2.34
290.453	1.76
290.83	1.88
291.207	2.01
291.584	1.54
291.961	1.96
292.338	1.65
292.715	1.95
293.092	1.53
293.469	1.82
293.845	2.24
294.222	2.14
294.599	2.23
294.975	1.93
295.352	1.89
295.728	2.02
296.105	2.2
296.481	2.32
296.858	2
297.234	2.05
297.61	2.13
297.986	1.94
298.363	1.37
298.739	2.26
299.115	1.75
299.491	2.11
299.867	2.06
300.243	1.84
300.619	2.16
300.995	2.13
301.371	2.13
301.746	1.98
302.122	1.94
302.498	2.23
302.874	2.39
303.249	2.2
303.625	2.27
304	1.96
304.376	2.14
304.751	2.34
305.127	2.17
305.502	2.08
305.878	2.3
306.253	1.82
306.628	2.44
307.003	2.18
307.378	1.94
307.754	1.93
308.129	2.11
308.504	2.29
308.879	1.98
309.254	2.65
309.629	2.44
310.003	2.21
310.378	2.26
310.753	2.67
311.128	2.25
311.502	2.17
311.877	2.58
312.252	2.1
312.626	2.1
313.001	2.29
313.375	2.22
313.75	2.18
314.124	2.86
314.498	2.06
314.873	1.92
315.247	1.92
315.621	2.97
315.995	2.18
316.369	2.44
316.743	2.83
317.117	1.89
317.491	2.36
317.865	2.34
318.239	2.54
318.613	2.46
318.987	2.48
319.361	2.27
319.734	2.79
320.108	2.57
320.482	2.68
320.855	2.03
321.229	3.04
321.602	2.2
321.976	2.32
322.349	1.91
322.723	1.75
323.096	2.68
323.469	2.12
323.843	2.4
324.216	1.92
324.589	2.4
324.962	2.44
325.335	2.42
325.708	2.54
326.081	2.76
326.454	2.47
326.827	2.88
327.2	2.84
327.573	2.76
327.945	2.69
328.318	2.81
328.691	2.63
329.063	2.34
329.436	2.23
329.809	1.94
330.181	1.96
330.553	2.73
330.926	2.56
331.298	2.69
331.671	2.34
332.043	1.99
332.415	2.59
332.787	2.9
333.159	2.67
333.532	2.9
333.904	2.54
334.276	3.1
334.648	2.47
335.02	2.03
335.391	2.6
335.763	2.59
336.135	2.6
336.507	3.12
336.879	2.27
337.25	2.56
337.622	2.96
337.993	2.43
338.365	2.86
338.736	2.35
339.108	2.48
339.479	2.82
339.851	2.72
340.222	2.59
340.593	2.02
340.964	2.56
341.336	2.42
341.707	2.97
342.078	2.4
342.449	3.13
342.82	2.44
343.191	2.45
343.562	2.16
343.933	2.68
344.303	2.5
344.674	2.51
345.045	3.04
345.416	2.79
345.786	2.54
346.157	2.66
346.527	2.46
346.898	2.47
347.268	2.49
347.639	2.57
348.009	3.01
348.38	2.4
348.75	2.47
349.12	2.39
349.49	2.61
349.861	2.87
350.231	2.83
350.601	2.62
350.971	2.42
351.341	2.99
351.711	2.33
352.081	2.78
352.45	2.67
352.82	2.69
353.19	2.68
353.56	2.66
353.929	2.83
354.299	2.76
354.669	2.76
355.038	2.8
355.408	3
355.777	2.47
356.147	2.56
356.516	2.79
356.885	2.79
357.254	3
357.624	2.6
357.993	2.39
358.362	2.84
358.731	2.5
359.1	2.88
359.469	2.67
359.838	2.48
360.207	2.61
360.576	2.75
360.945	2.81
361.314	2.95
361.682	2.51
362.051	2.64
362.42	2.79
362.788	2.53
363.157	2.46
363.525	2.57
363.894	2.5
364.262	2.43
364.631	3.09
364.999	2.62
365.367	2.83
365.735	2.47
366.104	2.55
366.472	2.93
366.84	2.66
367.208	2.52
367.576	2.9
367.944	2.99
368.312	2.43
368.68	2.75
369.048	3.06
369.416	2.58
369.783	2.97
370.151	2.9
370.519	2.6
370.886	2.55
371.254	2.78
371.621	2.52
371.989	2.75
372.356	2.84
372.724	2.82
373.091	2.68
373.458	2.54
373.826	2.72
374.193	3.03
374.56	2.54
374.927	2.53
375.294	3.23
375.661	3.05
376.028	2.77
376.395	2.67
376.762	3.14
377.129	2.98
377.496	2.58
377.863	2.88
378.229	2.7
378.596	2.67
378.963	2.4
379.329	2.9
379.696	3.01
380.062	3.06
380.429	2.93
380.795	2.85
381.161	3.08
381.528	2.54
381.894	3.03
382.26	2.65
382.626	2.79
382.993	2.88
383.359	2.96
383.725	3.11
384.091	2.53
384.457	2.77
384.823	3.16
385.188	3.08
385.554	3.08
385.92	2.92
386.286	2.91
386.651	2.96
387.017	2.93
387.383	2.98
387.748	3.05
388.114	2.95
388.479	3.06
388.845	2.87
389.21	3
389.575	2.8
389.94	3.12
390.306	2.97
390.671	2.87
391.036	3
391.401	3.3
391.766	2.78
392.131	2.59
392.496	2.9
392.861	2.8
393.226	3.06
393.591	2.93
393.956	3.2
394.32	2.9
394.685	3.23
395.05	2.91
395.414	2.9
395.779	2.73
396.143	3
396.508	3.07
396.872	3.03
397.236	2.62
397.601	3.1
397.965	2.81
398.329	3.05
398.694	2.77
399.058	2.89
399.422	3.02
399.786	3.06
400.15	2.95
400.514	2.92
400.878	2.73
401.242	3.3
401.605	2.85
401.969	2.93
402.333	3.15
402.697	3.15
403.06	3.07
403.424	3
403.787	3.33
404.151	2.76
404.514	2.9
404.878	3.04
405.241	3.04
405.604	3.08
405.968	2.88
406.331	3.05
406.694	2.99
407.057	3.23
407.42	3.21
407.783	2.97
408.146	3.07
408.509	2.95
408.872	3
409.235	3.16
409.598	3.25
409.961	3.2
410.323	3.14
410.686	3.03
411.049	2.88
411.411	3.19
411.774	3.07
412.136	3.05
412.499	3
412.861	3.02
413.223	3.1
413.586	3.17
413.948	3.15
414.31	3.11
414.672	2.89
415.035	3.16
415.397	3
415.759	3.01
416.121	3.24
416.483	3.33
416.845	3.25
417.206	3.27
417.568	3.26
417.93	3.11
418.292	3.14
418.653	3.24
419.015	3.29
419.377	3.23
419.738	3.16
420.1	2.96
420.461	3.06
420.822	3.11
421.184	3.11
421.545	3.05
421.906	3.02
422.267	3.01
422.629	3.09
422.99	3.12
423.351	3.13
423.712	3.18
424.073	3.19
424.434	3.1
424.795	3.04
425.155	3.16
425.516	3.1
425.877	3.21
426.238	3.11
426.598	3.21
426.959	3.22
427.32	3.27
427.68	3.25
428.041	3.31
428.401	3.22
428.761	3.21
429.122	3.21
429.482	3.2
429.842	3.37
430.202	3.18
430.563	3.22
430.923	3.12
431.283	3.29
431.643	3.3
432.003	3.35
432.363	3.3
432.722	3.11
433.082	3.23
433.442	3.17
433.802	3.35
434.161	3.23
434.521	3.29
434.881	3.43
435.24	3.24
435.6	3.36
435.959	3.28
436.319	3.29
436.678	3.32
437.037	3.26
437.396	3.34
437.756	3.33
438.115	3.35
438.474	3.41
438.833	3.48
439.192	3.46
439.551	3.42
439.91	3.4
440.269	3.49
440.628	3.38
440.987	3.08
441.345	3.33
441.704	3.33
442.063	3.37
442.421	3.26
442.78	3.26
443.138	3.36
443.497	3.3
443.855	3.41
444.214	3.45
444.572	3.25
444.93	3.46
445.288	3.47
445.647	3.46
446.005	3.19
446.363	3.5
446.721	3.26
447.079	3.37
447.437	3.41
447.795	3.41
448.153	3.36
448.51	3.37
448.868	3.43
449.226	3.5
449.584	3.42
449.941	3.6
450.299	3.47
450.656	3.5
451.014	3.46
451.371	3.62
451.729	3.48
452.086	3.43
452.443	3.5
452.801	3.56
453.158	3.56
453.515	3.51
453.872	3.52
454.229	3.46
454.586	3.54
454.943	3.52
455.3	3.62
455.657	3.55
456.014	3.5
456.371	3.68
456.727	3.51
457.084	3.45
457.441	3.56
457.797	3.63
458.154	3.51
458.51	3.59
458.867	3.53
459.223	3.55
459.58	3.45
459.936	3.57
460.292	3.51
460.648	3.5
461.005	3.51
461.361	3.51
461.717	3.66
462.073	3.62
462.429	3.59
462.785	3.68
463.141	3.67
463.496	3.48
463.852	3.73
464.208	3.58
464.564	3.63
464.919	3.58
465.275	3.8
465.631	3.78
465.986	3.61
466.342	3.72
466.697	3.63
467.052	3.67
467.408	3.79
467.763	3.58
468.118	3.72
468.473	3.77
468.829	3.7
469.184	3.74
469.539	3.65
469.894	3.77
470.249	3.69
470.603	3.74
470.958	3.85
471.313	3.68
471.668	3.78
472.023	3.86
472.377	3.8
472.732	3.65
473.086	3.7
473.441	3.94
473.795	4.02
474.15	3.72
474.504	3.78
474.859	3.9
475.213	3.8
475.567	3.7
475.921	4
476.275	3.88
476.63	3.82
476.984	3.74
477.338	4.1
477.692	3.86
478.045	3.82
478.399	3.97
478.753	3.65
479.107	3.73
479.461	3.83
479.814	3.88
480.168	3.98
480.521	3.82
480.875	4.06
481.228	3.98
481.582	3.83
481.935	3.93
482.289	3.87
482.642	3.95
482.995	3.91
483.348	3.88
483.701	3.89
484.055	3.85
484.408	3.86
484.761	3.76
485.114	3.67
485.466	3.73
485.819	3.72
486.172	3.76
486.525	3.83
486.878	3.85
487.23	3.89
487.583	3.9
487.936	3.97
488.288	3.9
488.641	3.85
488.993	3.76
489.345	3.82
489.698	3.92
490.05	3.89
490.402	3.98
490.754	4.01
491.107	3.97
491.459	4
491.811	4.16
492.163	4.07
492.515	3.98
492.866	3.87
493.218	3.93
493.57	4.01
493.922	4
494.274	4.07
494.625	4.03
494.977	4.04
495.328	4.13
495.68	4.35
496.031	4.18
496.383	4.15
496.734	4.3
497.086	4.14
497.437	4.43
497.788	4.13
498.139	4.24
498.49	4.23
498.842	4.27
499.193	4.23
499.544	4.32
499.894	4.31
500.245	4.31
500.596	4.27
500.947	4.28
501.298	4.29
501.648	4.36
501.999	4.48
502.35	4.43
502.7	4.34
503.051	4.39
503.401	4.35
503.752	4.35
504.102	4.38
504.452	4.38
504.803	4.33
505.153	4.5
505.503	4.4
505.853	4.33
506.203	4.44
506.553	4.5
506.903	4.41
507.253	4.54
507.603	4.43
507.953	4.55
508.303	4.56
508.652	4.34
509.002	4.47
509.352	4.42
509.701	4.48
510.051	4.58
510.4	4.52
510.75	4.54
511.099	4.46
511.449	4.49
511.798	4.7
512.147	4.51
512.496	4.66
512.846	4.54
513.195	4.52
513.544	4.61
513.893	4.52
514.242	4.65
514.591	4.66
514.939	4.58
515.288	4.71
515.637	4.75
515.986	4.63
516.334	4.69
516.683	4.62
517.032	4.67
517.38	4.79
517.729	4.83
518.077	4.8
518.426	4.61
518.774	4.73
519.122	4.67
519.47	4.75
519.819	4.76
520.167	4.75
520.515	4.73
520.863	4.83
521.211	4.76
521.559	4.87
521.907	4.85
522.255	4.92
522.602	4.95
522.95	5.01
523.298	4.88
523.645	4.92
523.993	5.01
524.341	4.87
524.688	5.06
525.036	5.15
525.383	5.03
525.73	4.99
526.078	5.11
526.425	4.99
526.772	4.85
527.119	4.85
527.466	5
527.814	4.94
528.161	4.97
528.508	5
528.854	4.94
529.201	4.96
529.548	4.84
529.895	4.89
530.242	4.87
530.588	4.9
530.935	4.97
531.282	5.06
531.628	5.07
531.975	5.1
532.321	5.26
532.667	5.14
533.014	5.21
533.36	5.18
533.706	5.14
534.052	5.11
534.399	5.11
534.745	5.09
535.091	5.14
535.437	5.22
535.783	5.24
536.129	5.3
536.474	5.4
536.82	5.31
537.166	5.4
537.512	5.37
537.857	5.34
538.203	5.42
538.549	5.46
538.894	5.39
539.239	5.56
539.585	5.58
539.93	5.58
540.276	5.5
540.621	5.54
540.966	5.65
541.311	5.59
541.656	5.54
542.001	5.65
542.346	5.52
542.691	5.49
543.036	5.43
543.381	5.51
543.726	5.51
544.071	5.65
544.415	5.61
544.76	5.55
545.105	5.67
545.449	5.69
545.794	5.77
546.138	5.85
546.483	5.84
546.827	5.85
547.171	5.83
547.516	5.94
547.86	5.9
548.204	5.71
548.548	5.97
548.892	5.97
549.236	6.04
549.58	5.98
549.924	6.18
550.268	6.15
550.612	6.11
550.956	5.96
551.3	6.14
551.643	6.19
551.987	6.24
552.33	6.3
552.674	6.3
553.017	6.3
553.361	6.31
553.704	6.28
554.048	6.39
554.391	6.26
554.734	6.27
555.077	6.48
555.42	6.4
555.764	6.41
556.107	6.47
556.45	6.58
556.793	6.56
557.135	6.63
557.478	6.48
557.821	6.49
558.164	6.51
558.507	6.57
558.849	6.51
559.192	6.78
559.534	6.51
559.877	6.74
560.219	6.71
560.562	6.74
560.904	6.54
561.246	6.91
561.589	6.68
561.931	7.02
562.273	6.75
562.615	6.91
562.957	6.8
563.299	6.93
563.641	7.04
563.983	6.96
564.325	6.87
564.667	6.89
565.008	6.79
565.35	7.07
565.692	7.15
566.033	7
566.375	6.94
566.716	7.24
567.058	7.13
567.399	7.26
567.741	7.29
568.082	7.09
568.423	7.03
568.764	7.16
569.105	7.36
569.447	7.33
569.788	7.29
570.129	7.3
570.47	7.4
570.811	7.37
571.151	7.27
571.492	7.66
571.833	7.41
572.174	7.39
572.514	7.29
572.855	7.52
573.195	7.34
573.536	7.47
573.876	7.45
574.217	7.47
574.557	7.72
574.898	7.42
575.238	7.43
575.578	7.6
575.918	7.71
576.258	7.75
576.598	7.78
576.938	7.77
577.278	7.68
577.618	7.78
577.958	7.89
578.298	8.09
578.638	7.87
578.977	7.97
579.317	8.02
579.657	7.96
579.996	7.94
580.336	8
580.675	8.18
581.014	7.94
581.354	8.29
581.693	8.23
582.032	8.22
582.372	8.26
582.711	8.17
583.05	8.27
583.389	8.24
583.728	8.26
584.067	8.49
584.406	8.65
584.745	8.06
585.083	8.51
585.422	8.43
585.761	8.45
586.1	8.7
586.438	8.49
586.777	8.48
587.115	8.68
587.454	8.5
587.792	8.5
588.13	8.77
588.469	8.75
588.807	9.01
589.145	8.91
589.483	8.63
589.821	8.74
590.159	8.83
590.497	8.52
590.835	8.88
591.173	8.87
591.511	8.92
591.849	9.07
592.187	8.88
592.524	9.07
592.862	9.11
593.2	9.09
593.537	9.1
593.875	9.24
594.212	9.22
594.55	9.13
594.887	9.27
595.224	9.16
595.561	9.32
595.899	9.24
596.236	9.35
596.573	9.09
596.91	9.3
597.247	9.3
597.584	9.52
597.921	9.38
598.258	9.31
598.594	9.34
598.931	9.51
599.268	9.34
599.604	9.75
599.941	9.47
600.277	9.59
600.614	9.62
600.95	9.67
601.287	9.67
601.623	9.79
601.959	9.55
602.296	9.69
602.632	9.86
602.968	9.91
603.304	9.85
603.64	9.98
603.976	9.97
604.312	9.88
604.648	10.11
604.984	9.93
605.319	10.13
605.655	10.1
605.991	10.05
606.326	9.82
606.662	9.92
606.998	10.23
607.333	10.14
607.668	10.21
608.004	10.4
608.339	10.12
608.674	10.22
609.01	10.36
609.345	10.53
609.68	10.09
610.015	10.39
610.35	10.46
610.685	10.33
611.02	10.59
611.355	10.58
611.689	10.47
612.024	10.73
612.359	10.7
612.694	10.89
613.028	10.84
613.363	10.81
613.697	10.9
614.032	11.14
614.366	10.79
614.7	10.91
615.035	10.97
615.369	10.9
615.703	11.17
616.037	11.12
616.371	11.01
616.705	10.85
617.039	11.28
617.373	10.97
617.707	10.96
618.041	11.18
618.375	10.96
618.709	11.27
619.042	11.17
619.376	10.88
619.71	11.28
620.043	11.3
620.377	11.55
620.71	11.25
621.043	11.27
621.377	11.24
621.71	11.21
622.043	11.4
622.376	11.43
622.709	11.63
623.043	11.82
623.376	11.85
623.709	11.44
624.041	11.85
624.374	11.56
624.707	11.77
625.04	11.75
625.373	11.66
625.705	12.04
626.038	11.86
626.37	11.94
626.703	11.83
627.035	11.94
627.368	11.99
627.7	12.1
628.032	11.99
628.365	11.74
628.697	11.92
629.029	12.14
629.361	12.28
629.693	12.46
630.025	12.25
630.357	11.92
630.689	12.46
631.021	12.64
631.353	12.85
631.684	12.45
632.016	12.42
632.348	12.65
632.679	12.46
633.011	12.63
633.342	12.69
633.674	12.57
634.005	12.57
634.336	12.46
634.668	12.61
634.999	12.56
635.33	12.74
635.661	13.02
635.992	12.76
636.323	12.68
636.654	12.95
636.985	12.62
637.316	12.91
637.647	13.07
637.977	12.55
638.308	13.1
638.639	13.24
638.969	12.78
639.3	13.23
639.63	12.81
639.961	13.07
640.291	13.75
640.622	13.47
640.952	13.16
641.282	12.88
641.612	13.06
641.943	13.27
642.273	13.18
642.603	13.39
642.933	13.31
643.263	13.68
643.592	13.29
643.922	13.91
644.252	13.71
644.582	13.71
644.911	13.75
645.241	13.55
645.571	13.59
645.9	13.98
646.23	13.57
646.559	13.77
646.888	13.86
647.218	14.27
647.547	13.96
647.876	14.03
648.205	13.53
648.534	14.18
648.863	14.01
649.192	13.96
649.521	13.73
649.85	14.02
650.179	13.67
650.508	14.41
650.837	14.06
651.165	14.23
651.494	14.03
651.822	13.85
652.151	14.47
652.479	14.58
652.808	14.12
653.136	14.01
653.465	14.63
653.793	14.7
654.121	14.34
654.449	14.47
654.777	14.57
655.105	14.94
655.433	14.67
655.761	14.58
656.089	14.56
656.417	14.64
656.745	15.36
657.073	15.21
657.4	15.03
657.728	14.77
658.056	14.98
658.383	15.14
658.711	15.17
659.038	15.04
659.365	14.79
659.693	14.89
660.02	14.5
660.347	15.04
660.674	14.77
661.001	14.76
661.329	14.85
661.656	14.81
661.982	15.52
662.309	15.68
662.636	15.02
662.963	15.25
663.29	14.99
663.616	15.13
663.943	15.91
664.27	15.41
664.596	15.14
664.923	15.38
665.249	15.02
665.576	15.31
665.902	15.48
666.228	15.36
666.554	15.48
666.881	15.9
667.207	15.86
667.533	15.74
667.859	15.72
668.185	15.67
668.511	15.29
668.837	15.57
669.162	16.02
669.488	15.65
669.814	16.14
670.139	16.45
670.465	15.97
670.791	15.72
671.116	16.19
671.442	15.75
671.767	16.23
672.092	16.11
672.418	16.05
672.743	16.14
673.068	15.99
673.393	16.36
673.718	16.29
674.043	15.97
674.368	16.77
674.693	16.38
675.018	16.29
675.343	16.7
675.667	16.82
675.992	16.57
676.317	16.82
676.641	16.31
676.966	16.49
677.29	16.67
677.615	16.24
677.939	16.63
678.264	16.38
678.588	16.77
678.912	16.87
679.236	16.57
679.56	17.79
679.885	16.97
680.209	16.27
680.532	17.26
680.856	17.56
681.18	16.82
681.504	16.47
681.828	16.63
682.152	16.76
682.475	16.87
682.799	16.83
683.122	17.11
683.446	16.73
683.769	17.45
684.093	17.57
684.416	17.14
684.739	17.54
685.062	17.34
685.386	16.93
685.709	17.04
686.032	16.82
686.355	17.5
686.678	17.37
687.001	17.4
687.324	17.25
