Data from 0051_forehead_Reflection__0__41.txt Node

Date: Fri Dec 16 14:09:13 CST 2022
User: ToomeyLab
Spectrometer: FLMS14357
Trigger mode: 0
Integration Time (sec): 1.000000E-2
Scans to average: 100
Electric dark correction enabled: true
Nonlinearity correction enabled: false
Boxcar width: 0
XAxis mode: Wavelengths
Number of Pixels in Spectrum: 2048
>>>>>Begin Spectral Data<<<<<
189.047	200.14
189.435	200.14
189.823	200.14
190.211	308.46
190.599	-188.14
190.987	-93.1
191.375	486.64
191.763	51.64
192.151	-500
192.538	202.88
192.926	-123.6
193.314	41.01
193.702	106.4
194.089	-22.29
194.477	68.22
194.864	-5.73
195.252	-14.05
195.639	130.04
196.027	508.58
196.414	-163.27
196.801	-181.45
197.189	1017.88
197.576	1.32
197.963	-139.68
198.351	59.09
198.738	13.88
199.125	34
199.512	1.13
199.899	3.38
200.286	-7.47
200.673	46.86
201.06	45.97
201.447	67.27
201.833	39.8
202.22	39.27
202.607	10.42
202.994	29.39
203.38	-4.46
203.767	3.66
204.154	11.93
204.54	38.59
204.927	30.21
205.313	55.33
205.699	-8.92
206.086	5.58
206.472	8.8
206.858	-8.81
207.245	24.3
207.631	-28.28
208.017	36.01
208.403	28.21
208.789	32.52
209.175	54
209.561	25.24
209.947	44.45
210.333	16.76
210.719	-5.41
211.105	-6.08
211.491	9.05
211.876	21.65
212.262	-9.24
212.648	16.73
213.034	33.15
213.419	22.74
213.805	0.91
214.19	19.57
214.576	18.37
214.961	6.99
215.346	-2.42
215.732	25.76
216.117	39.77
216.502	4.08
216.888	11
217.273	14.4
217.658	21.16
218.043	23.11
218.428	27.82
218.813	9.52
219.198	7.22
219.583	25.9
219.968	27.4
220.353	12.98
220.738	-6.62
221.122	13.51
221.507	15.41
221.892	14.13
222.276	9.65
222.661	19.78
223.046	10.22
223.43	14.35
223.815	19.56
224.199	6.04
224.583	15.54
224.968	13.71
225.352	1.45
225.736	14.62
226.121	1.11
226.505	6.66
226.889	14.82
227.273	7.74
227.657	7.22
228.041	1.84
228.425	8.04
228.809	3.74
229.193	2.87
229.577	4.71
229.961	5.18
230.344	4.48
230.728	4.51
231.112	5.15
231.495	4.15
231.879	5.86
232.263	3.51
232.646	3.45
233.03	2.99
233.413	5.31
233.797	5.07
234.18	3.31
234.563	6.21
234.946	4.8
235.33	6.48
235.713	4.92
236.096	5.47
236.479	4.53
236.862	5.28
237.245	5.51
237.628	5.19
238.011	5.06
238.394	5.99
238.777	4.59
239.16	4.25
239.543	3.56
239.925	4.92
240.308	5.48
240.691	4.96
241.073	4.94
241.456	4.08
241.838	5.1
242.221	4.4
242.603	4.35
242.986	5.22
243.368	4.14
243.75	4.38
244.133	3.97
244.515	4.77
244.897	4.56
245.279	4.6
245.661	4.38
246.043	5.13
246.425	4.65
246.807	4.87
247.189	4.15
247.571	4.56
247.953	4.43
248.335	4.31
248.717	4.25
249.098	4.46
249.48	4.12
249.862	4.82
250.243	4.43
250.625	4.36
251.006	4.72
251.388	5.26
251.769	5.04
252.151	5.35
252.532	4.6
252.913	4.64
253.295	4.93
253.676	4.62
254.057	4.93
254.438	4.96
254.819	4.61
255.2	3.85
255.581	5.55
255.962	5.01
256.343	4.72
256.724	4.49
257.105	5.49
257.486	5.54
257.867	2.92
258.247	5.89
258.628	5.4
259.009	4.13
259.389	4.62
259.77	4.28
260.15	5.06
260.531	4.49
260.911	4.46
261.292	4.15
261.672	4.16
262.052	4.52
262.432	4.38
262.813	4.63
263.193	4.22
263.573	4.64
263.953	4.96
264.333	4.81
264.713	4.77
265.093	4.44
265.473	5.23
265.853	4.79
266.233	3.99
266.612	4.93
266.992	4.34
267.372	4.32
267.752	4.15
268.131	4.34
268.511	4.51
268.89	4.6
269.27	4.66
269.649	4.56
270.029	4.37
270.408	4.51
270.787	4.35
271.167	4.58
271.546	4.21
271.925	4.31
272.304	4.39
272.683	4.27
273.062	4.39
273.441	4.47
273.82	4.55
274.199	4.65
274.578	4
274.957	3.99
275.336	4.48
275.715	4.66
276.093	4.74
276.472	4.24
276.851	4.44
277.229	4.33
277.608	4.22
277.986	4.56
278.365	3.93
278.743	4.69
279.122	3.59
279.5	4.04
279.878	4.01
280.257	4.41
280.635	3.88
281.013	4.84
281.391	4.14
281.769	3.98
282.147	4.42
282.525	4.69
282.903	4.35
283.281	4.34
283.659	4.27
284.037	4.39
284.415	4.33
284.792	3.88
285.17	4.24
285.548	3.84
285.925	4.22
286.303	4.1
286.68	4.25
287.058	3.9
287.435	3.89
287.813	4.21
288.19	4.62
288.567	3.64
288.945	4.17
289.322	4.06
289.699	4.81
290.076	4.55
290.453	3.97
290.83	4.54
291.207	4.53
291.584	4.25
291.961	4.81
292.338	4.51
292.715	4.35
293.092	4.44
293.469	5.08
293.845	5.1
294.222	4.68
294.599	5.3
294.975	5.3
295.352	4.22
295.728	5.06
296.105	5.29
296.481	5.16
296.858	4.98
297.234	5.02
297.61	5.03
297.986	4.76
298.363	4.62
298.739	4.93
299.115	5.04
299.491	5.04
299.867	5.39
300.243	5.28
300.619	5.38
300.995	5.5
301.371	5.59
301.746	5.47
302.122	5.6
302.498	5.34
302.874	5.7
303.249	5.66
303.625	5.59
304	5.33
304.376	5.6
304.751	5.53
305.127	5.46
305.502	6.22
305.878	5.62
306.253	5.94
306.628	6.24
307.003	6
307.378	6.14
307.754	6.86
308.129	5.63
308.504	5.88
308.879	6.42
309.254	6.49
309.629	6.49
310.003	6.77
310.378	6.94
310.753	6.44
311.128	6.37
311.502	6.3
311.877	6.59
312.252	6.9
312.626	6.8
313.001	6.93
313.375	7.04
313.75	6.8
314.124	7.57
314.498	7.17
314.873	7.44
315.247	7.36
315.621	7.93
315.995	7.03
316.369	7.53
316.743	7.46
317.117	7.89
317.491	7.99
317.865	7.03
318.239	8.31
318.613	8.08
318.987	8.65
319.361	8.09
319.734	8.41
320.108	8.13
320.482	7.84
320.855	8.18
321.229	9.29
321.602	8.36
321.976	8.82
322.349	7.98
322.723	8.17
323.096	8.58
323.469	8.79
323.843	8.86
324.216	8.69
324.589	9.42
324.962	8.86
325.335	8.88
325.708	9.14
326.081	9.47
326.454	9.44
326.827	9.8
327.2	9.83
327.573	9.44
327.945	9.24
328.318	9.23
328.691	9.52
329.063	9.86
329.436	9.88
329.809	9.47
330.181	10.05
330.553	10.41
330.926	10.16
331.298	9.92
331.671	9.76
332.043	10.45
332.415	10.58
332.787	10.86
333.159	9.79
333.532	10.61
333.904	10.34
334.276	10.47
334.648	10.69
335.02	10.35
335.391	10.69
335.763	10.98
336.135	10.94
336.507	10.96
336.879	10.49
337.25	10.95
337.622	11.21
337.993	11.21
338.365	11.09
338.736	11.32
339.108	10.7
339.479	10.8
339.851	11.78
340.222	11.28
340.593	10.75
340.964	11.49
341.336	11.13
341.707	11.5
342.078	11.57
342.449	11.81
342.82	11.99
343.191	11.44
343.562	11.88
343.933	11.96
344.303	11.4
344.674	12
345.045	12.11
345.416	12
345.786	12.01
346.157	11.96
346.527	12.21
346.898	12.16
347.268	12.2
347.639	12.05
348.009	12.31
348.38	12.37
348.75	12.76
349.12	12.79
349.49	12.46
349.861	13.11
350.231	13.21
350.601	12.8
350.971	12.85
351.341	13.06
351.711	12.96
352.081	12.66
352.45	13.11
352.82	13.05
353.19	12.87
353.56	13.26
353.929	13.38
354.299	13.04
354.669	13.38
355.038	13.37
355.408	13.61
355.777	13.17
356.147	13.34
356.516	13.68
356.885	13.45
357.254	13.7
357.624	13.65
357.993	13.44
358.362	13.78
358.731	13.77
359.1	13.87
359.469	14.11
359.838	13.89
360.207	13.78
360.576	14.2
360.945	14.12
361.314	14.42
361.682	14.1
362.051	13.95
362.42	14.62
362.788	14.34
363.157	14.16
363.525	14.37
363.894	14.35
364.262	14.3
364.631	15.18
364.999	14.64
365.367	15.11
365.735	14.76
366.104	14.83
366.472	15.14
366.84	15.26
367.208	14.86
367.576	15.32
367.944	15.53
368.312	14.78
368.68	15.58
369.048	15.26
369.416	15.4
369.783	15.32
370.151	15.95
370.519	15.44
370.886	15.59
371.254	15.78
371.621	15.73
371.989	15.8
372.356	16.07
372.724	16.15
373.091	16.18
373.458	15.69
373.826	16.05
374.193	16.33
374.56	16.05
374.927	16.25
375.294	16.64
375.661	16.44
376.028	16.57
376.395	16.32
376.762	16.83
377.129	16.79
377.496	16.66
377.863	16.95
378.229	16.72
378.596	16.96
378.963	17.04
379.329	16.76
379.696	17.1
380.062	17.18
380.429	17.3
380.795	17.04
381.161	17.29
381.528	17.18
381.894	17.6
382.26	17.44
382.626	17.34
382.993	17.35
383.359	17.64
383.725	17.97
384.091	17.75
384.457	18.01
384.823	18.1
385.188	17.95
385.554	17.82
385.92	18.03
386.286	18.02
386.651	17.91
387.017	18.17
387.383	18.34
387.748	18.1
388.114	18.31
388.479	18.45
388.845	18.49
389.21	18.66
389.575	18.64
389.94	18.83
390.306	18.74
390.671	18.72
391.036	18.86
391.401	18.96
391.766	18.8
392.131	18.95
392.496	18.82
392.861	18.82
393.226	19.08
393.591	19.28
393.956	19.22
394.32	19.06
394.685	19.32
395.05	19.42
395.414	19.54
395.779	19.51
396.143	19.52
396.508	19.62
396.872	19.64
397.236	19.77
397.601	20.25
397.965	19.88
398.329	20.06
398.694	19.95
399.058	20.16
399.422	20.34
399.786	20.46
400.15	20.11
400.514	20.38
400.878	20.43
401.242	20.33
401.605	20.43
401.969	20.52
402.333	20.58
402.697	20.68
403.06	20.84
403.424	20.85
403.787	20.83
404.151	20.7
404.514	20.77
404.878	20.75
405.241	21.08
405.604	21.05
405.968	21.07
406.331	21.22
406.694	21.13
407.057	21.32
407.42	21.28
407.783	21.24
408.146	21.45
408.509	21.49
408.872	21.29
409.235	21.56
409.598	21.54
409.961	21.66
410.323	21.86
410.686	21.76
411.049	21.43
411.411	21.9
411.774	21.82
412.136	21.95
412.499	21.86
412.861	21.96
413.223	22.24
413.586	21.98
413.948	22.21
414.31	22.36
414.672	21.98
415.035	22.42
415.397	22.64
415.759	22.53
416.121	22.57
416.483	22.78
416.845	22.73
417.206	22.67
417.568	22.53
417.93	22.82
418.292	22.63
418.653	22.79
419.015	22.86
419.377	22.88
419.738	22.6
420.1	22.71
420.461	22.73
420.822	22.84
421.184	22.79
421.545	22.83
421.906	22.81
422.267	22.66
422.629	22.87
422.99	22.9
423.351	22.89
423.712	23.06
424.073	23.34
424.434	23.15
424.795	23.16
425.155	23.22
425.516	23.18
425.877	23.26
426.238	23.21
426.598	23.55
426.959	23.53
427.32	23.66
427.68	23.6
428.041	23.77
428.401	23.8
428.761	23.86
429.122	24.01
429.482	24.25
429.842	24.57
430.202	24.49
430.563	24.46
430.923	24.35
431.283	24.54
431.643	24.66
432.003	24.77
432.363	25.03
432.722	24.72
433.082	24.72
433.442	24.8
433.802	24.86
434.161	24.85
434.521	24.85
434.881	24.83
435.24	24.84
435.6	24.84
435.959	25.01
436.319	25.12
436.678	25.28
437.037	25.34
437.396	25.41
437.756	25.36
438.115	25.38
438.474	25.53
438.833	25.71
439.192	25.78
439.551	25.63
439.91	25.9
440.269	25.77
440.628	25.69
440.987	25.63
441.345	25.74
441.704	25.61
442.063	25.78
442.421	25.8
442.78	25.9
443.138	25.97
443.497	25.94
443.855	25.97
444.214	26.24
444.572	26.15
444.93	26.33
445.288	26.54
445.647	26.36
446.005	26.33
446.363	26.29
446.721	26.28
447.079	26.34
447.437	26.37
447.795	26.42
448.153	26.26
448.51	26.39
448.868	26.54
449.226	26.56
449.584	26.74
449.941	26.98
450.299	26.95
450.656	27.06
451.014	27.13
451.371	27.28
451.729	27.43
452.086	27.29
452.443	27.52
452.801	27.6
453.158	27.76
453.515	27.54
453.872	27.62
454.229	27.56
454.586	27.54
454.943	27.75
455.3	27.94
455.657	27.81
456.014	27.97
456.371	28.07
456.727	27.79
457.084	28.02
457.441	27.92
457.797	28.25
458.154	28.31
458.51	28.21
458.867	28.22
459.223	28.5
459.58	28.45
459.936	28.37
460.292	28.53
460.648	28.42
461.005	27.98
461.361	27.94
461.717	28.09
462.073	28.28
462.429	28.4
462.785	28.57
463.141	28.95
463.496	28.85
463.852	28.99
464.208	29.22
464.564	29.15
464.919	29.36
465.275	29.2
465.631	29.45
465.986	29.47
466.342	29.54
466.697	29.53
467.052	29.58
467.408	29.66
467.763	29.57
468.118	29.75
468.473	29.72
468.829	29.77
469.184	29.99
469.539	29.79
469.894	30.03
470.249	30.03
470.603	29.98
470.958	30.18
471.313	30.08
471.668	30.36
472.023	30.38
472.377	30.22
472.732	30.24
473.086	30.37
473.441	30.67
473.795	30.61
474.15	30.73
474.504	30.88
474.859	30.79
475.213	30.8
475.567	30.51
475.921	30.8
476.275	30.87
476.63	31.01
476.984	30.97
477.338	31
477.692	31.12
478.045	31.01
478.399	31.01
478.753	30.82
479.107	31.28
479.461	31.17
479.814	31.29
480.168	31.29
480.521	31.26
480.875	31.5
481.228	31.37
481.582	31.3
481.935	31.49
482.289	31.36
482.642	31.41
482.995	31.24
483.348	31.15
483.701	31.09
484.055	31.17
484.408	30.99
484.761	30.6
485.114	30.67
485.466	30.8
485.819	30.77
486.172	30.65
486.525	30.88
486.878	31.03
487.23	31.31
487.583	31.38
487.936	31.46
488.288	31.39
488.641	31.25
488.993	31.22
489.345	31.3
489.698	31.29
490.05	31.3
490.402	31.58
490.754	31.78
491.107	31.88
491.459	32.24
491.811	32.28
492.163	32.23
492.515	31.99
492.866	31.94
493.218	31.83
493.57	32.01
493.922	32.05
494.274	32.28
494.625	32.62
494.977	32.81
495.328	33.22
495.68	33.24
496.031	33.35
496.383	33.56
496.734	33.52
497.086	33.58
497.437	33.79
497.788	33.53
498.139	33.58
498.49	33.52
498.842	33.49
499.193	33.57
499.544	33.66
499.894	33.82
500.245	33.78
500.596	34.11
500.947	34.1
501.298	34
501.648	34.12
501.999	34.52
502.35	34.33
502.7	34.46
503.051	34.61
503.401	34.68
503.752	34.6
504.102	34.55
504.452	34.97
504.803	34.81
505.153	34.96
505.503	34.74
505.853	34.71
506.203	34.8
506.553	34.93
506.903	35.06
507.253	35.14
507.603	35.02
507.953	35.32
508.303	35.33
508.652	35.32
509.002	35.24
509.352	35.15
509.701	35.34
510.051	35.18
510.4	35.33
510.75	35.28
511.099	35.29
511.449	35.29
511.798	35.45
512.147	35.43
512.496	35.54
512.846	35.51
513.195	35.7
513.544	35.6
513.893	35.67
514.242	35.76
514.591	35.87
514.939	35.8
515.288	36.08
515.637	36.1
515.986	36.15
516.334	36.39
516.683	36.25
517.032	36.23
517.38	36.55
517.729	36.38
518.077	36.36
518.426	36.23
518.774	36.24
519.122	36.37
519.47	36.12
519.819	36.11
520.167	36.13
520.515	36.03
520.863	36.17
521.211	36.34
521.559	36.51
521.907	36.76
522.255	36.81
522.602	36.85
522.95	37.07
523.298	37.22
523.645	36.98
523.993	37.22
524.341	37.29
524.688	37.44
525.036	37.31
525.383	37.39
525.73	37.26
526.078	37.3
526.425	36.97
526.772	37.02
527.119	36.88
527.466	36.98
527.814	36.94
528.161	37.01
528.508	37.02
528.854	36.98
529.201	36.88
529.548	36.65
529.895	36.62
530.242	36.83
530.588	36.92
530.935	36.77
531.282	36.96
531.628	36.97
531.975	37.32
532.321	37.42
532.667	37.72
533.014	37.73
533.36	37.81
533.706	37.8
534.052	37.89
534.399	37.57
534.745	37.61
535.091	37.48
535.437	37.61
535.783	37.86
536.129	38
536.474	38.12
536.82	38.3
537.166	38.41
537.512	38.4
537.857	38.25
538.203	38.37
538.549	38.47
538.894	38.44
539.239	38.65
539.585	38.99
539.93	39.06
540.276	39.06
540.621	39.28
540.966	39.36
541.311	39.21
541.656	39.01
542.001	38.86
542.346	38.68
542.691	38.48
543.036	38.53
543.381	38.6
543.726	38.65
544.071	38.79
544.415	38.91
544.76	39.06
545.105	39.28
545.449	39.31
545.794	39.43
546.138	39.71
546.483	39.6
546.827	39.75
547.171	39.71
547.516	39.95
547.86	39.83
548.204	39.78
548.548	39.86
548.892	39.98
549.236	40.15
549.58	40.29
549.924	40.47
550.268	40.7
550.612	40.7
550.956	40.82
551.3	41.18
551.643	41.13
551.987	41.26
552.33	41.15
552.674	41.24
553.017	41.41
553.361	41.47
553.704	41.09
554.048	41.15
554.391	41.22
554.734	41.3
555.077	41.39
555.42	41.26
555.764	41.29
556.107	41.6
556.45	41.69
556.793	41.73
557.135	41.8
557.478	41.96
557.821	41.86
558.164	42.09
558.507	41.77
558.849	42.18
559.192	42.28
559.534	42.13
559.877	42.32
560.219	42.32
560.562	42.36
560.904	42.15
561.246	42.41
561.589	42.52
561.931	42.47
562.273	42.48
562.615	42.61
562.957	42.69
563.299	42.75
563.641	42.66
563.983	42.54
564.325	42.63
564.667	42.84
565.008	42.68
565.35	42.66
565.692	42.93
566.033	43.2
566.375	42.86
566.716	43.08
567.058	42.72
567.399	42.73
567.741	42.78
568.082	43.01
568.423	42.8
568.764	42.89
569.105	43.24
569.447	43.24
569.788	43.2
570.129	43.23
570.47	43.51
570.811	43.41
571.151	43.58
571.492	43.49
571.833	43.53
572.174	43.5
572.514	43.47
572.855	43.69
573.195	43.41
573.536	43.51
573.876	43.68
574.217	43.68
574.557	43.86
574.898	43.69
575.238	44
575.578	43.6
575.918	43.95
576.258	43.97
576.598	43.94
576.938	43.97
577.278	43.86
577.618	44.22
577.958	44.12
578.298	44.41
578.638	44.35
578.977	44.41
579.317	44.31
579.657	44.24
579.996	44.31
580.336	44.83
580.675	44.9
581.014	44.66
581.354	44.79
581.693	45.21
582.032	44.82
582.372	44.99
582.711	45.31
583.05	45.18
583.389	45.14
583.728	45.46
584.067	45.43
584.406	45.74
584.745	45.57
585.083	45.73
585.422	45.88
585.761	45.7
586.1	45.6
586.438	45.88
586.777	45.92
587.115	45.65
587.454	45.85
587.792	45.69
588.13	46.01
588.469	46.17
588.807	46.08
589.145	45.99
589.483	45.78
589.821	45.99
590.159	46.04
590.497	45.99
590.835	46.16
591.173	45.98
591.511	46.27
591.849	46.28
592.187	46.05
592.524	46.26
592.862	46.47
593.2	46.42
593.537	46.53
593.875	46.28
594.212	46.71
594.55	46.51
594.887	46.5
595.224	46.39
595.561	46.71
595.899	46.49
596.236	46.79
596.573	46.45
596.91	46.91
597.247	46.66
597.584	46.88
597.921	46.77
598.258	46.63
598.594	46.41
598.931	46.34
599.268	46.52
599.604	46.66
599.941	46.74
600.277	47.08
600.614	47.25
600.95	47.31
601.287	47.5
601.623	47.48
601.959	47.2
602.296	47.35
602.632	47.67
602.968	47.14
603.304	47.57
603.64	47.22
603.976	47.55
604.312	47.4
604.648	47.64
604.984	47.48
605.319	47.44
605.655	47.17
605.991	47.14
606.326	46.91
606.662	47.23
606.998	47.16
607.333	47.61
607.668	47.55
608.004	47.73
608.339	47.92
608.674	47.69
609.01	47.95
609.345	48.28
609.68	48.05
610.015	48.21
610.35	48.01
610.685	47.78
611.02	48.1
611.355	48.14
611.689	47.95
612.024	48.2
612.359	48.14
612.694	48.49
613.028	48.64
613.363	48.38
613.697	48.47
614.032	48.44
614.366	48.63
614.7	48.75
615.035	48.57
615.369	48.96
615.703	48.79
616.037	49.09
616.371	48.92
616.705	48.82
617.039	48.99
617.373	48.61
617.707	49.24
618.041	49.5
618.375	49.22
618.709	49.3
619.042	49.2
619.376	49.46
619.71	49.23
620.043	48.72
620.377	49.48
620.71	49.44
621.043	49.53
621.377	49.68
621.71	49.59
622.043	49.49
622.376	49.73
622.709	49.85
623.043	49.84
623.376	49.75
623.709	49.91
624.041	49.68
624.374	49.96
624.707	49.32
625.04	49.58
625.373	49.91
625.705	49.94
626.038	50.24
626.37	50.36
626.703	50.14
627.035	50.12
627.368	50.24
627.7	49.84
628.032	49.91
628.365	50.19
628.697	50.05
629.029	50.07
629.361	50.15
629.693	50.26
630.025	50.19
630.357	50.08
630.689	50.39
631.021	50.39
631.353	50.58
631.684	50.72
632.016	50.48
632.348	50.73
632.679	50.46
633.011	50.92
633.342	50.54
633.674	50.67
634.005	50.78
634.336	50.61
634.668	50.4
634.999	51.1
635.33	50.87
635.661	50.78
635.992	51.16
636.323	51
636.654	50.62
636.985	50.95
637.316	51.26
637.647	51.27
637.977	51.12
638.308	50.61
638.639	51.02
638.969	51.51
639.3	51.37
639.63	51.18
639.961	51.2
640.291	51.44
640.622	51.67
640.952	51.3
641.282	51.48
641.612	51.24
641.943	51.87
642.273	51.55
642.603	51.46
642.933	51.56
643.263	52.08
643.592	52.18
643.922	52.3
644.252	52.02
644.582	51.96
644.911	51.57
645.241	51.79
645.571	52.03
645.9	52
646.23	51.6
646.559	51.4
646.888	52.28
647.218	52.02
647.547	52.2
647.876	52.42
648.205	52.29
648.534	52
648.863	52.06
649.192	52.26
649.521	52.5
649.85	52.45
650.179	52.6
650.508	52.42
650.837	52.7
651.165	52.4
651.494	52.51
651.822	52.69
652.151	52.86
652.479	52.5
652.808	52.52
653.136	52.12
653.465	52.78
653.793	52.4
654.121	52.88
654.449	52.79
654.777	53.23
655.105	52.63
655.433	53.01
655.761	53.23
656.089	53.02
656.417	52.61
656.745	52.83
657.073	53.31
657.4	52.73
657.728	53.56
658.056	52.74
658.383	52.88
658.711	53
659.038	52.9
659.365	53.28
659.693	53.05
660.02	53.1
660.347	53.03
660.674	53.06
661.001	52.64
661.329	53.04
661.656	53.15
661.982	53.11
662.309	53.26
662.636	53.04
662.963	53.5
663.29	53.57
663.616	53.88
663.943	53.22
664.27	53.34
664.596	53.23
664.923	54.2
665.249	53.41
665.576	53.54
665.902	54.56
666.228	53.36
666.554	53.74
666.881	53.92
667.207	53.82
667.533	53.49
667.859	53.81
668.185	54.3
668.511	53.9
668.837	53.69
669.162	53.64
669.488	53.8
669.814	54.24
670.139	54.37
670.465	53.71
