Data from 0051_forehead_Reflection__3__44.txt Node

Date: Fri Dec 16 14:09:50 CST 2022
User: ToomeyLab
Spectrometer: FLMS14357
Trigger mode: 0
Integration Time (sec): 1.000000E-2
Scans to average: 100
Electric dark correction enabled: true
Nonlinearity correction enabled: false
Boxcar width: 0
XAxis mode: Wavelengths
Number of Pixels in Spectrum: 2048
>>>>>Begin Spectral Data<<<<<
189.047	31.68
189.435	31.68
189.823	31.68
190.211	434.83
190.599	-132.89
190.987	273.21
191.375	145.09
191.763	15.14
192.151	-722.58
192.538	44.54
192.926	-166.64
193.314	79.93
193.702	47.75
194.089	39.69
194.477	-37.88
194.864	-68.04
195.252	14.79
195.639	154.19
196.027	387.24
196.414	-163.14
196.801	-144.8
197.189	258.79
197.576	116.48
197.963	226.14
198.351	25.21
198.738	9.97
199.125	41.09
199.512	12.82
199.899	-2.65
200.286	12.25
200.673	48.62
201.06	38.83
201.447	75.29
201.833	33.3
202.22	34.43
202.607	16.94
202.994	39.25
203.38	37.37
203.767	19.22
204.154	-5.65
204.54	34.6
204.927	6.42
205.313	41.23
205.699	-11.05
206.086	0.77
206.472	-4.98
206.858	54.06
207.245	33.69
207.631	34.86
208.017	43.08
208.403	30.27
208.789	17.63
209.175	63.43
209.561	57.33
209.947	29.17
210.333	-34.23
210.719	10.91
211.105	2.67
211.491	20.31
211.876	9.1
212.262	-14.45
212.648	35.68
213.034	18.64
213.419	50.19
213.805	33.97
214.19	35.91
214.576	-9.9
214.961	14.11
215.346	-3.62
215.732	10.07
216.117	-16.74
216.502	6.33
216.888	-2.75
217.273	36.73
217.658	26.95
218.043	14.53
218.428	10.22
218.813	13.05
219.198	12.55
219.583	10.53
219.968	13.51
220.353	28.7
220.738	21.33
221.122	3.79
221.507	15.59
221.892	9.85
222.276	14.74
222.661	2.21
223.046	18.34
223.43	7.76
223.815	17.08
224.199	11.72
224.583	10.3
224.968	18.25
225.352	3.45
225.736	8.45
226.121	0.88
226.505	8.04
226.889	11.38
227.273	5.37
227.657	7.19
228.041	6.22
228.425	6.72
228.809	0.81
229.193	1.38
229.577	2.89
229.961	3.74
230.344	3.77
230.728	3.72
231.112	4.04
231.495	4.31
231.879	3.94
232.263	3.52
232.646	2.58
233.03	1.55
233.413	3.11
233.797	4.69
234.18	3.19
234.563	3.1
234.946	3.27
235.33	3.59
235.713	3.87
236.096	4.44
236.479	5.07
236.862	3.7
237.245	4.21
237.628	4.1
238.011	4.59
238.394	5.04
238.777	3.8
239.16	1.85
239.543	3.5
239.925	4.97
240.308	4.73
240.691	4.17
241.073	3.46
241.456	3.66
241.838	3.67
242.221	3.27
242.603	3.34
242.986	4.37
243.368	3.76
243.75	3.08
244.133	3.24
244.515	3.77
244.897	3.59
245.279	3.17
245.661	4.17
246.043	3.29
246.425	3.1
246.807	3.16
247.189	4.08
247.571	3.92
247.953	3.14
248.335	3.49
248.717	3.33
249.098	3.65
249.48	2.9
249.862	3.69
250.243	3.88
250.625	3.38
251.006	3.53
251.388	3.97
251.769	3.77
252.151	4.51
252.532	3.71
252.913	4.06
253.295	3.71
253.676	3.85
254.057	3.4
254.438	3.81
254.819	3.82
255.2	4.29
255.581	2.71
255.962	3.88
256.343	4.12
256.724	5.11
257.105	3.62
257.486	4.02
257.867	3.93
258.247	4.23
258.628	4.81
259.009	3.84
259.389	3.73
259.77	3.74
260.15	4.14
260.531	3.54
260.911	3.22
261.292	3.31
261.672	3.2
262.052	3.55
262.432	3.52
262.813	3.62
263.193	3.52
263.573	3.31
263.953	3.45
264.333	4.04
264.713	3.23
265.093	3.12
265.473	3.98
265.853	3.57
266.233	3.88
266.612	3.25
266.992	3.45
267.372	3.52
267.752	3.37
268.131	3.74
268.511	3.75
268.89	3.6
269.27	3.71
269.649	3.48
270.029	2.85
270.408	3.34
270.787	3.63
271.167	3.29
271.546	2.37
271.925	3.41
272.304	3.51
272.683	3.43
273.062	3.19
273.441	3.64
273.82	3.49
274.199	3.55
274.578	3.15
274.957	3.25
275.336	3.29
275.715	3.63
276.093	3.88
276.472	3.34
276.851	3.11
277.229	3.67
277.608	3.89
277.986	3.62
278.365	3.25
278.743	3.38
279.122	2.87
279.5	3.3
279.878	2.9
280.257	3.6
280.635	3.16
281.013	3.34
281.391	3.25
281.769	2.96
282.147	3.3
282.525	3.62
282.903	3.16
283.281	3.5
283.659	3.42
284.037	3.59
284.415	3.01
284.792	3.51
285.17	3.24
285.548	2.78
285.925	2.98
286.303	3.21
286.68	3.52
287.058	3.01
287.435	2.76
287.813	3.33
288.19	3.65
288.567	3.23
288.945	3.63
289.322	3.3
289.699	3.37
290.076	3.7
290.453	3.28
290.83	3.49
291.207	3.58
291.584	3.25
291.961	3.51
292.338	3.36
292.715	3.44
293.092	3.94
293.469	4
293.845	3.95
294.222	3.79
294.599	3.75
294.975	3.95
295.352	3.45
295.728	3.36
296.105	3.83
296.481	4.03
296.858	4.16
297.234	3.45
297.61	3.87
297.986	4.07
298.363	3.69
298.739	3.89
299.115	3.55
299.491	4.07
299.867	4.1
300.243	4.25
300.619	3.77
300.995	3.74
301.371	4.32
301.746	4.02
302.122	4.43
302.498	4.33
302.874	4.37
303.249	4.37
303.625	3.88
304	4.04
304.376	4.4
304.751	4.75
305.127	4.55
305.502	4.75
305.878	4.7
306.253	4.52
306.628	4.97
307.003	4.93
307.378	4.37
307.754	4.78
308.129	4.33
308.504	4.54
308.879	4.95
309.254	5.08
309.629	4.44
310.003	4.99
310.378	5.02
310.753	4.87
311.128	4.57
311.502	4.76
311.877	5.14
312.252	5.04
312.626	4.74
313.001	4.85
313.375	4.95
313.75	5.06
314.124	5.64
314.498	4.94
314.873	5.12
315.247	4.94
315.621	5.74
315.995	5.54
316.369	5.75
316.743	5.67
317.117	5.34
317.491	5.32
317.865	5.08
318.239	6.25
318.613	5.46
318.987	5.51
319.361	5.84
319.734	6.4
320.108	5.75
320.482	6.33
320.855	6.06
321.229	6.36
321.602	6.16
321.976	6.13
322.349	5.58
322.723	5.99
323.096	5.8
323.469	5.46
323.843	6.16
324.216	5.82
324.589	6.97
324.962	6.46
325.335	6.44
325.708	6.55
326.081	6.88
326.454	6.77
326.827	7.14
327.2	6.89
327.573	6.87
327.945	6.58
328.318	6.71
328.691	6.99
329.063	6.93
329.436	6.77
329.809	6.52
330.181	7.03
330.553	7.13
330.926	7.26
331.298	6.81
331.671	6.99
332.043	7.29
332.415	7.47
332.787	7.49
333.159	6.96
333.532	7.57
333.904	7.68
334.276	7.24
334.648	7.64
335.02	7.41
335.391	7.45
335.763	7.41
336.135	7.83
336.507	7.98
336.879	7.28
337.25	7.23
337.622	7.81
337.993	7.97
338.365	7.93
338.736	8.13
339.108	7.56
339.479	7.48
339.851	7.85
340.222	7.86
340.593	7.31
340.964	7.7
341.336	7.1
341.707	7.61
342.078	7.89
342.449	8.5
342.82	8.09
343.191	7.51
343.562	8.32
343.933	7.82
344.303	8
344.674	7.97
345.045	8.75
345.416	8.22
345.786	7.54
346.157	8.26
346.527	8.18
346.898	8.27
347.268	8.17
347.639	8.15
348.009	8.19
348.38	8.37
348.75	8.52
349.12	8.56
349.49	8.3
349.861	8.48
350.231	9
350.601	8.69
350.971	8.84
351.341	8.48
351.711	8.57
352.081	8.84
352.45	9.09
352.82	8.86
353.19	9
353.56	8.69
353.929	9.07
354.299	9.19
354.669	9.02
355.038	8.97
355.408	9.4
355.777	8.84
356.147	9.07
356.516	9.01
356.885	8.8
357.254	9.14
357.624	9.14
357.993	9.13
358.362	9.44
358.731	9.17
359.1	9.3
359.469	9.5
359.838	9.28
360.207	9.19
360.576	9.58
360.945	9.44
361.314	9.86
361.682	9.33
362.051	9.52
362.42	9.52
362.788	9.23
363.157	9.09
363.525	9.34
363.894	9.37
364.262	9.56
364.631	10.49
364.999	9.57
365.367	10.15
365.735	9.59
366.104	10.02
366.472	9.87
366.84	10.05
367.208	9.75
367.576	9.93
367.944	10.24
368.312	9.91
368.68	10.17
369.048	10.16
369.416	10.29
369.783	10.2
370.151	10.19
370.519	10.31
370.886	10.58
371.254	10.44
371.621	10.44
371.989	10.74
372.356	10.52
372.724	10.36
373.091	10.56
373.458	10.6
373.826	10.54
374.193	11.08
374.56	10.53
374.927	10.95
375.294	10.97
375.661	10.92
376.028	10.83
376.395	10.67
376.762	11.44
377.129	11.33
377.496	11.16
377.863	11.28
378.229	10.96
378.596	10.93
378.963	10.94
379.329	10.84
379.696	11.22
380.062	11.35
380.429	11.38
380.795	11.07
381.161	11.22
381.528	11.23
381.894	11.46
382.26	11.38
382.626	11.36
382.993	11.52
383.359	11.55
383.725	11.6
384.091	11.86
384.457	11.64
384.823	11.75
385.188	11.72
385.554	11.59
385.92	12.13
386.286	12
386.651	12.31
387.017	12.11
387.383	11.91
387.748	11.75
388.114	12.26
388.479	11.92
388.845	12.38
389.21	12.46
389.575	12.24
389.94	12.3
390.306	12.42
390.671	12.3
391.036	12.74
391.401	12.52
391.766	12.84
392.131	12.48
392.496	12.52
392.861	12.29
393.226	12.51
393.591	12.7
393.956	12.76
394.32	12.54
394.685	12.89
395.05	12.83
395.414	12.74
395.779	12.75
396.143	12.9
396.508	13.08
396.872	13.25
397.236	12.98
397.601	13.29
397.965	13.15
398.329	13.27
398.694	13.01
399.058	13.32
399.422	13.22
399.786	13
400.15	13.09
400.514	13.19
400.878	13.39
401.242	13.61
401.605	13.38
401.969	13.58
402.333	13.44
402.697	13.76
403.06	13.74
403.424	13.62
403.787	13.97
404.151	13.62
404.514	13.86
404.878	13.89
405.241	13.87
405.604	13.93
405.968	13.68
406.331	14.13
406.694	14
407.057	14.18
407.42	14.1
407.783	13.99
408.146	14.01
408.509	13.96
408.872	14.4
409.235	14.26
409.598	14.47
409.961	14.57
410.323	14.22
410.686	14.46
411.049	14.37
411.411	14.57
411.774	14.57
412.136	14.59
412.499	14.42
412.861	14.61
413.223	14.81
413.586	14.76
413.948	14.78
414.31	15.22
414.672	14.87
415.035	15
415.397	14.98
415.759	15
416.121	15.2
416.483	15.13
416.845	15.01
417.206	15.29
417.568	15.07
417.93	15.05
418.292	15.2
418.653	15.24
419.015	15.35
419.377	15.18
419.738	15.21
420.1	15.14
420.461	15.18
420.822	15.24
421.184	15.34
421.545	15.16
421.906	15.23
422.267	15.04
422.629	15.22
422.99	15.26
423.351	15.33
423.712	15.43
424.073	15.51
424.434	15.43
424.795	15.52
425.155	15.63
425.516	15.45
425.877	15.5
426.238	15.54
426.598	15.68
426.959	15.73
427.32	15.82
427.68	16.04
428.041	16.12
428.401	16.03
428.761	16.05
429.122	16.25
429.482	16.18
429.842	16.49
430.202	16.33
430.563	16.44
430.923	16.28
431.283	16.47
431.643	16.41
432.003	16.65
432.363	16.7
432.722	16.66
433.082	16.54
433.442	16.73
433.802	16.75
434.161	16.84
434.521	16.78
434.881	16.78
435.24	16.79
435.6	16.83
435.959	16.83
436.319	17.03
436.678	17.04
437.037	17
437.396	17.14
437.756	17.26
438.115	17.15
438.474	17.27
438.833	17.32
439.192	17.54
439.551	17.25
439.91	17.4
440.269	17.52
440.628	17.36
440.987	17.13
441.345	17.35
441.704	17.49
442.063	17.34
442.421	17.43
442.78	17.42
443.138	17.54
443.497	17.53
443.855	17.61
444.214	17.84
444.572	17.8
444.93	18.06
445.288	17.81
445.647	18.03
446.005	17.77
446.363	17.98
446.721	17.75
447.079	17.84
447.437	17.86
447.795	17.79
448.153	17.93
448.51	17.98
448.868	18.06
449.226	18.12
449.584	18.16
449.941	18.4
450.299	18.37
450.656	18.54
451.014	18.5
451.371	18.66
451.729	18.63
452.086	18.63
452.443	18.84
452.801	18.7
453.158	18.84
453.515	18.64
453.872	18.93
454.229	18.85
454.586	19.18
454.943	18.9
455.3	19.13
455.657	19.12
456.014	19.38
456.371	19.23
456.727	19.06
457.084	19.37
457.441	19.24
457.797	19.58
458.154	19.54
458.51	19.33
458.867	19.44
459.223	19.53
459.58	19.63
459.936	19.48
460.292	19.66
460.648	19.31
461.005	19.16
461.361	19.29
461.717	19.4
462.073	19.54
462.429	19.63
462.785	19.77
463.141	19.92
463.496	19.98
463.852	20.16
464.208	20.16
464.564	20.3
464.919	20.1
465.275	20.23
465.631	20.37
465.986	20.27
466.342	20.51
466.697	20.28
467.052	20.76
467.408	20.47
467.763	20.53
468.118	20.51
468.473	20.78
468.829	20.74
469.184	20.94
469.539	20.89
469.894	20.88
470.249	20.82
470.603	21.07
470.958	21.04
471.313	20.97
471.668	21.19
472.023	21.29
472.377	21.12
472.732	21.11
473.086	21.3
473.441	21.37
473.795	21.51
474.15	21.49
474.504	21.47
474.859	21.59
475.213	21.45
475.567	21.46
475.921	21.76
476.275	21.8
476.63	21.75
476.984	21.61
477.338	21.82
477.692	21.76
478.045	21.67
478.399	21.78
478.753	21.76
479.107	21.63
479.461	21.96
479.814	21.9
480.168	22.02
480.521	22
480.875	22.22
481.228	22.15
481.582	22.01
481.935	22.23
482.289	22.06
482.642	22.01
482.995	22.04
483.348	21.91
483.701	21.83
484.055	21.81
484.408	21.61
484.761	21.23
485.114	21.28
485.466	21.29
485.819	21.41
486.172	21.54
486.525	21.71
486.878	21.85
487.23	22.07
487.583	22.08
487.936	22.16
488.288	22.01
488.641	21.93
488.993	21.87
489.345	21.94
489.698	22.12
490.05	22.15
490.402	22.31
490.754	22.53
491.107	22.66
491.459	22.86
491.811	22.88
492.163	22.95
492.515	22.53
492.866	22.39
493.218	22.51
493.57	22.62
493.922	22.79
494.274	23.1
494.625	23.31
494.977	23.3
495.328	23.7
495.68	23.97
496.031	23.9
496.383	23.75
496.734	24.02
497.086	24
497.437	24.08
497.788	23.9
498.139	23.92
498.49	23.95
498.842	24.02
499.193	24.02
499.544	24.08
499.894	24.28
500.245	24.19
500.596	24.46
500.947	24.4
501.298	24.41
501.648	24.65
501.999	24.81
502.35	24.87
502.7	24.84
503.051	24.98
503.401	24.93
503.752	24.85
504.102	24.94
504.452	24.99
504.803	24.85
505.153	25.08
505.503	25.06
505.853	25.14
506.203	25.18
506.553	25.29
506.903	25.16
507.253	25.43
507.603	25.49
507.953	25.62
508.303	25.53
508.652	25.62
509.002	25.55
509.352	25.66
509.701	25.57
510.051	25.52
510.4	25.56
510.75	25.56
511.099	25.63
511.449	25.67
511.798	25.78
512.147	25.93
512.496	25.93
512.846	25.8
513.195	25.9
513.544	25.94
513.893	25.92
514.242	26.16
514.591	26.08
514.939	26.17
515.288	26.31
515.637	26.48
515.986	26.23
516.334	26.51
516.683	26.42
517.032	26.39
517.38	26.47
517.729	26.61
518.077	26.55
518.426	26.46
518.774	26.59
519.122	26.51
519.47	26.44
519.819	26.28
520.167	26.33
520.515	26.49
520.863	26.47
521.211	26.76
521.559	26.78
521.907	26.85
522.255	27.03
522.602	27.12
522.95	27.25
523.298	27.38
523.645	27.18
523.993	27.51
524.341	27.44
524.688	27.5
525.036	27.57
525.383	27.5
525.73	27.47
526.078	27.47
526.425	27.27
526.772	27.11
527.119	27.06
527.466	27.09
527.814	27.16
528.161	27.19
528.508	27.17
528.854	27.28
529.201	26.98
529.548	26.82
529.895	26.7
530.242	26.89
530.588	27.06
530.935	27.03
531.282	27.21
531.628	27.39
531.975	27.53
532.321	27.67
532.667	27.9
533.014	28.02
533.36	28.01
533.706	27.87
534.052	27.75
534.399	27.59
534.745	27.65
535.091	27.71
535.437	27.75
535.783	28.05
536.129	28.08
536.474	28.29
536.82	28.51
537.166	28.79
537.512	28.48
537.857	28.44
538.203	28.39
538.549	28.6
538.894	28.6
539.239	28.85
539.585	28.95
539.93	29.17
540.276	29.25
540.621	29.2
540.966	29.22
541.311	29.28
541.656	29.13
542.001	28.98
542.346	28.63
542.691	28.54
543.036	28.47
543.381	28.72
543.726	28.77
544.071	28.96
544.415	29.09
544.76	29.16
545.105	29.36
545.449	29.41
545.794	29.56
546.138	29.88
546.483	29.8
546.827	29.96
547.171	29.94
547.516	30.11
547.86	29.8
548.204	29.9
548.548	30.1
548.892	30.16
549.236	30.49
549.58	30.37
549.924	30.82
550.268	30.74
550.612	30.86
550.956	30.88
551.3	31.08
551.643	31.15
551.987	31.09
552.33	30.96
552.674	31.25
553.017	31.43
553.361	31.2
553.704	31.15
554.048	31.03
554.391	31.1
554.734	31.19
555.077	31.08
555.42	31.31
555.764	31.43
556.107	31.61
556.45	31.52
556.793	31.74
557.135	31.97
557.478	31.98
557.821	31.75
558.164	32.02
558.507	31.96
558.849	32
559.192	31.96
559.534	31.91
559.877	32.21
560.219	32.27
560.562	32.19
560.904	32.42
561.246	32.5
561.589	32.59
561.931	32.62
562.273	32.33
562.615	32.4
562.957	32.67
563.299	32.38
563.641	32.56
563.983	32.52
564.325	32.7
564.667	32.69
565.008	32.73
565.35	32.87
565.692	32.94
566.033	32.97
566.375	32.79
566.716	32.65
567.058	32.78
567.399	32.63
567.741	32.79
568.082	32.71
568.423	32.71
568.764	32.85
569.105	32.94
569.447	33.32
569.788	33.29
570.129	33.16
570.47	33.32
570.811	33.37
571.151	33.28
571.492	33.29
571.833	33.34
572.174	33.35
572.514	33.3
572.855	33.49
573.195	33.29
573.536	33.16
573.876	33.38
574.217	33.44
574.557	33.53
574.898	33.49
575.238	33.76
575.578	33.72
575.918	33.81
576.258	33.65
576.598	33.75
576.938	33.85
577.278	34.04
577.618	34.03
577.958	34.07
578.298	34.34
578.638	34.29
578.977	34.32
579.317	34.35
579.657	34.67
579.996	34.38
580.336	34.48
580.675	34.59
581.014	34.78
581.354	34.9
581.693	34.85
582.032	34.79
582.372	35.13
582.711	35.14
583.05	35.28
583.389	35.09
583.728	35.46
584.067	35.11
584.406	35.18
584.745	35.18
585.083	35.49
585.422	35.59
585.761	35.37
586.1	35.55
586.438	35.45
586.777	35.44
587.115	35.5
587.454	35.51
587.792	35.3
588.13	35.99
588.469	35.85
588.807	36.19
589.145	35.8
589.483	35.84
589.821	35.64
590.159	35.95
590.497	35.99
590.835	35.95
591.173	35.84
591.511	35.96
591.849	36.01
592.187	36.07
592.524	36.06
592.862	36.18
593.2	36.16
593.537	36.41
593.875	36.28
594.212	36.29
594.55	36.51
594.887	36.75
595.224	36.28
595.561	36.52
595.899	36.45
596.236	36.52
596.573	36.32
596.91	36.33
597.247	36.35
597.584	36.57
597.921	36.3
598.258	36.32
598.594	36.23
598.931	36.26
599.268	36.32
599.604	36.59
599.941	36.74
600.277	36.69
600.614	37.05
600.95	37.15
601.287	37.13
601.623	37.39
601.959	37.28
602.296	37.17
602.632	37.08
602.968	36.99
603.304	36.96
603.64	37.45
603.976	37.04
604.312	37.24
604.648	37.19
604.984	37.1
605.319	37.07
605.655	37.19
605.991	36.82
606.326	36.98
606.662	37.18
606.998	37.47
607.333	37.17
607.668	37.36
608.004	37.58
608.339	37.68
608.674	37.55
609.01	37.84
609.345	37.94
609.68	37.94
610.015	37.66
610.35	38.04
610.685	37.57
611.02	37.77
611.355	38.01
611.689	37.56
612.024	37.9
612.359	38.1
612.694	38.09
613.028	38.42
613.363	38.16
613.697	38.41
614.032	38.36
614.366	38.6
614.7	38.51
615.035	38.79
615.369	38.75
615.703	38.75
616.037	38.46
616.371	38.57
616.705	38.89
617.039	39.04
617.373	38.92
617.707	38.84
618.041	39.27
618.375	38.88
618.709	38.9
619.042	38.7
619.376	39.08
619.71	39.23
620.043	39.27
620.377	39.06
620.71	39.12
621.043	39.36
621.377	39.37
621.71	39.17
622.043	39.66
622.376	39.08
622.709	39.48
623.043	39.36
623.376	39.45
623.709	39.59
624.041	39.78
624.374	39.7
624.707	39.2
625.04	39.67
625.373	39.38
625.705	39.7
626.038	40.06
626.37	39.72
626.703	39.4
627.035	39.76
627.368	39.76
627.7	39.82
628.032	39.46
628.365	39.39
628.697	39.69
629.029	39.97
629.361	39.98
629.693	40.06
630.025	40.06
630.357	40
630.689	40.42
631.021	40.44
631.353	40.51
631.684	40.31
632.016	40.39
632.348	40.34
632.679	40.43
633.011	40.55
633.342	40.69
633.674	40.5
634.005	40.84
634.336	39.99
634.668	40.36
634.999	40.77
635.33	40.68
635.661	40.62
635.992	40.7
636.323	40.79
636.654	41.03
636.985	40.65
637.316	40.59
637.647	40.91
637.977	40.64
638.308	40.8
638.639	40.68
638.969	40.78
639.3	41.17
639.63	41.13
639.961	40.87
640.291	41.62
640.622	41.04
640.952	41.42
641.282	41.8
641.612	41.14
641.943	41.47
642.273	41.44
642.603	41.53
642.933	41.45
643.263	41.57
643.592	41.48
643.922	41.82
644.252	41.6
644.582	42.01
644.911	41.59
645.241	41.47
645.571	41.94
645.9	41.58
646.23	41.59
646.559	41.53
646.888	41.73
647.218	42.25
647.547	41.82
647.876	42.25
648.205	41.99
648.534	41.82
648.863	42.45
649.192	42.32
649.521	42.47
649.85	42.1
650.179	42.22
650.508	42.14
650.837	42.42
651.165	41.76
651.494	41.88
651.822	42.43
652.151	42.6
652.479	42.42
652.808	42.08
653.136	42.19
653.465	42.58
653.793	42.28
654.121	42.09
654.449	42.41
654.777	43.08
655.105	42.82
655.433	42.52
655.761	42.8
656.089	42.76
656.417	42.22
656.745	43.33
657.073	43.09
657.4	42.8
657.728	42.95
658.056	42.37
658.383	42.73
658.711	42.92
659.038	42.96
659.365	42.23
659.693	42.52
660.02	43.13
660.347	42.27
660.674	42.85
661.001	42.56
661.329	43.15
661.656	43
661.982	42.71
662.309	43.11
662.636	42.99
662.963	43.16
663.29	43.11
663.616	43.45
663.943	43
664.27	43.82
664.596	42.97
664.923	43.64
665.249	43.39
665.576	43.46
665.902	43.7
666.228	43.22
666.554	43.78
666.881	44.2
667.207	43.25
667.533	43.9
667.859	43.81
668.185	43.97
668.511	43.42
668.837	43.46
669.162	44.31
669.488	44.46
669.814	43.77
670.139	44.07
670.465	43.87
670.791	44.23
671.116	43.8
671.442	44.03
671.767	44.02
672.092	43.97
672.418	43.9
