Data from 815656_forehead_Reflection__2__101.txt Node

Date: Fri Sep 16 15:28:21 CDT 2022
User: ToomeyLab
Spectrometer: FLMS14357
Trigger mode: 0
Integration Time (sec): 1.000000E-2
Scans to average: 100
Electric dark correction enabled: true
Nonlinearity correction enabled: false
Boxcar width: 0
XAxis mode: Wavelengths
Number of Pixels in Spectrum: 2048
>>>>>Begin Spectral Data<<<<<
189.047	57.36
189.435	57.36
189.823	57.36
190.211	66.28
190.599	-229.82
190.987	183.02
191.375	96.85
191.763	26.78
192.151	-63.6
192.538	21.65
192.926	-419.53
193.314	95.58
193.702	49.8
194.089	186.8
194.477	212.38
194.864	-20.99
195.252	58.64
195.639	146.85
196.027	152.71
196.414	10539.13
196.801	-85.96
197.189	-66.12
197.576	-57.37
197.963	961.37
198.351	-8.59
198.738	80.53
199.125	39.89
199.512	882.23
199.899	19.24
200.286	13.52
200.673	27.01
201.06	36.94
201.447	17.95
201.833	19.04
202.22	26.13
202.607	17.6
202.994	0.47
203.38	8.04
203.767	46.99
204.154	83.05
204.54	39.16
204.927	-29.2
205.313	46.59
205.699	64.91
206.086	21.71
206.472	10.13
206.858	-5.25
207.245	-4.27
207.631	26.12
208.017	24.85
208.403	-2.87
208.789	5.3
209.175	12.23
209.561	1.89
209.947	16.71
210.333	21.3
210.719	20.35
211.105	41.21
211.491	46.68
211.876	11.18
212.262	6.81
212.648	-6.44
213.034	19.51
213.419	-22.73
213.805	32.86
214.19	22.48
214.576	29.62
214.961	-7.56
215.346	5.09
215.732	-24.74
216.117	21.68
216.502	27.57
216.888	-18.91
217.273	8.87
217.658	4.3
218.043	-21.4
218.428	3.01
218.813	-9.08
219.198	-4.59
219.583	-3.14
219.968	33.66
220.353	-28.36
220.738	12.53
221.122	-7.45
221.507	16.02
221.892	-5.11
222.276	19.56
222.661	10.28
223.046	-2.51
223.43	11.25
223.815	5.21
224.199	2.45
224.583	4.3
224.968	8.66
225.352	8.86
225.736	14.94
226.121	12.58
226.505	7.82
226.889	4.52
227.273	6.02
227.657	4.51
228.041	3.5
228.425	0.92
228.809	6.15
229.193	2.44
229.577	5.3
229.961	2.04
230.344	4.31
230.728	3.63
231.112	3.96
231.495	2.5
231.879	4.07
232.263	3.6
232.646	3.42
233.03	3.22
233.413	4.33
233.797	4.33
234.18	5.08
234.563	3.18
234.946	4.05
235.33	2.98
235.713	3.42
236.096	3.49
236.479	4.81
236.862	2.36
237.245	3.9
237.628	5.85
238.011	4.43
238.394	2.88
238.777	3.8
239.16	3.52
239.543	4.2
239.925	3.39
240.308	3.72
240.691	4.45
241.073	1.69
241.456	2.27
241.838	2.82
242.221	4.02
242.603	3.37
242.986	3.47
243.368	3.97
243.75	3.51
244.133	3.51
244.515	3.24
244.897	3.91
245.279	3.6
245.661	3.09
246.043	3.88
246.425	3.76
246.807	4.05
247.189	3.21
247.571	2.9
247.953	2.98
248.335	3.79
248.717	3.55
249.098	3.23
249.48	3.35
249.862	3.37
250.243	3.53
250.625	3.52
251.006	3.49
251.388	3.62
251.769	2.44
252.151	3.71
252.532	3.14
252.913	3.12
253.295	3.9
253.676	3.64
254.057	3.2
254.438	3.24
254.819	3.07
255.2	2.3
255.581	3.02
255.962	3.01
256.343	4.46
256.724	2.37
257.105	3.69
257.486	4.1
257.867	3.12
258.247	3.88
258.628	4.13
259.009	3.35
259.389	3.48
259.77	3.51
260.15	3.43
260.531	3.23
260.911	3.14
261.292	3.16
261.672	3.31
262.052	3.13
262.432	3.22
262.813	3.5
263.193	3.6
263.573	3.54
263.953	3.78
264.333	3.51
264.713	3.4
265.093	2.63
265.473	2.64
265.853	4.37
266.233	2.94
266.612	3.83
266.992	3.4
267.372	3.53
267.752	2.82
268.131	3.11
268.511	3.64
268.89	3.89
269.27	2.76
269.649	3.22
270.029	3.08
270.408	3.89
270.787	3.2
271.167	2.64
271.546	3.21
271.925	3.39
272.304	3.47
272.683	2.65
273.062	3.31
273.441	3.64
273.82	2.94
274.199	3.41
274.578	3
274.957	3.59
275.336	3.23
275.715	3.9
276.093	3.29
276.472	3.3
276.851	3.09
277.229	2.97
277.608	3.38
277.986	2.87
278.365	2.66
278.743	3.28
279.122	3.25
279.5	2.81
279.878	3.93
280.257	3.09
280.635	3.9
281.013	3.61
281.391	3.65
281.769	3.62
282.147	3.35
282.525	2.44
282.903	3.36
283.281	2.98
283.659	3.35
284.037	3.53
284.415	3.73
284.792	3.26
285.17	3.61
285.548	3.3
285.925	3.19
286.303	3.52
286.68	3.08
287.058	3.09
287.435	2.99
287.813	3.51
288.19	2.88
288.567	3.09
288.945	3.55
289.322	3.52
289.699	3.42
290.076	2.94
290.453	3.59
290.83	3.55
291.207	3.31
291.584	2.69
291.961	3.54
292.338	3.21
292.715	3.47
293.092	3.3
293.469	3.69
293.845	3.29
294.222	3.6
294.599	3.3
294.975	3.18
295.352	3.75
295.728	3.55
296.105	3.74
296.481	3.37
296.858	3.35
297.234	3.61
297.61	3.83
297.986	3.58
298.363	3.46
298.739	3.24
299.115	4
299.491	3.87
299.867	3.84
300.243	3.94
300.619	4.09
300.995	3.85
301.371	4.02
301.746	3.89
302.122	4.22
302.498	3.9
302.874	4.01
303.249	4.04
303.625	4.11
304	4.41
304.376	3.99
304.751	4.5
305.127	3.74
305.502	4.07
305.878	4.38
306.253	4.28
306.628	4.31
307.003	4.75
307.378	5.1
307.754	4.51
308.129	4.85
308.504	4.76
308.879	4.85
309.254	4.42
309.629	4.59
310.003	4.46
310.378	4.33
310.753	4.42
311.128	4.57
311.502	4.4
311.877	4.73
312.252	4.75
312.626	4.62
313.001	4.68
313.375	4.99
313.75	5.02
314.124	4.71
314.498	4.84
314.873	4.91
315.247	5.35
315.621	5.22
315.995	4.5
316.369	4.98
316.743	5.58
317.117	5.11
317.491	5.08
317.865	5.76
318.239	5.66
318.613	4.99
318.987	4.73
319.361	4.93
319.734	4.98
320.108	5.11
320.482	5.33
320.855	5.54
321.229	5.91
321.602	6.29
321.976	5.02
322.349	6
322.723	5.96
323.096	5.37
323.469	5.68
323.843	6.07
324.216	6.2
324.589	5.93
324.962	5.79
325.335	6.26
325.708	6.21
326.081	6.17
326.454	6.42
326.827	5.71
327.2	6.34
327.573	5.74
327.945	6.17
328.318	6.23
328.691	6.01
329.063	5.98
329.436	6.02
329.809	5.77
330.181	6.54
330.553	6.48
330.926	6.01
331.298	6.78
331.671	6.18
332.043	6.56
332.415	6.39
332.787	6.47
333.159	6.64
333.532	7.13
333.904	6.73
334.276	6.7
334.648	7.03
335.02	6.64
335.391	7.37
335.763	7.15
336.135	6.65
336.507	6.95
336.879	7.13
337.25	6.06
337.622	7.23
337.993	7.35
338.365	7.34
338.736	8.22
339.108	7.54
339.479	7.83
339.851	7.12
340.222	7.48
340.593	7.51
340.964	7.57
341.336	7.39
341.707	7.11
342.078	7.68
342.449	7.79
342.82	7.21
343.191	7.8
343.562	7.81
343.933	7.92
344.303	8.45
344.674	7.51
345.045	8.09
345.416	8.14
345.786	8.11
346.157	8.25
346.527	8.38
346.898	8
347.268	8.4
347.639	7.96
348.009	7.98
348.38	8.27
348.75	8.04
349.12	8.37
349.49	8.52
349.861	8.68
350.231	8.35
350.601	8.42
350.971	8.75
351.341	8.8
351.711	8.44
352.081	8.56
352.45	9.42
352.82	9.08
353.19	8.58
353.56	9.04
353.929	9.19
354.299	9.18
354.669	9.36
355.038	9.14
355.408	9
355.777	8.88
356.147	8.97
356.516	9.38
356.885	9.1
357.254	9.31
357.624	9.14
357.993	9.17
358.362	9.23
358.731	9.36
359.1	9.63
359.469	9.53
359.838	9.49
360.207	9.73
360.576	9.52
360.945	9.9
361.314	9.45
361.682	9.34
362.051	9.78
362.42	10.02
362.788	9.79
363.157	9.89
363.525	9.84
363.894	9.9
364.262	9.87
364.631	10.12
364.999	9.96
365.367	10.1
365.735	10.44
366.104	10.24
366.472	10.33
366.84	10.3
367.208	10.84
367.576	10.39
367.944	10.45
368.312	10.26
368.68	10.57
369.048	11.12
369.416	10.91
369.783	10.74
370.151	10.52
370.519	10.6
370.886	10.73
371.254	10.55
371.621	11.33
371.989	11.18
372.356	11.17
372.724	11.18
373.091	11
373.458	11.21
373.826	11.19
374.193	11.1
374.56	11.07
374.927	11.23
375.294	11.26
375.661	11.15
376.028	11.79
376.395	11.39
376.762	11.99
377.129	11.45
377.496	11.34
377.863	11.45
378.229	11.64
378.596	11.47
378.963	12.01
379.329	11.84
379.696	12.03
380.062	11.67
380.429	12.03
380.795	12.08
381.161	12.22
381.528	12.67
381.894	12.19
382.26	12.22
382.626	12.35
382.993	12.27
383.359	12.37
383.725	12
384.091	12.57
384.457	12.21
384.823	12.47
385.188	12.4
385.554	12.61
385.92	12.47
386.286	12.71
386.651	12.61
387.017	12.76
387.383	12.67
387.748	12.39
388.114	12.93
388.479	12.97
388.845	12.89
389.21	13.36
389.575	13.14
389.94	13.48
390.306	13.43
390.671	13.27
391.036	13.29
391.401	13.36
391.766	13.74
392.131	13.58
392.496	13.33
392.861	13.47
393.226	13.55
393.591	13.76
393.956	13.83
394.32	14.02
394.685	13.79
395.05	13.96
395.414	13.77
395.779	13.68
396.143	14
396.508	13.94
396.872	14.08
397.236	13.99
397.601	13.98
397.965	13.94
398.329	14.04
398.694	14.2
399.058	14.54
399.422	14.15
399.786	14.24
400.15	14.71
400.514	14.27
400.878	14.55
401.242	14.67
401.605	14.57
401.969	14.5
402.333	14.88
402.697	14.69
403.06	15.22
403.424	14.74
403.787	14.75
404.151	15.03
404.514	15.02
404.878	15.02
405.241	15.09
405.604	15.11
405.968	15.15
406.331	15.01
406.694	15.31
407.057	15.26
407.42	15.07
407.783	15.44
408.146	15.48
408.509	15.44
408.872	15.63
409.235	15.72
409.598	15.49
409.961	15.72
410.323	15.73
410.686	15.83
411.049	15.97
411.411	15.67
411.774	15.8
412.136	15.96
412.499	15.97
412.861	16.14
413.223	16
413.586	16.18
413.948	16.31
414.31	16.28
414.672	16.26
415.035	16.43
415.397	16.36
415.759	16.54
416.121	16.38
416.483	16.48
416.845	16.42
417.206	16.64
417.568	16.57
417.93	16.76
418.292	16.53
418.653	16.7
419.015	16.75
419.377	16.82
419.738	16.77
420.1	16.74
420.461	16.92
420.822	16.64
421.184	16.78
421.545	16.82
421.906	16.86
422.267	16.83
422.629	16.84
422.99	16.67
423.351	16.88
423.712	16.91
424.073	17.11
424.434	17.04
424.795	17.28
425.155	17.19
425.516	17.42
425.877	17.13
426.238	17.22
426.598	17.29
426.959	17.29
427.32	17.51
427.68	17.58
428.041	17.7
428.401	17.71
428.761	17.98
429.122	17.96
429.482	18.02
429.842	18
430.202	18.04
430.563	18.14
430.923	18.22
431.283	18.58
431.643	18.42
432.003	18.24
432.363	18.3
432.722	18.56
433.082	18.51
433.442	18.68
433.802	18.58
434.161	18.45
434.521	18.67
434.881	18.61
435.24	18.67
435.6	18.72
435.959	18.68
436.319	18.74
436.678	18.9
437.037	18.9
437.396	19.03
437.756	19.21
438.115	19.08
438.474	19.04
438.833	19.21
439.192	19.17
439.551	19.26
439.91	19.25
440.269	19.21
440.628	19.29
440.987	19.4
441.345	19.35
441.704	19.49
442.063	19.41
442.421	19.39
442.78	19.42
443.138	19.35
443.497	19.58
443.855	19.68
444.214	19.66
444.572	19.91
444.93	20.03
445.288	20.07
445.647	20.03
446.005	20.03
446.363	20.09
446.721	19.93
447.079	20
447.437	19.96
447.795	20.01
448.153	20.01
448.51	19.94
448.868	19.9
449.226	20.03
449.584	20.24
449.941	20.22
450.299	20.26
450.656	20.3
451.014	20.5
451.371	20.57
451.729	20.52
452.086	20.66
452.443	20.84
452.801	20.93
453.158	20.92
453.515	20.84
453.872	20.81
454.229	21.07
454.586	20.82
454.943	21.12
455.3	21.28
455.657	21.24
456.014	21.49
456.371	21.24
456.727	21.43
457.084	21.45
457.441	21.41
457.797	21.73
458.154	21.66
458.51	21.67
458.867	21.63
459.223	21.88
459.58	21.79
459.936	21.75
460.292	21.86
460.648	21.77
461.005	21.69
461.361	21.6
461.717	21.55
462.073	21.64
462.429	21.7
462.785	21.92
463.141	22.04
463.496	22.12
463.852	22.19
464.208	22.2
464.564	22.41
464.919	22.41
465.275	22.47
465.631	22.44
465.986	22.59
466.342	22.62
466.697	22.95
467.052	22.78
467.408	22.88
467.763	22.59
468.118	22.73
468.473	22.91
468.829	22.93
469.184	22.92
469.539	22.93
469.894	23.09
470.249	23.18
470.603	23.06
470.958	23.35
471.313	23.22
471.668	23.26
472.023	23.19
472.377	23.19
472.732	23.35
473.086	23.38
473.441	23.35
473.795	23.82
474.15	23.43
474.504	23.92
474.859	23.36
475.213	23.64
475.567	23.58
475.921	23.85
476.275	23.73
476.63	23.92
476.984	23.96
477.338	24.07
477.692	24.09
478.045	24.03
478.399	24
478.753	23.99
479.107	24.16
479.461	24.19
479.814	24.19
480.168	24.23
480.521	24.2
480.875	24.17
481.228	24.39
481.582	24.21
481.935	24.37
482.289	24.56
482.642	24.44
482.995	24.44
483.348	24.28
483.701	24.27
484.055	24.22
484.408	24.18
484.761	23.96
485.114	23.87
485.466	23.88
485.819	23.82
486.172	23.71
486.525	23.82
486.878	23.9
487.23	24
487.583	24.17
487.936	24.48
488.288	24.52
488.641	24.39
488.993	24.39
489.345	24.33
489.698	24.31
490.05	24.33
490.402	24.33
490.754	24.56
491.107	24.67
491.459	25.03
491.811	25.02
492.163	24.99
492.515	25.12
492.866	25.06
493.218	24.97
493.57	24.93
493.922	24.89
494.274	24.97
494.625	25.13
494.977	25.4
495.328	25.46
495.68	25.66
496.031	26.04
496.383	25.96
496.734	26.19
497.086	26.07
497.437	26.17
497.788	26.29
498.139	26.29
498.49	26.26
498.842	26.19
499.193	26.12
499.544	26.12
499.894	26.31
500.245	26.35
500.596	26.32
500.947	26.68
501.298	26.71
501.648	26.64
501.999	26.74
502.35	26.8
502.7	26.85
503.051	27.03
503.401	26.98
503.752	27.15
504.102	27.03
504.452	26.96
504.803	27.3
505.153	27.35
505.503	27.39
505.853	27.2
506.203	27.36
506.553	27.15
506.903	27.28
507.253	27.3
507.603	27.6
507.953	27.52
508.303	27.58
508.652	27.65
509.002	27.89
509.352	27.78
509.701	27.53
510.051	27.78
510.4	27.82
510.75	27.66
511.099	27.68
511.449	27.59
511.798	27.83
512.147	27.85
512.496	27.84
512.846	28.04
513.195	27.92
513.544	27.97
513.893	28.16
514.242	28.27
514.591	28.2
514.939	28.33
515.288	28.41
515.637	28.38
515.986	28.36
516.334	28.4
516.683	28.59
517.032	28.56
517.38	28.83
517.729	28.75
518.077	28.78
518.426	28.67
518.774	28.89
519.122	28.75
519.47	28.75
519.819	28.53
520.167	28.64
520.515	28.53
520.863	28.58
521.211	28.5
521.559	28.65
521.907	28.88
522.255	28.92
522.602	29.11
522.95	29.27
523.298	29.26
523.645	29.28
523.993	29.4
524.341	29.36
524.688	29.57
525.036	29.57
525.383	29.67
525.73	29.61
526.078	29.65
526.425	29.65
526.772	29.55
527.119	29.38
527.466	29.34
527.814	29.39
528.161	29.34
528.508	29.47
528.854	29.47
529.201	29.48
529.548	29.38
529.895	29.36
530.242	29.26
530.588	29.22
530.935	29.25
531.282	29.17
531.628	29.27
531.975	29.33
532.321	29.43
532.667	29.8
533.014	30.04
533.36	30.03
533.706	30.09
534.052	30.16
534.399	30.24
534.745	30.09
535.091	29.96
535.437	29.95
535.783	29.96
536.129	30.01
536.474	30.25
536.82	30.21
537.166	30.53
537.512	30.69
537.857	30.83
538.203	30.47
538.549	30.59
538.894	30.73
539.239	30.65
539.585	30.83
539.93	30.83
540.276	31.13
540.621	31.4
540.966	31.34
541.311	31.37
541.656	31.53
542.001	31.14
542.346	31.14
542.691	31.08
543.036	30.92
543.381	30.84
543.726	30.9
544.071	30.87
544.415	30.89
544.76	31.15
545.105	31.18
545.449	31.34
545.794	31.43
546.138	31.61
546.483	31.76
546.827	31.74
547.171	31.88
547.516	31.84
547.86	31.99
548.204	31.97
548.548	31.95
548.892	32
549.236	32.07
549.58	32.21
549.924	32.32
550.268	32.35
550.612	32.66
550.956	32.54
551.3	32.8
551.643	32.67
551.987	32.89
552.33	32.93
552.674	32.93
553.017	32.98
553.361	33.13
553.704	33.22
554.048	33.28
554.391	33.18
554.734	33.09
555.077	33.09
555.42	33.35
555.764	33.3
556.107	33.32
556.45	33.3
556.793	33.63
557.135	33.43
557.478	33.52
557.821	33.63
558.164	33.85
558.507	33.67
558.849	33.47
559.192	34
559.534	33.89
559.877	33.69
560.219	34
560.562	33.98
560.904	34.26
561.246	34.08
561.589	34.15
561.931	34.24
562.273	34.12
562.615	34.21
562.957	34.36
563.299	34.22
563.641	34.22
563.983	34.41
564.325	34.21
564.667	34.25
565.008	34.52
565.35	34.55
565.692	34.19
566.033	34.65
566.375	34.63
566.716	34.61
567.058	34.78
567.399	34.7
567.741	34.52
568.082	34.75
568.423	34.43
568.764	34.52
569.105	34.85
569.447	34.73
569.788	34.78
570.129	35.08
570.47	34.99
570.811	35.21
571.151	35.09
571.492	35.16
571.833	35.13
572.174	35.44
572.514	35.19
572.855	35.4
573.195	35.19
573.536	35.36
573.876	35.47
574.217	34.98
574.557	35.35
574.898	35.43
575.238	35.36
575.578	35.37
575.918	35.75
576.258	35.5
576.598	35.52
576.938	35.72
577.278	35.58
577.618	35.74
577.958	35.99
578.298	35.7
578.638	35.86
578.977	35.91
579.317	35.88
579.657	35.82
579.996	36.17
580.336	36.1
580.675	36.32
581.014	36.44
581.354	36.56
581.693	36.42
582.032	36.64
582.372	36.57
582.711	36.74
583.05	36.87
583.389	36.45
583.728	36.67
584.067	36.58
584.406	36.8
584.745	36.99
585.083	36.97
585.422	37.35
585.761	37.24
586.1	36.82
586.438	37.05
586.777	36.86
587.115	37.12
587.454	37.25
587.792	36.83
588.13	37.21
588.469	37.06
588.807	37.12
589.145	37.33
589.483	37.44
589.821	37.37
590.159	37.51
590.497	37.62
590.835	37.68
591.173	37.66
591.511	37.38
591.849	37.4
592.187	37.89
592.524	37.64
592.862	37.86
593.2	37.67
593.537	37.76
593.875	38.07
594.212	38.23
594.55	37.69
594.887	38.06
595.224	38.15
595.561	37.85
595.899	38.04
596.236	38.07
596.573	38.09
596.91	38.34
597.247	38.15
597.584	38.34
597.921	38.69
598.258	38.09
598.594	38.11
598.931	38.21
599.268	38.21
599.604	37.87
599.941	38.17
600.277	38.31
600.614	38.49
600.95	38.44
601.287	38.49
601.623	38.69
601.959	38.8
602.296	38.65
602.632	38.55
602.968	38.89
603.304	38.94
603.64	38.92
603.976	38.81
604.312	38.96
604.648	39.18
604.984	38.97
605.319	39.32
605.655	39.1
605.991	38.82
606.326	38.97
606.662	38.91
606.998	38.82
607.333	39.19
607.668	39.01
608.004	38.96
608.339	39.3
608.674	39.22
609.01	39.25
609.345	39.52
609.68	39.65
610.015	39.61
610.35	39.79
610.685	39.58
611.02	39.48
611.355	39.51
611.689	39.48
612.024	39.63
612.359	39.25
612.694	39.61
613.028	39.61
613.363	39.57
613.697	39.74
614.032	39.94
614.366	39.52
614.7	39.89
615.035	40.27
615.369	40.14
615.703	40.23
616.037	40.11
616.371	40.66
616.705	39.81
617.039	40.26
617.373	40.28
617.707	40.5
618.041	40.76
618.375	40.42
618.709	40.22
619.042	40.56
619.376	40.6
619.71	40.88
620.043	40.7
620.377	40.65
620.71	40.97
621.043	41.11
621.377	40.96
621.71	40.8
622.043	40.93
622.376	41
622.709	40.92
623.043	40.73
623.376	40.8
623.709	40.92
624.041	40.86
624.374	40.76
624.707	41.35
625.04	41.43
625.373	40.61
625.705	41.58
626.038	41.3
626.37	41.17
626.703	40.7
627.035	41.39
627.368	41.51
627.7	41.7
628.032	41.37
628.365	41.43
628.697	40.99
629.029	41.67
629.361	41.46
629.693	41.6
630.025	41.37
630.357	41.41
630.689	41.92
631.021	41.66
631.353	41.84
631.684	41.76
632.016	41.98
632.348	42.04
632.679	41.51
633.011	41.97
633.342	41.5
633.674	42.33
634.005	41.47
634.336	42.12
634.668	42.24
634.999	41.88
635.33	42.39
635.661	42.45
635.992	42.43
636.323	41.99
636.654	42.45
636.985	42.16
637.316	41.93
637.647	42.12
637.977	42.43
638.308	42.6
638.639	42.42
638.969	42.59
639.3	42.77
639.63	41.93
639.961	42.59
640.291	42.78
640.622	42.65
640.952	42.56
641.282	42.83
641.612	42.55
641.943	42.65
642.273	42.54
642.603	42.52
642.933	42.36
643.263	43.03
643.592	42.59
643.922	42.53
644.252	42.81
644.582	43.09
644.911	42.82
645.241	43.51
645.571	43.06
645.9	42.88
646.23	43.05
646.559	43.02
646.888	43
647.218	43.8
647.547	43.38
647.876	43.72
648.205	43.7
648.534	43.58
648.863	43.44
649.192	43.84
649.521	43.32
649.85	43.66
650.179	43.7
650.508	43.17
650.837	43.56
651.165	43.53
651.494	43.62
651.822	43.31
652.151	44.03
652.479	44.04
652.808	44.1
653.136	43.64
653.465	43.9
653.793	43.95
654.121	44.25
654.449	43.39
654.777	43.66
655.105	44.15
655.433	43.38
655.761	43.95
656.089	43.67
656.417	44.09
656.745	43.63
657.073	44.06
657.4	43.57
657.728	44.28
658.056	43.69
658.383	43.81
658.711	44.03
659.038	43.79
659.365	44.82
659.693	43.93
660.02	44.23
660.347	44.14
660.674	44.51
661.001	44.55
661.329	44.38
661.656	44.08
661.982	44.68
662.309	44.65
662.636	44.11
662.963	44.68
663.29	44.93
663.616	45.42
663.943	44.9
664.27	44.29
664.596	44.48
664.923	44.43
665.249	45.14
665.576	44.64
665.902	44.85
666.228	44.37
666.554	44.97
666.881	44.96
667.207	44.54
667.533	45.11
667.859	44.82
668.185	44.92
668.511	44.91
668.837	44.78
669.162	45.23
669.488	45.5
669.814	45.01
670.139	45.16
670.465	45.97
670.791	45.75
671.116	45.65
671.442	45.7
671.767	45.68
672.092	45.21
672.418	45.89
