Data from 815656_forehead_Reflection__3__102.txt Node

Date: Fri Sep 16 15:28:41 CDT 2022
User: ToomeyLab
Spectrometer: FLMS14357
Trigger mode: 0
Integration Time (sec): 1.000000E-2
Scans to average: 100
Electric dark correction enabled: true
Nonlinearity correction enabled: false
Boxcar width: 0
XAxis mode: Wavelengths
Number of Pixels in Spectrum: 2048
>>>>>Begin Spectral Data<<<<<
189.047	1452.45
189.435	1452.45
189.823	1452.45
190.211	144.93
190.599	447.15
190.987	286.23
191.375	62.32
191.763	119.31
192.151	-79.36
192.538	55.9
192.926	-1021.02
193.314	174.1
193.702	37.16
194.089	257.17
194.477	129.17
194.864	11.63
195.252	15.84
195.639	-37.35
196.027	39.59
196.414	-8734.78
196.801	48.48
197.189	137.6
197.576	-83.96
197.963	327.01
198.351	-61.08
198.738	3.02
199.125	44.96
199.512	619.24
199.899	16.99
200.286	15.09
200.673	-75.41
201.06	38.67
201.447	63.97
201.833	7.08
202.22	13.6
202.607	-16.8
202.994	43.48
203.38	8.24
203.767	-11.55
204.154	38.7
204.54	19.7
204.927	0.49
205.313	22.21
205.699	34.79
206.086	-18.98
206.472	9.52
206.858	6.95
207.245	-0.99
207.631	38.47
208.017	26.07
208.403	5.67
208.789	13.52
209.175	52.37
209.561	8.59
209.947	-13.33
210.333	-4.51
210.719	-17.72
211.105	36.93
211.491	7.4
211.876	45.78
212.262	6.17
212.648	-16.18
213.034	-15.34
213.419	-31.56
213.805	33.18
214.19	45.29
214.576	-3.2
214.961	-15.48
215.346	-51.98
215.732	-7.19
216.117	12.29
216.502	26.57
216.888	4.77
217.273	-23.79
217.658	-1.83
218.043	-94.07
218.428	-4.45
218.813	-28.14
219.198	-9.63
219.583	-11.17
219.968	8.21
220.353	-29
220.738	16.19
221.122	-15.29
221.507	10.41
221.892	13.87
222.276	20.25
222.661	9.67
223.046	7.47
223.43	1.84
223.815	-9.75
224.199	-0.34
224.583	9.62
224.968	6.05
225.352	0.47
225.736	20.47
226.121	10.21
226.505	3.16
226.889	2.68
227.273	6.47
227.657	3.87
228.041	3.03
228.425	-5.57
228.809	5.09
229.193	0.02
229.577	0.64
229.961	1.52
230.344	2.51
230.728	1.12
231.112	1.6
231.495	0.42
231.879	0.75
232.263	1.23
232.646	0.25
233.03	1.37
233.413	2.42
233.797	-0.62
234.18	1.42
234.563	1.2
234.946	1.77
235.33	1.66
235.713	2.33
236.096	0.71
236.479	1.51
236.862	1.99
237.245	1.47
237.628	3.62
238.011	2.85
238.394	2.01
238.777	1.96
239.16	1.11
239.543	3.53
239.925	2.1
240.308	0.95
240.691	2.35
241.073	0.49
241.456	0.75
241.838	1.88
242.221	1.64
242.603	1.13
242.986	1.44
243.368	1.29
243.75	0.94
244.133	1.75
244.515	1.16
244.897	1.87
245.279	1.42
245.661	1.61
246.043	2.25
246.425	0.95
246.807	2.64
247.189	1.31
247.571	0.57
247.953	1.32
248.335	1.51
248.717	1.3
249.098	1.33
249.48	1.39
249.862	1.33
250.243	1.13
250.625	1.26
251.006	1.3
251.388	2.15
251.769	0.6
252.151	1.07
252.532	0.86
252.913	1.28
253.295	1.56
253.676	1.5
254.057	1.12
254.438	0.75
254.819	0.29
255.2	0.25
255.581	1.75
255.962	1.3
256.343	1.1
256.724	1.23
257.105	1.31
257.486	0.93
257.867	0.76
258.247	1.61
258.628	2.2
259.009	1.57
259.389	1.69
259.77	0.54
260.15	1.27
260.531	1.37
260.911	1.33
261.292	1.06
261.672	1.27
262.052	1.17
262.432	1.48
262.813	2.11
263.193	1.49
263.573	1.33
263.953	1.57
264.333	1.99
264.713	1.37
265.093	1.05
265.473	1.01
265.853	1.87
266.233	0.8
266.612	1.83
266.992	0.82
267.372	1.07
267.752	1.29
268.131	1.41
268.511	1.55
268.89	2.09
269.27	0.85
269.649	0.93
270.029	1.59
270.408	1.92
270.787	1.12
271.167	1.38
271.546	2
271.925	1.58
272.304	1.76
272.683	0.95
273.062	1.46
273.441	1.47
273.82	1.1
274.199	1.65
274.578	1.48
274.957	1.44
275.336	1.51
275.715	1.51
276.093	1.41
276.472	1.46
276.851	1.32
277.229	1.11
277.608	1.46
277.986	1.53
278.365	0.97
278.743	1.16
279.122	1.08
279.5	0.86
279.878	1.81
280.257	1.51
280.635	1.82
281.013	1.23
281.391	1.84
281.769	1.7
282.147	1.5
282.525	1.27
282.903	1.54
283.281	1.27
283.659	1.49
284.037	1.29
284.415	1.42
284.792	1.86
285.17	1.66
285.548	1.02
285.925	1.24
286.303	1.34
286.68	1.26
287.058	1.21
287.435	1.26
287.813	1.87
288.19	1.46
288.567	1.33
288.945	1.42
289.322	1.69
289.699	1.51
290.076	1.33
290.453	1.89
290.83	1.64
291.207	1.38
291.584	1.26
291.961	1.29
292.338	1.89
292.715	1.12
293.092	1.76
293.469	1.71
293.845	1.65
294.222	1.66
294.599	1.58
294.975	1.32
295.352	1.67
295.728	1.51
296.105	1.88
296.481	1.4
296.858	1.69
297.234	1.98
297.61	1.83
297.986	1.71
298.363	1.79
298.739	1.43
299.115	1.82
299.491	1.84
299.867	1.62
300.243	1.7
300.619	1.72
300.995	1.89
301.371	1.97
301.746	1.62
302.122	2
302.498	1.83
302.874	1.95
303.249	1.82
303.625	2.15
304	1.89
304.376	1.25
304.751	1.93
305.127	1.9
305.502	2.18
305.878	2.18
306.253	2.26
306.628	1.66
307.003	2.32
307.378	2.18
307.754	2.43
308.129	2.55
308.504	2.74
308.879	2.78
309.254	1.94
309.629	1.88
310.003	2.03
310.378	1.88
310.753	1.99
311.128	2.43
311.502	1.97
311.877	2.2
312.252	2.36
312.626	2.4
313.001	2.27
313.375	2.58
313.75	2.39
314.124	2.51
314.498	2.14
314.873	2.67
315.247	2.26
315.621	2.56
315.995	2.09
316.369	2.43
316.743	2.81
317.117	2.36
317.491	2.58
317.865	2.34
318.239	2.49
318.613	2.34
318.987	2.35
319.361	2.05
319.734	2.96
320.108	2.36
320.482	3.1
320.855	2.77
321.229	2.46
321.602	3.2
321.976	2.81
322.349	2.79
322.723	2.61
323.096	2.32
323.469	2.9
323.843	3.21
324.216	2.9
324.589	3.15
324.962	2.97
325.335	3.15
325.708	2.86
326.081	3.18
326.454	3.47
326.827	2.94
327.2	2.98
327.573	2.69
327.945	2.85
328.318	2.88
328.691	3.19
329.063	3.34
329.436	2.83
329.809	2.42
330.181	3.59
330.553	3.25
330.926	3.03
331.298	3.33
331.671	3.16
332.043	2.85
332.415	3.34
332.787	3.31
333.159	2.74
333.532	3.55
333.904	3.58
334.276	3.07
334.648	3.15
335.02	3.83
335.391	3.83
335.763	3.31
336.135	2.45
336.507	3.6
336.879	3.67
337.25	3.09
337.622	3.33
337.993	3.71
338.365	3.37
338.736	3.77
339.108	3.93
339.479	3.84
339.851	3.31
340.222	3.23
340.593	3.61
340.964	3.58
341.336	3.69
341.707	3.46
342.078	3.91
342.449	3.76
342.82	3.36
343.191	3.81
343.562	4.12
343.933	3.99
344.303	4.17
344.674	3.33
345.045	4.16
345.416	3.75
345.786	4.15
346.157	4.21
346.527	4.14
346.898	3.83
347.268	3.71
347.639	3.38
348.009	4.24
348.38	4.29
348.75	3.54
349.12	3.81
349.49	4.3
349.861	4.55
350.231	4.15
350.601	4.09
350.971	3.93
351.341	4.24
351.711	4.08
352.081	3.9
352.45	4.38
352.82	4.33
353.19	4.14
353.56	4.56
353.929	4.65
354.299	4.11
354.669	4.16
355.038	4.13
355.408	4.59
355.777	4.39
356.147	4.23
356.516	4.32
356.885	4.38
357.254	4.49
357.624	4.16
357.993	4.48
358.362	4.37
358.731	4.42
359.1	4.35
359.469	4.34
359.838	4.39
360.207	4.75
360.576	4.63
360.945	4.62
361.314	4.56
361.682	4.4
362.051	4.68
362.42	4.71
362.788	4.92
363.157	4.6
363.525	4.35
363.894	4.71
364.262	4.81
364.631	4.93
364.999	4.71
365.367	4.8
365.735	5.03
366.104	5.2
366.472	5.26
366.84	5.09
367.208	5.2
367.576	4.83
367.944	5.02
368.312	4.8
368.68	5.02
369.048	5.3
369.416	4.98
369.783	5.01
370.151	5.38
370.519	5.18
370.886	5.24
371.254	5.14
371.621	5.43
371.989	5.47
372.356	5.36
372.724	5.45
373.091	5.35
373.458	5.06
373.826	4.99
374.193	5.74
374.56	5.02
374.927	5.64
375.294	5.35
375.661	5.26
376.028	5.55
376.395	5.35
376.762	6.05
377.129	5.25
377.496	5.8
377.863	5.54
378.229	5.96
378.596	5.41
378.963	5.77
379.329	5.43
379.696	5.92
380.062	5.81
380.429	5.85
380.795	5.84
381.161	5.96
381.528	6.13
381.894	5.78
382.26	5.88
382.626	5.93
382.993	5.84
383.359	5.84
383.725	5.79
384.091	5.86
384.457	5.52
384.823	5.87
385.188	5.96
385.554	5.8
385.92	6.01
386.286	6.14
386.651	6.11
387.017	6.22
387.383	5.97
387.748	5.76
388.114	6.09
388.479	6.2
388.845	6.22
389.21	6.67
389.575	5.91
389.94	6.25
390.306	6.32
390.671	6.11
391.036	6.45
391.401	6.46
391.766	6.47
392.131	6.45
392.496	6.12
392.861	6.31
393.226	6.52
393.591	6.33
393.956	6.7
394.32	6.75
394.685	6.37
395.05	6.87
395.414	6.47
395.779	6.43
396.143	6.69
396.508	6.5
396.872	6.71
397.236	6.62
397.601	6.49
397.965	6.34
398.329	6.74
398.694	6.89
399.058	6.96
399.422	6.61
399.786	6.92
400.15	6.95
400.514	6.8
400.878	7.2
401.242	6.87
401.605	6.72
401.969	6.91
402.333	7.04
402.697	7.14
403.06	7.28
403.424	6.99
403.787	7.27
404.151	7.08
404.514	6.99
404.878	7.01
405.241	6.91
405.604	7.23
405.968	7.14
406.331	7.21
406.694	7.19
407.057	7.28
407.42	7.04
407.783	7.39
408.146	7.47
408.509	7.38
408.872	7.43
409.235	7.53
409.598	7.34
409.961	7.42
410.323	7.61
410.686	7.73
411.049	7.6
411.411	7.49
411.774	7.47
412.136	7.38
412.499	7.62
412.861	7.76
413.223	7.9
413.586	7.65
413.948	7.85
414.31	7.92
414.672	7.68
415.035	7.94
415.397	7.62
415.759	7.89
416.121	7.8
416.483	7.78
416.845	7.8
417.206	8.03
417.568	8.13
417.93	7.98
418.292	7.82
418.653	7.79
419.015	7.76
419.377	7.98
419.738	7.71
420.1	7.89
420.461	7.86
420.822	7.82
421.184	8.04
421.545	7.93
421.906	7.98
422.267	7.89
422.629	7.81
422.99	7.81
423.351	7.98
423.712	8.01
424.073	8.08
424.434	8.08
424.795	8.14
425.155	8.02
425.516	8.1
425.877	8.06
426.238	8.13
426.598	8.19
426.959	8.26
427.32	8.25
427.68	8.41
428.041	8.37
428.401	8.39
428.761	8.73
429.122	8.61
429.482	8.45
429.842	8.63
430.202	8.73
430.563	8.73
430.923	8.74
431.283	9
431.643	8.9
432.003	8.79
432.363	8.92
432.722	8.9
433.082	8.88
433.442	8.86
433.802	8.83
434.161	8.66
434.521	8.79
434.881	8.85
435.24	8.83
435.6	8.96
435.959	8.95
436.319	8.88
436.678	9.06
437.037	8.9
437.396	9.16
437.756	9.2
438.115	9.12
438.474	9.09
438.833	9.14
439.192	9.21
439.551	9.14
439.91	9.25
440.269	9.25
440.628	9.08
440.987	9.23
441.345	9.11
441.704	9.2
442.063	9.25
442.421	9.17
442.78	9.16
443.138	9.33
443.497	9.52
443.855	9.44
444.214	9.28
444.572	9.58
444.93	9.5
445.288	9.65
445.647	9.52
446.005	9.5
446.363	9.47
446.721	9.53
447.079	9.48
447.437	9.47
447.795	9.45
448.153	9.54
448.51	9.5
448.868	9.57
449.226	9.73
449.584	9.71
449.941	9.64
450.299	9.82
450.656	9.94
451.014	9.9
451.371	9.95
451.729	9.89
452.086	9.93
452.443	10.04
452.801	10.29
453.158	10.03
453.515	10.14
453.872	9.98
454.229	10.03
454.586	10.2
454.943	10.1
455.3	10.5
455.657	10.18
456.014	10.31
456.371	10.22
456.727	10.3
457.084	10.52
457.441	10.42
457.797	10.42
458.154	10.49
458.51	10.41
458.867	10.48
459.223	10.47
459.58	10.54
459.936	10.41
460.292	10.46
460.648	10.42
461.005	10.38
461.361	10.24
461.717	10.33
462.073	10.5
462.429	10.72
462.785	10.75
463.141	10.91
463.496	11.03
463.852	10.98
464.208	10.98
464.564	10.99
464.919	10.97
465.275	11.15
465.631	11.01
465.986	11.02
466.342	11.14
466.697	11.1
467.052	11.16
467.408	11.14
467.763	11.06
468.118	11.17
468.473	11.19
468.829	11.15
469.184	11.14
469.539	11.4
469.894	11.2
470.249	11.48
470.603	11.47
470.958	11.41
471.313	11.72
471.668	11.44
472.023	11.42
472.377	11.54
472.732	11.54
473.086	11.68
473.441	11.61
473.795	11.52
474.15	11.52
474.504	11.77
474.859	11.6
475.213	11.66
475.567	11.67
475.921	11.73
476.275	11.86
476.63	11.83
476.984	11.76
477.338	11.96
477.692	11.73
478.045	11.86
478.399	11.85
478.753	11.94
479.107	11.96
479.461	11.84
479.814	11.83
480.168	11.9
480.521	11.94
480.875	12.01
481.228	12.02
481.582	12.02
481.935	12.08
482.289	12.33
482.642	11.97
482.995	12.02
483.348	12.06
483.701	12.16
484.055	11.9
484.408	11.87
484.761	11.64
485.114	11.27
485.466	11.17
485.819	11.39
486.172	11.71
486.525	11.99
486.878	12.11
487.23	12.26
487.583	12.29
487.936	12.18
488.288	12.1
488.641	11.9
488.993	11.81
489.345	11.89
489.698	11.98
490.05	12.1
490.402	12.27
490.754	12.6
491.107	12.61
491.459	12.73
491.811	12.7
492.163	12.68
492.515	12.41
492.866	12.3
493.218	12.06
493.57	12.15
493.922	12.49
494.274	12.82
494.625	12.94
494.977	13.07
495.328	13.05
495.68	13.26
496.031	13.29
496.383	13.29
496.734	13.41
497.086	13.3
497.437	13.32
497.788	13.19
498.139	13.15
498.49	13.17
498.842	13.27
499.193	13.44
499.544	13.4
499.894	13.46
500.245	13.48
500.596	13.47
500.947	13.67
501.298	13.64
501.648	13.62
501.999	13.7
502.35	13.8
502.7	13.88
503.051	13.89
503.401	13.77
503.752	14.1
504.102	14.09
504.452	13.86
504.803	14
505.153	13.92
505.503	14.04
505.853	13.94
506.203	13.9
506.553	14.04
506.903	14.1
507.253	14.07
507.603	14.34
507.953	14.35
508.303	14.33
508.652	14.34
509.002	14.42
509.352	14.3
509.701	14.3
510.051	14.36
510.4	14.23
510.75	14.36
511.099	14.25
511.449	14.25
511.798	14.39
512.147	14.38
512.496	14.53
512.846	14.46
513.195	14.6
513.544	14.53
513.893	14.62
514.242	14.59
514.591	14.67
514.939	14.72
515.288	14.95
515.637	14.76
515.986	14.88
516.334	14.89
516.683	15.15
517.032	15.09
517.38	15.05
517.729	15.12
518.077	15.07
518.426	15.06
518.774	15
519.122	15.03
519.47	14.84
519.819	14.8
520.167	14.84
520.515	14.73
520.863	14.98
521.211	15.05
521.559	15.13
521.907	15.22
522.255	15.24
522.602	15.33
522.95	15.5
523.298	15.43
523.645	15.56
523.993	15.59
524.341	15.59
524.688	15.68
525.036	15.68
525.383	15.66
525.73	15.54
526.078	15.65
526.425	15.57
526.772	15.36
527.119	15.22
527.466	15.37
527.814	15.44
528.161	15.66
528.508	15.72
528.854	15.66
529.201	15.46
529.548	15.32
529.895	15.02
530.242	14.85
530.588	14.98
530.935	15.35
531.282	15.63
531.628	15.82
531.975	15.89
532.321	15.91
532.667	16.17
533.014	16.13
533.36	16.03
533.706	16.03
534.052	16.13
534.399	15.94
534.745	15.69
535.091	15.67
535.437	15.78
535.783	16.22
536.129	16.36
536.474	16.46
536.82	16.48
537.166	16.7
537.512	16.63
537.857	16.51
538.203	16.26
538.549	16.29
538.894	16.51
539.239	16.73
539.585	16.89
539.93	16.81
540.276	17.06
540.621	16.98
540.966	17.04
541.311	17.1
541.656	17.01
542.001	16.71
542.346	16.52
542.691	16.35
543.036	16.13
543.381	16.34
543.726	16.68
544.071	16.98
544.415	17.05
544.76	17.11
545.105	16.99
545.449	17.18
545.794	17.44
546.138	17.46
546.483	17.6
546.827	17.61
547.171	17.48
547.516	17.51
547.86	17.37
548.204	17.47
548.548	17.44
548.892	17.37
549.236	17.71
549.58	17.86
549.924	18.07
550.268	18.04
550.612	18.08
550.956	17.95
551.3	18.09
551.643	18.17
551.987	18.33
552.33	18.3
552.674	18.21
553.017	18.42
553.361	18.45
553.704	18.55
554.048	18.31
554.391	18.23
554.734	18.37
555.077	18.47
555.42	18.5
555.764	18.72
556.107	18.8
556.45	18.6
556.793	18.95
557.135	18.7
557.478	18.79
557.821	18.71
558.164	19.03
558.507	19.03
558.849	18.84
559.192	18.86
559.534	19.14
559.877	19.02
560.219	19.03
560.562	19.16
560.904	19.09
561.246	19.21
561.589	19.32
561.931	19.57
562.273	19.25
562.615	19.28
562.957	19.55
563.299	19.41
563.641	19.58
563.983	19.6
564.325	19.58
564.667	19.56
565.008	19.43
565.35	19.61
565.692	19.51
566.033	19.55
566.375	19.58
566.716	19.67
567.058	19.62
567.399	19.8
567.741	19.57
568.082	19.74
568.423	19.73
568.764	19.62
569.105	19.95
569.447	20.07
569.788	20.1
570.129	20.21
570.47	20.12
570.811	20.22
571.151	20.16
571.492	19.97
571.833	20.09
572.174	20.24
572.514	20.27
572.855	20.3
573.195	20.1
573.536	20.22
573.876	20.25
574.217	20.16
574.557	20.3
574.898	20.52
575.238	20.36
575.578	20.57
575.918	20.77
576.258	20.67
576.598	20.48
576.938	20.56
577.278	20.29
577.618	20.79
577.958	20.95
578.298	20.82
578.638	20.91
578.977	20.95
579.317	20.99
579.657	21.05
579.996	21.27
580.336	21.06
580.675	21
581.014	21.29
581.354	21.39
581.693	21.28
582.032	21.63
582.372	21.38
582.711	21.65
583.05	21.57
583.389	21.44
583.728	21.56
584.067	21.65
584.406	21.79
584.745	21.69
585.083	21.68
585.422	21.81
585.761	21.98
586.1	21.68
586.438	21.75
586.777	21.52
587.115	22.06
587.454	22.03
587.792	21.82
588.13	21.98
588.469	22.04
588.807	21.8
589.145	22.05
589.483	22.12
589.821	22.14
590.159	22.12
590.497	22.22
590.835	22.22
591.173	22.26
591.511	22.12
591.849	22.07
592.187	22.44
592.524	22.31
592.862	22.49
593.2	22.31
593.537	22.56
593.875	22.66
594.212	22.52
594.55	22.49
594.887	22.83
595.224	22.47
595.561	22.48
595.899	22.54
596.236	22.59
596.573	22.62
596.91	22.96
597.247	22.63
597.584	22.86
597.921	22.74
598.258	22.5
598.594	22.53
598.931	22.71
599.268	22.64
599.604	22.83
599.941	23
600.277	23.14
600.614	23.25
600.95	23.27
601.287	23.24
601.623	23.31
601.959	23.28
602.296	23.31
602.632	23.29
602.968	23.34
603.304	23.31
603.64	23.41
603.976	23.39
604.312	23.16
604.648	23.34
604.984	23.24
605.319	23.35
605.655	23.67
605.991	23.38
606.326	23.36
606.662	23.24
606.998	23.51
607.333	23.62
607.668	23.89
608.004	23.56
608.339	23.81
608.674	24
609.01	23.83
609.345	23.96
609.68	23.95
610.015	23.93
610.35	24.07
610.685	24.14
611.02	23.84
611.355	24.05
611.689	24.02
612.024	24.03
612.359	24.37
612.694	24.26
613.028	24.42
613.363	24.29
613.697	24.58
614.032	24.58
614.366	24.56
614.7	24.78
615.035	24.79
615.369	24.45
615.703	24.66
616.037	24.71
616.371	24.92
616.705	24.77
617.039	24.83
617.373	24.72
617.707	24.86
618.041	25.16
618.375	24.98
618.709	25.03
619.042	24.83
619.376	25.05
619.71	25.25
620.043	25.16
620.377	25.25
620.71	25.38
621.043	25.11
621.377	25.39
621.71	25.28
622.043	24.98
622.376	25.32
622.709	25.54
623.043	25.3
623.376	24.97
623.709	25.13
624.041	25.73
624.374	25.42
624.707	25.46
625.04	25.87
625.373	25.54
625.705	25.89
626.038	25.68
626.37	25.8
626.703	25.31
627.035	25.78
627.368	25.88
627.7	25.93
628.032	25.57
628.365	25.42
628.697	25.59
629.029	26.05
629.361	25.87
629.693	25.78
630.025	26.04
630.357	26.25
630.689	26.06
631.021	26.21
631.353	25.95
631.684	26.22
632.016	26.17
632.348	26.38
632.679	25.81
633.011	26.14
633.342	26.26
633.674	26.53
634.005	26.32
634.336	26.53
634.668	26.33
634.999	26.21
635.33	26.52
635.661	26.44
635.992	26.52
636.323	26.32
636.654	26.47
636.985	26.85
637.316	26.83
637.647	26.7
637.977	26.35
638.308	26.94
638.639	26.95
638.969	27.06
639.3	27.04
639.63	26.71
639.961	27.06
640.291	27.38
640.622	27.45
640.952	27.05
641.282	27.41
641.612	27.41
641.943	26.79
642.273	27.21
642.603	27.47
642.933	26.81
643.263	26.86
643.592	27.48
643.922	26.97
644.252	27.61
644.582	27.63
644.911	27.22
645.241	27.99
645.571	27.58
645.9	27.61
646.23	27.61
646.559	27.67
646.888	27.64
647.218	27.53
647.547	27.7
647.876	28.32
648.205	27.91
648.534	27.61
648.863	27.88
649.192	27.81
649.521	27.74
649.85	28.37
650.179	27.7
650.508	27.74
650.837	27.85
651.165	27.38
651.494	28.22
651.822	27.5
652.151	27.93
652.479	28.23
652.808	28.33
653.136	28.02
653.465	27.88
653.793	28.5
654.121	28.45
654.449	27.99
654.777	28.36
655.105	28.08
655.433	27.82
655.761	28.86
656.089	28.17
656.417	28.19
656.745	28.16
657.073	28.49
657.4	28.21
657.728	29.1
658.056	28.45
658.383	28.53
658.711	28.36
659.038	28.39
659.365	28.74
659.693	28.72
660.02	29.06
660.347	28.76
660.674	28.25
661.001	28.84
661.329	28.53
661.656	28.7
661.982	28.78
662.309	28.96
662.636	28.92
662.963	29.23
663.29	28.84
663.616	29.68
663.943	29.42
664.27	28.75
664.596	29.11
664.923	28.73
665.249	29.64
665.576	28.78
665.902	29.14
666.228	29.08
666.554	29.3
666.881	29.71
667.207	29.07
667.533	28.81
667.859	29.85
668.185	29.92
668.511	29.6
668.837	29.42
669.162	29.36
669.488	30.02
669.814	29.39
670.139	29.98
670.465	29.66
670.791	28.82
671.116	29.76
671.442	29.62
671.767	29.76
672.092	30.02
672.418	30.26
672.743	29.64
673.068	29.93
673.393	29.7
673.718	30.29
674.043	30.4
674.368	30.22
674.693	30.39
675.018	29.88
675.343	29.91
675.667	29.94
675.992	29.92
676.317	29.65
676.641	29.99
