Data from 815656_crown_Reflection__3__107.txt Node

Date: Fri Sep 16 15:30:27 CDT 2022
User: ToomeyLab
Spectrometer: FLMS14357
Trigger mode: 0
Integration Time (sec): 1.000000E-2
Scans to average: 100
Electric dark correction enabled: true
Nonlinearity correction enabled: false
Boxcar width: 0
XAxis mode: Wavelengths
Number of Pixels in Spectrum: 2048
>>>>>Begin Spectral Data<<<<<
189.047	-210.57
189.435	-210.57
189.823	-210.57
190.211	125.86
190.599	172.85
190.987	208.4
191.375	97.17
191.763	31.66
192.151	119.41
192.538	29.19
192.926	-180.47
193.314	24.4
193.702	152.59
194.089	224.05
194.477	-45.5
194.864	122.91
195.252	1.32
195.639	172.24
196.027	39.38
196.414	-26860.87
196.801	102.56
197.189	117.27
197.576	9.26
197.963	235.56
198.351	-42.15
198.738	26.16
199.125	33.26
199.512	834.36
199.899	10.52
200.286	-18.49
200.673	11.86
201.06	16.42
201.447	3.45
201.833	37.13
202.22	8.87
202.607	-39.91
202.994	32.75
203.38	-6.89
203.767	0.58
204.154	48.49
204.54	14.02
204.927	-3.59
205.313	11.26
205.699	37.87
206.086	-0.78
206.472	27.09
206.858	-11.42
207.245	42.59
207.631	-10.9
208.017	10.59
208.403	-29.88
208.789	-1.45
209.175	17.54
209.561	13.83
209.947	24.2
210.333	8.08
210.719	3.66
211.105	51.8
211.491	-29.05
211.876	7.98
212.262	-7.09
212.648	-6.5
213.034	-3.24
213.419	-3.61
213.805	15.94
214.19	9.55
214.576	2.99
214.961	-24.82
215.346	-19.98
215.732	-3.08
216.117	33.82
216.502	-35.17
216.888	-50.43
217.273	-4.56
217.658	-16.61
218.043	-160.61
218.428	15.96
218.813	-2.96
219.198	4.22
219.583	-8.21
219.968	10.44
220.353	-17.23
220.738	-5.17
221.122	-11.3
221.507	19.01
221.892	-19.7
222.276	10.79
222.661	9.55
223.046	22.97
223.43	5.57
223.815	-9.18
224.199	8.29
224.583	2.67
224.968	9.85
225.352	12.31
225.736	11.28
226.121	6.46
226.505	15.24
226.889	3.55
227.273	5.45
227.657	5.28
228.041	5.49
228.425	-4.32
228.809	11.22
229.193	4
229.577	6.26
229.961	4.06
230.344	6.11
230.728	6.12
231.112	6.05
231.495	5.33
231.879	6.42
232.263	5.18
232.646	4.74
233.03	6.65
233.413	6.36
233.797	5.54
234.18	6.15
234.563	4.48
234.946	5.1
235.33	4.97
235.713	5.35
236.096	6.49
236.479	5.79
236.862	3.52
237.245	5.88
237.628	6.71
238.011	6.18
238.394	5.35
238.777	6.14
239.16	5.19
239.543	6.6
239.925	4.42
240.308	4.62
240.691	6.22
241.073	4.49
241.456	4.87
241.838	4.89
242.221	5.14
242.603	5.9
242.986	4.6
243.368	5.02
243.75	5.19
244.133	5.68
244.515	5.35
244.897	5.99
245.279	5.34
245.661	5.34
246.043	5.89
246.425	5.91
246.807	5.79
247.189	5.52
247.571	4.94
247.953	5.4
248.335	5.42
248.717	5.41
249.098	5.55
249.48	5.53
249.862	5.5
250.243	5.23
250.625	5.8
251.006	6.17
251.388	6.07
251.769	4.98
252.151	5.74
252.532	5
252.913	6.32
253.295	5.63
253.676	5.66
254.057	5.65
254.438	5.19
254.819	4.73
255.2	4.84
255.581	5.37
255.962	5.47
256.343	5.45
256.724	4.74
257.105	4.7
257.486	4.62
257.867	4.52
258.247	5.11
258.628	5.35
259.009	5.4
259.389	5.05
259.77	4.71
260.15	5.64
260.531	4.99
260.911	4.98
261.292	4.8
261.672	4.9
262.052	5.07
262.432	5.28
262.813	5.48
263.193	5.14
263.573	5.36
263.953	5.92
264.333	5.9
264.713	5.35
265.093	5.25
265.473	4.53
265.853	5.75
266.233	5.11
266.612	6.39
266.992	4.29
267.372	5.2
267.752	4.91
268.131	5.28
268.511	5.52
268.89	5.49
269.27	4.57
269.649	4.84
270.029	5.25
270.408	5.17
270.787	5.16
271.167	5.44
271.546	5.46
271.925	5.08
272.304	5.21
272.683	4.6
273.062	4.97
273.441	5.16
273.82	5.15
274.199	4.96
274.578	5.11
274.957	5.14
275.336	5.09
275.715	5.38
276.093	5.67
276.472	4.83
276.851	5.26
277.229	4.59
277.608	5.18
277.986	5.26
278.365	4.64
278.743	5.09
279.122	4.89
279.5	4.63
279.878	4.8
280.257	4.48
280.635	5.15
281.013	4.61
281.391	5.46
281.769	4.74
282.147	4.89
282.525	4.4
282.903	5.53
283.281	4.5
283.659	4.96
284.037	4.78
284.415	5.02
284.792	5.47
285.17	4.71
285.548	4.22
285.925	4.6
286.303	4.85
286.68	4.56
287.058	4.26
287.435	4.6
287.813	5.27
288.19	4.33
288.567	4.7
288.945	4.5
289.322	4.89
289.699	4.39
290.076	4.82
290.453	4.66
290.83	5.08
291.207	4.52
291.584	4.33
291.961	4.49
292.338	4.74
292.715	4.22
293.092	4.65
293.469	4.68
293.845	4.23
294.222	4.64
294.599	4.21
294.975	4.55
295.352	4.92
295.728	4.49
296.105	4.74
296.481	4.72
296.858	4.47
297.234	4.09
297.61	5.05
297.986	4.56
298.363	4.29
298.739	4.43
299.115	4.42
299.491	4.51
299.867	4.25
300.243	4.34
300.619	4.85
300.995	4.27
301.371	4.48
301.746	4.3
302.122	4.59
302.498	4.38
302.874	4.03
303.249	4.47
303.625	4.07
304	4.32
304.376	3.95
304.751	4.61
305.127	4.38
305.502	4.08
305.878	4.15
306.253	4.71
306.628	4.66
307.003	4.71
307.378	4.42
307.754	4.59
308.129	4.74
308.504	4.44
308.879	4.25
309.254	3.81
309.629	4.06
310.003	4.12
310.378	3.73
310.753	4.08
311.128	4.1
311.502	3.68
311.877	4.04
312.252	4.06
312.626	4.11
313.001	3.96
313.375	4.54
313.75	4.26
314.124	4.25
314.498	4.29
314.873	4.47
315.247	3.74
315.621	4.14
315.995	3.86
316.369	4.22
316.743	4.07
317.117	3.93
317.491	4.05
317.865	4.34
318.239	4.02
318.613	4.27
318.987	3.77
319.361	3.8
319.734	3.96
320.108	4.02
320.482	4.29
320.855	3.96
321.229	3.86
321.602	4.57
321.976	3.96
322.349	3.67
322.723	4.09
323.096	3.62
323.469	3.81
323.843	4.09
324.216	4.51
324.589	4.03
324.962	4.03
325.335	4.29
325.708	3.94
326.081	4.06
326.454	4.36
326.827	3.85
327.2	4.38
327.573	3.89
327.945	4.2
328.318	3.79
328.691	3.98
329.063	3.56
329.436	3.5
329.809	3.17
330.181	3.81
330.553	3.64
330.926	3.97
331.298	4.24
331.671	3.69
332.043	3.74
332.415	3.67
332.787	3.87
333.159	4.01
333.532	4.22
333.904	3.98
334.276	3.92
334.648	4.02
335.02	4.21
335.391	3.95
335.763	3.53
336.135	3.08
336.507	4.09
336.879	4.2
337.25	3.75
337.622	4.53
337.993	3.88
338.365	3.85
338.736	4.07
339.108	3.9
339.479	4.2
339.851	3.49
340.222	3.87
340.593	4
340.964	4.1
341.336	3.73
341.707	3.63
342.078	3.96
342.449	3.82
342.82	3.67
343.191	3.66
343.562	4.02
343.933	4.05
344.303	4.19
344.674	3.43
345.045	4.42
345.416	3.59
345.786	4.03
346.157	3.93
346.527	4.1
346.898	3.81
347.268	3.92
347.639	3.78
348.009	3.71
348.38	3.74
348.75	3.44
349.12	4.04
349.49	3.91
349.861	3.95
350.231	3.74
350.601	3.86
350.971	3.85
351.341	4.32
351.711	4.08
352.081	3.63
352.45	3.91
352.82	4.13
353.19	3.68
353.56	4.02
353.929	3.95
354.299	4.03
354.669	4.12
355.038	3.87
355.408	4.14
355.777	3.62
356.147	3.88
356.516	4.3
356.885	3.87
357.254	3.91
357.624	4
357.993	3.84
358.362	3.78
358.731	4.34
359.1	4.1
359.469	3.71
359.838	3.91
360.207	3.93
360.576	4.02
360.945	4.03
361.314	3.86
361.682	3.5
362.051	4.03
362.42	4.12
362.788	4.15
363.157	3.93
363.525	3.85
363.894	4.22
364.262	3.93
364.631	3.85
364.999	3.82
365.367	3.96
365.735	4.14
366.104	4.1
366.472	3.98
366.84	3.91
367.208	4.28
367.576	3.9
367.944	3.74
368.312	3.88
368.68	4.04
369.048	4.53
369.416	3.89
369.783	4.12
370.151	4.35
370.519	3.9
370.886	4.14
371.254	3.83
371.621	4.38
371.989	4
372.356	4.07
372.724	4.22
373.091	3.91
373.458	3.94
373.826	4.08
374.193	4.36
374.56	3.98
374.927	4.02
375.294	4.08
375.661	4.04
376.028	4.54
376.395	3.91
376.762	4.65
377.129	3.86
377.496	3.99
377.863	4.31
378.229	4.46
378.596	4
378.963	4.16
379.329	3.86
379.696	4.3
380.062	4.03
380.429	4.25
380.795	4.24
381.161	4.61
381.528	4.64
381.894	4.28
382.26	4.29
382.626	4.23
382.993	4.08
383.359	3.97
383.725	4.26
384.091	4.31
384.457	3.81
384.823	4.15
385.188	4.25
385.554	3.96
385.92	4.17
386.286	4.23
386.651	4.53
387.017	4.41
387.383	3.96
387.748	4.01
388.114	3.95
388.479	4.21
388.845	4.24
389.21	4.54
389.575	4.26
389.94	4.27
390.306	4.24
390.671	4.33
391.036	4.36
391.401	4.26
391.766	4.26
392.131	4.37
392.496	4.25
392.861	4.26
393.226	4.43
393.591	4.38
393.956	4.24
394.32	4.59
394.685	4.37
395.05	4.5
395.414	4.28
395.779	4.27
396.143	4.45
396.508	4.2
396.872	4.35
397.236	4.23
397.601	4.39
397.965	4.06
398.329	4.52
398.694	4.43
399.058	4.5
399.422	4.28
399.786	4.56
400.15	4.52
400.514	4.32
400.878	4.47
401.242	4.41
401.605	4.31
401.969	4.26
402.333	4.47
402.697	4.56
403.06	4.49
403.424	4.5
403.787	4.41
404.151	4.43
404.514	4.5
404.878	4.35
405.241	4.4
405.604	4.61
405.968	4.41
406.331	4.42
406.694	4.43
407.057	4.43
407.42	4.43
407.783	4.44
408.146	4.83
408.509	4.53
408.872	4.44
409.235	4.76
409.598	4.48
409.961	4.56
410.323	4.57
410.686	4.58
411.049	4.52
411.411	4.34
411.774	4.59
412.136	4.33
412.499	4.59
412.861	4.57
413.223	4.44
413.586	4.54
413.948	4.65
414.31	4.62
414.672	4.62
415.035	4.54
415.397	4.32
415.759	4.7
416.121	4.8
416.483	4.6
416.845	4.81
417.206	4.67
417.568	4.55
417.93	4.7
418.292	4.51
418.653	4.44
419.015	4.62
419.377	4.64
419.738	4.43
420.1	4.53
420.461	4.48
420.822	4.49
421.184	4.64
421.545	4.52
421.906	4.54
422.267	4.55
422.629	4.45
422.99	4.43
423.351	4.54
423.712	4.48
424.073	4.71
424.434	4.55
424.795	4.54
425.155	4.49
425.516	4.61
425.877	4.52
426.238	4.64
426.598	4.57
426.959	4.57
427.32	4.68
427.68	4.68
428.041	4.54
428.401	4.69
428.761	4.86
429.122	4.87
429.482	4.61
429.842	4.73
430.202	4.7
430.563	4.75
430.923	4.77
431.283	5.03
431.643	4.8
432.003	4.68
432.363	4.9
432.722	4.85
433.082	4.84
433.442	4.89
433.802	4.79
434.161	4.58
434.521	4.69
434.881	4.69
435.24	4.71
435.6	4.82
435.959	4.87
436.319	4.68
436.678	4.88
437.037	4.71
437.396	4.76
437.756	4.81
438.115	4.71
438.474	4.69
438.833	4.73
439.192	4.64
439.551	4.69
439.91	4.76
440.269	4.83
440.628	4.74
440.987	4.75
441.345	4.7
441.704	4.84
442.063	4.81
442.421	4.67
442.78	4.73
443.138	4.8
443.497	4.79
443.855	4.81
444.214	4.78
444.572	4.98
444.93	4.78
445.288	4.74
445.647	4.79
446.005	4.68
446.363	4.7
446.721	4.75
447.079	4.71
447.437	4.83
447.795	4.69
448.153	4.81
448.51	4.75
448.868	4.7
449.226	4.77
449.584	4.83
449.941	4.77
450.299	4.83
450.656	4.85
451.014	4.94
451.371	4.88
451.729	4.79
452.086	4.86
452.443	4.78
452.801	4.98
453.158	4.9
453.515	4.84
453.872	4.75
454.229	4.86
454.586	4.77
454.943	4.84
455.3	4.88
455.657	4.81
456.014	4.93
456.371	4.66
456.727	4.88
457.084	4.98
457.441	4.75
457.797	4.92
458.154	4.88
458.51	4.84
458.867	4.99
459.223	4.9
459.58	5.03
459.936	4.9
460.292	4.99
460.648	4.87
461.005	4.93
461.361	4.74
461.717	4.83
462.073	4.82
462.429	4.95
462.785	4.99
463.141	4.9
463.496	5.01
463.852	4.94
464.208	5.01
464.564	5.01
464.919	4.98
465.275	5.05
465.631	5
465.986	4.96
466.342	4.77
466.697	5.02
467.052	4.9
467.408	5.01
467.763	4.89
468.118	4.92
468.473	4.97
468.829	4.91
469.184	4.92
469.539	5.11
469.894	5.04
470.249	5.33
470.603	5.19
470.958	4.86
471.313	4.96
471.668	4.85
472.023	4.76
472.377	5.02
472.732	5.05
473.086	5.02
473.441	4.72
473.795	5.06
474.15	4.86
474.504	5.01
474.859	5
475.213	5.13
475.567	4.79
475.921	5.03
476.275	5.13
476.63	5.02
476.984	4.97
477.338	5.2
477.692	5.04
478.045	4.85
478.399	5.01
478.753	4.9
479.107	4.96
479.461	4.93
479.814	5.04
480.168	4.93
480.521	5.04
480.875	5.08
481.228	4.88
481.582	4.93
481.935	5.06
482.289	5.06
482.642	5.02
482.995	5.03
483.348	4.94
483.701	4.98
484.055	4.87
484.408	4.9
484.761	4.75
485.114	4.6
485.466	4.59
485.819	4.64
486.172	4.76
486.525	4.88
486.878	4.82
487.23	4.92
487.583	4.9
487.936	4.9
488.288	4.84
488.641	4.78
488.993	4.75
489.345	4.75
489.698	4.74
490.05	4.82
490.402	4.84
490.754	4.99
491.107	4.96
491.459	5
491.811	4.96
492.163	4.97
492.515	4.91
492.866	4.76
493.218	4.7
493.57	4.73
493.922	4.86
494.274	4.97
494.625	4.95
494.977	4.99
495.328	4.94
495.68	4.96
496.031	5.05
496.383	5.15
496.734	5.05
497.086	5.01
497.437	4.92
497.788	5.09
498.139	5
498.49	4.97
498.842	5.04
499.193	5.03
499.544	5.05
499.894	5.01
500.245	5.05
500.596	4.96
500.947	5.02
501.298	5.1
501.648	4.99
501.999	5.01
502.35	5.14
502.7	5.18
503.051	5.09
503.401	5.03
503.752	5.07
504.102	5.2
504.452	5.06
504.803	5.15
505.153	5.08
505.503	5.15
505.853	5.09
506.203	5.04
506.553	5.09
506.903	5.12
507.253	4.99
507.603	5.1
507.953	5.01
508.303	5.03
508.652	4.99
509.002	5.19
509.352	5.05
509.701	5.01
510.051	5.08
510.4	5.1
510.75	5.05
511.099	5.08
511.449	4.96
511.798	5.08
512.147	5
512.496	5.11
512.846	5.12
513.195	5.01
513.544	5.09
513.893	5.07
514.242	5.12
514.591	5.19
514.939	5.19
515.288	5.2
515.637	5.08
515.986	5.04
516.334	4.97
516.683	5.1
517.032	5.17
517.38	5.25
517.729	5.11
518.077	5.14
518.426	5.11
518.774	5.11
519.122	5.08
519.47	5.04
519.819	5.01
520.167	4.98
520.515	4.92
520.863	5.07
521.211	5.04
521.559	5.08
521.907	5.09
522.255	4.99
522.602	5.15
522.95	5.14
523.298	5.16
523.645	5.28
523.993	5.19
524.341	5.13
524.688	5.22
525.036	5.22
525.383	5.23
525.73	5.15
526.078	5.2
526.425	4.99
526.772	4.99
527.119	4.92
527.466	5.05
527.814	5.09
528.161	5.11
528.508	5.03
528.854	5.1
529.201	4.98
529.548	4.98
529.895	4.87
530.242	4.81
530.588	4.87
530.935	4.97
531.282	5.01
531.628	5.05
531.975	5.09
532.321	5.14
532.667	5.17
533.014	5.25
533.36	5.13
533.706	5.14
534.052	5.1
534.399	5.08
534.745	5.03
535.091	4.93
535.437	5.01
535.783	5.08
536.129	5.13
536.474	5.2
536.82	5.13
537.166	5.22
537.512	5.25
537.857	5.14
538.203	5.02
538.549	5.03
538.894	5.03
539.239	5.25
539.585	5.16
539.93	5.05
540.276	5.39
540.621	5.47
540.966	5.25
541.311	5.17
541.656	5.21
542.001	5.06
542.346	5.08
542.691	4.98
543.036	4.89
543.381	4.95
543.726	5.07
544.071	5.08
544.415	5.11
544.76	5.11
545.105	5.17
545.449	5.19
545.794	5.24
546.138	5.09
546.483	5.42
546.827	5.26
547.171	5.23
547.516	5.11
547.86	5.19
548.204	5.19
548.548	5.16
548.892	5.2
549.236	5.21
549.58	5.3
549.924	5.33
550.268	5.22
550.612	5.43
550.956	5.26
551.3	5.27
551.643	5.33
551.987	5.42
552.33	5.13
552.674	5.22
553.017	5.23
553.361	5.31
553.704	5.3
554.048	5.19
554.391	5.31
554.734	5.35
555.077	5.32
555.42	5.37
555.764	5.39
556.107	5.49
556.45	5.26
556.793	5.43
557.135	5.35
557.478	5.37
557.821	5.28
558.164	5.49
558.507	5.2
558.849	5.32
559.192	5.32
559.534	5.55
559.877	5.2
560.219	5.39
560.562	5.35
560.904	5.58
561.246	5.44
561.589	5.43
561.931	5.32
562.273	5.6
562.615	5.46
562.957	5.43
563.299	5.4
563.641	5.38
563.983	5.36
564.325	5.31
564.667	5.24
565.008	5.41
565.35	5.35
565.692	5.16
566.033	5.39
566.375	5.49
566.716	5.28
567.058	5.35
567.399	5.53
567.741	5.31
568.082	5.4
568.423	5.33
568.764	5.37
569.105	5.41
569.447	5.29
569.788	5.49
570.129	5.48
570.47	5.37
570.811	5.4
571.151	5.63
571.492	5.57
571.833	5.38
572.174	5.28
572.514	5.31
572.855	5.38
573.195	5.45
573.536	5.32
573.876	5.45
574.217	5.34
574.557	5.41
574.898	5.38
575.238	5.33
575.578	5.43
575.918	5.45
576.258	5.28
576.598	5.26
576.938	5.38
577.278	5.33
577.618	5.46
577.958	5.46
578.298	5.27
578.638	5.44
578.977	5.41
579.317	5.33
579.657	5.51
579.996	5.49
580.336	5.59
580.675	5.24
581.014	5.5
581.354	5.43
581.693	5.44
582.032	5.71
582.372	5.48
582.711	5.73
583.05	5.63
583.389	5.52
583.728	5.52
584.067	5.57
584.406	5.61
584.745	5.61
585.083	5.49
585.422	5.6
585.761	5.67
586.1	5.22
586.438	5.93
586.777	5.25
587.115	5.44
587.454	5.27
587.792	5.41
588.13	5.59
588.469	5.48
588.807	5.24
589.145	5.58
589.483	5.58
589.821	5.6
590.159	5.34
590.497	5.27
590.835	5.39
591.173	5.54
591.511	5.5
591.849	5.63
592.187	5.31
592.524	5.47
592.862	5.48
593.2	5.4
593.537	5.56
593.875	5.4
594.212	5.52
594.55	5.27
594.887	5.47
595.224	5.44
595.561	5.51
595.899	5.33
596.236	5.48
596.573	5.49
596.91	5.69
597.247	5.28
597.584	5.54
597.921	5.36
598.258	5.46
598.594	5.07
598.931	5.31
599.268	5.37
599.604	5.35
599.941	5.33
600.277	5.51
600.614	5.7
600.95	5.49
601.287	5.68
601.623	5.67
601.959	5.58
602.296	5.38
602.632	5.35
602.968	5.77
603.304	5.35
603.64	5.43
603.976	5.47
604.312	5.49
604.648	5.63
604.984	5.36
605.319	5.53
605.655	5.57
605.991	5.3
606.326	5.23
606.662	5.35
606.998	5.26
607.333	5.62
607.668	5.61
608.004	5.51
608.339	5.26
608.674	5.47
609.01	5.58
609.345	5.8
609.68	5.51
610.015	5.58
610.35	5.5
610.685	5.52
611.02	5.56
611.355	5.65
611.689	5.43
612.024	5.42
612.359	5.39
612.694	5.5
613.028	5.38
613.363	5.34
613.697	5.51
614.032	5.56
614.366	5.43
614.7	5.32
615.035	5.48
615.369	5.5
615.703	5.64
616.037	5.64
616.371	5.55
616.705	5.64
617.039	5.67
617.373	5.64
617.707	5.66
618.041	5.37
618.375	5.42
618.709	5.47
619.042	5.29
619.376	5.66
619.71	5.4
620.043	5.36
620.377	5.74
620.71	5.66
621.043	5.53
621.377	5.61
621.71	5.32
622.043	5.36
622.376	5.76
622.709	5.66
623.043	5.7
623.376	5.21
623.709	5.17
624.041	5.76
624.374	5.61
624.707	5.43
625.04	5.57
625.373	5.01
625.705	5.7
626.038	5.97
626.37	5.92
626.703	5.29
627.035	5.55
627.368	5.78
627.7	5.8
628.032	5.46
628.365	5.69
628.697	5.47
629.029	5.43
629.361	5.4
629.693	5.57
630.025	5.41
630.357	5.4
630.689	5.68
631.021	5.59
631.353	5.69
631.684	5.39
632.016	5.54
632.348	5.71
632.679	5.29
633.011	5.29
633.342	5.13
633.674	5.81
634.005	5.47
634.336	5.53
634.668	5.75
634.999	5.02
635.33	5.28
635.661	5.5
635.992	5.24
636.323	5.67
636.654	5.48
636.985	5.63
637.316	5.5
637.647	5.55
637.977	5.72
638.308	5.62
638.639	5.92
638.969	5.5
639.3	5.76
639.63	5.36
639.961	5.73
640.291	5.74
640.622	5.91
640.952	5.81
641.282	5.54
641.612	5.55
641.943	5.37
642.273	5.21
642.603	5.64
642.933	5.39
643.263	5.38
643.592	5.17
643.922	5.44
644.252	5.41
644.582	5.05
644.911	5.14
645.241	5.57
645.571	5.74
645.9	5.48
646.23	5.28
646.559	5.29
646.888	5.38
647.218	5.92
647.547	5.7
647.876	5.7
648.205	5.44
648.534	5.11
648.863	5.71
649.192	5.59
649.521	5.46
649.85	6.03
650.179	5.5
650.508	5.53
650.837	5.6
651.165	5.18
651.494	5.72
651.822	5.5
652.151	5.59
652.479	5.76
652.808	5.95
653.136	5.44
653.465	5.5
653.793	5.46
654.121	5.7
654.449	5.71
654.777	5.66
655.105	5.86
655.433	4.97
655.761	5.67
656.089	5.48
656.417	5.35
656.745	5.02
657.073	5.64
657.4	5.14
657.728	5.83
658.056	4.77
658.383	5.24
658.711	5.36
659.038	5.36
659.365	5.98
659.693	5.06
660.02	5.6
660.347	5.65
660.674	5.38
661.001	5.45
661.329	5.07
661.656	5.39
661.982	5.4
662.309	5.62
662.636	5.46
662.963	5.63
663.29	5.77
663.616	5.76
663.943	5.36
664.27	5.1
664.596	5.38
664.923	5.59
665.249	5.66
665.576	5.26
665.902	6.03
666.228	5.22
666.554	5.77
666.881	5.41
667.207	5.64
667.533	5.32
667.859	5.41
668.185	5.37
668.511	5
668.837	5.66
669.162	5.7
669.488	5.8
669.814	5.29
670.139	5.09
670.465	5.54
670.791	5.59
671.116	4.97
671.442	5.36
671.767	5.41
672.092	5.28
672.418	5.31
672.743	5.24
673.068	5.8
673.393	4.96
673.718	5.9
674.043	5.22
674.368	5.86
674.693	6.82
675.018	5.69
675.343	5.88
675.667	5.04
675.992	5.29
676.317	5.25
676.641	4.82
676.966	5.32
677.29	5.12
677.615	6.2
677.939	5.28
678.264	5.9
678.588	5.33
678.912	5.78
679.236	5.76
679.56	6.04
679.885	5.27
680.209	4.86
680.532	6.39
680.856	5.67
681.18	5.83
681.504	5.58
681.828	5.34
682.152	5.09
682.475	5.72
682.799	5.56
683.122	5.4
683.446	5.94
683.769	6.01
684.093	5.62
684.416	5.23
684.739	5.09
685.062	5.83
685.386	5.66
685.709	5.47
686.032	5.79
686.355	5.4
686.678	5.99
687.001	5.52
687.324	6.14
687.646	6.13
687.969	6.05
688.292	5.58
688.614	5.44
688.937	5.41
689.26	5.79
689.582	5.43
689.904	4.87
690.227	5.63
690.549	5.76
690.871	6.1
691.194	5.87
691.516	4.91
691.838	5.89
692.16	5.95
692.482	5.12
692.804	6.22
