Data from 815656_chest_Reflection__3__97.txt Node

Date: Fri Sep 16 15:26:41 CDT 2022
User: ToomeyLab
Spectrometer: FLMS14357
Trigger mode: 0
Integration Time (sec): 1.000000E-2
Scans to average: 100
Electric dark correction enabled: true
Nonlinearity correction enabled: false
Boxcar width: 0
XAxis mode: Wavelengths
Number of Pixels in Spectrum: 2048
>>>>>Begin Spectral Data<<<<<
189.047	1016.6
189.435	1016.6
189.823	1016.6
190.211	-30.37
190.599	-379.39
190.987	114.42
191.375	103.69
191.763	76.02
192.151	-31.31
192.538	0.7
192.926	1123.14
193.314	44.45
193.702	105.1
194.089	408.48
194.477	172.81
194.864	71.68
195.252	-88.01
195.639	-22.47
196.027	74.98
196.414	-8304.35
196.801	68.53
197.189	-41.13
197.576	-42.42
197.963	1231.79
198.351	-19.68
198.738	-0.92
199.125	60.44
199.512	630.54
199.899	-16.86
200.286	-30.01
200.673	18.07
201.06	30.68
201.447	-3.65
201.833	-2.39
202.22	28.08
202.607	5.62
202.994	52.08
203.38	33.36
203.767	-9.59
204.154	33.59
204.54	-5.29
204.927	-8.19
205.313	49.81
205.699	32.11
206.086	1.93
206.472	22.63
206.858	21.37
207.245	17.97
207.631	-9.34
208.017	38.4
208.403	12.59
208.789	-9.97
209.175	26.87
209.561	18.24
209.947	8.33
210.333	3
210.719	-18.57
211.105	36.11
211.491	10.49
211.876	33.18
212.262	5.24
212.648	21.96
213.034	18.19
213.419	-5.49
213.805	17.36
214.19	25.24
214.576	-6.56
214.961	-18.38
215.346	-7
215.732	-33.69
216.117	27.92
216.502	18.23
216.888	-27.17
217.273	2.6
217.658	-1.12
218.043	-68.13
218.428	14.22
218.813	6.54
219.198	6.2
219.583	10.44
219.968	35.57
220.353	12.27
220.738	10.16
221.122	-33.42
221.507	15.86
221.892	7.49
222.276	11.72
222.661	28.59
223.046	16.19
223.43	15.66
223.815	-5.34
224.199	12.66
224.583	10.86
224.968	12.37
225.352	1.89
225.736	5.69
226.121	10.19
226.505	4.92
226.889	9.79
227.273	2.15
227.657	9.13
228.041	4.96
228.425	-0.62
228.809	6.61
229.193	4.47
229.577	5.15
229.961	4.27
230.344	5.34
230.728	4.66
231.112	5.56
231.495	4.94
231.879	4.77
232.263	4.43
232.646	4.55
233.03	4.49
233.413	6.41
233.797	4.15
234.18	5.44
234.563	5.8
234.946	6.22
235.33	4.38
235.713	4.06
236.096	4.88
236.479	6.06
236.862	5.14
237.245	4.02
237.628	6.75
238.011	4.71
238.394	5.54
238.777	5.31
239.16	4.39
239.543	6.16
239.925	6.57
240.308	2.92
240.691	5.43
241.073	4.12
241.456	4.73
241.838	4.67
242.221	5.37
242.603	4.57
242.986	4.42
243.368	5.32
243.75	4.38
244.133	4.93
244.515	4.51
244.897	5.22
245.279	4.47
245.661	5.24
246.043	4.78
246.425	4.68
246.807	4.35
247.189	4.06
247.571	4.67
247.953	4.58
248.335	4.51
248.717	4.75
249.098	4.47
249.48	4.19
249.862	4.49
250.243	4.69
250.625	4.69
251.006	4.96
251.388	5.03
251.769	3.58
252.151	4.65
252.532	3.82
252.913	4.74
253.295	4.83
253.676	4.64
254.057	4.33
254.438	4.23
254.819	3.55
255.2	4.01
255.581	4.08
255.962	4.39
256.343	4.68
256.724	3.68
257.105	3.9
257.486	4.88
257.867	4.52
258.247	4.43
258.628	4.88
259.009	4.79
259.389	4.79
259.77	4.15
260.15	4.09
260.531	4.33
260.911	4.12
261.292	4.15
261.672	4.24
262.052	3.85
262.432	4.01
262.813	4.29
263.193	4.35
263.573	4.7
263.953	4.59
264.333	4.17
264.713	3.4
265.093	3.85
265.473	3.86
265.853	4.75
266.233	3.66
266.612	5.22
266.992	3.64
267.372	4.21
267.752	3.69
268.131	4.16
268.511	4.19
268.89	4.74
269.27	3.61
269.649	4.04
270.029	4.16
270.408	3.94
270.787	4.16
271.167	3.98
271.546	4.73
271.925	3.99
272.304	4.25
272.683	3.48
273.062	4
273.441	4.31
273.82	3.65
274.199	4.38
274.578	4.14
274.957	4.29
275.336	4.05
275.715	4.43
276.093	4.02
276.472	3.87
276.851	4.28
277.229	4.13
277.608	4
277.986	4.45
278.365	3.64
278.743	4.13
279.122	3.76
279.5	3.65
279.878	4.53
280.257	4.25
280.635	4.33
281.013	3.86
281.391	3.69
281.769	4.22
282.147	4.17
282.525	3.63
282.903	3.98
283.281	3.89
283.659	4
284.037	4
284.415	4.43
284.792	4.42
285.17	4.05
285.548	3.68
285.925	3.84
286.303	4.36
286.68	3.68
287.058	3.78
287.435	3.71
287.813	4.11
288.19	3.57
288.567	3.69
288.945	3.93
289.322	4.34
289.699	3.93
290.076	3.62
290.453	4.03
290.83	4.37
291.207	3.97
291.584	3.75
291.961	3.7
292.338	3.97
292.715	3.78
293.092	4.08
293.469	3.86
293.845	3.75
294.222	3.79
294.599	3.57
294.975	4.01
295.352	4.02
295.728	3.54
296.105	3.75
296.481	3.71
296.858	3.78
297.234	4.15
297.61	4.16
297.986	3.72
298.363	3.79
298.739	3.5
299.115	3.68
299.491	4.11
299.867	3.87
300.243	3.89
300.619	3.92
300.995	3.61
301.371	3.91
301.746	3.69
302.122	4.2
302.498	3.77
302.874	3.83
303.249	4.07
303.625	3.81
304	3.94
304.376	2.91
304.751	3.92
305.127	3.95
305.502	3.73
305.878	3.76
306.253	3.9
306.628	3.6
307.003	4.04
307.378	3.52
307.754	4.35
308.129	4.19
308.504	4.13
308.879	4.32
309.254	3.88
309.629	3.74
310.003	3.68
310.378	3.82
310.753	3.38
311.128	3.81
311.502	3.24
311.877	3.76
312.252	3.93
312.626	3.82
313.001	3.97
313.375	4.02
313.75	3.68
314.124	3.55
314.498	3.8
314.873	4.16
315.247	3.65
315.621	3.4
315.995	3.75
316.369	3.54
316.743	4.11
317.117	3.57
317.491	3.95
317.865	4.05
318.239	3.86
318.613	3.43
318.987	3.68
319.361	3.84
319.734	3.7
320.108	3.89
320.482	4.46
320.855	3.56
321.229	3.63
321.602	4.05
321.976	3.7
322.349	3.69
322.723	3.3
323.096	3.33
323.469	3.75
323.843	4.21
324.216	4.2
324.589	3.79
324.962	4.04
325.335	4.48
325.708	4.34
326.081	3.66
326.454	4.49
326.827	3.87
327.2	3.57
327.573	3.13
327.945	3.58
328.318	3.44
328.691	3.65
329.063	3.34
329.436	3.78
329.809	3.39
330.181	3.99
330.553	3.52
330.926	4.06
331.298	4.14
331.671	3.91
332.043	3.8
332.415	3.77
332.787	4.04
333.159	4.03
333.532	4.3
333.904	3.84
334.276	3.58
334.648	3.9
335.02	4.26
335.391	4.14
335.763	3.99
336.135	3.29
336.507	3.58
336.879	3.82
337.25	3.63
337.622	4.01
337.993	3.96
338.365	4.12
338.736	3.82
339.108	3.44
339.479	4.06
339.851	3.62
340.222	3.87
340.593	4.02
340.964	3.85
341.336	3.96
341.707	3.73
342.078	3.96
342.449	4.04
342.82	4.05
343.191	3.61
343.562	4.1
343.933	4.22
344.303	4.17
344.674	3.93
345.045	3.92
345.416	3.69
345.786	3.72
346.157	4.05
346.527	3.83
346.898	3.39
347.268	4.06
347.639	3.38
348.009	4.08
348.38	4.24
348.75	3.54
349.12	3.94
349.49	3.93
349.861	3.94
350.231	3.75
350.601	4.1
350.971	3.87
351.341	4.2
351.711	3.88
352.081	3.83
352.45	4.24
352.82	4.19
353.19	3.86
353.56	4
353.929	3.93
354.299	3.69
354.669	3.68
355.038	4.05
355.408	3.96
355.777	3.84
356.147	3.85
356.516	4
356.885	4.1
357.254	3.98
357.624	3.87
357.993	3.7
358.362	3.52
358.731	3.91
359.1	3.76
359.469	3.53
359.838	3.62
360.207	4.26
360.576	3.79
360.945	3.98
361.314	3.57
361.682	3.47
362.051	3.89
362.42	4
362.788	3.72
363.157	3.78
363.525	3.62
363.894	3.95
364.262	3.78
364.631	3.9
364.999	3.81
365.367	3.71
365.735	4.23
366.104	4.12
366.472	4.11
366.84	3.91
367.208	4.27
367.576	3.74
367.944	3.88
368.312	3.69
368.68	4.08
369.048	4.21
369.416	3.86
369.783	4.16
370.151	3.98
370.519	4.17
370.886	3.82
371.254	3.67
371.621	4.32
371.989	3.87
372.356	3.96
372.724	3.9
373.091	3.89
373.458	3.84
373.826	3.92
374.193	4.07
374.56	3.73
374.927	3.76
375.294	4.04
375.661	3.85
376.028	4.41
376.395	3.74
376.762	4.22
377.129	4.07
377.496	4
377.863	3.94
378.229	3.98
378.596	3.63
378.963	3.82
379.329	3.96
379.696	4.05
380.062	3.94
380.429	3.9
380.795	4.1
381.161	4.13
381.528	4.19
381.894	4.16
382.26	4.18
382.626	3.85
382.993	4.05
383.359	3.98
383.725	3.88
384.091	4.19
384.457	3.68
384.823	4.07
385.188	4.13
385.554	3.95
385.92	3.86
386.286	3.91
386.651	4.22
387.017	4.02
387.383	3.49
387.748	3.87
388.114	3.69
388.479	4.09
388.845	4.06
389.21	4.33
389.575	3.89
389.94	4.45
390.306	4.06
390.671	3.95
391.036	4.07
391.401	3.84
391.766	3.92
392.131	4.17
392.496	3.94
392.861	4.15
393.226	4.11
393.591	3.96
393.956	4.24
394.32	4.19
394.685	4.21
395.05	4.32
395.414	3.92
395.779	4.03
396.143	4.11
396.508	4.04
396.872	4.11
397.236	3.9
397.601	3.91
397.965	3.88
398.329	3.98
398.694	4.28
399.058	4.28
399.422	3.86
399.786	4.3
400.15	4.26
400.514	3.84
400.878	4.18
401.242	4
401.605	3.99
401.969	3.98
402.333	4
402.697	3.96
403.06	4.28
403.424	4.15
403.787	4.1
404.151	4.19
404.514	4.11
404.878	4.05
405.241	4.12
405.604	4.4
405.968	4.11
406.331	4.12
406.694	4.09
407.057	4.32
407.42	4
407.783	4.1
408.146	4.41
408.509	4.09
408.872	4.11
409.235	4.28
409.598	4.01
409.961	4.19
410.323	4.02
410.686	4.47
411.049	4.13
411.411	3.97
411.774	4.05
412.136	4.2
412.499	4.25
412.861	4.11
413.223	4.26
413.586	4.32
413.948	4.11
414.31	4.21
414.672	4.11
415.035	4.41
415.397	4.06
415.759	4.17
416.121	4.23
416.483	4.34
416.845	4.31
417.206	4.28
417.568	4.19
417.93	4.31
418.292	4.2
418.653	4.03
419.015	3.91
419.377	4.15
419.738	4.03
420.1	4.1
420.461	4.05
420.822	4.05
421.184	4.1
421.545	3.99
421.906	4.08
422.267	4.21
422.629	3.96
422.99	3.98
423.351	4.13
423.712	4.03
424.073	4.13
424.434	4.09
424.795	4.11
425.155	4.09
425.516	4.06
425.877	3.99
426.238	4.05
426.598	3.95
426.959	4.1
427.32	4.11
427.68	4.06
428.041	4.01
428.401	4.07
428.761	4.23
429.122	4.24
429.482	4.09
429.842	4.09
430.202	4.14
430.563	4.12
430.923	4.23
431.283	4.38
431.643	4.32
432.003	4.11
432.363	4.29
432.722	4.27
433.082	4.29
433.442	4.31
433.802	4.09
434.161	4.21
434.521	4.16
434.881	4.21
435.24	4.01
435.6	4.24
435.959	4.27
436.319	4.11
436.678	4.19
437.037	4.14
437.396	4.24
437.756	4.27
438.115	4.24
438.474	4.23
438.833	4.24
439.192	4.12
439.551	4.3
439.91	4.2
440.269	4.3
440.628	4.29
440.987	4.22
441.345	4.18
441.704	4.27
442.063	4.34
442.421	4.11
442.78	4.17
443.138	4.22
443.497	4.16
443.855	4.19
444.214	4.12
444.572	4.26
444.93	4.32
445.288	4.12
445.647	4.2
446.005	4.16
446.363	4.2
446.721	4.28
447.079	4.12
447.437	4.23
447.795	4.16
448.153	4.15
448.51	4.1
448.868	4.18
449.226	4.22
449.584	4.18
449.941	4.12
450.299	4.07
450.656	4.24
451.014	4.21
451.371	4.21
451.729	4.22
452.086	4.21
452.443	4.3
452.801	4.3
453.158	4.04
453.515	4.23
453.872	4.17
454.229	4.16
454.586	4.21
454.943	4.18
455.3	4.36
455.657	4.18
456.014	4.38
456.371	4.26
456.727	4.38
457.084	4.37
457.441	4.28
457.797	4.23
458.154	4.25
458.51	4.44
458.867	4.23
459.223	4.36
459.58	4.34
459.936	4.36
460.292	4.3
460.648	4.13
461.005	4.24
461.361	4.2
461.717	4.18
462.073	4.22
462.429	4.27
462.785	4.27
463.141	4.39
463.496	4.33
463.852	4.34
464.208	4.37
464.564	4.31
464.919	4.43
465.275	4.46
465.631	4.46
465.986	4.26
466.342	4.37
466.697	4.49
467.052	4.31
467.408	4.53
467.763	4.34
468.118	4.42
468.473	4.29
468.829	4.35
469.184	4.31
469.539	4.36
469.894	4.33
470.249	4.53
470.603	4.49
470.958	4.18
471.313	4.47
471.668	4.25
472.023	4.28
472.377	4.51
472.732	4.34
473.086	4.37
473.441	4.23
473.795	4.46
474.15	4.32
474.504	4.46
474.859	4.44
475.213	4.47
475.567	4.25
475.921	4.35
476.275	4.43
476.63	4.53
476.984	4.4
477.338	4.4
477.692	4.26
478.045	4.31
478.399	4.48
478.753	4.3
479.107	4.4
479.461	4.36
479.814	4.35
480.168	4.35
480.521	4.36
480.875	4.47
481.228	4.35
481.582	4.47
481.935	4.42
482.289	4.68
482.642	4.37
482.995	4.44
483.348	4.41
483.701	4.52
484.055	4.34
484.408	4.43
484.761	4.29
485.114	4.18
485.466	4.2
485.819	4.18
486.172	4.13
486.525	4.15
486.878	4.2
487.23	4.26
487.583	4.3
487.936	4.34
488.288	4.29
488.641	4.27
488.993	4.26
489.345	4.23
489.698	4.22
490.05	4.23
490.402	4.2
490.754	4.31
491.107	4.29
491.459	4.33
491.811	4.29
492.163	4.36
492.515	4.33
492.866	4.3
493.218	4.24
493.57	4.19
493.922	4.31
494.274	4.31
494.625	4.33
494.977	4.35
495.328	4.42
495.68	4.46
496.031	4.47
496.383	4.5
496.734	4.48
497.086	4.53
497.437	4.51
497.788	4.48
498.139	4.53
498.49	4.54
498.842	4.45
499.193	4.4
499.544	4.55
499.894	4.52
500.245	4.54
500.596	4.47
500.947	4.6
501.298	4.52
501.648	4.54
501.999	4.63
502.35	4.61
502.7	4.7
503.051	4.69
503.401	4.51
503.752	4.73
504.102	4.65
504.452	4.5
504.803	4.78
505.153	4.67
505.503	4.66
505.853	4.58
506.203	4.55
506.553	4.51
506.903	4.57
507.253	4.45
507.603	4.65
507.953	4.65
508.303	4.64
508.652	4.56
509.002	4.68
509.352	4.61
509.701	4.66
510.051	4.65
510.4	4.67
510.75	4.63
511.099	4.7
511.449	4.45
511.798	4.61
512.147	4.62
512.496	4.68
512.846	4.64
513.195	4.67
513.544	4.62
513.893	4.68
514.242	4.67
514.591	4.69
514.939	4.68
515.288	4.66
515.637	4.73
515.986	4.73
516.334	4.62
516.683	4.72
517.032	4.81
517.38	4.89
517.729	4.78
518.077	4.9
518.426	4.75
518.774	4.78
519.122	4.88
519.47	4.75
519.819	4.64
520.167	4.66
520.515	4.7
520.863	4.71
521.211	4.72
521.559	4.72
521.907	4.69
522.255	4.7
522.602	4.72
522.95	4.8
523.298	4.81
523.645	4.86
523.993	4.8
524.341	4.96
524.688	4.93
525.036	4.91
525.383	4.91
525.73	4.8
526.078	4.89
526.425	4.88
526.772	4.86
527.119	4.79
527.466	4.82
527.814	4.88
528.161	4.76
528.508	4.82
528.854	4.87
529.201	4.77
529.548	4.78
529.895	4.75
530.242	4.72
530.588	4.7
530.935	4.75
531.282	4.68
531.628	4.78
531.975	4.79
532.321	4.83
532.667	4.97
533.014	4.96
533.36	4.93
533.706	4.89
534.052	4.94
534.399	4.94
534.745	4.96
535.091	4.93
535.437	4.89
535.783	4.91
536.129	5.02
536.474	4.95
536.82	4.95
537.166	5.06
537.512	5.08
537.857	5.07
538.203	4.99
538.549	5.03
538.894	4.92
539.239	5.08
539.585	5.1
539.93	5
540.276	5.2
540.621	5.23
540.966	5.06
541.311	5.16
541.656	5.24
542.001	5.1
542.346	5.18
542.691	5.16
543.036	5.05
543.381	5.02
543.726	5.07
544.071	5.07
544.415	5.1
544.76	5.21
545.105	5.15
545.449	5.22
545.794	5.24
546.138	5.16
546.483	5.25
546.827	5.38
547.171	5.38
547.516	5.22
547.86	5.24
548.204	5.4
548.548	5.27
548.892	5.23
549.236	5.37
549.58	5.52
549.924	5.44
550.268	5.45
550.612	5.49
550.956	5.44
551.3	5.55
551.643	5.58
551.987	5.55
552.33	5.63
552.674	5.45
553.017	5.67
553.361	5.69
553.704	5.59
554.048	5.65
554.391	5.61
554.734	5.63
555.077	5.58
555.42	5.68
555.764	5.63
556.107	5.84
556.45	5.7
556.793	5.8
557.135	5.72
557.478	5.83
557.821	5.7
558.164	5.97
558.507	5.9
558.849	5.75
559.192	5.78
559.534	5.87
559.877	5.69
560.219	5.81
560.562	5.91
560.904	6.02
561.246	5.87
561.589	5.99
561.931	5.96
562.273	5.99
562.615	6.11
562.957	6.04
563.299	6.14
563.641	6.03
563.983	6.1
564.325	6.17
564.667	6.01
565.008	6.24
565.35	6
565.692	6.06
566.033	6.07
566.375	5.98
566.716	6.17
567.058	6.21
567.399	6.42
567.741	6.2
568.082	6.33
568.423	6.12
568.764	6.1
569.105	6.18
569.447	6.27
569.788	6.26
570.129	6.4
570.47	6.44
570.811	6.25
571.151	6.35
571.492	6.49
571.833	6.35
572.174	6.44
572.514	6.45
572.855	6.33
573.195	6.54
573.536	6.46
573.876	6.61
574.217	6.44
574.557	6.7
574.898	6.5
575.238	6.47
575.578	6.57
575.918	6.71
576.258	6.7
576.598	6.53
576.938	6.54
577.278	6.64
577.618	6.6
577.958	6.79
578.298	6.64
578.638	6.68
578.977	6.7
579.317	6.72
579.657	6.83
579.996	6.75
580.336	6.8
580.675	6.91
581.014	6.99
581.354	6.89
581.693	6.93
582.032	6.92
582.372	6.96
582.711	7.08
583.05	7.06
583.389	7.07
583.728	7.25
584.067	7.07
584.406	7.37
584.745	7.18
585.083	7.27
585.422	7.35
585.761	7.15
586.1	7.14
586.438	7.17
586.777	7.01
587.115	7.28
587.454	7.34
587.792	7.33
588.13	7.25
588.469	7.22
588.807	7.36
589.145	7.5
589.483	7.58
589.821	7.63
590.159	7.55
590.497	7.51
590.835	7.45
591.173	7.69
591.511	7.53
591.849	7.79
592.187	7.77
592.524	7.6
592.862	7.79
593.2	7.46
593.537	7.74
593.875	7.58
594.212	7.73
594.55	7.58
594.887	7.96
595.224	7.8
595.561	7.95
595.899	7.72
596.236	8.03
596.573	7.83
596.91	7.97
597.247	7.89
597.584	7.88
597.921	8.12
598.258	7.82
598.594	7.77
598.931	8.14
599.268	8.14
599.604	7.97
599.941	7.94
600.277	8.01
600.614	8.25
600.95	8.13
601.287	8.28
601.623	8.3
601.959	8.38
602.296	8.28
602.632	8.29
602.968	8.65
603.304	8.31
603.64	8.49
603.976	8.62
604.312	8.24
604.648	8.72
604.984	8.59
605.319	8.6
605.655	8.85
605.991	8.67
606.326	8.56
606.662	8.72
606.998	8.68
607.333	8.62
607.668	8.69
608.004	8.58
608.339	8.72
608.674	8.9
609.01	8.93
609.345	8.73
609.68	8.75
610.015	8.77
610.35	8.89
610.685	9.03
611.02	8.98
611.355	9.19
611.689	9.08
612.024	9.1
612.359	9.12
612.694	9.1
613.028	8.91
613.363	8.88
613.697	9.24
614.032	9.2
614.366	9.23
614.7	9.38
615.035	9.3
615.369	9.38
615.703	9.61
616.037	9.35
616.371	9.38
616.705	9.4
617.039	9.75
617.373	9.43
617.707	9.27
618.041	9.43
618.375	9.68
618.709	9.54
619.042	9.79
619.376	9.7
619.71	9.88
620.043	9.83
620.377	9.91
620.71	10.11
621.043	9.9
621.377	10.27
621.71	9.82
622.043	9.97
622.376	10.09
622.709	10.38
623.043	10.15
623.376	9.95
623.709	9.93
624.041	10.41
624.374	10.43
624.707	10.44
625.04	10.31
625.373	10.12
625.705	10.46
626.038	10.44
626.37	10.23
626.703	10.14
627.035	10.19
627.368	10.64
627.7	10.79
628.032	10.14
628.365	10.4
628.697	10.54
629.029	10.6
629.361	10.38
629.693	10.74
630.025	10.48
630.357	10.61
630.689	10.84
631.021	10.73
631.353	10.9
631.684	10.6
632.016	10.92
632.348	10.94
632.679	10.77
633.011	10.7
633.342	10.56
633.674	11.25
634.005	11.04
634.336	10.89
634.668	10.96
634.999	10.92
635.33	10.84
635.661	10.93
635.992	11.02
636.323	11.31
636.654	11.19
636.985	11.44
637.316	11.25
637.647	11.4
637.977	11.19
638.308	11.19
638.639	11.87
638.969	11.6
639.3	11.66
639.63	11.08
639.961	11.63
640.291	11.71
640.622	11.79
640.952	11.76
641.282	11.82
641.612	11.79
641.943	11.74
642.273	11.73
642.603	11.77
642.933	12.1
643.263	11.74
643.592	11.78
643.922	11.77
644.252	11.94
644.582	11.97
644.911	12.1
645.241	12.48
645.571	12.07
645.9	12.13
646.23	12.17
646.559	11.95
646.888	12.21
647.218	12.68
647.547	12.47
647.876	12.91
648.205	12.36
648.534	12.49
648.863	12.33
649.192	12.43
649.521	12.29
649.85	12.8
650.179	12.44
650.508	12.81
650.837	12.87
651.165	12.46
651.494	12.97
651.822	12.82
652.151	12.72
652.479	12.92
652.808	12.71
653.136	12.88
653.465	12.61
653.793	12.91
654.121	13
654.449	13.01
654.777	13.15
655.105	13.4
655.433	13.2
655.761	13.37
656.089	13.18
656.417	13.16
656.745	12.95
657.073	13.48
657.4	13.24
657.728	13.53
658.056	13.44
658.383	13.27
658.711	13.16
659.038	13.11
659.365	13.44
659.693	13.26
660.02	14.07
660.347	13.95
660.674	13.7
661.001	13.82
661.329	13.32
661.656	13.5
661.982	13.91
662.309	13.56
662.636	13.81
662.963	14.01
663.29	14.28
663.616	13.94
663.943	13.83
664.27	13.86
664.596	14.11
664.923	13.79
665.249	14.29
665.576	14.41
665.902	14.54
666.228	14.07
666.554	14.14
666.881	14.82
667.207	13.73
667.533	14.35
667.859	13.97
668.185	14.06
668.511	14.15
668.837	14.66
669.162	14.87
669.488	14.69
669.814	14.38
670.139	14.35
670.465	14.86
670.791	14.2
671.116	14.86
671.442	14.78
671.767	14.95
672.092	14.61
672.418	14.77
672.743	14.88
673.068	15.29
673.393	14.61
673.718	14.94
674.043	14.95
674.368	14.91
674.693	16.08
675.018	14.87
675.343	15.02
675.667	15.19
675.992	14.95
676.317	15.19
676.641	15.3
676.966	15.17
677.29	15.61
677.615	15.64
677.939	15.21
678.264	15.62
678.588	15.33
678.912	15.55
679.236	16.27
679.56	15.56
679.885	15.74
680.209	15.47
680.532	15.87
680.856	15.96
681.18	15.86
681.504	15.46
681.828	16
682.152	15.74
682.475	16.25
682.799	15.88
683.122	15.76
683.446	16.28
683.769	15.88
684.093	15.89
684.416	16.25
684.739	16.16
685.062	16.43
685.386	16.01
685.709	15.76
686.032	16.98
686.355	16.21
686.678	16.8
687.001	16.01
687.324	16.48
687.646	16.76
687.969	16.75
688.292	16.91
