Data from 815656_forehead_Reflection__0__99.txt Node

Date: Fri Sep 16 15:27:51 CDT 2022
User: ToomeyLab
Spectrometer: FLMS14357
Trigger mode: 0
Integration Time (sec): 1.000000E-2
Scans to average: 100
Electric dark correction enabled: true
Nonlinearity correction enabled: false
Boxcar width: 0
XAxis mode: Wavelengths
Number of Pixels in Spectrum: 2048
>>>>>Begin Spectral Data<<<<<
189.047	818.11
189.435	818.11
189.823	818.11
190.211	131.76
190.599	123.15
190.987	204.75
191.375	107.84
191.763	15.85
192.151	-202.67
192.538	13.68
192.926	816.99
193.314	52.95
193.702	48.12
194.089	107.78
194.477	81.73
194.864	-3.45
195.252	49.9
195.639	105.94
196.027	174.77
196.414	-15686.96
196.801	33.32
197.189	104.35
197.576	-48.17
197.963	324.1
198.351	48.14
198.738	48.91
199.125	40.39
199.512	-471.07
199.899	56.31
200.286	22.74
200.673	40.99
201.06	14.9
201.447	6.87
201.833	32.28
202.22	15.99
202.607	28.79
202.994	33.13
203.38	48.99
203.767	14.22
204.154	32.18
204.54	35.02
204.927	-6.21
205.313	46.41
205.699	49.98
206.086	50.03
206.472	38.04
206.858	14.96
207.245	51.88
207.631	23.43
208.017	41.13
208.403	-26.23
208.789	50.03
209.175	67.47
209.561	13.68
209.947	63.04
210.333	27.67
210.719	42.25
211.105	11.74
211.491	60.13
211.876	61.03
212.262	38.61
212.648	10.09
213.034	18.84
213.419	6.49
213.805	59.12
214.19	4.02
214.576	-0.81
214.961	22.25
215.346	-28.4
215.732	-35.18
216.117	34.15
216.502	38.77
216.888	9.23
217.273	0.59
217.658	1.63
218.043	-81.44
218.428	30.18
218.813	52.38
219.198	30.14
219.583	27.93
219.968	21.85
220.353	1.07
220.738	23.4
221.122	-10.13
221.507	15.09
221.892	21.25
222.276	25.65
222.661	22.53
223.046	16.72
223.43	20.3
223.815	-0.3
224.199	18.66
224.583	16.65
224.968	15.38
225.352	7.05
225.736	17.68
226.121	9.5
226.505	8.43
226.889	14.52
227.273	5.67
227.657	15.18
228.041	8.23
228.425	0.29
228.809	10.14
229.193	6.62
229.577	6.43
229.961	6.07
230.344	6.75
230.728	6.47
231.112	5.86
231.495	4.49
231.879	5.83
232.263	5.08
232.646	5.09
233.03	5.53
233.413	6.79
233.797	5.68
234.18	8.1
234.563	5.38
234.946	6.91
235.33	7.48
235.713	6.95
236.096	5.95
236.479	6.36
236.862	6.67
237.245	6.38
237.628	7.23
238.011	7
238.394	7.02
238.777	7.61
239.16	6.87
239.543	9.22
239.925	5.73
240.308	5.46
240.691	5.76
241.073	6.68
241.456	5.94
241.838	5.06
242.221	6.42
242.603	5.74
242.986	5.46
243.368	5.77
243.75	5.45
244.133	6.02
244.515	5.65
244.897	6.12
245.279	5.48
245.661	5.67
246.043	5.53
246.425	5.92
246.807	6.03
247.189	6.57
247.571	5.65
247.953	6.06
248.335	5.82
248.717	5.62
249.098	5.62
249.48	5.47
249.862	5.37
250.243	5.6
250.625	6.23
251.006	6.14
251.388	6.38
251.769	5.19
252.151	5.68
252.532	5
252.913	6.33
253.295	6.21
253.676	6.44
254.057	5.78
254.438	5.24
254.819	5.39
255.2	5.69
255.581	6.43
255.962	6.46
256.343	7.32
256.724	7.15
257.105	5.24
257.486	6.7
257.867	6.13
258.247	6.89
258.628	7.12
259.009	5.91
259.389	6.49
259.77	5.33
260.15	5.84
260.531	5.72
260.911	5.86
261.292	5.66
261.672	5.85
262.052	5.47
262.432	5.45
262.813	6.24
263.193	5.96
263.573	6.05
263.953	6.2
264.333	5.84
264.713	5.32
265.093	5.82
265.473	6.02
265.853	6.65
266.233	6.36
266.612	6.41
266.992	5.1
267.372	6.08
267.752	5.73
268.131	6.03
268.511	6.22
268.89	5.62
269.27	5.43
269.649	5.96
270.029	6.03
270.408	5.82
270.787	5.75
271.167	6.39
271.546	5.9
271.925	6.03
272.304	5.83
272.683	5.6
273.062	5.73
273.441	5.89
273.82	5.39
274.199	5.88
274.578	5.51
274.957	5.68
275.336	6.13
275.715	5.91
276.093	5.79
276.472	6.13
276.851	5.65
277.229	5.91
277.608	6.19
277.986	6.39
278.365	5.36
278.743	5.83
279.122	5.31
279.5	5.98
279.878	6.07
280.257	6.03
280.635	5.75
281.013	5.68
281.391	6.2
281.769	5.98
282.147	5.95
282.525	5.6
282.903	5.71
283.281	5.21
283.659	5.58
284.037	5.73
284.415	6.01
284.792	5.78
285.17	6.09
285.548	5.66
285.925	5.63
286.303	6.2
286.68	5.82
287.058	5.77
287.435	5.74
287.813	6.35
288.19	5.58
288.567	5.68
288.945	6.04
289.322	6.49
289.699	6
290.076	6.11
290.453	6.18
290.83	6.38
291.207	5.93
291.584	5.83
291.961	6.19
292.338	6.27
292.715	5.89
293.092	6.11
293.469	6.91
293.845	6.13
294.222	6.3
294.599	6.13
294.975	6.36
295.352	6.66
295.728	6.38
296.105	6.99
296.481	6.69
296.858	6.72
297.234	6.48
297.61	7.27
297.986	6.99
298.363	6.66
298.739	6.54
299.115	6.83
299.491	6.97
299.867	6.89
300.243	7.13
300.619	7.46
300.995	6.71
301.371	7.5
301.746	7.1
302.122	7.73
302.498	7.39
302.874	7.46
303.249	7.52
303.625	7.88
304	7.78
304.376	6.99
304.751	7.48
305.127	7.85
305.502	7.93
305.878	7.72
306.253	7.71
306.628	8.01
307.003	8.42
307.378	8.23
307.754	8.49
308.129	8.92
308.504	8.87
308.879	8.7
309.254	8.41
309.629	7.87
310.003	8.5
310.378	8.33
310.753	8.67
311.128	8.86
311.502	8.55
311.877	8.68
312.252	8.79
312.626	8.78
313.001	8.83
313.375	9.13
313.75	9.21
314.124	8.95
314.498	8.98
314.873	9.92
315.247	9.57
315.621	9.2
315.995	9.15
316.369	9.73
316.743	9.68
317.117	9.64
317.491	9.43
317.865	9.89
318.239	9.81
318.613	9.81
318.987	9.87
319.361	9.85
319.734	10.35
320.108	9.82
320.482	10.62
320.855	10.32
321.229	10.42
321.602	10.47
321.976	11.01
322.349	10.77
322.723	10.95
323.096	10.36
323.469	11.11
323.843	11.55
324.216	11.32
324.589	11.29
324.962	11.01
325.335	11.39
325.708	11.07
326.081	11.5
326.454	11.19
326.827	11.15
327.2	11.46
327.573	10.95
327.945	11.73
328.318	11.53
328.691	11.37
329.063	11.51
329.436	11.51
329.809	11.4
330.181	12
330.553	12.07
330.926	12.17
331.298	12.61
331.671	12.01
332.043	12.36
332.415	12.53
332.787	11.93
333.159	12.43
333.532	12.72
333.904	12.36
334.276	12.46
334.648	12.64
335.02	13.17
335.391	13.16
335.763	12.55
336.135	12.41
336.507	12.87
336.879	13.27
337.25	12.86
337.622	13.19
337.993	13.37
338.365	13.28
338.736	13.71
339.108	13.09
339.479	13.39
339.851	13.42
340.222	13.26
340.593	13.63
340.964	13.75
341.336	13.54
341.707	13.75
342.078	14.17
342.449	13.6
342.82	13.95
343.191	13.82
343.562	14.1
343.933	13.9
344.303	14.41
344.674	13.58
345.045	14.57
345.416	14.39
345.786	14.38
346.157	14.71
346.527	14.13
346.898	14.54
347.268	14.96
347.639	14.56
348.009	14.91
348.38	15.05
348.75	14.66
349.12	14.9
349.49	15.02
349.861	15.53
350.231	15.04
350.601	14.95
350.971	15.34
351.341	15.36
351.711	15.39
352.081	15.06
352.45	15.62
352.82	15.89
353.19	15.78
353.56	15.83
353.929	15.46
354.299	16.04
354.669	15.8
355.038	15.69
355.408	16.07
355.777	15.78
356.147	16.05
356.516	15.92
356.885	15.82
357.254	16.75
357.624	15.98
357.993	16.18
358.362	16.23
358.731	16.53
359.1	16.42
359.469	16.33
359.838	16.74
360.207	16.59
360.576	16.88
360.945	16.92
361.314	16.65
361.682	16.87
362.051	17
362.42	16.98
362.788	17.23
363.157	17.01
363.525	17.09
363.894	17.11
364.262	16.92
364.631	17.16
364.999	17.4
365.367	17.27
365.735	17.55
366.104	18.07
366.472	17.83
366.84	17.79
367.208	18.13
367.576	18.01
367.944	17.76
368.312	17.69
368.68	17.93
369.048	17.93
369.416	17.94
369.783	18.25
370.151	18.53
370.519	18.27
370.886	17.93
371.254	18.11
371.621	18.6
371.989	18.23
372.356	18.92
372.724	18.86
373.091	18.66
373.458	18.7
373.826	18.66
374.193	19.12
374.56	18.61
374.927	18.63
375.294	19.19
375.661	19.04
376.028	19.48
376.395	18.91
376.762	19.86
377.129	19.39
377.496	19.17
377.863	19.07
378.229	19.59
378.596	19.37
378.963	19.72
379.329	19.27
379.696	19.74
380.062	19.64
380.429	19.82
380.795	19.5
381.161	19.98
381.528	20.35
381.894	20.09
382.26	20.47
382.626	20.16
382.993	20.18
383.359	20.13
383.725	20.26
384.091	20.54
384.457	20.23
384.823	20.36
385.188	20.45
385.554	20.49
385.92	20.61
386.286	20.54
386.651	20.73
387.017	20.59
387.383	20.77
387.748	20.54
388.114	20.73
388.479	21.29
388.845	21.37
389.21	21.56
389.575	21.25
389.94	21.3
390.306	21.29
390.671	21.36
391.036	21.54
391.401	21.57
391.766	21.63
392.131	21.66
392.496	21.79
392.861	21.6
393.226	21.99
393.591	21.75
393.956	21.8
394.32	22.03
394.685	21.93
395.05	22.27
395.414	22.1
395.779	22.12
396.143	22.25
396.508	22.28
396.872	22.18
397.236	22.48
397.601	22.65
397.965	22.4
398.329	22.61
398.694	22.81
399.058	22.89
399.422	22.69
399.786	22.91
400.15	22.95
400.514	22.85
400.878	23.34
401.242	22.93
401.605	23.17
401.969	23.2
402.333	23.32
402.697	23.12
403.06	23.4
403.424	23.36
403.787	23.33
404.151	23.71
404.514	23.69
404.878	23.53
405.241	23.72
405.604	23.79
405.968	23.61
406.331	23.67
406.694	23.7
407.057	23.8
407.42	23.79
407.783	24.13
408.146	24.26
408.509	24.09
408.872	24.17
409.235	24.45
409.598	24.03
409.961	24.34
410.323	24.42
410.686	24.59
411.049	24.32
411.411	24.26
411.774	24.54
412.136	24.59
412.499	24.58
412.861	24.59
413.223	24.89
413.586	25.14
413.948	25.02
414.31	24.92
414.672	24.85
415.035	25.51
415.397	25.05
415.759	25.31
416.121	25.09
416.483	25.25
416.845	25.3
417.206	25.4
417.568	25.44
417.93	25.48
418.292	25.44
418.653	25.25
419.015	25.54
419.377	25.42
419.738	25.48
420.1	25.48
420.461	25.61
420.822	25.49
421.184	25.57
421.545	25.52
421.906	25.66
422.267	25.63
422.629	25.36
422.99	25.45
423.351	25.76
423.712	25.63
424.073	25.82
424.434	25.79
424.795	26.09
425.155	25.97
425.516	25.96
425.877	26.04
426.238	26
426.598	26.05
426.959	26.14
427.32	26.17
427.68	26.32
428.041	26.3
428.401	26.64
428.761	26.82
429.122	26.74
429.482	26.81
429.842	26.97
430.202	27.27
430.563	27.11
430.923	27.33
431.283	27.59
431.643	27.44
432.003	27.46
432.363	27.39
432.722	27.6
433.082	27.65
433.442	27.5
433.802	27.53
434.161	27.66
434.521	27.63
434.881	27.61
435.24	27.57
435.6	27.8
435.959	27.83
436.319	27.84
436.678	27.9
437.037	27.89
437.396	28.05
437.756	28.31
438.115	28.17
438.474	28.32
438.833	28.28
439.192	28.42
439.551	28.24
439.91	28.38
440.269	28.32
440.628	28.34
440.987	28.45
441.345	28.47
441.704	28.5
442.063	28.43
442.421	28.39
442.78	28.46
443.138	28.51
443.497	28.78
443.855	28.7
444.214	28.9
444.572	29.02
444.93	29.07
445.288	29.22
445.647	29.11
446.005	29.15
446.363	29.14
446.721	29.31
447.079	29.1
447.437	29.24
447.795	29.13
448.153	29.18
448.51	29.14
448.868	29.04
449.226	29.23
449.584	29.35
449.941	29.48
450.299	29.61
450.656	29.82
451.014	29.77
451.371	29.86
451.729	29.95
452.086	30.05
452.443	30.21
452.801	30.23
453.158	30.22
453.515	30.14
453.872	30.28
454.229	30.36
454.586	30.31
454.943	30.33
455.3	30.77
455.657	30.55
456.014	30.61
456.371	30.59
456.727	30.9
457.084	30.71
457.441	30.72
457.797	31.1
458.154	31.11
458.51	31.06
458.867	31.26
459.223	31.03
459.58	31.34
459.936	31.2
460.292	31.21
460.648	31.15
461.005	31.03
461.361	30.82
461.717	30.87
462.073	31.09
462.429	31.06
462.785	31.4
463.141	31.61
463.496	31.76
463.852	31.56
464.208	31.75
464.564	31.95
464.919	32.08
465.275	32.04
465.631	32.29
465.986	32.1
466.342	31.92
466.697	32.24
467.052	32.35
467.408	32.33
467.763	32.3
468.118	32.31
468.473	32.35
468.829	32.71
469.184	32.66
469.539	32.5
469.894	32.71
470.249	32.85
470.603	32.9
470.958	32.66
471.313	32.95
471.668	33
472.023	32.91
472.377	33.09
472.732	33.19
473.086	33.33
473.441	33.11
473.795	33.24
474.15	33.29
474.504	33.61
474.859	33.33
475.213	33.25
475.567	33.31
475.921	33.46
476.275	33.51
476.63	33.39
476.984	33.83
477.338	33.68
477.692	33.64
478.045	33.67
478.399	33.71
478.753	33.78
479.107	33.91
479.461	33.81
479.814	34.03
480.168	33.77
480.521	33.88
480.875	33.78
481.228	33.75
481.582	34.22
481.935	34.11
482.289	34.31
482.642	34.29
482.995	34.18
483.348	34.07
483.701	34.07
484.055	33.97
484.408	33.95
484.761	33.68
485.114	33.48
485.466	33.46
485.819	33.63
486.172	33.63
486.525	33.69
486.878	33.71
487.23	33.95
487.583	34.05
487.936	34.22
488.288	34.22
488.641	34.17
488.993	34.03
489.345	33.97
489.698	34.08
490.05	34.1
490.402	34.32
490.754	34.47
491.107	34.62
491.459	34.78
491.811	34.85
492.163	34.93
492.515	34.91
492.866	34.77
493.218	34.51
493.57	34.53
493.922	34.66
494.274	34.91
494.625	35.04
494.977	35.21
495.328	35.35
495.68	35.63
496.031	36.08
496.383	36.11
496.734	36.28
497.086	35.97
497.437	36.11
497.788	36.19
498.139	36.16
498.49	36.16
498.842	36.03
499.193	36.19
499.544	36.24
499.894	36.21
500.245	36.43
500.596	36.44
500.947	36.6
501.298	36.75
501.648	36.7
501.999	36.8
502.35	36.95
502.7	37.05
503.051	37.17
503.401	37.2
503.752	37.22
504.102	37.27
504.452	37.03
504.803	37.36
505.153	37.18
505.503	37.4
505.853	37.31
506.203	37.27
506.553	37.34
506.903	37.57
507.253	37.69
507.603	37.8
507.953	37.65
508.303	37.79
508.652	37.84
509.002	37.93
509.352	37.75
509.701	37.65
510.051	37.85
510.4	37.98
510.75	37.99
511.099	37.8
511.449	37.57
511.798	37.98
512.147	37.89
512.496	38.18
512.846	38.23
513.195	38.22
513.544	38.55
513.893	38.25
514.242	38.33
514.591	38.52
514.939	38.57
515.288	38.6
515.637	38.53
515.986	38.62
516.334	38.57
516.683	38.93
517.032	38.92
517.38	39.12
517.729	39.22
518.077	39.09
518.426	38.99
518.774	38.96
519.122	38.95
519.47	38.92
519.819	38.76
520.167	38.85
520.515	38.73
520.863	38.9
521.211	38.85
521.559	39.09
521.907	39.3
522.255	39.21
522.602	39.29
522.95	39.54
523.298	39.61
523.645	39.7
523.993	39.85
524.341	39.75
524.688	39.82
525.036	39.96
525.383	40
525.73	39.99
526.078	40.3
526.425	39.98
526.772	39.7
527.119	39.64
527.466	39.81
527.814	39.66
528.161	39.92
528.508	40
528.854	40.13
529.201	39.79
529.548	39.77
529.895	39.61
530.242	39.67
530.588	39.68
530.935	39.74
531.282	39.79
531.628	39.81
531.975	39.96
532.321	40.02
532.667	40.44
533.014	40.54
533.36	40.5
533.706	40.5
534.052	40.62
534.399	40.7
534.745	40.41
535.091	40.31
535.437	40.4
535.783	40.63
536.129	40.74
536.474	40.82
536.82	40.94
537.166	41.13
537.512	41.18
537.857	41.4
538.203	41.16
538.549	41
538.894	41.23
539.239	41.47
539.585	41.36
539.93	41.44
540.276	41.79
540.621	41.99
540.966	41.93
541.311	41.93
541.656	42.08
542.001	41.84
542.346	41.64
542.691	41.39
543.036	41.21
543.381	41.35
543.726	41.39
544.071	41.54
544.415	41.63
544.76	41.85
545.105	42.04
545.449	42.12
545.794	42.37
546.138	42.27
546.483	42.38
546.827	42.6
547.171	42.51
547.516	42.52
547.86	42.48
548.204	42.52
548.548	42.69
548.892	42.68
549.236	42.84
549.58	42.92
549.924	42.97
550.268	43.4
550.612	43.62
550.956	43.36
551.3	43.65
551.643	43.47
551.987	43.69
552.33	43.92
552.674	43.76
553.017	43.82
553.361	43.97
553.704	44.16
554.048	43.97
554.391	43.87
554.734	44.16
555.077	44.15
555.42	43.96
555.764	44.14
556.107	44.23
556.45	44.28
556.793	44.32
557.135	44.33
557.478	44.6
557.821	44.5
558.164	44.64
558.507	44.7
558.849	44.44
559.192	44.51
559.534	44.89
559.877	44.76
560.219	44.85
560.562	45.2
560.904	45.11
561.246	45.05
561.589	45.3
561.931	45.07
562.273	45.03
562.615	45.37
562.957	45.17
563.299	45.19
563.641	45.33
563.983	45.31
564.325	45.15
564.667	45.28
565.008	45.37
565.35	45.61
565.692	45.68
566.033	45.28
566.375	45.63
566.716	45.68
567.058	45.78
567.399	45.91
567.741	45.39
568.082	45.71
568.423	45.55
568.764	45.6
569.105	45.83
569.447	45.68
569.788	46.05
570.129	46.15
570.47	46.19
570.811	46.17
571.151	46.41
571.492	46.25
571.833	46.16
572.174	46.46
572.514	46.52
572.855	46.42
573.195	46.25
573.536	46.48
573.876	46.35
574.217	46.23
574.557	46.61
574.898	46.59
575.238	46.72
575.578	46.61
575.918	47.02
576.258	46.89
576.598	46.69
576.938	46.95
577.278	46.59
577.618	47.13
577.958	47.09
578.298	47.13
578.638	47.22
578.977	47.38
579.317	47.19
579.657	47.51
579.996	47.47
580.336	47.54
580.675	47.55
581.014	47.75
581.354	47.47
581.693	47.87
582.032	47.91
582.372	47.67
582.711	48.02
583.05	48.33
583.389	48.03
583.728	48.18
584.067	47.92
584.406	48.12
584.745	48.33
585.083	48.02
585.422	48.41
585.761	48.47
586.1	48.28
586.438	48.5
586.777	48.1
587.115	48.71
587.454	48.24
587.792	48.54
588.13	48.68
588.469	48.56
588.807	48.48
589.145	48.44
589.483	48.7
589.821	48.55
590.159	48.83
590.497	48.75
590.835	48.59
591.173	49.01
591.511	49.09
591.849	49.03
592.187	49.24
592.524	49.04
592.862	49.05
593.2	49.09
593.537	49.35
593.875	49.49
594.212	49.59
594.55	48.86
594.887	49.76
595.224	49.26
595.561	49.65
595.899	49.43
596.236	49.61
596.573	49.29
596.91	49.9
597.247	49.35
597.584	49.65
597.921	49.4
598.258	49.59
598.594	49.35
598.931	49.43
599.268	49.59
599.604	49.41
599.941	49.45
600.277	49.82
600.614	49.99
600.95	50.14
601.287	49.85
601.623	50.29
601.959	50.44
602.296	50.24
602.632	50.09
602.968	50.28
603.304	50.43
603.64	50.36
603.976	50.75
604.312	50.49
604.648	50.5
604.984	50.31
605.319	50.59
605.655	50.7
605.991	50.37
606.326	50.37
606.662	50.4
606.998	50.2
607.333	50.34
607.668	50.45
608.004	50.74
608.339	50.78
608.674	50.93
609.01	50.79
609.345	51.19
609.68	50.92
610.015	51.07
610.35	51.23
610.685	51.16
611.02	50.83
611.355	51.01
611.689	50.94
612.024	51.11
612.359	50.98
612.694	51.34
613.028	51.18
613.363	51.49
613.697	51.33
614.032	51.82
614.366	51.62
614.7	52.04
615.035	52.03
615.369	51.52
615.703	51.73
616.037	51.47
616.371	52.22
616.705	51.79
617.039	52.1
617.373	52.04
617.707	52.29
618.041	52.06
618.375	52.58
618.709	52.6
619.042	52.35
619.376	52.75
619.71	52.36
620.043	52.5
620.377	52.66
620.71	52.54
621.043	52.74
621.377	52.67
621.71	52.52
622.043	53.3
622.376	53.31
622.709	52.69
623.043	52.61
623.376	52.7
623.709	52.96
624.041	52.94
624.374	53.12
624.707	53.25
625.04	53.22
625.373	52.83
625.705	53.33
626.038	53.21
626.37	52.88
626.703	53.4
627.035	53.55
627.368	53.2
627.7	53.54
628.032	53.01
628.365	53.04
628.697	52.97
629.029	53.54
629.361	53.3
629.693	53.63
630.025	53.2
630.357	53.25
630.689	53.63
631.021	53.7
631.353	53.64
631.684	53.81
632.016	54.27
632.348	53.81
632.679	53.69
633.011	53.52
633.342	53.51
633.674	54.6
634.005	54.01
634.336	53.83
634.668	53.98
634.999	53.82
635.33	54.23
635.661	54.34
635.992	54.22
636.323	54.01
636.654	54.59
636.985	54.54
637.316	54.28
637.647	54.34
637.977	54.52
638.308	54.37
638.639	54.57
638.969	54.85
639.3	54.76
639.63	54.35
639.961	54.85
640.291	54.93
640.622	55.22
640.952	55.07
641.282	54.89
641.612	55.32
641.943	54.84
642.273	54.58
642.603	54.76
642.933	54.56
643.263	55.02
643.592	55.56
643.922	55.02
644.252	55.04
644.582	54.82
644.911	54.99
645.241	55.48
645.571	54.96
645.9	55.28
646.23	55.41
646.559	54.34
646.888	54.9
647.218	56.03
647.547	55.63
647.876	55.4
648.205	55.82
648.534	55.59
648.863	55.46
649.192	55.38
649.521	55.14
649.85	55.94
650.179	55.55
650.508	55.78
650.837	55.38
651.165	55.73
651.494	55.83
651.822	55.92
652.151	55.77
652.479	56.27
652.808	56.01
653.136	55.77
653.465	55.82
653.793	56.18
654.121	56.17
654.449	55.89
654.777	56.39
655.105	55.99
655.433	56.02
655.761	55.71
656.089	55.81
656.417	56.83
656.745	55.9
657.073	56.4
657.4	55.81
657.728	56.68
658.056	56.55
658.383	56.48
658.711	56.37
659.038	56.3
659.365	57.01
659.693	56.49
660.02	56.31
660.347	56.93
660.674	56.84
661.001	56.88
661.329	56.81
661.656	56.37
661.982	56.78
662.309	57.04
662.636	56.72
662.963	56.9
663.29	56.67
663.616	57.22
663.943	57.76
664.27	56.66
664.596	57.39
664.923	56.27
665.249	57.61
665.576	57.05
665.902	57.85
666.228	57.19
666.554	57.54
666.881	56.92
667.207	56.58
667.533	56.57
667.859	57.4
668.185	57.29
668.511	56.92
668.837	57.36
669.162	57.71
