Data from 815656_chest_Reflection__2__96.txt Node

Date: Fri Sep 16 15:26:30 CDT 2022
User: ToomeyLab
Spectrometer: FLMS14357
Trigger mode: 0
Integration Time (sec): 1.000000E-2
Scans to average: 100
Electric dark correction enabled: true
Nonlinearity correction enabled: false
Boxcar width: 0
XAxis mode: Wavelengths
Number of Pixels in Spectrum: 2048
>>>>>Begin Spectral Data<<<<<
189.047	200.75
189.435	200.75
189.823	200.75
190.211	122.05
190.599	233.21
190.987	223.65
191.375	65.01
191.763	41.45
192.151	-87.51
192.538	-2.99
192.926	688.75
193.314	146.25
193.702	51.83
194.089	411.16
194.477	-36.92
194.864	196.32
195.252	-28.63
195.639	87.31
196.027	119.03
196.414	-13582.61
196.801	39.34
197.189	23.35
197.576	26.26
197.963	-527.18
198.351	-29.24
198.738	19.01
199.125	8.5
199.512	761.82
199.899	6.01
200.286	-8.35
200.673	2.45
201.06	46.73
201.447	42.27
201.833	29.38
202.22	25.47
202.607	-22.84
202.994	19.96
203.38	41.97
203.767	-6.74
204.154	0.66
204.54	7.7
204.927	-26.45
205.313	37.54
205.699	40.72
206.086	41.2
206.472	22.85
206.858	-7.73
207.245	4.31
207.631	22.23
208.017	22.88
208.403	16.31
208.789	19.18
209.175	8.87
209.561	-20.9
209.947	-20.87
210.333	4.93
210.719	30.24
211.105	-2.46
211.491	35.41
211.876	45.19
212.262	15.49
212.648	9.1
213.034	2.92
213.419	-3.73
213.805	17.15
214.19	13.42
214.576	-3.79
214.961	-2.42
215.346	-27.85
215.732	-10.34
216.117	43.19
216.502	-4.15
216.888	5.44
217.273	4.43
217.658	-0.22
218.043	-91.98
218.428	-8.06
218.813	-7.78
219.198	33.75
219.583	0.89
219.968	-2.82
220.353	-8.91
220.738	6.91
221.122	-9.9
221.507	34.89
221.892	3.67
222.276	-1.71
222.661	16.64
223.046	4.68
223.43	7.91
223.815	-4.32
224.199	11.85
224.583	9.29
224.968	9.85
225.352	-4.15
225.736	6.83
226.121	4.8
226.505	9.16
226.889	10.29
227.273	7.07
227.657	7.52
228.041	4.73
228.425	0.61
228.809	6.51
229.193	3.85
229.577	5.25
229.961	4.28
230.344	5.92
230.728	4.45
231.112	4.55
231.495	3.82
231.879	5.06
232.263	4.44
232.646	3.83
233.03	4.19
233.413	5
233.797	4
234.18	6.65
234.563	2.48
234.946	5.92
235.33	3.89
235.713	4.25
236.096	4.21
236.479	5.11
236.862	4.63
237.245	3.11
237.628	5.74
238.011	4.42
238.394	4.54
238.777	5.46
239.16	5.78
239.543	5.44
239.925	4.46
240.308	5.39
240.691	4.78
241.073	3.86
241.456	4.53
241.838	2.89
242.221	5.18
242.603	4.37
242.986	4.39
243.368	4.73
243.75	4.45
244.133	5.13
244.515	4.46
244.897	4.94
245.279	4.43
245.661	4.81
246.043	4.91
246.425	4.75
246.807	4.93
247.189	4.39
247.571	4.51
247.953	4.69
248.335	4.77
248.717	4.67
249.098	4.52
249.48	4.67
249.862	4.61
250.243	4.84
250.625	4.87
251.006	4.88
251.388	4.64
251.769	3.53
252.151	5.14
252.532	3.75
252.913	4.57
253.295	4.86
253.676	4.99
254.057	4.65
254.438	4.22
254.819	4.21
255.2	4.19
255.581	4.77
255.962	4.14
256.343	5.19
256.724	3.45
257.105	4.51
257.486	4.85
257.867	4.46
258.247	5.2
258.628	4.76
259.009	4.76
259.389	5.17
259.77	4.35
260.15	4.73
260.531	4.19
260.911	4.35
261.292	4.3
261.672	4.5
262.052	4.12
262.432	4.07
262.813	4.82
263.193	4.37
263.573	4.56
263.953	4.01
264.333	4.61
264.713	4.17
265.093	4.14
265.473	3.97
265.853	4.66
266.233	4.78
266.612	5.17
266.992	3.43
267.372	4.44
267.752	4.37
268.131	4.56
268.511	4.66
268.89	4.44
269.27	3.68
269.649	4.09
270.029	4.39
270.408	4.49
270.787	4.01
271.167	3.78
271.546	4.67
271.925	4.3
272.304	4.37
272.683	3.74
273.062	4.4
273.441	4.48
273.82	4.41
274.199	4.4
274.578	4.16
274.957	4.36
275.336	4.38
275.715	4.58
276.093	4.22
276.472	3.86
276.851	3.93
277.229	4.42
277.608	4.22
277.986	4.32
278.365	3.72
278.743	4.33
279.122	4.33
279.5	3.77
279.878	4.34
280.257	4.04
280.635	4.12
281.013	3.92
281.391	4.25
281.769	4.36
282.147	4.28
282.525	3.97
282.903	4.2
283.281	4.23
283.659	4.52
284.037	4.01
284.415	4.62
284.792	4.58
285.17	4.33
285.548	4.35
285.925	4.18
286.303	4.39
286.68	4.13
287.058	4.1
287.435	3.8
287.813	4.39
288.19	3.84
288.567	4
288.945	4.3
289.322	4.1
289.699	4.49
290.076	3.95
290.453	4.28
290.83	4.26
291.207	3.95
291.584	3.93
291.961	4.5
292.338	4.68
292.715	3.97
293.092	4.09
293.469	4.3
293.845	3.99
294.222	4.61
294.599	4.25
294.975	3.79
295.352	4.07
295.728	4.2
296.105	4.67
296.481	3.88
296.858	4.46
297.234	4.52
297.61	4.87
297.986	4.43
298.363	4.29
298.739	3.95
299.115	4.34
299.491	4.57
299.867	4.01
300.243	4.23
300.619	4.52
300.995	4.37
301.371	4.45
301.746	4.3
302.122	4.75
302.498	4.43
302.874	4.18
303.249	4.45
303.625	4.43
304	4.62
304.376	3.53
304.751	4.5
305.127	4.18
305.502	4.36
305.878	4.5
306.253	4.62
306.628	4.62
307.003	4.85
307.378	5.04
307.754	5.1
308.129	5.39
308.504	4.57
308.879	5.11
309.254	4.88
309.629	4.19
310.003	4.46
310.378	4.18
310.753	4.8
311.128	4.5
311.502	4.1
311.877	4.72
312.252	4.81
312.626	4.66
313.001	4.64
313.375	4.9
313.75	4.63
314.124	4.35
314.498	4.47
314.873	4.86
315.247	4.82
315.621	4.67
315.995	4.22
316.369	4.52
316.743	5.23
317.117	4.25
317.491	4.68
317.865	4.98
318.239	4.99
318.613	4.32
318.987	4.54
319.361	3.97
319.734	5.17
320.108	5.01
320.482	4.81
320.855	4.76
321.229	4.47
321.602	4.88
321.976	4.37
322.349	4.76
322.723	4.53
323.096	4.74
323.469	4.93
323.843	4.92
324.216	5.12
324.589	4.46
324.962	4.46
325.335	5.26
325.708	4.98
326.081	4.79
326.454	4.95
326.827	4.66
327.2	4.89
327.573	4.65
327.945	4.78
328.318	4.99
328.691	4.83
329.063	4.85
329.436	4.5
329.809	4.49
330.181	5.16
330.553	4.44
330.926	4.82
331.298	4.79
331.671	4.65
332.043	5.01
332.415	4.58
332.787	4.6
333.159	4.58
333.532	4.85
333.904	4.88
334.276	4.81
334.648	4.78
335.02	4.77
335.391	5.01
335.763	4.22
336.135	4.49
336.507	5.03
336.879	5.22
337.25	4.02
337.622	4.68
337.993	5.29
338.365	5.46
338.736	5.43
339.108	4.74
339.479	5.28
339.851	5.02
340.222	4.87
340.593	5.25
340.964	5.14
341.336	4.98
341.707	4.77
342.078	5.26
342.449	4.96
342.82	4.52
343.191	4.98
343.562	5.24
343.933	5.03
344.303	5.38
344.674	4.55
345.045	4.84
345.416	4.93
345.786	5.11
346.157	5.22
346.527	5.06
346.898	5.06
347.268	5.23
347.639	4.3
348.009	5.05
348.38	5.12
348.75	4.88
349.12	4.89
349.49	5.24
349.861	5.29
350.231	5.35
350.601	5.41
350.971	4.88
351.341	5.41
351.711	4.8
352.081	4.99
352.45	5.23
352.82	5.41
353.19	4.77
353.56	5.01
353.929	5.39
354.299	5.18
354.669	5.34
355.038	4.93
355.408	5.02
355.777	4.8
356.147	5.18
356.516	5.54
356.885	5.16
357.254	5.28
357.624	5.24
357.993	5.13
358.362	5.44
358.731	5.49
359.1	5.46
359.469	5.04
359.838	4.97
360.207	5.62
360.576	5.16
360.945	5.22
361.314	4.93
361.682	5.12
362.051	5.17
362.42	5.41
362.788	5.41
363.157	5.32
363.525	5.23
363.894	5.38
364.262	5.12
364.631	5.31
364.999	5.14
365.367	5.12
365.735	5.43
366.104	5.29
366.472	5.4
366.84	5.29
367.208	5.32
367.576	5.17
367.944	5.08
368.312	5.33
368.68	5.22
369.048	5.69
369.416	5.04
369.783	5.51
370.151	5.43
370.519	5.11
370.886	5.37
371.254	5.09
371.621	5.39
371.989	5.24
372.356	5.75
372.724	5.64
373.091	5.1
373.458	5.23
373.826	5.5
374.193	5.68
374.56	5.02
374.927	5.26
375.294	5.58
375.661	5.61
376.028	5.35
376.395	5.04
376.762	5.73
377.129	5.24
377.496	5.29
377.863	5.6
378.229	5.57
378.596	5.35
378.963	5.34
379.329	5.29
379.696	5.62
380.062	5.38
380.429	5.63
380.795	5.53
381.161	5.59
381.528	5.89
381.894	5.42
382.26	5.34
382.626	5.47
382.993	5.34
383.359	5.32
383.725	5.38
384.091	5.57
384.457	5.09
384.823	5.57
385.188	5.5
385.554	5.45
385.92	5.44
386.286	5.43
386.651	5.68
387.017	5.47
387.383	5.21
387.748	5.41
388.114	5.09
388.479	5.38
388.845	5.63
389.21	5.64
389.575	5.54
389.94	5.55
390.306	5.48
390.671	5.67
391.036	5.52
391.401	5.67
391.766	5.59
392.131	5.32
392.496	5.47
392.861	5.6
393.226	5.75
393.591	5.72
393.956	5.68
394.32	5.61
394.685	5.76
395.05	5.83
395.414	5.5
395.779	5.89
396.143	5.68
396.508	5.36
396.872	5.83
397.236	5.55
397.601	5.4
397.965	5.44
398.329	5.49
398.694	5.8
399.058	5.91
399.422	5.92
399.786	5.64
400.15	5.76
400.514	5.76
400.878	5.68
401.242	5.8
401.605	5.68
401.969	5.67
402.333	5.81
402.697	5.68
403.06	5.73
403.424	5.75
403.787	5.84
404.151	5.77
404.514	5.7
404.878	5.66
405.241	5.7
405.604	5.92
405.968	5.76
406.331	5.62
406.694	5.78
407.057	5.88
407.42	5.63
407.783	5.74
408.146	5.94
408.509	5.62
408.872	5.77
409.235	5.84
409.598	5.55
409.961	5.93
410.323	5.76
410.686	5.93
411.049	5.62
411.411	5.59
411.774	5.92
412.136	5.88
412.499	5.76
412.861	5.81
413.223	5.77
413.586	5.7
413.948	5.91
414.31	6.01
414.672	5.75
415.035	6.04
415.397	5.61
415.759	5.88
416.121	5.99
416.483	5.87
416.845	5.94
417.206	6.04
417.568	5.85
417.93	6.11
418.292	5.79
418.653	5.7
419.015	5.88
419.377	5.96
419.738	5.84
420.1	5.87
420.461	5.95
420.822	5.8
421.184	5.8
421.545	5.79
421.906	5.91
422.267	5.81
422.629	5.73
422.99	5.74
423.351	5.78
423.712	5.69
424.073	5.8
424.434	5.84
424.795	5.89
425.155	5.91
425.516	5.87
425.877	5.8
426.238	5.86
426.598	5.78
426.959	5.75
427.32	5.74
427.68	5.8
428.041	5.77
428.401	5.78
428.761	6.08
429.122	5.92
429.482	5.87
429.842	5.77
430.202	6.11
430.563	6.04
430.923	6.15
431.283	6.12
431.643	6.15
432.003	6.2
432.363	5.89
432.722	6.09
433.082	6.11
433.442	6.16
433.802	6.12
434.161	5.93
434.521	6.09
434.881	6.04
435.24	6.08
435.6	6.1
435.959	6.15
436.319	6.03
436.678	6.12
437.037	5.95
437.396	6.08
437.756	6.13
438.115	6.06
438.474	6
438.833	6.05
439.192	5.99
439.551	6.1
439.91	6.19
440.269	6.25
440.628	6.08
440.987	6.12
441.345	6.1
441.704	6.16
442.063	6.17
442.421	6.09
442.78	6.08
443.138	6.13
443.497	5.96
443.855	6.08
444.214	5.95
444.572	6.29
444.93	6.31
445.288	6.26
445.647	6.14
446.005	6.11
446.363	6.22
446.721	6.2
447.079	6.07
447.437	6.17
447.795	6.22
448.153	6.27
448.51	6.11
448.868	6.16
449.226	6.07
449.584	6.15
449.941	6.12
450.299	6.13
450.656	6.24
451.014	6.24
451.371	6.23
451.729	6.11
452.086	6.18
452.443	6.21
452.801	6.26
453.158	6.19
453.515	6.37
453.872	6.28
454.229	6.26
454.586	6.32
454.943	6.22
455.3	6.34
455.657	6.19
456.014	6.41
456.371	6.28
456.727	6.35
457.084	6.4
457.441	6.34
457.797	6.4
458.154	6.43
458.51	6.35
458.867	6.34
459.223	6.36
459.58	6.41
459.936	6.28
460.292	6.49
460.648	6.3
461.005	6.39
461.361	6.45
461.717	6.3
462.073	6.23
462.429	6.27
462.785	6.38
463.141	6.38
463.496	6.38
463.852	6.37
464.208	6.44
464.564	6.38
464.919	6.41
465.275	6.53
465.631	6.43
465.986	6.46
466.342	6.51
466.697	6.58
467.052	6.41
467.408	6.55
467.763	6.59
468.118	6.42
468.473	6.52
468.829	6.54
469.184	6.47
469.539	6.47
469.894	6.39
470.249	6.64
470.603	6.51
470.958	6.34
471.313	6.6
471.668	6.56
472.023	6.54
472.377	6.56
472.732	6.58
473.086	6.57
473.441	6.36
473.795	6.67
474.15	6.42
474.504	6.67
474.859	6.52
475.213	6.61
475.567	6.38
475.921	6.57
476.275	6.71
476.63	6.65
476.984	6.69
477.338	6.68
477.692	6.69
478.045	6.68
478.399	6.64
478.753	6.57
479.107	6.7
479.461	6.63
479.814	6.59
480.168	6.56
480.521	6.75
480.875	6.68
481.228	6.61
481.582	6.6
481.935	6.7
482.289	6.76
482.642	6.71
482.995	6.68
483.348	6.75
483.701	6.66
484.055	6.56
484.408	6.7
484.761	6.59
485.114	6.52
485.466	6.44
485.819	6.44
486.172	6.35
486.525	6.31
486.878	6.37
487.23	6.43
487.583	6.49
487.936	6.6
488.288	6.55
488.641	6.59
488.993	6.6
489.345	6.52
489.698	6.49
490.05	6.41
490.402	6.48
490.754	6.53
491.107	6.53
491.459	6.65
491.811	6.6
492.163	6.69
492.515	6.79
492.866	6.79
493.218	6.63
493.57	6.62
493.922	6.6
494.274	6.56
494.625	6.65
494.977	6.65
495.328	6.71
495.68	6.76
496.031	6.88
496.383	6.87
496.734	6.86
497.086	6.86
497.437	6.91
497.788	6.93
498.139	6.9
498.49	7.02
498.842	7
499.193	6.89
499.544	6.87
499.894	6.82
500.245	7.03
500.596	6.85
500.947	6.99
501.298	6.9
501.648	7
501.999	7.05
502.35	7.01
502.7	7.16
503.051	7.15
503.401	7.05
503.752	7.11
504.102	7.09
504.452	7.05
504.803	7.15
505.153	7.16
505.503	7.1
505.853	7.03
506.203	7.11
506.553	7.14
506.903	7.15
507.253	7.13
507.603	7.14
507.953	7.12
508.303	7.22
508.652	7.12
509.002	7.22
509.352	7.25
509.701	7.11
510.051	7.21
510.4	7.16
510.75	7.21
511.099	7.1
511.449	7.09
511.798	7.12
512.147	7.2
512.496	7.28
512.846	7.38
513.195	7.24
513.544	7.19
513.893	7.32
514.242	7.32
514.591	7.39
514.939	7.24
515.288	7.39
515.637	7.42
515.986	7.32
516.334	7.27
516.683	7.35
517.032	7.48
517.38	7.51
517.729	7.55
518.077	7.61
518.426	7.45
518.774	7.46
519.122	7.42
519.47	7.49
519.819	7.42
520.167	7.46
520.515	7.4
520.863	7.46
521.211	7.33
521.559	7.39
521.907	7.36
522.255	7.32
522.602	7.46
522.95	7.44
523.298	7.58
523.645	7.68
523.993	7.48
524.341	7.62
524.688	7.7
525.036	7.71
525.383	7.69
525.73	7.61
526.078	7.7
526.425	7.66
526.772	7.64
527.119	7.63
527.466	7.64
527.814	7.65
528.161	7.54
528.508	7.59
528.854	7.64
529.201	7.6
529.548	7.67
529.895	7.63
530.242	7.59
530.588	7.52
530.935	7.54
531.282	7.44
531.628	7.48
531.975	7.51
532.321	7.59
532.667	7.7
533.014	7.78
533.36	7.76
533.706	7.82
534.052	7.85
534.399	7.94
534.745	7.86
535.091	7.83
535.437	7.82
535.783	7.75
536.129	7.75
536.474	7.79
536.82	7.76
537.166	7.9
537.512	7.98
537.857	8.04
538.203	7.98
538.549	7.98
538.894	7.89
539.239	8.04
539.585	7.95
539.93	7.92
540.276	8.22
540.621	8.2
540.966	8.27
541.311	8.11
541.656	8.21
542.001	8.1
542.346	8.16
542.691	8.26
543.036	8.12
543.381	8
543.726	8.05
544.071	8
544.415	8.05
544.76	8.12
545.105	8.27
545.449	8.3
545.794	8.22
546.138	8.18
546.483	8.41
546.827	8.34
547.171	8.5
547.516	8.39
547.86	8.39
548.204	8.44
548.548	8.4
548.892	8.38
549.236	8.38
549.58	8.51
549.924	8.67
550.268	8.66
550.612	8.73
550.956	8.51
551.3	8.68
551.643	8.72
551.987	8.81
552.33	8.7
552.674	8.51
553.017	8.69
553.361	8.99
553.704	8.92
554.048	8.86
554.391	8.82
554.734	8.8
555.077	9.01
555.42	8.94
555.764	9.1
556.107	8.99
556.45	8.91
556.793	9.08
557.135	8.94
557.478	8.97
557.821	8.98
558.164	9.17
558.507	9.2
558.849	8.9
559.192	9.13
559.534	9.35
559.877	8.96
560.219	9.09
560.562	9.3
560.904	9.31
561.246	9.22
561.589	9.33
561.931	9.33
562.273	9.36
562.615	9.4
562.957	9.35
563.299	9.45
563.641	9.41
563.983	9.72
564.325	9.46
564.667	9.27
565.008	9.55
565.35	9.43
565.692	9.57
566.033	9.63
566.375	9.43
566.716	9.59
567.058	9.7
567.399	9.63
567.741	9.65
568.082	9.77
568.423	9.52
568.764	9.62
569.105	9.77
569.447	9.8
569.788	9.73
570.129	9.86
570.47	9.94
570.811	10.07
571.151	9.94
571.492	9.95
571.833	10.02
572.174	10.05
572.514	9.92
572.855	10.02
573.195	10
573.536	10.07
573.876	10.02
574.217	10.19
574.557	10.08
574.898	9.91
575.238	10.02
575.578	10.07
575.918	10.3
576.258	10.25
576.598	10.05
576.938	10.25
577.278	10.19
577.618	10.24
577.958	10.43
578.298	10.38
578.638	10.38
578.977	10.36
579.317	10.32
579.657	10.44
579.996	10.52
580.336	10.47
580.675	10.57
581.014	10.73
581.354	10.5
581.693	10.37
582.032	10.84
582.372	10.88
582.711	10.84
583.05	11
583.389	10.94
583.728	11.03
584.067	11.03
584.406	11.22
584.745	11.15
585.083	10.94
585.422	11.03
585.761	11.09
586.1	10.75
586.438	11.12
586.777	10.79
587.115	11.07
587.454	11.13
587.792	11.09
588.13	11.16
588.469	11.25
588.807	10.99
589.145	11.34
589.483	11.47
589.821	11.33
590.159	11.22
590.497	11.39
590.835	11.41
591.173	11.46
591.511	11.19
591.849	11.43
592.187	11.38
592.524	11.44
592.862	11.53
593.2	11.31
593.537	11.51
593.875	11.54
594.212	11.7
594.55	11.55
594.887	11.76
595.224	11.77
595.561	11.84
595.899	11.82
596.236	11.92
596.573	11.71
596.91	11.77
597.247	11.76
597.584	11.89
597.921	12
598.258	11.82
598.594	11.66
598.931	11.9
599.268	11.98
599.604	11.98
599.941	11.9
600.277	11.93
600.614	12.29
600.95	12.18
601.287	12.03
601.623	12.18
601.959	12.26
602.296	12.25
602.632	12.35
602.968	12.35
603.304	12.54
603.64	12.26
603.976	12.75
604.312	12.56
604.648	12.81
604.984	12.57
605.319	12.71
605.655	12.8
605.991	12.55
606.326	12.7
606.662	12.66
606.998	12.57
607.333	12.66
607.668	12.93
608.004	12.62
608.339	12.65
608.674	12.8
609.01	12.93
609.345	13.15
609.68	13.09
610.015	12.78
610.35	13.04
610.685	13.2
611.02	13.15
611.355	13.16
611.689	13.1
612.024	13.35
612.359	13.05
612.694	13.03
613.028	12.96
613.363	13.16
613.697	13.5
614.032	13.48
614.366	13.43
614.7	13.44
615.035	13.25
615.369	13.54
615.703	13.7
616.037	13.42
616.371	13.72
616.705	13.63
617.039	13.88
617.373	13.36
617.707	13.36
618.041	14.03
618.375	13.9
618.709	13.66
619.042	13.71
619.376	14.01
619.71	13.98
620.043	13.8
620.377	13.86
620.71	14.3
621.043	14.27
621.377	14.46
621.71	14.16
622.043	14
622.376	14.22
622.709	14.74
623.043	14.27
623.376	14.06
623.709	14.23
624.041	14.56
624.374	14.28
624.707	14.38
625.04	14.75
625.373	14.32
625.705	14.56
626.038	14.77
626.37	14.61
626.703	14.28
627.035	14.84
627.368	14.92
627.7	14.95
628.032	14.67
628.365	14.78
628.697	14.82
629.029	15.12
629.361	14.77
629.693	14.8
630.025	14.69
630.357	14.93
630.689	15.04
631.021	15.16
631.353	15.31
631.684	15.14
632.016	15.11
632.348	15.25
632.679	15.1
633.011	15.11
633.342	14.91
633.674	15.5
634.005	15.38
634.336	14.81
634.668	15.43
634.999	14.84
635.33	15.5
635.661	15.62
635.992	15.67
636.323	15.58
636.654	15.76
636.985	15.66
637.316	15.76
637.647	15.64
637.977	15.67
638.308	15.81
638.639	15.9
638.969	15.97
639.3	16.23
639.63	15.5
639.961	16.03
640.291	16.26
640.622	16.2
640.952	16.02
641.282	16.45
641.612	16.24
641.943	16.11
642.273	15.8
642.603	15.98
642.933	16.1
643.263	15.96
643.592	15.94
643.922	15.84
644.252	16.16
644.582	16.41
644.911	16.63
645.241	16.69
645.571	16.44
645.9	16.88
646.23	16.09
646.559	16.06
646.888	16.27
647.218	16.64
647.547	16.57
647.876	17.49
648.205	17.18
648.534	16.55
648.863	16.58
649.192	17.04
649.521	16.91
649.85	16.86
650.179	16.89
650.508	17.28
650.837	17.38
651.165	17.31
651.494	17.34
651.822	17.08
652.151	16.88
652.479	17.69
652.808	17.68
653.136	16.95
653.465	17.67
653.793	17.24
654.121	17.2
654.449	17.34
654.777	17.44
655.105	17.63
655.433	17.29
655.761	17.41
656.089	17.96
656.417	17.81
656.745	17.44
657.073	17.72
657.4	17.76
657.728	18
658.056	17.62
658.383	17.86
658.711	17.5
659.038	17.59
659.365	18.14
659.693	17.71
660.02	18.26
660.347	17.98
660.674	18.31
661.001	18.55
661.329	18.25
661.656	18.01
661.982	18.41
662.309	18.33
662.636	18.31
662.963	18.41
663.29	18.6
663.616	18.63
663.943	18.5
664.27	18.12
664.596	19.12
664.923	18.81
665.249	18.69
665.576	18.34
665.902	19
666.228	18.74
666.554	18.82
666.881	19.43
667.207	18.79
667.533	18.63
667.859	18.91
668.185	19.05
668.511	19.04
668.837	19.13
669.162	19.37
669.488	19.3
669.814	19.08
670.139	19.23
670.465	19.01
670.791	19.2
671.116	19.49
671.442	19.28
671.767	19.7
672.092	19.57
672.418	19.38
672.743	19.81
673.068	19.66
673.393	19.26
673.718	20.22
674.043	20.13
674.368	20.15
674.693	20.44
675.018	20.18
675.343	19.8
675.667	19.7
675.992	19.56
676.317	19.82
676.641	19.43
676.966	20.14
677.29	20.38
677.615	20.82
677.939	19.71
678.264	20.09
678.588	19.55
678.912	19.75
679.236	20.84
679.56	20.24
679.885	20.53
680.209	20.07
680.532	20.95
680.856	20.48
681.18	20.74
681.504	20.72
681.828	20.41
682.152	20.24
682.475	20.57
682.799	19.9
683.122	20.35
683.446	20.77
683.769	20.67
684.093	20.44
684.416	20.79
684.739	20.76
685.062	20.9
685.386	21.08
