Data from 815656_forehead_Reflection__4__103.txt Node

Date: Fri Sep 16 15:28:55 CDT 2022
User: ToomeyLab
Spectrometer: FLMS14357
Trigger mode: 0
Integration Time (sec): 1.000000E-2
Scans to average: 100
Electric dark correction enabled: true
Nonlinearity correction enabled: false
Boxcar width: 0
XAxis mode: Wavelengths
Number of Pixels in Spectrum: 2048
>>>>>Begin Spectral Data<<<<<
189.047	-327.92
189.435	-327.92
189.823	-327.92
190.211	76.93
190.599	263.15
190.987	127.11
191.375	76.67
191.763	110.89
192.151	13.98
192.538	68.89
192.926	340.76
193.314	49.29
193.702	-10.57
194.089	174.61
194.477	66.65
194.864	2.94
195.252	-0.78
195.639	443.2
196.027	156.16
196.414	-12986.96
196.801	116.31
197.189	108.23
197.576	-106.17
197.963	105.81
198.351	-25.2
198.738	55.15
199.125	70.42
199.512	518.5
199.899	31.54
200.286	71.66
200.673	15.08
201.06	57.09
201.447	13.25
201.833	36.95
202.22	23.49
202.607	2.1
202.994	46.61
203.38	46.8
203.767	79.28
204.154	75.38
204.54	1.14
204.927	8.9
205.313	32.1
205.699	60.93
206.086	44.1
206.472	21.8
206.858	22.64
207.245	54.09
207.631	53.99
208.017	44.33
208.403	-10.43
208.789	29.18
209.175	60.43
209.561	5.44
209.947	56.39
210.333	34.63
210.719	35.61
211.105	31.36
211.491	46.65
211.876	44.39
212.262	17.11
212.648	16.45
213.034	15.5
213.419	8.65
213.805	42.92
214.19	19.62
214.576	17.32
214.961	26.4
215.346	-23.01
215.732	-21.45
216.117	25.68
216.502	11.53
216.888	16.08
217.273	35.59
217.658	18.7
218.043	-7.53
218.428	25.38
218.813	11.32
219.198	38.75
219.583	31.01
219.968	31.38
220.353	-3.15
220.738	37.65
221.122	2.14
221.507	36.24
221.892	16.51
222.276	32.05
222.661	25.87
223.046	27.19
223.43	7.97
223.815	-6.82
224.199	25.15
224.583	14.06
224.968	19.14
225.352	7.99
225.736	14.42
226.121	16.72
226.505	7.47
226.889	13.84
227.273	8.61
227.657	13.02
228.041	9.41
228.425	3.52
228.809	8.66
229.193	8.61
229.577	7.79
229.961	6.52
230.344	6.65
230.728	6.73
231.112	6.31
231.495	6.4
231.879	5.33
232.263	5.28
232.646	5.75
233.03	7.09
233.413	6.25
233.797	7.28
234.18	9.51
234.563	7.63
234.946	7.1
235.33	6.98
235.713	6.07
236.096	6.71
236.479	6.1
236.862	6.66
237.245	7.91
237.628	8.17
238.011	7.72
238.394	6.81
238.777	6.53
239.16	7.21
239.543	8
239.925	7.5
240.308	4.67
240.691	6.17
241.073	6.79
241.456	6.46
241.838	6.25
242.221	6.03
242.603	6.16
242.986	5.47
243.368	6.32
243.75	5.48
244.133	6.26
244.515	6.18
244.897	6.63
245.279	6.36
245.661	5.82
246.043	5.78
246.425	6.68
246.807	6.13
247.189	6.43
247.571	5.7
247.953	5.88
248.335	6.12
248.717	5.97
249.098	5.7
249.48	5.86
249.862	5.65
250.243	5.81
250.625	6.07
251.006	6.89
251.388	6.62
251.769	6.08
252.151	5.46
252.532	5.67
252.913	7.06
253.295	6.48
253.676	6.29
254.057	5.69
254.438	5.85
254.819	5.7
255.2	5.44
255.581	6.42
255.962	5.57
256.343	7.96
256.724	5.89
257.105	5.9
257.486	7.07
257.867	5.86
258.247	6.61
258.628	7.27
259.009	6.74
259.389	6.3
259.77	6.41
260.15	6.5
260.531	5.69
260.911	5.89
261.292	5.84
261.672	5.81
262.052	5.43
262.432	5.88
262.813	6.26
263.193	5.62
263.573	6.67
263.953	6.23
264.333	6.42
264.713	5.38
265.093	5.66
265.473	5.46
265.853	6.57
266.233	6.08
266.612	6.68
266.992	4.88
267.372	6.21
267.752	6.16
268.131	5.8
268.511	6.11
268.89	6.71
269.27	5.6
269.649	5.75
270.029	6.05
270.408	6.31
270.787	5.76
271.167	5.69
271.546	6.22
271.925	5.99
272.304	5.94
272.683	5.54
273.062	6.03
273.441	6.03
273.82	5.62
274.199	6.13
274.578	5.76
274.957	5.93
275.336	5.83
275.715	6.57
276.093	6.34
276.472	5.52
276.851	5.88
277.229	6.09
277.608	6
277.986	5.8
278.365	5.36
278.743	5.8
279.122	5.61
279.5	5.83
279.878	6.23
280.257	6.27
280.635	6.74
281.013	6.17
281.391	6.67
281.769	6.16
282.147	6.3
282.525	5.78
282.903	6.01
283.281	5.65
283.659	5.62
284.037	5.92
284.415	6.18
284.792	6.32
285.17	6.24
285.548	5.98
285.925	6.16
286.303	6.46
286.68	6.03
287.058	5.71
287.435	5.92
287.813	6.32
288.19	5.89
288.567	5.73
288.945	5.97
289.322	5.98
289.699	6.41
290.076	6.34
290.453	6.61
290.83	6.44
291.207	5.95
291.584	5.93
291.961	6.36
292.338	6.3
292.715	6.14
293.092	6.15
293.469	6.42
293.845	6.28
294.222	6.41
294.599	6.59
294.975	6.58
295.352	6.79
295.728	6.84
296.105	6.93
296.481	6.85
296.858	6.65
297.234	7.31
297.61	7.12
297.986	6.92
298.363	6.92
298.739	6.59
299.115	7.13
299.491	6.95
299.867	6.92
300.243	6.95
300.619	6.9
300.995	6.8
301.371	7.25
301.746	7.23
302.122	7.74
302.498	7.13
302.874	7.58
303.249	7.98
303.625	7.2
304	7.24
304.376	7.33
304.751	7.78
305.127	7.46
305.502	7.84
305.878	7.71
306.253	8.2
306.628	8.07
307.003	8.82
307.378	8.04
307.754	8.55
308.129	8.82
308.504	8.57
308.879	8.58
309.254	9.06
309.629	8.42
310.003	8.5
310.378	7.91
310.753	8.47
311.128	8.75
311.502	8.22
311.877	8.67
312.252	9.01
312.626	8.84
313.001	9.22
313.375	9.26
313.75	9.13
314.124	8.94
314.498	9.01
314.873	9.74
315.247	9.46
315.621	9.49
315.995	9.69
316.369	9.65
316.743	9.91
317.117	9.71
317.491	9.4
317.865	10.24
318.239	10.08
318.613	10.05
318.987	9.23
319.361	9.6
319.734	10.38
320.108	10.3
320.482	10.6
320.855	10.29
321.229	9.93
321.602	10.97
321.976	10.73
322.349	10.58
322.723	11.07
323.096	10.73
323.469	10.78
323.843	11.34
324.216	11.69
324.589	11.28
324.962	11
325.335	11.56
325.708	11.41
326.081	11.02
326.454	11.35
326.827	11.41
327.2	11.52
327.573	11.22
327.945	11.97
328.318	11.75
328.691	11.61
329.063	11.71
329.436	11.74
329.809	11.57
330.181	11.89
330.553	12.12
330.926	12.22
331.298	12.22
331.671	11.73
332.043	12.06
332.415	12.29
332.787	12.21
333.159	12.63
333.532	13.25
333.904	12.54
334.276	12.84
334.648	12.71
335.02	12.53
335.391	12.68
335.763	12.55
336.135	12.54
336.507	13.32
336.879	13.43
337.25	12.4
337.622	13.21
337.993	13.29
338.365	13.36
338.736	13.45
339.108	13.5
339.479	13.86
339.851	13.57
340.222	13.61
340.593	13.92
340.964	13.57
341.336	14.2
341.707	13.59
342.078	14.28
342.449	14.25
342.82	14.09
343.191	13.95
343.562	14.26
343.933	14.41
344.303	14.44
344.674	13.99
345.045	14.61
345.416	14.67
345.786	14.55
346.157	14.39
346.527	14.54
346.898	14.75
347.268	14.75
347.639	14.84
348.009	14.75
348.38	15.17
348.75	14.64
349.12	15.15
349.49	15.27
349.861	15.26
350.231	15.01
350.601	15.35
350.971	15.54
351.341	15.89
351.711	15.29
352.081	14.92
352.45	15.97
352.82	15.61
353.19	15.66
353.56	15.91
353.929	15.75
354.299	16.05
354.669	15.83
355.038	16.13
355.408	15.96
355.777	16.12
356.147	16.03
356.516	16.12
356.885	15.98
357.254	16.21
357.624	15.91
357.993	16.03
358.362	16.29
358.731	16.67
359.1	16.34
359.469	16.45
359.838	16.39
360.207	16.92
360.576	16.74
360.945	16.92
361.314	16.99
361.682	16.56
362.051	17.2
362.42	17.15
362.788	17.35
363.157	17.13
363.525	16.91
363.894	17.01
364.262	17
364.631	17.15
364.999	17.53
365.367	17.63
365.735	17.9
366.104	17.95
366.472	17.95
366.84	17.75
367.208	18.17
367.576	17.91
367.944	18.11
368.312	17.93
368.68	18.24
369.048	18.29
369.416	18.35
369.783	18.38
370.151	18.75
370.519	18.41
370.886	18.41
371.254	18.21
371.621	18.7
371.989	18.54
372.356	19.02
372.724	18.79
373.091	19.07
373.458	18.56
373.826	18.64
374.193	19.3
374.56	18.8
374.927	18.94
375.294	18.92
375.661	19.09
376.028	19.75
376.395	19.2
376.762	19.6
377.129	19.43
377.496	19.44
377.863	19.57
378.229	19.66
378.596	19.52
378.963	19.88
379.329	19.69
379.696	20.17
380.062	19.54
380.429	19.96
380.795	19.88
381.161	20.26
381.528	20.37
381.894	20.22
382.26	20.53
382.626	20.43
382.993	20.23
383.359	20.58
383.725	20.48
384.091	20.64
384.457	20.53
384.823	20.67
385.188	20.65
385.554	20.85
385.92	20.74
386.286	20.95
386.651	20.96
387.017	21.19
387.383	20.96
387.748	21.09
388.114	21.15
388.479	21.27
388.845	21.61
389.21	21.54
389.575	21.38
389.94	21.75
390.306	21.68
390.671	21.63
391.036	21.41
391.401	22.09
391.766	21.89
392.131	22.09
392.496	21.6
392.861	22.09
393.226	21.97
393.591	22.31
393.956	22
394.32	22.36
394.685	22.48
395.05	22.31
395.414	22.05
395.779	22.61
396.143	22.72
396.508	22.35
396.872	22.52
397.236	22.67
397.601	22.67
397.965	22.7
398.329	22.94
398.694	22.74
399.058	23.01
399.422	22.85
399.786	23.33
400.15	23.34
400.514	23.25
400.878	23.33
401.242	23.47
401.605	23.34
401.969	23.46
402.333	23.82
402.697	23.22
403.06	23.88
403.424	23.83
403.787	23.99
404.151	24.04
404.514	23.99
404.878	23.87
405.241	23.7
405.604	24.2
405.968	23.91
406.331	24.08
406.694	23.9
407.057	24.22
407.42	24.06
407.783	24.37
408.146	24.7
408.509	24.39
408.872	24.62
409.235	24.67
409.598	24.37
409.961	24.62
410.323	24.75
410.686	25
411.049	24.84
411.411	24.92
411.774	24.7
412.136	24.97
412.499	24.81
412.861	25.31
413.223	25.05
413.586	25.33
413.948	25.45
414.31	25.31
414.672	25.12
415.035	25.77
415.397	25.28
415.759	25.75
416.121	25.77
416.483	25.83
416.845	25.65
417.206	26.02
417.568	25.87
417.93	25.9
418.292	25.75
418.653	25.73
419.015	25.71
419.377	25.83
419.738	25.77
420.1	25.81
420.461	25.92
420.822	25.74
421.184	25.94
421.545	25.91
421.906	26.14
422.267	25.89
422.629	25.96
422.99	25.76
423.351	26.03
423.712	26.03
424.073	26.21
424.434	26.17
424.795	26.29
425.155	26.42
425.516	26.44
425.877	26.35
426.238	26.4
426.598	26.51
426.959	26.47
427.32	26.63
427.68	26.71
428.041	26.94
428.401	26.95
428.761	27.24
429.122	27.32
429.482	27.1
429.842	27.42
430.202	27.51
430.563	27.41
430.923	27.8
431.283	27.8
431.643	27.73
432.003	27.65
432.363	27.78
432.722	28.04
433.082	27.92
433.442	28.21
433.802	28.18
434.161	28.13
434.521	28.12
434.881	28.1
435.24	28.11
435.6	28.18
435.959	28.18
436.319	28.07
436.678	28.27
437.037	28.2
437.396	28.48
437.756	28.71
438.115	28.75
438.474	28.67
438.833	28.76
439.192	28.92
439.551	28.77
439.91	28.97
440.269	29.05
440.628	28.83
440.987	29
441.345	28.97
441.704	28.84
442.063	28.95
442.421	28.95
442.78	28.99
443.138	29.03
443.497	29.06
443.855	29.21
444.214	29.18
444.572	29.52
444.93	29.61
445.288	29.7
445.647	29.75
446.005	29.58
446.363	29.77
446.721	29.76
447.079	29.75
447.437	29.66
447.795	29.72
448.153	29.78
448.51	29.56
448.868	29.66
449.226	29.86
449.584	29.83
449.941	29.98
450.299	29.9
450.656	30.33
451.014	30.16
451.371	30.58
451.729	30.41
452.086	30.54
452.443	30.8
452.801	30.65
453.158	30.77
453.515	30.82
453.872	30.72
454.229	30.86
454.586	30.84
454.943	30.94
455.3	31.19
455.657	31.15
456.014	31.23
456.371	31.37
456.727	31.45
457.084	31.41
457.441	31.56
457.797	31.67
458.154	31.52
458.51	31.58
458.867	31.67
459.223	31.69
459.58	31.85
459.936	31.68
460.292	31.76
460.648	31.63
461.005	31.72
461.361	31.64
461.717	31.55
462.073	31.52
462.429	31.71
462.785	31.99
463.141	32.13
463.496	32.31
463.852	32.36
464.208	32.48
464.564	32.28
464.919	32.62
465.275	32.8
465.631	32.66
465.986	32.86
466.342	32.7
466.697	32.82
467.052	32.93
467.408	33.12
467.763	32.95
468.118	33.05
468.473	32.78
468.829	33.07
469.184	33.12
469.539	33.06
469.894	33.05
470.249	33.54
470.603	33.44
470.958	33.4
471.313	33.49
471.668	33.83
472.023	33.77
472.377	33.6
472.732	33.59
473.086	33.81
473.441	33.58
473.795	33.88
474.15	33.9
474.504	34.09
474.859	33.88
475.213	33.94
475.567	34.09
475.921	34.04
476.275	34.23
476.63	34.3
476.984	34.3
477.338	34.25
477.692	34.33
478.045	34.32
478.399	34.32
478.753	34.52
479.107	34.53
479.461	34.48
479.814	34.53
480.168	34.61
480.521	34.74
480.875	34.69
481.228	34.73
481.582	34.79
481.935	34.86
482.289	35.06
482.642	34.98
482.995	34.87
483.348	34.83
483.701	34.78
484.055	34.64
484.408	34.6
484.761	34.4
485.114	34.15
485.466	34.3
485.819	34.36
486.172	34.22
486.525	34.16
486.878	34.23
487.23	34.38
487.583	34.66
487.936	34.84
488.288	34.99
488.641	34.83
488.993	34.76
489.345	34.68
489.698	34.81
490.05	34.72
490.402	34.76
490.754	35.02
491.107	35.26
491.459	35.37
491.811	35.58
492.163	35.7
492.515	35.58
492.866	35.59
493.218	35.42
493.57	35.36
493.922	35.42
494.274	35.45
494.625	35.68
494.977	35.87
495.328	36.1
495.68	36.33
496.031	36.54
496.383	36.55
496.734	36.98
497.086	36.94
497.437	37.02
497.788	37.11
498.139	36.88
498.49	36.89
498.842	36.86
499.193	36.69
499.544	36.79
499.894	37.09
500.245	37.07
500.596	37.16
500.947	37.21
501.298	37.43
501.648	37.39
501.999	37.71
502.35	37.72
502.7	37.79
503.051	37.82
503.401	37.82
503.752	38.04
504.102	37.91
504.452	38.05
504.803	38.28
505.153	38.12
505.503	38.14
505.853	38.19
506.203	38.29
506.553	38.07
506.903	38.28
507.253	38.31
507.603	38.37
507.953	38.57
508.303	38.43
508.652	38.52
509.002	38.59
509.352	38.49
509.701	38.61
510.051	38.69
510.4	38.56
510.75	38.53
511.099	38.58
511.449	38.37
511.798	38.82
512.147	38.71
512.496	38.97
512.846	38.82
513.195	38.8
513.544	39.08
513.893	39.05
514.242	38.97
514.591	39.09
514.939	39.3
515.288	39.39
515.637	39.32
515.986	39.36
516.334	39.39
516.683	39.54
517.032	39.67
517.38	39.78
517.729	39.76
518.077	39.83
518.426	39.85
518.774	39.91
519.122	39.83
519.47	39.72
519.819	39.59
520.167	39.72
520.515	39.45
520.863	39.61
521.211	39.44
521.559	39.66
521.907	39.9
522.255	39.89
522.602	40.08
522.95	40.19
523.298	40.39
523.645	40.67
523.993	40.53
524.341	40.49
524.688	40.92
525.036	40.79
525.383	40.87
525.73	40.65
526.078	40.72
526.425	40.81
526.772	40.43
527.119	40.63
527.466	40.53
527.814	40.4
528.161	40.45
528.508	40.47
528.854	40.67
529.201	40.56
529.548	40.45
529.895	40.35
530.242	40.44
530.588	40.54
530.935	40.47
531.282	40.42
531.628	40.27
531.975	40.42
532.321	40.67
532.667	41.07
533.014	41.1
533.36	41.2
533.706	41.22
534.052	41.43
534.399	41.33
534.745	41.29
535.091	41.16
535.437	41.09
535.783	41.24
536.129	41.33
536.474	41.47
536.82	41.66
537.166	41.84
537.512	41.9
537.857	41.96
538.203	41.81
538.549	41.94
538.894	41.91
539.239	41.99
539.585	42.07
539.93	42.05
540.276	42.56
540.621	42.67
540.966	42.82
541.311	42.6
541.656	42.68
542.001	42.58
542.346	42.52
542.691	42.38
543.036	41.99
543.381	42.16
543.726	42.28
544.071	42.31
544.415	42.36
544.76	42.57
545.105	42.69
545.449	42.81
545.794	43.03
546.138	42.91
546.483	43.05
546.827	43.3
547.171	43.33
547.516	43.33
547.86	43.41
548.204	43.46
548.548	43.31
548.892	43.32
549.236	43.54
549.58	43.74
549.924	43.8
550.268	43.88
550.612	44.1
550.956	44.24
551.3	44.12
551.643	44.19
551.987	44.64
552.33	44.54
552.674	44.51
553.017	44.66
553.361	44.67
553.704	44.7
554.048	44.88
554.391	44.53
554.734	44.92
555.077	45
555.42	44.84
555.764	44.86
556.107	45.07
556.45	44.83
556.793	45.27
557.135	44.88
557.478	45.28
557.821	45.34
558.164	45.54
558.507	45.36
558.849	45.41
559.192	45.38
559.534	45.44
559.877	45.46
560.219	45.59
560.562	45.82
560.904	45.99
561.246	46.04
561.589	45.68
561.931	45.96
562.273	45.9
562.615	46.1
562.957	46.13
563.299	45.95
563.641	46.16
563.983	46.29
564.325	45.84
564.667	46.01
565.008	46.42
565.35	46.41
565.692	46.53
566.033	46.59
566.375	46.55
566.716	46.68
567.058	46.71
567.399	46.8
567.741	46.34
568.082	46.58
568.423	46.24
568.764	46.36
569.105	46.74
569.447	46.76
569.788	46.65
570.129	46.96
570.47	46.93
570.811	46.95
571.151	47
571.492	47.05
571.833	47.12
572.174	47.42
572.514	46.99
572.855	47.26
573.195	47.15
573.536	47.09
573.876	47.39
574.217	47.24
574.557	47.23
574.898	47.18
575.238	47.16
575.578	47.44
575.918	47.52
576.258	47.41
576.598	47.48
576.938	47.6
577.278	47.51
577.618	47.78
577.958	47.71
578.298	47.8
578.638	47.83
578.977	48.06
579.317	47.82
579.657	48.35
579.996	48.03
580.336	47.91
580.675	48.4
581.014	48.44
581.354	48.48
581.693	48.63
582.032	48.53
582.372	48.54
582.711	48.71
583.05	49.13
583.389	48.85
583.728	48.92
584.067	48.75
584.406	48.76
584.745	49.04
585.083	49.22
585.422	49.22
585.761	49.29
586.1	49.14
586.438	49.12
586.777	49.18
587.115	49.11
587.454	49.37
587.792	49.59
588.13	49.73
588.469	49.53
588.807	49.76
589.145	49.85
589.483	49.63
589.821	49.74
590.159	49.47
590.497	49.91
590.835	49.8
591.173	49.91
591.511	49.68
591.849	49.63
592.187	50.12
592.524	49.97
592.862	49.9
593.2	49.59
593.537	50.05
593.875	50.36
594.212	50.15
594.55	49.84
594.887	50.15
595.224	50.17
595.561	50.07
595.899	50.18
596.236	50.33
596.573	50.31
596.91	50.45
597.247	50.49
597.584	50.24
597.921	50.34
598.258	50.14
598.594	50.2
598.931	50.23
599.268	50.21
599.604	50.24
599.941	50.28
600.277	50.41
600.614	51.02
600.95	50.95
601.287	50.85
601.623	50.9
601.959	51.06
602.296	50.96
602.632	51.22
602.968	51.12
603.304	50.98
603.64	51.19
603.976	51.13
604.312	51.13
604.648	51.22
604.984	51.11
605.319	51.31
605.655	51.19
605.991	51.2
606.326	50.96
606.662	51.24
606.998	51.2
607.333	51.29
607.668	51.58
608.004	51.4
608.339	51.55
608.674	51.81
609.01	51.59
609.345	51.85
609.68	51.73
610.015	52.07
610.35	52.33
610.685	52.16
611.02	51.86
611.355	51.91
611.689	51.75
612.024	51.99
612.359	51.71
612.694	51.96
613.028	52.39
613.363	52.25
613.697	52.27
614.032	52.72
614.366	52.59
614.7	52.41
615.035	52.67
615.369	52.44
615.703	52.67
616.037	52.64
616.371	53.12
616.705	52.38
617.039	52.84
617.373	52.7
617.707	53.18
618.041	52.88
618.375	53.63
618.709	53.5
619.042	53.23
619.376	53.25
619.71	53.35
620.043	53.43
620.377	52.88
620.71	53.95
621.043	53.53
621.377	53.43
621.71	53.48
622.043	53.59
622.376	53.99
622.709	53.43
623.043	53.52
623.376	53.38
623.709	53.62
624.041	53.66
624.374	53.81
624.707	54.11
625.04	53.91
625.373	54.04
625.705	53.81
626.038	53.6
626.37	54.23
626.703	54.21
627.035	54.19
627.368	54.21
627.7	54.2
628.032	53.53
628.365	53.72
628.697	54.03
629.029	54.01
629.361	54.01
629.693	54.35
630.025	54.02
630.357	54.06
630.689	54.31
631.021	54.39
631.353	54.17
631.684	54.48
632.016	55.07
632.348	54.64
632.679	54.77
633.011	54.55
633.342	54.71
633.674	55.11
634.005	54.83
634.336	54.72
634.668	55.01
634.999	54.77
635.33	55.1
635.661	54.93
635.992	55.14
636.323	54.64
636.654	55.23
636.985	55.1
637.316	55.04
637.647	54.57
637.977	55.01
638.308	55
638.639	55.12
638.969	55.52
639.3	55.52
639.63	55.56
639.961	55.38
640.291	55.17
640.622	55.77
640.952	56.06
641.282	56.02
641.612	56.17
641.943	55.75
642.273	55.52
642.603	55.64
642.933	55.44
643.263	56.18
643.592	55.85
643.922	56.06
644.252	55.6
644.582	55.97
644.911	55.67
645.241	55.96
645.571	56.03
645.9	55.9
646.23	56.16
646.559	55.89
646.888	55.97
647.218	56.92
647.547	56.76
647.876	56.84
648.205	57.29
648.534	56.14
648.863	56.35
649.192	56.33
649.521	55.9
649.85	56.18
650.179	56.99
650.508	56.54
650.837	56.77
651.165	57
651.494	56.95
651.822	56.73
652.151	56.8
652.479	57.2
652.808	57.02
653.136	56.53
653.465	57.01
653.793	57.16
654.121	57.11
654.449	56.59
654.777	56.98
655.105	56.93
655.433	57.13
655.761	57.07
656.089	57.2
656.417	57.51
656.745	56.93
657.073	57.09
657.4	57.4
657.728	57.59
658.056	56.7
658.383	57.28
658.711	56.84
659.038	57.11
659.365	57.34
659.693	57.5
660.02	57.26
660.347	57.68
660.674	57.46
661.001	57.43
661.329	57.69
661.656	57.18
661.982	57.45
662.309	57.75
662.636	57.48
662.963	58.1
663.29	57.55
663.616	58.11
663.943	57.93
664.27	57.74
664.596	58.42
664.923	57.62
665.249	57.86
665.576	57.99
665.902	58.17
666.228	57.79
666.554	58.39
666.881	58.15
667.207	57.12
667.533	57.32
667.859	57.65
668.185	58.66
668.511	57.76
668.837	58.08
669.162	58.4
