Data from 815656_crown_Reflection__0__104.txt Node

Date: Fri Sep 16 15:29:37 CDT 2022
User: ToomeyLab
Spectrometer: FLMS14357
Trigger mode: 0
Integration Time (sec): 1.000000E-2
Scans to average: 100
Electric dark correction enabled: true
Nonlinearity correction enabled: false
Boxcar width: 0
XAxis mode: Wavelengths
Number of Pixels in Spectrum: 2048
>>>>>Begin Spectral Data<<<<<
189.047	-203.02
189.435	-203.02
189.823	-203.02
190.211	-12.72
190.599	126.79
190.987	179.62
191.375	63.07
191.763	78.57
192.151	-25.78
192.538	-47.39
192.926	290.87
193.314	57.31
193.702	16.17
194.089	271.07
194.477	48.84
194.864	37.21
195.252	-60.42
195.639	104.66
196.027	-62.15
196.414	-25347.83
196.801	-18.27
197.189	-16.69
197.576	-9.5
197.963	-392.82
198.351	3.29
198.738	27.36
199.125	10.84
199.512	600
199.899	-8.1
200.286	52.04
200.673	-0.5
201.06	6.9
201.447	13.96
201.833	22.8
202.22	-17.92
202.607	-49.93
202.994	18.17
203.38	35.94
203.767	2.92
204.154	55.41
204.54	-46.16
204.927	-18.9
205.313	16.82
205.699	35.74
206.086	16.91
206.472	36.64
206.858	-6.84
207.245	-2.15
207.631	42.89
208.017	1.48
208.403	-26.34
208.789	-10.83
209.175	47.24
209.561	-7.29
209.947	-3.29
210.333	8.46
210.719	13.17
211.105	-16.99
211.491	-0.67
211.876	12.45
212.262	-0.19
212.648	10.71
213.034	10.12
213.419	9.44
213.805	6.16
214.19	40.95
214.576	25
214.961	-0.98
215.346	-18.72
215.732	-30.5
216.117	14.45
216.502	22.2
216.888	-18
217.273	5.33
217.658	-26.41
218.043	-81.07
218.428	26.94
218.813	18.32
219.198	-13.92
219.583	-29.92
219.968	21.4
220.353	-0.74
220.738	2.15
221.122	-29.75
221.507	36.47
221.892	-7.96
222.276	5.94
222.661	8.33
223.046	7.75
223.43	5.56
223.815	-10.52
224.199	7.44
224.583	11.36
224.968	9.6
225.352	2.44
225.736	12.52
226.121	12.78
226.505	4.04
226.889	6.46
227.273	3.52
227.657	8.47
228.041	3.9
228.425	-2.27
228.809	10.45
229.193	7.3
229.577	7.18
229.961	5.43
230.344	5.88
230.728	5.11
231.112	5.43
231.495	4.85
231.879	6.03
232.263	5.51
232.646	4.39
233.03	5.11
233.413	6.36
233.797	4.02
234.18	6.21
234.563	5.63
234.946	4.19
235.33	4.91
235.713	4.8
236.096	5.83
236.479	5.03
236.862	3.35
237.245	4.92
237.628	7.27
238.011	4.93
238.394	6.19
238.777	6.75
239.16	5.01
239.543	7.26
239.925	7.17
240.308	4.81
240.691	6.78
241.073	4.89
241.456	4.67
241.838	4.58
242.221	4.66
242.603	5.52
242.986	5.09
243.368	5.25
243.75	4.85
244.133	5.21
244.515	4.88
244.897	5.55
245.279	4.96
245.661	5.3
246.043	4.13
246.425	5.06
246.807	5.06
247.189	4.76
247.571	4.6
247.953	5.07
248.335	5.22
248.717	5.01
249.098	5.05
249.48	5.05
249.862	5.18
250.243	5.09
250.625	5.13
251.006	5.28
251.388	5.46
251.769	3.93
252.151	4.71
252.532	4.61
252.913	4.99
253.295	4.7
253.676	5.21
254.057	4.94
254.438	4.27
254.819	4.11
255.2	4.08
255.581	4.94
255.962	3.48
256.343	4.87
256.724	4.82
257.105	3.61
257.486	4.62
257.867	4.24
258.247	4.09
258.628	5.61
259.009	4.6
259.389	5
259.77	4.18
260.15	4.98
260.531	4.6
260.911	4.48
261.292	4.52
261.672	4.66
262.052	4.55
262.432	4.53
262.813	5.35
263.193	4.29
263.573	4.45
263.953	5.05
264.333	4.44
264.713	4.16
265.093	4.02
265.473	3.98
265.853	4.89
266.233	4.35
266.612	5.69
266.992	4.06
267.372	3.95
267.752	4.04
268.131	5.01
268.511	5
268.89	4.77
269.27	4.25
269.649	4.05
270.029	4.28
270.408	4.46
270.787	4.77
271.167	3.99
271.546	5.3
271.925	4.65
272.304	4.37
272.683	4.23
273.062	4.08
273.441	4.42
273.82	4.32
274.199	4.49
274.578	4.14
274.957	4.68
275.336	4.48
275.715	4.73
276.093	4.19
276.472	4.41
276.851	3.95
277.229	4.23
277.608	4.77
277.986	4.38
278.365	3.93
278.743	4.62
279.122	4.12
279.5	3.62
279.878	4.49
280.257	5.02
280.635	4.12
281.013	3.98
281.391	4.41
281.769	4.53
282.147	4.55
282.525	3.76
282.903	4.22
283.281	4.26
283.659	4.05
284.037	4.95
284.415	4.39
284.792	4.4
285.17	4.5
285.548	3.79
285.925	4.01
286.303	4.4
286.68	3.89
287.058	3.67
287.435	4.12
287.813	4.27
288.19	3.78
288.567	4.01
288.945	4.39
289.322	4.26
289.699	4.2
290.076	3.6
290.453	4.34
290.83	4.33
291.207	3.92
291.584	3.52
291.961	3.99
292.338	4.38
292.715	3.94
293.092	3.96
293.469	3.97
293.845	4.23
294.222	3.99
294.599	4.01
294.975	3.64
295.352	4.07
295.728	4.03
296.105	4.23
296.481	3.38
296.858	3.91
297.234	3.88
297.61	4.28
297.986	4.3
298.363	4.09
298.739	3.75
299.115	4.07
299.491	4.16
299.867	3.54
300.243	3.79
300.619	3.84
300.995	3.39
301.371	3.9
301.746	3.92
302.122	4.06
302.498	3.8
302.874	3.91
303.249	3.84
303.625	3.84
304	3.78
304.376	3.45
304.751	3.47
305.127	3.82
305.502	3.6
305.878	3.52
306.253	4.31
306.628	3.05
307.003	4.16
307.378	4.01
307.754	4.38
308.129	4.24
308.504	4.25
308.879	4.05
309.254	3.98
309.629	3.86
310.003	3.56
310.378	3.39
310.753	3.56
311.128	3.91
311.502	3.6
311.877	3.72
312.252	3.92
312.626	3.58
313.001	3.64
313.375	3.86
313.75	3.84
314.124	3.63
314.498	3.7
314.873	3.73
315.247	3.28
315.621	3.65
315.995	3.39
316.369	3.37
316.743	3.71
317.117	3.55
317.491	2.97
317.865	3.71
318.239	3.6
318.613	3.53
318.987	3.07
319.361	3.05
319.734	3.51
320.108	3.52
320.482	3.65
320.855	3.2
321.229	3.56
321.602	4.09
321.976	3.42
322.349	3.61
322.723	3.24
323.096	3.76
323.469	3.75
323.843	4.03
324.216	4.13
324.589	3.48
324.962	3.56
325.335	3.83
325.708	3.58
326.081	3.82
326.454	3.82
326.827	3.53
327.2	3.35
327.573	3.53
327.945	3.54
328.318	3.38
328.691	3.46
329.063	3.15
329.436	3.23
329.809	3.3
330.181	3.58
330.553	3.72
330.926	3.77
331.298	3.3
331.671	3.7
332.043	3.57
332.415	3.84
332.787	3.13
333.159	3.39
333.532	3.96
333.904	4
334.276	3.29
334.648	3.52
335.02	3.23
335.391	4.01
335.763	3.51
336.135	3.23
336.507	3.33
336.879	3.83
337.25	3.15
337.622	4.33
337.993	3.58
338.365	3.54
338.736	4.27
339.108	4.05
339.479	3.62
339.851	3.52
340.222	3.47
340.593	3.42
340.964	3.72
341.336	3.52
341.707	3.37
342.078	3.99
342.449	3.74
342.82	3.47
343.191	3.48
343.562	3.69
343.933	3.72
344.303	3.84
344.674	3.39
345.045	3.89
345.416	3.48
345.786	3.63
346.157	3.63
346.527	3.68
346.898	3.45
347.268	3.63
347.639	3.51
348.009	3.52
348.38	3.66
348.75	3.33
349.12	4.02
349.49	3.72
349.861	3.74
350.231	3.62
350.601	3.72
350.971	3.75
351.341	3.82
351.711	3.89
352.081	3.53
352.45	3.84
352.82	3.95
353.19	3.35
353.56	3.86
353.929	3.76
354.299	3.66
354.669	3.84
355.038	3.13
355.408	4.05
355.777	3.76
356.147	3.74
356.516	4
356.885	3.84
357.254	3.84
357.624	3.69
357.993	3.42
358.362	3.3
358.731	3.92
359.1	3.6
359.469	3.71
359.838	3.65
360.207	3.89
360.576	3.72
360.945	3.83
361.314	3.63
361.682	3.43
362.051	3.65
362.42	3.92
362.788	3.92
363.157	3.77
363.525	3.88
363.894	4
364.262	3.76
364.631	3.77
364.999	3.83
365.367	3.93
365.735	3.9
366.104	3.99
366.472	3.98
366.84	3.84
367.208	4.29
367.576	4.04
367.944	3.56
368.312	3.99
368.68	3.88
369.048	4.25
369.416	3.64
369.783	3.76
370.151	3.85
370.519	3.8
370.886	3.96
371.254	3.71
371.621	4.09
371.989	4.23
372.356	3.96
372.724	4.13
373.091	3.72
373.458	3.91
373.826	3.97
374.193	4.26
374.56	3.87
374.927	3.89
375.294	3.94
375.661	3.79
376.028	4.11
376.395	3.41
376.762	4.54
377.129	3.82
377.496	3.68
377.863	3.99
378.229	4.26
378.596	3.79
378.963	4.27
379.329	3.82
379.696	4.26
380.062	3.95
380.429	3.94
380.795	4.36
381.161	4.15
381.528	4.12
381.894	4.08
382.26	4.26
382.626	4.13
382.993	3.8
383.359	3.88
383.725	3.96
384.091	4.26
384.457	3.85
384.823	4.05
385.188	3.93
385.554	3.87
385.92	3.94
386.286	4.23
386.651	3.98
387.017	3.81
387.383	3.64
387.748	3.8
388.114	3.93
388.479	4.03
388.845	4.22
389.21	4.2
389.575	4.01
389.94	4.18
390.306	4.21
390.671	4.16
391.036	3.88
391.401	3.95
391.766	3.94
392.131	4.16
392.496	4.26
392.861	4.12
393.226	4.25
393.591	4.03
393.956	4.27
394.32	4.23
394.685	4.02
395.05	4.34
395.414	3.86
395.779	4.16
396.143	4.14
396.508	4.09
396.872	4.13
397.236	4.16
397.601	3.87
397.965	3.92
398.329	4.05
398.694	4
399.058	4.44
399.422	3.96
399.786	4.09
400.15	4.1
400.514	4.03
400.878	4.26
401.242	4.19
401.605	4.2
401.969	4.28
402.333	4.33
402.697	4.08
403.06	4.5
403.424	4.04
403.787	4.07
404.151	4.42
404.514	4.21
404.878	4.17
405.241	4.09
405.604	4.35
405.968	4.31
406.331	4.31
406.694	4.21
407.057	4.19
407.42	4.06
407.783	4.29
408.146	4.56
408.509	4.33
408.872	4.51
409.235	4.41
409.598	4.19
409.961	4.25
410.323	4.27
410.686	4.61
411.049	4.5
411.411	4.17
411.774	4.34
412.136	4.26
412.499	4.32
412.861	4.23
413.223	4.24
413.586	4.25
413.948	4.45
414.31	4.62
414.672	4.35
415.035	4.36
415.397	3.98
415.759	4.31
416.121	4.42
416.483	4.37
416.845	4.41
417.206	4.51
417.568	4.48
417.93	4.49
418.292	4.32
418.653	4.28
419.015	4.21
419.377	4.47
419.738	4.25
420.1	4.35
420.461	4.44
420.822	4.32
421.184	4.39
421.545	4.32
421.906	4.33
422.267	4.31
422.629	4.22
422.99	4.27
423.351	4.33
423.712	4.22
424.073	4.4
424.434	4.21
424.795	4.35
425.155	4.36
425.516	4.31
425.877	4.23
426.238	4.29
426.598	4.26
426.959	4.37
427.32	4.32
427.68	4.44
428.041	4.28
428.401	4.37
428.761	4.56
429.122	4.49
429.482	4.38
429.842	4.46
430.202	4.57
430.563	4.52
430.923	4.47
431.283	4.75
431.643	4.68
432.003	4.53
432.363	4.58
432.722	4.61
433.082	4.45
433.442	4.52
433.802	4.51
434.161	4.41
434.521	4.53
434.881	4.33
435.24	4.53
435.6	4.43
435.959	4.49
436.319	4.46
436.678	4.54
437.037	4.32
437.396	4.35
437.756	4.73
438.115	4.54
438.474	4.53
438.833	4.56
439.192	4.52
439.551	4.52
439.91	4.47
440.269	4.65
440.628	4.49
440.987	4.5
441.345	4.45
441.704	4.48
442.063	4.56
442.421	4.47
442.78	4.46
443.138	4.52
443.497	4.43
443.855	4.43
444.214	4.37
444.572	4.59
444.93	4.49
445.288	4.58
445.647	4.59
446.005	4.37
446.363	4.54
446.721	4.53
447.079	4.51
447.437	4.58
447.795	4.46
448.153	4.53
448.51	4.48
448.868	4.44
449.226	4.61
449.584	4.57
449.941	4.47
450.299	4.52
450.656	4.62
451.014	4.68
451.371	4.67
451.729	4.59
452.086	4.48
452.443	4.5
452.801	4.71
453.158	4.6
453.515	4.53
453.872	4.51
454.229	4.53
454.586	4.61
454.943	4.44
455.3	4.7
455.657	4.52
456.014	4.61
456.371	4.59
456.727	4.68
457.084	4.77
457.441	4.7
457.797	4.68
458.154	4.67
458.51	4.72
458.867	4.56
459.223	4.6
459.58	4.75
459.936	4.55
460.292	4.77
460.648	4.5
461.005	4.61
461.361	4.54
461.717	4.52
462.073	4.6
462.429	4.6
462.785	4.72
463.141	4.63
463.496	4.79
463.852	4.68
464.208	4.69
464.564	4.62
464.919	4.71
465.275	4.69
465.631	4.6
465.986	4.6
466.342	4.68
466.697	4.61
467.052	4.55
467.408	4.74
467.763	4.73
468.118	4.67
468.473	4.6
468.829	4.77
469.184	4.64
469.539	4.76
469.894	4.71
470.249	4.89
470.603	4.82
470.958	4.52
471.313	4.88
471.668	4.7
472.023	4.64
472.377	4.77
472.732	4.73
473.086	4.56
473.441	4.56
473.795	4.72
474.15	4.74
474.504	4.89
474.859	4.7
475.213	4.77
475.567	4.46
475.921	4.74
476.275	4.81
476.63	4.81
476.984	4.75
477.338	4.85
477.692	4.61
478.045	4.6
478.399	4.76
478.753	4.73
479.107	4.74
479.461	4.68
479.814	4.73
480.168	4.67
480.521	4.79
480.875	4.69
481.228	4.64
481.582	4.62
481.935	4.71
482.289	4.75
482.642	4.59
482.995	4.77
483.348	4.62
483.701	4.61
484.055	4.56
484.408	4.68
484.761	4.62
485.114	4.47
485.466	4.37
485.819	4.43
486.172	4.49
486.525	4.5
486.878	4.52
487.23	4.58
487.583	4.6
487.936	4.59
488.288	4.65
488.641	4.51
488.993	4.5
489.345	4.5
489.698	4.54
490.05	4.52
490.402	4.55
490.754	4.65
491.107	4.57
491.459	4.76
491.811	4.59
492.163	4.63
492.515	4.58
492.866	4.51
493.218	4.51
493.57	4.45
493.922	4.54
494.274	4.61
494.625	4.7
494.977	4.74
495.328	4.68
495.68	4.68
496.031	4.78
496.383	4.75
496.734	4.77
497.086	4.82
497.437	4.82
497.788	4.73
498.139	4.67
498.49	4.76
498.842	4.7
499.193	4.71
499.544	4.83
499.894	4.67
500.245	4.74
500.596	4.71
500.947	4.83
501.298	4.63
501.648	4.71
501.999	4.77
502.35	4.86
502.7	4.82
503.051	4.8
503.401	4.72
503.752	4.8
504.102	4.91
504.452	4.78
504.803	4.99
505.153	4.86
505.503	4.87
505.853	4.69
506.203	4.87
506.553	4.64
506.903	4.81
507.253	4.74
507.603	4.88
507.953	4.78
508.303	4.86
508.652	4.82
509.002	4.94
509.352	4.94
509.701	4.8
510.051	4.91
510.4	4.79
510.75	4.91
511.099	4.73
511.449	4.69
511.798	4.81
512.147	4.77
512.496	4.88
512.846	4.83
513.195	4.77
513.544	4.83
513.893	4.79
514.242	4.8
514.591	4.93
514.939	4.96
515.288	4.91
515.637	4.88
515.986	4.83
516.334	4.73
516.683	4.96
517.032	4.93
517.38	4.97
517.729	4.97
518.077	4.89
518.426	4.87
518.774	4.78
519.122	4.9
519.47	4.87
519.819	4.8
520.167	4.76
520.515	4.69
520.863	4.86
521.211	4.76
521.559	4.86
521.907	4.81
522.255	4.82
522.602	4.87
522.95	4.94
523.298	4.87
523.645	4.9
523.993	4.88
524.341	4.96
524.688	4.95
525.036	4.95
525.383	4.93
525.73	4.91
526.078	5
526.425	4.84
526.772	4.88
527.119	4.73
527.466	4.85
527.814	4.87
528.161	4.85
528.508	4.87
528.854	4.83
529.201	4.79
529.548	4.73
529.895	4.68
530.242	4.71
530.588	4.67
530.935	4.71
531.282	4.73
531.628	4.78
531.975	4.77
532.321	4.81
532.667	4.9
533.014	4.97
533.36	4.89
533.706	4.86
534.052	4.88
534.399	4.89
534.745	4.76
535.091	4.77
535.437	4.75
535.783	4.8
536.129	4.87
536.474	4.9
536.82	4.85
537.166	4.85
537.512	4.98
537.857	4.94
538.203	4.8
538.549	4.81
538.894	4.81
539.239	5.04
539.585	4.91
539.93	4.81
540.276	4.94
540.621	5.18
540.966	5.03
541.311	4.95
541.656	4.97
542.001	4.94
542.346	4.84
542.691	4.8
543.036	4.74
543.381	4.72
543.726	4.79
544.071	4.82
544.415	4.89
544.76	4.89
545.105	4.88
545.449	4.91
545.794	4.87
546.138	4.85
546.483	4.99
546.827	5.08
547.171	5.05
547.516	4.84
547.86	4.99
548.204	4.98
548.548	4.96
548.892	4.81
549.236	4.92
549.58	5.04
549.924	5.12
550.268	4.95
550.612	5.08
550.956	4.95
551.3	5.07
551.643	5.1
551.987	5.09
552.33	5.04
552.674	4.89
553.017	5.09
553.361	5.07
553.704	5.02
554.048	5.19
554.391	5.01
554.734	4.94
555.077	4.98
555.42	5.24
555.764	5.16
556.107	5.15
556.45	4.86
556.793	5.05
557.135	5.1
557.478	5
557.821	5.05
558.164	5.2
558.507	4.93
558.849	5.05
559.192	4.91
559.534	5.2
559.877	5.05
560.219	5.07
560.562	5.14
560.904	5.17
561.246	5.17
561.589	4.99
561.931	5.18
562.273	5.2
562.615	5.15
562.957	5.09
563.299	5.07
563.641	5.13
563.983	5.11
564.325	4.96
564.667	5.12
565.008	5.15
565.35	4.98
565.692	5.01
566.033	5.05
566.375	5.04
566.716	5.05
567.058	5.12
567.399	5.16
567.741	5.02
568.082	5.32
568.423	4.92
568.764	5.02
569.105	5.13
569.447	5.04
569.788	5.19
570.129	5.15
570.47	5.11
570.811	5.24
571.151	5.25
571.492	5.19
571.833	5.04
572.174	5.34
572.514	5.09
572.855	5.21
573.195	5.19
573.536	5.01
573.876	5.11
574.217	5.16
574.557	5.07
574.898	5.12
575.238	5.15
575.578	5.2
575.918	5.34
576.258	5.12
576.598	4.99
576.938	5.19
577.278	5.04
577.618	5.27
577.958	5.22
578.298	4.98
578.638	5.02
578.977	5.15
579.317	5.21
579.657	5.27
579.996	5.05
580.336	5.21
580.675	5.19
581.014	5.27
581.354	5.07
581.693	4.98
582.032	5.2
582.372	5.13
582.711	5.34
583.05	5.24
583.389	5.3
583.728	5
584.067	5.25
584.406	5.3
584.745	5.21
585.083	5.17
585.422	5.33
585.761	5.13
586.1	5.05
586.438	5.56
586.777	4.99
587.115	5.21
587.454	5.15
587.792	5.26
588.13	5.14
588.469	5.17
588.807	5.17
589.145	5.16
589.483	5.25
589.821	5.35
590.159	5.27
590.497	5.19
590.835	5.47
591.173	5.28
591.511	5.31
591.849	5.25
592.187	5.21
592.524	4.94
592.862	5.22
593.2	5.11
593.537	5.2
593.875	5.41
594.212	5.32
594.55	5.1
594.887	5.24
595.224	5.25
595.561	5.23
595.899	5.19
596.236	5.26
596.573	5.05
596.91	5.36
597.247	5.17
597.584	5.22
597.921	5.36
598.258	5.08
598.594	4.84
598.931	5.02
599.268	5.15
599.604	5.11
599.941	5.14
600.277	5.22
600.614	5.39
600.95	5.15
601.287	5.27
601.623	5.26
601.959	5.37
602.296	5.25
602.632	4.99
602.968	5.17
603.304	5.09
603.64	4.91
603.976	5.21
604.312	5.1
604.648	5.43
604.984	5.45
605.319	5.49
605.655	5.38
605.991	5.37
606.326	5.4
606.662	5.17
606.998	5.12
607.333	5.12
607.668	5.36
608.004	5.2
608.339	5.23
608.674	5.38
609.01	5.21
609.345	5.44
609.68	5.2
610.015	5.27
610.35	5.27
610.685	5.43
611.02	5.23
611.355	5.35
611.689	5.08
612.024	5.12
612.359	5.11
612.694	5.22
613.028	5.22
613.363	5.29
613.697	5.32
614.032	5.36
614.366	5.14
614.7	5.41
615.035	5.09
615.369	5.21
615.703	5.32
616.037	5.37
616.371	5.48
616.705	5.27
617.039	5.62
617.373	5.01
617.707	5.35
618.041	5.47
618.375	5.27
618.709	5.02
619.042	5.53
619.376	5.37
619.71	5.66
620.043	5.32
620.377	5.17
620.71	5.51
621.043	5.57
621.377	5.66
621.71	5.47
622.043	5.36
622.376	5.43
622.709	5.53
623.043	5.37
623.376	5.11
623.709	5.37
624.041	5.8
624.374	5.1
624.707	5.43
625.04	5.42
625.373	5.05
625.705	5.43
626.038	5.75
626.37	5.68
626.703	5.02
627.035	5.34
627.368	5.8
627.7	5.81
628.032	5.16
628.365	5.16
628.697	5.3
629.029	5.46
629.361	5.07
629.693	5.52
630.025	5.14
630.357	5.35
630.689	5.35
631.021	5.26
631.353	5.14
631.684	5.35
632.016	5.16
632.348	5.28
632.679	5.22
633.011	5.01
633.342	4.93
633.674	5.48
634.005	5.43
634.336	5.36
634.668	5.35
634.999	4.97
635.33	5.32
635.661	5.54
635.992	5.2
636.323	5.45
636.654	4.99
636.985	5.55
637.316	5.45
637.647	5.28
637.977	4.99
638.308	5.44
638.639	5.32
638.969	5.5
639.3	5.62
639.63	5.4
639.961	5.44
640.291	5.18
640.622	5.37
640.952	5.43
641.282	5.29
641.612	5.44
641.943	5.38
642.273	5.05
642.603	5.45
642.933	5.29
643.263	5.18
643.592	4.48
643.922	5.37
644.252	4.96
644.582	5.18
644.911	5.49
645.241	5.73
645.571	5.68
645.9	5.51
646.23	5.18
646.559	4.99
646.888	5.44
647.218	5.72
647.547	5.44
647.876	5.63
648.205	6.04
648.534	5.36
648.863	5.14
649.192	5.36
649.521	5.56
649.85	5.83
650.179	5.52
650.508	5.39
650.837	5.69
651.165	4.93
651.494	5.31
651.822	5.45
652.151	5.42
652.479	5.27
652.808	5.54
653.136	5.37
653.465	5.49
653.793	5.17
654.121	5.55
654.449	5.15
654.777	5.64
655.105	5.64
655.433	4.64
655.761	5.7
656.089	5.26
656.417	5.65
656.745	5.54
657.073	5.66
657.4	5.77
657.728	6
658.056	5.25
658.383	5.24
658.711	5.54
659.038	5.29
659.365	5.53
659.693	5.05
660.02	5.44
660.347	5.34
660.674	5.34
661.001	5.39
661.329	5.03
661.656	5.46
661.982	5.38
662.309	5.66
662.636	5.54
662.963	5.44
663.29	5.74
663.616	5.96
663.943	5.5
664.27	5.46
664.596	5.43
664.923	5.01
665.249	5.73
665.576	5.65
665.902	5.83
666.228	5.08
666.554	5.63
666.881	5.74
667.207	5.2
667.533	5.52
667.859	5.87
668.185	5.62
668.511	5.33
668.837	5.09
669.162	5.52
669.488	5.98
669.814	5.37
670.139	5.1
670.465	5.52
670.791	5.18
671.116	5.86
671.442	5.99
671.767	5.61
672.092	5.55
672.418	5.38
672.743	5.52
673.068	5.88
673.393	5.29
673.718	5.79
674.043	5.27
674.368	5.76
674.693	6.44
675.018	5.7
675.343	5.54
675.667	5.81
675.992	5.37
676.317	5.99
676.641	5.1
676.966	5.68
677.29	5.2
677.615	5.93
677.939	5.16
678.264	6.02
678.588	4.91
678.912	4.91
679.236	5.71
679.56	5.2
679.885	5.75
680.209	5.37
680.532	6.09
680.856	5.08
681.18	5.68
681.504	5.65
681.828	5.57
682.152	5.68
682.475	5.54
682.799	5.6
683.122	5.19
683.446	6.12
683.769	5.97
684.093	5.85
684.416	5.81
684.739	5.3
685.062	5.77
685.386	5.4
685.709	5.31
686.032	6.17
686.355	5.41
686.678	6.13
687.001	5.03
687.324	5.9
687.646	5.95
687.969	5.81
688.292	5.24
688.614	5.29
688.937	5.64
689.26	6.19
689.582	5.23
689.904	5.37
690.227	5.68
690.549	6.15
690.871	5.57
691.194	5.57
691.516	5.37
691.838	5.39
692.16	6.03
