Data from 815656_crown_Reflection__2__106.txt Node

Date: Fri Sep 16 15:30:11 CDT 2022
User: ToomeyLab
Spectrometer: FLMS14357
Trigger mode: 0
Integration Time (sec): 1.000000E-2
Scans to average: 100
Electric dark correction enabled: true
Nonlinearity correction enabled: false
Boxcar width: 0
XAxis mode: Wavelengths
Number of Pixels in Spectrum: 2048
>>>>>Begin Spectral Data<<<<<
189.047	-85.28
189.435	-85.28
189.823	-85.28
190.211	2.85
190.599	-126.3
190.987	210.5
191.375	123.22
191.763	173.13
192.151	214.81
192.538	25.27
192.926	295.97
193.314	83.53
193.702	4.8
194.089	279.23
194.477	37.6
194.864	-105.99
195.252	0.98
195.639	41.1
196.027	114.53
196.414	3139.13
196.801	124.82
197.189	144.07
197.576	-9.74
197.963	336.07
198.351	-64.63
198.738	-10.66
199.125	13.25
199.512	674.01
199.899	5.82
200.286	-17.13
200.673	-6.65
201.06	5.49
201.447	-9.59
201.833	18.88
202.22	9.12
202.607	-74.86
202.994	36.54
203.38	62.63
203.767	-8.17
204.154	41.44
204.54	-41.39
204.927	-18.4
205.313	44.27
205.699	31.31
206.086	9.97
206.472	18.96
206.858	16.32
207.245	13.56
207.631	5.89
208.017	-6.42
208.403	9.97
208.789	13.68
209.175	37.12
209.561	-0.85
209.947	21.01
210.333	-18.5
210.719	-18.94
211.105	29.34
211.491	28.13
211.876	65.73
212.262	12.68
212.648	-3.54
213.034	22.22
213.419	-3.69
213.805	30.93
214.19	15.82
214.576	-4.24
214.961	-19.06
215.346	-38.62
215.732	-42.22
216.117	23.94
216.502	14.9
216.888	-43.4
217.273	13.93
217.658	3.67
218.043	-168.48
218.428	11.97
218.813	10.81
219.198	-9.65
219.583	-17.48
219.968	17.2
220.353	10.72
220.738	1.03
221.122	2.2
221.507	24.96
221.892	-2.84
222.276	-3.76
222.661	18.76
223.046	9.12
223.43	17.62
223.815	-11.78
224.199	15.61
224.583	13.76
224.968	6.07
225.352	-0.4
225.736	13.14
226.121	7.53
226.505	9.46
226.889	11.59
227.273	6.66
227.657	6.84
228.041	7.03
228.425	-1.76
228.809	10.89
229.193	6.16
229.577	6.23
229.961	7.23
230.344	8.45
230.728	7.35
231.112	6.92
231.495	6.06
231.879	7.34
232.263	6.02
232.646	6.41
233.03	6.4
233.413	8.35
233.797	7.86
234.18	7.76
234.563	6.1
234.946	7.16
235.33	7.88
235.713	6.04
236.096	6.42
236.479	7.29
236.862	5.45
237.245	5.49
237.628	8.97
238.011	7.29
238.394	5.95
238.777	7.05
239.16	6.14
239.543	6.81
239.925	7.48
240.308	6.63
240.691	4.74
241.073	5.25
241.456	6.36
241.838	6.33
242.221	6.73
242.603	6.54
242.986	5.36
243.368	6.76
243.75	6.42
244.133	7.24
244.515	6.3
244.897	6.67
245.279	6.65
245.661	6.4
246.043	6.8
246.425	6.4
246.807	7.72
247.189	6
247.571	6.24
247.953	6.15
248.335	6.51
248.717	6.55
249.098	6.32
249.48	6.27
249.862	6.21
250.243	6.57
250.625	6.59
251.006	6.32
251.388	6.75
251.769	5.28
252.151	6.18
252.532	5.76
252.913	5.79
253.295	6.51
253.676	6.73
254.057	6.15
254.438	5.72
254.819	6.1
255.2	6.53
255.581	6.34
255.962	5.13
256.343	5.63
256.724	5.7
257.105	5.18
257.486	5.7
257.867	5.62
258.247	5.9
258.628	6.66
259.009	6.33
259.389	6.59
259.77	5.68
260.15	6.64
260.531	5.95
260.911	6.13
261.292	5.77
261.672	6.12
262.052	5.74
262.432	5.87
262.813	6.5
263.193	6.3
263.573	5.83
263.953	6.43
264.333	6.14
264.713	5.66
265.093	5
265.473	5.55
265.853	6.68
266.233	5.43
266.612	6.06
266.992	5.27
267.372	5.6
267.752	5.48
268.131	5.78
268.511	5.82
268.89	6.53
269.27	5.59
269.649	5.61
270.029	5.1
270.408	6.34
270.787	5.54
271.167	5.69
271.546	6.05
271.925	6.11
272.304	6.01
272.683	5.35
273.062	5.74
273.441	5.99
273.82	5.63
274.199	5.64
274.578	5.45
274.957	5.79
275.336	5.57
275.715	6.15
276.093	6.17
276.472	5.75
276.851	5.01
277.229	5.45
277.608	5.98
277.986	5.71
278.365	4.58
278.743	5.62
279.122	5.24
279.5	5.3
279.878	5.7
280.257	5.48
280.635	5.75
281.013	5.02
281.391	5.67
281.769	5.18
282.147	5.72
282.525	5.01
282.903	5.73
283.281	5.59
283.659	5.66
284.037	5.47
284.415	5.72
284.792	5.71
285.17	5.51
285.548	4.78
285.925	5.07
286.303	5.78
286.68	5.37
287.058	5.24
287.435	5.43
287.813	5.57
288.19	4.93
288.567	4.74
288.945	5.21
289.322	5.87
289.699	5.22
290.076	4.9
290.453	5.46
290.83	5.15
291.207	5.19
291.584	4.76
291.961	5.08
292.338	5.25
292.715	4.9
293.092	5.04
293.469	4.97
293.845	5
294.222	5.16
294.599	4.7
294.975	4.06
295.352	4.8
295.728	4.84
296.105	4.86
296.481	4.86
296.858	4.73
297.234	5.02
297.61	5.28
297.986	4.98
298.363	4.93
298.739	4.76
299.115	5.32
299.491	5.14
299.867	4.63
300.243	4.6
300.619	5.2
300.995	4.75
301.371	4.8
301.746	4.66
302.122	5.3
302.498	4.86
302.874	4.62
303.249	4.82
303.625	4.99
304	4.41
304.376	4.52
304.751	4.79
305.127	4.84
305.502	4.71
305.878	4.72
306.253	4.88
306.628	4.94
307.003	5.06
307.378	4.88
307.754	4.85
308.129	5.39
308.504	4.75
308.879	4.63
309.254	4.9
309.629	4.47
310.003	4.73
310.378	4.64
310.753	4.46
311.128	4.81
311.502	4.63
311.877	4.79
312.252	4.99
312.626	4.44
313.001	4.71
313.375	4.83
313.75	4.59
314.124	4.62
314.498	4.69
314.873	4.91
315.247	4.41
315.621	4.55
315.995	4.63
316.369	4.53
316.743	5.02
317.117	4.47
317.491	4.29
317.865	4.65
318.239	4.66
318.613	4.18
318.987	4.1
319.361	4.67
319.734	5.12
320.108	4.28
320.482	4.7
320.855	4.6
321.229	4.35
321.602	4.62
321.976	4.86
322.349	4.9
322.723	4.38
323.096	4.18
323.469	5.24
323.843	4.81
324.216	4.64
324.589	4.56
324.962	4.46
325.335	5.01
325.708	4.64
326.081	4.63
326.454	4.78
326.827	4.39
327.2	4.46
327.573	4.44
327.945	4.83
328.318	4.22
328.691	4.68
329.063	4.12
329.436	4.18
329.809	3.65
330.181	4.97
330.553	4.66
330.926	4.68
331.298	4.01
331.671	4.32
332.043	4.63
332.415	4.65
332.787	4.5
333.159	4.27
333.532	4.94
333.904	4.31
334.276	4.38
334.648	4.29
335.02	4.39
335.391	4.65
335.763	4.19
336.135	4.32
336.507	4.56
336.879	4.75
337.25	3.71
337.622	4.88
337.993	4.59
338.365	4.18
338.736	5.11
339.108	4.56
339.479	4.89
339.851	4.33
340.222	4.6
340.593	4.57
340.964	4.61
341.336	4.46
341.707	4.46
342.078	4.81
342.449	4.55
342.82	4.47
343.191	4.42
343.562	4.74
343.933	4.47
344.303	4.73
344.674	4.55
345.045	4.87
345.416	4.52
345.786	4.54
346.157	4.59
346.527	4.29
346.898	4.38
347.268	4.62
347.639	4.4
348.009	4.57
348.38	4.64
348.75	4.48
349.12	4.67
349.49	4.45
349.861	5.37
350.231	4.39
350.601	4.37
350.971	4.82
351.341	4.74
351.711	4.93
352.081	4.74
352.45	4.75
352.82	4.7
353.19	4.43
353.56	4.82
353.929	4.95
354.299	4.74
354.669	4.78
355.038	4.58
355.408	4.91
355.777	4.67
356.147	4.53
356.516	4.77
356.885	4.82
357.254	5.02
357.624	4.66
357.993	4.69
358.362	4.33
358.731	4.76
359.1	4.76
359.469	4.67
359.838	4.73
360.207	4.93
360.576	4.73
360.945	4.53
361.314	4.44
361.682	4.52
362.051	4.83
362.42	4.87
362.788	5.06
363.157	4.83
363.525	4.68
363.894	4.96
364.262	4.69
364.631	4.89
364.999	4.88
365.367	4.66
365.735	5.18
366.104	5.05
366.472	4.99
366.84	4.88
367.208	5.14
367.576	4.7
367.944	4.9
368.312	4.86
368.68	5.06
369.048	5.42
369.416	4.95
369.783	4.96
370.151	5.19
370.519	4.96
370.886	4.91
371.254	4.81
371.621	5.21
371.989	4.73
372.356	4.93
372.724	5.15
373.091	4.89
373.458	4.99
373.826	4.75
374.193	5.34
374.56	4.63
374.927	4.92
375.294	4.87
375.661	5.06
376.028	5.3
376.395	4.89
376.762	5.57
377.129	5
377.496	4.98
377.863	5.22
378.229	4.78
378.596	5
378.963	5.13
379.329	4.97
379.696	5.42
380.062	4.9
380.429	5.07
380.795	5.23
381.161	5.39
381.528	5.37
381.894	4.91
382.26	5.51
382.626	5.33
382.993	4.77
383.359	5.09
383.725	5.23
384.091	5.15
384.457	4.77
384.823	5.22
385.188	4.99
385.554	5.18
385.92	5.14
386.286	5.02
386.651	5.14
387.017	5.03
387.383	4.65
387.748	4.73
388.114	4.95
388.479	5.15
388.845	5.26
389.21	5.27
389.575	5.16
389.94	5.3
390.306	5.13
390.671	5.29
391.036	4.92
391.401	5.01
391.766	5.1
392.131	5.21
392.496	5.19
392.861	5.32
393.226	5.19
393.591	5.05
393.956	5.4
394.32	5.39
394.685	5.07
395.05	5.33
395.414	5.07
395.779	5.18
396.143	5.42
396.508	5.27
396.872	5.22
397.236	5.32
397.601	5.32
397.965	5.42
398.329	5.28
398.694	5.41
399.058	5.71
399.422	5.52
399.786	5.35
400.15	5.46
400.514	5.17
400.878	5.48
401.242	5.41
401.605	5.26
401.969	5.21
402.333	5.29
402.697	5.29
403.06	5.47
403.424	5.35
403.787	5.46
404.151	5.34
404.514	5.37
404.878	5.47
405.241	5.35
405.604	5.44
405.968	5.5
406.331	5.37
406.694	5.33
407.057	5.4
407.42	5.49
407.783	5.5
408.146	5.7
408.509	5.54
408.872	5.41
409.235	5.47
409.598	5.42
409.961	5.52
410.323	5.53
410.686	5.63
411.049	5.23
411.411	5.25
411.774	5.45
412.136	5.61
412.499	5.55
412.861	5.65
413.223	5.51
413.586	5.74
413.948	5.65
414.31	5.71
414.672	5.5
415.035	5.5
415.397	5.39
415.759	5.45
416.121	5.59
416.483	5.62
416.845	5.52
417.206	5.76
417.568	5.83
417.93	5.62
418.292	5.52
418.653	5.49
419.015	5.47
419.377	5.43
419.738	5.4
420.1	5.62
420.461	5.55
420.822	5.46
421.184	5.47
421.545	5.47
421.906	5.54
422.267	5.53
422.629	5.45
422.99	5.43
423.351	5.55
423.712	5.46
424.073	5.53
424.434	5.52
424.795	5.51
425.155	5.66
425.516	5.61
425.877	5.45
426.238	5.56
426.598	5.55
426.959	5.54
427.32	5.45
427.68	5.59
428.041	5.45
428.401	5.68
428.761	5.82
429.122	5.77
429.482	5.68
429.842	5.54
430.202	5.91
430.563	5.71
430.923	5.86
431.283	5.86
431.643	5.77
432.003	5.79
432.363	5.72
432.722	5.86
433.082	5.75
433.442	5.86
433.802	5.7
434.161	5.73
434.521	5.85
434.881	5.68
435.24	5.71
435.6	5.86
435.959	5.82
436.319	5.64
436.678	5.78
437.037	5.64
437.396	5.83
437.756	5.83
438.115	5.69
438.474	5.78
438.833	5.85
439.192	5.68
439.551	5.73
439.91	5.76
440.269	5.88
440.628	5.76
440.987	5.72
441.345	5.78
441.704	5.81
442.063	5.82
442.421	5.72
442.78	5.8
443.138	5.77
443.497	5.8
443.855	5.71
444.214	5.69
444.572	5.86
444.93	5.83
445.288	5.71
445.647	5.89
446.005	5.77
446.363	5.77
446.721	5.81
447.079	5.72
447.437	5.8
447.795	5.77
448.153	5.77
448.51	5.7
448.868	5.69
449.226	5.73
449.584	5.68
449.941	5.79
450.299	5.8
450.656	5.81
451.014	5.92
451.371	5.92
451.729	5.78
452.086	5.79
452.443	5.86
452.801	5.77
453.158	5.96
453.515	5.67
453.872	5.85
454.229	5.82
454.586	5.83
454.943	5.71
455.3	5.98
455.657	5.72
456.014	6.01
456.371	5.84
456.727	5.88
457.084	6.06
457.441	5.9
457.797	5.82
458.154	5.96
458.51	5.84
458.867	5.78
459.223	5.98
459.58	6.09
459.936	5.91
460.292	5.78
460.648	5.8
461.005	5.9
461.361	5.73
461.717	5.78
462.073	5.75
462.429	5.88
462.785	5.75
463.141	5.91
463.496	5.95
463.852	5.96
464.208	5.91
464.564	6
464.919	5.88
465.275	6.1
465.631	6.01
465.986	5.87
466.342	5.93
466.697	5.94
467.052	5.87
467.408	5.89
467.763	6.03
468.118	5.9
468.473	5.83
468.829	6
469.184	5.87
469.539	5.93
469.894	5.98
470.249	6.04
470.603	6.08
470.958	5.87
471.313	5.94
471.668	5.78
472.023	5.97
472.377	5.91
472.732	5.99
473.086	5.95
473.441	5.89
473.795	6
474.15	5.88
474.504	5.98
474.859	5.9
475.213	5.98
475.567	5.7
475.921	6.02
476.275	5.96
476.63	6.03
476.984	6.01
477.338	5.89
477.692	5.99
478.045	5.9
478.399	6.12
478.753	5.8
479.107	5.86
479.461	5.93
479.814	6.01
480.168	5.87
480.521	5.94
480.875	5.98
481.228	5.96
481.582	5.89
481.935	5.9
482.289	6
482.642	5.84
482.995	5.89
483.348	5.94
483.701	5.99
484.055	5.84
484.408	5.99
484.761	5.8
485.114	5.72
485.466	5.62
485.819	5.65
486.172	5.62
486.525	5.65
486.878	5.69
487.23	5.76
487.583	5.75
487.936	5.78
488.288	5.79
488.641	5.79
488.993	5.79
489.345	5.68
489.698	5.68
490.05	5.72
490.402	5.71
490.754	5.8
491.107	5.77
491.459	5.88
491.811	5.86
492.163	5.85
492.515	5.8
492.866	5.75
493.218	5.7
493.57	5.69
493.922	5.71
494.274	5.82
494.625	5.79
494.977	5.82
495.328	5.82
495.68	5.93
496.031	5.92
496.383	6.01
496.734	5.93
497.086	5.96
497.437	5.93
497.788	6.01
498.139	6.04
498.49	5.97
498.842	6.03
499.193	5.91
499.544	5.94
499.894	5.9
500.245	5.97
500.596	5.98
500.947	5.92
501.298	5.91
501.648	5.9
501.999	5.9
502.35	6.05
502.7	5.98
503.051	6.03
503.401	5.93
503.752	6.01
504.102	6.03
504.452	5.99
504.803	6.09
505.153	5.99
505.503	5.93
505.853	5.94
506.203	6.03
506.553	5.76
506.903	5.97
507.253	5.82
507.603	6.01
507.953	6.03
508.303	5.97
508.652	5.93
509.002	6.12
509.352	5.93
509.701	6.03
510.051	6.08
510.4	5.99
510.75	5.89
511.099	5.99
511.449	5.79
511.798	6.01
512.147	5.88
512.496	6.06
512.846	5.95
513.195	5.93
513.544	5.89
513.893	5.93
514.242	5.93
514.591	5.96
514.939	5.94
515.288	6.15
515.637	6.05
515.986	5.99
516.334	5.98
516.683	5.96
517.032	6
517.38	6.26
517.729	6.08
518.077	6.04
518.426	5.98
518.774	6.08
519.122	5.97
519.47	5.98
519.819	5.92
520.167	5.84
520.515	5.83
520.863	5.86
521.211	5.85
521.559	5.9
521.907	5.87
522.255	5.81
522.602	6.01
522.95	6.08
523.298	5.97
523.645	6.03
523.993	6.04
524.341	6.05
524.688	5.97
525.036	6.19
525.383	6.15
525.73	6.06
526.078	6.02
526.425	5.91
526.772	6.06
527.119	5.89
527.466	5.96
527.814	5.9
528.161	6.01
528.508	6
528.854	6.02
529.201	5.94
529.548	5.88
529.895	5.82
530.242	5.8
530.588	5.81
530.935	5.79
531.282	5.82
531.628	5.85
531.975	5.86
532.321	5.9
532.667	5.98
533.014	6.02
533.36	6.01
533.706	5.98
534.052	5.98
534.399	5.92
534.745	5.92
535.091	5.89
535.437	5.88
535.783	5.88
536.129	5.97
536.474	5.97
536.82	5.97
537.166	5.98
537.512	6.09
537.857	6.07
538.203	5.94
538.549	5.98
538.894	5.82
539.239	6.02
539.585	5.99
539.93	5.88
540.276	6.14
540.621	6.19
540.966	5.95
541.311	5.94
541.656	6.03
542.001	6
542.346	5.99
542.691	5.94
543.036	5.81
543.381	5.79
543.726	5.86
544.071	5.85
544.415	5.96
544.76	5.93
545.105	5.98
545.449	5.97
545.794	6.02
546.138	6.04
546.483	6.07
546.827	6.12
547.171	6.08
547.516	5.89
547.86	6.02
548.204	6.05
548.548	5.95
548.892	5.94
549.236	6.07
549.58	6.1
549.924	6.1
550.268	6.1
550.612	6.16
550.956	6.03
551.3	6.05
551.643	6.15
551.987	6.17
552.33	5.97
552.674	6.03
553.017	6.16
553.361	6.19
553.704	6.14
554.048	6.24
554.391	6.15
554.734	6.18
555.077	6.14
555.42	6.18
555.764	6.21
556.107	6.07
556.45	6.02
556.793	6.3
557.135	6.04
557.478	5.9
557.821	6.16
558.164	6.38
558.507	6.16
558.849	6.01
559.192	6.06
559.534	6.22
559.877	5.87
560.219	6.17
560.562	6.14
560.904	6.23
561.246	6.11
561.589	6.1
561.931	6.39
562.273	6.14
562.615	6.13
562.957	6.22
563.299	6.16
563.641	6.17
563.983	6.23
564.325	6.05
564.667	6.05
565.008	6.2
565.35	6.08
565.692	6.13
566.033	6.04
566.375	6.31
566.716	6.21
567.058	6.23
567.399	6.21
567.741	5.96
568.082	6.26
568.423	5.99
568.764	6.07
569.105	6.06
569.447	6.18
569.788	6.19
570.129	6.14
570.47	6.01
570.811	6.15
571.151	6.22
571.492	6.07
571.833	6.15
572.174	6.36
572.514	6.05
572.855	6.19
573.195	6.25
573.536	6.09
573.876	6.24
574.217	6.24
574.557	6.19
574.898	6.04
575.238	6.16
575.578	6.15
575.918	6.27
576.258	6.1
576.598	6.03
576.938	6.07
577.278	6.06
577.618	6.22
577.958	6.12
578.298	6.26
578.638	5.99
578.977	5.98
579.317	6.19
579.657	6.14
579.996	5.99
580.336	6.18
580.675	5.99
581.014	6.24
581.354	6.2
581.693	6.02
582.032	6.36
582.372	6.17
582.711	6.33
583.05	6.55
583.389	6.14
583.728	6
584.067	6.17
584.406	6.15
584.745	6.31
585.083	6.31
585.422	6.26
585.761	6.21
586.1	6.06
586.438	6.32
586.777	6.03
587.115	6.33
587.454	6.26
587.792	6.06
588.13	6.19
588.469	6.08
588.807	6.21
589.145	6.14
589.483	6.26
589.821	6.19
590.159	6.04
590.497	6.18
590.835	6.25
591.173	6.08
591.511	6.31
591.849	6.26
592.187	6.16
592.524	5.9
592.862	6.36
593.2	5.94
593.537	6.15
593.875	6.27
594.212	6.23
594.55	6.01
594.887	6.11
595.224	6.01
595.561	6.14
595.899	6.22
596.236	6.22
596.573	6.07
596.91	6.3
597.247	6.1
597.584	6.13
597.921	6.33
598.258	6.06
598.594	5.86
598.931	6.09
599.268	6.12
599.604	6.11
599.941	6.08
600.277	6.17
600.614	6.23
600.95	6.07
601.287	6.06
601.623	6.21
601.959	6.31
602.296	6.2
602.632	6.17
602.968	6.1
603.304	6.13
603.64	6.04
603.976	6.28
604.312	6.21
604.648	6.25
604.984	6.24
605.319	6.29
605.655	6.44
605.991	6.34
606.326	6.25
606.662	6.17
606.998	5.96
607.333	6.31
607.668	6.28
608.004	6.04
608.339	5.99
608.674	6.24
609.01	6.12
609.345	6.34
609.68	6.2
610.015	6.31
610.35	6.29
610.685	6.37
611.02	6
611.355	6.34
611.689	6.06
612.024	6.21
612.359	6.11
612.694	6.18
613.028	5.94
613.363	6.15
613.697	6.24
614.032	6.09
614.366	6.1
614.7	6.39
615.035	6.24
615.369	6.09
615.703	6.27
616.037	6.16
616.371	6.32
616.705	6.29
617.039	6.38
617.373	6.08
617.707	6.16
618.041	5.78
618.375	6.42
618.709	6.36
619.042	6.01
619.376	6.12
619.71	6.26
620.043	6.22
620.377	6.09
620.71	6.42
621.043	6.21
621.377	6.32
621.71	6.32
622.043	6.11
622.376	6.22
622.709	6.2
623.043	5.94
623.376	6.07
623.709	5.82
624.041	6.22
624.374	6.44
624.707	6.36
625.04	6.34
625.373	6.08
625.705	6.49
626.038	6.48
626.37	6.26
626.703	6.01
627.035	5.85
627.368	6.45
627.7	6.34
628.032	6.12
628.365	6.08
628.697	6.28
629.029	6.36
629.361	6.06
629.693	6.41
630.025	6.36
630.357	6.15
630.689	6.2
631.021	6.18
631.353	6.15
631.684	5.79
632.016	6.14
632.348	6.33
632.679	6.1
633.011	6.08
633.342	5.84
633.674	6.41
634.005	6.26
634.336	6.26
634.668	6.21
634.999	5.65
635.33	6.17
635.661	6.1
635.992	5.96
636.323	6.13
636.654	6.28
636.985	6.25
637.316	6.41
637.647	6.21
637.977	6.01
638.308	6.22
638.639	6.54
638.969	6.34
639.3	5.98
639.63	5.78
639.961	6.34
640.291	6.41
640.622	6.27
640.952	6.39
641.282	6.02
641.612	6.09
641.943	6.22
642.273	6.11
642.603	6.49
642.933	6.44
643.263	6.04
643.592	6.04
643.922	5.97
644.252	6.15
644.582	6.13
644.911	6.2
645.241	6.37
645.571	6.38
645.9	6.3
646.23	6.03
646.559	5.67
646.888	6.29
647.218	6.42
647.547	6.22
647.876	6.65
648.205	6.2
648.534	6.07
648.863	6.07
649.192	6.23
649.521	6.24
649.85	6.57
650.179	5.91
650.508	6.37
650.837	6.43
651.165	5.72
651.494	6.42
651.822	6.06
652.151	6.38
652.479	6.18
652.808	6.43
653.136	6.08
653.465	6.15
653.793	6.43
654.121	6.31
654.449	6.29
654.777	6.26
655.105	6.36
655.433	6.4
655.761	5.97
656.089	6.05
656.417	6.15
656.745	6.13
657.073	6.35
657.4	6.2
657.728	6.67
658.056	5.86
658.383	6.08
658.711	6.19
659.038	6.22
659.365	6.14
659.693	6.21
660.02	6.18
660.347	5.94
660.674	6.12
661.001	6.12
661.329	6.15
661.656	5.99
661.982	6.29
662.309	6.26
662.636	6.28
662.963	6.31
663.29	6.68
663.616	5.9
663.943	6.33
664.27	5.85
664.596	6.28
664.923	5.87
665.249	6.5
665.576	6.13
665.902	6.51
666.228	5.51
666.554	6.49
666.881	6.27
667.207	6.14
667.533	6.47
667.859	6.33
668.185	6.46
668.511	5.85
668.837	5.99
669.162	6.95
669.488	6.94
669.814	5.82
670.139	5.98
670.465	6.4
670.791	6.18
671.116	6.24
671.442	6.29
671.767	6.39
672.092	6.14
672.418	6.23
672.743	6.15
673.068	6.43
673.393	5.55
673.718	6.86
674.043	6.2
674.368	6.56
674.693	6.57
675.018	6.27
675.343	6.59
675.667	6.06
675.992	6.67
676.317	6.16
676.641	5.56
676.966	6.11
677.29	5.91
677.615	6.6
677.939	5.5
678.264	6.62
678.588	5.76
678.912	5.75
679.236	6.29
679.56	6.41
679.885	6.05
680.209	5.45
680.532	6.69
680.856	5.73
681.18	6.17
681.504	6.38
681.828	6.32
682.152	5.92
682.475	6.45
682.799	6.26
683.122	6.09
683.446	6.43
683.769	6.42
684.093	6.28
684.416	6.17
684.739	6.36
685.062	6.78
685.386	6.48
685.709	6.19
686.032	6.87
686.355	5.99
686.678	6.4
687.001	6.29
687.324	6.7
687.646	6.55
687.969	6.28
688.292	6.11
688.614	5.77
688.937	6.19
689.26	6.61
689.582	6.11
689.904	6.02
690.227	6.56
690.549	6.93
690.871	6.6
691.194	6.4
691.516	6.4
691.838	6.29
692.16	6.48
692.482	6.04
