Data from 815656_chest_Reflection__1__95.txt Node

Date: Fri Sep 16 15:26:18 CDT 2022
User: ToomeyLab
Spectrometer: FLMS14357
Trigger mode: 0
Integration Time (sec): 1.000000E-2
Scans to average: 100
Electric dark correction enabled: true
Nonlinearity correction enabled: false
Boxcar width: 0
XAxis mode: Wavelengths
Number of Pixels in Spectrum: 2048
>>>>>Begin Spectral Data<<<<<
189.047	-214.34
189.435	-214.34
189.823	-214.34
190.211	41.24
190.599	-243.39
190.987	126.21
191.375	84.68
191.763	-6.38
192.151	133.14
192.538	37.06
192.926	-324.42
193.314	84.75
193.702	15.01
194.089	279.55
194.477	65.32
194.864	167.65
195.252	120.26
195.639	238.9
196.027	-22.77
196.414	-800
196.801	-57.96
197.189	32.9
197.576	-89.32
197.963	-712.48
198.351	16.2
198.738	-41.16
199.125	29.01
199.512	539.21
199.899	9.77
200.286	-31.64
200.673	-12.2
201.06	18.51
201.447	-1.93
201.833	1.35
202.22	12.47
202.607	-14.55
202.994	32.29
203.38	-38.05
203.767	6.18
204.154	28.98
204.54	54.46
204.927	-24.2
205.313	17.55
205.699	35.22
206.086	47.19
206.472	16.37
206.858	11.86
207.245	40.57
207.631	14.37
208.017	37.06
208.403	-0.19
208.789	2.25
209.175	-2.05
209.561	12.71
209.947	-19.94
210.333	-2.07
210.719	27.7
211.105	27.97
211.491	-22.54
211.876	46.04
212.262	-10.82
212.648	-14.04
213.034	14
213.419	-14.55
213.805	44.16
214.19	38.67
214.576	-4.7
214.961	-13.5
215.346	16.03
215.732	-65.01
216.117	13.65
216.502	-25.45
216.888	-4.14
217.273	-18.05
217.658	5.78
218.043	-67.51
218.428	7.7
218.813	-0.54
219.198	6.91
219.583	-3.69
219.968	12.16
220.353	0.6
220.738	5.94
221.122	-29.48
221.507	3.11
221.892	5.11
222.276	28.79
222.661	3.93
223.046	14.6
223.43	16.78
223.815	-1.95
224.199	12.2
224.583	2.12
224.968	1.85
225.352	-0.05
225.736	15.68
226.121	6.09
226.505	4.92
226.889	8.52
227.273	4.64
227.657	5.17
228.041	-0.19
228.425	-6.04
228.809	7.64
229.193	3.11
229.577	3.89
229.961	1.49
230.344	3.61
230.728	3.02
231.112	2.96
231.495	3.29
231.879	2.78
232.263	1.78
232.646	2.17
233.03	2.72
233.413	4.13
233.797	2.25
234.18	5.05
234.563	1.25
234.946	2.29
235.33	4.03
235.713	2.97
236.096	2.88
236.479	2.21
236.862	2.01
237.245	2.22
237.628	4.13
238.011	3.14
238.394	4.61
238.777	2.91
239.16	2.44
239.543	4.68
239.925	3.8
240.308	1.64
240.691	3.29
241.073	1.78
241.456	1.54
241.838	1.59
242.221	2.88
242.603	3.25
242.986	2.36
243.368	2.46
243.75	2.11
244.133	2.68
244.515	2.72
244.897	3.39
245.279	3.05
245.661	2.39
246.043	2.23
246.425	3.02
246.807	3.18
247.189	3.22
247.571	2.53
247.953	2.99
248.335	2.6
248.717	2.97
249.098	2.72
249.48	2.73
249.862	2.61
250.243	3.14
250.625	3.3
251.006	3.45
251.388	3.16
251.769	2.79
252.151	3.25
252.532	2.5
252.913	3.16
253.295	2.51
253.676	3.42
254.057	2.53
254.438	2.69
254.819	2.11
255.2	2.28
255.581	2.21
255.962	2.64
256.343	3.49
256.724	2.7
257.105	2.31
257.486	2.39
257.867	2.53
258.247	3.45
258.628	2.66
259.009	2.58
259.389	3.2
259.77	1.96
260.15	2.76
260.531	2.53
260.911	2.35
261.292	2.49
261.672	2.54
262.052	2.42
262.432	2.63
262.813	3.25
263.193	2.8
263.573	2.29
263.953	2.7
264.333	3.13
264.713	2.42
265.093	2.28
265.473	2.03
265.853	2.8
266.233	2.64
266.612	3.3
266.992	1.93
267.372	2.87
267.752	2.42
268.131	2.67
268.511	3.28
268.89	3.28
269.27	2.28
269.649	2.16
270.029	2.88
270.408	2.83
270.787	2.56
271.167	2.39
271.546	3.19
271.925	2.55
272.304	2.19
272.683	2.45
273.062	2.42
273.441	2.23
273.82	2.38
274.199	2.73
274.578	2.85
274.957	2.57
275.336	2.33
275.715	3.41
276.093	2.84
276.472	2.53
276.851	2.08
277.229	2.77
277.608	3.22
277.986	2.66
278.365	2.04
278.743	2.69
279.122	2.57
279.5	2.16
279.878	2.73
280.257	2.72
280.635	2.91
281.013	2.41
281.391	3.12
281.769	2.82
282.147	2.49
282.525	2.19
282.903	2.65
283.281	2.52
283.659	2.69
284.037	2.61
284.415	2.64
284.792	2.9
285.17	2.95
285.548	2.4
285.925	2.78
286.303	2.98
286.68	2.44
287.058	2.52
287.435	2.51
287.813	2.9
288.19	2.12
288.567	2.13
288.945	2.13
289.322	3
289.699	2.65
290.076	2.4
290.453	2.8
290.83	2.97
291.207	2.97
291.584	2.48
291.961	2.65
292.338	2.82
292.715	2.23
293.092	2.78
293.469	2.84
293.845	3.19
294.222	2.9
294.599	2.74
294.975	2.81
295.352	2.61
295.728	2.63
296.105	3.22
296.481	2.37
296.858	2.61
297.234	2.47
297.61	2.96
297.986	2.71
298.363	2.46
298.739	2.66
299.115	2.95
299.491	2.86
299.867	2.71
300.243	2.52
300.619	2.97
300.995	3.19
301.371	2.86
301.746	2.51
302.122	3.1
302.498	2.6
302.874	2.45
303.249	3.07
303.625	2.81
304	2.89
304.376	2.27
304.751	2.7
305.127	2.49
305.502	2.73
305.878	2.36
306.253	2.95
306.628	2.54
307.003	2.97
307.378	3.5
307.754	3.14
308.129	3.3
308.504	3.4
308.879	3.43
309.254	3.19
309.629	2.9
310.003	2.8
310.378	3.04
310.753	2.68
311.128	3.13
311.502	2.63
311.877	3.02
312.252	3.02
312.626	2.74
313.001	2.88
313.375	3.25
313.75	2.75
314.124	2.73
314.498	2.81
314.873	3.68
315.247	2.93
315.621	2.92
315.995	2.59
316.369	3.09
316.743	3.2
317.117	2.69
317.491	2.58
317.865	3.74
318.239	3.07
318.613	2.75
318.987	2.3
319.361	3.04
319.734	2.81
320.108	2.89
320.482	3.04
320.855	2.42
321.229	2.77
321.602	3.34
321.976	3.04
322.349	3.16
322.723	3.35
323.096	3.25
323.469	3.41
323.843	3.95
324.216	3.14
324.589	3.39
324.962	2.69
325.335	3.56
325.708	3.24
326.081	3.19
326.454	3.22
326.827	2.7
327.2	3.25
327.573	3.3
327.945	3.22
328.318	3.17
328.691	3.02
329.063	2.75
329.436	2.61
329.809	2.85
330.181	3.24
330.553	3.3
330.926	2.73
331.298	3.18
331.671	2.57
332.043	2.89
332.415	2.84
332.787	2.79
333.159	2.96
333.532	3.45
333.904	3.36
334.276	3.13
334.648	2.93
335.02	3.01
335.391	3.5
335.763	3.09
336.135	2.41
336.507	3.36
336.879	3.51
337.25	2.12
337.622	3
337.993	3.1
338.365	2.93
338.736	3.63
339.108	3.2
339.479	3.64
339.851	3.33
340.222	2.74
340.593	3.3
340.964	3.04
341.336	2.73
341.707	2.84
342.078	3.15
342.449	3.24
342.82	3.28
343.191	3
343.562	3.75
343.933	3.24
344.303	3.3
344.674	2.59
345.045	3.35
345.416	2.83
345.786	2.91
346.157	3.08
346.527	3.23
346.898	3.1
347.268	3.48
347.639	2.91
348.009	3.36
348.38	3.37
348.75	2.72
349.12	3.35
349.49	3.5
349.861	3.08
350.231	2.98
350.601	3.16
350.971	3.22
351.341	3.32
351.711	3.29
352.081	2.76
352.45	3.69
352.82	3.57
353.19	3.19
353.56	3.17
353.929	3.36
354.299	3.04
354.669	2.88
355.038	3.1
355.408	3.4
355.777	3.01
356.147	3.05
356.516	3.5
356.885	3.15
357.254	3.31
357.624	3.35
357.993	3.26
358.362	3.04
358.731	3.29
359.1	3.16
359.469	3.2
359.838	2.84
360.207	3.44
360.576	3.42
360.945	3.26
361.314	3.32
361.682	2.91
362.051	3.3
362.42	3.52
362.788	3.18
363.157	3.2
363.525	3.21
363.894	3.18
364.262	3.29
364.631	3.38
364.999	3.3
365.367	3.08
365.735	3.53
366.104	3.15
366.472	3.49
366.84	3.15
367.208	3.6
367.576	3.2
367.944	3.14
368.312	3.36
368.68	3.42
369.048	3.6
369.416	3.04
369.783	3.22
370.151	3.37
370.519	3.43
370.886	3.3
371.254	3.11
371.621	3.48
371.989	3.26
372.356	3.36
372.724	3.6
373.091	3.26
373.458	3
373.826	3.29
374.193	3.7
374.56	3.09
374.927	3.15
375.294	3.11
375.661	3.28
376.028	3.61
376.395	3.37
376.762	3.91
377.129	3.16
377.496	3.55
377.863	3.29
378.229	3.34
378.596	3.15
378.963	3.51
379.329	3.32
379.696	3.62
380.062	3.29
380.429	3.1
380.795	3.22
381.161	3.52
381.528	3.78
381.894	3.46
382.26	3.53
382.626	3.68
382.993	3.29
383.359	3.14
383.725	3.49
384.091	3.79
384.457	3.14
384.823	3.16
385.188	3.58
385.554	3.21
385.92	3.37
386.286	3.51
386.651	3.61
387.017	3.4
387.383	3
387.748	2.96
388.114	3.16
388.479	3.38
388.845	3.44
389.21	3.77
389.575	3.61
389.94	3.52
390.306	3.38
390.671	3.67
391.036	3.22
391.401	3.41
391.766	3.46
392.131	3.63
392.496	3.32
392.861	3.32
393.226	3.53
393.591	3.45
393.956	3.5
394.32	3.6
394.685	3.35
395.05	3.53
395.414	3.18
395.779	3.43
396.143	3.63
396.508	3.3
396.872	3.39
397.236	3.43
397.601	3.44
397.965	3.33
398.329	3.44
398.694	3.56
399.058	3.62
399.422	3.42
399.786	3.45
400.15	3.62
400.514	3.21
400.878	3.61
401.242	3.56
401.605	3.45
401.969	3.38
402.333	3.41
402.697	3.52
403.06	3.72
403.424	3.56
403.787	3.25
404.151	3.37
404.514	3.42
404.878	3.43
405.241	3.34
405.604	3.73
405.968	3.49
406.331	3.44
406.694	3.48
407.057	3.38
407.42	3.31
407.783	3.56
408.146	3.77
408.509	3.59
408.872	3.59
409.235	3.61
409.598	3.44
409.961	3.61
410.323	3.77
410.686	3.83
411.049	3.42
411.411	3.39
411.774	3.46
412.136	3.58
412.499	3.62
412.861	3.55
413.223	3.6
413.586	3.75
413.948	3.55
414.31	3.64
414.672	3.4
415.035	3.73
415.397	3.41
415.759	3.67
416.121	3.59
416.483	3.61
416.845	3.68
417.206	3.47
417.568	3.75
417.93	3.82
418.292	3.56
418.653	3.51
419.015	3.55
419.377	3.59
419.738	3.45
420.1	3.65
420.461	3.55
420.822	3.57
421.184	3.63
421.545	3.46
421.906	3.56
422.267	3.5
422.629	3.5
422.99	3.48
423.351	3.56
423.712	3.56
424.073	3.61
424.434	3.63
424.795	3.61
425.155	3.63
425.516	3.61
425.877	3.54
426.238	3.49
426.598	3.56
426.959	3.61
427.32	3.48
427.68	3.68
428.041	3.51
428.401	3.63
428.761	3.74
429.122	3.61
429.482	3.61
429.842	3.65
430.202	3.87
430.563	3.93
430.923	3.73
431.283	3.89
431.643	3.82
432.003	3.92
432.363	3.69
432.722	3.75
433.082	3.73
433.442	3.61
433.802	3.7
434.161	3.71
434.521	3.73
434.881	3.71
435.24	3.72
435.6	3.78
435.959	3.89
436.319	3.69
436.678	3.91
437.037	3.71
437.396	3.8
437.756	3.8
438.115	3.79
438.474	3.78
438.833	3.68
439.192	3.76
439.551	3.8
439.91	3.81
440.269	3.98
440.628	3.67
440.987	3.86
441.345	3.76
441.704	3.79
442.063	3.82
442.421	3.65
442.78	3.71
443.138	3.88
443.497	3.82
443.855	3.78
444.214	3.71
444.572	3.9
444.93	3.92
445.288	3.73
445.647	3.76
446.005	3.74
446.363	3.75
446.721	3.9
447.079	3.68
447.437	3.76
447.795	3.75
448.153	3.85
448.51	3.77
448.868	3.83
449.226	3.8
449.584	3.91
449.941	3.77
450.299	3.83
450.656	3.78
451.014	3.91
451.371	3.9
451.729	3.86
452.086	3.92
452.443	3.84
452.801	4.04
453.158	3.91
453.515	3.82
453.872	3.67
454.229	3.81
454.586	3.84
454.943	3.8
455.3	3.95
455.657	3.81
456.014	4.11
456.371	3.94
456.727	4.02
457.084	4.04
457.441	4.04
457.797	3.89
458.154	3.97
458.51	3.91
458.867	4
459.223	4.17
459.58	4.07
459.936	3.93
460.292	3.98
460.648	3.9
461.005	3.92
461.361	3.84
461.717	3.95
462.073	3.95
462.429	4.05
462.785	4.04
463.141	4.03
463.496	4.08
463.852	4.03
464.208	4.15
464.564	4.14
464.919	4.06
465.275	4.07
465.631	4.1
465.986	4.07
466.342	4.1
466.697	4.23
467.052	3.99
467.408	4.02
467.763	4.07
468.118	4.07
468.473	4.14
468.829	4.1
469.184	4.01
469.539	4.12
469.894	4.3
470.249	4.22
470.603	4.21
470.958	3.96
471.313	4.37
471.668	4.15
472.023	4.08
472.377	4.05
472.732	4.08
473.086	4.03
473.441	3.95
473.795	4.31
474.15	4.1
474.504	4.29
474.859	4.21
475.213	4.25
475.567	3.96
475.921	4.3
476.275	4.19
476.63	4.17
476.984	4.25
477.338	4.37
477.692	4.32
478.045	4.22
478.399	4.1
478.753	4.12
479.107	4.11
479.461	4.25
479.814	4.21
480.168	4.17
480.521	4.35
480.875	4.24
481.228	4.29
481.582	4.13
481.935	4.2
482.289	4.24
482.642	4.17
482.995	4.14
483.348	4.21
483.701	4.16
484.055	4.15
484.408	4.23
484.761	4.09
485.114	3.94
485.466	3.94
485.819	3.96
486.172	4.06
486.525	4.08
486.878	4.12
487.23	4.19
487.583	4.19
487.936	4.2
488.288	4.2
488.641	4.12
488.993	4.07
489.345	4.11
489.698	4.07
490.05	4.19
490.402	4.15
490.754	4.27
491.107	4.21
491.459	4.34
491.811	4.25
492.163	4.28
492.515	4.23
492.866	4.15
493.218	4.11
493.57	4.1
493.922	4.19
494.274	4.38
494.625	4.33
494.977	4.39
495.328	4.35
495.68	4.43
496.031	4.41
496.383	4.63
496.734	4.42
497.086	4.46
497.437	4.48
497.788	4.5
498.139	4.37
498.49	4.49
498.842	4.44
499.193	4.47
499.544	4.46
499.894	4.52
500.245	4.47
500.596	4.55
500.947	4.59
501.298	4.52
501.648	4.5
501.999	4.41
502.35	4.57
502.7	4.69
503.051	4.72
503.401	4.56
503.752	4.63
504.102	4.59
504.452	4.64
504.803	4.75
505.153	4.74
505.503	4.69
505.853	4.57
506.203	4.74
506.553	4.48
506.903	4.66
507.253	4.62
507.603	4.79
507.953	4.77
508.303	4.73
508.652	4.56
509.002	4.81
509.352	4.7
509.701	4.74
510.051	4.73
510.4	4.68
510.75	4.72
511.099	4.76
511.449	4.73
511.798	4.67
512.147	4.72
512.496	4.78
512.846	4.73
513.195	4.81
513.544	4.82
513.893	4.78
514.242	4.75
514.591	4.84
514.939	4.87
515.288	4.9
515.637	4.95
515.986	4.93
516.334	4.81
516.683	5.05
517.032	4.89
517.38	5.07
517.729	5.02
518.077	4.9
518.426	4.98
518.774	5.01
519.122	4.97
519.47	4.99
519.819	4.82
520.167	4.86
520.515	4.87
520.863	4.92
521.211	4.95
521.559	4.99
521.907	5.02
522.255	4.99
522.602	5.06
522.95	5.14
523.298	5
523.645	5.22
523.993	5.13
524.341	5.11
524.688	5.17
525.036	5.18
525.383	5.17
525.73	5.15
526.078	5.21
526.425	5.11
526.772	5.07
527.119	5.04
527.466	5.15
527.814	5.09
528.161	5.16
528.508	5.12
528.854	5.19
529.201	5.04
529.548	5.1
529.895	5.05
530.242	4.98
530.588	5.01
530.935	5.09
531.282	5.13
531.628	5.2
531.975	5.19
532.321	5.24
532.667	5.33
533.014	5.42
533.36	5.37
533.706	5.43
534.052	5.41
534.399	5.37
534.745	5.21
535.091	5.26
535.437	5.3
535.783	5.35
536.129	5.48
536.474	5.46
536.82	5.41
537.166	5.51
537.512	5.56
537.857	5.55
538.203	5.38
538.549	5.5
538.894	5.47
539.239	5.55
539.585	5.61
539.93	5.62
540.276	5.79
540.621	5.84
540.966	5.73
541.311	5.78
541.656	5.87
542.001	5.56
542.346	5.61
542.691	5.58
543.036	5.49
543.381	5.49
543.726	5.65
544.071	5.73
544.415	5.77
544.76	5.8
545.105	5.84
545.449	5.86
545.794	5.86
546.138	5.84
546.483	5.89
546.827	6.02
547.171	5.98
547.516	5.89
547.86	5.99
548.204	6.01
548.548	5.92
548.892	5.94
549.236	5.98
549.58	6.15
549.924	6.19
550.268	6.31
550.612	6.34
550.956	6.24
551.3	6.2
551.643	6.38
551.987	6.47
552.33	6.41
552.674	6.34
553.017	6.48
553.361	6.42
553.704	6.4
554.048	6.38
554.391	6.5
554.734	6.6
555.077	6.49
555.42	6.6
555.764	6.68
556.107	6.62
556.45	6.63
556.793	6.66
557.135	6.56
557.478	6.72
557.821	6.49
558.164	6.85
558.507	6.79
558.849	6.53
559.192	6.74
559.534	6.69
559.877	6.62
560.219	6.87
560.562	6.85
560.904	6.91
561.246	6.81
561.589	6.91
561.931	7.02
562.273	7.02
562.615	6.98
562.957	7.07
563.299	6.9
563.641	6.93
563.983	7.22
564.325	7.04
564.667	6.99
565.008	7.19
565.35	7.25
565.692	7.08
566.033	7.06
566.375	7.1
566.716	7.28
567.058	7.21
567.399	7.43
567.741	7.12
568.082	7.33
568.423	7.08
568.764	7.29
569.105	7.41
569.447	7.47
569.788	7.52
570.129	7.62
570.47	7.67
570.811	7.67
571.151	7.57
571.492	7.45
571.833	7.62
572.174	7.66
572.514	7.5
572.855	7.6
573.195	7.68
573.536	7.68
573.876	7.75
574.217	7.77
574.557	7.8
574.898	7.84
575.238	7.88
575.578	7.89
575.918	7.89
576.258	8.03
576.598	7.86
576.938	7.99
577.278	7.95
577.618	8.01
577.958	8.2
578.298	8.03
578.638	8.05
578.977	7.99
579.317	8.09
579.657	8.17
579.996	8.1
580.336	8.32
580.675	8.33
581.014	8.43
581.354	8.42
581.693	8.23
582.032	8.55
582.372	8.43
582.711	8.57
583.05	8.54
583.389	8.58
583.728	8.77
584.067	8.58
584.406	8.91
584.745	8.72
585.083	8.79
585.422	8.94
585.761	8.89
586.1	8.6
586.438	9.07
586.777	8.54
587.115	9.15
587.454	8.9
587.792	9.01
588.13	9.16
588.469	8.98
588.807	8.88
589.145	9.13
589.483	9.17
589.821	9.18
590.159	9.28
590.497	9
590.835	9.16
591.173	9.46
591.511	9.34
591.849	9.33
592.187	9.31
592.524	9.19
592.862	9.67
593.2	9.13
593.537	9.5
593.875	9.57
594.212	9.52
594.55	9.31
594.887	9.72
595.224	9.51
595.561	9.68
595.899	9.55
596.236	9.75
596.573	9.7
596.91	9.65
597.247	9.93
597.584	9.89
597.921	9.85
598.258	9.87
598.594	9.61
598.931	9.83
599.268	9.97
599.604	9.9
599.941	9.92
600.277	10.06
600.614	10.2
600.95	10.07
601.287	10.17
601.623	10.19
601.959	10.22
602.296	10.37
602.632	10.3
602.968	10.28
603.304	10.32
603.64	10.23
603.976	10.43
604.312	10.56
604.648	10.43
604.984	10.5
605.319	10.55
605.655	10.79
605.991	10.55
606.326	10.45
606.662	10.52
606.998	10.58
607.333	10.52
607.668	10.97
608.004	10.71
608.339	10.84
608.674	10.82
609.01	10.69
609.345	11.17
609.68	10.85
610.015	10.99
610.35	11.23
610.685	11.22
611.02	11.19
611.355	11.27
611.689	11.04
612.024	11.16
612.359	11.27
612.694	11.44
613.028	11.03
613.363	11.35
613.697	11.44
614.032	11.17
614.366	11.17
614.7	11.68
615.035	11.66
615.369	11.35
615.703	11.61
616.037	11.77
616.371	11.63
616.705	11.52
617.039	11.66
617.373	11.82
617.707	11.9
618.041	11.85
618.375	11.83
618.709	11.99
619.042	11.74
619.376	11.9
619.71	12.26
620.043	11.99
620.377	12.24
620.71	12.24
621.043	12.32
621.377	12.11
621.71	12.26
622.043	12.38
622.376	12.2
622.709	12.41
623.043	12.22
623.376	12.4
623.709	12.12
624.041	12.92
624.374	12.85
624.707	12.8
625.04	12.92
625.373	12.67
625.705	12.57
626.038	12.98
626.37	12.83
626.703	12.62
627.035	12.86
627.368	13.04
627.7	12.87
628.032	12.6
628.365	12.78
628.697	13.07
629.029	13.13
629.361	12.73
629.693	13.14
630.025	13.15
630.357	13.09
630.689	13.25
631.021	13.39
631.353	13.52
631.684	13.23
632.016	13.33
632.348	13.6
632.679	13.55
633.011	13.46
633.342	13.09
633.674	13.54
634.005	13.59
634.336	13.65
634.668	13.36
634.999	13.27
635.33	13.7
635.661	13.59
635.992	13.62
636.323	13.68
636.654	14.02
636.985	14.06
637.316	13.98
637.647	13.92
637.977	13.72
638.308	13.92
638.639	14.12
638.969	14.03
639.3	14.07
639.63	13.72
639.961	14.07
640.291	13.94
640.622	14.54
640.952	14.59
641.282	14.68
641.612	14.45
641.943	14.34
642.273	14.42
642.603	14.82
642.933	14.53
643.263	14.93
643.592	14.07
643.922	14.41
644.252	14.67
644.582	14.38
644.911	14.71
645.241	14.99
645.571	14.66
645.9	14.9
646.23	14.69
646.559	14.45
646.888	14.54
647.218	15.15
647.547	15.23
647.876	15.5
648.205	15.24
648.534	14.5
648.863	14.77
649.192	15.33
649.521	15.22
649.85	15.5
650.179	15.21
650.508	15.35
650.837	15.52
651.165	14.95
651.494	15.58
651.822	15.41
652.151	15.68
652.479	15.65
652.808	15.78
653.136	15.32
653.465	15.67
653.793	15.56
654.121	15.99
654.449	15.8
654.777	15.92
655.105	15.85
655.433	15.62
655.761	16.2
656.089	15.38
656.417	15.74
656.745	15.62
657.073	16.17
657.4	15.92
657.728	16.35
658.056	15.72
658.383	15.9
658.711	16.11
659.038	16.21
659.365	16.45
659.693	15.71
660.02	16.82
660.347	16.43
660.674	16.24
661.001	16.49
661.329	16.32
661.656	16.39
661.982	16.42
662.309	16.67
662.636	16.61
662.963	16.83
663.29	16.76
663.616	16.84
663.943	17.17
664.27	16.54
664.596	17.22
664.923	16.84
665.249	17.02
665.576	16.81
665.902	17.35
666.228	16.42
666.554	17.5
666.881	17.21
667.207	16.91
667.533	17.29
667.859	17.22
668.185	17.86
668.511	17.52
668.837	17.42
669.162	17.92
669.488	17.94
669.814	18.01
670.139	17.53
670.465	17.74
670.791	17.64
671.116	17.91
671.442	17.48
671.767	17.86
672.092	17.51
672.418	17.5
672.743	17.93
673.068	18.48
673.393	17.68
673.718	18.16
674.043	17.75
674.368	17.93
674.693	18.49
675.018	18.06
675.343	18.51
675.667	18.07
675.992	18.18
676.317	18.57
676.641	17.54
676.966	18.43
677.29	18.38
677.615	18
677.939	18.72
678.264	18.72
678.588	18.25
678.912	18.26
679.236	18.32
679.56	18.6
679.885	18.88
680.209	18.41
680.532	19.31
680.856	18.43
681.18	18.93
681.504	18.78
681.828	18.53
682.152	18.66
682.475	18.83
682.799	18.55
683.122	18.93
683.446	19.14
683.769	18.95
684.093	19.34
684.416	19.06
684.739	19.22
685.062	19.93
685.386	19.32
685.709	19.62
686.032	19.53
686.355	19.62
686.678	19.74
