Data from 815656_chest_Reflection__4__98.txt Node

Date: Fri Sep 16 15:26:48 CDT 2022
User: ToomeyLab
Spectrometer: FLMS14357
Trigger mode: 0
Integration Time (sec): 1.000000E-2
Scans to average: 100
Electric dark correction enabled: true
Nonlinearity correction enabled: false
Boxcar width: 0
XAxis mode: Wavelengths
Number of Pixels in Spectrum: 2048
>>>>>Begin Spectral Data<<<<<
189.047	-241.13
189.435	-241.13
189.823	-241.13
190.211	20.24
190.599	277.45
190.987	159.52
191.375	52.8
191.763	60.46
192.151	31.65
192.538	-0.28
192.926	94.9
193.314	46.04
193.702	11.77
194.089	186.31
194.477	96.05
194.864	137.92
195.252	77.23
195.639	-11.78
196.027	70.03
196.414	-769.57
196.801	-25.73
197.189	-7.48
197.576	-40.15
197.963	640.17
198.351	-57.35
198.738	-60.34
199.125	45.51
199.512	883.55
199.899	-14.34
200.286	38.14
200.673	21.68
201.06	2.53
201.447	-14.82
201.833	24.01
202.22	-5.24
202.607	-46.81
202.994	9.52
203.38	-1.09
203.767	2.67
204.154	25.98
204.54	11.33
204.927	-22.57
205.313	29.41
205.699	38.71
206.086	37.72
206.472	12.99
206.858	25.01
207.245	43.39
207.631	16.02
208.017	17.03
208.403	57.94
208.789	34.3
209.175	23.99
209.561	16.76
209.947	-1.3
210.333	-8.91
210.719	1.46
211.105	-5.13
211.491	17.26
211.876	43.47
212.262	28.1
212.648	-3.15
213.034	20.4
213.419	-18.43
213.805	-9.87
214.19	2.93
214.576	21.78
214.961	-26.17
215.346	-38.39
215.732	-48.63
216.117	13.4
216.502	7.5
216.888	-19.23
217.273	-13.74
217.658	25.48
218.043	-192.43
218.428	27.54
218.813	-14.15
219.198	-19.49
219.583	-20.51
219.968	4.99
220.353	-1.99
220.738	25.26
221.122	1.05
221.507	25.06
221.892	3.68
222.276	-2.33
222.661	6.75
223.046	15.43
223.43	15.79
223.815	-5.87
224.199	5.96
224.583	-1.31
224.968	9.58
225.352	-6.08
225.736	6.24
226.121	10.07
226.505	5.33
226.889	3.85
227.273	-0.02
227.657	8.33
228.041	2.7
228.425	-2.59
228.809	5.78
229.193	-0.17
229.577	3.29
229.961	2.76
230.344	3.93
230.728	3.24
231.112	2.97
231.495	2.94
231.879	3.12
232.263	2.23
232.646	2.11
233.03	3.65
233.413	2.89
233.797	3.79
234.18	5.78
234.563	1.31
234.946	3.27
235.33	3.45
235.713	3.11
236.096	2.77
236.479	4.15
236.862	3.19
237.245	3.63
237.628	4.99
238.011	3.07
238.394	3.87
238.777	3.87
239.16	4.18
239.543	3.67
239.925	2.61
240.308	1.92
240.691	3.07
241.073	4.95
241.456	3.13
241.838	3.46
242.221	3.57
242.603	2.87
242.986	2.75
243.368	3.32
243.75	3.11
244.133	3.69
244.515	2.95
244.897	3.56
245.279	3.22
245.661	3.53
246.043	3.16
246.425	3.51
246.807	4.05
247.189	2.91
247.571	2.23
247.953	3.55
248.335	3.03
248.717	3.12
249.098	3.3
249.48	3.24
249.862	3.07
250.243	3.24
250.625	3.16
251.006	2.92
251.388	3.81
251.769	2.35
252.151	3.32
252.532	2.39
252.913	2.63
253.295	3.36
253.676	3.37
254.057	3.06
254.438	2.75
254.819	2.62
255.2	2.52
255.581	2.73
255.962	2.91
256.343	3.83
256.724	2.16
257.105	2.54
257.486	3.01
257.867	1.52
258.247	3.51
258.628	3.84
259.009	2.88
259.389	3.38
259.77	2.69
260.15	3.31
260.531	3.1
260.911	2.92
261.292	2.86
261.672	2.93
262.052	2.92
262.432	2.81
262.813	3.53
263.193	3.34
263.573	3.11
263.953	3.15
264.333	2.32
264.713	2.14
265.093	2.81
265.473	2.65
265.853	3.07
266.233	3.22
266.612	3.68
266.992	2.22
267.372	2.46
267.752	2.73
268.131	2.75
268.511	3.23
268.89	3.19
269.27	2.84
269.649	2.73
270.029	2.84
270.408	3.01
270.787	2.57
271.167	2.65
271.546	2.99
271.925	2.94
272.304	2.98
272.683	2.84
273.062	2.9
273.441	3.04
273.82	2.59
274.199	3.09
274.578	2.64
274.957	2.89
275.336	2.92
275.715	3.55
276.093	2.77
276.472	2.79
276.851	2.24
277.229	2.6
277.608	3.3
277.986	3.36
278.365	2.21
278.743	2.75
279.122	2.59
279.5	2.72
279.878	3.07
280.257	3.15
280.635	2.82
281.013	2.74
281.391	2.98
281.769	3.38
282.147	2.9
282.525	2.77
282.903	2.75
283.281	2.46
283.659	3.23
284.037	3.2
284.415	2.84
284.792	2.9
285.17	2.69
285.548	2.56
285.925	2.59
286.303	3.2
286.68	2.65
287.058	2.79
287.435	2.71
287.813	3.12
288.19	2.54
288.567	2.63
288.945	2.83
289.322	2.86
289.699	2.92
290.076	2.2
290.453	2.75
290.83	3.07
291.207	2.9
291.584	2.31
291.961	3.04
292.338	3
292.715	2.53
293.092	2.94
293.469	2.71
293.845	2.64
294.222	2.72
294.599	2.74
294.975	2.38
295.352	2.7
295.728	2.8
296.105	3.13
296.481	2.5
296.858	2.84
297.234	2.93
297.61	3.25
297.986	3.15
298.363	2.81
298.739	2.55
299.115	3.14
299.491	3.16
299.867	2.73
300.243	3.06
300.619	2.94
300.995	2.95
301.371	3.09
301.746	2.39
302.122	3.14
302.498	3.32
302.874	2.76
303.249	3.04
303.625	2.91
304	2.91
304.376	2.83
304.751	3.17
305.127	2.63
305.502	2.77
305.878	3.32
306.253	3.09
306.628	2.66
307.003	3.2
307.378	3.54
307.754	3.02
308.129	3.62
308.504	3.07
308.879	3.57
309.254	2.71
309.629	2.65
310.003	3.23
310.378	2.59
310.753	3.18
311.128	2.75
311.502	2.8
311.877	3.04
312.252	3
312.626	2.82
313.001	3.21
313.375	3.59
313.75	2.9
314.124	2.6
314.498	2.86
314.873	3.3
315.247	2.84
315.621	3.14
315.995	2.73
316.369	3.24
316.743	3.17
317.117	3.08
317.491	3.04
317.865	3.26
318.239	3.15
318.613	3.13
318.987	2.85
319.361	2.76
319.734	3.09
320.108	3.09
320.482	3.6
320.855	3.11
321.229	3.06
321.602	3.35
321.976	3.06
322.349	3.29
322.723	3.19
323.096	3.02
323.469	3.44
323.843	3.73
324.216	3.35
324.589	2.98
324.962	2.75
325.335	3.51
325.708	3.11
326.081	3.21
326.454	2.92
326.827	2.87
327.2	2.83
327.573	2.96
327.945	3.33
328.318	3.17
328.691	3.32
329.063	2.59
329.436	3.06
329.809	2.3
330.181	3.24
330.553	2.52
330.926	3.11
331.298	3.1
331.671	3.17
332.043	2.79
332.415	2.83
332.787	2.99
333.159	3.22
333.532	3.42
333.904	3.52
334.276	2.97
334.648	3.15
335.02	3.1
335.391	3.68
335.763	3.29
336.135	2.96
336.507	3.95
336.879	3.2
337.25	2.5
337.622	3.5
337.993	3.25
338.365	3.17
338.736	3.77
339.108	3.13
339.479	3.18
339.851	3.44
340.222	3.13
340.593	3.14
340.964	3.53
341.336	3.24
341.707	3.22
342.078	3.72
342.449	3.04
342.82	3.14
343.191	3.23
343.562	3.75
343.933	3.42
344.303	3.82
344.674	2.9
345.045	3.36
345.416	3.02
345.786	3.46
346.157	3.09
346.527	3.16
346.898	2.64
347.268	3.29
347.639	3.18
348.009	3.25
348.38	3.52
348.75	2.96
349.12	3.31
349.49	3.36
349.861	3.52
350.231	3.3
350.601	2.86
350.971	2.96
351.341	3.7
351.711	3.08
352.081	3.24
352.45	3.47
352.82	3.57
353.19	3.22
353.56	3.41
353.929	3.42
354.299	3.2
354.669	3.4
355.038	3.54
355.408	3.2
355.777	3
356.147	3.22
356.516	3.51
356.885	3.19
357.254	3.31
357.624	3.32
357.993	3.11
358.362	3.25
358.731	3.36
359.1	3.27
359.469	3.28
359.838	3.29
360.207	3.53
360.576	3.47
360.945	3.21
361.314	2.94
361.682	3.24
362.051	3.27
362.42	3.62
362.788	3.42
363.157	3.21
363.525	3.29
363.894	3.36
364.262	3.27
364.631	3.27
364.999	3.29
365.367	3.3
365.735	3.39
366.104	3.35
366.472	3.39
366.84	3.38
367.208	3.64
367.576	3.19
367.944	2.97
368.312	3.38
368.68	3.45
369.048	3.57
369.416	3.36
369.783	3.61
370.151	3.3
370.519	3.21
370.886	3.13
371.254	3.24
371.621	3.38
371.989	3.11
372.356	3.61
372.724	3.49
373.091	3.33
373.458	3.33
373.826	3.31
374.193	3.65
374.56	3.12
374.927	3.14
375.294	3.07
375.661	3.29
376.028	3.78
376.395	2.85
376.762	3.88
377.129	3.24
377.496	3.53
377.863	3.55
378.229	3.53
378.596	3.49
378.963	3.49
379.329	3.18
379.696	3.63
380.062	3.32
380.429	3.3
380.795	3.47
381.161	3.65
381.528	3.46
381.894	3.67
382.26	3.65
382.626	3.59
382.993	3.17
383.359	3.02
383.725	3.32
384.091	3.37
384.457	3.05
384.823	3.34
385.188	3.21
385.554	3.35
385.92	3.53
386.286	3.34
386.651	3.45
387.017	3.5
387.383	3.17
387.748	3.25
388.114	3.28
388.479	3.24
388.845	3.56
389.21	3.52
389.575	3.34
389.94	3.33
390.306	3.51
390.671	3.4
391.036	3.48
391.401	3.34
391.766	3.43
392.131	3.51
392.496	3.16
392.861	3.39
393.226	3.66
393.591	3.52
393.956	3.47
394.32	3.75
394.685	3.21
395.05	3.6
395.414	3.35
395.779	3.4
396.143	3.52
396.508	3.27
396.872	3.36
397.236	3.21
397.601	3.43
397.965	3.17
398.329	3.51
398.694	3.54
399.058	3.74
399.422	3.39
399.786	3.42
400.15	3.59
400.514	3.29
400.878	3.69
401.242	3.5
401.605	3.42
401.969	3.34
402.333	3.37
402.697	3.36
403.06	3.64
403.424	3.51
403.787	3.43
404.151	3.48
404.514	3.41
404.878	3.35
405.241	3.47
405.604	3.55
405.968	3.61
406.331	3.44
406.694	3.5
407.057	3.48
407.42	3.27
407.783	3.56
408.146	4.14
408.509	3.5
408.872	3.57
409.235	3.38
409.598	3.37
409.961	3.62
410.323	3.64
410.686	3.81
411.049	3.44
411.411	3.49
411.774	3.52
412.136	3.51
412.499	3.56
412.861	3.45
413.223	3.5
413.586	3.39
413.948	3.46
414.31	3.8
414.672	3.48
415.035	3.74
415.397	3.33
415.759	3.7
416.121	3.53
416.483	3.34
416.845	3.67
417.206	3.65
417.568	3.58
417.93	3.65
418.292	3.48
418.653	3.54
419.015	3.5
419.377	3.6
419.738	3.42
420.1	3.66
420.461	3.66
420.822	3.52
421.184	3.49
421.545	3.49
421.906	3.49
422.267	3.6
422.629	3.45
422.99	3.42
423.351	3.48
423.712	3.43
424.073	3.58
424.434	3.55
424.795	3.52
425.155	3.45
425.516	3.58
425.877	3.45
426.238	3.43
426.598	3.48
426.959	3.53
427.32	3.62
427.68	3.64
428.041	3.46
428.401	3.64
428.761	3.74
429.122	3.72
429.482	3.58
429.842	3.69
430.202	3.6
430.563	3.7
430.923	3.76
431.283	3.92
431.643	3.78
432.003	3.71
432.363	3.68
432.722	3.7
433.082	3.67
433.442	3.72
433.802	3.62
434.161	3.62
434.521	3.47
434.881	3.69
435.24	3.64
435.6	3.62
435.959	3.77
436.319	3.54
436.678	3.7
437.037	3.67
437.396	3.76
437.756	3.76
438.115	3.49
438.474	3.77
438.833	3.58
439.192	3.63
439.551	3.69
439.91	3.58
440.269	3.75
440.628	3.59
440.987	3.61
441.345	3.71
441.704	3.62
442.063	3.75
442.421	3.59
442.78	3.52
443.138	3.7
443.497	3.65
443.855	3.57
444.214	3.63
444.572	3.79
444.93	3.68
445.288	3.64
445.647	3.74
446.005	3.67
446.363	3.73
446.721	3.65
447.079	3.59
447.437	3.61
447.795	3.65
448.153	3.65
448.51	3.62
448.868	3.65
449.226	3.7
449.584	3.76
449.941	3.71
450.299	3.68
450.656	3.78
451.014	3.76
451.371	3.83
451.729	3.73
452.086	3.69
452.443	3.69
452.801	3.86
453.158	3.85
453.515	3.67
453.872	3.78
454.229	3.68
454.586	3.59
454.943	3.64
455.3	3.89
455.657	3.66
456.014	3.71
456.371	3.71
456.727	3.78
457.084	3.85
457.441	3.82
457.797	3.88
458.154	3.69
458.51	3.84
458.867	3.64
459.223	3.82
459.58	3.85
459.936	3.74
460.292	3.85
460.648	3.75
461.005	3.73
461.361	3.68
461.717	3.75
462.073	3.77
462.429	3.85
462.785	3.86
463.141	3.91
463.496	3.81
463.852	3.99
464.208	3.87
464.564	4
464.919	3.78
465.275	4.07
465.631	3.96
465.986	3.84
466.342	3.92
466.697	3.95
467.052	3.8
467.408	3.81
467.763	3.99
468.118	3.78
468.473	3.82
468.829	3.94
469.184	3.79
469.539	3.86
469.894	3.9
470.249	3.93
470.603	3.97
470.958	3.83
471.313	4.03
471.668	3.81
472.023	3.94
472.377	3.99
472.732	3.91
473.086	3.82
473.441	3.74
473.795	4.02
474.15	3.89
474.504	4.1
474.859	3.93
475.213	3.95
475.567	3.68
475.921	4.04
476.275	4
476.63	4.06
476.984	4.02
477.338	3.98
477.692	4.12
478.045	3.97
478.399	4.06
478.753	3.97
479.107	4.08
479.461	3.99
479.814	3.9
480.168	3.94
480.521	4.03
480.875	4.01
481.228	3.95
481.582	3.92
481.935	3.92
482.289	3.92
482.642	3.9
482.995	3.97
483.348	3.91
483.701	3.96
484.055	3.9
484.408	3.96
484.761	3.74
485.114	3.7
485.466	3.66
485.819	3.74
486.172	3.78
486.525	3.83
486.878	3.89
487.23	3.92
487.583	3.99
487.936	3.97
488.288	3.9
488.641	3.82
488.993	3.83
489.345	3.81
489.698	3.83
490.05	3.86
490.402	3.89
490.754	4.02
491.107	3.89
491.459	4.02
491.811	4
492.163	4
492.515	3.97
492.866	3.89
493.218	3.83
493.57	3.86
493.922	3.92
494.274	4.02
494.625	3.97
494.977	4.07
495.328	4.06
495.68	4.15
496.031	4.11
496.383	4.13
496.734	4.09
497.086	4.12
497.437	4.16
497.788	4.15
498.139	4.17
498.49	4.07
498.842	4.16
499.193	4.13
499.544	4.08
499.894	4.19
500.245	4.21
500.596	4.14
500.947	4.18
501.298	4.22
501.648	4.26
501.999	4.25
502.35	4.21
502.7	4.22
503.051	4.29
503.401	4.21
503.752	4.28
504.102	4.25
504.452	4.22
504.803	4.31
505.153	4.22
505.503	4.33
505.853	4.23
506.203	4.22
506.553	4.2
506.903	4.21
507.253	4.36
507.603	4.48
507.953	4.25
508.303	4.29
508.652	4.31
509.002	4.42
509.352	4.25
509.701	4.27
510.051	4.31
510.4	4.24
510.75	4.34
511.099	4.28
511.449	4.31
511.798	4.32
512.147	4.16
512.496	4.36
512.846	4.37
513.195	4.25
513.544	4.33
513.893	4.38
514.242	4.3
514.591	4.35
514.939	4.43
515.288	4.45
515.637	4.43
515.986	4.45
516.334	4.46
516.683	4.52
517.032	4.41
517.38	4.55
517.729	4.59
518.077	4.42
518.426	4.5
518.774	4.55
519.122	4.56
519.47	4.46
519.819	4.35
520.167	4.33
520.515	4.33
520.863	4.42
521.211	4.51
521.559	4.51
521.907	4.49
522.255	4.5
522.602	4.52
522.95	4.57
523.298	4.55
523.645	4.65
523.993	4.68
524.341	4.58
524.688	4.8
525.036	4.69
525.383	4.7
525.73	4.71
526.078	4.66
526.425	4.62
526.772	4.6
527.119	4.48
527.466	4.58
527.814	4.65
528.161	4.57
528.508	4.59
528.854	4.65
529.201	4.61
529.548	4.51
529.895	4.45
530.242	4.4
530.588	4.44
530.935	4.57
531.282	4.61
531.628	4.63
531.975	4.61
532.321	4.79
532.667	4.85
533.014	4.87
533.36	4.76
533.706	4.75
534.052	4.81
534.399	4.69
534.745	4.71
535.091	4.62
535.437	4.63
535.783	4.71
536.129	4.93
536.474	4.76
536.82	4.83
537.166	4.88
537.512	4.96
537.857	4.96
538.203	4.79
538.549	4.79
538.894	4.82
539.239	4.97
539.585	5.03
539.93	4.91
540.276	5.12
540.621	5.1
540.966	5.05
541.311	5.1
541.656	4.99
542.001	4.91
542.346	4.96
542.691	4.88
543.036	4.77
543.381	4.79
543.726	4.96
544.071	5.04
544.415	4.95
544.76	5.07
545.105	5.12
545.449	5.15
545.794	5.24
546.138	5.16
546.483	5.27
546.827	5.27
547.171	5.31
547.516	5.19
547.86	5.21
548.204	5.22
548.548	5.15
548.892	5.1
549.236	5.37
549.58	5.36
549.924	5.38
550.268	5.37
550.612	5.46
550.956	5.3
551.3	5.55
551.643	5.53
551.987	5.66
552.33	5.56
552.674	5.44
553.017	5.55
553.361	5.57
553.704	5.6
554.048	5.57
554.391	5.58
554.734	5.6
555.077	5.6
555.42	5.71
555.764	5.72
556.107	5.78
556.45	5.61
556.793	5.85
557.135	5.75
557.478	5.8
557.821	5.61
558.164	5.92
558.507	5.77
558.849	5.71
559.192	5.82
559.534	5.95
559.877	5.62
560.219	5.78
560.562	5.88
560.904	5.96
561.246	5.96
561.589	5.96
561.931	6.03
562.273	6.01
562.615	6.08
562.957	5.92
563.299	6.01
563.641	6.11
563.983	6.08
564.325	5.98
564.667	5.9
565.008	6.15
565.35	6.09
565.692	6.16
566.033	6.17
566.375	6.13
566.716	6.12
567.058	6.33
567.399	6.27
567.741	6.1
568.082	6.33
568.423	6.08
568.764	6.24
569.105	6.18
569.447	6.53
569.788	6.39
570.129	6.5
570.47	6.42
570.811	6.51
571.151	6.54
571.492	6.52
571.833	6.51
572.174	6.57
572.514	6.47
572.855	6.56
573.195	6.6
573.536	6.53
573.876	6.56
574.217	6.51
574.557	6.64
574.898	6.69
575.238	6.83
575.578	6.66
575.918	6.81
576.258	6.87
576.598	6.64
576.938	6.9
577.278	6.69
577.618	6.9
577.958	6.93
578.298	6.87
578.638	6.92
578.977	6.86
579.317	7.03
579.657	6.9
579.996	7.15
580.336	7.06
580.675	7.03
581.014	7.21
581.354	7.06
581.693	6.99
582.032	7.31
582.372	7.12
582.711	7.3
583.05	7.38
583.389	7.27
583.728	7.22
584.067	7.51
584.406	7.51
584.745	7.35
585.083	7.46
585.422	7.61
585.761	7.46
586.1	7.34
586.438	7.59
586.777	7.29
587.115	7.62
587.454	7.5
587.792	7.49
588.13	7.67
588.469	7.58
588.807	7.56
589.145	7.49
589.483	8
589.821	7.91
590.159	7.58
590.497	7.71
590.835	7.87
591.173	7.85
591.511	7.95
591.849	7.91
592.187	7.88
592.524	7.92
592.862	8.1
593.2	7.7
593.537	8.05
593.875	8.21
594.212	8.13
594.55	7.94
594.887	8.11
595.224	8.27
595.561	8.2
595.899	8.19
596.236	8.28
596.573	8.19
596.91	8.33
597.247	8.19
597.584	8.39
597.921	8.29
598.258	8.19
598.594	8.23
598.931	8.16
599.268	8.58
599.604	8.48
599.941	8.55
600.277	8.61
600.614	8.66
600.95	8.61
601.287	8.58
601.623	8.78
601.959	8.81
602.296	8.62
602.632	8.71
602.968	8.94
603.304	8.7
603.64	8.99
603.976	9.02
604.312	9.02
604.648	9.02
604.984	9.02
605.319	8.95
605.655	9.22
605.991	9.06
606.326	8.93
606.662	9.06
606.998	8.99
607.333	9.05
607.668	9.35
608.004	9.16
608.339	9.3
608.674	9.23
609.01	9.5
609.345	9.54
609.68	9.4
610.015	9.3
610.35	9.24
610.685	9.72
611.02	9.37
611.355	9.57
611.689	9.39
612.024	9.53
612.359	9.54
612.694	9.64
613.028	9.63
613.363	9.57
613.697	9.69
614.032	9.77
614.366	9.73
614.7	10.16
615.035	9.73
615.369	9.92
615.703	10.12
616.037	9.93
616.371	10.19
616.705	10.26
617.039	10.29
617.373	10.1
617.707	10.39
618.041	10.27
618.375	10.21
618.709	10.08
619.042	10.33
619.376	10.36
619.71	10.63
620.043	10.24
620.377	10.64
620.71	10.85
621.043	10.83
621.377	10.66
621.71	10.63
622.043	10.49
622.376	10.96
622.709	10.67
623.043	10.4
623.376	10.55
623.709	10.75
624.041	11.02
624.374	10.66
624.707	11.06
625.04	10.64
625.373	10.75
625.705	11.11
626.038	11.06
626.37	10.97
626.703	10.47
627.035	10.76
627.368	11.48
627.7	11.43
628.032	11.04
628.365	11.26
628.697	10.98
629.029	11.6
629.361	11.33
629.693	11.32
630.025	11.18
630.357	11.34
630.689	11.46
631.021	11.54
631.353	11.34
631.684	11.59
632.016	11.53
632.348	11.96
632.679	11.46
633.011	11.45
633.342	11.42
633.674	11.83
634.005	11.98
634.336	11.57
634.668	12.09
634.999	11.8
635.33	11.98
635.661	11.81
635.992	11.72
636.323	11.88
636.654	11.98
636.985	12.09
637.316	12.13
637.647	12.12
637.977	12.15
638.308	12.26
638.639	12.62
638.969	12.52
639.3	12.59
639.63	12.17
639.961	12.49
640.291	12.55
640.622	12.59
640.952	12.54
641.282	12.74
641.612	12.62
641.943	12.6
642.273	12.56
642.603	12.88
642.933	12.79
643.263	12.41
643.592	12.54
643.922	12.37
644.252	12.72
644.582	12.7
644.911	12.56
645.241	13.12
645.571	13.2
645.9	13.25
646.23	12.74
646.559	13.01
646.888	12.88
647.218	13.6
647.547	13.5
647.876	13.26
648.205	13.7
648.534	13.32
648.863	13.39
649.192	13.57
649.521	13.61
649.85	13.96
650.179	13.62
650.508	13.88
650.837	13.59
651.165	13.56
651.494	13.89
651.822	13.8
652.151	13.82
652.479	13.75
652.808	14.12
653.136	13.16
653.465	14.09
653.793	13.91
654.121	14.23
654.449	13.94
654.777	14.18
655.105	13.88
655.433	14.22
655.761	14.23
656.089	13.74
656.417	14.16
656.745	14.41
657.073	14.42
657.4	14.15
657.728	14.49
658.056	13.93
658.383	14.44
658.711	14.52
659.038	14.21
659.365	14.97
659.693	14.64
660.02	14.54
660.347	14.95
660.674	14.48
661.001	14.85
661.329	14.55
661.656	14.79
661.982	14.99
662.309	15
662.636	15.13
662.963	15.31
663.29	14.87
663.616	14.98
663.943	15.59
664.27	15.27
664.596	15.26
664.923	14.84
665.249	15.36
665.576	15.22
665.902	15.54
666.228	15.1
666.554	15.45
666.881	15.39
667.207	15.63
667.533	15.55
667.859	15.63
668.185	15.69
668.511	15.9
668.837	15.34
669.162	16.02
669.488	16
669.814	15.84
670.139	15.51
670.465	16.06
670.791	15.99
671.116	16.15
671.442	16.58
671.767	15.69
672.092	15.99
672.418	15.84
672.743	16.92
673.068	16.83
673.393	15.73
673.718	16.63
674.043	16.04
674.368	16.35
674.693	17
675.018	16.27
675.343	16.62
675.667	16.26
675.992	16.65
676.317	16.64
676.641	15.89
676.966	16.77
677.29	16.46
677.615	16.69
677.939	16.43
678.264	16.85
678.588	16.28
678.912	16.3
679.236	16.71
679.56	17.15
679.885	17.57
680.209	16.73
680.532	17.29
680.856	16.79
681.18	17.19
681.504	16.9
681.828	17.18
682.152	16.97
682.475	17.16
682.799	17.34
683.122	16.9
683.446	17.48
683.769	17.27
684.093	17.68
684.416	16.91
684.739	17.6
685.062	18.12
685.386	17.53
685.709	17.72
686.032	17.3
686.355	17.78
686.678	18.25
687.001	17.76
687.324	18.22
