Data from 815656_forehead_Reflection__1__100.txt Node

Date: Fri Sep 16 15:28:07 CDT 2022
User: ToomeyLab
Spectrometer: FLMS14357
Trigger mode: 0
Integration Time (sec): 1.000000E-2
Scans to average: 100
Electric dark correction enabled: true
Nonlinearity correction enabled: false
Boxcar width: 0
XAxis mode: Wavelengths
Number of Pixels in Spectrum: 2048
>>>>>Begin Spectral Data<<<<<
189.047	651.7
189.435	651.7
189.823	651.7
190.211	33.04
190.599	-550.91
190.987	245.54
191.375	61.41
191.763	95.49
192.151	225.93
192.538	7.19
192.926	251.59
193.314	39.9
193.702	5.07
194.089	268.01
194.477	122.71
194.864	-10.69
195.252	32.68
195.639	173.97
196.027	-31.68
196.414	-12447.83
196.801	204.94
197.189	32.55
197.576	-27.62
197.963	-0.17
198.351	10.05
198.738	54.47
199.125	30.31
199.512	129.07
199.899	39.44
200.286	30.23
200.673	75.94
201.06	32.48
201.447	71.13
201.833	7.62
202.22	30.52
202.607	-28.68
202.994	19.58
203.38	39.89
203.767	30.09
204.154	44.21
204.54	4.33
204.927	45.84
205.313	32.81
205.699	55.43
206.086	23.96
206.472	34.97
206.858	21.52
207.245	16.31
207.631	32.79
208.017	25.37
208.403	-7.91
208.789	7.75
209.175	47.52
209.561	-29.74
209.947	-24.37
210.333	15.18
210.719	-13.22
211.105	19.51
211.491	31.03
211.876	31.62
212.262	48.96
212.648	18.66
213.034	15.1
213.419	-5.01
213.805	20.73
214.19	24.24
214.576	3.64
214.961	0.21
215.346	14.56
215.732	-22.58
216.117	25.37
216.502	-6.51
216.888	17.71
217.273	-9.64
217.658	23.42
218.043	-76.94
218.428	39.13
218.813	2.07
219.198	12.62
219.583	1.19
219.968	35.6
220.353	-14.59
220.738	11.28
221.122	-10.59
221.507	20.06
221.892	-1.6
222.276	12.06
222.661	4.8
223.046	9.39
223.43	20.36
223.815	-0.46
224.199	13.77
224.583	2.85
224.968	11.07
225.352	-6.26
225.736	17.86
226.121	5.44
226.505	5.6
226.889	4.71
227.273	6.92
227.657	3.7
228.041	4.3
228.425	-5.61
228.809	7.56
229.193	3.66
229.577	2.92
229.961	1.83
230.344	2.16
230.728	2.09
231.112	2.05
231.495	1.26
231.879	2.54
232.263	3.41
232.646	2.43
233.03	2.34
233.413	3.66
233.797	1.41
234.18	3.34
234.563	1.95
234.946	3.95
235.33	1.01
235.713	2.55
236.096	2.77
236.479	2.44
236.862	1.89
237.245	1.26
237.628	5.21
238.011	2.93
238.394	1.65
238.777	1.82
239.16	2.01
239.543	4.26
239.925	3.28
240.308	1.32
240.691	2.91
241.073	1.79
241.456	2.05
241.838	1.41
242.221	1.46
242.603	2.25
242.986	1.21
243.368	1.35
243.75	1.58
244.133	1.96
244.515	1.61
244.897	2.1
245.279	1.65
245.661	1.63
246.043	2.17
246.425	2.11
246.807	1.76
247.189	1.7
247.571	1.58
247.953	1.59
248.335	1.65
248.717	1.84
249.098	1.59
249.48	1.53
249.862	1.56
250.243	2.26
250.625	2.28
251.006	2.26
251.388	1.57
251.769	0.92
252.151	1.8
252.532	1.89
252.913	2.28
253.295	2.27
253.676	2.59
254.057	1.63
254.438	1.16
254.819	0.88
255.2	1.63
255.581	2.24
255.962	1.96
256.343	3.21
256.724	1.95
257.105	1.89
257.486	1.73
257.867	1.31
258.247	2.19
258.628	2.29
259.009	1.71
259.389	2.01
259.77	1.7
260.15	1.94
260.531	1.71
260.911	1.47
261.292	1.46
261.672	1.93
262.052	1.67
262.432	1.7
262.813	2.14
263.193	2.18
263.573	2.73
263.953	2.16
264.333	2.02
264.713	1.91
265.093	1.4
265.473	0.89
265.853	2.54
266.233	1.16
266.612	2.76
266.992	1.47
267.372	1.54
267.752	2.02
268.131	2.11
268.511	1.85
268.89	2.03
269.27	1.59
269.649	1.64
270.029	1.76
270.408	1.95
270.787	1.61
271.167	1.54
271.546	2.05
271.925	1.5
272.304	2.2
272.683	1.21
273.062	2.05
273.441	2.18
273.82	1.79
274.199	1.84
274.578	1.68
274.957	1.81
275.336	1.62
275.715	2.01
276.093	1.91
276.472	1.52
276.851	1.29
277.229	2.22
277.608	1.9
277.986	2.16
278.365	1.48
278.743	2.05
279.122	1.86
279.5	1.46
279.878	2.13
280.257	1.99
280.635	2.1
281.013	1.93
281.391	1.95
281.769	1.97
282.147	2.08
282.525	1.94
282.903	1.89
283.281	1.24
283.659	2.04
284.037	1.63
284.415	2.23
284.792	2.18
285.17	1.72
285.548	1.92
285.925	1.67
286.303	2.13
286.68	1.48
287.058	1.59
287.435	1.61
287.813	2.29
288.19	1.67
288.567	1.71
288.945	1.69
289.322	2.11
289.699	1.72
290.076	1.89
290.453	2.35
290.83	2.04
291.207	1.9
291.584	1.64
291.961	2.02
292.338	2.01
292.715	1.85
293.092	2.1
293.469	2.05
293.845	1.67
294.222	1.8
294.599	2.14
294.975	1.8
295.352	2.06
295.728	1.88
296.105	2.74
296.481	1.74
296.858	2.07
297.234	1.95
297.61	2.27
297.986	2.24
298.363	1.77
298.739	1.94
299.115	2.34
299.491	2.25
299.867	2.27
300.243	2.57
300.619	2.24
300.995	2.19
301.371	2.38
301.746	2.5
302.122	2.79
302.498	2.38
302.874	2.56
303.249	2.66
303.625	2.25
304	2.25
304.376	2.14
304.751	2.5
305.127	2.69
305.502	2.52
305.878	2.54
306.253	2.68
306.628	2.19
307.003	2.84
307.378	2.88
307.754	3.14
308.129	3.47
308.504	2.72
308.879	3.32
309.254	2.69
309.629	2.43
310.003	2.92
310.378	2.5
310.753	2.34
311.128	2.72
311.502	2.62
311.877	3.22
312.252	2.92
312.626	3.13
313.001	3.06
313.375	3.1
313.75	2.93
314.124	3.01
314.498	3.12
314.873	3.6
315.247	3.39
315.621	3.3
315.995	2.98
316.369	3.2
316.743	3.9
317.117	2.95
317.491	3.34
317.865	3.75
318.239	3.59
318.613	3.22
318.987	2.94
319.361	3.08
319.734	3.56
320.108	3.35
320.482	3.58
320.855	3.56
321.229	3.58
321.602	4.24
321.976	3.69
322.349	3.9
322.723	3.63
323.096	3.98
323.469	3.85
323.843	4.04
324.216	4.47
324.589	4.18
324.962	3.8
325.335	4.38
325.708	4.12
326.081	3.92
326.454	4.37
326.827	3.59
327.2	4.19
327.573	3.73
327.945	3.97
328.318	3.8
328.691	4.37
329.063	4.25
329.436	4.07
329.809	4
330.181	4.23
330.553	4.59
330.926	4.12
331.298	4.71
331.671	4.18
332.043	4.55
332.415	4.36
332.787	4.61
333.159	4.07
333.532	4.55
333.904	4.85
334.276	4.59
334.648	4.62
335.02	4.71
335.391	4.93
335.763	4.46
336.135	4.56
336.507	4.86
336.879	5
337.25	4.55
337.622	4.58
337.993	5.16
338.365	4.74
338.736	5.04
339.108	4.9
339.479	5.3
339.851	4.83
340.222	4.86
340.593	5.06
340.964	5.09
341.336	5.05
341.707	4.74
342.078	5.67
342.449	5.16
342.82	4.99
343.191	4.93
343.562	5.47
343.933	5.67
344.303	5.62
344.674	4.86
345.045	5.37
345.416	5.4
345.786	5.57
346.157	5.16
346.527	5.82
346.898	5.43
347.268	5.38
347.639	5.56
348.009	5.56
348.38	5.62
348.75	5.61
349.12	5.8
349.49	5.92
349.861	6.05
350.231	5.55
350.601	5.76
350.971	5.95
351.341	5.94
351.711	5.8
352.081	5.59
352.45	5.92
352.82	5.93
353.19	5.63
353.56	5.9
353.929	6.24
354.299	6.18
354.669	5.95
355.038	6.04
355.408	6.09
355.777	5.94
356.147	6.09
356.516	6.4
356.885	5.98
357.254	6.17
357.624	5.97
357.993	6.23
358.362	5.98
358.731	6.49
359.1	5.82
359.469	6.28
359.838	6.44
360.207	6.6
360.576	6.4
360.945	6.36
361.314	6.32
361.682	6.09
362.051	6.65
362.42	6.53
362.788	6.79
363.157	6.6
363.525	6.59
363.894	6.52
364.262	6.5
364.631	6.76
364.999	6.78
365.367	6.6
365.735	6.95
366.104	6.92
366.472	6.91
366.84	6.89
367.208	7.33
367.576	6.95
367.944	6.87
368.312	6.66
368.68	7.14
369.048	7.16
369.416	7.04
369.783	7.2
370.151	7.36
370.519	7.15
370.886	7.34
371.254	7.09
371.621	7.37
371.989	7.28
372.356	7.69
372.724	7.58
373.091	7.49
373.458	7.25
373.826	7.32
374.193	7.68
374.56	7.44
374.927	7.47
375.294	7.45
375.661	7.66
376.028	7.97
376.395	7.09
376.762	8.01
377.129	7.3
377.496	7.47
377.863	7.82
378.229	8.03
378.596	7.56
378.963	7.75
379.329	7.68
379.696	8.09
380.062	8.07
380.429	8.05
380.795	8.03
381.161	8.32
381.528	8.08
381.894	7.88
382.26	8.33
382.626	7.95
382.993	7.97
383.359	7.94
383.725	8.36
384.091	8.44
384.457	7.92
384.823	8.26
385.188	8.31
385.554	8.34
385.92	8.24
386.286	8.16
386.651	8.39
387.017	8.41
387.383	8.31
387.748	8.21
388.114	8.26
388.479	8.64
388.845	8.71
389.21	8.88
389.575	8.71
389.94	8.87
390.306	8.72
390.671	9.07
391.036	8.72
391.401	8.88
391.766	8.84
392.131	8.81
392.496	8.8
392.861	8.91
393.226	8.96
393.591	9.07
393.956	9.08
394.32	9.48
394.685	9.02
395.05	9.39
395.414	8.99
395.779	9.09
396.143	9.4
396.508	9.11
396.872	9.36
397.236	9.38
397.601	9.37
397.965	9.22
398.329	9.33
398.694	9.4
399.058	9.61
399.422	9.48
399.786	9.53
400.15	9.66
400.514	9.62
400.878	9.87
401.242	9.64
401.605	9.52
401.969	9.67
402.333	9.68
402.697	9.84
403.06	9.86
403.424	10.01
403.787	9.78
404.151	9.98
404.514	9.98
404.878	9.82
405.241	9.9
405.604	10.03
405.968	10.09
406.331	10.07
406.694	9.92
407.057	10.05
407.42	9.97
407.783	10.25
408.146	10.41
408.509	10.44
408.872	10.26
409.235	10.46
409.598	10.36
409.961	10.48
410.323	10.28
410.686	10.53
411.049	10.3
411.411	10.28
411.774	10.64
412.136	10.47
412.499	10.69
412.861	10.67
413.223	10.59
413.586	10.83
413.948	10.96
414.31	10.95
414.672	10.81
415.035	11.03
415.397	10.61
415.759	11.04
416.121	11.09
416.483	10.86
416.845	10.79
417.206	11.05
417.568	11.04
417.93	11.18
418.292	10.97
418.653	10.95
419.015	10.97
419.377	11.01
419.738	10.87
420.1	11.1
420.461	11.17
420.822	11.14
421.184	11.09
421.545	11.05
421.906	11.15
422.267	11.15
422.629	11.02
422.99	11.02
423.351	11.29
423.712	11.13
424.073	11.42
424.434	11.29
424.795	11.45
425.155	11.41
425.516	11.43
425.877	11.29
426.238	11.4
426.598	11.57
426.959	11.59
427.32	11.65
427.68	11.7
428.041	11.61
428.401	11.93
428.761	12.07
429.122	11.93
429.482	11.96
429.842	12
430.202	12.18
430.563	12.08
430.923	12.24
431.283	12.35
431.643	12.28
432.003	12.24
432.363	12.25
432.722	12.35
433.082	12.39
433.442	12.45
433.802	12.28
434.161	12.32
434.521	12.46
434.881	12.27
435.24	12.4
435.6	12.54
435.959	12.61
436.319	12.54
436.678	12.71
437.037	12.6
437.396	12.8
437.756	12.8
438.115	12.82
438.474	12.65
438.833	12.89
439.192	12.95
439.551	12.82
439.91	12.83
440.269	12.91
440.628	12.79
440.987	12.96
441.345	13.01
441.704	12.97
442.063	12.93
442.421	12.95
442.78	12.84
443.138	13.08
443.497	13.17
443.855	13.15
444.214	13.26
444.572	13.48
444.93	13.35
445.288	13.34
445.647	13.45
446.005	13.26
446.363	13.24
446.721	13.31
447.079	13.36
447.437	13.4
447.795	13.33
448.153	13.45
448.51	13.38
448.868	13.36
449.226	13.54
449.584	13.53
449.941	13.7
450.299	13.76
450.656	13.95
451.014	13.88
451.371	14.11
451.729	14
452.086	13.87
452.443	14.07
452.801	14.14
453.158	14.09
453.515	13.99
453.872	14.17
454.229	14.18
454.586	14.14
454.943	14.19
455.3	14.38
455.657	14.26
456.014	14.35
456.371	14.45
456.727	14.32
457.084	14.51
457.441	14.44
457.797	14.57
458.154	14.64
458.51	14.61
458.867	14.65
459.223	14.66
459.58	14.68
459.936	14.68
460.292	14.8
460.648	14.55
461.005	14.55
461.361	14.41
461.717	14.49
462.073	14.66
462.429	14.81
462.785	14.99
463.141	15.05
463.496	15.17
463.852	15.1
464.208	15.19
464.564	15.3
464.919	15.45
465.275	15.46
465.631	15.29
465.986	15.32
466.342	15.4
466.697	15.48
467.052	15.34
467.408	15.56
467.763	15.62
468.118	15.38
468.473	15.48
468.829	15.67
469.184	15.64
469.539	15.68
469.894	15.67
470.249	16.01
470.603	15.89
470.958	15.73
471.313	15.88
471.668	15.77
472.023	15.8
472.377	15.95
472.732	16.15
473.086	15.99
473.441	16.03
473.795	16.36
474.15	16.15
474.504	16.19
474.859	16.06
475.213	16.3
475.567	16.04
475.921	16.19
476.275	16.34
476.63	16.46
476.984	16.5
477.338	16.65
477.692	16.44
478.045	16.26
478.399	16.49
478.753	16.35
479.107	16.57
479.461	16.54
479.814	16.54
480.168	16.57
480.521	16.63
480.875	16.58
481.228	16.78
481.582	16.69
481.935	16.79
482.289	16.86
482.642	16.76
482.995	16.67
483.348	16.71
483.701	16.76
484.055	16.47
484.408	16.47
484.761	16.37
485.114	15.98
485.466	15.88
485.819	16.02
486.172	16.15
486.525	16.35
486.878	16.54
487.23	16.66
487.583	16.78
487.936	16.79
488.288	16.67
488.641	16.53
488.993	16.5
489.345	16.45
489.698	16.52
490.05	16.65
490.402	16.84
490.754	17.02
491.107	17.05
491.459	17.27
491.811	17.31
492.163	17.51
492.515	17.26
492.866	17.03
493.218	16.84
493.57	16.9
493.922	17.13
494.274	17.39
494.625	17.5
494.977	17.7
495.328	17.84
495.68	18.05
496.031	18.06
496.383	18.08
496.734	18.21
497.086	18.22
497.437	18.19
497.788	18.26
498.139	17.96
498.49	18.19
498.842	18.09
499.193	18.21
499.544	18.28
499.894	18.24
500.245	18.43
500.596	18.47
500.947	18.48
501.298	18.45
501.648	18.54
501.999	18.72
502.35	18.71
502.7	18.91
503.051	18.92
503.401	18.73
503.752	18.94
504.102	19.14
504.452	18.95
504.803	18.97
505.153	18.88
505.503	19.12
505.853	18.95
506.203	19.05
506.553	19.02
506.903	19.09
507.253	19.32
507.603	19.23
507.953	19.27
508.303	19.32
508.652	19.25
509.002	19.29
509.352	19.22
509.701	19.22
510.051	19.45
510.4	19.32
510.75	19.24
511.099	19.42
511.449	19.22
511.798	19.43
512.147	19.36
512.496	19.69
512.846	19.53
513.195	19.72
513.544	19.54
513.893	19.71
514.242	19.83
514.591	19.83
514.939	19.81
515.288	19.96
515.637	19.88
515.986	19.93
516.334	19.86
516.683	20.09
517.032	20.13
517.38	20.16
517.729	20.25
518.077	20.25
518.426	20.11
518.774	20.18
519.122	20.23
519.47	20.13
519.819	19.89
520.167	19.82
520.515	19.94
520.863	19.94
521.211	20.14
521.559	20.22
521.907	20.23
522.255	20.37
522.602	20.55
522.95	20.54
523.298	20.57
523.645	20.84
523.993	20.8
524.341	20.83
524.688	20.89
525.036	20.97
525.383	20.88
525.73	20.96
526.078	21.03
526.425	20.76
526.772	20.77
527.119	20.53
527.466	20.63
527.814	20.57
528.161	20.64
528.508	20.81
528.854	20.75
529.201	20.52
529.548	20.51
529.895	20.3
530.242	20.08
530.588	20.22
530.935	20.44
531.282	20.65
531.628	20.63
531.975	20.82
532.321	20.86
532.667	21.12
533.014	21.37
533.36	21.21
533.706	21.36
534.052	21.22
534.399	21.2
534.745	21.05
535.091	20.91
535.437	20.99
535.783	21.22
536.129	21.47
536.474	21.61
536.82	21.62
537.166	21.76
537.512	21.84
537.857	21.81
538.203	21.53
538.549	21.43
538.894	21.56
539.239	21.88
539.585	21.94
539.93	22.12
540.276	22.29
540.621	22.3
540.966	22.39
541.311	22.33
541.656	22.46
542.001	22.04
542.346	21.89
542.691	21.69
543.036	21.57
543.381	21.56
543.726	21.84
544.071	22.04
544.415	22.05
544.76	22.21
545.105	22.28
545.449	22.36
545.794	22.44
546.138	22.56
546.483	22.87
546.827	22.88
547.171	22.76
547.516	22.66
547.86	22.8
548.204	22.74
548.548	22.69
548.892	22.7
549.236	22.99
549.58	23.22
549.924	23.26
550.268	23.31
550.612	23.54
550.956	23.51
551.3	23.64
551.643	23.62
551.987	23.86
552.33	23.7
552.674	23.62
553.017	23.77
553.361	23.81
553.704	23.8
554.048	23.92
554.391	23.68
554.734	23.69
555.077	23.88
555.42	23.92
555.764	23.93
556.107	24.15
556.45	24.04
556.793	24.43
557.135	24.08
557.478	24.21
557.821	24.28
558.164	24.52
558.507	24.45
558.849	24.06
559.192	24.5
559.534	24.61
559.877	24.48
560.219	24.39
560.562	24.7
560.904	24.92
561.246	24.57
561.589	24.69
561.931	24.74
562.273	24.87
562.615	24.84
562.957	24.87
563.299	24.8
563.641	24.82
563.983	24.9
564.325	24.79
564.667	25.09
565.008	25.04
565.35	25.01
565.692	25.11
566.033	25.15
566.375	25.42
566.716	25.28
567.058	25.12
567.399	25.27
567.741	24.93
568.082	25.06
568.423	24.92
568.764	25.1
569.105	25.5
569.447	25.46
569.788	25.44
570.129	25.46
570.47	25.57
570.811	25.42
571.151	25.3
571.492	25.37
571.833	25.6
572.174	25.79
572.514	25.6
572.855	25.54
573.195	25.67
573.536	25.69
573.876	25.56
574.217	25.53
574.557	25.89
574.898	25.72
575.238	25.8
575.578	25.89
575.918	26.02
576.258	26.2
576.598	25.92
576.938	25.93
577.278	25.75
577.618	26.05
577.958	26
578.298	26.02
578.638	25.95
578.977	26.24
579.317	26.25
579.657	26.61
579.996	26.56
580.336	26.59
580.675	26.63
581.014	26.51
581.354	26.63
581.693	26.62
582.032	26.91
582.372	26.9
582.711	26.94
583.05	26.94
583.389	26.89
583.728	26.96
584.067	27.12
584.406	27.16
584.745	27.35
585.083	27.12
585.422	27.39
585.761	27.05
586.1	27.08
586.438	27.42
586.777	27.15
587.115	27.25
587.454	27.4
587.792	27.39
588.13	27.63
588.469	27.62
588.807	27.47
589.145	27.71
589.483	27.52
589.821	27.55
590.159	27.53
590.497	27.48
590.835	27.37
591.173	27.59
591.511	27.75
591.849	27.73
592.187	27.62
592.524	27.48
592.862	27.81
593.2	27.67
593.537	27.83
593.875	27.79
594.212	28.21
594.55	27.85
594.887	28.29
595.224	27.81
595.561	27.86
595.899	27.73
596.236	28.14
596.573	27.91
596.91	28.4
597.247	28.11
597.584	28.07
597.921	27.99
598.258	27.9
598.594	27.82
598.931	27.86
599.268	28.08
599.604	28.03
599.941	28.23
600.277	28.35
600.614	28.65
600.95	28.42
601.287	28.37
601.623	28.66
601.959	28.63
602.296	28.38
602.632	28.44
602.968	28.6
603.304	28.68
603.64	28.65
603.976	28.69
604.312	28.6
604.648	28.84
604.984	28.59
605.319	28.98
605.655	28.97
605.991	28.58
606.326	28.7
606.662	28.5
606.998	28.6
607.333	28.94
607.668	29.14
608.004	28.87
608.339	29.01
608.674	29.02
609.01	29.12
609.345	29.46
609.68	29.01
610.015	29.03
610.35	29.41
610.685	29.29
611.02	28.9
611.355	29.31
611.689	29.18
612.024	29.31
612.359	29.3
612.694	29.55
613.028	29.48
613.363	29.49
613.697	29.61
614.032	29.75
614.366	29.89
614.7	29.75
615.035	29.67
615.369	29.62
615.703	29.82
616.037	29.64
616.371	30.14
616.705	29.92
617.039	29.86
617.373	29.85
617.707	29.99
618.041	30.28
618.375	30.12
618.709	29.72
619.042	29.91
619.376	30.14
619.71	30.41
620.043	30.21
620.377	30.24
620.71	30.47
621.043	30.4
621.377	30.49
621.71	30.23
622.043	30.28
622.376	30.98
622.709	30.65
623.043	30.25
623.376	30.4
623.709	30.43
624.041	30.88
624.374	30.8
624.707	31.07
625.04	30.75
625.373	30.57
625.705	31.02
626.038	31.21
626.37	30.66
626.703	30.51
627.035	30.71
627.368	31.22
627.7	31.03
628.032	30.41
628.365	30.65
628.697	30.72
629.029	30.83
629.361	31.03
629.693	31.04
630.025	30.87
630.357	30.95
630.689	31.33
631.021	31.33
631.353	30.94
631.684	31.21
632.016	31.35
632.348	31.38
632.679	31.3
633.011	31.3
633.342	30.92
633.674	31.9
634.005	31.41
634.336	31.5
634.668	31.66
634.999	31.06
635.33	31.47
635.661	31.35
635.992	31.3
636.323	31.4
636.654	31.67
636.985	31.88
637.316	31.74
637.647	31.87
637.977	31.91
638.308	32.2
638.639	31.84
638.969	31.79
639.3	32.35
639.63	31.81
639.961	32.25
640.291	32.15
640.622	32.21
640.952	32.29
641.282	32.33
641.612	32.47
641.943	32.34
642.273	32.14
642.603	32.03
642.933	31.74
643.263	31.99
643.592	32.36
643.922	32.43
644.252	32.35
644.582	32.21
644.911	32.59
645.241	32.62
645.571	32.78
645.9	32.5
646.23	32.44
646.559	31.93
646.888	32.41
647.218	32.94
647.547	32.6
647.876	32.89
648.205	33.22
648.534	32.58
648.863	32.73
649.192	32.75
649.521	32.82
649.85	32.99
650.179	32.62
650.508	32.42
650.837	32.98
651.165	32.84
651.494	33.08
651.822	32.7
652.151	32.86
652.479	33.04
652.808	33.2
653.136	32.65
653.465	33.28
653.793	33.11
654.121	33.15
654.449	32.75
654.777	33.3
655.105	33.25
655.433	33.09
655.761	33.04
656.089	33.46
656.417	33.22
656.745	32.93
657.073	33.48
657.4	33.4
657.728	33.52
658.056	32.81
658.383	33.17
658.711	33.22
659.038	33.07
659.365	33.57
659.693	33.3
660.02	33.55
660.347	33.15
660.674	33.36
661.001	33.55
661.329	32.93
661.656	33.19
661.982	33.65
662.309	33.72
662.636	33.48
662.963	34.17
663.29	33.66
663.616	34.19
663.943	33.64
664.27	33.73
664.596	34.1
664.923	33.37
665.249	34.67
665.576	33.91
665.902	34.45
666.228	33.75
666.554	34.31
666.881	34.25
667.207	34.01
667.533	34.03
667.859	34.07
668.185	34.77
668.511	34.2
668.837	34.24
669.162	34.85
669.488	34.86
669.814	34.59
670.139	33.93
670.465	34.54
670.791	34.25
671.116	34.23
671.442	34.78
671.767	34.66
672.092	34.59
672.418	34.49
672.743	35.13
673.068	34.64
673.393	34.55
673.718	34.96
674.043	34.85
