Data from 0224_chest_Reflection__1__94.txt Node

Date: Fri Oct 20 21:24:13 CDT 2023
User: ToomeyLab
Spectrometer: FLMS14357
Trigger mode: 0
Integration Time (sec): 1.000000E-2
Scans to average: 100
Electric dark correction enabled: true
Nonlinearity correction enabled: false
Boxcar width: 0
XAxis mode: Wavelengths
Number of Pixels in Spectrum: 2048
>>>>>Begin Spectral Data<<<<<
189.047	-77.2
189.435	-77.2
189.823	-77.2
190.211	136.13
190.599	-3.78
190.987	98.67
191.375	-169.63
191.763	237.54
192.151	3986.96
192.538	67.51
192.926	285.7
193.314	120.01
193.702	1998.46
194.089	14.09
194.477	104.44
194.864	-21.22
195.252	108.75
195.639	-3784.21
196.027	-82.12
196.414	122.76
196.801	-73.42
197.189	40.37
197.576	-124.38
197.963	9.03
198.351	43.35
198.738	3.35
199.125	30.83
199.512	23.6
199.899	23.89
200.286	-28.6
200.673	20.62
201.06	55.27
201.447	-3.29
201.833	42.28
202.22	26.38
202.607	30.15
202.994	43.38
203.38	30.34
203.767	18.69
204.154	40.31
204.54	51.72
204.927	18.58
205.313	24.31
205.699	25.99
206.086	50.61
206.472	47.22
206.858	72.87
207.245	28.44
207.631	48.06
208.017	23.76
208.403	17.3
208.789	43.07
209.175	28.24
209.561	16.06
209.947	-18.87
210.333	21.08
210.719	11.22
211.105	10.66
211.491	21.55
211.876	-18.56
212.262	28.91
212.648	43.36
213.034	2.46
213.419	18.44
213.805	14.18
214.19	-3.64
214.576	3.68
214.961	9.27
215.346	30.37
215.732	-2.46
216.117	-33.29
216.502	19.79
216.888	29.74
217.273	12.35
217.658	22.06
218.043	14.44
218.428	20.85
218.813	1.31
219.198	3.21
219.583	9.73
219.968	-9.16
220.353	39.67
220.738	20.74
221.122	11.02
221.507	17.96
221.892	17.14
222.276	17.3
222.661	12.95
223.046	12.26
223.43	16.22
223.815	5.82
224.199	23.28
224.583	0.4
224.968	-0.79
225.352	6.97
225.736	3.29
226.121	12.02
226.505	5.56
226.889	4.94
227.273	7.07
227.657	13.99
228.041	10.66
228.425	7.2
228.809	7.05
229.193	4.33
229.577	8.13
229.961	3.79
230.344	4.65
230.728	3.68
231.112	5.5
231.495	4.02
231.879	5.77
232.263	6.41
232.646	4.35
233.03	3.6
233.413	5.46
233.797	5.77
234.18	6.36
234.563	5.26
234.946	9.84
235.33	9.02
235.713	4.03
236.096	7.15
236.479	6.28
236.862	4.34
237.245	4.43
237.628	4.83
238.011	7.49
238.394	3.47
238.777	6.86
239.16	4.41
239.543	8.13
239.925	8.31
240.308	5.45
240.691	5.22
241.073	5.25
241.456	6.67
241.838	5.51
242.221	6.45
242.603	5.88
242.986	5.8
243.368	5.6
243.75	5.36
244.133	4.86
244.515	5.19
244.897	4.96
245.279	5.3
245.661	5.15
246.043	4.35
246.425	5.69
246.807	4.95
247.189	5.53
247.571	4.77
247.953	5.17
248.335	5.64
248.717	5.03
249.098	4.73
249.48	5.13
249.862	5.43
250.243	5.61
250.625	5.28
251.006	5.51
251.388	5.13
251.769	6.04
252.151	5.21
252.532	6.69
252.913	5.95
253.295	4.39
253.676	4.99
254.057	4.85
254.438	5.46
254.819	4.99
255.2	5.42
255.581	5.07
255.962	4.84
256.343	5.12
256.724	4.2
257.105	5.44
257.486	5.3
257.867	6.49
258.247	5.76
258.628	3.7
259.009	4.41
259.389	4.97
259.77	5.31
260.15	5.48
260.531	4.99
260.911	5.27
261.292	4.35
261.672	4.99
262.052	5.09
262.432	4.84
262.813	4.98
263.193	5.02
263.573	4.78
263.953	5.37
264.333	5.1
264.713	5.29
265.093	5.62
265.473	6.09
265.853	4.98
266.233	4.75
266.612	5.49
266.992	5.94
267.372	4.48
267.752	4.62
268.131	4.9
268.511	5.16
268.89	4.95
269.27	4.42
269.649	3.99
270.029	4.68
270.408	4.86
270.787	5.07
271.167	4.62
271.546	4.58
271.925	5.42
272.304	5.74
272.683	5.18
273.062	4.69
273.441	4.75
273.82	4.94
274.199	4.8
274.578	4.78
274.957	5.02
275.336	4.95
275.715	4.75
276.093	4.64
276.472	4.21
276.851	5.17
277.229	4.52
277.608	4.31
277.986	3.94
278.365	5.37
278.743	4.43
279.122	4.38
279.5	4.58
279.878	3.7
280.257	5.01
280.635	4.91
281.013	4.79
281.391	4.9
281.769	4.38
282.147	4.44
282.525	4.49
282.903	4.52
283.281	4.5
283.659	4.75
284.037	4.62
284.415	4.3
284.792	4.76
285.17	4.58
285.548	4.81
285.925	4.11
286.303	4.59
286.68	4.7
287.058	5.3
287.435	4.69
287.813	4.21
288.19	4.25
288.567	4.46
288.945	5.15
289.322	5.07
289.699	4.46
290.076	5.43
290.453	4.72
290.83	4.32
291.207	5.47
291.584	4.26
291.961	4.95
292.338	4.66
292.715	4.71
293.092	4.77
293.469	5.05
293.845	5.38
294.222	5.33
294.599	5.03
294.975	6
295.352	5.43
295.728	5.49
296.105	5.42
296.481	5.46
296.858	5.91
297.234	5.53
297.61	4.83
297.986	5.12
298.363	5.72
298.739	5.56
299.115	5.49
299.491	5.51
299.867	5.43
300.243	5.75
300.619	5.55
300.995	4.96
301.371	5.84
301.746	5.24
302.122	5.59
302.498	5.33
302.874	5.8
303.249	5.81
303.625	5.66
304	6.33
304.376	5.58
304.751	5.67
305.127	6.13
305.502	5.87
305.878	6.14
306.253	5.66
306.628	5.79
307.003	5.88
307.378	5.55
307.754	5.69
308.129	5.91
308.504	6.23
308.879	5.99
309.254	6.68
309.629	5.6
310.003	6.02
310.378	6.07
310.753	6.16
311.128	6.75
311.502	6.22
311.877	6.16
312.252	6.12
312.626	6.42
313.001	5.99
313.375	6.19
313.75	6.31
314.124	5.67
314.498	6.46
314.873	5.89
315.247	6.2
315.621	6.64
315.995	6.67
316.369	5.8
316.743	6.32
317.117	6.33
317.491	5.84
317.865	6.61
318.239	6.86
318.613	6.32
318.987	5.8
319.361	5.68
319.734	6.4
320.108	5.78
320.482	6.75
320.855	6.49
321.229	7.19
321.602	6.47
321.976	6.42
322.349	6.89
322.723	6.16
323.096	5.74
323.469	6.15
323.843	6.52
324.216	6.05
324.589	6.59
324.962	7.1
325.335	6.28
325.708	5.96
326.081	6.8
326.454	7.07
326.827	6.96
327.2	6.07
327.573	7.09
327.945	6.72
328.318	5.85
328.691	6.58
329.063	6.7
329.436	6.23
329.809	6.36
330.181	7.26
330.553	7.09
330.926	6.27
331.298	6.35
331.671	5.81
332.043	6.49
332.415	6.43
332.787	6.87
333.159	6.16
333.532	7
333.904	6.17
334.276	6.23
334.648	6.62
335.02	7.39
335.391	6.87
335.763	6.24
336.135	6.89
336.507	6.53
336.879	6.72
337.25	6.65
337.622	6.6
337.993	7.26
338.365	6.54
338.736	6.39
339.108	6.96
339.479	6.44
339.851	6.77
340.222	6.77
340.593	6.42
340.964	6.31
341.336	6.95
341.707	6.63
342.078	6.68
342.449	6.71
342.82	6.43
343.191	6.62
343.562	7
343.933	6.11
344.303	6.87
344.674	6.66
345.045	6.67
345.416	6.85
345.786	6.66
346.157	6.86
346.527	6.91
346.898	6.69
347.268	6.92
347.639	6.88
348.009	6.29
348.38	6.88
348.75	6.84
349.12	6.74
349.49	6.65
349.861	6.63
350.231	6.6
350.601	6.51
350.971	6.7
351.341	6.95
351.711	7.15
352.081	6.94
352.45	6.35
352.82	6.95
353.19	6.78
353.56	6.93
353.929	6.45
354.299	6.79
354.669	6.77
355.038	6.58
355.408	6.74
355.777	6.82
356.147	6.55
356.516	6.63
356.885	6.94
357.254	7.1
357.624	6.9
357.993	6.22
358.362	6.71
358.731	6.56
359.1	6.27
359.469	6.77
359.838	6.74
360.207	6.81
360.576	7.06
360.945	6.45
361.314	6.85
361.682	6.72
362.051	6.86
362.42	6.47
362.788	6.85
363.157	6.84
363.525	6.81
363.894	6.79
364.262	6.57
364.631	6.9
364.999	6.75
365.367	6.87
365.735	6.78
366.104	6.72
366.472	6.5
366.84	7.16
367.208	7.09
367.576	7.01
367.944	6.99
368.312	6.67
368.68	6.82
369.048	6.85
369.416	7.11
369.783	6.99
370.151	6.73
370.519	6.82
370.886	6.96
371.254	6.75
371.621	7
371.989	6.7
372.356	6.97
372.724	7.07
373.091	6.76
373.458	6.59
373.826	6.77
374.193	6.76
374.56	6.94
374.927	6.83
375.294	7.17
375.661	6.67
376.028	7.09
376.395	7.25
376.762	7
377.129	7
377.496	7.08
377.863	7.15
378.229	7.06
378.596	6.92
378.963	7
379.329	7
379.696	7.11
380.062	7.02
380.429	6.84
380.795	6.9
381.161	7.2
381.528	7.21
381.894	7.09
382.26	7.24
382.626	7.18
382.993	7.33
383.359	7.14
383.725	7.37
384.091	7.28
384.457	7.17
384.823	7.21
385.188	7.22
385.554	6.87
385.92	7
386.286	7.54
386.651	6.92
387.017	7.28
387.383	6.85
387.748	6.69
388.114	6.87
388.479	7.17
388.845	7.26
389.21	7.03
389.575	6.96
389.94	7.07
390.306	7.01
390.671	7.18
391.036	6.98
391.401	7.3
391.766	7.31
392.131	6.98
392.496	7.11
392.861	7.03
393.226	6.96
393.591	7.1
393.956	7.19
394.32	7.17
394.685	7.09
395.05	7.24
395.414	7.38
395.779	6.87
396.143	7.18
396.508	7.06
396.872	7.16
397.236	7.24
397.601	7.12
397.965	7.21
398.329	7.02
398.694	7.23
399.058	6.96
399.422	7.25
399.786	7.15
400.15	7.03
400.514	7.03
400.878	7.4
401.242	7.33
401.605	7.32
401.969	7.05
402.333	7.12
402.697	7.37
403.06	7.16
403.424	7.2
403.787	7.39
404.151	7.36
404.514	7.38
404.878	7.32
405.241	7.3
405.604	7.04
405.968	7.3
406.331	7.22
406.694	7.2
407.057	7.2
407.42	7.71
407.783	7.39
408.146	7.25
408.509	7.2
408.872	7.47
409.235	7.44
409.598	7.49
409.961	7.43
410.323	7.16
410.686	7.27
411.049	7.38
411.411	7.45
411.774	7.64
412.136	7.43
412.499	7.49
412.861	7.55
413.223	7.62
413.586	7.45
413.948	7.55
414.31	7.59
414.672	7.56
415.035	7.33
415.397	7.43
415.759	7.5
416.121	7.54
416.483	7.53
416.845	7.28
417.206	7.26
417.568	7.61
417.93	7.53
418.292	7.27
418.653	7.56
419.015	7.29
419.377	7.52
419.738	7.39
420.1	7.37
420.461	7.31
420.822	7.34
421.184	7.41
421.545	7.36
421.906	7.32
422.267	7.3
422.629	7.39
422.99	7.26
423.351	7.25
423.712	7.2
424.073	7.26
424.434	7.27
424.795	7.31
425.155	7.34
425.516	7.3
425.877	7.35
426.238	7.31
426.598	7.42
426.959	7.26
427.32	7.42
427.68	7.34
428.041	7.34
428.401	7.46
428.761	7.5
429.122	7.46
429.482	7.4
429.842	7.55
430.202	7.56
430.563	7.66
430.923	7.6
431.283	7.63
431.643	7.71
432.003	7.74
432.363	7.54
432.722	7.63
433.082	7.47
433.442	7.56
433.802	8.01
434.161	7.72
434.521	7.75
434.881	7.6
435.24	7.62
435.6	7.65
435.959	7.51
436.319	7.59
436.678	7.75
437.037	7.57
437.396	7.72
437.756	7.71
438.115	7.49
438.474	7.82
438.833	7.93
439.192	7.63
439.551	7.7
439.91	7.6
440.269	7.73
440.628	7.73
440.987	7.86
441.345	7.5
441.704	7.72
442.063	7.68
442.421	7.66
442.78	7.57
443.138	7.9
443.497	7.66
443.855	7.65
444.214	7.54
444.572	7.77
444.93	7.89
445.288	7.67
445.647	8.06
446.005	7.6
446.363	7.66
446.721	7.8
447.079	7.79
447.437	7.61
447.795	7.57
448.153	7.75
448.51	7.67
448.868	7.62
449.226	7.6
449.584	7.65
449.941	7.64
450.299	7.78
450.656	7.74
451.014	7.72
451.371	7.99
451.729	7.89
452.086	7.8
452.443	7.99
452.801	7.83
453.158	8
453.515	7.81
453.872	7.89
454.229	7.91
454.586	7.93
454.943	7.81
455.3	7.83
455.657	7.89
456.014	7.81
456.371	7.96
456.727	8
457.084	7.95
457.441	7.88
457.797	8.04
458.154	8.04
458.51	7.92
458.867	7.94
459.223	8.02
459.58	7.9
459.936	8.03
460.292	8.16
460.648	7.82
461.005	7.82
461.361	7.95
461.717	7.85
462.073	7.84
462.429	7.85
462.785	7.91
463.141	8
463.496	7.89
463.852	7.99
464.208	8.31
464.564	8.25
464.919	7.98
465.275	8.25
465.631	8.14
465.986	8.13
466.342	8.24
466.697	8.09
467.052	8.08
467.408	8.16
467.763	8.17
468.118	8.23
468.473	8.07
468.829	8.25
469.184	8.2
469.539	8.15
469.894	8.18
470.249	8.3
470.603	8.18
470.958	8.21
471.313	8.23
471.668	8.17
472.023	8.25
472.377	8.14
472.732	8.26
473.086	8.34
473.441	8.36
473.795	8.39
474.15	8.33
474.504	8.28
474.859	8.26
475.213	8.21
475.567	8.35
475.921	8.45
476.275	8.27
476.63	8.42
476.984	8.39
477.338	8.31
477.692	8.4
478.045	8.2
478.399	8.28
478.753	8.39
479.107	8.23
479.461	8.43
479.814	8.42
480.168	8.45
480.521	8.51
480.875	8.4
481.228	8.41
481.582	8.62
481.935	8.42
482.289	8.48
482.642	8.45
482.995	8.44
483.348	8.35
483.701	8.37
484.055	8.4
484.408	8.33
484.761	8.24
485.114	8.17
485.466	8.08
485.819	8.08
486.172	8.03
486.525	7.99
486.878	7.99
487.23	8.05
487.583	8.18
487.936	8.18
488.288	8.3
488.641	8.38
488.993	8.22
489.345	8.21
489.698	8.21
490.05	8.16
490.402	8.17
490.754	8.18
491.107	8.22
491.459	8.31
491.811	8.39
492.163	8.42
492.515	8.52
492.866	8.56
493.218	8.37
493.57	8.36
493.922	8.35
494.274	8.37
494.625	8.32
494.977	8.36
495.328	8.48
495.68	8.64
496.031	8.68
496.383	8.77
496.734	8.78
497.086	8.71
497.437	8.81
497.788	8.8
498.139	8.89
498.49	8.83
498.842	8.8
499.193	8.77
499.544	8.78
499.894	8.73
500.245	8.75
500.596	8.77
500.947	8.86
501.298	8.81
501.648	8.81
501.999	8.82
502.35	9.04
502.7	9.05
503.051	9.04
503.401	9.05
503.752	9.02
504.102	9.06
504.452	8.98
504.803	8.96
505.153	9.11
505.503	9
505.853	9.13
506.203	8.9
506.553	9
506.903	8.95
507.253	9.12
507.603	9.09
507.953	9.07
508.303	9.09
508.652	9.22
509.002	9.17
509.352	9.16
509.701	9.16
510.051	9.13
510.4	9.2
510.75	9.16
511.099	9.06
511.449	9.16
511.798	9.2
512.147	9.11
512.496	9.19
512.846	9.17
513.195	9.28
513.544	9.25
513.893	9.16
514.242	9.17
514.591	9.27
514.939	9.18
515.288	9.28
515.637	9.32
515.986	9.36
516.334	9.38
516.683	9.49
517.032	9.33
517.38	9.19
517.729	9.5
518.077	9.3
518.426	9.44
518.774	9.39
519.122	9.37
519.47	9.45
519.819	9.34
520.167	9.34
520.515	9.46
520.863	9.46
521.211	9.35
521.559	9.49
521.907	9.57
522.255	9.48
522.602	9.68
522.95	9.53
523.298	9.62
523.645	9.63
523.993	9.63
524.341	9.64
524.688	9.85
525.036	9.83
525.383	9.69
525.73	9.85
526.078	9.57
526.425	9.77
526.772	9.71
527.119	9.73
527.466	9.69
527.814	9.75
528.161	9.69
528.508	9.65
528.854	9.66
529.201	9.64
529.548	9.76
529.895	9.77
530.242	9.65
530.588	9.61
530.935	9.53
531.282	9.6
531.628	9.59
531.975	9.58
532.321	9.66
532.667	9.74
533.014	9.86
533.36	10.01
533.706	10
534.052	9.97
534.399	9.96
534.745	10.05
535.091	9.91
535.437	9.98
535.783	9.92
536.129	9.95
536.474	10.01
536.82	10.1
537.166	10.04
537.512	10.26
537.857	10.28
538.203	10.22
538.549	10.38
538.894	10.25
539.239	10.14
539.585	10.31
539.93	10.28
540.276	10.4
540.621	10.33
540.966	10.55
541.311	10.56
541.656	10.53
542.001	10.68
542.346	10.51
542.691	10.51
543.036	10.49
543.381	10.4
543.726	10.42
544.071	10.3
544.415	10.38
544.76	10.29
545.105	10.49
545.449	10.49
545.794	10.6
546.138	10.65
546.483	10.61
546.827	10.81
547.171	10.88
547.516	10.78
547.86	11.03
548.204	10.78
548.548	10.81
548.892	10.83
549.236	10.94
549.58	10.99
549.924	10.94
550.268	10.91
550.612	11.02
550.956	11.25
551.3	11.06
551.643	11.31
551.987	11.37
552.33	11.34
552.674	11.28
553.017	11.28
553.361	11.47
553.704	11.55
554.048	11.28
554.391	11.61
554.734	11.55
555.077	11.51
555.42	11.32
555.764	11.5
556.107	11.86
556.45	11.55
556.793	11.42
557.135	11.43
557.478	11.6
557.821	11.72
558.164	11.74
558.507	11.83
558.849	11.82
559.192	11.76
559.534	11.94
559.877	11.83
560.219	12.14
560.562	11.88
560.904	11.76
561.246	12.05
561.589	12.08
561.931	12.09
562.273	12.06
562.615	12.19
562.957	12.17
563.299	12.03
563.641	12.31
563.983	12.03
564.325	12.08
564.667	12.32
565.008	12.45
565.35	12.31
565.692	12.39
566.033	12.54
566.375	12.41
566.716	12.41
567.058	12.32
567.399	12.51
567.741	12.43
568.082	12.62
568.423	12.55
568.764	12.41
569.105	12.63
569.447	12.45
569.788	12.39
570.129	12.64
570.47	12.68
570.811	12.8
571.151	12.76
571.492	12.68
571.833	12.93
572.174	13.13
572.514	12.89
572.855	12.85
573.195	12.96
573.536	12.82
573.876	12.91
574.217	12.87
574.557	12.99
574.898	13.01
575.238	12.94
575.578	13.19
575.918	13.14
576.258	13.21
576.598	13.2
576.938	13.33
577.278	13.36
577.618	13.21
577.958	13.26
578.298	13.39
578.638	13.34
578.977	13.25
579.317	13.36
579.657	13.5
579.996	13.66
580.336	13.66
580.675	13.56
581.014	13.74
581.354	13.55
581.693	13.74
582.032	13.89
582.372	13.93
582.711	13.79
583.05	14.16
583.389	13.89
583.728	13.9
584.067	14.06
584.406	14.05
584.745	14.12
585.083	13.99
585.422	14.32
585.761	14.04
586.1	13.87
586.438	13.77
586.777	14.2
587.115	14.48
587.454	14.6
587.792	14.36
588.13	14.61
588.469	14.59
588.807	14.29
589.145	14.43
589.483	14.39
589.821	14.47
590.159	14.69
590.497	14.42
590.835	14.66
591.173	14.72
591.511	14.54
591.849	14.49
592.187	14.63
592.524	14.64
592.862	14.88
593.2	14.91
593.537	14.73
593.875	14.85
594.212	14.66
594.55	14.82
594.887	15.02
595.224	14.75
595.561	14.77
595.899	15.09
596.236	14.94
596.573	15.43
596.91	15.22
597.247	15.31
597.584	14.95
597.921	15.48
598.258	15.2
598.594	15.71
598.931	15.26
599.268	15.13
599.604	15.34
599.941	15.38
600.277	15.15
600.614	15.56
600.95	15.42
601.287	15.29
601.623	15.87
601.959	15.82
602.296	15.79
602.632	15.73
602.968	15.89
603.304	15.72
603.64	15.65
603.976	16.04
604.312	16.15
604.648	16.18
604.984	16.05
605.319	16.11
605.655	15.88
605.991	15.93
606.326	16.14
606.662	15.81
606.998	16
607.333	16.05
607.668	15.92
608.004	16.21
608.339	15.94
608.674	16.26
609.01	16.24
609.345	16.57
609.68	16.38
610.015	16.29
610.35	16.59
610.685	16.69
611.02	16.54
611.355	16.48
611.689	16.49
612.024	16.78
612.359	16.6
612.694	16.51
613.028	16.86
613.363	16.74
613.697	16.69
614.032	16.82
614.366	16.74
614.7	16.81
615.035	17.09
615.369	16.97
615.703	16.81
616.037	16.93
616.371	16.85
616.705	17.24
617.039	17.43
617.373	17.57
617.707	17.32
618.041	17.26
618.375	17.22
618.709	17.64
619.042	17.58
619.376	17.84
619.71	17.53
620.043	17.71
620.377	17.5
620.71	17.63
621.043	17.7
621.377	17.32
621.71	17.77
622.043	17.46
622.376	17.92
622.709	18.2
623.043	17.93
623.376	17.8
623.709	18.13
624.041	17.71
624.374	17.96
624.707	17.81
625.04	18.14
625.373	18.44
625.705	18.15
626.038	18.1
626.37	17.71
626.703	18.06
627.035	18.24
627.368	18.14
627.7	18.25
628.032	18.25
628.365	18.29
628.697	18.44
629.029	18.42
629.361	18.4
629.693	18.49
630.025	18.43
630.357	18.42
630.689	18.35
631.021	18.77
631.353	18.48
631.684	18.24
632.016	18.94
632.348	18.54
632.679	18.64
633.011	18.93
633.342	18.73
633.674	18.76
634.005	18.75
634.336	19.15
634.668	18.84
634.999	18.81
635.33	18.81
635.661	19.13
635.992	19.16
636.323	19.37
636.654	19.61
636.985	18.8
637.316	19.13
637.647	19.34
637.977	19.15
638.308	19.27
638.639	19.3
638.969	19.58
639.3	19.19
639.63	19.33
639.961	19.22
640.291	19.41
640.622	19.61
640.952	19.91
641.282	19.55
641.612	19.62
641.943	20.06
642.273	19.73
642.603	19.75
642.933	19.93
643.263	19.89
643.592	19.61
643.922	19.86
644.252	19.39
644.582	19.71
644.911	19.89
645.241	20.56
645.571	20.56
645.9	19.76
646.23	20.18
646.559	20.14
646.888	20.2
647.218	20.15
647.547	19.73
647.876	20.61
648.205	20.69
648.534	20.06
648.863	20.16
649.192	20.48
649.521	20.45
649.85	20.76
650.179	19.87
650.508	20.26
650.837	20.44
651.165	21.17
651.494	20.82
651.822	20.61
652.151	20.7
652.479	20.99
652.808	20.74
653.136	20.7
653.465	20.97
653.793	20.7
654.121	21.31
654.449	21.16
654.777	21.1
655.105	21.04
655.433	21.05
655.761	21.13
656.089	20.95
656.417	21.18
656.745	21.09
657.073	21.33
657.4	22.04
657.728	21.32
658.056	21.18
658.383	21.58
658.711	21.33
659.038	21.85
659.365	21.35
659.693	21.37
660.02	21.03
660.347	21.65
660.674	21.42
661.001	21.53
661.329	21.48
661.656	21.84
661.982	21.39
662.309	21.54
662.636	21.39
662.963	21.87
663.29	21.53
663.616	22.02
663.943	21.93
664.27	21.51
664.596	21.42
664.923	21.49
665.249	21.57
665.576	20.94
665.902	22.26
666.228	21.97
666.554	22.32
666.881	21.56
667.207	22.54
667.533	22.45
667.859	22.69
668.185	22.48
668.511	22.35
668.837	23.1
669.162	22.9
669.488	22.31
669.814	22.1
670.139	22.12
670.465	22.42
670.791	22.41
671.116	22.9
671.442	22.69
671.767	22.92
672.092	22.48
672.418	23.04
672.743	22.14
673.068	22.62
673.393	22.62
673.718	22.72
674.043	22.13
674.368	23.12
674.693	22.69
675.018	23.09
675.343	23.08
675.667	22.58
675.992	23.04
676.317	22.95
676.641	23.55
676.966	22.92
677.29	23.74
677.615	23.34
677.939	23.16
678.264	23.05
678.588	23.22
678.912	23.14
679.236	23.62
679.56	23.87
679.885	23.72
680.209	23.57
680.532	23.37
680.856	23.14
681.18	23.37
681.504	23.91
681.828	23.49
682.152	23.89
682.475	23.41
682.799	23.77
