Data from 0224_chest_Reflection__0__93.txt Node

Date: Fri Oct 20 21:24:03 CDT 2023
User: ToomeyLab
Spectrometer: FLMS14357
Trigger mode: 0
Integration Time (sec): 1.000000E-2
Scans to average: 100
Electric dark correction enabled: true
Nonlinearity correction enabled: false
Boxcar width: 0
XAxis mode: Wavelengths
Number of Pixels in Spectrum: 2048
>>>>>Begin Spectral Data<<<<<
189.047	-388.34
189.435	-388.34
189.823	-388.34
190.211	83.45
190.599	108.67
190.987	94.3
191.375	-88.06
191.763	151.63
192.151	23.91
192.538	-81.05
192.926	24.49
193.314	69.25
193.702	2637.69
194.089	89.44
194.477	97.95
194.864	-37.7
195.252	90.54
195.639	-5244.74
196.027	87.18
196.414	5.34
196.801	-128.98
197.189	19.9
197.576	-111.64
197.963	5.63
198.351	52.04
198.738	2.37
199.125	33.21
199.512	65.81
199.899	25.79
200.286	19.44
200.673	2.17
201.06	36.24
201.447	-25.32
201.833	47.09
202.22	27.74
202.607	24.68
202.994	16.68
203.38	16.19
203.767	34.01
204.154	39.8
204.54	37.64
204.927	42.44
205.313	44.88
205.699	44.91
206.086	39.28
206.472	44.24
206.858	40.16
207.245	-0.79
207.631	59.07
208.017	29.23
208.403	18.04
208.789	24.4
209.175	9.98
209.561	14.44
209.947	0.25
210.333	34.01
210.719	23.66
211.105	49.29
211.491	10.34
211.876	24.58
212.262	41.82
212.648	18.95
213.034	19.63
213.419	-6.23
213.805	11.02
214.19	5.33
214.576	18.61
214.961	20.27
215.346	26.65
215.732	29.2
216.117	-12.06
216.502	22.21
216.888	13.66
217.273	15.65
217.658	18.32
218.043	5.8
218.428	2.07
218.813	25.24
219.198	18.13
219.583	7.66
219.968	-2.38
220.353	12.67
220.738	43.11
221.122	-5.88
221.507	14.64
221.892	19.19
222.276	18.77
222.661	27.32
223.046	6.16
223.43	8.89
223.815	21.51
224.199	16.25
224.583	-4.24
224.968	-0.53
225.352	5.61
225.736	9.88
226.121	15.13
226.505	8.62
226.889	3.43
227.273	7.39
227.657	17.38
228.041	6.71
228.425	4.6
228.809	9.49
229.193	8.08
229.577	10.43
229.961	5.11
230.344	6.83
230.728	4.95
231.112	4.63
231.495	4.75
231.879	5.46
232.263	5.12
232.646	3.7
233.03	5.44
233.413	4.48
233.797	5.22
234.18	4.86
234.563	3.79
234.946	6.33
235.33	6.46
235.713	6.31
236.096	5.46
236.479	5.05
236.862	7.53
237.245	5.74
237.628	5.54
238.011	7.33
238.394	4.41
238.777	6.86
239.16	6.03
239.543	8.75
239.925	8.35
240.308	3.64
240.691	3.98
241.073	7.86
241.456	6.89
241.838	4.77
242.221	6.19
242.603	5.85
242.986	5.29
243.368	6.05
243.75	5.67
244.133	5.11
244.515	5.1
244.897	5.17
245.279	5.23
245.661	4.05
246.043	5.41
246.425	5.43
246.807	6.33
247.189	5.51
247.571	5.02
247.953	5.3
248.335	5.76
248.717	4.77
249.098	4.63
249.48	4.88
249.862	4.78
250.243	5.02
250.625	4.69
251.006	4.97
251.388	4.9
251.769	5.04
252.151	4.84
252.532	5.27
252.913	4.77
253.295	4.02
253.676	5.19
254.057	4.98
254.438	5.13
254.819	4.54
255.2	4.86
255.581	5.09
255.962	4.71
256.343	5.32
256.724	4.39
257.105	6.24
257.486	5.23
257.867	5.01
258.247	5.12
258.628	5.11
259.009	5.25
259.389	4.6
259.77	4.66
260.15	5.05
260.531	4.59
260.911	4.47
261.292	4.47
261.672	4.61
262.052	4.35
262.432	4.57
262.813	4.67
263.193	4.59
263.573	5.05
263.953	4.9
264.333	4.7
264.713	4.95
265.093	4.97
265.473	5.2
265.853	4.72
266.233	5.19
266.612	4.75
266.992	4.81
267.372	4.68
267.752	4.17
268.131	4.55
268.511	4.44
268.89	4.26
269.27	4.08
269.649	3.79
270.029	4.26
270.408	4.64
270.787	4.32
271.167	4.96
271.546	4.6
271.925	5.29
272.304	5.24
272.683	4.43
273.062	4.71
273.441	5.11
273.82	4.48
274.199	4.71
274.578	4.81
274.957	4.67
275.336	4.75
275.715	4.79
276.093	4.24
276.472	4.23
276.851	4.73
277.229	4.5
277.608	4.33
277.986	4.08
278.365	4.8
278.743	4.54
279.122	4.24
279.5	4.22
279.878	3.95
280.257	4.64
280.635	4.37
281.013	4.77
281.391	5.05
281.769	4.16
282.147	4.38
282.525	4.2
282.903	4.65
283.281	4.27
283.659	4.74
284.037	4.52
284.415	3.89
284.792	4.61
285.17	4.21
285.548	4.54
285.925	3.86
286.303	4.35
286.68	4.4
287.058	4.68
287.435	4.75
287.813	4.06
288.19	4.35
288.567	4.38
288.945	5.3
289.322	4.96
289.699	3.74
290.076	5.09
290.453	4.68
290.83	4.26
291.207	5.74
291.584	4.41
291.961	5
292.338	4.26
292.715	4.41
293.092	4.54
293.469	4.91
293.845	4.47
294.222	4.62
294.599	4.66
294.975	5.99
295.352	4.88
295.728	4.63
296.105	4.64
296.481	5
296.858	5.14
297.234	4.93
297.61	4.88
297.986	4.51
298.363	5.04
298.739	5
299.115	4.74
299.491	4.6
299.867	4.83
300.243	4.81
300.619	4.82
300.995	4.54
301.371	5.15
301.746	5.15
302.122	5.43
302.498	4.89
302.874	5.2
303.249	5.43
303.625	5.43
304	5.48
304.376	4.18
304.751	4.68
305.127	4.83
305.502	5.08
305.878	5.17
306.253	5.4
306.628	5
307.003	4.94
307.378	5.48
307.754	5.06
308.129	5.49
308.504	5.19
308.879	4.76
309.254	5.24
309.629	4.79
310.003	4.28
310.378	5.24
310.753	5.01
311.128	5.42
311.502	5.03
311.877	5.4
312.252	4.9
312.626	5.36
313.001	5.39
313.375	5.26
313.75	5.11
314.124	4.89
314.498	5.24
314.873	4.91
315.247	4.77
315.621	4.71
315.995	5.48
316.369	5.3
316.743	5.77
317.117	5.08
317.491	4.66
317.865	5.8
318.239	5.66
318.613	5.35
318.987	5.28
319.361	4.53
319.734	4.31
320.108	4.86
320.482	5.99
320.855	5.08
321.229	5.62
321.602	5.51
321.976	5.24
322.349	5.4
322.723	5.19
323.096	5.43
323.469	5.32
323.843	5.23
324.216	5.63
324.589	5.1
324.962	5.5
325.335	4.87
325.708	4.89
326.081	4.91
326.454	5.35
326.827	5.78
327.2	5.57
327.573	5.86
327.945	5.62
328.318	5.35
328.691	5.26
329.063	5.48
329.436	5.06
329.809	5.34
330.181	5.25
330.553	5.41
330.926	5.44
331.298	4.87
331.671	4.83
332.043	5.31
332.415	5.43
332.787	5.45
333.159	5.17
333.532	6.07
333.904	5.7
334.276	4.85
334.648	5.36
335.02	5.54
335.391	5.35
335.763	5.61
336.135	5.89
336.507	5.72
336.879	5.26
337.25	5.6
337.622	5.93
337.993	5.76
338.365	5.31
338.736	5.21
339.108	5.57
339.479	5.35
339.851	5.51
340.222	5.08
340.593	5.19
340.964	5.18
341.336	5.16
341.707	5.61
342.078	5.36
342.449	4.94
342.82	5.54
343.191	5.14
343.562	5.52
343.933	5.53
344.303	5.81
344.674	5.43
345.045	5.89
345.416	5.25
345.786	5.21
346.157	5.26
346.527	5.52
346.898	5.48
347.268	5.27
347.639	6.07
348.009	5.15
348.38	5.5
348.75	5.63
349.12	5.51
349.49	5.42
349.861	5.46
350.231	5.09
350.601	5.33
350.971	5.74
351.341	5.45
351.711	5.95
352.081	5.5
352.45	5.18
352.82	5.56
353.19	5.74
353.56	5.3
353.929	5.25
354.299	5.24
354.669	5.47
355.038	5.5
355.408	5.69
355.777	5.55
356.147	5.58
356.516	5.3
356.885	5.6
357.254	5.26
357.624	5.42
357.993	5.26
358.362	5.56
358.731	5.11
359.1	4.84
359.469	5.39
359.838	5.42
360.207	5.38
360.576	5.91
360.945	5.32
361.314	5.4
361.682	5.37
362.051	5.27
362.42	5.41
362.788	5.44
363.157	5.47
363.525	5.41
363.894	5.27
364.262	5.36
364.631	5.4
364.999	5.17
365.367	5.2
365.735	5.52
366.104	5.37
366.472	5.38
366.84	5.37
367.208	5.48
367.576	5.42
367.944	5.58
368.312	5.58
368.68	5.47
369.048	5.49
369.416	5.59
369.783	5.55
370.151	5.2
370.519	5.6
370.886	5.86
371.254	5.65
371.621	5.56
371.989	5.49
372.356	5.75
372.724	5.54
373.091	5.55
373.458	5.3
373.826	5.33
374.193	5.4
374.56	5.37
374.927	5.51
375.294	5.61
375.661	5.7
376.028	5.57
376.395	5.78
376.762	5.48
377.129	5.9
377.496	5.63
377.863	5.75
378.229	5.69
378.596	5.75
378.963	5.62
379.329	5.56
379.696	5.51
380.062	5.48
380.429	5.44
380.795	5.43
381.161	5.55
381.528	5.79
381.894	5.69
382.26	5.67
382.626	5.78
382.993	5.54
383.359	5.51
383.725	5.77
384.091	5.52
384.457	5.38
384.823	5.48
385.188	5.85
385.554	6.03
385.92	5.53
386.286	5.93
386.651	5.36
387.017	5.67
387.383	5.73
387.748	5.33
388.114	5.56
388.479	5.62
388.845	5.84
389.21	5.57
389.575	5.26
389.94	5.5
390.306	5.64
390.671	5.66
391.036	5.63
391.401	5.53
391.766	5.78
392.131	5.45
392.496	5.71
392.861	5.78
393.226	5.68
393.591	5.72
393.956	5.8
394.32	5.87
394.685	5.62
395.05	5.83
395.414	5.67
395.779	5.49
396.143	5.74
396.508	5.51
396.872	5.69
397.236	5.73
397.601	5.79
397.965	5.55
398.329	5.55
398.694	5.9
399.058	5.48
399.422	5.55
399.786	5.69
400.15	5.52
400.514	5.66
400.878	5.69
401.242	5.88
401.605	6
401.969	5.49
402.333	5.62
402.697	5.71
403.06	5.65
403.424	5.55
403.787	5.69
404.151	5.77
404.514	5.86
404.878	5.79
405.241	5.83
405.604	5.61
405.968	5.83
406.331	5.72
406.694	5.64
407.057	5.8
407.42	5.95
407.783	5.92
408.146	5.71
408.509	5.81
408.872	5.79
409.235	5.87
409.598	6.11
409.961	5.83
410.323	5.72
410.686	5.75
411.049	6.01
411.411	5.77
411.774	5.57
412.136	5.7
412.499	5.63
412.861	5.8
413.223	5.91
413.586	5.95
413.948	6.03
414.31	6.22
414.672	5.72
415.035	5.69
415.397	6.09
415.759	5.99
416.121	5.92
416.483	6.04
416.845	5.82
417.206	5.87
417.568	6.05
417.93	5.8
418.292	5.69
418.653	5.83
419.015	5.75
419.377	5.76
419.738	5.88
420.1	5.73
420.461	5.71
420.822	5.72
421.184	5.79
421.545	5.81
421.906	5.77
422.267	5.66
422.629	5.67
422.99	5.55
423.351	5.72
423.712	5.72
424.073	5.8
424.434	5.71
424.795	5.68
425.155	5.7
425.516	5.76
425.877	5.73
426.238	5.64
426.598	5.79
426.959	5.73
427.32	5.72
427.68	5.91
428.041	5.77
428.401	5.75
428.761	5.84
429.122	5.91
429.482	5.83
429.842	6
430.202	6.01
430.563	5.77
430.923	6
431.283	5.75
431.643	6.2
432.003	6.1
432.363	5.79
432.722	6.05
433.082	6.1
433.442	5.81
433.802	5.95
434.161	5.86
434.521	6.06
434.881	5.93
435.24	5.95
435.6	5.92
435.959	5.88
436.319	5.81
436.678	5.98
437.037	6
437.396	5.87
437.756	6.11
438.115	5.9
438.474	6.17
438.833	6.04
439.192	5.74
439.551	5.98
439.91	6.06
440.269	6.19
440.628	5.94
440.987	5.93
441.345	5.79
441.704	6.16
442.063	6.1
442.421	5.98
442.78	5.89
443.138	6.12
443.497	6.1
443.855	6
444.214	5.89
444.572	5.97
444.93	6.1
445.288	6.08
445.647	6.31
446.005	5.86
446.363	5.91
446.721	6.04
447.079	6.22
447.437	6.02
447.795	5.97
448.153	5.87
448.51	5.98
448.868	5.99
449.226	5.92
449.584	6.05
449.941	5.97
450.299	6
450.656	5.98
451.014	6.1
451.371	6.03
451.729	6.06
452.086	6.09
452.443	6.28
452.801	6.18
453.158	6.25
453.515	6.12
453.872	6.05
454.229	6.37
454.586	6.13
454.943	6.03
455.3	6.11
455.657	6.19
456.014	6.15
456.371	6.11
456.727	6.36
457.084	6.33
457.441	6.19
457.797	6.09
458.154	6.2
458.51	6.17
458.867	6.42
459.223	6.26
459.58	6.16
459.936	6.4
460.292	6.43
460.648	6.13
461.005	6.02
461.361	6.21
461.717	6.01
462.073	6.15
462.429	6.08
462.785	6.15
463.141	6.26
463.496	6.14
463.852	6.32
464.208	6.3
464.564	6.49
464.919	6.24
465.275	6.53
465.631	6.49
465.986	6.44
466.342	6.51
466.697	6.35
467.052	6.31
467.408	6.37
467.763	6.35
468.118	6.53
468.473	6.36
468.829	6.36
469.184	6.38
469.539	6.54
469.894	6.31
470.249	6.43
470.603	6.48
470.958	6.57
471.313	6.57
471.668	6.6
472.023	6.62
472.377	6.47
472.732	6.44
473.086	6.5
473.441	6.69
473.795	6.51
474.15	6.46
474.504	6.45
474.859	6.34
475.213	6.72
475.567	6.54
475.921	6.68
476.275	6.57
476.63	6.8
476.984	6.55
477.338	6.54
477.692	6.5
478.045	6.59
478.399	6.6
478.753	6.52
479.107	6.47
479.461	6.63
479.814	6.59
480.168	6.65
480.521	6.45
480.875	6.52
481.228	6.68
481.582	6.63
481.935	6.6
482.289	6.66
482.642	6.55
482.995	6.55
483.348	6.51
483.701	6.68
484.055	6.61
484.408	6.43
484.761	6.39
485.114	6.33
485.466	6.29
485.819	6.2
486.172	6.1
486.525	6.16
486.878	6.22
487.23	6.3
487.583	6.32
487.936	6.41
488.288	6.45
488.641	6.49
488.993	6.36
489.345	6.34
489.698	6.36
490.05	6.34
490.402	6.32
490.754	6.35
491.107	6.43
491.459	6.52
491.811	6.56
492.163	6.52
492.515	6.55
492.866	6.65
493.218	6.52
493.57	6.47
493.922	6.42
494.274	6.46
494.625	6.54
494.977	6.62
495.328	6.68
495.68	6.73
496.031	6.72
496.383	6.71
496.734	6.71
497.086	6.77
497.437	6.86
497.788	6.83
498.139	6.91
498.49	6.84
498.842	6.78
499.193	6.92
499.544	6.87
499.894	6.8
500.245	6.83
500.596	6.96
500.947	6.88
501.298	6.85
501.648	7.03
501.999	7.01
502.35	6.91
502.7	7.02
503.051	7.08
503.401	7.11
503.752	7.12
504.102	7.13
504.452	7.14
504.803	7.04
505.153	7.04
505.503	7.16
505.853	7.1
506.203	7.01
506.553	7.05
506.903	6.98
507.253	6.98
507.603	7.09
507.953	7.24
508.303	7.17
508.652	7.2
509.002	7.1
509.352	7.23
509.701	7.14
510.051	7.1
510.4	7.08
510.75	7.12
511.099	7.04
511.449	7.15
511.798	7.18
512.147	7.15
512.496	7.13
512.846	7.23
513.195	7.22
513.544	7.16
513.893	7.09
514.242	7.16
514.591	7.3
514.939	7.23
515.288	7.2
515.637	7.32
515.986	7.28
516.334	7.29
516.683	7.41
517.032	7.3
517.38	7.36
517.729	7.38
518.077	7.46
518.426	7.39
518.774	7.37
519.122	7.52
519.47	7.33
519.819	7.45
520.167	7.33
520.515	7.44
520.863	7.41
521.211	7.38
521.559	7.38
521.907	7.41
522.255	7.37
522.602	7.55
522.95	7.43
523.298	7.56
523.645	7.59
523.993	7.55
524.341	7.59
524.688	7.66
525.036	7.81
525.383	7.44
525.73	7.75
526.078	7.51
526.425	7.63
526.772	7.65
527.119	7.61
527.466	7.48
527.814	7.64
528.161	7.63
528.508	7.51
528.854	7.62
529.201	7.61
529.548	7.72
529.895	7.61
530.242	7.55
530.588	7.45
530.935	7.37
531.282	7.49
531.628	7.53
531.975	7.52
532.321	7.61
532.667	7.76
533.014	7.73
533.36	7.86
533.706	7.92
534.052	7.85
534.399	7.78
534.745	7.73
535.091	7.75
535.437	7.75
535.783	7.73
536.129	7.8
536.474	7.81
536.82	7.93
537.166	7.88
537.512	8.03
537.857	8.05
538.203	7.96
538.549	8.16
538.894	8.04
539.239	8.04
539.585	8.04
539.93	8.18
540.276	8.28
540.621	8.25
540.966	8.39
541.311	8.32
541.656	8.32
542.001	8.44
542.346	8.34
542.691	8.15
543.036	8.27
543.381	8.11
543.726	8.1
544.071	8.11
544.415	8.15
544.76	8.21
545.105	8.33
545.449	8.31
545.794	8.41
546.138	8.38
546.483	8.48
546.827	8.46
547.171	8.65
547.516	8.57
547.86	8.64
548.204	8.5
548.548	8.53
548.892	8.56
549.236	8.69
549.58	8.56
549.924	8.68
550.268	8.7
550.612	8.82
550.956	8.88
551.3	9.01
551.643	8.89
551.987	9.03
552.33	9.08
552.674	8.89
553.017	9.21
553.361	9.18
553.704	9.01
554.048	9.01
554.391	9.17
554.734	9.18
555.077	9.32
555.42	9.22
555.764	9.21
556.107	9.37
556.45	9.25
556.793	9.35
557.135	9.13
557.478	9.14
557.821	9.46
558.164	9.32
558.507	9.45
558.849	9.5
559.192	9.47
559.534	9.58
559.877	9.46
560.219	9.59
560.562	9.52
560.904	9.29
561.246	9.73
561.589	9.53
561.931	9.76
562.273	9.72
562.615	9.84
562.957	9.68
563.299	9.86
563.641	9.76
563.983	9.58
564.325	9.75
564.667	9.87
565.008	10.08
565.35	9.94
565.692	9.94
566.033	9.87
566.375	10.02
566.716	10.02
567.058	9.89
567.399	10.08
567.741	9.95
568.082	10.05
568.423	10.11
568.764	9.96
569.105	10.25
569.447	10.22
569.788	10.22
570.129	10.26
570.47	10.29
570.811	10.46
571.151	10.36
571.492	10.45
571.833	10.54
572.174	10.59
572.514	10.45
572.855	10.42
573.195	10.59
573.536	10.45
573.876	10.57
574.217	10.56
574.557	10.5
574.898	10.49
575.238	10.17
575.578	10.69
575.918	10.62
576.258	10.8
576.598	10.81
576.938	10.88
577.278	10.85
577.618	10.54
577.958	10.79
578.298	10.71
578.638	10.88
578.977	10.94
579.317	10.93
579.657	11.21
579.996	11.23
580.336	11.18
580.675	11.15
581.014	11.29
581.354	11.08
581.693	11.41
582.032	11.32
582.372	11.49
582.711	11.54
583.05	11.76
583.389	11.49
583.728	11.47
584.067	11.42
584.406	11.31
584.745	11.55
585.083	11.78
585.422	11.71
585.761	11.84
586.1	11.77
586.438	11.38
586.777	11.65
587.115	12.13
587.454	11.76
587.792	11.61
588.13	11.66
588.469	11.71
588.807	11.79
589.145	12.08
589.483	11.8
589.821	12.01
590.159	12
590.497	12.19
590.835	12.37
591.173	12.17
591.511	12.37
591.849	12.19
592.187	12.23
592.524	12.05
592.862	12.12
593.2	12.35
593.537	12.23
593.875	12.43
594.212	12.45
594.55	12.76
594.887	12.62
595.224	12.55
595.561	12.39
595.899	12.35
596.236	12.61
596.573	12.64
596.91	12.74
597.247	12.75
597.584	12.52
597.921	12.81
598.258	12.88
598.594	13.08
598.931	12.49
599.268	12.63
599.604	12.94
599.941	12.78
600.277	12.79
600.614	13.04
600.95	13.3
601.287	13.16
601.623	13.35
601.959	13.32
602.296	13.2
602.632	13.06
602.968	13.12
603.304	13.19
603.64	13.15
603.976	13.42
604.312	13.51
604.648	13.47
604.984	13.53
605.319	13.46
605.655	13.35
605.991	13.48
606.326	13.37
606.662	13.36
606.998	13.49
607.333	13.53
607.668	13.41
608.004	13.88
608.339	13.65
608.674	13.73
609.01	13.86
609.345	14.06
609.68	13.92
610.015	14.11
610.35	13.82
610.685	14.08
611.02	14.04
611.355	14.11
611.689	13.89
612.024	14.16
612.359	14.09
612.694	14.02
613.028	14.32
613.363	14.25
613.697	14.25
614.032	14.58
614.366	14.56
614.7	14.5
615.035	14.51
615.369	14.62
615.703	14.45
616.037	14.77
616.371	14.47
616.705	14.64
617.039	14.71
617.373	14.68
617.707	14.95
618.041	14.94
618.375	14.94
618.709	14.86
619.042	14.92
619.376	15.26
619.71	15.12
620.043	15.24
620.377	15.01
620.71	15.05
621.043	15.53
621.377	15.18
621.71	15.19
622.043	14.96
622.376	15.54
622.709	15.26
623.043	15.92
623.376	15.35
623.709	14.82
624.041	15.63
624.374	15.57
624.707	15.74
625.04	15.74
625.373	16.05
625.705	15.68
626.038	15.79
626.37	15.41
626.703	15.55
627.035	15.79
627.368	15.75
627.7	15.79
628.032	16.03
628.365	16.18
628.697	15.86
629.029	15.76
629.361	15.7
629.693	16.07
630.025	15.97
630.357	16.17
630.689	16.33
631.021	16.38
631.353	16.1
631.684	16.08
632.016	16.5
632.348	16.04
632.679	16.39
633.011	16.42
633.342	16.36
633.674	16.09
634.005	16.81
634.336	16.82
634.668	16.48
634.999	16.46
635.33	16.32
635.661	16.82
635.992	16.84
636.323	17.08
636.654	16.76
636.985	16.57
637.316	17.25
637.647	16.81
637.977	16.6
638.308	17.28
638.639	17.03
638.969	17.18
639.3	16.94
639.63	17.03
639.961	16.97
640.291	17.19
640.622	17.19
640.952	17.57
641.282	17.38
641.612	17.06
641.943	17.75
642.273	17.45
642.603	17.78
642.933	17.79
643.263	18
643.592	17.43
643.922	18.2
644.252	17.78
644.582	17.84
644.911	17.89
645.241	17.99
645.571	18.37
645.9	17.48
646.23	17.76
646.559	17.97
646.888	18.22
647.218	18.17
647.547	18
647.876	17.79
648.205	17.55
648.534	18.11
648.863	17.82
649.192	17.87
649.521	18.24
649.85	18.27
650.179	18.22
650.508	18.3
650.837	18.3
651.165	18.86
651.494	18.39
651.822	19.36
652.151	18.73
652.479	18.57
652.808	18.54
653.136	18.51
653.465	18.91
653.793	18.82
654.121	19.01
654.449	18.48
654.777	18.36
655.105	19.06
655.433	19.13
655.761	18.76
656.089	19.12
656.417	19.07
656.745	19.08
657.073	19.09
657.4	20.1
657.728	19.39
658.056	19.33
658.383	19.7
658.711	19.09
659.038	19.41
659.365	19.24
659.693	19.55
660.02	19.15
660.347	19.08
660.674	19.29
661.001	19.39
661.329	19.65
661.656	19.47
661.982	19.64
662.309	19.22
662.636	19.82
662.963	19.73
663.29	19.92
663.616	19.89
663.943	19.51
664.27	19.74
664.596	20.19
664.923	19.59
665.249	19.81
665.576	20.25
665.902	20.42
666.228	20.24
666.554	19.9
666.881	20.23
667.207	20.57
667.533	20.53
667.859	20.76
668.185	20.61
668.511	20.95
668.837	20.81
669.162	20.26
669.488	20.46
669.814	20.24
670.139	20.21
670.465	20.43
670.791	20.39
671.116	20.98
671.442	21.03
671.767	20.46
672.092	21.15
672.418	20.77
672.743	21.05
673.068	21.37
673.393	20.82
673.718	20.81
674.043	20.4
674.368	21.2
674.693	21.54
675.018	21.21
675.343	21.09
675.667	20.56
675.992	21.28
676.317	21.32
676.641	22.03
676.966	22.07
677.29	21.51
677.615	21.78
677.939	21.51
678.264	21.04
678.588	21.84
678.912	22.5
679.236	20.74
679.56	21.08
679.885	22.28
680.209	21.86
680.532	21.29
680.856	21.2
681.18	21.62
681.504	22.05
681.828	22.28
682.152	22.24
682.475	21.68
682.799	22.18
683.122	22.16
683.446	22.15
683.769	22.58
684.093	22.21
684.416	22.07
