Data from 0224_chest_Reflection__3__96.txt Node

Date: Fri Oct 20 21:24:34 CDT 2023
User: ToomeyLab
Spectrometer: FLMS14357
Trigger mode: 0
Integration Time (sec): 1.000000E-2
Scans to average: 100
Electric dark correction enabled: true
Nonlinearity correction enabled: false
Boxcar width: 0
XAxis mode: Wavelengths
Number of Pixels in Spectrum: 2048
>>>>>Begin Spectral Data<<<<<
189.047	-514.25
189.435	-514.25
189.823	-514.25
190.211	16.62
190.599	144.43
190.987	198.88
191.375	49.88
191.763	134.78
192.151	9428.26
192.538	36.19
192.926	151.67
193.314	131.76
193.702	122.31
194.089	79.06
194.477	166.61
194.864	-26.06
195.252	36.01
195.639	-4464.04
196.027	-37.76
196.414	-28.45
196.801	112.6
197.189	50.12
197.576	-208.64
197.963	-5.56
198.351	42.99
198.738	17.64
199.125	52.89
199.512	24.59
199.899	47.14
200.286	-13.67
200.673	22.4
201.06	50.21
201.447	20.88
201.833	42.72
202.22	1.82
202.607	30.03
202.994	22.5
203.38	19.74
203.767	12.51
204.154	60.54
204.54	74.34
204.927	10.02
205.313	14.17
205.699	61.09
206.086	41.62
206.472	76.01
206.858	30.76
207.245	-30.54
207.631	45.06
208.017	35.55
208.403	-2.02
208.789	0.62
209.175	41.23
209.561	32.91
209.947	2.49
210.333	-22.57
210.719	32.16
211.105	33.92
211.491	38.86
211.876	2.28
212.262	11.53
212.648	40.58
213.034	16.53
213.419	24.28
213.805	27.52
214.19	12.15
214.576	-3.38
214.961	35.31
215.346	24.02
215.732	34.56
216.117	-8.07
216.502	13.12
216.888	-3.76
217.273	-28.04
217.658	26.01
218.043	-2.78
218.428	1.1
218.813	9.11
219.198	21.36
219.583	-14.01
219.968	4.3
220.353	24.18
220.738	28.41
221.122	21.1
221.507	17.4
221.892	9.88
222.276	28.55
222.661	21
223.046	9.12
223.43	7.25
223.815	15.25
224.199	15.19
224.583	5.58
224.968	1.23
225.352	3.72
225.736	0.74
226.121	5.64
226.505	8.42
226.889	5.26
227.273	7.5
227.657	11
228.041	12.3
228.425	4.9
228.809	6.12
229.193	4.35
229.577	7.32
229.961	4.46
230.344	4.61
230.728	4.46
231.112	5.89
231.495	4.73
231.879	5.46
232.263	5.12
232.646	5.64
233.03	4.74
233.413	5.87
233.797	4.32
234.18	5.24
234.563	8.78
234.946	6.18
235.33	4.42
235.713	5.51
236.096	6.27
236.479	5.11
236.862	4.29
237.245	4.92
237.628	4.81
238.011	6.91
238.394	5.21
238.777	7.69
239.16	5.58
239.543	6.83
239.925	7.72
240.308	6.97
240.691	7.16
241.073	6.02
241.456	4.97
241.838	5.06
242.221	6.09
242.603	4.9
242.986	4.76
243.368	5.98
243.75	5.12
244.133	5.18
244.515	5.18
244.897	4.87
245.279	5.48
245.661	4.93
246.043	5.51
246.425	6.22
246.807	6.22
247.189	5.64
247.571	4.82
247.953	5.67
248.335	5.71
248.717	4.85
249.098	4.92
249.48	4.79
249.862	5.33
250.243	5.48
250.625	5.21
251.006	5.19
251.388	5.46
251.769	5.66
252.151	5.24
252.532	5.72
252.913	5.23
253.295	4.91
253.676	5.37
254.057	4.55
254.438	5.11
254.819	5.39
255.2	4.65
255.581	4.74
255.962	5.45
256.343	5.85
256.724	4.55
257.105	5.03
257.486	6.73
257.867	5.86
258.247	5.93
258.628	4.88
259.009	4.09
259.389	5.34
259.77	4.59
260.15	5.25
260.531	5.39
260.911	5.23
261.292	4.77
261.672	4.8
262.052	4.84
262.432	4.75
262.813	4.44
263.193	4.89
263.573	4.5
263.953	5.42
264.333	4.25
264.713	5.43
265.093	5.32
265.473	5.14
265.853	5.12
266.233	5.47
266.612	4.64
266.992	4.76
267.372	4.89
267.752	4.71
268.131	5.07
268.511	5.15
268.89	4.87
269.27	4.91
269.649	4.14
270.029	4.84
270.408	4.94
270.787	4.86
271.167	4.75
271.546	4.64
271.925	5.88
272.304	5.03
272.683	4.53
273.062	5.14
273.441	4.93
273.82	4.87
274.199	5.09
274.578	5.09
274.957	5
275.336	5.21
275.715	4.73
276.093	4.3
276.472	4.82
276.851	4.91
277.229	4.79
277.608	4.48
277.986	4.4
278.365	5.56
278.743	4.94
279.122	4.47
279.5	4.98
279.878	4.2
280.257	4.89
280.635	4.91
281.013	4.96
281.391	5.2
281.769	4.42
282.147	4.11
282.525	4.13
282.903	5
283.281	5.17
283.659	4.24
284.037	4.77
284.415	4.46
284.792	4.7
285.17	4.88
285.548	4.57
285.925	4.29
286.303	3.94
286.68	4.35
287.058	5.35
287.435	4.78
287.813	4.2
288.19	4.43
288.567	4.54
288.945	4.78
289.322	5.38
289.699	4.52
290.076	5.26
290.453	4.68
290.83	4.66
291.207	5.2
291.584	4.71
291.961	4.95
292.338	4.63
292.715	4.81
293.092	4.76
293.469	5.27
293.845	4.84
294.222	4.8
294.599	4.91
294.975	5.6
295.352	4.73
295.728	5.02
296.105	5.12
296.481	5
296.858	4.84
297.234	5.46
297.61	4.91
297.986	4.65
298.363	4.92
298.739	5.1
299.115	4.9
299.491	5.16
299.867	5.25
300.243	5.08
300.619	5.18
300.995	4.79
301.371	5.39
301.746	5.27
302.122	5.13
302.498	4.2
302.874	5.09
303.249	5
303.625	5.31
304	5.36
304.376	5.05
304.751	4.78
305.127	5.09
305.502	5.76
305.878	5.41
306.253	5.05
306.628	5.13
307.003	4.85
307.378	5.06
307.754	4.81
308.129	5.71
308.504	5.62
308.879	5.05
309.254	5.7
309.629	5.62
310.003	4.82
310.378	4.91
310.753	5.29
311.128	5.24
311.502	5.44
311.877	5.19
312.252	5.05
312.626	5.74
313.001	5.36
313.375	5.04
313.75	5.39
314.124	5.04
314.498	5.22
314.873	4.89
315.247	5.57
315.621	4.91
315.995	5.46
316.369	4.86
316.743	5.44
317.117	5.48
317.491	4.63
317.865	5.33
318.239	5.75
318.613	5.49
318.987	4.93
319.361	4.49
319.734	4.98
320.108	4.68
320.482	5.84
320.855	5.46
321.229	5.92
321.602	5.27
321.976	5.42
322.349	5.99
322.723	5.85
323.096	5.63
323.469	4.97
323.843	5.22
324.216	5.37
324.589	5.39
324.962	5.7
325.335	5.46
325.708	4.92
326.081	5.53
326.454	5.49
326.827	6
327.2	5.34
327.573	5.87
327.945	5.24
328.318	5.23
328.691	5.6
329.063	5.09
329.436	5.3
329.809	5.73
330.181	5.83
330.553	5.46
330.926	5.38
331.298	4.97
331.671	4.76
332.043	5.12
332.415	5.45
332.787	5.87
333.159	5.26
333.532	5.66
333.904	5.72
334.276	5.01
334.648	5.67
335.02	5.77
335.391	5.53
335.763	5.57
336.135	5.17
336.507	5.51
336.879	5.53
337.25	5.78
337.622	5.87
337.993	5.63
338.365	5.58
338.736	5.61
339.108	6.04
339.479	5.58
339.851	5.2
340.222	4.81
340.593	4.91
340.964	5.62
341.336	6.19
341.707	5.55
342.078	5.43
342.449	5.22
342.82	5.04
343.191	5.3
343.562	5.55
343.933	5.48
344.303	5.72
344.674	5.75
345.045	5.51
345.416	5.49
345.786	5.67
346.157	5.26
346.527	5.71
346.898	5.66
347.268	5.92
347.639	5.86
348.009	5.29
348.38	5.59
348.75	5.54
349.12	5.38
349.49	5.12
349.861	5.9
350.231	4.99
350.601	5.32
350.971	5.77
351.341	5.73
351.711	6
352.081	5.32
352.45	5.73
352.82	5.67
353.19	5.93
353.56	5.53
353.929	5.36
354.299	5.61
354.669	5.21
355.038	5.32
355.408	5.69
355.777	5.77
356.147	5.37
356.516	5.53
356.885	5.58
357.254	5.27
357.624	5.94
357.993	5.28
358.362	5.5
358.731	5.14
359.1	5.02
359.469	5.31
359.838	5.25
360.207	5.49
360.576	5.62
360.945	5.4
361.314	5.43
361.682	5.78
362.051	5.42
362.42	5.44
362.788	5.58
363.157	5.42
363.525	5.19
363.894	5.44
364.262	5.4
364.631	5.41
364.999	5.61
365.367	5.55
365.735	5.51
366.104	5.52
366.472	5.61
366.84	5.64
367.208	5.6
367.576	5.35
367.944	5.18
368.312	5.59
368.68	5.55
369.048	5.73
369.416	5.69
369.783	5.67
370.151	5.73
370.519	5.44
370.886	5.75
371.254	5.58
371.621	5.89
371.989	5.44
372.356	5.65
372.724	5.94
373.091	5.52
373.458	5.48
373.826	5.59
374.193	5.36
374.56	5.58
374.927	5.47
375.294	5.52
375.661	5.45
376.028	5.75
376.395	6.04
376.762	5.43
377.129	5.47
377.496	5.67
377.863	5.53
378.229	5.64
378.596	5.61
378.963	5.67
379.329	5.64
379.696	5.79
380.062	5.75
380.429	5.26
380.795	5.48
381.161	5.46
381.528	5.93
381.894	5.51
382.26	5.74
382.626	5.81
382.993	5.64
383.359	5.78
383.725	5.97
384.091	5.79
384.457	5.47
384.823	5.86
385.188	5.95
385.554	5.37
385.92	5.61
386.286	5.96
386.651	5.47
387.017	5.57
387.383	5.75
387.748	5.5
388.114	5.67
388.479	5.9
388.845	5.72
389.21	5.54
389.575	5.28
389.94	5.6
390.306	5.65
390.671	5.64
391.036	5.59
391.401	5.89
391.766	5.68
392.131	5.61
392.496	5.65
392.861	5.74
393.226	5.61
393.591	5.66
393.956	5.79
394.32	5.63
394.685	5.48
395.05	5.83
395.414	5.87
395.779	5.4
396.143	5.56
396.508	5.46
396.872	5.88
397.236	5.69
397.601	5.82
397.965	5.56
398.329	5.55
398.694	5.8
399.058	5.53
399.422	5.6
399.786	5.68
400.15	5.76
400.514	5.85
400.878	5.91
401.242	6.09
401.605	5.99
401.969	5.67
402.333	5.87
402.697	5.74
403.06	5.71
403.424	5.95
403.787	5.81
404.151	5.55
404.514	5.85
404.878	5.77
405.241	5.87
405.604	5.65
405.968	5.87
406.331	5.62
406.694	5.72
407.057	5.6
407.42	5.91
407.783	5.72
408.146	5.56
408.509	5.7
408.872	6.04
409.235	5.9
409.598	5.9
409.961	5.87
410.323	5.8
410.686	5.4
411.049	5.93
411.411	5.89
411.774	5.6
412.136	5.84
412.499	5.8
412.861	5.92
413.223	6.03
413.586	5.72
413.948	6.01
414.31	6.07
414.672	5.76
415.035	5.81
415.397	5.9
415.759	5.81
416.121	5.84
416.483	6.12
416.845	5.67
417.206	5.97
417.568	5.93
417.93	5.73
418.292	5.57
418.653	5.85
419.015	5.57
419.377	5.65
419.738	5.66
420.1	5.6
420.461	5.59
420.822	5.62
421.184	5.76
421.545	5.82
421.906	5.63
422.267	5.62
422.629	5.8
422.99	5.59
423.351	5.72
423.712	5.61
424.073	5.76
424.434	5.72
424.795	5.66
425.155	5.72
425.516	5.64
425.877	5.67
426.238	5.65
426.598	5.7
426.959	5.67
427.32	5.68
427.68	5.82
428.041	5.73
428.401	5.91
428.761	5.79
429.122	5.7
429.482	5.79
429.842	5.85
430.202	5.91
430.563	6.03
430.923	6
431.283	5.88
431.643	6.1
432.003	5.91
432.363	5.8
432.722	5.99
433.082	5.97
433.442	5.94
433.802	6.12
434.161	5.82
434.521	6.01
434.881	6
435.24	5.92
435.6	5.91
435.959	5.95
436.319	5.86
436.678	5.98
437.037	5.94
437.396	5.98
437.756	5.91
438.115	5.83
438.474	5.99
438.833	5.88
439.192	5.88
439.551	5.97
439.91	5.96
440.269	6.04
440.628	5.93
440.987	6
441.345	5.89
441.704	5.9
442.063	5.93
442.421	5.79
442.78	5.86
443.138	5.94
443.497	6.05
443.855	5.94
444.214	5.86
444.572	6
444.93	6.08
445.288	5.96
445.647	6.09
446.005	5.82
446.363	5.87
446.721	5.99
447.079	6.07
447.437	5.85
447.795	5.85
448.153	5.88
448.51	5.92
448.868	5.82
449.226	5.81
449.584	5.9
449.941	5.92
450.299	5.9
450.656	5.87
451.014	6.05
451.371	6.07
451.729	6.03
452.086	6.12
452.443	6.1
452.801	6.04
453.158	6.27
453.515	6.06
453.872	6.15
454.229	6.19
454.586	6.16
454.943	6.1
455.3	6.13
455.657	6.19
456.014	6.03
456.371	6.09
456.727	6.2
457.084	6.17
457.441	6.06
457.797	6.07
458.154	6.02
458.51	6.1
458.867	6.18
459.223	6.09
459.58	6.02
459.936	6.24
460.292	6.27
460.648	6.04
461.005	5.98
461.361	6.03
461.717	5.9
462.073	6.05
462.429	6.04
462.785	6.07
463.141	6.16
463.496	6.14
463.852	6.09
464.208	6.27
464.564	6.18
464.919	6.3
465.275	6.4
465.631	6.4
465.986	6.25
466.342	6.36
466.697	6.29
467.052	6.15
467.408	6.39
467.763	6.28
468.118	6.58
468.473	6.39
468.829	6.35
469.184	6.31
469.539	6.35
469.894	6.18
470.249	6.23
470.603	6.25
470.958	6.35
471.313	6.44
471.668	6.5
472.023	6.27
472.377	6.38
472.732	6.28
473.086	6.43
473.441	6.53
473.795	6.58
474.15	6.47
474.504	6.21
474.859	6.45
475.213	6.36
475.567	6.4
475.921	6.47
476.275	6.39
476.63	6.61
476.984	6.52
477.338	6.35
477.692	6.34
478.045	6.47
478.399	6.21
478.753	6.5
479.107	6.51
479.461	6.28
479.814	6.44
480.168	6.52
480.521	6.44
480.875	6.44
481.228	6.42
481.582	6.49
481.935	6.4
482.289	6.55
482.642	6.32
482.995	6.4
483.348	6.4
483.701	6.33
484.055	6.36
484.408	6.31
484.761	6.26
485.114	6.22
485.466	6.12
485.819	6
486.172	5.89
486.525	6
486.878	6.11
487.23	6.17
487.583	6.24
487.936	6.28
488.288	6.33
488.641	6.34
488.993	6.24
489.345	6.13
489.698	6.19
490.05	6.19
490.402	6.2
490.754	6.22
491.107	6.29
491.459	6.4
491.811	6.37
492.163	6.44
492.515	6.51
492.866	6.49
493.218	6.34
493.57	6.26
493.922	6.21
494.274	6.29
494.625	6.38
494.977	6.37
495.328	6.56
495.68	6.55
496.031	6.47
496.383	6.68
496.734	6.66
497.086	6.73
497.437	6.65
497.788	6.61
498.139	6.76
498.49	6.59
498.842	6.58
499.193	6.64
499.544	6.64
499.894	6.74
500.245	6.59
500.596	6.68
500.947	6.71
501.298	6.64
501.648	6.6
501.999	6.83
502.35	6.75
502.7	6.92
503.051	6.95
503.401	6.92
503.752	6.89
504.102	6.82
504.452	6.78
504.803	6.94
505.153	6.79
505.503	6.81
505.853	6.88
506.203	6.88
506.553	6.76
506.903	6.85
507.253	6.9
507.603	6.87
507.953	7.04
508.303	6.85
508.652	6.98
509.002	6.92
509.352	7.07
509.701	6.86
510.051	6.89
510.4	6.94
510.75	6.9
511.099	6.88
511.449	6.96
511.798	7.06
512.147	6.97
512.496	6.97
512.846	6.98
513.195	7.01
513.544	7.05
513.893	6.92
514.242	6.92
514.591	6.95
514.939	7.06
515.288	6.94
515.637	7.05
515.986	7.11
516.334	7.02
516.683	7.1
517.032	7.03
517.38	7.18
517.729	7.14
518.077	7.11
518.426	7.18
518.774	7.14
519.122	7.18
519.47	7.08
519.819	7.11
520.167	6.98
520.515	6.99
520.863	7.16
521.211	7.06
521.559	7.16
521.907	7.16
522.255	7.19
522.602	7.27
522.95	7.26
523.298	7.32
523.645	7.35
523.993	7.29
524.341	7.43
524.688	7.35
525.036	7.47
525.383	7.24
525.73	7.47
526.078	7.31
526.425	7.53
526.772	7.29
527.119	7.33
527.466	7.34
527.814	7.29
528.161	7.21
528.508	7.23
528.854	7.32
529.201	7.28
529.548	7.32
529.895	7.26
530.242	7.21
530.588	7.08
530.935	7.04
531.282	7.16
531.628	7.26
531.975	7.31
532.321	7.38
532.667	7.41
533.014	7.5
533.36	7.53
533.706	7.57
534.052	7.57
534.399	7.48
534.745	7.39
535.091	7.42
535.437	7.43
535.783	7.38
536.129	7.52
536.474	7.6
536.82	7.65
537.166	7.69
537.512	7.74
537.857	7.81
538.203	7.78
538.549	7.79
538.894	7.77
539.239	7.71
539.585	7.75
539.93	7.84
540.276	7.96
540.621	7.92
540.966	8
541.311	8.1
541.656	8.05
542.001	8
542.346	8.06
542.691	7.94
543.036	7.88
543.381	7.76
543.726	7.72
544.071	7.85
544.415	7.83
544.76	7.93
545.105	8.06
545.449	8
545.794	8.02
546.138	8.03
546.483	8.13
546.827	8.16
547.171	8.29
547.516	8.13
547.86	8.35
548.204	8.26
548.548	8.25
548.892	8.24
549.236	8.31
549.58	8.22
549.924	8.26
550.268	8.42
550.612	8.41
550.956	8.57
551.3	8.59
551.643	8.61
551.987	8.61
552.33	8.63
552.674	8.62
553.017	8.77
553.361	8.78
553.704	8.82
554.048	8.77
554.391	8.66
554.734	8.72
555.077	8.86
555.42	8.75
555.764	8.67
556.107	8.93
556.45	8.79
556.793	8.96
557.135	8.84
557.478	8.97
557.821	9.06
558.164	9.16
558.507	9.17
558.849	9.2
559.192	9.24
559.534	9.24
559.877	8.94
560.219	9.17
560.562	9.35
560.904	9.1
561.246	9.34
561.589	9.29
561.931	9.4
562.273	9.42
562.615	9.36
562.957	9.66
563.299	9.38
563.641	9.49
563.983	9.22
564.325	9.33
564.667	9.62
565.008	9.62
565.35	9.42
565.692	9.48
566.033	9.58
566.375	9.86
566.716	9.67
567.058	9.51
567.399	9.55
567.741	9.51
568.082	9.61
568.423	9.66
568.764	9.63
569.105	9.87
569.447	9.77
569.788	9.72
570.129	9.87
570.47	9.87
570.811	9.9
571.151	9.68
571.492	10.1
571.833	10.07
572.174	10.08
572.514	10.02
572.855	10.03
573.195	10.1
573.536	10.01
573.876	10.26
574.217	10
574.557	9.99
574.898	10.15
575.238	10.01
575.578	10.28
575.918	10.28
576.258	10.31
576.598	10.44
576.938	10.17
577.278	10.39
577.618	10.45
577.958	10.4
578.298	10.56
578.638	10.63
578.977	10.42
579.317	10.31
579.657	10.59
579.996	10.83
580.336	10.65
580.675	10.85
581.014	10.9
581.354	10.81
581.693	10.76
582.032	10.95
582.372	10.81
582.711	10.87
583.05	11.24
583.389	11.05
583.728	11.01
584.067	11.06
584.406	11.05
584.745	11.08
585.083	11.41
585.422	11.26
585.761	11.22
586.1	11.34
586.438	11.13
586.777	11.35
587.115	11.43
587.454	11.38
587.792	11.39
588.13	11.44
588.469	11.55
588.807	11.37
589.145	11.6
589.483	11.58
589.821	11.53
590.159	11.69
590.497	11.78
590.835	11.7
591.173	11.81
591.511	11.76
591.849	11.96
592.187	11.83
592.524	11.71
592.862	11.77
593.2	11.87
593.537	11.78
593.875	11.83
594.212	12.24
594.55	12.15
594.887	12.05
595.224	11.99
595.561	11.81
595.899	12.08
596.236	12.17
596.573	12.3
596.91	12.38
597.247	12.15
597.584	12.09
597.921	12.42
598.258	12.49
598.594	12.46
598.931	12.01
599.268	12.29
599.604	12.55
599.941	12.36
600.277	12.33
600.614	12.46
600.95	12.82
601.287	12.46
601.623	12.9
601.959	12.68
602.296	12.9
602.632	12.92
602.968	12.63
603.304	12.87
603.64	12.75
603.976	12.6
604.312	13.23
604.648	13.19
604.984	12.93
605.319	12.95
605.655	12.95
605.991	13.14
606.326	13.02
606.662	12.8
606.998	12.89
607.333	13.1
607.668	12.95
608.004	13.48
608.339	13.14
608.674	13.4
609.01	13.35
609.345	13.66
609.68	13.69
610.015	13.46
610.35	13.68
610.685	13.83
611.02	13.54
611.355	13.46
611.689	13.44
612.024	13.55
612.359	13.55
612.694	13.75
613.028	13.67
613.363	13.99
613.697	13.92
614.032	14.02
614.366	14.14
614.7	14.02
615.035	13.99
615.369	14.12
615.703	13.96
616.037	14.25
616.371	14.11
616.705	14.28
617.039	14.41
617.373	14.28
617.707	14.42
618.041	14.49
618.375	14.33
618.709	14.48
619.042	14.9
619.376	14.9
619.71	15.06
620.043	14.85
620.377	14.61
620.71	14.56
621.043	14.79
621.377	14.72
621.71	15.01
622.043	14.79
622.376	14.81
622.709	15.11
623.043	15.07
623.376	14.52
623.709	14.93
624.041	15.15
624.374	15.22
624.707	14.94
625.04	15.29
625.373	15.36
625.705	15.07
626.038	15.52
626.37	14.77
626.703	14.98
627.035	15.34
627.368	15.36
627.7	15.59
628.032	15.71
628.365	15.74
628.697	15.49
629.029	15.35
629.361	15.49
629.693	15.6
630.025	15.54
630.357	15.56
630.689	15.69
631.021	15.91
631.353	15.95
631.684	15.68
632.016	16.1
632.348	15.64
632.679	15.83
633.011	16.37
633.342	15.91
633.674	16.33
634.005	16.05
634.336	16.72
634.668	16.5
634.999	16.24
635.33	15.95
635.661	16.46
635.992	16.55
636.323	16.63
636.654	16.63
636.985	16.48
637.316	16.54
637.647	16.57
637.977	16.42
638.308	16.94
638.639	16.72
638.969	16.64
639.3	16.17
639.63	16.74
639.961	16.86
640.291	16.78
640.622	16.82
640.952	16.8
641.282	16.91
641.612	17.34
641.943	16.98
642.273	17.32
642.603	17.42
642.933	17.36
643.263	17.23
643.592	17.09
643.922	17.48
644.252	17.35
644.582	17.72
644.911	17.34
645.241	17.75
645.571	18.42
645.9	17.28
646.23	17.63
646.559	17.54
646.888	18.01
647.218	17.68
647.547	17.8
647.876	17.7
648.205	17.58
648.534	17.67
648.863	17.85
649.192	17.56
649.521	17.89
649.85	18.22
650.179	18.03
650.508	18.06
650.837	18.54
651.165	17.94
651.494	17.84
651.822	18.59
652.151	18.44
652.479	18.32
652.808	18.25
653.136	18.18
653.465	18.3
653.793	19.01
654.121	18.8
654.449	18.8
654.777	18.43
655.105	18.39
655.433	19.1
655.761	18.74
656.089	18.57
656.417	19.19
656.745	18.9
657.073	19.12
657.4	19.56
657.728	19.39
658.056	19.22
658.383	19.04
658.711	18.46
659.038	19.8
659.365	20
659.693	19.11
660.02	19.16
660.347	19.37
660.674	19.55
661.001	19.2
661.329	19.19
661.656	19.68
661.982	19.35
662.309	19.63
662.636	19.62
662.963	19.76
663.29	19.64
663.616	20.15
663.943	19.89
664.27	20.18
664.596	19.72
664.923	20.01
665.249	19.83
665.576	19.81
665.902	19.93
666.228	19.65
666.554	20.49
666.881	19.66
667.207	20.11
667.533	20.32
667.859	20.54
668.185	21.18
668.511	20.54
668.837	20.59
669.162	20.83
669.488	20.06
669.814	20.04
670.139	20.33
670.465	20.34
670.791	21.18
671.116	20.79
671.442	21.34
671.767	20.66
672.092	20.44
672.418	20.55
672.743	20.65
673.068	21.14
673.393	20.61
673.718	21.06
674.043	20.97
674.368	20.81
674.693	21.57
675.018	21.32
675.343	20.97
675.667	21.27
675.992	21.59
676.317	21.45
676.641	21.41
676.966	21.53
677.29	21.62
677.615	21.53
677.939	21.17
678.264	21.47
678.588	20.97
678.912	21.45
679.236	21.58
679.56	21.83
679.885	22
680.209	21.45
680.532	21.25
680.856	21.92
681.18	21.91
681.504	22.38
681.828	22.4
682.152	22.04
682.475	22.18
682.799	21.95
683.122	22.17
683.446	22.55
683.769	22.03
684.093	22.21
684.416	22.38
684.739	22.07
685.062	22.12
