Data from 0224_forehead_Reflection__4__107.txt Node

Date: Fri Oct 20 21:27:41 CDT 2023
User: ToomeyLab
Spectrometer: FLMS14357
Trigger mode: 0
Integration Time (sec): 1.000000E-2
Scans to average: 100
Electric dark correction enabled: true
Nonlinearity correction enabled: false
Boxcar width: 0
XAxis mode: Wavelengths
Number of Pixels in Spectrum: 2048
>>>>>Begin Spectral Data<<<<<
189.047	-607.77
189.435	-607.77
189.823	-607.77
190.211	136.13
190.599	213.2
190.987	212.61
191.375	193.4
191.763	181.85
192.151	-1160.87
192.538	6.52
192.926	5.36
193.314	46.29
193.702	1973.85
194.089	82.32
194.477	149.36
194.864	13.6
195.252	155.58
195.639	-3363.16
196.027	23.29
196.414	101.22
196.801	296.29
197.189	172.33
197.576	-220.28
197.963	-32.49
198.351	85.55
198.738	59.96
199.125	75.29
199.512	51.58
199.899	33.02
200.286	65.99
200.673	52.08
201.06	79.14
201.447	75.57
201.833	72.69
202.22	51.99
202.607	63.21
202.994	59.72
203.38	83.77
203.767	35.04
204.154	53.38
204.54	73.24
204.927	24.61
205.313	45.76
205.699	49.63
206.086	96.51
206.472	60.31
206.858	75.92
207.245	54.24
207.631	63.92
208.017	52.88
208.403	68.78
208.789	64.09
209.175	83.26
209.561	54.07
209.947	29.82
210.333	38.74
210.719	45.6
211.105	47.02
211.491	35
211.876	42.27
212.262	51.47
212.648	86.5
213.034	71.37
213.419	41.4
213.805	51.75
214.19	33.55
214.576	48.21
214.961	30.96
215.346	19.72
215.732	58.06
216.117	37.62
216.502	44.56
216.888	43.78
217.273	49.85
217.658	43.38
218.043	46.82
218.428	25.5
218.813	15.75
219.198	42.14
219.583	22.11
219.968	15.52
220.353	41.1
220.738	33.29
221.122	25.04
221.507	33.89
221.892	30.73
222.276	32.31
222.661	40.12
223.046	32.99
223.43	28.56
223.815	22.95
224.199	33.64
224.583	17.5
224.968	27.8
225.352	17.25
225.736	28.97
226.121	19.15
226.505	19.09
226.889	26.42
227.273	8.55
227.657	20.38
228.041	15.61
228.425	12.98
228.809	14.94
229.193	13.06
229.577	13.34
229.961	8.58
230.344	8.04
230.728	8.36
231.112	8.45
231.495	8.32
231.879	9.63
232.263	9.15
232.646	9.17
233.03	9.28
233.413	7.95
233.797	9.14
234.18	10.16
234.563	12.35
234.946	13.51
235.33	11.81
235.713	9.35
236.096	9.13
236.479	9.83
236.862	10.21
237.245	10.16
237.628	10.88
238.011	9.04
238.394	10.88
238.777	11.73
239.16	10.09
239.543	10.24
239.925	11.6
240.308	10.62
240.691	10.59
241.073	10.38
241.456	9.86
241.838	9.55
242.221	9.94
242.603	8.84
242.986	8.74
243.368	8.52
243.75	7.77
244.133	7.51
244.515	7.16
244.897	7.29
245.279	7.74
245.661	7.37
246.043	7.59
246.425	7.99
246.807	7.75
247.189	8.69
247.571	7.87
247.953	8.49
248.335	7.79
248.717	7.19
249.098	7.29
249.48	7.07
249.862	7.6
250.243	7.86
250.625	7.74
251.006	7.45
251.388	8.18
251.769	8.9
252.151	9.31
252.532	7.9
252.913	7.57
253.295	7.96
253.676	7.73
254.057	7.53
254.438	7.21
254.819	7.72
255.2	8.03
255.581	7.84
255.962	8.84
256.343	8.16
256.724	7.95
257.105	8.98
257.486	9.91
257.867	8.97
258.247	8.83
258.628	7.51
259.009	8.17
259.389	7.85
259.77	7.69
260.15	8.17
260.531	7.85
260.911	7.38
261.292	6.99
261.672	7.17
262.052	7.12
262.432	7.01
262.813	7
263.193	7.2
263.573	7.25
263.953	7.66
264.333	7.51
264.713	7.81
265.093	8.33
265.473	7.93
265.853	7.97
266.233	7.98
266.612	8.39
266.992	8.23
267.372	7.16
267.752	7.27
268.131	7.9
268.511	7.42
268.89	7.67
269.27	7.24
269.649	7.02
270.029	8.09
270.408	7.63
270.787	7.92
271.167	7.58
271.546	7.85
271.925	8.54
272.304	8.22
272.683	7.79
273.062	6.81
273.441	7.31
273.82	7.16
274.199	7.49
274.578	7.85
274.957	7.4
275.336	7.26
275.715	7.22
276.093	7
276.472	7.44
276.851	8.19
277.229	7.59
277.608	7.05
277.986	6.74
278.365	7.18
278.743	6.87
279.122	7.27
279.5	7.06
279.878	6.91
280.257	7.52
280.635	7.73
281.013	7.76
281.391	7.76
281.769	7.41
282.147	7.15
282.525	7.3
282.903	7.72
283.281	7.09
283.659	7.43
284.037	7.57
284.415	6.71
284.792	6.95
285.17	7.45
285.548	7.23
285.925	6.83
286.303	7.19
286.68	7.09
287.058	7.75
287.435	7.53
287.813	6.51
288.19	6.82
288.567	6.97
288.945	7.4
289.322	7.74
289.699	6.88
290.076	8.15
290.453	6.67
290.83	7.55
291.207	7.9
291.584	7.12
291.961	7.37
292.338	7.41
292.715	7.5
293.092	7.95
293.469	7.88
293.845	7.41
294.222	7.63
294.599	7.74
294.975	8.3
295.352	8.05
295.728	7.88
296.105	7.81
296.481	8.02
296.858	7.95
297.234	8.61
297.61	8.2
297.986	7.79
298.363	8.51
298.739	8.08
299.115	8.1
299.491	8.16
299.867	8.03
300.243	8.55
300.619	8.39
300.995	8.34
301.371	8.71
301.746	8.77
302.122	8.96
302.498	8.78
302.874	8.35
303.249	8.32
303.625	8.68
304	9.13
304.376	8.61
304.751	8.67
305.127	9.2
305.502	9.06
305.878	8.97
306.253	9.37
306.628	9.43
307.003	9.72
307.378	9.42
307.754	8.98
308.129	9.63
308.504	10.4
308.879	9.82
309.254	9.93
309.629	9.59
310.003	9.53
310.378	10.05
310.753	9.92
311.128	9.99
311.502	9.55
311.877	9.91
312.252	10.09
312.626	10.35
313.001	9.98
313.375	10.18
313.75	10.09
314.124	9.92
314.498	9.9
314.873	10
315.247	10.68
315.621	10.49
315.995	10.93
316.369	10.82
316.743	11.03
317.117	10.81
317.491	10.11
317.865	11.07
318.239	10.96
318.613	10.98
318.987	10.85
319.361	10.43
319.734	10.6
320.108	10.72
320.482	11.45
320.855	12.24
321.229	12.46
321.602	11.48
321.976	11.22
322.349	12.12
322.723	11.99
323.096	11.53
323.469	11.66
323.843	11.72
324.216	11.9
324.589	12.15
324.962	12.32
325.335	12.42
325.708	11.96
326.081	12.22
326.454	11.7
326.827	12.45
327.2	12.32
327.573	12.74
327.945	12.48
328.318	11.64
328.691	12.3
329.063	12.91
329.436	12.13
329.809	12.82
330.181	13.29
330.553	12.96
330.926	13.14
331.298	12.57
331.671	12.64
332.043	12.71
332.415	13.02
332.787	13.14
333.159	12.35
333.532	13.6
333.904	13.57
334.276	12.85
334.648	13.22
335.02	13.41
335.391	12.78
335.763	13.52
336.135	13.81
336.507	13.56
336.879	13.18
337.25	13.99
337.622	14.1
337.993	14.38
338.365	14.14
338.736	14.13
339.108	13.9
339.479	13.31
339.851	13.92
340.222	13.96
340.593	13.46
340.964	13.28
341.336	14.22
341.707	13.83
342.078	14.2
342.449	13.97
342.82	14.13
343.191	14.15
343.562	14.36
343.933	13.88
344.303	14.29
344.674	14.57
345.045	14.64
345.416	15.42
345.786	14.46
346.157	14.51
346.527	14.46
346.898	14.82
347.268	14.92
347.639	15.05
348.009	14.55
348.38	15.13
348.75	15.21
349.12	14.99
349.49	14.91
349.861	15.54
350.231	15.3
350.601	15.3
350.971	15.96
351.341	15.64
351.711	16.07
352.081	15.57
352.45	15.42
352.82	15.57
353.19	15.5
353.56	15.67
353.929	15.94
354.299	15.86
354.669	15.59
355.038	15.78
355.408	16.19
355.777	15.81
356.147	15.66
356.516	15.93
356.885	16.43
357.254	16.02
357.624	16.05
357.993	15.67
358.362	16.23
358.731	16.1
359.1	15.95
359.469	16.12
359.838	16.43
360.207	16.39
360.576	16.46
360.945	16.65
361.314	16.89
361.682	16.71
362.051	16.69
362.42	16.61
362.788	16.87
363.157	16.8
363.525	16.59
363.894	16.92
364.262	16.68
364.631	16.77
364.999	16.89
365.367	17.27
365.735	16.98
366.104	17.16
366.472	17.19
366.84	17.8
367.208	17.66
367.576	17.34
367.944	17.44
368.312	17.33
368.68	17.57
369.048	17.65
369.416	17.86
369.783	17.88
370.151	18.11
370.519	18.25
370.886	18.08
371.254	17.93
371.621	18.31
371.989	18.04
372.356	18.31
372.724	18.26
373.091	18.24
373.458	18.51
373.826	18.55
374.193	18.13
374.56	18.69
374.927	18.73
375.294	18.8
375.661	18.92
376.028	18.88
376.395	18.96
376.762	18.87
377.129	19
377.496	19.12
377.863	19.26
378.229	19.36
378.596	19.14
378.963	19.09
379.329	19.14
379.696	19.25
380.062	19.34
380.429	19.41
380.795	19.36
381.161	19.48
381.528	19.66
381.894	19.47
382.26	19.7
382.626	19.77
382.993	19.46
383.359	19.74
383.725	20.14
384.091	20.15
384.457	19.96
384.823	19.94
385.188	20.35
385.554	20.09
385.92	19.8
386.286	20.49
386.651	20.2
387.017	20.19
387.383	20.57
387.748	20.31
388.114	20.23
388.479	20.58
388.845	20.53
389.21	20.54
389.575	20.65
389.94	20.81
390.306	21.04
390.671	20.77
391.036	20.87
391.401	20.96
391.766	20.98
392.131	21.25
392.496	21.1
392.861	20.98
393.226	21.19
393.591	21.17
393.956	21.37
394.32	21.57
394.685	21.57
395.05	21.63
395.414	21.62
395.779	21.5
396.143	21.53
396.508	21.46
396.872	21.73
397.236	21.85
397.601	21.71
397.965	22.03
398.329	21.9
398.694	22.19
399.058	22.1
399.422	22.03
399.786	22.43
400.15	22.2
400.514	22.26
400.878	22.22
401.242	22.63
401.605	22.43
401.969	22.65
402.333	22.64
402.697	22.66
403.06	22.59
403.424	22.71
403.787	22.9
404.151	22.67
404.514	22.81
404.878	22.93
405.241	22.97
405.604	22.92
405.968	23.15
406.331	23.11
406.694	23.05
407.057	23.06
407.42	23.35
407.783	23.24
408.146	23.68
408.509	23.5
408.872	23.78
409.235	23.68
409.598	23.81
409.961	23.71
410.323	23.69
410.686	23.6
411.049	23.78
411.411	23.99
411.774	24.12
412.136	24.08
412.499	24.29
412.861	24.04
413.223	24.07
413.586	24.3
413.948	24.6
414.31	24.64
414.672	24.35
415.035	24.62
415.397	24.59
415.759	24.92
416.121	24.51
416.483	24.76
416.845	25.13
417.206	24.83
417.568	24.75
417.93	24.91
418.292	24.72
418.653	25.08
419.015	24.8
419.377	24.91
419.738	25.04
420.1	24.98
420.461	24.99
420.822	25.08
421.184	25.12
421.545	24.77
421.906	24.97
422.267	24.92
422.629	25.1
422.99	24.92
423.351	24.99
423.712	25.06
424.073	25.08
424.434	25.2
424.795	25.36
425.155	25.4
425.516	25.48
425.877	25.59
426.238	25.38
426.598	25.5
426.959	25.51
427.32	25.72
427.68	25.92
428.041	25.96
428.401	25.92
428.761	26.24
429.122	26.24
429.482	26.39
429.842	26.39
430.202	26.78
430.563	26.73
430.923	26.9
431.283	26.83
431.643	27
432.003	27.01
432.363	27.04
432.722	27.07
433.082	27.43
433.442	27.41
433.802	27.32
434.161	27.28
434.521	27.26
434.881	27.29
435.24	27.19
435.6	27.2
435.959	27.23
436.319	27.31
436.678	27.56
437.037	27.57
437.396	27.51
437.756	27.91
438.115	27.62
438.474	28.07
438.833	27.99
439.192	28.19
439.551	28.01
439.91	27.91
440.269	28.28
440.628	28.16
440.987	28.04
441.345	28.18
441.704	28.19
442.063	28.1
442.421	28.01
442.78	28.04
443.138	28.24
443.497	28.28
443.855	28.36
444.214	28.37
444.572	28.73
444.93	28.69
445.288	28.83
445.647	29.18
446.005	28.93
446.363	28.85
446.721	28.87
447.079	29.11
447.437	29
447.795	28.88
448.153	28.8
448.51	28.84
448.868	28.78
449.226	28.81
449.584	29.02
449.941	29.06
450.299	29.31
450.656	29.25
451.014	29.49
451.371	29.69
451.729	29.61
452.086	29.94
452.443	29.98
452.801	29.89
453.158	30.05
453.515	30.15
453.872	30.19
454.229	30.24
454.586	30.21
454.943	30.13
455.3	30.17
455.657	30.25
456.014	30.3
456.371	30.43
456.727	30.73
457.084	30.64
457.441	30.77
457.797	31.11
458.154	30.76
458.51	30.67
458.867	31.18
459.223	31.03
459.58	31.02
459.936	31.07
460.292	31.2
460.648	31.08
461.005	30.9
461.361	31
461.717	30.72
462.073	30.81
462.429	30.76
462.785	30.96
463.141	31.22
463.496	31.22
463.852	31.64
464.208	31.64
464.564	31.76
464.919	31.94
465.275	31.99
465.631	32.09
465.986	32.02
466.342	32.28
466.697	32.17
467.052	32.09
467.408	32.41
467.763	32.59
468.118	32.56
468.473	32.58
468.829	32.35
469.184	32.58
469.539	32.34
469.894	32.55
470.249	32.61
470.603	32.76
470.958	32.9
471.313	33.08
471.668	32.93
472.023	32.93
472.377	33.18
472.732	33.01
473.086	33.19
473.441	33.33
473.795	33.3
474.15	33.48
474.504	33.46
474.859	33.42
475.213	33.58
475.567	33.72
475.921	33.68
476.275	33.69
476.63	34.05
476.984	33.96
477.338	34
477.692	34.11
478.045	34.12
478.399	34.02
478.753	34.11
479.107	33.95
479.461	34.22
479.814	33.97
480.168	34.16
480.521	34.18
480.875	34.3
481.228	34.29
481.582	34.52
481.935	34.42
482.289	34.71
482.642	34.52
482.995	34.51
483.348	34.41
483.701	34.61
484.055	34.46
484.408	34.29
484.761	34.33
485.114	34.02
485.466	33.58
485.819	33.65
486.172	33.74
486.525	33.81
486.878	33.98
487.23	33.89
487.583	34.12
487.936	34.4
488.288	34.54
488.641	34.62
488.993	34.36
489.345	34.24
489.698	34.21
490.05	34.24
490.402	34.36
490.754	34.48
491.107	34.75
491.459	34.85
491.811	35.22
492.163	35.23
492.515	35.51
492.866	35.36
493.218	35.21
493.57	35.02
493.922	35.04
494.274	35.11
494.625	35.17
494.977	35.59
495.328	35.73
495.68	36.14
496.031	36.07
496.383	36.5
496.734	36.68
497.086	36.85
497.437	36.9
497.788	36.9
498.139	36.82
498.49	36.57
498.842	36.78
499.193	36.72
499.544	36.81
499.894	36.92
500.245	37.15
500.596	37.14
500.947	37.12
501.298	36.98
501.648	37
501.999	37.44
502.35	37.59
502.7	37.76
503.051	37.67
503.401	37.68
503.752	37.9
504.102	37.91
504.452	37.96
504.803	38.06
505.153	38.14
505.503	38.23
505.853	38.16
506.203	38.24
506.553	38.08
506.903	38.08
507.253	38.19
507.603	38.53
507.953	38.5
508.303	38.43
508.652	38.61
509.002	38.46
509.352	38.6
509.701	38.72
510.051	38.52
510.4	38.64
510.75	38.57
511.099	38.61
511.449	38.75
511.798	38.76
512.147	38.71
512.496	38.9
512.846	38.88
513.195	39.04
513.544	39.03
513.893	38.94
514.242	39.06
514.591	39.13
514.939	39.03
515.288	39.15
515.637	39.36
515.986	39.61
516.334	39.6
516.683	39.4
517.032	39.72
517.38	39.68
517.729	39.92
518.077	39.81
518.426	39.94
518.774	39.95
519.122	39.92
519.47	40.05
519.819	39.63
520.167	39.78
520.515	39.56
520.863	39.75
521.211	39.69
521.559	39.72
521.907	39.97
522.255	39.98
522.602	40.21
522.95	40.34
523.298	40.37
523.645	40.58
523.993	40.67
524.341	40.86
524.688	40.88
525.036	40.86
525.383	40.88
525.73	41.11
526.078	41
526.425	41.04
526.772	40.95
527.119	40.83
527.466	40.59
527.814	40.5
528.161	40.75
528.508	40.7
528.854	40.58
529.201	40.78
529.548	41.03
529.895	40.78
530.242	40.5
530.588	40.26
530.935	40.38
531.282	40.6
531.628	40.7
531.975	40.72
532.321	40.86
532.667	41.18
533.014	41.28
533.36	41.52
533.706	41.66
534.052	41.81
534.399	41.62
534.745	41.5
535.091	41.23
535.437	41.37
535.783	41.31
536.129	41.43
536.474	41.58
536.82	41.81
537.166	42.03
537.512	42.16
537.857	42.37
538.203	42.21
538.549	42.33
538.894	42.29
539.239	42.35
539.585	42.49
539.93	42.57
540.276	42.79
540.621	42.91
540.966	42.85
541.311	43.18
541.656	43.19
542.001	43.25
542.346	43.15
542.691	42.85
543.036	42.64
543.381	42.51
543.726	42.31
544.071	42.42
544.415	42.52
544.76	42.84
545.105	43.02
545.449	43.12
545.794	43.33
546.138	43.52
546.483	43.54
546.827	43.59
547.171	43.8
547.516	43.93
547.86	43.95
548.204	43.82
548.548	44.03
548.892	43.99
549.236	43.99
549.58	44.24
549.924	43.94
550.268	44.2
550.612	44.36
550.956	44.85
551.3	44.82
551.643	45.04
551.987	45.08
552.33	45.26
552.674	45.19
553.017	45.28
553.361	45.47
553.704	45.42
554.048	45.37
554.391	45.46
554.734	45.33
555.077	45.27
555.42	45.44
555.764	45.36
556.107	45.46
556.45	45.72
556.793	45.62
557.135	45.73
557.478	45.82
557.821	46.16
558.164	46.08
558.507	46.44
558.849	46.28
559.192	46.33
559.534	46.36
559.877	46.44
560.219	46.43
560.562	46.34
560.904	46.28
561.246	46.72
561.589	46.63
561.931	46.64
562.273	46.72
562.615	46.94
562.957	47.04
563.299	46.75
563.641	46.94
563.983	46.59
564.325	46.62
564.667	47.08
565.008	47.21
565.35	47.12
565.692	47.34
566.033	47.23
566.375	47.26
566.716	47.14
567.058	47.16
567.399	47.15
567.741	47.28
568.082	47.45
568.423	47.37
568.764	47.33
569.105	47.56
569.447	47.33
569.788	47.63
570.129	47.87
570.47	47.57
570.811	47.64
571.151	47.9
571.492	47.85
571.833	48.04
572.174	48.22
572.514	48.06
572.855	48.11
573.195	47.93
573.536	48.03
573.876	48.24
574.217	47.95
574.557	47.96
574.898	48.15
575.238	48.09
575.578	48.38
575.918	48.44
576.258	48.6
576.598	48.72
576.938	48.69
577.278	48.55
577.618	48.48
577.958	48.55
578.298	48.81
578.638	48.66
578.977	48.75
579.317	48.68
579.657	48.91
579.996	48.95
580.336	49.48
580.675	49.31
581.014	49.47
581.354	49.64
581.693	49.4
582.032	49.64
582.372	50.33
582.711	49.96
583.05	50.04
583.389	49.86
583.728	49.74
584.067	50.1
584.406	50.05
584.745	50
585.083	50.5
585.422	50.24
585.761	50.44
586.1	50.18
586.438	50.21
586.777	50.36
587.115	50.33
587.454	50.46
587.792	50.28
588.13	50.7
588.469	50.41
588.807	50.53
589.145	50.68
589.483	50.81
589.821	50.86
590.159	50.88
590.497	50.91
590.835	50.67
591.173	51.04
591.511	51.16
591.849	51.07
592.187	51.08
592.524	51.04
592.862	51.2
593.2	51.04
593.537	51.28
593.875	51.25
594.212	51.34
594.55	51.19
594.887	51.42
595.224	51.46
595.561	51.47
595.899	52.09
596.236	51.66
596.573	51.52
596.91	51.94
597.247	51.48
597.584	51.44
597.921	51.9
598.258	51.84
598.594	51.87
598.931	51.29
599.268	51.4
599.604	51.7
599.941	51.98
600.277	51.52
600.614	52
600.95	51.99
601.287	52.23
601.623	52.48
601.959	52.48
602.296	52.88
602.632	52.87
602.968	52.82
603.304	52.34
603.64	52.76
603.976	52.48
604.312	52.37
604.648	52.63
604.984	52.85
605.319	52.75
605.655	52.47
605.991	52.65
606.326	52.73
606.662	52.37
606.998	52.64
607.333	52.27
607.668	52.4
608.004	52.79
608.339	52.57
608.674	52.8
609.01	52.95
609.345	53.21
609.68	53.51
610.015	53.05
610.35	53.45
610.685	53.71
611.02	53.6
611.355	53.19
611.689	53.22
612.024	53.27
612.359	53.33
612.694	53.42
613.028	53.67
613.363	53.58
613.697	53.63
614.032	53.46
614.366	53.77
614.7	54.05
615.035	53.89
615.369	54.2
615.703	54.39
616.037	54.58
616.371	54.01
616.705	54.12
617.039	54.7
617.373	54.51
617.707	54.52
618.041	54.74
618.375	54.88
618.709	54.66
619.042	55.02
619.376	54.86
619.71	54.99
620.043	55.31
620.377	55.29
620.71	54.92
621.043	55.07
621.377	55.05
621.71	55.13
622.043	54.98
622.376	55.66
622.709	55.01
623.043	54.89
623.376	55.26
623.709	55.22
624.041	55.31
624.374	55.69
624.707	56.17
625.04	55.82
625.373	55.43
625.705	55.46
626.038	56.27
626.37	55.13
626.703	55.6
627.035	55.59
627.368	55.83
627.7	55.91
628.032	55.89
628.365	55.9
628.697	55.76
629.029	55.62
629.361	55.52
629.693	55.36
630.025	55.46
630.357	55.62
630.689	55.58
631.021	55.9
631.353	55.89
631.684	55.77
632.016	55.8
632.348	56.22
632.679	56.2
633.011	56.61
633.342	56.2
633.674	56.25
634.005	56.88
634.336	56.64
634.668	56.19
634.999	56.87
635.33	56.56
635.661	57.06
635.992	56.71
636.323	57.08
636.654	57
636.985	56.69
637.316	56.94
637.647	56.62
637.977	56.81
638.308	56.61
638.639	57.19
638.969	57
639.3	57.03
639.63	57.03
639.961	56.88
640.291	57
640.622	57.32
640.952	57.25
641.282	57.77
641.612	57.51
641.943	57.48
642.273	57.6
642.603	57.87
642.933	57.99
643.263	57.21
643.592	58.19
643.922	58.05
644.252	57.61
644.582	57.75
644.911	58.12
645.241	57.64
645.571	58.27
645.9	57.29
646.23	57.33
646.559	58.96
646.888	58.37
647.218	58.16
647.547	58.51
647.876	58.45
648.205	58.18
648.534	57.87
648.863	57.96
649.192	58.42
649.521	59.02
649.85	58.83
650.179	58.61
650.508	58.39
650.837	58.54
651.165	59.08
651.494	59.24
651.822	58.55
652.151	58.7
652.479	59.45
652.808	59.02
653.136	58.55
653.465	59.19
653.793	59.47
654.121	59.09
654.449	59
654.777	58.88
655.105	59.23
655.433	58.87
655.761	59.13
656.089	59.74
656.417	59.41
656.745	59.03
657.073	59.23
657.4	60.31
657.728	59.96
658.056	59.44
658.383	59.28
658.711	59.22
659.038	60.43
659.365	59.92
659.693	59.24
660.02	58.97
660.347	59.71
660.674	59.39
661.001	59.79
661.329	59.17
661.656	59.32
661.982	59.55
662.309	59.55
662.636	59.45
662.963	59.86
663.29	59.88
663.616	60.09
663.943	60.05
664.27	60.31
664.596	59.92
664.923	59.76
665.249	59.98
665.576	60.4
665.902	60.45
666.228	61
666.554	60.48
666.881	60.26
667.207	60.46
667.533	60.63
667.859	60.67
668.185	60.9
668.511	60.18
