Data from 0224_crown_Reflection__2__100.txt Node

Date: Fri Oct 20 21:26:02 CDT 2023
User: ToomeyLab
Spectrometer: FLMS14357
Trigger mode: 0
Integration Time (sec): 1.000000E-2
Scans to average: 100
Electric dark correction enabled: true
Nonlinearity correction enabled: false
Boxcar width: 0
XAxis mode: Wavelengths
Number of Pixels in Spectrum: 2048
>>>>>Begin Spectral Data<<<<<
189.047	351.81
189.435	351.81
189.823	351.81
190.211	43.99
190.599	23.34
190.987	168.92
191.375	17.17
191.763	-7.35
192.151	4421.74
192.538	-137.13
192.926	74.49
193.314	69.64
193.702	1106.15
194.089	63.95
194.477	180.7
194.864	7.07
195.252	73.01
195.639	5542.11
196.027	385.65
196.414	127.98
196.801	269.71
197.189	33.61
197.576	-4.1
197.963	-36.02
198.351	21.09
198.738	32.7
199.125	47.3
199.512	19.31
199.899	-2.1
200.286	-24.81
200.673	12.26
201.06	35.7
201.447	31.87
201.833	40.89
202.22	21.96
202.607	45.45
202.994	37.36
203.38	14.98
203.767	-8.83
204.154	21.09
204.54	54.76
204.927	32.28
205.313	16.78
205.699	53.58
206.086	31.8
206.472	46.16
206.858	35.2
207.245	8.98
207.631	42.82
208.017	30.46
208.403	23.18
208.789	40.3
209.175	-37.03
209.561	34.91
209.947	12.7
210.333	22.11
210.719	9.06
211.105	53.64
211.491	32.27
211.876	-34.37
212.262	9.13
212.648	12.76
213.034	19.27
213.419	34.99
213.805	14.8
214.19	10.59
214.576	2.63
214.961	35.36
215.346	29.18
215.732	22.42
216.117	-8.4
216.502	11.16
216.888	16.4
217.273	16.77
217.658	24.97
218.043	5.69
218.428	19.78
218.813	23.61
219.198	7.84
219.583	19.56
219.968	-21.38
220.353	19.13
220.738	12.14
221.122	17.48
221.507	-0.13
221.892	19.7
222.276	4.3
222.661	29.99
223.046	11.1
223.43	14.45
223.815	29.06
224.199	27.9
224.583	-0.74
224.968	11.12
225.352	7.51
225.736	10.94
226.121	17.7
226.505	10.44
226.889	15.29
227.273	16.06
227.657	8.24
228.041	17.23
228.425	8.84
228.809	12.04
229.193	9.11
229.577	9.35
229.961	7.21
230.344	8.84
230.728	7.81
231.112	8.95
231.495	7.87
231.879	8.23
232.263	8.52
232.646	7.74
233.03	7.22
233.413	8.67
233.797	8.08
234.18	7.8
234.563	10.79
234.946	12.6
235.33	9.27
235.713	6.47
236.096	9.51
236.479	9.62
236.862	8.41
237.245	7.5
237.628	9.41
238.011	8.79
238.394	7.85
238.777	10.04
239.16	7.8
239.543	8.71
239.925	10.37
240.308	8.51
240.691	10.08
241.073	6.94
241.456	9.59
241.838	8.25
242.221	9.38
242.603	8.5
242.986	8.08
243.368	8.45
243.75	7.83
244.133	7.47
244.515	7.4
244.897	7.16
245.279	8.06
245.661	7.93
246.043	8.04
246.425	7.94
246.807	7.7
247.189	7.24
247.571	7.03
247.953	7.86
248.335	7.97
248.717	7.28
249.098	7.42
249.48	7.32
249.862	7.78
250.243	7.9
250.625	7.44
251.006	7.86
251.388	7.17
251.769	7.85
252.151	6.66
252.532	8.07
252.913	8.61
253.295	6.8
253.676	7.11
254.057	7.2
254.438	7.63
254.819	7.48
255.2	7.7
255.581	7.18
255.962	7.55
256.343	7.35
256.724	6.65
257.105	7.1
257.486	7.93
257.867	7.88
258.247	7.45
258.628	6.27
259.009	7.37
259.389	7.37
259.77	6.69
260.15	7.29
260.531	7.5
260.911	7.36
261.292	6.59
261.672	6.66
262.052	6.78
262.432	6.85
262.813	6.69
263.193	7.01
263.573	6.83
263.953	6.3
264.333	7.05
264.713	7.05
265.093	7.48
265.473	7.82
265.853	6.37
266.233	6.98
266.612	6.6
266.992	7.3
267.372	6.8
267.752	6.75
268.131	6.67
268.511	6.94
268.89	6.08
269.27	6.29
269.649	6.58
270.029	6.94
270.408	7.19
270.787	7.44
271.167	6.71
271.546	7.3
271.925	7.51
272.304	7.18
272.683	7.16
273.062	6.21
273.441	6.47
273.82	6.53
274.199	6.72
274.578	6.61
274.957	6.71
275.336	6.67
275.715	6.72
276.093	5.96
276.472	6.54
276.851	6.27
277.229	6.49
277.608	5.65
277.986	5.98
278.365	6.61
278.743	6.4
279.122	6.74
279.5	6.31
279.878	5.99
280.257	6.91
280.635	6.54
281.013	6.44
281.391	7.16
281.769	6.16
282.147	5.98
282.525	6.76
282.903	6.49
283.281	6.5
283.659	6.12
284.037	6.5
284.415	5.83
284.792	5.87
285.17	6.77
285.548	6.23
285.925	6
286.303	6.04
286.68	5.84
287.058	6.79
287.435	6.43
287.813	5.59
288.19	6.24
288.567	6.15
288.945	6.31
289.322	6.92
289.699	5.83
290.076	6.79
290.453	6.02
290.83	6.47
291.207	6.69
291.584	5.58
291.961	6.01
292.338	6.17
292.715	6.02
293.092	6.3
293.469	6.52
293.845	6.13
294.222	5.83
294.599	6.6
294.975	7.14
295.352	6.26
295.728	6.32
296.105	6.36
296.481	5.84
296.858	5.99
297.234	6.47
297.61	5.7
297.986	6.05
298.363	6.42
298.739	6.39
299.115	6.19
299.491	6.13
299.867	6.25
300.243	6.02
300.619	6.21
300.995	5.81
301.371	6.37
301.746	6.01
302.122	6.66
302.498	6.04
302.874	5.98
303.249	6.32
303.625	6.46
304	6.56
304.376	6.12
304.751	5.57
305.127	5.65
305.502	6.36
305.878	6.47
306.253	6.12
306.628	5.89
307.003	5.72
307.378	5.87
307.754	5.98
308.129	6.16
308.504	6.26
308.879	6.24
309.254	6.3
309.629	5.56
310.003	5.73
310.378	6.51
310.753	6.37
311.128	5.94
311.502	6.11
311.877	6.34
312.252	5.98
312.626	6.01
313.001	6.05
313.375	6.09
313.75	6.06
314.124	5.58
314.498	6.2
314.873	6.11
315.247	5.79
315.621	5.54
315.995	6.59
316.369	5.85
316.743	5.82
317.117	5.89
317.491	5.61
317.865	6.3
318.239	6.52
318.613	6.33
318.987	6.02
319.361	5.09
319.734	5.67
320.108	5.68
320.482	6.48
320.855	5.95
321.229	6.16
321.602	6
321.976	5.89
322.349	6.26
322.723	5.44
323.096	6
323.469	5.79
323.843	6.38
324.216	5.84
324.589	6.48
324.962	6.38
325.335	5.74
325.708	5.78
326.081	5.77
326.454	6.18
326.827	6.46
327.2	6.37
327.573	6.05
327.945	5.64
328.318	5.87
328.691	5.81
329.063	6.34
329.436	5.32
329.809	5.78
330.181	5.77
330.553	6.44
330.926	5.84
331.298	5.7
331.671	5.88
332.043	5.68
332.415	6.26
332.787	6.02
333.159	5.86
333.532	6.16
333.904	6.36
334.276	5.62
334.648	6
335.02	6.32
335.391	5.91
335.763	6.37
336.135	5.76
336.507	5.84
336.879	5.6
337.25	6.27
337.622	5.6
337.993	6.39
338.365	5.93
338.736	6.01
339.108	5.91
339.479	5.27
339.851	5.5
340.222	5.64
340.593	5.48
340.964	5.69
341.336	5.81
341.707	5.97
342.078	5.75
342.449	5.63
342.82	5.72
343.191	5.83
343.562	5.79
343.933	5.82
344.303	5.73
344.674	6.2
345.045	5.76
345.416	5.99
345.786	5.86
346.157	5.7
346.527	5.93
346.898	5.98
347.268	6
347.639	5.97
348.009	5.74
348.38	5.62
348.75	5.68
349.12	5.95
349.49	5.63
349.861	6.17
350.231	5.86
350.601	5.95
350.971	6.25
351.341	5.66
351.711	6.09
352.081	5.92
352.45	5.94
352.82	5.97
353.19	6.06
353.56	6.26
353.929	6.06
354.299	5.86
354.669	5.98
355.038	6.14
355.408	5.87
355.777	5.57
356.147	5.72
356.516	5.4
356.885	5.83
357.254	5.83
357.624	5.69
357.993	5.43
358.362	5.91
358.731	5.75
359.1	5.14
359.469	5.39
359.838	5.74
360.207	5.59
360.576	6.06
360.945	5.76
361.314	5.99
361.682	5.91
362.051	5.87
362.42	5.95
362.788	5.97
363.157	5.89
363.525	5.72
363.894	5.5
364.262	5.66
364.631	5.57
364.999	5.6
365.367	5.99
365.735	5.99
366.104	5.63
366.472	6.04
366.84	5.91
367.208	6.07
367.576	5.65
367.944	5.8
368.312	5.7
368.68	6.19
369.048	5.95
369.416	6.18
369.783	5.84
370.151	5.97
370.519	6.03
370.886	5.93
371.254	6.16
371.621	6.19
371.989	5.58
372.356	5.83
372.724	5.99
373.091	5.71
373.458	5.65
373.826	5.79
374.193	5.58
374.56	5.76
374.927	5.74
375.294	5.81
375.661	6.07
376.028	6.36
376.395	6.37
376.762	5.91
377.129	6.15
377.496	5.74
377.863	5.89
378.229	6.15
378.596	5.95
378.963	6.07
379.329	5.89
379.696	5.83
380.062	5.9
380.429	5.69
380.795	5.78
381.161	5.81
381.528	6.5
381.894	5.92
382.26	5.82
382.626	6.32
382.993	5.91
383.359	5.81
383.725	5.99
384.091	5.89
384.457	5.95
384.823	5.93
385.188	6.04
385.554	5.84
385.92	6.1
386.286	6.25
386.651	5.68
387.017	6.1
387.383	6.11
387.748	6.04
388.114	5.74
388.479	5.98
388.845	6.24
389.21	6.01
389.575	5.56
389.94	5.82
390.306	5.99
390.671	6.04
391.036	5.96
391.401	6.1
391.766	6.09
392.131	5.97
392.496	6.24
392.861	6.18
393.226	6.01
393.591	6.06
393.956	5.86
394.32	6.05
394.685	6.15
395.05	6.28
395.414	6.09
395.779	6.01
396.143	5.94
396.508	6.04
396.872	5.88
397.236	6.15
397.601	6.05
397.965	5.83
398.329	5.99
398.694	6.2
399.058	5.84
399.422	6.19
399.786	5.92
400.15	5.94
400.514	5.91
400.878	6.2
401.242	6.32
401.605	6.09
401.969	6
402.333	5.95
402.697	6.09
403.06	6.02
403.424	6.18
403.787	6.06
404.151	6.02
404.514	6.16
404.878	6.26
405.241	6.18
405.604	6.16
405.968	6.11
406.331	6
406.694	6.15
407.057	6.04
407.42	6.25
407.783	6.25
408.146	6.17
408.509	6.13
408.872	6.29
409.235	6.07
409.598	6.16
409.961	6.35
410.323	6.04
410.686	5.79
411.049	6.09
411.411	6.23
411.774	6.26
412.136	6.01
412.499	5.95
412.861	6.2
413.223	6.04
413.586	6.32
413.948	6.09
414.31	6.26
414.672	6.16
415.035	6.17
415.397	6.3
415.759	6.21
416.121	6.2
416.483	6.2
416.845	6.13
417.206	6.17
417.568	6.18
417.93	6.3
418.292	5.81
418.653	6.02
419.015	6.09
419.377	6.17
419.738	6.07
420.1	6.06
420.461	6.06
420.822	6.06
421.184	6.05
421.545	6.01
421.906	6.02
422.267	6.01
422.629	6.05
422.99	5.96
423.351	6.08
423.712	5.98
424.073	5.97
424.434	6.09
424.795	6.04
425.155	6.03
425.516	6.06
425.877	6.16
426.238	5.9
426.598	6.07
426.959	5.94
427.32	6.03
427.68	6.15
428.041	6.06
428.401	6.15
428.761	6.1
429.122	6.14
429.482	6.09
429.842	6.1
430.202	6.2
430.563	6.16
430.923	6.24
431.283	6.12
431.643	6.45
432.003	6.31
432.363	6.35
432.722	6.33
433.082	6.26
433.442	6.36
433.802	6.31
434.161	6.1
434.521	6.31
434.881	6.26
435.24	6.39
435.6	6.27
435.959	6.2
436.319	6.25
436.678	6.45
437.037	6.14
437.396	6.16
437.756	6.24
438.115	6.17
438.474	6.42
438.833	6.48
439.192	6.16
439.551	6.26
439.91	6.13
440.269	6.37
440.628	6.34
440.987	6.22
441.345	6.34
441.704	6.17
442.063	6.33
442.421	6.16
442.78	6.31
443.138	6.33
443.497	6.25
443.855	6.39
444.214	6.3
444.572	6.29
444.93	6.29
445.288	6.31
445.647	6.55
446.005	6.25
446.363	6.49
446.721	6.26
447.079	6.48
447.437	6.21
447.795	6.16
448.153	6.3
448.51	6.27
448.868	6.23
449.226	6.2
449.584	6.25
449.941	6.17
450.299	6.32
450.656	6.19
451.014	6.35
451.371	6.48
451.729	6.28
452.086	6.38
452.443	6.4
452.801	6.5
453.158	6.65
453.515	6.4
453.872	6.54
454.229	6.45
454.586	6.48
454.943	6.34
455.3	6.31
455.657	6.47
456.014	6.35
456.371	6.46
456.727	6.43
457.084	6.53
457.441	6.58
457.797	6.5
458.154	6.35
458.51	6.43
458.867	6.52
459.223	6.41
459.58	6.46
459.936	6.48
460.292	6.52
460.648	6.29
461.005	6.33
461.361	6.37
461.717	6.24
462.073	6.33
462.429	6.25
462.785	6.35
463.141	6.4
463.496	6.34
463.852	6.55
464.208	6.69
464.564	6.6
464.919	6.5
465.275	6.68
465.631	6.76
465.986	6.64
466.342	6.54
466.697	6.53
467.052	6.43
467.408	6.7
467.763	6.59
468.118	6.78
468.473	6.57
468.829	6.46
469.184	6.53
469.539	6.52
469.894	6.55
470.249	6.67
470.603	6.66
470.958	6.71
471.313	6.75
471.668	6.68
472.023	6.7
472.377	6.56
472.732	6.46
473.086	6.66
473.441	6.91
473.795	6.75
474.15	6.58
474.504	6.47
474.859	6.7
475.213	6.63
475.567	6.57
475.921	6.66
476.275	6.7
476.63	6.83
476.984	6.74
477.338	6.7
477.692	6.6
478.045	6.58
478.399	6.54
478.753	6.61
479.107	6.54
479.461	6.62
479.814	6.74
480.168	6.77
480.521	6.67
480.875	6.68
481.228	6.6
481.582	6.78
481.935	6.62
482.289	6.62
482.642	6.53
482.995	6.53
483.348	6.62
483.701	6.6
484.055	6.57
484.408	6.5
484.761	6.49
485.114	6.4
485.466	6.36
485.819	6.27
486.172	6.16
486.525	6.19
486.878	6.26
487.23	6.27
487.583	6.32
487.936	6.45
488.288	6.49
488.641	6.45
488.993	6.37
489.345	6.35
489.698	6.36
490.05	6.32
490.402	6.31
490.754	6.38
491.107	6.39
491.459	6.48
491.811	6.5
492.163	6.6
492.515	6.6
492.866	6.59
493.218	6.51
493.57	6.42
493.922	6.37
494.274	6.43
494.625	6.44
494.977	6.49
495.328	6.63
495.68	6.69
496.031	6.56
496.383	6.8
496.734	6.79
497.086	6.73
497.437	6.78
497.788	6.72
498.139	6.84
498.49	6.69
498.842	6.54
499.193	6.79
499.544	6.72
499.894	6.65
500.245	6.7
500.596	6.7
500.947	6.75
501.298	6.71
501.648	6.74
501.999	6.69
502.35	6.81
502.7	6.85
503.051	6.85
503.401	6.88
503.752	6.82
504.102	6.9
504.452	6.74
504.803	6.79
505.153	6.83
505.503	6.89
505.853	6.91
506.203	6.71
506.553	6.71
506.903	6.74
507.253	6.8
507.603	6.78
507.953	6.77
508.303	6.71
508.652	6.83
509.002	6.92
509.352	6.94
509.701	6.8
510.051	6.73
510.4	6.82
510.75	6.72
511.099	6.64
511.449	6.7
511.798	6.85
512.147	6.78
512.496	6.87
512.846	6.74
513.195	6.92
513.544	6.81
513.893	6.67
514.242	6.81
514.591	6.78
514.939	6.74
515.288	6.79
515.637	6.93
515.986	7
516.334	6.73
516.683	6.89
517.032	6.77
517.38	6.92
517.729	6.89
518.077	6.89
518.426	6.72
518.774	6.83
519.122	6.87
519.47	6.79
519.819	6.81
520.167	6.79
520.515	6.78
520.863	6.84
521.211	6.69
521.559	6.79
521.907	6.7
522.255	6.81
522.602	6.97
522.95	6.77
523.298	6.93
523.645	6.92
523.993	6.81
524.341	6.89
524.688	6.89
525.036	6.82
525.383	6.92
525.73	6.97
526.078	6.82
526.425	6.88
526.772	6.87
527.119	6.85
527.466	6.73
527.814	6.85
528.161	6.78
528.508	6.75
528.854	6.7
529.201	6.67
529.548	6.79
529.895	6.7
530.242	6.65
530.588	6.52
530.935	6.5
531.282	6.55
531.628	6.63
531.975	6.59
532.321	6.71
532.667	6.74
533.014	6.85
533.36	6.84
533.706	6.93
534.052	6.82
534.399	6.75
534.745	6.7
535.091	6.75
535.437	6.79
535.783	6.66
536.129	6.78
536.474	6.78
536.82	6.84
537.166	6.88
537.512	6.93
537.857	6.93
538.203	6.83
538.549	6.96
538.894	6.84
539.239	6.84
539.585	6.78
539.93	6.93
540.276	7.02
540.621	6.92
540.966	7.07
541.311	7.03
541.656	7.02
542.001	7.01
542.346	7.04
542.691	6.84
543.036	6.77
543.381	6.78
543.726	6.65
544.071	6.76
544.415	6.81
544.76	6.78
545.105	6.86
545.449	6.88
545.794	6.94
546.138	6.93
546.483	6.96
546.827	7
547.171	7.12
547.516	6.9
547.86	6.93
548.204	6.96
548.548	6.97
548.892	7.01
549.236	6.98
549.58	6.96
549.924	6.91
550.268	6.98
550.612	7.12
550.956	7.26
551.3	7.19
551.643	7.16
551.987	7.29
552.33	7.05
552.674	7.17
553.017	7.21
553.361	7.11
553.704	7.26
554.048	7
554.391	7.24
554.734	7.15
555.077	7.22
555.42	7.15
555.764	6.99
556.107	7.29
556.45	7.07
556.793	7.03
557.135	7.16
557.478	7.13
557.821	7.34
558.164	7.28
558.507	7.18
558.849	7.4
559.192	7.41
559.534	7.41
559.877	7
560.219	7.22
560.562	7.21
560.904	7.05
561.246	7.22
561.589	7.19
561.931	7.31
562.273	7.21
562.615	7.43
562.957	7.24
563.299	7.22
563.641	7.35
563.983	6.97
564.325	7.2
564.667	7.29
565.008	7.09
565.35	7.35
565.692	7.28
566.033	7.31
566.375	7.3
566.716	7.54
567.058	7.29
567.399	7.36
567.741	7.21
568.082	7.27
568.423	7.26
568.764	7.14
569.105	7.25
569.447	7.31
569.788	7.19
570.129	7.27
570.47	7.42
570.811	7.37
571.151	7.24
571.492	7.42
571.833	7.42
572.174	7.37
572.514	7.25
572.855	7.29
573.195	7.31
573.536	7.24
573.876	7.41
574.217	7.29
574.557	7.24
574.898	7.16
575.238	7.21
575.578	7.34
575.918	7.33
576.258	7.37
576.598	7.44
576.938	7.27
577.278	7.46
577.618	7.14
577.958	7.17
578.298	7.2
578.638	7.38
578.977	7.19
579.317	7.36
579.657	7.31
579.996	7.47
580.336	7.57
580.675	7.42
581.014	7.33
581.354	7.46
581.693	7.4
582.032	7.31
582.372	7.51
582.711	7.67
583.05	7.65
583.389	7.27
583.728	7.49
584.067	7.36
584.406	7.58
584.745	7.31
585.083	7.45
585.422	7.53
585.761	7.5
586.1	7.77
586.438	7.32
586.777	7.54
587.115	7.71
587.454	7.5
587.792	7.48
588.13	7.7
588.469	7.5
588.807	7.44
589.145	7.45
589.483	7.5
589.821	7.52
590.159	7.51
590.497	7.72
590.835	7.56
591.173	7.49
591.511	7.94
591.849	7.55
592.187	7.44
592.524	7.36
592.862	7.56
593.2	7.62
593.537	7.42
593.875	7.52
594.212	7.7
594.55	7.71
594.887	7.87
595.224	7.49
595.561	7.81
595.899	7.31
596.236	7.61
596.573	7.7
596.91	7.83
597.247	7.52
597.584	7.43
597.921	7.55
598.258	7.76
598.594	7.54
598.931	7.48
599.268	7.37
599.604	7.63
599.941	7.54
600.277	7.53
600.614	7.53
600.95	7.63
601.287	7.4
601.623	7.65
601.959	7.81
602.296	7.49
602.632	7.49
602.968	7.4
603.304	7.75
603.64	7.54
603.976	7.61
604.312	7.64
604.648	8.06
604.984	7.84
605.319	7.71
605.655	7.58
605.991	7.58
606.326	7.7
606.662	7.47
606.998	7.42
607.333	7.45
607.668	7.51
608.004	7.64
608.339	7.59
608.674	7.62
609.01	7.5
609.345	7.86
609.68	7.93
610.015	7.63
610.35	7.61
610.685	7.79
611.02	7.74
611.355	7.61
611.689	7.5
612.024	7.93
612.359	7.72
612.694	7.58
613.028	7.82
613.363	7.62
613.697	7.71
614.032	7.73
614.366	7.6
614.7	7.69
615.035	7.75
615.369	7.9
615.703	7.96
616.037	7.73
616.371	7.86
616.705	7.92
617.039	7.59
617.373	7.81
617.707	8.04
618.041	7.83
618.375	7.97
618.709	7.91
619.042	8.15
619.376	8.12
619.71	8.07
620.043	7.9
620.377	8.09
620.71	8.12
621.043	8.12
621.377	7.94
621.71	7.77
622.043	7.95
622.376	8.32
622.709	8.23
623.043	8.01
623.376	7.88
623.709	7.54
624.041	7.47
624.374	8.02
624.707	7.76
625.04	7.9
625.373	7.84
625.705	7.74
626.038	8.2
626.37	7.72
626.703	7.75
627.035	7.88
627.368	7.84
627.7	8.25
628.032	7.96
628.365	8.29
628.697	8.13
629.029	7.94
629.361	7.85
629.693	7.68
630.025	7.88
630.357	8.12
630.689	7.97
631.021	8.2
631.353	7.96
631.684	7.73
632.016	8.31
632.348	8.15
632.679	7.89
633.011	7.92
633.342	7.96
633.674	8.31
634.005	7.94
634.336	8.67
634.668	7.78
634.999	7.91
635.33	7.7
635.661	8.49
635.992	8.06
636.323	8.56
636.654	8.13
636.985	8.24
637.316	8.24
637.647	7.91
637.977	7.39
638.308	7.99
638.639	7.87
638.969	8
639.3	8
639.63	8.07
639.961	8.04
640.291	8.12
640.622	8.45
640.952	8.32
641.282	8.07
641.612	8.22
641.943	8.72
642.273	8.12
642.603	8.67
642.933	8.18
643.263	8.52
643.592	8.13
643.922	8.84
644.252	7.75
644.582	8.03
644.911	8.47
645.241	8.59
645.571	9.04
645.9	8.15
646.23	8.03
646.559	8.31
646.888	8.84
647.218	8.31
647.547	7.95
647.876	8.47
648.205	8.38
648.534	8.52
648.863	8.16
649.192	8.3
649.521	8.36
649.85	8.21
650.179	8.07
650.508	7.9
650.837	8.49
651.165	8.64
651.494	8.19
651.822	8.46
652.151	8.89
652.479	8.44
652.808	8.11
653.136	8.34
653.465	8.78
653.793	8.38
654.121	8.53
654.449	8.47
654.777	8.41
655.105	8.36
655.433	9.19
655.761	8.88
656.089	8.91
656.417	8.64
656.745	8.67
657.073	8.58
657.4	9.29
657.728	8.62
658.056	8.5
658.383	8.29
658.711	8.22
659.038	8.7
659.365	9.06
659.693	8.31
660.02	8.63
660.347	8.59
660.674	8.66
661.001	8.15
661.329	8.72
661.656	8.72
661.982	8.4
662.309	8.39
662.636	8.19
662.963	8.89
663.29	8.85
663.616	8.76
663.943	8.12
664.27	8.83
664.596	9.05
664.923	8.63
665.249	8.77
665.576	8.44
665.902	8.43
666.228	8.92
666.554	8.77
666.881	8.52
667.207	9.04
667.533	9.02
667.859	8.97
668.185	9.11
668.511	9.05
668.837	8.89
669.162	9.04
669.488	8.54
669.814	8.46
670.139	8.58
670.465	9.27
670.791	9
671.116	8.27
671.442	8.59
671.767	8.51
672.092	8.77
672.418	8.76
672.743	8.97
673.068	9.04
673.393	9.24
673.718	8.59
674.043	8.81
674.368	8.7
674.693	9.07
675.018	9.35
675.343	8.46
675.667	9.05
675.992	9.02
676.317	9.32
676.641	9.05
676.966	8.59
677.29	8.87
677.615	9.04
677.939	8.25
678.264	9.24
678.588	8.61
678.912	9.6
679.236	9.08
679.56	8.91
679.885	9.23
680.209	9.17
680.532	8.64
680.856	9.09
681.18	8.42
681.504	9.05
681.828	9.59
682.152	9.07
682.475	8.76
682.799	8.98
683.122	9.22
683.446	9.73
683.769	9.36
684.093	9.3
684.416	9.27
684.739	8.77
685.062	8.4
685.386	8.72
685.709	9.16
686.032	9.12
686.355	9.19
686.678	8.55
687.001	9.31
687.324	9.01
687.646	9.27
687.969	9.5
688.292	9.48
688.614	9.44
688.937	9.81
689.26	8.99
689.582	9.21
689.904	8.7
690.227	9.19
690.549	9.37
690.871	10.08
691.194	9.79
691.516	9.32
691.838	9.72
692.16	9.31
692.482	9.33
692.804	9.42
693.126	8.85
