Data from 0224_forehead_Reflection__0__103.txt Node

Date: Fri Oct 20 21:26:58 CDT 2023
User: ToomeyLab
Spectrometer: FLMS14357
Trigger mode: 0
Integration Time (sec): 1.000000E-2
Scans to average: 100
Electric dark correction enabled: true
Nonlinearity correction enabled: false
Boxcar width: 0
XAxis mode: Wavelengths
Number of Pixels in Spectrum: 2048
>>>>>Begin Spectral Data<<<<<
189.047	566.58
189.435	566.58
189.823	566.58
190.211	42.81
190.599	-51.57
190.987	23.51
191.375	324.31
191.763	176.81
192.151	1332.61
192.538	-73.65
192.926	171.93
193.314	131.45
193.702	2088.46
194.089	71.11
194.477	4.97
194.864	131.72
195.252	46.49
195.639	-3541.23
196.027	-331.88
196.414	143.4
196.801	-2.09
197.189	-32.43
197.576	-92.96
197.963	-89.29
198.351	47.56
198.738	46.77
199.125	58.22
199.512	46.15
199.899	62.23
200.286	-5.62
200.673	42.64
201.06	9
201.447	87.32
201.833	85.62
202.22	49.37
202.607	59.97
202.994	66.45
203.38	37.34
203.767	31.76
204.154	59.26
204.54	67.28
204.927	54.89
205.313	43.56
205.699	91.1
206.086	59.95
206.472	70.8
206.858	66.29
207.245	39.84
207.631	55.16
208.017	24.02
208.403	40.43
208.789	54.27
209.175	15.74
209.561	39.76
209.947	21.59
210.333	23.79
210.719	38.89
211.105	50.05
211.491	24.94
211.876	50.98
212.262	58.68
212.648	60.51
213.034	41.16
213.419	51.48
213.805	31.71
214.19	27.7
214.576	15.36
214.961	30.67
215.346	34.89
215.732	29.15
216.117	12.6
216.502	42.86
216.888	32.3
217.273	39.97
217.658	39.67
218.043	15.41
218.428	11.88
218.813	36.37
219.198	31.67
219.583	21.42
219.968	40.07
220.353	42.06
220.738	39.48
221.122	19.68
221.507	17.56
221.892	40.39
222.276	25.08
222.661	35.03
223.046	33.72
223.43	17.74
223.815	37.86
224.199	31.36
224.583	10.21
224.968	20.27
225.352	21.5
225.736	18.01
226.121	28.43
226.505	20.37
226.889	17.48
227.273	17.58
227.657	23.25
228.041	22.44
228.425	12.67
228.809	16.03
229.193	11.59
229.577	14.09
229.961	9.64
230.344	10.99
230.728	8.99
231.112	8.47
231.495	9.31
231.879	9.83
232.263	10.46
232.646	9.11
233.03	8.22
233.413	7.56
233.797	8.69
234.18	10.59
234.563	13.45
234.946	11.36
235.33	12.66
235.713	10
236.096	11.14
236.479	9.61
236.862	10.69
237.245	9.51
237.628	10.21
238.011	11.96
238.394	9.95
238.777	10.42
239.16	8.66
239.543	9.97
239.925	13.95
240.308	9.21
240.691	10.04
241.073	12.75
241.456	10.84
241.838	8.57
242.221	11.12
242.603	9.01
242.986	9.86
243.368	9.59
243.75	9.25
244.133	8.39
244.515	8.59
244.897	8.12
245.279	8.65
245.661	8.23
246.043	9.03
246.425	9.16
246.807	9.85
247.189	8.45
247.571	8.36
247.953	9.05
248.335	8.75
248.717	8.04
249.098	7.81
249.48	8.11
249.862	8.26
250.243	8.65
250.625	8.97
251.006	8.95
251.388	8.13
251.769	9.17
252.151	7.91
252.532	9.14
252.913	9.69
253.295	7.88
253.676	9.29
254.057	8.59
254.438	8.94
254.819	8.74
255.2	9.24
255.581	8.91
255.962	9.45
256.343	9.09
256.724	8.29
257.105	10.29
257.486	10.47
257.867	9.47
258.247	10.41
258.628	9.08
259.009	9.39
259.389	8.89
259.77	8.72
260.15	7.73
260.531	8.61
260.911	8.46
261.292	8.18
261.672	7.92
262.052	8.31
262.432	7.9
262.813	7.93
263.193	8.37
263.573	7.83
263.953	7.92
264.333	9.54
264.713	8.8
265.093	9.01
265.473	8.74
265.853	8.32
266.233	8.75
266.612	8.59
266.992	8.68
267.372	9.17
267.752	8.62
268.131	8.9
268.511	8.62
268.89	8.89
269.27	8.22
269.649	8.15
270.029	7.96
270.408	8.24
270.787	8.32
271.167	7.95
271.546	9.2
271.925	9.12
272.304	8.61
272.683	8.67
273.062	8.35
273.441	8.18
273.82	8.01
274.199	8.09
274.578	8.22
274.957	8.22
275.336	8.71
275.715	8.19
276.093	7.8
276.472	8.6
276.851	8.9
277.229	8.03
277.608	7.64
277.986	7.76
278.365	8.51
278.743	8.65
279.122	7.64
279.5	7.92
279.878	8.1
280.257	8.08
280.635	8.39
281.013	9.07
281.391	8.7
281.769	8.01
282.147	8.08
282.525	8.58
282.903	8.1
283.281	8.32
283.659	8.59
284.037	8.56
284.415	7.87
284.792	7.92
285.17	8.14
285.548	8.12
285.925	7.94
286.303	7.83
286.68	7.97
287.058	8.58
287.435	8.04
287.813	7.47
288.19	7.94
288.567	7.97
288.945	8.07
289.322	8.76
289.699	7.96
290.076	8.4
290.453	8.41
290.83	8.59
291.207	8.41
291.584	8.23
291.961	8.43
292.338	8.42
292.715	8.47
293.092	8.3
293.469	8.4
293.845	8.22
294.222	9
294.599	8.45
294.975	10.15
295.352	9.27
295.728	8.69
296.105	8.56
296.481	9.4
296.858	9.39
297.234	9
297.61	8.96
297.986	9.33
298.363	9.53
298.739	9.32
299.115	9.12
299.491	9.51
299.867	9.51
300.243	9.69
300.619	9.31
300.995	9.58
301.371	9.86
301.746	9.7
302.122	10.09
302.498	9.78
302.874	9.65
303.249	10.23
303.625	10.15
304	10.9
304.376	10.17
304.751	9.83
305.127	10.39
305.502	11.04
305.878	10.75
306.253	10.52
306.628	10.8
307.003	11.02
307.378	10.47
307.754	10.56
308.129	11.3
308.504	11.4
308.879	11.17
309.254	11.42
309.629	10.79
310.003	10.61
310.378	12.16
310.753	11.33
311.128	11.62
311.502	11.56
311.877	11.5
312.252	11.56
312.626	11.82
313.001	11.22
313.375	11.53
313.75	11.61
314.124	11.75
314.498	11.53
314.873	12.35
315.247	12.08
315.621	12.63
315.995	12.92
316.369	12.1
316.743	12.99
317.117	12.38
317.491	12.56
317.865	12.76
318.239	13.57
318.613	12.97
318.987	12.86
319.361	12.8
319.734	12.96
320.108	12.82
320.482	14.03
320.855	13.57
321.229	14.07
321.602	13.68
321.976	13.1
322.349	14.38
322.723	13.95
323.096	13.61
323.469	13.41
323.843	14.35
324.216	14.25
324.589	14.16
324.962	14.48
325.335	14.1
325.708	14.1
326.081	14.18
326.454	14.58
326.827	14.63
327.2	14.44
327.573	14.93
327.945	14.59
328.318	14.22
328.691	14.16
329.063	15.07
329.436	14.65
329.809	14.77
330.181	15.24
330.553	14.94
330.926	15.08
331.298	14.97
331.671	15.28
332.043	14.41
332.415	14.55
332.787	15.4
333.159	14.53
333.532	15.33
333.904	15.43
334.276	14.77
334.648	15.66
335.02	15.22
335.391	14.96
335.763	15.72
336.135	15.96
336.507	15.68
336.879	15.65
337.25	15.71
337.622	16.31
337.993	16.14
338.365	16.19
338.736	16.6
339.108	16.43
339.479	16.16
339.851	16.11
340.222	15.81
340.593	16.08
340.964	16.7
341.336	16.96
341.707	16.59
342.078	16.47
342.449	16.73
342.82	16.55
343.191	16.4
343.562	17.13
343.933	16.17
344.303	16.94
344.674	17.55
345.045	16.95
345.416	17.06
345.786	17.29
346.157	17.34
346.527	16.93
346.898	17.2
347.268	17.17
347.639	17.34
348.009	16.9
348.38	17.47
348.75	16.96
349.12	17.07
349.49	17.3
349.861	17.85
350.231	17.29
350.601	17.31
350.971	18.68
351.341	18.18
351.711	18.19
352.081	17.91
352.45	18.01
352.82	18.27
353.19	18.19
353.56	18.93
353.929	17.95
354.299	18.46
354.669	18.61
355.038	18.5
355.408	18.15
355.777	18.55
356.147	18.59
356.516	18.41
356.885	19
357.254	18.82
357.624	18.55
357.993	18.88
358.362	18.85
358.731	18.45
359.1	18.75
359.469	18.88
359.838	18.95
360.207	19.56
360.576	19.18
360.945	18.92
361.314	19.4
361.682	19.48
362.051	19.29
362.42	19.14
362.788	19.61
363.157	19.66
363.525	19.3
363.894	19.28
364.262	19.37
364.631	19.48
364.999	19.72
365.367	20.05
365.735	19.61
366.104	19.94
366.472	20.04
366.84	20.07
367.208	20.01
367.576	20.08
367.944	20.34
368.312	20.15
368.68	20.49
369.048	20.54
369.416	20.84
369.783	20.82
370.151	20.55
370.519	20.73
370.886	21.11
371.254	21.18
371.621	21.44
371.989	20.71
372.356	21.17
372.724	21.45
373.091	21.33
373.458	21.27
373.826	21.28
374.193	21.23
374.56	21.51
374.927	21.42
375.294	21.83
375.661	21.83
376.028	21.89
376.395	21.7
376.762	21.91
377.129	22.04
377.496	21.81
377.863	22.18
378.229	22.05
378.596	21.81
378.963	22
379.329	22.22
379.696	22.6
380.062	22.4
380.429	22.14
380.795	22.51
381.161	22.49
381.528	23.14
381.894	22.87
382.26	22.5
382.626	22.72
382.993	22.9
383.359	22.95
383.725	23.02
384.091	23.43
384.457	23.24
384.823	23.35
385.188	23.56
385.554	23.23
385.92	23
386.286	23.37
386.651	23.22
387.017	23.91
387.383	23.67
387.748	23.33
388.114	23.72
388.479	23.69
388.845	23.83
389.21	23.82
389.575	23.77
389.94	24.11
390.306	23.86
390.671	24.01
391.036	24.49
391.401	24.45
391.766	24.42
392.131	24.43
392.496	24.31
392.861	24.54
393.226	24.77
393.591	24.34
393.956	24.58
394.32	25
394.685	24.78
395.05	24.85
395.414	25.09
395.779	24.95
396.143	24.82
396.508	24.7
396.872	25.19
397.236	25.35
397.601	25.16
397.965	25.41
398.329	25.22
398.694	25.61
399.058	25.51
399.422	25.63
399.786	25.65
400.15	25.79
400.514	25.92
400.878	26.12
401.242	26.17
401.605	25.88
401.969	25.82
402.333	26.06
402.697	26.19
403.06	26.17
403.424	26.44
403.787	26.47
404.151	26.49
404.514	26.75
404.878	26.61
405.241	26.61
405.604	26.29
405.968	26.6
406.331	26.75
406.694	26.88
407.057	26.65
407.42	27.12
407.783	27.04
408.146	27.19
408.509	27.12
408.872	27.35
409.235	27.04
409.598	27.55
409.961	27.51
410.323	27.47
410.686	27.34
411.049	27.58
411.411	27.71
411.774	27.85
412.136	27.91
412.499	27.97
412.861	28.06
413.223	28.04
413.586	28.07
413.948	28.13
414.31	28.22
414.672	28.31
415.035	28.35
415.397	28.61
415.759	28.62
416.121	28.32
416.483	28.57
416.845	28.71
417.206	28.65
417.568	28.65
417.93	28.6
418.292	28.58
418.653	28.86
419.015	28.74
419.377	28.75
419.738	28.71
420.1	28.89
420.461	28.83
420.822	28.86
421.184	28.76
421.545	28.93
421.906	28.91
422.267	28.9
422.629	28.98
422.99	28.97
423.351	28.79
423.712	28.9
424.073	29.03
424.434	29.21
424.795	29.26
425.155	29.3
425.516	29.37
425.877	29.36
426.238	29.28
426.598	29.32
426.959	29.44
427.32	29.64
427.68	29.81
428.041	29.9
428.401	29.91
428.761	30.15
429.122	30.18
429.482	30.44
429.842	30.58
430.202	30.66
430.563	30.81
430.923	30.88
431.283	30.94
431.643	31.16
432.003	31.17
432.363	31.14
432.722	31.24
433.082	31.56
433.442	31.38
433.802	31.59
434.161	31.34
434.521	31.48
434.881	31.38
435.24	31.64
435.6	31.49
435.959	31.57
436.319	31.53
436.678	31.56
437.037	31.66
437.396	31.74
437.756	32.27
438.115	32.09
438.474	32.14
438.833	32.36
439.192	32.42
439.551	32.38
439.91	32.32
440.269	32.55
440.628	32.46
440.987	32.47
441.345	32.36
441.704	32.41
442.063	32.55
442.421	32.55
442.78	32.42
443.138	32.76
443.497	32.83
443.855	32.95
444.214	32.73
444.572	33.02
444.93	33.5
445.288	33.32
445.647	33.51
446.005	33.41
446.363	33.35
446.721	33.47
447.079	33.59
447.437	33.42
447.795	33.6
448.153	33.42
448.51	33.31
448.868	33.46
449.226	33.47
449.584	33.52
449.941	33.73
450.299	33.83
450.656	34.11
451.014	34.17
451.371	34.5
451.729	34.52
452.086	34.59
452.443	34.7
452.801	34.86
453.158	34.96
453.515	34.73
453.872	34.87
454.229	34.93
454.586	35.04
454.943	34.94
455.3	35.12
455.657	35.22
456.014	35.29
456.371	35.29
456.727	35.57
457.084	35.61
457.441	35.75
457.797	35.78
458.154	35.56
458.51	35.56
458.867	36.15
459.223	35.99
459.58	35.99
459.936	35.96
460.292	35.94
460.648	35.99
461.005	35.93
461.361	35.84
461.717	35.86
462.073	35.88
462.429	35.75
462.785	35.96
463.141	36.38
463.496	36.21
463.852	36.52
464.208	36.87
464.564	36.87
464.919	36.98
465.275	37.35
465.631	37.21
465.986	37.14
466.342	37.28
466.697	37.32
467.052	37.22
467.408	37.49
467.763	37.57
468.118	37.73
468.473	37.7
468.829	37.53
469.184	37.87
469.539	37.95
469.894	37.62
470.249	37.96
470.603	38.34
470.958	38.11
471.313	38.21
471.668	38.29
472.023	38.47
472.377	38.49
472.732	38.37
473.086	38.55
473.441	38.6
473.795	38.73
474.15	38.91
474.504	38.74
474.859	38.85
475.213	38.7
475.567	38.99
475.921	39.12
476.275	39.15
476.63	39.45
476.984	39.32
477.338	39.49
477.692	39.59
478.045	39.66
478.399	39.44
478.753	39.59
479.107	39.7
479.461	39.81
479.814	39.65
480.168	39.79
480.521	39.94
480.875	40.05
481.228	39.98
481.582	40.36
481.935	40.02
482.289	40.07
482.642	40.29
482.995	40.19
483.348	40.1
483.701	40.19
484.055	40.16
484.408	39.96
484.761	39.97
485.114	39.65
485.466	39.32
485.819	39.46
486.172	39.63
486.525	39.66
486.878	39.67
487.23	39.71
487.583	39.82
487.936	39.98
488.288	40.24
488.641	40.35
488.993	40.06
489.345	40.04
489.698	40.09
490.05	40.25
490.402	40.22
490.754	40.31
491.107	40.53
491.459	40.75
491.811	41.1
492.163	41.26
492.515	41.38
492.866	41.33
493.218	41.31
493.57	41.08
493.922	41.06
494.274	41.15
494.625	41.23
494.977	41.57
495.328	41.93
495.68	42.32
496.031	42.37
496.383	42.66
496.734	42.7
497.086	42.87
497.437	42.99
497.788	42.85
498.139	42.91
498.49	42.85
498.842	43.05
499.193	42.85
499.544	43.14
499.894	43
500.245	43.3
500.596	43.31
500.947	43.24
501.298	43.55
501.648	43.57
501.999	43.65
502.35	43.94
502.7	44.11
503.051	43.94
503.401	44.13
503.752	44.19
504.102	44.44
504.452	44.42
504.803	44.47
505.153	44.8
505.503	44.55
505.853	44.69
506.203	44.86
506.553	44.58
506.903	44.65
507.253	44.88
507.603	45.17
507.953	44.94
508.303	45.01
508.652	45.1
509.002	45.18
509.352	45.31
509.701	45.3
510.051	45.38
510.4	45.47
510.75	45.16
511.099	45.23
511.449	45.43
511.798	45.37
512.147	45.51
512.496	45.61
512.846	45.73
513.195	45.81
513.544	45.71
513.893	45.8
514.242	45.78
514.591	46.05
514.939	45.96
515.288	46.2
515.637	46.37
515.986	46.39
516.334	46.32
516.683	46.43
517.032	46.5
517.38	46.67
517.729	46.89
518.077	46.73
518.426	46.9
518.774	46.97
519.122	46.9
519.47	46.85
519.819	46.79
520.167	46.77
520.515	46.58
520.863	46.87
521.211	46.63
521.559	46.79
521.907	47.17
522.255	47.14
522.602	47.24
522.95	47.37
523.298	47.53
523.645	47.68
523.993	47.87
524.341	48.01
524.688	48.15
525.036	48.23
525.383	48.26
525.73	48.14
526.078	48.18
526.425	48.33
526.772	48.33
527.119	48.27
527.466	48.1
527.814	48.06
528.161	48.01
528.508	47.94
528.854	47.99
529.201	47.86
529.548	48.44
529.895	48
530.242	47.71
530.588	47.82
530.935	48.03
531.282	48.04
531.628	48.13
531.975	48.2
532.321	48.25
532.667	48.44
533.014	48.74
533.36	48.96
533.706	49.04
534.052	49.21
534.399	49.01
534.745	49.06
535.091	48.95
535.437	48.9
535.783	48.95
536.129	49.11
536.474	49.24
536.82	49.51
537.166	49.61
537.512	49.7
537.857	50.04
538.203	50.13
538.549	50.12
538.894	50
539.239	50
539.585	50.26
539.93	50.42
540.276	50.66
540.621	50.64
540.966	50.95
541.311	50.89
541.656	50.98
542.001	50.97
542.346	50.98
542.691	50.9
543.036	50.49
543.381	50.28
543.726	50.29
544.071	50.55
544.415	50.48
544.76	50.65
545.105	50.93
545.449	50.95
545.794	51.29
546.138	51.33
546.483	51.48
546.827	51.76
547.171	51.95
547.516	51.99
547.86	52.17
548.204	51.92
548.548	52.21
548.892	52.08
549.236	52.06
549.58	52.43
549.924	52.35
550.268	52.44
550.612	52.65
550.956	52.97
551.3	53.02
551.643	53.17
551.987	53.43
552.33	53.22
552.674	53.48
553.017	53.46
553.361	53.68
553.704	53.87
554.048	53.69
554.391	53.58
554.734	53.87
555.077	53.77
555.42	53.7
555.764	53.84
556.107	54.14
556.45	54.11
556.793	54.07
557.135	54.31
557.478	54.46
557.821	54.67
558.164	54.75
558.507	54.64
558.849	54.81
559.192	54.78
559.534	54.81
559.877	55.34
560.219	55.27
560.562	55.02
560.904	55.1
561.246	55.5
561.589	55.49
561.931	55.58
562.273	55.6
562.615	55.58
562.957	55.74
563.299	55.93
563.641	55.68
563.983	55.4
564.325	55.4
564.667	55.74
565.008	55.98
565.35	55.91
565.692	55.97
566.033	56.15
566.375	56.04
566.716	56.02
567.058	55.99
567.399	56.24
567.741	56.29
568.082	56.28
568.423	56.12
568.764	56.24
569.105	56.07
569.447	56.36
569.788	56.19
570.129	56.61
570.47	56.6
570.811	56.69
571.151	56.75
571.492	57.16
571.833	57.07
572.174	57.51
572.514	57.22
572.855	57.15
573.195	57.1
573.536	57.2
573.876	57.34
574.217	57.24
574.557	57.06
574.898	57.24
575.238	56.94
575.578	57.69
575.918	57.7
576.258	57.29
576.598	57.93
576.938	58.09
577.278	57.95
577.618	57.85
577.958	57.7
578.298	57.91
578.638	58.16
578.977	57.96
579.317	57.98
579.657	58.14
579.996	58.7
580.336	58.89
580.675	58.74
581.014	58.86
581.354	58.79
581.693	58.57
582.032	58.9
582.372	59.36
582.711	59.43
583.05	59.73
583.389	59.45
583.728	59.61
584.067	59.59
584.406	59.78
584.745	59.61
585.083	60.03
585.422	59.92
585.761	59.84
586.1	59.65
586.438	60.17
586.777	60.01
587.115	60.39
587.454	59.96
587.792	60
588.13	60.44
588.469	60.23
588.807	60.61
589.145	60.59
589.483	60.83
589.821	60.29
590.159	61.08
590.497	60.82
590.835	60.6
591.173	60.87
591.511	60.87
591.849	60.93
592.187	60.75
592.524	61
592.862	61.1
593.2	61.1
593.537	60.96
593.875	61.41
594.212	61.37
594.55	61.34
594.887	61.13
595.224	61.5
595.561	61.85
595.899	61.64
596.236	61.48
596.573	61.79
596.91	61.65
597.247	61.43
597.584	61.62
597.921	61.81
598.258	62.08
598.594	62.04
598.931	61.38
599.268	61.57
599.604	62.13
599.941	61.83
600.277	61.57
600.614	61.69
600.95	62.35
601.287	62.33
601.623	62.86
601.959	62.85
602.296	62.93
602.632	62.58
602.968	62.74
603.304	62.69
603.64	63.07
603.976	62.92
604.312	62.79
604.648	62.93
604.984	62.76
605.319	63.19
605.655	62.74
605.991	63.2
606.326	62.99
606.662	62.91
606.998	63
607.333	62.81
607.668	62.77
608.004	63.26
608.339	63.26
608.674	63.26
609.01	63.36
609.345	63.49
609.68	63.81
610.015	63.38
610.35	63.86
610.685	64.04
611.02	63.95
611.355	63.96
611.689	64.06
612.024	63.75
612.359	64
612.694	63.81
613.028	64.08
613.363	64.22
613.697	64.6
614.032	64.48
614.366	64.75
614.7	64.77
615.035	64.57
615.369	64.66
615.703	65.3
616.037	64.83
616.371	64.62
616.705	65.26
617.039	65.03
617.373	65.24
617.707	65.41
618.041	65.49
618.375	65.57
618.709	65.29
619.042	65.54
619.376	65.83
619.71	65.63
620.043	65.6
620.377	65.67
620.71	66.16
621.043	65.78
621.377	65.65
621.71	65.84
622.043	65.88
622.376	66.45
622.709	65.8
623.043	66.57
623.376	65.94
623.709	65.84
624.041	66.19
624.374	66.16
624.707	66.52
625.04	66.4
625.373	66.08
625.705	66.56
626.038	66.98
626.37	66.35
626.703	66.82
627.035	66.78
627.368	66.71
627.7	66.58
628.032	66.79
628.365	67.22
628.697	66.64
629.029	66.53
629.361	66.76
629.693	66.6
630.025	66.7
630.357	67.19
630.689	67.44
631.021	67.11
631.353	67.11
631.684	67.15
632.016	67.83
632.348	67.66
632.679	67.55
633.011	67.29
633.342	67.31
633.674	68.09
634.005	67.83
634.336	67.7
634.668	67.89
634.999	67.82
635.33	67.71
635.661	68.19
635.992	68.14
636.323	68.2
636.654	68.27
636.985	67.83
637.316	68.28
637.647	68.19
637.977	68.01
638.308	68.38
638.639	68.46
638.969	68.5
639.3	67.93
639.63	68.66
639.961	68.45
640.291	68.23
640.622	69.21
640.952	68.41
641.282	69.12
641.612	69.22
641.943	68.68
642.273	69.48
642.603	69.25
642.933	69.52
643.263	69.16
643.592	68.95
643.922	69.54
644.252	69.56
644.582	69.39
644.911	69.47
645.241	69.26
645.571	70.17
645.9	69.6
646.23	69.16
646.559	70.18
646.888	70.16
647.218	69.9
647.547	69.45
647.876	69.75
648.205	70.3
648.534	69.91
648.863	70.25
649.192	70.13
649.521	70.53
649.85	70.32
650.179	70.48
650.508	69.92
650.837	70.48
651.165	71.37
651.494	70.82
651.822	70.6
652.151	70.64
652.479	71.04
652.808	70.13
653.136	70.8
653.465	70.98
653.793	71.41
654.121	71
654.449	70.87
654.777	70.9
655.105	71.71
655.433	70.95
655.761	70.92
656.089	71.08
656.417	71.4
656.745	70.73
657.073	71.41
657.4	71.39
657.728	71.03
658.056	71.83
658.383	71.7
658.711	71.86
659.038	71.22
659.365	71.55
659.693	71.77
660.02	71.27
660.347	70.85
660.674	72.09
661.001	72.06
661.329	71.76
661.656	71.45
661.982	71.07
662.309	71.31
662.636	71.67
662.963	72.26
663.29	71.89
663.616	72.34
663.943	71.92
664.27	72.09
664.596	72.62
664.923	71.62
665.249	71.82
665.576	72.92
665.902	72.5
666.228	72.7
666.554	72.1
666.881	72.68
667.207	73.19
667.533	72.96
667.859	73.29
