Data from 0224_forehead_Reflection__1__104.txt Node

Date: Fri Oct 20 21:27:09 CDT 2023
User: ToomeyLab
Spectrometer: FLMS14357
Trigger mode: 0
Integration Time (sec): 1.000000E-2
Scans to average: 100
Electric dark correction enabled: true
Nonlinearity correction enabled: false
Boxcar width: 0
XAxis mode: Wavelengths
Number of Pixels in Spectrum: 2048
>>>>>Begin Spectral Data<<<<<
189.047	349.74
189.435	349.74
189.823	349.74
190.211	-1.95
190.599	-34.05
190.987	161.44
191.375	184.75
191.763	104.81
192.151	9030.43
192.538	226.63
192.926	5.36
193.314	56.14
193.702	2736.92
194.089	112.58
194.477	9.94
194.864	-290.21
195.252	83.61
195.639	-3868.42
196.027	-360.71
196.414	280.54
196.801	100.93
197.189	-8.45
197.576	-35.66
197.963	6.88
198.351	60.74
198.738	55.8
199.125	64.12
199.512	32.45
199.899	10.78
200.286	2.42
200.673	31.91
201.06	102.22
201.447	20.75
201.833	62.3
202.22	47.7
202.607	64.84
202.994	45.06
203.38	19.89
203.767	57.77
204.154	72.39
204.54	56.01
204.927	26.92
205.313	12.95
205.699	61.13
206.086	70.48
206.472	34.64
206.858	51.2
207.245	14.84
207.631	34.71
208.017	24.07
208.403	46.33
208.789	60.41
209.175	47
209.561	45.59
209.947	32.97
210.333	37.05
210.719	35.79
211.105	35.82
211.491	63.85
211.876	46.38
212.262	37.25
212.648	44.78
213.034	16.37
213.419	18.63
213.805	27.57
214.19	22.54
214.576	1.13
214.961	19.58
215.346	39.25
215.732	17.87
216.117	-11.83
216.502	36.35
216.888	25.25
217.273	-0.59
217.658	22.3
218.043	16.26
218.428	39.22
218.813	44.44
219.198	31.18
219.583	11.79
219.968	18.92
220.353	37.93
220.738	21.34
221.122	10.51
221.507	38.27
221.892	17.9
222.276	22.8
222.661	31.63
223.046	27.07
223.43	13.01
223.815	20.99
224.199	24.01
224.583	11.74
224.968	9.44
225.352	19.53
225.736	14.72
226.121	17.47
226.505	17.76
226.889	12.18
227.273	11.74
227.657	15.64
228.041	15.45
228.425	9.47
228.809	12.02
229.193	9.93
229.577	11.37
229.961	5.8
230.344	6.98
230.728	4.83
231.112	6.13
231.495	7
231.879	7.64
232.263	8.09
232.646	6.89
233.03	7.39
233.413	5.97
233.797	6.1
234.18	8.17
234.563	9.25
234.946	9.37
235.33	9.25
235.713	6.61
236.096	8.94
236.479	8.05
236.862	8.82
237.245	7.54
237.628	7.02
238.011	8.08
238.394	9.29
238.777	8.82
239.16	6.8
239.543	8.6
239.925	9.98
240.308	8.3
240.691	8.94
241.073	8.37
241.456	8.83
241.838	7.75
242.221	9.2
242.603	7.47
242.986	7.47
243.368	7.57
243.75	7.17
244.133	6.76
244.515	6.6
244.897	6.33
245.279	6.59
245.661	6.53
246.043	6.74
246.425	5.95
246.807	6.74
247.189	7
247.571	6.64
247.953	7.43
248.335	7.12
248.717	6.04
249.098	6.25
249.48	6.01
249.862	6.75
250.243	6.69
250.625	6.48
251.006	6.68
251.388	6.72
251.769	7.14
252.151	6.99
252.532	7.88
252.913	7.22
253.295	6.91
253.676	6.49
254.057	6.53
254.438	6.84
254.819	6.68
255.2	6.63
255.581	6.05
255.962	6.86
256.343	7.27
256.724	6.43
257.105	7.95
257.486	7.4
257.867	7.72
258.247	8.08
258.628	6.98
259.009	4.9
259.389	6.06
259.77	5.84
260.15	6.9
260.531	6.55
260.911	6.69
261.292	6.29
261.672	6.19
262.052	6.4
262.432	6.16
262.813	6.38
263.193	6.65
263.573	6.65
263.953	6.98
264.333	6.89
264.713	7
265.093	6.66
265.473	7.08
265.853	7.4
266.233	8.03
266.612	6.66
266.992	6.93
267.372	7.24
267.752	6.06
268.131	6.68
268.511	7.16
268.89	6.98
269.27	5.89
269.649	5.91
270.029	6.55
270.408	6.82
270.787	6.53
271.167	6.56
271.546	6.44
271.925	7.45
272.304	6.75
272.683	6.78
273.062	6.83
273.441	5.98
273.82	6.24
274.199	6.22
274.578	6.4
274.957	6.25
275.336	6.26
275.715	6.65
276.093	5.91
276.472	6.28
276.851	6.65
277.229	6.35
277.608	6.31
277.986	5.75
278.365	6.63
278.743	6.43
279.122	5.81
279.5	6.01
279.878	6.03
280.257	6.15
280.635	6.33
281.013	6.81
281.391	6.83
281.769	5.95
282.147	6.07
282.525	5.96
282.903	5.92
283.281	6.38
283.659	6.25
284.037	6.07
284.415	5.77
284.792	6.3
285.17	6.54
285.548	6.14
285.925	5.58
286.303	6
286.68	6.04
287.058	7
287.435	6.4
287.813	5.67
288.19	6.07
288.567	6.25
288.945	6.35
289.322	6.8
289.699	6.07
290.076	7.44
290.453	6.58
290.83	6.14
291.207	6.89
291.584	6.41
291.961	6.48
292.338	6.61
292.715	6.67
293.092	6.39
293.469	6.74
293.845	6.78
294.222	6.51
294.599	6.78
294.975	8.07
295.352	7.4
295.728	7.28
296.105	7.04
296.481	6.93
296.858	6.87
297.234	7.18
297.61	7.06
297.986	7.17
298.363	7.66
298.739	7.45
299.115	7.49
299.491	7
299.867	7.44
300.243	7.41
300.619	7.75
300.995	7.39
301.371	7.94
301.746	7.21
302.122	8.44
302.498	7.65
302.874	8.08
303.249	7.73
303.625	8.23
304	8.25
304.376	7.54
304.751	7.61
305.127	8.2
305.502	8.55
305.878	7.9
306.253	8.43
306.628	8.61
307.003	8.86
307.378	8.81
307.754	8.76
308.129	9.3
308.504	9.12
308.879	8.41
309.254	9.64
309.629	8.41
310.003	9.25
310.378	9.23
310.753	9.23
311.128	9.42
311.502	9.01
311.877	9.17
312.252	8.93
312.626	9.3
313.001	9.2
313.375	9.05
313.75	9.48
314.124	9.36
314.498	9.63
314.873	9.12
315.247	10
315.621	9.6
315.995	10.18
316.369	9.38
316.743	9.89
317.117	10.24
317.491	10.07
317.865	10.44
318.239	10.28
318.613	10.62
318.987	10.36
319.361	9.78
319.734	10.06
320.108	10.36
320.482	10.21
320.855	10.94
321.229	11.04
321.602	10.19
321.976	10.48
322.349	10.96
322.723	11.15
323.096	11.05
323.469	10.96
323.843	11.13
324.216	10.8
324.589	11.3
324.962	12.05
325.335	11.29
325.708	11.15
326.081	11.21
326.454	11.39
326.827	11.57
327.2	11.68
327.573	11.73
327.945	11.28
328.318	11.14
328.691	11.75
329.063	11.46
329.436	11.26
329.809	11.53
330.181	12.03
330.553	11.42
330.926	12
331.298	11.29
331.671	11.5
332.043	11.44
332.415	11.76
332.787	12.31
333.159	11.72
333.532	12.16
333.904	12
334.276	11.79
334.648	12.01
335.02	12.5
335.391	12.15
335.763	12.67
336.135	12.51
336.507	12.48
336.879	12.04
337.25	12.02
337.622	12.64
337.993	12.96
338.365	12.64
338.736	12.74
339.108	12.92
339.479	12.86
339.851	12.45
340.222	12.46
340.593	12.35
340.964	12.51
341.336	13.61
341.707	13.01
342.078	13.12
342.449	13.43
342.82	12.84
343.191	13.33
343.562	13.51
343.933	13.42
344.303	13.45
344.674	13.73
345.045	13.52
345.416	13.32
345.786	13.43
346.157	13.74
346.527	13.91
346.898	13.79
347.268	13.73
347.639	13.89
348.009	13.84
348.38	13.95
348.75	13.89
349.12	13.69
349.49	13.73
349.861	14.19
350.231	14.02
350.601	14.13
350.971	14.36
351.341	14.34
351.711	14.82
352.081	14.4
352.45	14.17
352.82	14.9
353.19	14.61
353.56	14.56
353.929	14.43
354.299	14.11
354.669	14.91
355.038	14.85
355.408	14.42
355.777	14.87
356.147	14.48
356.516	14.92
356.885	14.79
357.254	14.84
357.624	14.67
357.993	14.76
358.362	14.77
358.731	14.82
359.1	14.51
359.469	15.3
359.838	15.3
360.207	14.96
360.576	15.31
360.945	15.18
361.314	15.38
361.682	15.55
362.051	15.62
362.42	15.47
362.788	15.57
363.157	15.88
363.525	15.28
363.894	15.41
364.262	15.3
364.631	15.77
364.999	15.78
365.367	16
365.735	15.71
366.104	15.96
366.472	15.74
366.84	16.03
367.208	16.33
367.576	16.25
367.944	16.57
368.312	16.14
368.68	16.56
369.048	16.3
369.416	16.57
369.783	16.64
370.151	16.3
370.519	16.41
370.886	16.75
371.254	17.33
371.621	17.21
371.989	16.77
372.356	16.9
372.724	17.36
373.091	17.1
373.458	16.88
373.826	17.02
374.193	16.96
374.56	17.01
374.927	16.86
375.294	17.29
375.661	17.32
376.028	17.24
376.395	17.23
376.762	17.36
377.129	17.49
377.496	17.49
377.863	17.37
378.229	17.55
378.596	17.94
378.963	17.74
379.329	17.59
379.696	17.88
380.062	17.55
380.429	17.77
380.795	17.99
381.161	18
381.528	18.21
381.894	17.55
382.26	18.2
382.626	18.28
382.993	18.11
383.359	18.19
383.725	18.16
384.091	18.62
384.457	18.48
384.823	18.4
385.188	18.77
385.554	18.62
385.92	18.45
386.286	18.87
386.651	18.48
387.017	18.9
387.383	19.08
387.748	18.57
388.114	18.78
388.479	19.08
388.845	19.24
389.21	18.73
389.575	18.9
389.94	19.1
390.306	19.05
390.671	19.41
391.036	19.11
391.401	19.46
391.766	19.47
392.131	19.53
392.496	19.48
392.861	19.49
393.226	19.63
393.591	19.67
393.956	19.55
394.32	19.94
394.685	19.57
395.05	19.99
395.414	19.85
395.779	20.06
396.143	19.96
396.508	19.93
396.872	19.74
397.236	20.16
397.601	20.33
397.965	20.03
398.329	20.13
398.694	20.11
399.058	20.52
399.422	20.39
399.786	20.48
400.15	20.56
400.514	20.08
400.878	20.7
401.242	20.89
401.605	20.89
401.969	20.9
402.333	20.89
402.697	20.92
403.06	20.74
403.424	20.97
403.787	21.1
404.151	21.22
404.514	21.41
404.878	21.25
405.241	21.28
405.604	21.18
405.968	21.22
406.331	21.33
406.694	21.35
407.057	21.47
407.42	21.67
407.783	22.02
408.146	21.75
408.509	21.65
408.872	21.88
409.235	21.88
409.598	21.9
409.961	22.04
410.323	21.98
410.686	21.68
411.049	22.08
411.411	22.25
411.774	21.98
412.136	22.23
412.499	22.26
412.861	22.26
413.223	22.31
413.586	22.27
413.948	22.56
414.31	22.67
414.672	22.42
415.035	22.72
415.397	22.76
415.759	22.84
416.121	22.98
416.483	22.99
416.845	22.89
417.206	22.85
417.568	23.01
417.93	22.93
418.292	22.86
418.653	23.24
419.015	23.04
419.377	23.21
419.738	23.18
420.1	22.96
420.461	23.01
420.822	22.94
421.184	23.08
421.545	23.16
421.906	23.04
422.267	23.19
422.629	23.21
422.99	23.01
423.351	23.15
423.712	23.16
424.073	23.34
424.434	23.4
424.795	23.48
425.155	23.44
425.516	23.52
425.877	23.56
426.238	23.51
426.598	23.55
426.959	23.63
427.32	23.7
427.68	23.92
428.041	23.88
428.401	24.04
428.761	24.21
429.122	24.4
429.482	24.47
429.842	24.65
430.202	24.5
430.563	24.67
430.923	24.9
431.283	24.79
431.643	25.03
432.003	24.78
432.363	24.95
432.722	25.02
433.082	25.16
433.442	25.24
433.802	25.39
434.161	25.38
434.521	25.23
434.881	25.28
435.24	25.29
435.6	25.37
435.959	25.27
436.319	25.41
436.678	25.43
437.037	25.53
437.396	25.49
437.756	25.74
438.115	25.47
438.474	25.8
438.833	25.94
439.192	25.82
439.551	26.02
439.91	26.02
440.269	26.16
440.628	26.14
440.987	26.24
441.345	26.07
441.704	26.12
442.063	26
442.421	26.08
442.78	26.03
443.138	26.24
443.497	26.38
443.855	26.4
444.214	26.23
444.572	26.52
444.93	26.7
445.288	26.62
445.647	26.89
446.005	26.79
446.363	26.67
446.721	26.85
447.079	26.83
447.437	26.81
447.795	26.83
448.153	26.74
448.51	26.68
448.868	26.75
449.226	26.77
449.584	26.96
449.941	27
450.299	27.22
450.656	27.19
451.014	27.31
451.371	27.64
451.729	27.41
452.086	27.7
452.443	27.85
452.801	27.86
453.158	28.13
453.515	27.94
453.872	28.09
454.229	27.97
454.586	28.19
454.943	28.06
455.3	28.06
455.657	28.27
456.014	28.14
456.371	28.32
456.727	28.6
457.084	28.58
457.441	28.64
457.797	28.73
458.154	28.91
458.51	28.69
458.867	28.92
459.223	29.08
459.58	28.96
459.936	28.85
460.292	29.09
460.648	29.09
461.005	28.91
461.361	28.93
461.717	28.74
462.073	28.7
462.429	28.65
462.785	28.92
463.141	29.16
463.496	29.29
463.852	29.47
464.208	29.67
464.564	29.71
464.919	29.75
465.275	30.06
465.631	29.98
465.986	30.1
466.342	30.11
466.697	30.2
467.052	29.91
467.408	30.13
467.763	30.15
468.118	30.4
468.473	30.34
468.829	30.44
469.184	30.49
469.539	30.32
469.894	30.51
470.249	30.72
470.603	30.6
470.958	30.78
471.313	30.94
471.668	31.12
472.023	30.89
472.377	30.85
472.732	30.88
473.086	31
473.441	31.07
473.795	31.29
474.15	31.25
474.504	31.32
474.859	31.2
475.213	31.4
475.567	31.68
475.921	31.56
476.275	31.74
476.63	31.94
476.984	31.74
477.338	31.73
477.692	31.85
478.045	32.01
478.399	31.84
478.753	31.88
479.107	31.79
479.461	31.81
479.814	31.87
480.168	31.97
480.521	32.13
480.875	32.27
481.228	32.2
481.582	32.3
481.935	32.21
482.289	32.37
482.642	32.2
482.995	32.54
483.348	32.46
483.701	32.3
484.055	32.44
484.408	32.21
484.761	32.22
485.114	31.86
485.466	31.62
485.819	31.53
486.172	31.61
486.525	31.72
486.878	31.74
487.23	31.74
487.583	31.88
487.936	32.1
488.288	32.35
488.641	32.39
488.993	32.32
489.345	32.2
489.698	32.11
490.05	32.18
490.402	32.23
490.754	32.36
491.107	32.53
491.459	32.66
491.811	33.01
492.163	33.16
492.515	33.24
492.866	33.38
493.218	33.18
493.57	32.91
493.922	32.94
494.274	33.08
494.625	33.04
494.977	33.4
495.328	33.61
495.68	34.07
496.031	34.2
496.383	34.5
496.734	34.43
497.086	34.77
497.437	34.92
497.788	34.7
498.139	34.74
498.49	34.73
498.842	34.6
499.193	34.68
499.544	34.64
499.894	34.69
500.245	34.86
500.596	35.08
500.947	35.07
501.298	35.1
501.648	35.23
501.999	35.31
502.35	35.45
502.7	35.45
503.051	35.61
503.401	35.59
503.752	35.85
504.102	35.73
504.452	35.87
504.803	35.94
505.153	36.21
505.503	35.98
505.853	36.17
506.203	36.11
506.553	35.99
506.903	36.28
507.253	36.2
507.603	36.45
507.953	36.4
508.303	36.37
508.652	36.74
509.002	36.55
509.352	36.61
509.701	36.67
510.051	36.5
510.4	36.8
510.75	36.73
511.099	36.64
511.449	36.79
511.798	36.76
512.147	36.78
512.496	36.79
512.846	36.89
513.195	37.1
513.544	37.07
513.893	36.93
514.242	36.88
514.591	37.31
514.939	37.02
515.288	37.21
515.637	37.35
515.986	37.67
516.334	37.44
516.683	37.58
517.032	37.62
517.38	37.74
517.729	37.96
518.077	37.85
518.426	37.85
518.774	37.96
519.122	38.15
519.47	37.89
519.819	37.9
520.167	37.77
520.515	37.57
520.863	37.68
521.211	37.55
521.559	37.83
521.907	37.96
522.255	38.02
522.602	38.45
522.95	38.39
523.298	38.47
523.645	38.5
523.993	38.75
524.341	38.8
524.688	38.77
525.036	38.92
525.383	38.79
525.73	39.19
526.078	38.82
526.425	38.99
526.772	38.97
527.119	39.07
527.466	38.59
527.814	38.73
528.161	38.93
528.508	38.64
528.854	38.84
529.201	38.71
529.548	39.06
529.895	38.77
530.242	38.59
530.588	38.5
530.935	38.78
531.282	38.82
531.628	38.77
531.975	38.83
532.321	38.84
532.667	39.17
533.014	39.53
533.36	39.62
533.706	39.81
534.052	39.79
534.399	39.57
534.745	39.74
535.091	39.58
535.437	39.32
535.783	39.54
536.129	39.55
536.474	39.68
536.82	40.07
537.166	40.12
537.512	40.3
537.857	40.62
538.203	40.38
538.549	40.57
538.894	40.52
539.239	40.45
539.585	40.67
539.93	40.82
540.276	41.01
540.621	41.14
540.966	41.22
541.311	41.34
541.656	41.43
542.001	41.45
542.346	41.39
542.691	41.21
543.036	40.9
543.381	40.7
543.726	40.73
544.071	40.77
544.415	40.87
544.76	41.06
545.105	41.32
545.449	41.29
545.794	41.64
546.138	41.72
546.483	41.76
546.827	41.91
547.171	42.14
547.516	42.04
547.86	42.18
548.204	42.28
548.548	42.11
548.892	42.34
549.236	42.21
549.58	42.52
549.924	42.47
550.268	42.64
550.612	42.82
550.956	43.15
551.3	42.94
551.643	43.2
551.987	43.35
552.33	43.39
552.674	43.41
553.017	43.64
553.361	43.49
553.704	43.77
554.048	43.67
554.391	43.69
554.734	43.7
555.077	43.84
555.42	43.88
555.764	43.81
556.107	43.89
556.45	44.07
556.793	44.2
557.135	44.24
557.478	44.12
557.821	44.56
558.164	44.55
558.507	44.79
558.849	44.7
559.192	44.67
559.534	44.79
559.877	45.06
560.219	44.97
560.562	44.98
560.904	44.98
561.246	45.09
561.589	45.42
561.931	45.11
562.273	45.05
562.615	45.25
562.957	45.31
563.299	45.39
563.641	45.29
563.983	44.99
564.325	45.29
564.667	45.49
565.008	45.58
565.35	45.72
565.692	45.81
566.033	45.92
566.375	45.65
566.716	45.55
567.058	45.58
567.399	45.86
567.741	45.77
568.082	45.74
568.423	45.89
568.764	45.77
569.105	45.68
569.447	45.84
569.788	45.87
570.129	46.49
570.47	46.29
570.811	46.27
571.151	46.27
571.492	46.75
571.833	46.84
572.174	46.56
572.514	46.51
572.855	46.69
573.195	46.74
573.536	46.58
573.876	46.64
574.217	46.61
574.557	46.6
574.898	46.93
575.238	46.52
575.578	46.94
575.918	46.77
576.258	46.97
576.598	47.17
576.938	47.32
577.278	47.19
577.618	47.32
577.958	47.14
578.298	47.37
578.638	47.23
578.977	47.39
579.317	47.54
579.657	47.83
579.996	48.06
580.336	47.83
580.675	47.92
581.014	48.42
581.354	48.17
581.693	48.35
582.032	48.5
582.372	48.58
582.711	48.72
583.05	49.17
583.389	48.68
583.728	48.65
584.067	48.93
584.406	48.75
584.745	48.72
585.083	49.14
585.422	49.17
585.761	49.07
586.1	49.15
586.438	49
586.777	48.81
587.115	49.47
587.454	49.01
587.792	48.84
588.13	49.09
588.469	49.49
588.807	49.53
589.145	49.91
589.483	49.62
589.821	49.62
590.159	49.92
590.497	49.76
590.835	49.44
591.173	49.59
591.511	49.81
591.849	49.81
592.187	49.79
592.524	49.64
592.862	49.93
593.2	49.81
593.537	49.97
593.875	50.03
594.212	50.05
594.55	50.34
594.887	50.69
595.224	50.6
595.561	50.06
595.899	50.38
596.236	50.56
596.573	50.66
596.91	50.43
597.247	50.29
597.584	50.71
597.921	50.69
598.258	50.89
598.594	50.92
598.931	50.4
599.268	50.24
599.604	50.89
599.941	50.88
600.277	50.53
600.614	51.09
600.95	50.96
601.287	51.22
601.623	51.66
601.959	51.28
602.296	51.56
602.632	51.29
602.968	51.43
603.304	51.43
603.64	51.57
603.976	51.83
604.312	51.29
604.648	51.48
604.984	51.54
605.319	51.72
605.655	51.49
605.991	51.82
606.326	51.72
606.662	51.62
606.998	51.69
607.333	51.65
607.668	51.69
608.004	51.97
608.339	51.8
608.674	51.58
609.01	52.24
609.345	51.88
609.68	52.73
610.015	52.44
610.35	52.63
610.685	52.68
611.02	52.22
611.355	52.76
611.689	52.4
612.024	52.56
612.359	52.36
612.694	52.49
613.028	52.76
613.363	52.74
613.697	52.78
614.032	52.97
614.366	53.02
614.7	53.19
615.035	52.91
615.369	53.67
615.703	53.41
616.037	53.27
616.371	53.13
616.705	53.53
617.039	53.27
617.373	53.42
617.707	53.66
618.041	53.81
618.375	54.39
618.709	53.88
619.042	53.99
619.376	54.13
619.71	54.42
620.043	54.26
620.377	54.25
620.71	53.83
621.043	54.27
621.377	54.37
621.71	53.84
622.043	54.3
622.376	54.39
622.709	54.19
623.043	54.62
623.376	54.68
623.709	54.53
624.041	54.79
624.374	54.73
624.707	54.72
625.04	55.24
625.373	54.83
625.705	54.76
626.038	55.18
626.37	54.72
626.703	54.43
627.035	55.42
627.368	55.13
627.7	55.52
628.032	55.17
628.365	55.5
628.697	54.77
629.029	54.97
629.361	55.17
629.693	55.05
630.025	54.93
630.357	55.32
630.689	55.42
631.021	55.21
631.353	55.75
631.684	54.97
632.016	55.87
632.348	55.66
632.679	55.68
633.011	55.81
633.342	55.82
633.674	55.41
634.005	56.35
634.336	55.97
634.668	56.18
634.999	56.15
635.33	55.78
635.661	56.24
635.992	56.42
636.323	56.29
636.654	56.23
636.985	56.16
637.316	55.96
637.647	56.69
637.977	56.17
638.308	56.68
638.639	56.69
638.969	56.73
639.3	56.48
639.63	56.78
639.961	56.38
640.291	56.83
640.622	56.69
640.952	56.51
641.282	56.7
641.612	57.01
641.943	57.27
642.273	56.72
642.603	57.2
642.933	57.63
643.263	56.88
643.592	57.5
643.922	57.04
644.252	57.59
644.582	57.28
644.911	57.84
645.241	57.8
645.571	57.81
645.9	57.03
646.23	57.83
646.559	57.92
646.888	58
647.218	57.61
647.547	57.26
647.876	57.47
648.205	57.2
648.534	57.6
648.863	57.79
649.192	57.74
649.521	58.37
649.85	58.24
650.179	58.16
650.508	57.9
650.837	58.34
651.165	58.49
651.494	58.48
651.822	58.21
652.151	58.84
652.479	58.58
652.808	58.44
653.136	59.03
653.465	58.68
653.793	58.41
654.121	58.4
654.449	58.44
654.777	58.48
655.105	59.25
655.433	58.94
655.761	58.97
656.089	59.27
656.417	58.83
656.745	58.5
657.073	58.79
657.4	59.22
657.728	58.96
658.056	58.91
658.383	58.98
658.711	58.76
659.038	59.51
659.365	59.13
659.693	59.3
660.02	59.38
660.347	59.67
660.674	59.35
661.001	59.69
661.329	59.37
661.656	59.49
661.982	59.52
662.309	59.5
662.636	59.59
662.963	59.81
663.29	59.09
663.616	59.53
663.943	59.54
664.27	59.83
664.596	59.66
664.923	59.68
665.249	59.9
665.576	60.22
665.902	60.42
666.228	60.28
666.554	59.84
666.881	59.97
667.207	60.48
667.533	60.84
667.859	60.54
668.185	60.38
668.511	60.2
668.837	59.98
669.162	60.84
