Data from 0224_chest_Reflection__2__95.txt Node

Date: Fri Oct 20 21:24:24 CDT 2023
User: ToomeyLab
Spectrometer: FLMS14357
Trigger mode: 0
Integration Time (sec): 1.000000E-2
Scans to average: 100
Electric dark correction enabled: true
Nonlinearity correction enabled: false
Boxcar width: 0
XAxis mode: Wavelengths
Number of Pixels in Spectrum: 2048
>>>>>Begin Spectral Data<<<<<
189.047	270.98
189.435	270.98
189.823	270.98
190.211	184.49
190.599	130.41
190.987	98.19
191.375	105.04
191.763	75.67
192.151	3743.48
192.538	-119.01
192.926	-51.85
193.314	99.56
193.702	4336.92
194.089	86.65
194.477	140.94
194.864	-174.43
195.252	56.5
195.639	-8.77
196.027	-524.47
196.414	134.58
196.801	245.6
197.189	76.33
197.576	-73.23
197.963	-68.47
198.351	55.28
198.738	13.28
199.125	47.47
199.512	32.64
199.899	0.8
200.286	6.64
200.673	45.08
201.06	25.95
201.447	39.85
201.833	45.07
202.22	26.01
202.607	28.52
202.994	36.58
203.38	40.37
203.767	5.92
204.154	41.74
204.54	47.84
204.927	30.64
205.313	0.04
205.699	62.64
206.086	38.28
206.472	64.31
206.858	57.8
207.245	44.3
207.631	33.99
208.017	28.52
208.403	11.27
208.789	31.67
209.175	0.17
209.561	19.76
209.947	26.56
210.333	21.17
210.719	9.22
211.105	40.94
211.491	22.22
211.876	-0.3
212.262	16.93
212.648	64.83
213.034	-6.6
213.419	12.84
213.805	12.08
214.19	10.23
214.576	9.78
214.961	12.9
215.346	24.77
215.732	31.38
216.117	-15.1
216.502	25.73
216.888	12.93
217.273	9.14
217.658	-16.2
218.043	20.93
218.428	10.04
218.813	22.74
219.198	31.03
219.583	9.73
219.968	-10.08
220.353	33.44
220.738	10.98
221.122	-9.42
221.507	-4.6
221.892	18.84
222.276	-0.49
222.661	28.2
223.046	20.88
223.43	9.18
223.815	20.07
224.199	20.2
224.583	4.01
224.968	6.29
225.352	8.09
225.736	14.85
226.121	7.19
226.505	1.06
226.889	3.6
227.273	-2.51
227.657	9.13
228.041	7.69
228.425	4
228.809	7.8
229.193	3.02
229.577	5.71
229.961	4.78
230.344	4.48
230.728	4.59
231.112	5.83
231.495	4.67
231.879	5.22
232.263	5.3
232.646	3.24
233.03	4.55
233.413	2.81
233.797	6.54
234.18	6.7
234.563	4.97
234.946	8.03
235.33	6.84
235.713	4.54
236.096	6.96
236.479	6.53
236.862	5.43
237.245	6.64
237.628	6.58
238.011	5.27
238.394	6.21
238.777	5.68
239.16	5.79
239.543	8.97
239.925	9.11
240.308	5.75
240.691	5.9
241.073	6.42
241.456	4.71
241.838	4.88
242.221	6.51
242.603	6.75
242.986	5.01
243.368	4.97
243.75	5.02
244.133	5.46
244.515	4.9
244.897	4.58
245.279	5.2
245.661	4.68
246.043	4.94
246.425	5.17
246.807	4.84
247.189	4.49
247.571	5.57
247.953	5.89
248.335	5.14
248.717	4.83
249.098	4.9
249.48	4.71
249.862	5.13
250.243	5.41
250.625	5.25
251.006	5.59
251.388	4.97
251.769	5.35
252.151	5.45
252.532	5.19
252.913	5.5
253.295	4.1
253.676	5.01
254.057	5.09
254.438	5.13
254.819	4.64
255.2	4.61
255.581	4.85
255.962	5.51
256.343	6.5
256.724	3.45
257.105	5.75
257.486	5
257.867	5.52
258.247	6.06
258.628	4.71
259.009	4.14
259.389	4.65
259.77	5.3
260.15	5.85
260.531	5.57
260.911	4.66
261.292	4.21
261.672	4.75
262.052	4.49
262.432	4.56
262.813	4.54
263.193	4.93
263.573	4.5
263.953	4.61
264.333	5.38
264.713	5
265.093	5.47
265.473	4.96
265.853	4.18
266.233	5.51
266.612	5.07
266.992	4.57
267.372	4.95
267.752	4.62
268.131	4.83
268.511	4.98
268.89	4.72
269.27	4.76
269.649	4.23
270.029	4.7
270.408	4.95
270.787	4.99
271.167	4.55
271.546	4.93
271.925	5.79
272.304	5.67
272.683	4.6
273.062	5.07
273.441	4.97
273.82	4.88
274.199	5.01
274.578	4.68
274.957	4.78
275.336	4.59
275.715	4.82
276.093	4.63
276.472	4.33
276.851	4.84
277.229	4.37
277.608	4.22
277.986	4.38
278.365	4.98
278.743	4.49
279.122	4.72
279.5	4.29
279.878	4.12
280.257	4.18
280.635	4.6
281.013	4.57
281.391	4.72
281.769	4.68
282.147	4.76
282.525	4.74
282.903	4.61
283.281	4.56
283.659	4.54
284.037	4.92
284.415	4.28
284.792	4.46
285.17	4.89
285.548	4.51
285.925	4.51
286.303	4.57
286.68	4.26
287.058	4.72
287.435	4.44
287.813	4.27
288.19	4.56
288.567	4.45
288.945	5.06
289.322	4.74
289.699	3.9
290.076	5.12
290.453	4.24
290.83	4.09
291.207	5.33
291.584	4.51
291.961	4.75
292.338	4.18
292.715	4.7
293.092	4.67
293.469	4.58
293.845	4.48
294.222	4.96
294.599	5.05
294.975	6.24
295.352	4.79
295.728	4.82
296.105	4.74
296.481	4.33
296.858	4.93
297.234	5.53
297.61	4.29
297.986	4.58
298.363	5.35
298.739	4.86
299.115	5.31
299.491	5.1
299.867	5.13
300.243	5.08
300.619	5.2
300.995	4.87
301.371	5.25
301.746	4.91
302.122	5.25
302.498	4.75
302.874	5.35
303.249	5.38
303.625	5.17
304	5.72
304.376	4.75
304.751	4.85
305.127	5.01
305.502	5.6
305.878	5.47
306.253	5.39
306.628	5.66
307.003	5.38
307.378	5.16
307.754	5.23
308.129	5.54
308.504	5.76
308.879	5.51
309.254	6.12
309.629	5.49
310.003	5.05
310.378	5.64
310.753	5.31
311.128	5.67
311.502	5.04
311.877	5.4
312.252	5.35
312.626	5.78
313.001	5.56
313.375	5.19
313.75	5.09
314.124	4.92
314.498	5.2
314.873	5.09
315.247	5.09
315.621	5.49
315.995	5.85
316.369	5.19
316.743	4.99
317.117	5.22
317.491	4.79
317.865	5.24
318.239	6.07
318.613	5.93
318.987	5.16
319.361	5.24
319.734	4.85
320.108	5.17
320.482	5.65
320.855	5.85
321.229	5.84
321.602	5.57
321.976	5.62
322.349	5.6
322.723	5.62
323.096	5.67
323.469	5.83
323.843	5.23
324.216	5.67
324.589	5.76
324.962	5.81
325.335	5.66
325.708	4.91
326.081	5.44
326.454	5.36
326.827	6.14
327.2	5.61
327.573	5.28
327.945	5.17
328.318	4.81
328.691	5.32
329.063	6.14
329.436	5.03
329.809	5.55
330.181	5.58
330.553	5.46
330.926	5.52
331.298	5.32
331.671	4.9
332.043	5.26
332.415	5.19
332.787	5.51
333.159	5
333.532	5.93
333.904	5.2
334.276	5.36
334.648	5.4
335.02	5.6
335.391	5.73
335.763	5.9
336.135	5.36
336.507	5.71
336.879	5.72
337.25	5.43
337.622	5.86
337.993	6.16
338.365	5.32
338.736	6.25
339.108	5.83
339.479	4.97
339.851	5.51
340.222	5.55
340.593	4.84
340.964	5.38
341.336	6.07
341.707	5.65
342.078	5.47
342.449	5.41
342.82	5.5
343.191	5.55
343.562	5.49
343.933	5.48
344.303	5.89
344.674	5.65
345.045	5.89
345.416	5.76
345.786	5.47
346.157	5.82
346.527	5.45
346.898	5.49
347.268	5.5
347.639	5.89
348.009	5.52
348.38	5.62
348.75	5.54
349.12	5.48
349.49	5.49
349.861	5.81
350.231	5.72
350.601	5.33
350.971	5.76
351.341	5.94
351.711	6.27
352.081	5.63
352.45	5.56
352.82	5.95
353.19	5.73
353.56	5.81
353.929	5.33
354.299	5.67
354.669	5.58
355.038	5.59
355.408	6.06
355.777	5.74
356.147	5.56
356.516	5.72
356.885	5.77
357.254	5.98
357.624	5.51
357.993	5.68
358.362	5.48
358.731	5.04
359.1	5.34
359.469	5.23
359.838	5.65
360.207	5.36
360.576	5.93
360.945	5.63
361.314	5.52
361.682	5.7
362.051	5.32
362.42	5.31
362.788	5.29
363.157	5.53
363.525	5.48
363.894	5.6
364.262	5.56
364.631	5.42
364.999	5.37
365.367	5.53
365.735	5.16
366.104	5.67
366.472	5.39
366.84	5.68
367.208	5.49
367.576	5.58
367.944	5.78
368.312	5.43
368.68	5.62
369.048	5.73
369.416	5.93
369.783	5.87
370.151	5.68
370.519	5.64
370.886	5.44
371.254	5.91
371.621	6.03
371.989	5.59
372.356	5.67
372.724	5.82
373.091	5.87
373.458	5.47
373.826	5.44
374.193	5.42
374.56	5.78
374.927	5.41
375.294	5.99
375.661	5.78
376.028	6.08
376.395	5.93
376.762	5.52
377.129	5.52
377.496	5.83
377.863	5.89
378.229	5.76
378.596	5.88
378.963	5.88
379.329	5.5
379.696	5.61
380.062	5.58
380.429	5.19
380.795	5.72
381.161	5.63
381.528	6
381.894	5.92
382.26	5.98
382.626	5.98
382.993	5.68
383.359	5.65
383.725	5.71
384.091	5.66
384.457	5.62
384.823	5.57
385.188	5.97
385.554	5.75
385.92	5.92
386.286	5.95
386.651	5.69
387.017	6.07
387.383	5.69
387.748	5.72
388.114	5.4
388.479	5.74
388.845	5.86
389.21	5.63
389.575	5.42
389.94	5.67
390.306	5.67
390.671	5.72
391.036	5.76
391.401	5.92
391.766	5.98
392.131	5.65
392.496	5.84
392.861	5.93
393.226	5.75
393.591	5.76
393.956	5.93
394.32	5.92
394.685	5.8
395.05	5.76
395.414	6
395.779	5.62
396.143	5.78
396.508	5.88
396.872	5.85
397.236	5.9
397.601	5.94
397.965	5.67
398.329	5.73
398.694	5.88
399.058	5.69
399.422	6.01
399.786	5.88
400.15	5.75
400.514	5.8
400.878	6.02
401.242	5.95
401.605	6
401.969	5.77
402.333	5.77
402.697	6.13
403.06	5.87
403.424	6
403.787	6.07
404.151	5.92
404.514	5.97
404.878	5.98
405.241	5.77
405.604	6.02
405.968	5.91
406.331	5.93
406.694	5.93
407.057	5.85
407.42	6.07
407.783	6.03
408.146	5.87
408.509	5.93
408.872	6.18
409.235	6
409.598	6.04
409.961	5.92
410.323	6.02
410.686	5.9
411.049	5.99
411.411	5.91
411.774	6
412.136	5.79
412.499	6.19
412.861	6.02
413.223	6.26
413.586	6.06
413.948	6.1
414.31	6.01
414.672	5.74
415.035	6
415.397	6.24
415.759	6.17
416.121	6.12
416.483	6.26
416.845	6.07
417.206	6.09
417.568	6.24
417.93	6.1
418.292	5.96
418.653	5.99
419.015	5.95
419.377	5.94
419.738	5.92
420.1	5.92
420.461	5.83
420.822	5.88
421.184	5.93
421.545	6.05
421.906	5.93
422.267	5.93
422.629	5.94
422.99	5.81
423.351	5.82
423.712	5.9
424.073	5.9
424.434	5.84
424.795	5.99
425.155	5.92
425.516	5.83
425.877	5.94
426.238	5.78
426.598	5.94
426.959	5.9
427.32	5.92
427.68	6
428.041	6.02
428.401	5.99
428.761	6.17
429.122	6.02
429.482	5.96
429.842	6.13
430.202	6.17
430.563	5.94
430.923	6.15
431.283	6
431.643	6.23
432.003	6.32
432.363	6.14
432.722	6.11
433.082	6.16
433.442	6.11
433.802	6.19
434.161	5.99
434.521	6.23
434.881	6.15
435.24	6.27
435.6	6.01
435.959	6.04
436.319	6.15
436.678	6.16
437.037	6.25
437.396	6.36
437.756	6.23
438.115	6.09
438.474	6.36
438.833	6.2
439.192	6.11
439.551	6.16
439.91	6.25
440.269	6.22
440.628	6.25
440.987	6.24
441.345	6.3
441.704	6.13
442.063	6.25
442.421	6.05
442.78	6
443.138	6.3
443.497	6.29
443.855	6.25
444.214	6.13
444.572	6.23
444.93	6.33
445.288	6.37
445.647	6.48
446.005	6.13
446.363	6.12
446.721	6.31
447.079	6.46
447.437	6.31
447.795	6.19
448.153	6.23
448.51	6.14
448.868	6.24
449.226	6.2
449.584	6.19
449.941	6.03
450.299	6.25
450.656	6.21
451.014	6.21
451.371	6.27
451.729	6.22
452.086	6.39
452.443	6.43
452.801	6.22
453.158	6.5
453.515	6.46
453.872	6.45
454.229	6.44
454.586	6.47
454.943	6.34
455.3	6.2
455.657	6.36
456.014	6.33
456.371	6.31
456.727	6.44
457.084	6.46
457.441	6.46
457.797	6.54
458.154	6.23
458.51	6.36
458.867	6.38
459.223	6.34
459.58	6.52
459.936	6.58
460.292	6.43
460.648	6.25
461.005	6.3
461.361	6.4
461.717	6.19
462.073	6.44
462.429	6.38
462.785	6.35
463.141	6.55
463.496	6.38
463.852	6.58
464.208	6.61
464.564	6.7
464.919	6.43
465.275	6.64
465.631	6.62
465.986	6.72
466.342	6.69
466.697	6.52
467.052	6.58
467.408	6.75
467.763	6.63
468.118	6.84
468.473	6.45
468.829	6.53
469.184	6.64
469.539	6.59
469.894	6.55
470.249	6.63
470.603	6.65
470.958	6.66
471.313	6.81
471.668	6.76
472.023	6.73
472.377	6.79
472.732	6.54
473.086	6.65
473.441	6.76
473.795	6.79
474.15	6.61
474.504	6.78
474.859	6.59
475.213	6.67
475.567	6.69
475.921	6.73
476.275	6.86
476.63	6.97
476.984	6.84
477.338	6.72
477.692	6.84
478.045	6.79
478.399	6.69
478.753	6.81
479.107	6.82
479.461	6.78
479.814	6.78
480.168	6.75
480.521	6.79
480.875	6.84
481.228	6.8
481.582	6.92
481.935	6.82
482.289	6.77
482.642	6.75
482.995	6.79
483.348	6.83
483.701	6.78
484.055	6.76
484.408	6.78
484.761	6.64
485.114	6.55
485.466	6.46
485.819	6.42
486.172	6.34
486.525	6.41
486.878	6.48
487.23	6.49
487.583	6.55
487.936	6.58
488.288	6.66
488.641	6.67
488.993	6.62
489.345	6.53
489.698	6.58
490.05	6.57
490.402	6.55
490.754	6.58
491.107	6.6
491.459	6.67
491.811	6.81
492.163	6.74
492.515	6.76
492.866	6.82
493.218	6.74
493.57	6.7
493.922	6.7
494.274	6.68
494.625	6.73
494.977	6.79
495.328	6.78
495.68	6.93
496.031	6.89
496.383	7.11
496.734	7.08
497.086	6.97
497.437	7.04
497.788	6.97
498.139	7.15
498.49	7.01
498.842	7
499.193	7.06
499.544	7.07
499.894	7.02
500.245	7.04
500.596	7.07
500.947	7.11
501.298	7.09
501.648	7.19
501.999	7.17
502.35	7.24
502.7	7.23
503.051	7.16
503.401	7.2
503.752	7.37
504.102	7.35
504.452	7.09
504.803	7.3
505.153	7.35
505.503	7.27
505.853	7.3
506.203	7.23
506.553	7.19
506.903	7.23
507.253	7.31
507.603	7.32
507.953	7.52
508.303	7.28
508.652	7.42
509.002	7.33
509.352	7.4
509.701	7.43
510.051	7.37
510.4	7.4
510.75	7.4
511.099	7.33
511.449	7.44
511.798	7.55
512.147	7.4
512.496	7.5
512.846	7.42
513.195	7.51
513.544	7.44
513.893	7.32
514.242	7.4
514.591	7.48
514.939	7.45
515.288	7.39
515.637	7.48
515.986	7.53
516.334	7.47
516.683	7.54
517.032	7.46
517.38	7.5
517.729	7.57
518.077	7.67
518.426	7.69
518.774	7.55
519.122	7.62
519.47	7.56
519.819	7.5
520.167	7.52
520.515	7.63
520.863	7.65
521.211	7.55
521.559	7.67
521.907	7.62
522.255	7.61
522.602	7.74
522.95	7.7
523.298	7.65
523.645	7.85
523.993	7.8
524.341	7.94
524.688	7.85
525.036	7.93
525.383	7.72
525.73	7.92
526.078	7.99
526.425	7.83
526.772	7.74
527.119	7.84
527.466	7.77
527.814	7.84
528.161	7.91
528.508	7.86
528.854	7.81
529.201	7.85
529.548	7.89
529.895	7.86
530.242	7.74
530.588	7.68
530.935	7.67
531.282	7.72
531.628	7.76
531.975	7.74
532.321	7.89
532.667	7.93
533.014	8.02
533.36	8.08
533.706	8.19
534.052	8.1
534.399	7.96
534.745	8.08
535.091	8.09
535.437	8.09
535.783	8.03
536.129	8.09
536.474	8.14
536.82	8.24
537.166	8.1
537.512	8.34
537.857	8.36
538.203	8.27
538.549	8.37
538.894	8.31
539.239	8.29
539.585	8.33
539.93	8.4
540.276	8.58
540.621	8.49
540.966	8.53
541.311	8.65
541.656	8.64
542.001	8.64
542.346	8.5
542.691	8.57
543.036	8.49
543.381	8.42
543.726	8.39
544.071	8.43
544.415	8.44
544.76	8.52
545.105	8.59
545.449	8.63
545.794	8.75
546.138	8.68
546.483	8.72
546.827	8.76
547.171	8.89
547.516	8.82
547.86	8.9
548.204	8.78
548.548	8.84
548.892	8.85
549.236	8.86
549.58	8.97
549.924	8.91
550.268	9.04
550.612	9.12
550.956	9.23
551.3	9
551.643	9.08
551.987	9.31
552.33	9.2
552.674	9.31
553.017	9.29
553.361	9.39
553.704	9.54
554.048	9.43
554.391	9.4
554.734	9.47
555.077	9.44
555.42	9.47
555.764	9.26
556.107	9.46
556.45	9.52
556.793	9.46
557.135	9.46
557.478	9.47
557.821	9.71
558.164	9.73
558.507	9.87
558.849	9.72
559.192	9.8
559.534	9.97
559.877	9.69
560.219	9.89
560.562	9.83
560.904	9.6
561.246	9.83
561.589	9.87
561.931	9.92
562.273	9.94
562.615	10.23
562.957	10.14
563.299	10
563.641	10.05
563.983	9.76
564.325	10.03
564.667	10.17
565.008	10.08
565.35	10.11
565.692	10.21
566.033	10.26
566.375	10.29
566.716	10.36
567.058	10.23
567.399	10.36
567.741	10.15
568.082	10.46
568.423	10.38
568.764	10.32
569.105	10.39
569.447	10.31
569.788	10.36
570.129	10.39
570.47	10.59
570.811	10.61
571.151	10.41
571.492	10.74
571.833	10.9
572.174	10.8
572.514	10.74
572.855	10.67
573.195	10.87
573.536	10.64
573.876	10.86
574.217	10.78
574.557	10.86
574.898	10.77
575.238	10.8
575.578	10.9
575.918	10.92
576.258	10.96
576.598	11.01
576.938	11.07
577.278	11.15
577.618	10.8
577.958	10.88
578.298	11.16
578.638	11.02
578.977	11.13
579.317	11.27
579.657	11.16
579.996	11.41
580.336	11.46
580.675	11.54
581.014	11.33
581.354	11.48
581.693	11.31
582.032	11.36
582.372	11.71
582.711	11.58
583.05	11.81
583.389	11.64
583.728	11.78
584.067	11.67
584.406	11.78
584.745	11.86
585.083	11.75
585.422	11.93
585.761	11.9
586.1	12
586.438	11.57
586.777	11.96
587.115	12.01
587.454	11.92
587.792	11.98
588.13	12.22
588.469	12.05
588.807	11.73
589.145	12.22
589.483	11.93
589.821	12.12
590.159	12.24
590.497	12.27
590.835	12.52
591.173	12.35
591.511	12.32
591.849	12.52
592.187	12.33
592.524	12.41
592.862	12.5
593.2	12.54
593.537	12.44
593.875	12.44
594.212	12.71
594.55	12.7
594.887	12.75
595.224	12.47
595.561	12.69
595.899	12.51
596.236	12.88
596.573	12.99
596.91	12.82
597.247	12.83
597.584	12.64
597.921	12.96
598.258	12.98
598.594	13.09
598.931	12.86
599.268	12.74
599.604	13.15
599.941	13.12
600.277	13.08
600.614	13.02
600.95	13.22
601.287	13.39
601.623	13.31
601.959	13.46
602.296	13.47
602.632	13.47
602.968	13.44
603.304	13.52
603.64	13.43
603.976	13.67
604.312	13.64
604.648	13.68
604.984	13.76
605.319	13.52
605.655	13.43
605.991	13.62
606.326	13.47
606.662	13.38
606.998	13.46
607.333	13.78
607.668	13.53
608.004	13.74
608.339	13.78
608.674	14
609.01	13.86
609.345	13.87
609.68	14.12
610.015	13.74
610.35	14.2
610.685	14.11
611.02	14.31
611.355	13.87
611.689	14.1
612.024	14.31
612.359	14.34
612.694	14.24
613.028	14.26
613.363	14.14
613.697	14.21
614.032	14.38
614.366	14.63
614.7	14.5
615.035	14.19
615.369	14.62
615.703	14.36
616.037	14.48
616.371	14.42
616.705	14.7
617.039	14.74
617.373	15.1
617.707	14.97
618.041	14.99
618.375	14.88
618.709	15.05
619.042	14.87
619.376	14.94
619.71	15.23
620.043	15.33
620.377	14.95
620.71	15.34
621.043	15.36
621.377	15.35
621.71	15.09
622.043	15.17
622.376	15.18
622.709	15.61
623.043	15.45
623.376	15.14
623.709	15.03
624.041	15.4
624.374	15.89
624.707	15.42
625.04	15.75
625.373	15.87
625.705	15.42
626.038	16.1
626.37	15.33
626.703	15.7
627.035	15.72
627.368	15.73
627.7	15.96
628.032	15.66
628.365	16.06
628.697	15.94
629.029	15.93
629.361	16.03
629.693	15.79
630.025	16.08
630.357	16.2
630.689	15.95
631.021	16.05
631.353	16.17
631.684	16.04
632.016	16.46
632.348	16.24
632.679	16.24
633.011	16.18
633.342	16.56
633.674	16.1
634.005	16.19
634.336	16.54
634.668	16.43
634.999	16.51
635.33	16.58
635.661	16.94
635.992	16.76
636.323	16.94
636.654	16.97
636.985	16.71
637.316	16.71
637.647	16.21
637.977	16.47
638.308	17.03
638.639	16.81
638.969	16.9
639.3	16.58
639.63	16.89
639.961	17.13
640.291	17.06
640.622	16.72
640.952	16.73
641.282	16.92
641.612	17.11
641.943	17.26
642.273	17.1
642.603	17.67
642.933	17.53
643.263	17.38
643.592	17.14
643.922	17.9
644.252	17.17
644.582	17.57
644.911	17.27
645.241	17.98
645.571	18.12
645.9	17.33
646.23	17.55
646.559	17.76
646.888	17.57
647.218	17.77
647.547	17.92
647.876	17.72
648.205	18.3
648.534	18.06
648.863	17.58
649.192	17.79
649.521	17.85
649.85	17.92
650.179	18.16
650.508	18.28
650.837	18.01
651.165	18.37
651.494	17.66
651.822	18.26
652.151	17.97
652.479	18.17
652.808	18.46
653.136	18
653.465	18.53
653.793	18.5
654.121	18.86
654.449	18.33
654.777	17.85
655.105	18.22
655.433	18.7
655.761	19.12
656.089	18.82
656.417	18.68
656.745	18.53
657.073	19.02
657.4	19.34
657.728	18.63
658.056	19.05
658.383	18.69
658.711	18.75
659.038	19.42
659.365	19.33
659.693	18.84
660.02	18.45
660.347	18.98
660.674	19.05
661.001	19.05
661.329	18.91
661.656	19.37
661.982	19.25
662.309	19.26
662.636	19.53
662.963	19.54
663.29	19.17
663.616	19.77
663.943	19.02
664.27	19.26
664.596	19.11
664.923	19.33
665.249	19.48
665.576	19.28
665.902	19.95
666.228	19.45
666.554	19.46
666.881	19.86
667.207	19.91
667.533	20.03
667.859	20.19
668.185	20.16
668.511	19.8
668.837	20.44
669.162	20.39
669.488	20.34
669.814	19.96
670.139	20.32
670.465	20.32
670.791	20.79
671.116	20.3
671.442	20.38
671.767	20.21
672.092	20.03
672.418	20.46
672.743	20.23
673.068	20.45
673.393	20.53
673.718	20.18
674.043	20.08
674.368	20.23
674.693	20.96
675.018	20.48
675.343	20.65
675.667	20.06
675.992	20.41
676.317	20.6
676.641	20.57
676.966	20.74
677.29	21.37
677.615	20.52
677.939	20.44
678.264	20.84
678.588	20.82
678.912	20.55
679.236	20.23
679.56	20.72
679.885	21.19
680.209	20.69
680.532	20.45
680.856	21.31
681.18	21.14
681.504	21.31
681.828	21.08
682.152	21.28
682.475	20.79
682.799	21.29
683.122	21.18
683.446	21.36
683.769	21.46
684.093	21.53
684.416	21.59
684.739	20.94
