Data from 0224_crown_Reflection__0__98.txt Node

Date: Fri Oct 20 21:25:40 CDT 2023
User: ToomeyLab
Spectrometer: FLMS14357
Trigger mode: 0
Integration Time (sec): 1.000000E-2
Scans to average: 100
Electric dark correction enabled: true
Nonlinearity correction enabled: false
Boxcar width: 0
XAxis mode: Wavelengths
Number of Pixels in Spectrum: 2048
>>>>>Begin Spectral Data<<<<<
189.047	582.9
189.435	582.9
189.823	582.9
190.211	245.33
190.599	11.78
190.987	151.42
191.375	-46.46
191.763	89.33
192.151	-786.96
192.538	39.45
192.926	-216.09
193.314	86.24
193.702	696.92
194.089	101.39
194.477	-21.17
194.864	-158.98
195.252	218.55
195.639	-145.61
196.027	-456.24
196.414	-61.6
196.801	492.58
197.189	14.06
197.576	-46.65
197.963	-18.57
198.351	51.98
198.738	42.84
199.125	37.01
199.512	37.28
199.899	11.65
200.286	-26.87
200.673	37.28
201.06	36.91
201.447	10.92
201.833	50.87
202.22	21.48
202.607	46.9
202.994	51.37
203.38	1.65
203.767	16.68
204.154	50.13
204.54	53.44
204.927	12.74
205.313	15.11
205.699	46.37
206.086	51.64
206.472	33.3
206.858	53.09
207.245	14.39
207.631	37.15
208.017	32.03
208.403	48.58
208.789	37.31
209.175	-13.09
209.561	30.04
209.947	18.22
210.333	46.35
210.719	12.72
211.105	15.55
211.491	23.29
211.876	15.48
212.262	22.03
212.648	67.13
213.034	52.54
213.419	21.69
213.805	9.62
214.19	9.1
214.576	-17.43
214.961	29.22
215.346	30.5
215.732	19.5
216.117	-16.71
216.502	17.55
216.888	38.9
217.273	27.02
217.658	8.64
218.043	6.22
218.428	28.67
218.813	13
219.198	14.03
219.583	-3.62
219.968	12.4
220.353	3.41
220.738	11.26
221.122	21.08
221.507	4.89
221.892	-1.49
222.276	20.66
222.661	29.79
223.046	19.13
223.43	13.11
223.815	7.35
224.199	20.14
224.583	5.7
224.968	11.19
225.352	10.78
225.736	14.66
226.121	11.16
226.505	7.42
226.889	15.56
227.273	14.85
227.657	12.31
228.041	14.23
228.425	8.72
228.809	7.32
229.193	3.56
229.577	10.37
229.961	7.05
230.344	6.45
230.728	6.98
231.112	7.36
231.495	6.61
231.879	7.18
232.263	7.94
232.646	5.5
233.03	6.58
233.413	6.57
233.797	5.63
234.18	7.24
234.563	9.15
234.946	8.56
235.33	6.67
235.713	7.88
236.096	9.46
236.479	7.61
236.862	7.93
237.245	5.75
237.628	5.67
238.011	6.96
238.394	7.2
238.777	9.43
239.16	5.16
239.543	8.34
239.925	8.29
240.308	4.88
240.691	5.97
241.073	8.84
241.456	6.61
241.838	8.02
242.221	7.3
242.603	6.42
242.986	6.32
243.368	5.7
243.75	5.94
244.133	6.09
244.515	5.91
244.897	6.4
245.279	6.05
245.661	5.67
246.043	5.8
246.425	5.35
246.807	6.11
247.189	5.38
247.571	5.71
247.953	5.84
248.335	5.95
248.717	5.29
249.098	5.61
249.48	5.49
249.862	5.74
250.243	6.04
250.625	5.5
251.006	5.84
251.388	5.85
251.769	6.6
252.151	5.78
252.532	5.23
252.913	5.06
253.295	4.91
253.676	5.84
254.057	5.68
254.438	5.52
254.819	5.68
255.2	5.8
255.581	6.37
255.962	6.56
256.343	6.15
256.724	5.12
257.105	5.72
257.486	5.99
257.867	4.93
258.247	5.38
258.628	4.71
259.009	6.35
259.389	5.39
259.77	4.54
260.15	5.74
260.531	5.19
260.911	5.55
261.292	4.75
261.672	5.14
262.052	5.2
262.432	5.15
262.813	5.27
263.193	5.61
263.573	5.16
263.953	5.53
264.333	5.62
264.713	6.39
265.093	6.33
265.473	5.28
265.853	4.88
266.233	5.48
266.612	4.7
266.992	4.9
267.372	4.62
267.752	4.86
268.131	5.44
268.511	5.77
268.89	5.11
269.27	4.85
269.649	4.55
270.029	4.88
270.408	5.47
270.787	5.62
271.167	4.97
271.546	4.83
271.925	5.09
272.304	5.66
272.683	5.08
273.062	5.1
273.441	4.95
273.82	4.95
274.199	5.08
274.578	4.95
274.957	5.07
275.336	5.27
275.715	5.15
276.093	4.87
276.472	4.96
276.851	4.72
277.229	5.05
277.608	4.14
277.986	4.63
278.365	5.54
278.743	5.62
279.122	4.72
279.5	4.13
279.878	4.13
280.257	4.57
280.635	4.95
281.013	4.9
281.391	5.86
281.769	4.21
282.147	4.53
282.525	4.97
282.903	4.73
283.281	4.63
283.659	4.95
284.037	4.93
284.415	4.44
284.792	4.59
285.17	4.83
285.548	4.72
285.925	4.72
286.303	4.27
286.68	4.25
287.058	4.99
287.435	4.57
287.813	4.14
288.19	4.09
288.567	4.43
288.945	4.77
289.322	4.87
289.699	3.96
290.076	4.84
290.453	4.53
290.83	4.26
291.207	4.68
291.584	4.26
291.961	4.48
292.338	4.17
292.715	4.65
293.092	4.35
293.469	4.64
293.845	4.37
294.222	4.41
294.599	4.59
294.975	5.55
295.352	4.21
295.728	4.36
296.105	4.87
296.481	4.27
296.858	4.21
297.234	4.7
297.61	4.04
297.986	4.51
298.363	4.55
298.739	4.22
299.115	4.36
299.491	4.18
299.867	4.29
300.243	4.68
300.619	4.28
300.995	4.02
301.371	4.91
301.746	4.37
302.122	4.7
302.498	4.37
302.874	4.24
303.249	4.4
303.625	4.08
304	4.23
304.376	3.99
304.751	4.54
305.127	4.6
305.502	4.77
305.878	4.59
306.253	4.45
306.628	4.33
307.003	4.23
307.378	3.99
307.754	4.23
308.129	4.49
308.504	4.84
308.879	4.2
309.254	5.71
309.629	4.26
310.003	3.96
310.378	4.15
310.753	4.35
311.128	4.36
311.502	3.98
311.877	4.57
312.252	3.95
312.626	4.49
313.001	4.45
313.375	4.04
313.75	4.5
314.124	3.89
314.498	4.52
314.873	4.08
315.247	4.29
315.621	4.28
315.995	4.5
316.369	4.03
316.743	4.39
317.117	4.39
317.491	3.43
317.865	4.51
318.239	4.22
318.613	4.57
318.987	3.7
319.361	3.63
319.734	4.09
320.108	3.57
320.482	4.84
320.855	3.96
321.229	4.39
321.602	4.24
321.976	3.8
322.349	4.96
322.723	3.98
323.096	4.3
323.469	3.25
323.843	4.53
324.216	4.14
324.589	4.28
324.962	4.38
325.335	3.91
325.708	3.68
326.081	4.55
326.454	3.78
326.827	4.28
327.2	4.22
327.573	4.33
327.945	4.36
328.318	3.92
328.691	3.83
329.063	4.84
329.436	3.45
329.809	4.15
330.181	4.42
330.553	4.57
330.926	4.36
331.298	3.79
331.671	3.94
332.043	4.01
332.415	3.96
332.787	4.39
333.159	3.72
333.532	4.28
333.904	4.4
334.276	3.37
334.648	4.2
335.02	4.69
335.391	4.34
335.763	4.36
336.135	4.31
336.507	4.54
336.879	4.25
337.25	4.07
337.622	4.17
337.993	5.03
338.365	3.98
338.736	3.94
339.108	4.29
339.479	3.97
339.851	4.33
340.222	3.9
340.593	3.49
340.964	3.85
341.336	4.52
341.707	4.01
342.078	4.18
342.449	4.31
342.82	4.14
343.191	3.73
343.562	4.2
343.933	4.29
344.303	3.97
344.674	4.34
345.045	4.39
345.416	4.1
345.786	4.07
346.157	4.35
346.527	4.26
346.898	4.22
347.268	4.12
347.639	4.18
348.009	3.74
348.38	4.16
348.75	4.25
349.12	4.15
349.49	4.1
349.861	4.22
350.231	3.87
350.601	3.8
350.971	4.64
351.341	4.04
351.711	4.94
352.081	4.12
352.45	4.42
352.82	4.14
353.19	4.31
353.56	4.47
353.929	4.23
354.299	4.13
354.669	4.39
355.038	4.08
355.408	3.87
355.777	4.53
356.147	4.21
356.516	3.78
356.885	3.91
357.254	4.57
357.624	4.11
357.993	4.13
358.362	4.05
358.731	3.92
359.1	4.16
359.469	4.18
359.838	4.12
360.207	3.92
360.576	4.41
360.945	3.75
361.314	4.23
361.682	4.17
362.051	4
362.42	3.82
362.788	4.32
363.157	4.27
363.525	4.12
363.894	4.12
364.262	4.05
364.631	4.01
364.999	4.29
365.367	4.26
365.735	4.17
366.104	4.36
366.472	4.27
366.84	4.39
367.208	4.05
367.576	4.24
367.944	4.47
368.312	4.24
368.68	4.3
369.048	4.37
369.416	4.22
369.783	4.25
370.151	4.51
370.519	4.2
370.886	4.25
371.254	4.83
371.621	4.57
371.989	3.98
372.356	4.52
372.724	4.56
373.091	4.26
373.458	4.16
373.826	4.3
374.193	4.28
374.56	4.06
374.927	4.17
375.294	4.31
375.661	4.56
376.028	4.42
376.395	4.75
376.762	4.26
377.129	4.6
377.496	4.19
377.863	4.52
378.229	4.25
378.596	4.16
378.963	4.38
379.329	4.65
379.696	4.41
380.062	4.55
380.429	4.27
380.795	4.2
381.161	4.34
381.528	4.93
381.894	4.48
382.26	4.31
382.626	4.61
382.993	4.19
383.359	4.39
383.725	4.39
384.091	4.48
384.457	4.56
384.823	4.37
385.188	4.88
385.554	4.51
385.92	4.26
386.286	4.54
386.651	4.29
387.017	4.52
387.383	4.31
387.748	4.15
388.114	4.26
388.479	4.5
388.845	4.53
389.21	4.61
389.575	4.28
389.94	4.32
390.306	4.27
390.671	4.26
391.036	4.19
391.401	4.72
391.766	4.49
392.131	4.57
392.496	4.23
392.861	4.33
393.226	4.43
393.591	4.38
393.956	4.6
394.32	4.72
394.685	4.65
395.05	4.55
395.414	4.7
395.779	4.13
396.143	4.32
396.508	4.41
396.872	4.6
397.236	4.29
397.601	4.47
397.965	4.39
398.329	4.16
398.694	4.74
399.058	4.23
399.422	4.57
399.786	4.46
400.15	4.29
400.514	4.26
400.878	4.67
401.242	4.6
401.605	4.74
401.969	4.42
402.333	4.49
402.697	4.58
403.06	4.5
403.424	4.28
403.787	4.52
404.151	4.4
404.514	4.74
404.878	4.62
405.241	4.62
405.604	4.31
405.968	4.76
406.331	4.51
406.694	4.51
407.057	4.58
407.42	4.77
407.783	4.45
408.146	4.52
408.509	4.4
408.872	4.67
409.235	4.5
409.598	4.64
409.961	4.74
410.323	4.66
410.686	4.36
411.049	4.47
411.411	4.69
411.774	4.77
412.136	4.68
412.499	4.57
412.861	4.59
413.223	4.64
413.586	4.42
413.948	4.69
414.31	4.99
414.672	4.63
415.035	4.53
415.397	4.68
415.759	4.61
416.121	4.54
416.483	4.73
416.845	4.42
417.206	4.68
417.568	4.67
417.93	4.63
418.292	4.54
418.653	4.6
419.015	4.6
419.377	4.49
419.738	4.3
420.1	4.45
420.461	4.51
420.822	4.39
421.184	4.49
421.545	4.52
421.906	4.34
422.267	4.47
422.629	4.59
422.99	4.33
423.351	4.45
423.712	4.44
424.073	4.52
424.434	4.42
424.795	4.47
425.155	4.55
425.516	4.5
425.877	4.51
426.238	4.46
426.598	4.48
426.959	4.43
427.32	4.53
427.68	4.54
428.041	4.49
428.401	4.71
428.761	4.63
429.122	4.56
429.482	4.55
429.842	4.46
430.202	4.67
430.563	4.64
430.923	4.76
431.283	4.6
431.643	4.84
432.003	4.87
432.363	4.59
432.722	4.72
433.082	4.83
433.442	4.57
433.802	4.72
434.161	4.67
434.521	4.79
434.881	4.6
435.24	4.69
435.6	4.69
435.959	4.57
436.319	4.69
436.678	4.69
437.037	4.62
437.396	4.89
437.756	4.81
438.115	4.67
438.474	4.78
438.833	4.91
439.192	4.85
439.551	4.68
439.91	4.66
440.269	4.78
440.628	4.68
440.987	4.64
441.345	4.65
441.704	4.57
442.063	4.62
442.421	4.71
442.78	4.5
443.138	4.72
443.497	4.71
443.855	4.76
444.214	4.65
444.572	4.74
444.93	4.78
445.288	4.7
445.647	5.05
446.005	4.57
446.363	4.79
446.721	4.69
447.079	4.88
447.437	4.68
447.795	4.69
448.153	4.55
448.51	4.63
448.868	4.6
449.226	4.62
449.584	4.67
449.941	4.59
450.299	4.74
450.656	4.61
451.014	4.76
451.371	4.78
451.729	4.71
452.086	4.7
452.443	4.83
452.801	4.73
453.158	4.87
453.515	4.74
453.872	4.83
454.229	4.86
454.586	4.78
454.943	4.69
455.3	4.61
455.657	4.73
456.014	4.73
456.371	4.7
456.727	4.81
457.084	4.77
457.441	4.8
457.797	4.73
458.154	4.91
458.51	4.67
458.867	4.69
459.223	4.88
459.58	4.88
459.936	4.76
460.292	4.65
460.648	4.6
461.005	4.62
461.361	4.66
461.717	4.57
462.073	4.76
462.429	4.67
462.785	4.63
463.141	4.75
463.496	4.76
463.852	4.86
464.208	4.86
464.564	4.68
464.919	4.69
465.275	4.94
465.631	4.92
465.986	4.92
466.342	4.87
466.697	4.7
467.052	4.84
467.408	4.76
467.763	4.87
468.118	4.95
468.473	4.85
468.829	4.85
469.184	4.87
469.539	4.87
469.894	4.86
470.249	4.77
470.603	4.89
470.958	4.91
471.313	4.91
471.668	5.04
472.023	4.8
472.377	4.79
472.732	4.8
473.086	4.87
473.441	4.94
473.795	5.02
474.15	4.85
474.504	4.86
474.859	4.75
475.213	4.78
475.567	4.91
475.921	4.84
476.275	5.05
476.63	5.06
476.984	4.92
477.338	4.93
477.692	4.84
478.045	4.87
478.399	4.9
478.753	4.87
479.107	4.89
479.461	4.94
479.814	5.08
480.168	4.83
480.521	4.93
480.875	4.82
481.228	4.78
481.582	5.01
481.935	4.75
482.289	4.82
482.642	4.83
482.995	4.84
483.348	4.81
483.701	4.78
484.055	4.78
484.408	4.75
484.761	4.69
485.114	4.6
485.466	4.6
485.819	4.47
486.172	4.41
486.525	4.46
486.878	4.51
487.23	4.55
487.583	4.56
487.936	4.62
488.288	4.68
488.641	4.72
488.993	4.61
489.345	4.6
489.698	4.57
490.05	4.52
490.402	4.55
490.754	4.56
491.107	4.61
491.459	4.68
491.811	4.71
492.163	4.66
492.515	4.78
492.866	4.7
493.218	4.69
493.57	4.58
493.922	4.6
494.274	4.62
494.625	4.66
494.977	4.65
495.328	4.75
495.68	4.87
496.031	4.77
496.383	4.82
496.734	4.98
497.086	4.9
497.437	4.94
497.788	4.74
498.139	5.08
498.49	4.97
498.842	4.75
499.193	4.81
499.544	4.81
499.894	4.94
500.245	4.76
500.596	4.91
500.947	4.83
501.298	4.8
501.648	4.84
501.999	4.83
502.35	4.74
502.7	5.05
503.051	4.9
503.401	4.86
503.752	5
504.102	4.84
504.452	4.9
504.803	4.9
505.153	4.96
505.503	4.93
505.853	4.98
506.203	4.9
506.553	4.88
506.903	4.98
507.253	4.97
507.603	4.88
507.953	4.89
508.303	4.81
508.652	4.91
509.002	4.93
509.352	4.93
509.701	4.9
510.051	4.91
510.4	4.87
510.75	4.89
511.099	4.81
511.449	4.9
511.798	4.96
512.147	4.85
512.496	4.79
512.846	4.8
513.195	4.92
513.544	4.89
513.893	4.7
514.242	4.87
514.591	4.88
514.939	4.83
515.288	4.75
515.637	4.89
515.986	4.95
516.334	4.92
516.683	4.89
517.032	4.82
517.38	4.84
517.729	4.91
518.077	4.9
518.426	4.94
518.774	4.83
519.122	4.85
519.47	4.88
519.819	4.86
520.167	4.77
520.515	4.8
520.863	4.83
521.211	4.79
521.559	4.89
521.907	4.73
522.255	4.8
522.602	4.9
522.95	4.83
523.298	4.84
523.645	4.92
523.993	4.89
524.341	4.93
524.688	4.96
525.036	4.92
525.383	4.77
525.73	5.01
526.078	4.9
526.425	4.94
526.772	4.76
527.119	4.92
527.466	4.75
527.814	4.77
528.161	4.76
528.508	4.67
528.854	4.77
529.201	4.76
529.548	4.77
529.895	4.72
530.242	4.65
530.588	4.53
530.935	4.5
531.282	4.52
531.628	4.63
531.975	4.57
532.321	4.69
532.667	4.71
533.014	4.77
533.36	4.77
533.706	4.8
534.052	4.85
534.399	4.69
534.745	4.65
535.091	4.68
535.437	4.74
535.783	4.62
536.129	4.73
536.474	4.65
536.82	4.81
537.166	4.82
537.512	4.93
537.857	4.91
538.203	4.8
538.549	4.83
538.894	4.72
539.239	4.73
539.585	4.72
539.93	4.85
540.276	4.84
540.621	4.91
540.966	4.92
541.311	4.94
541.656	4.86
542.001	4.86
542.346	4.99
542.691	4.77
543.036	4.7
543.381	4.64
543.726	4.53
544.071	4.66
544.415	4.67
544.76	4.72
545.105	4.74
545.449	4.71
545.794	4.72
546.138	4.76
546.483	4.84
546.827	4.79
547.171	4.9
547.516	4.83
547.86	4.87
548.204	4.82
548.548	4.86
548.892	4.82
549.236	4.79
549.58	4.82
549.924	4.81
550.268	4.96
550.612	4.86
550.956	4.97
551.3	4.96
551.643	4.92
551.987	5.06
552.33	4.89
552.674	4.9
553.017	4.99
553.361	5
553.704	5.13
554.048	4.77
554.391	4.98
554.734	4.97
555.077	4.79
555.42	4.84
555.764	4.84
556.107	5
556.45	4.89
556.793	4.89
557.135	4.68
557.478	4.98
557.821	5.02
558.164	5.03
558.507	4.97
558.849	5.09
559.192	5.09
559.534	5.12
559.877	4.88
560.219	5.02
560.562	4.89
560.904	4.8
561.246	5.05
561.589	4.92
561.931	4.95
562.273	5.15
562.615	4.85
562.957	5.08
563.299	5.08
563.641	4.88
563.983	4.97
564.325	4.82
564.667	5.02
565.008	4.98
565.35	5.06
565.692	4.89
566.033	4.95
566.375	4.89
566.716	5
567.058	4.92
567.399	4.97
567.741	4.81
568.082	4.92
568.423	4.95
568.764	4.73
569.105	4.88
569.447	5.01
569.788	4.99
570.129	5
570.47	4.95
570.811	5.07
571.151	4.91
571.492	5.01
571.833	4.99
572.174	5.06
572.514	5.02
572.855	4.98
573.195	4.97
573.536	4.67
573.876	5.03
574.217	4.8
574.557	4.76
574.898	4.83
575.238	4.76
575.578	4.88
575.918	4.84
576.258	4.92
576.598	4.85
576.938	4.93
577.278	4.86
577.618	4.7
577.958	4.73
578.298	4.8
578.638	4.94
578.977	4.87
579.317	4.93
579.657	4.75
579.996	5.02
580.336	5.02
580.675	4.75
581.014	4.76
581.354	4.81
581.693	4.7
582.032	4.97
582.372	5.24
582.711	5.04
583.05	5.06
583.389	5.02
583.728	5.1
584.067	5.06
584.406	5.15
584.745	5.05
585.083	4.86
585.422	4.82
585.761	4.72
586.1	4.97
586.438	4.69
586.777	4.82
587.115	5.05
587.454	4.95
587.792	5.04
588.13	5.06
588.469	5
588.807	4.7
589.145	4.88
589.483	5.04
589.821	4.92
590.159	4.87
590.497	4.95
590.835	4.81
591.173	4.86
591.511	4.99
591.849	4.83
592.187	4.78
592.524	4.93
592.862	4.93
593.2	5.02
593.537	4.89
593.875	4.77
594.212	4.99
594.55	5.04
594.887	5.13
595.224	4.75
595.561	4.76
595.899	5.04
596.236	4.87
596.573	4.88
596.91	4.92
597.247	4.81
597.584	4.71
597.921	5
598.258	4.86
598.594	4.98
598.931	4.75
599.268	4.7
599.604	4.93
599.941	4.87
600.277	4.6
600.614	4.97
600.95	4.84
601.287	4.76
601.623	5.1
601.959	5.04
602.296	4.87
602.632	4.96
602.968	4.89
603.304	4.9
603.64	4.82
603.976	4.95
604.312	5
604.648	4.96
604.984	5.04
605.319	4.77
605.655	4.81
605.991	5.11
606.326	4.91
606.662	4.7
606.998	4.68
607.333	4.74
607.668	4.75
608.004	4.92
608.339	4.72
608.674	4.88
609.01	4.9
609.345	4.89
609.68	4.9
610.015	4.85
610.35	5.04
610.685	5.07
611.02	4.8
611.355	4.86
611.689	4.82
612.024	5.1
612.359	4.83
612.694	4.83
613.028	5.03
613.363	4.97
613.697	4.79
614.032	5.03
614.366	5.1
614.7	5.03
615.035	4.92
615.369	4.99
615.703	4.97
616.037	5.01
616.371	4.8
616.705	5.25
617.039	4.75
617.373	5.1
617.707	5.12
618.041	5.08
618.375	4.87
618.709	5.05
619.042	4.85
619.376	5.27
619.71	5.07
620.043	5.15
620.377	5.14
620.71	5.03
621.043	5.16
621.377	4.95
621.71	4.97
622.043	4.94
622.376	5.1
622.709	5.14
623.043	4.78
623.376	4.7
623.709	4.7
624.041	4.89
624.374	5.04
624.707	4.83
625.04	5.2
625.373	5.07
625.705	4.81
626.038	5.05
626.37	4.46
626.703	5.11
627.035	5
627.368	5.08
627.7	5.18
628.032	5
628.365	4.72
628.697	4.99
629.029	5.04
629.361	4.98
629.693	4.82
630.025	5.02
630.357	4.86
630.689	4.68
631.021	5.24
631.353	5.26
631.684	4.7
632.016	4.86
632.348	4.74
632.679	4.38
633.011	5.1
633.342	4.97
633.674	4.86
634.005	5.17
634.336	5.29
634.668	4.77
634.999	4.87
635.33	4.35
635.661	5.31
635.992	4.9
636.323	5.31
636.654	5.09
636.985	4.89
637.316	4.88
637.647	4.75
637.977	4.57
638.308	4.76
638.639	5.2
638.969	5.12
639.3	4.83
639.63	5.02
639.961	5
640.291	4.91
640.622	4.93
640.952	5.26
641.282	4.86
641.612	5.11
641.943	4.68
642.273	4.79
642.603	5.42
642.933	5.12
643.263	5.71
643.592	4.92
643.922	5.53
644.252	4.71
644.582	4.89
644.911	5.41
645.241	5.32
645.571	5.66
645.9	4.77
646.23	4.93
646.559	5.18
646.888	5.22
647.218	5.19
647.547	4.53
647.876	4.63
648.205	5.07
648.534	5.02
648.863	5.37
649.192	4.49
649.521	5.17
649.85	5.18
650.179	5.02
650.508	4.94
650.837	5.4
651.165	5.35
651.494	4.8
651.822	5.22
652.151	5.22
652.479	4.99
652.808	5.19
653.136	4.76
653.465	5.46
653.793	5.28
654.121	5.42
654.449	5.09
654.777	4.76
655.105	5.45
655.433	5.34
655.761	5.31
656.089	4.98
656.417	4.97
656.745	5.72
657.073	5.09
657.4	5.64
657.728	5.53
658.056	4.68
658.383	4.88
658.711	4.5
659.038	5.31
659.365	5.23
659.693	5.06
660.02	5.18
660.347	4.64
660.674	4.89
661.001	4.97
661.329	5.18
661.656	5.33
661.982	4.95
662.309	5.13
662.636	4.86
662.963	5.13
663.29	5.08
663.616	5.28
663.943	4.58
664.27	5.55
664.596	4.99
664.923	5.14
665.249	4.93
665.576	4.71
665.902	5.14
666.228	5.55
666.554	5.22
666.881	4.62
667.207	5.63
667.533	5.52
667.859	5.22
668.185	5
668.511	5.3
668.837	5.32
669.162	6
669.488	5.21
669.814	5.1
670.139	4.86
670.465	4.79
670.791	5.12
671.116	5.15
671.442	5.18
671.767	5.04
672.092	5.44
672.418	5.32
672.743	5.06
673.068	5.69
673.393	5.71
673.718	5.17
674.043	5.59
674.368	5.28
674.693	5.44
675.018	5.73
675.343	5.18
675.667	5.33
675.992	5.7
676.317	5.61
676.641	5.52
676.966	5.64
677.29	5.84
677.615	5.86
677.939	5.45
678.264	5.16
678.588	4.67
678.912	5.39
679.236	4.96
679.56	5.48
679.885	5.63
680.209	5.61
680.532	5.09
680.856	5.08
681.18	4.89
681.504	4.91
681.828	5.67
682.152	5.36
682.475	4.92
682.799	5.25
683.122	5.37
683.446	5.48
683.769	4.65
684.093	5.5
684.416	5.26
684.739	5.15
685.062	4.58
685.386	5
685.709	5.25
686.032	4.86
686.355	5.54
686.678	5.01
687.001	5.48
687.324	4.94
687.646	5.14
687.969	5.89
688.292	5.46
688.614	5.45
688.937	4.85
689.26	5.37
689.582	5.03
689.904	4.4
690.227	5.25
690.549	5.82
690.871	5.43
691.194	5.39
691.516	5.48
691.838	5.79
692.16	5.14
692.482	4.86
692.804	5.91
693.126	4.34
