Data from 0224_chest_Reflection__4__97.txt Node

Date: Fri Oct 20 21:24:43 CDT 2023
User: ToomeyLab
Spectrometer: FLMS14357
Trigger mode: 0
Integration Time (sec): 1.000000E-2
Scans to average: 100
Electric dark correction enabled: true
Nonlinearity correction enabled: false
Boxcar width: 0
XAxis mode: Wavelengths
Number of Pixels in Spectrum: 2048
>>>>>Begin Spectral Data<<<<<
189.047	206.22
189.435	206.22
189.823	206.22
190.211	119.14
190.599	5
190.987	57.33
191.375	42.02
191.763	195.06
192.151	4600
192.538	362.21
192.926	416.92
193.314	63.81
193.702	3221.54
194.089	84.06
194.477	17.08
194.864	54.19
195.252	41.04
195.639	-2136.84
196.027	-250.82
196.414	153.08
196.801	-61.51
197.189	25.32
197.576	-92.11
197.963	51.29
198.351	33.73
198.738	5.36
199.125	72.71
199.512	32.21
199.899	33.81
200.286	3.67
200.673	26.09
201.06	19.3
201.447	34.99
201.833	59.16
202.22	36.25
202.607	34.34
202.994	13.69
203.38	26.16
203.767	16.19
204.154	13.88
204.54	43.26
204.927	23.31
205.313	7.55
205.699	63.87
206.086	77.31
206.472	49.21
206.858	47.2
207.245	10.5
207.631	35.01
208.017	34.5
208.403	26.66
208.789	37.63
209.175	30.9
209.561	19.1
209.947	13.88
210.333	24.95
210.719	32.04
211.105	3.79
211.491	48.86
211.876	-28.56
212.262	36.7
212.648	26.56
213.034	4.71
213.419	41.15
213.805	7.81
214.19	49.65
214.576	-4.21
214.961	27.79
215.346	22.96
215.732	5.77
216.117	-19.85
216.502	22.4
216.888	12.79
217.273	3.1
217.658	8.09
218.043	19.77
218.428	25.06
218.813	11.47
219.198	10.39
219.583	2.76
219.968	-7.97
220.353	7.71
220.738	16.91
221.122	25.59
221.507	22.07
221.892	10.69
222.276	13.53
222.661	24.65
223.046	16.34
223.43	10.95
223.815	15.08
224.199	25.17
224.583	8.71
224.968	1.95
225.352	10.51
225.736	-4.2
226.121	10.75
226.505	1.39
226.889	8.93
227.273	11.05
227.657	10.27
228.041	8.87
228.425	7.97
228.809	8.25
229.193	4.42
229.577	7.83
229.961	7.06
230.344	5.11
230.728	4.31
231.112	5.37
231.495	3.91
231.879	4.37
232.263	6.68
232.646	2.88
233.03	3.41
233.413	3.25
233.797	4.75
234.18	5.36
234.563	6.54
234.946	9.12
235.33	4.24
235.713	4.42
236.096	7.3
236.479	5.99
236.862	7.3
237.245	5.33
237.628	5.68
238.011	5.75
238.394	4.76
238.777	7.47
239.16	6.43
239.543	7.99
239.925	5.27
240.308	4.54
240.691	5.55
241.073	5.52
241.456	4.12
241.838	4.08
242.221	4.76
242.603	5.78
242.986	4.62
243.368	6.02
243.75	4.59
244.133	4.45
244.515	4.31
244.897	4.52
245.279	4.01
245.661	4.33
246.043	4.07
246.425	4.85
246.807	4.48
247.189	4.62
247.571	4.33
247.953	4.84
248.335	4.84
248.717	4.3
249.098	4.14
249.48	4.06
249.862	4.37
250.243	4.77
250.625	4.32
251.006	4.9
251.388	3.8
251.769	4.85
252.151	3.89
252.532	4.14
252.913	3.61
253.295	2.95
253.676	4.13
254.057	4.68
254.438	4.64
254.819	4.59
255.2	3.93
255.581	4.56
255.962	3.66
256.343	5.75
256.724	4.54
257.105	5.77
257.486	5.94
257.867	4.5
258.247	5.52
258.628	3.35
259.009	3.26
259.389	3.45
259.77	4.54
260.15	4.41
260.531	4.25
260.911	4.79
261.292	3.98
261.672	4.31
262.052	4.21
262.432	4.04
262.813	3.92
263.193	4.07
263.573	3.97
263.953	3.35
264.333	4.04
264.713	4.7
265.093	4.52
265.473	4.49
265.853	4.14
266.233	4.71
266.612	4.87
266.992	5.19
267.372	4.02
267.752	4.24
268.131	4.06
268.511	4.12
268.89	4.49
269.27	3.93
269.649	3.33
270.029	3.45
270.408	4.29
270.787	4.35
271.167	3.64
271.546	3.77
271.925	5.11
272.304	4.41
272.683	3.76
273.062	4.21
273.441	4.71
273.82	3.78
274.199	4.43
274.578	4.19
274.957	4.36
275.336	4.44
275.715	4.63
276.093	4.1
276.472	3.99
276.851	3.79
277.229	4.33
277.608	3.38
277.986	3.71
278.365	4.4
278.743	4.02
279.122	3.9
279.5	3.71
279.878	3.88
280.257	3.85
280.635	3.85
281.013	4.83
281.391	3.79
281.769	3.96
282.147	3.72
282.525	4.29
282.903	4.03
283.281	4.6
283.659	3.92
284.037	3.97
284.415	3.24
284.792	3.6
285.17	4.12
285.548	4.34
285.925	3.77
286.303	4.1
286.68	3.5
287.058	4.25
287.435	4.11
287.813	3.84
288.19	4.08
288.567	4.07
288.945	4.17
289.322	4.52
289.699	3.6
290.076	4.59
290.453	4.03
290.83	3.96
291.207	4.77
291.584	3.66
291.961	4.15
292.338	3.61
292.715	4.11
293.092	3.78
293.469	4.53
293.845	4.24
294.222	3.99
294.599	4.28
294.975	4.18
295.352	4.75
295.728	4.35
296.105	4.36
296.481	4.12
296.858	4.29
297.234	4.52
297.61	3.77
297.986	3.94
298.363	4.38
298.739	3.86
299.115	3.89
299.491	4.12
299.867	4.12
300.243	4.19
300.619	4.17
300.995	4.24
301.371	4.23
301.746	4.04
302.122	4.52
302.498	4.03
302.874	4.11
303.249	4.31
303.625	4.38
304	4.72
304.376	4.27
304.751	4
305.127	4.2
305.502	4.61
305.878	4.76
306.253	4.22
306.628	4.35
307.003	4.35
307.378	3.88
307.754	4.09
308.129	4.84
308.504	4.47
308.879	4.25
309.254	4.24
309.629	3.75
310.003	4.04
310.378	4.52
310.753	4.45
311.128	4.72
311.502	4.57
311.877	4.81
312.252	3.93
312.626	4.62
313.001	4.06
313.375	4.37
313.75	4.38
314.124	4.23
314.498	4.65
314.873	3.82
315.247	4.47
315.621	4.18
315.995	4.46
316.369	4.35
316.743	4.09
317.117	4.64
317.491	3.68
317.865	4.47
318.239	4.61
318.613	4.69
318.987	3.85
319.361	3.5
319.734	4.48
320.108	4.24
320.482	4.5
320.855	4.05
321.229	4.82
321.602	4.49
321.976	4.63
322.349	5.04
322.723	3.96
323.096	4.78
323.469	4.68
323.843	4.66
324.216	3.86
324.589	4.77
324.962	4.64
325.335	5.13
325.708	4.25
326.081	4.32
326.454	5
326.827	4.12
327.2	4.8
327.573	4.7
327.945	4.65
328.318	4.17
328.691	4.37
329.063	5.26
329.436	4.07
329.809	4.6
330.181	4.69
330.553	4.59
330.926	3.66
331.298	3.66
331.671	4.09
332.043	4.59
332.415	4.4
332.787	4.73
333.159	4.46
333.532	4.58
333.904	4.86
334.276	4.46
334.648	4.81
335.02	4.28
335.391	4.18
335.763	4.87
336.135	4.37
336.507	4.68
336.879	4.11
337.25	4.28
337.622	4.8
337.993	4.58
338.365	4.61
338.736	4.54
339.108	4.51
339.479	4.14
339.851	4.53
340.222	4.17
340.593	3.81
340.964	4.23
341.336	4.61
341.707	4.45
342.078	4.72
342.449	4.29
342.82	4.21
343.191	4.69
343.562	4.37
343.933	4.32
344.303	4.22
344.674	5.12
345.045	4.81
345.416	4.94
345.786	4.37
346.157	4.69
346.527	3.96
346.898	4.58
347.268	4.58
347.639	4.92
348.009	4.36
348.38	4.37
348.75	4.2
349.12	4.2
349.49	4.62
349.861	4.96
350.231	4.27
350.601	4.28
350.971	5.25
351.341	4.54
351.711	5.23
352.081	4.34
352.45	4.49
352.82	4.94
353.19	4.9
353.56	4.73
353.929	4.63
354.299	4.46
354.669	4.71
355.038	5.02
355.408	4.79
355.777	4.46
356.147	4.56
356.516	4.22
356.885	4.74
357.254	4.39
357.624	4.84
357.993	4.31
358.362	4.49
358.731	4.42
359.1	4.24
359.469	4.34
359.838	4.41
360.207	4.61
360.576	4.45
360.945	4.2
361.314	4.63
361.682	4.55
362.051	4.31
362.42	4.43
362.788	4.62
363.157	4.59
363.525	4.36
363.894	4.34
364.262	4.46
364.631	4.3
364.999	4.37
365.367	4.65
365.735	4.39
366.104	4.46
366.472	4.82
366.84	4.73
367.208	4.65
367.576	4.43
367.944	4.83
368.312	4.33
368.68	4.87
369.048	4.39
369.416	4.94
369.783	4.49
370.151	4.39
370.519	4.56
370.886	4.76
371.254	4.82
371.621	4.97
371.989	4.37
372.356	4.87
372.724	4.86
373.091	4.49
373.458	4.25
373.826	4.73
374.193	4.24
374.56	4.61
374.927	4.65
375.294	4.71
375.661	4.5
376.028	4.46
376.395	4.64
376.762	4.55
377.129	4.77
377.496	4.65
377.863	4.93
378.229	4.91
378.596	4.85
378.963	4.63
379.329	4.68
379.696	4.73
380.062	4.78
380.429	4.35
380.795	4.36
381.161	4.79
381.528	5.06
381.894	4.46
382.26	4.52
382.626	4.81
382.993	4.59
383.359	4.83
383.725	4.65
384.091	4.57
384.457	4.6
384.823	5
385.188	4.98
385.554	4.69
385.92	4.48
386.286	4.72
386.651	4.41
387.017	4.66
387.383	4.7
387.748	4.24
388.114	4.54
388.479	4.65
388.845	4.72
389.21	4.59
389.575	4.43
389.94	4.51
390.306	4.52
390.671	4.43
391.036	4.71
391.401	4.63
391.766	4.69
392.131	4.76
392.496	4.76
392.861	4.67
393.226	4.65
393.591	4.53
393.956	4.78
394.32	4.96
394.685	4.65
395.05	4.87
395.414	4.74
395.779	4.51
396.143	4.73
396.508	4.47
396.872	4.61
397.236	4.56
397.601	4.5
397.965	4.4
398.329	4.47
398.694	4.67
399.058	4.51
399.422	4.55
399.786	4.71
400.15	4.74
400.514	4.68
400.878	4.62
401.242	4.95
401.605	4.85
401.969	4.32
402.333	4.71
402.697	4.96
403.06	4.6
403.424	4.64
403.787	4.57
404.151	4.87
404.514	4.86
404.878	4.96
405.241	4.7
405.604	4.53
405.968	4.86
406.331	4.59
406.694	4.75
407.057	4.47
407.42	4.89
407.783	4.72
408.146	4.59
408.509	4.78
408.872	4.91
409.235	4.75
409.598	4.84
409.961	4.78
410.323	4.8
410.686	4.66
411.049	4.7
411.411	4.56
411.774	4.73
412.136	4.76
412.499	4.8
412.861	4.8
413.223	4.92
413.586	4.88
413.948	4.68
414.31	5.16
414.672	4.99
415.035	4.58
415.397	5.07
415.759	4.65
416.121	4.65
416.483	5.19
416.845	4.88
417.206	4.84
417.568	5.04
417.93	4.71
418.292	4.61
418.653	4.87
419.015	4.75
419.377	4.8
419.738	4.7
420.1	4.73
420.461	4.75
420.822	4.78
421.184	4.65
421.545	4.69
421.906	4.71
422.267	4.74
422.629	4.86
422.99	4.63
423.351	4.69
423.712	4.68
424.073	4.69
424.434	4.59
424.795	4.63
425.155	4.76
425.516	4.7
425.877	4.7
426.238	4.65
426.598	4.7
426.959	4.65
427.32	4.71
427.68	4.79
428.041	4.76
428.401	4.84
428.761	4.86
429.122	4.88
429.482	4.8
429.842	4.72
430.202	4.89
430.563	4.89
430.923	5.01
431.283	4.87
431.643	4.99
432.003	5.09
432.363	4.86
432.722	5.07
433.082	5.1
433.442	4.81
433.802	5.04
434.161	4.87
434.521	4.88
434.881	4.89
435.24	4.93
435.6	4.89
435.959	4.89
436.319	4.83
436.678	4.99
437.037	4.77
437.396	5
437.756	4.87
438.115	4.79
438.474	4.96
438.833	5.13
439.192	4.67
439.551	4.93
439.91	4.94
440.269	5.07
440.628	4.9
440.987	5.03
441.345	4.77
441.704	4.98
442.063	4.97
442.421	4.95
442.78	4.78
443.138	5.05
443.497	4.99
443.855	4.92
444.214	4.89
444.572	4.89
444.93	5.05
445.288	5.1
445.647	5.27
446.005	4.86
446.363	5.05
446.721	5.15
447.079	5.05
447.437	5.08
447.795	4.81
448.153	4.93
448.51	4.93
448.868	4.92
449.226	4.85
449.584	4.98
449.941	4.96
450.299	4.97
450.656	4.98
451.014	4.99
451.371	5.06
451.729	5.11
452.086	5.06
452.443	5.15
452.801	4.93
453.158	5.25
453.515	5.05
453.872	5.01
454.229	5.32
454.586	5.05
454.943	5.02
455.3	4.94
455.657	5.1
456.014	5.04
456.371	5.1
456.727	5.17
457.084	5.17
457.441	5.19
457.797	5.08
458.154	5.16
458.51	5.1
458.867	5.21
459.223	5.14
459.58	5.03
459.936	5.16
460.292	5.04
460.648	5.12
461.005	5.03
461.361	4.96
461.717	4.88
462.073	5
462.429	4.98
462.785	5.02
463.141	5.15
463.496	5.05
463.852	5.25
464.208	5.25
464.564	5.29
464.919	5.1
465.275	5.33
465.631	5.28
465.986	5.25
466.342	5.26
466.697	5.26
467.052	5.13
467.408	5.32
467.763	5.3
468.118	5.54
468.473	5.25
468.829	5.14
469.184	5.26
469.539	5.28
469.894	5.2
470.249	5.3
470.603	5.31
470.958	5.34
471.313	5.36
471.668	5.32
472.023	5.36
472.377	5.52
472.732	5.06
473.086	5.45
473.441	5.45
473.795	5.58
474.15	5.19
474.504	5.25
474.859	5.41
475.213	5.4
475.567	5.31
475.921	5.23
476.275	5.38
476.63	5.38
476.984	5.57
477.338	5.32
477.692	5.3
478.045	5.55
478.399	5.43
478.753	5.42
479.107	5.35
479.461	5.37
479.814	5.55
480.168	5.42
480.521	5.5
480.875	5.4
481.228	5.51
481.582	5.45
481.935	5.34
482.289	5.42
482.642	5.3
482.995	5.39
483.348	5.38
483.701	5.39
484.055	5.49
484.408	5.28
484.761	5.24
485.114	5.16
485.466	5.11
485.819	5.07
486.172	4.97
486.525	5.02
486.878	5.12
487.23	5.18
487.583	5.2
487.936	5.23
488.288	5.31
488.641	5.32
488.993	5.2
489.345	5.14
489.698	5.19
490.05	5.12
490.402	5.17
490.754	5.23
491.107	5.27
491.459	5.32
491.811	5.39
492.163	5.33
492.515	5.41
492.866	5.47
493.218	5.3
493.57	5.27
493.922	5.19
494.274	5.35
494.625	5.35
494.977	5.33
495.328	5.56
495.68	5.57
496.031	5.48
496.383	5.62
496.734	5.62
497.086	5.59
497.437	5.71
497.788	5.59
498.139	5.73
498.49	5.7
498.842	5.53
499.193	5.59
499.544	5.72
499.894	5.71
500.245	5.61
500.596	5.62
500.947	5.68
501.298	5.69
501.648	5.73
501.999	5.64
502.35	5.69
502.7	5.86
503.051	5.76
503.401	5.76
503.752	5.81
504.102	5.8
504.452	5.71
504.803	5.77
505.153	5.86
505.503	5.81
505.853	6.02
506.203	5.77
506.553	5.93
506.903	5.82
507.253	5.76
507.603	5.89
507.953	5.84
508.303	5.75
508.652	6.01
509.002	5.84
509.352	5.94
509.701	5.89
510.051	5.82
510.4	5.89
510.75	5.88
511.099	5.82
511.449	5.87
511.798	5.99
512.147	5.88
512.496	5.94
512.846	5.95
513.195	5.89
513.544	5.98
513.893	5.87
514.242	5.86
514.591	5.97
514.939	5.86
515.288	5.93
515.637	5.96
515.986	6.05
516.334	5.94
516.683	5.99
517.032	5.95
517.38	5.85
517.729	6.12
518.077	6.17
518.426	6.08
518.774	5.95
519.122	6.09
519.47	6.13
519.819	5.95
520.167	5.97
520.515	6.12
520.863	6.07
521.211	5.97
521.559	6.06
521.907	6.08
522.255	6.1
522.602	6.25
522.95	6.19
523.298	6.23
523.645	6.24
523.993	6.31
524.341	6.32
524.688	6.31
525.036	6.24
525.383	6.17
525.73	6.34
526.078	6.33
526.425	6.47
526.772	6.19
527.119	6.28
527.466	6.17
527.814	6.31
528.161	6.23
528.508	6.18
528.854	6.28
529.201	6.19
529.548	6.29
529.895	6.23
530.242	6.19
530.588	6.07
530.935	6.04
531.282	6.09
531.628	6.21
531.975	6.18
532.321	6.25
532.667	6.32
533.014	6.41
533.36	6.4
533.706	6.47
534.052	6.45
534.399	6.42
534.745	6.3
535.091	6.34
535.437	6.37
535.783	6.38
536.129	6.44
536.474	6.5
536.82	6.51
537.166	6.54
537.512	6.64
537.857	6.66
538.203	6.75
538.549	6.73
538.894	6.65
539.239	6.64
539.585	6.67
539.93	6.74
540.276	6.86
540.621	6.85
540.966	6.9
541.311	7.01
541.656	6.92
542.001	6.99
542.346	6.95
542.691	6.8
543.036	6.76
543.381	6.64
543.726	6.66
544.071	6.69
544.415	6.74
544.76	6.82
545.105	6.89
545.449	6.89
545.794	6.94
546.138	6.93
546.483	6.96
546.827	7.02
547.171	7.13
547.516	7.11
547.86	7.18
548.204	6.95
548.548	7.2
548.892	7.1
549.236	7.16
549.58	7.08
549.924	7.15
550.268	7.26
550.612	7.43
550.956	7.47
551.3	7.39
551.643	7.44
551.987	7.52
552.33	7.47
552.674	7.52
553.017	7.57
553.361	7.54
553.704	7.65
554.048	7.69
554.391	7.6
554.734	7.63
555.077	7.45
555.42	7.55
555.764	7.66
556.107	7.93
556.45	7.73
556.793	7.57
557.135	7.77
557.478	7.82
557.821	7.86
558.164	7.96
558.507	7.96
558.849	7.99
559.192	8.08
559.534	8.1
559.877	7.96
560.219	8.05
560.562	8.13
560.904	8.03
561.246	8.09
561.589	7.95
561.931	8.03
562.273	8.33
562.615	8.37
562.957	8.23
563.299	8.22
563.641	8.22
563.983	8.13
564.325	8.09
564.667	8.39
565.008	8.45
565.35	8.47
565.692	8.29
566.033	8.47
566.375	8.35
566.716	8.24
567.058	8.38
567.399	8.47
567.741	8.32
568.082	8.46
568.423	8.43
568.764	8.43
569.105	8.63
569.447	8.38
569.788	8.48
570.129	8.69
570.47	8.69
570.811	8.84
571.151	8.61
571.492	8.91
571.833	8.92
572.174	9.08
572.514	8.85
572.855	8.65
573.195	8.78
573.536	8.7
573.876	8.83
574.217	8.81
574.557	8.93
574.898	8.79
575.238	8.87
575.578	8.97
575.918	8.99
576.258	9.15
576.598	9.18
576.938	8.99
577.278	9.15
577.618	9.13
577.958	9.24
578.298	9.2
578.638	9.33
578.977	9.32
579.317	9.14
579.657	9.29
579.996	9.25
580.336	9.47
580.675	9.32
581.014	9.76
581.354	9.37
581.693	9.62
582.032	9.5
582.372	9.6
582.711	9.78
583.05	9.89
583.389	9.74
583.728	9.84
584.067	9.83
584.406	9.98
584.745	9.91
585.083	9.74
585.422	10.16
585.761	9.88
586.1	10
586.438	9.76
586.777	10.1
587.115	10.03
587.454	10.11
587.792	10.09
588.13	10.45
588.469	10.2
588.807	9.89
589.145	10.26
589.483	10.23
589.821	10.26
590.159	10.16
590.497	10.25
590.835	10.34
591.173	10.55
591.511	10.42
591.849	10.39
592.187	10.63
592.524	10.38
592.862	10.44
593.2	10.46
593.537	10.23
593.875	10.65
594.212	10.7
594.55	10.53
594.887	10.83
595.224	10.62
595.561	10.6
595.899	10.68
596.236	11.01
596.573	10.75
596.91	11
597.247	10.89
597.584	10.77
597.921	10.81
598.258	11.09
598.594	11.17
598.931	10.88
599.268	10.82
599.604	11.12
599.941	10.98
600.277	10.92
600.614	11.02
600.95	11.15
601.287	11.2
601.623	11.51
601.959	11.38
602.296	11.57
602.632	11.58
602.968	11.28
603.304	11.71
603.64	11.6
603.976	11.52
604.312	11.73
604.648	11.48
604.984	11.62
605.319	11.54
605.655	11.29
605.991	11.63
606.326	11.5
606.662	11.53
606.998	11.54
607.333	11.68
607.668	11.41
608.004	11.71
608.339	11.97
608.674	11.86
609.01	11.96
609.345	12.06
609.68	12.02
610.015	11.96
610.35	12.11
610.685	12.28
611.02	11.84
611.355	12.07
611.689	11.99
612.024	12.19
612.359	12.24
612.694	12.07
613.028	12.45
613.363	12.56
613.697	12.27
614.032	12.58
614.366	12.64
614.7	12.49
615.035	12.75
615.369	12.89
615.703	12.69
616.037	12.94
616.371	12.58
616.705	12.68
617.039	12.71
617.373	12.88
617.707	13.35
618.041	13.14
618.375	13.05
618.709	13
619.042	12.98
619.376	13.23
619.71	13.52
620.043	13.25
620.377	13.2
620.71	13.39
621.043	13.26
621.377	13.22
621.71	13.23
622.043	13.64
622.376	13.61
622.709	13.37
623.043	13.57
623.376	13.57
623.709	13.33
624.041	13.74
624.374	13.78
624.707	13.67
625.04	13.75
625.373	14.04
625.705	13.46
626.038	14.02
626.37	13.32
626.703	13.58
627.035	13.56
627.368	13.61
627.7	13.83
628.032	13.85
628.365	13.94
628.697	13.94
629.029	13.88
629.361	14
629.693	14.03
630.025	13.93
630.357	14.18
630.689	14.17
631.021	14.36
631.353	14.32
631.684	14.04
632.016	14.32
632.348	14.2
632.679	14.51
633.011	14.77
633.342	14.15
633.674	14.74
634.005	14.72
634.336	14.58
634.668	14.32
634.999	14.68
635.33	14.25
635.661	14.9
635.992	14.56
636.323	14.85
636.654	14.89
636.985	14.25
637.316	14.98
637.647	14.68
637.977	14.69
638.308	14.77
638.639	14.83
638.969	15.07
639.3	14.83
639.63	15.44
639.961	15.25
640.291	15.03
640.622	14.81
640.952	15.27
641.282	15.17
641.612	15.16
641.943	15.17
642.273	15.57
642.603	15.31
642.933	15.46
643.263	15.52
643.592	15.48
643.922	16.02
644.252	14.84
644.582	15.41
644.911	15.47
645.241	15.6
645.571	16.3
645.9	15.48
646.23	15.83
646.559	15.86
646.888	15.91
647.218	15.57
647.547	15.74
647.876	15.95
648.205	15.88
648.534	15.53
648.863	16.15
649.192	15.92
649.521	16.06
649.85	16.27
650.179	15.99
650.508	16.59
650.837	16.25
651.165	16.55
651.494	16.04
651.822	16.34
652.151	16.58
652.479	16.17
652.808	16.22
653.136	16.1
653.465	16.49
653.793	16.73
654.121	16.95
654.449	16.78
654.777	16.32
655.105	16.51
655.433	17.12
655.761	16.97
656.089	16.95
656.417	17.5
656.745	17
657.073	16.88
657.4	17.74
657.728	16.59
658.056	16.89
658.383	17.11
658.711	17.21
659.038	17.48
659.365	17.21
659.693	16.99
660.02	17.16
660.347	16.72
660.674	17.19
661.001	17.31
661.329	16.86
661.656	17.46
661.982	17.18
662.309	17.67
662.636	17.35
662.963	17.33
663.29	17.69
663.616	18.08
663.943	17.44
664.27	17.59
664.596	17.64
664.923	17.58
665.249	17.67
665.576	17.83
665.902	17.68
666.228	18.21
666.554	17.75
666.881	17.57
667.207	18.48
667.533	18.17
667.859	18.06
668.185	18.05
668.511	18.37
668.837	18.44
669.162	18.25
669.488	18.27
669.814	17.35
670.139	18.84
670.465	18.15
670.791	18.35
671.116	18.28
671.442	18.59
671.767	18.48
672.092	18.96
672.418	18.76
672.743	18.9
673.068	18.79
673.393	18.96
673.718	18.22
674.043	18.84
674.368	18.42
674.693	19.15
675.018	19.37
675.343	18.87
675.667	18.87
675.992	19.36
676.317	19.17
676.641	19.36
676.966	19.37
677.29	19.5
677.615	19.63
677.939	18.79
678.264	18.24
678.588	18.63
678.912	19.35
679.236	19.56
679.56	19.52
679.885	19.82
680.209	19.46
680.532	18.92
680.856	19.38
681.18	19.39
681.504	19.51
681.828	19.61
682.152	19.23
682.475	19.59
682.799	19.47
683.122	20.26
683.446	19.56
683.769	20.26
684.093	20.12
684.416	19.83
684.739	19.73
685.062	19.63
685.386	19.67
685.709	20
