Data from 0224_crown_Reflection__3__101.txt Node

Date: Fri Oct 20 21:26:11 CDT 2023
User: ToomeyLab
Spectrometer: FLMS14357
Trigger mode: 0
Integration Time (sec): 1.000000E-2
Scans to average: 100
Electric dark correction enabled: true
Nonlinearity correction enabled: false
Boxcar width: 0
XAxis mode: Wavelengths
Number of Pixels in Spectrum: 2048
>>>>>Begin Spectral Data<<<<<
189.047	193.01
189.435	193.01
189.823	193.01
190.211	116.89
190.599	149.93
190.987	27.79
191.375	275.21
191.763	33.6
192.151	5893.48
192.538	114.53
192.926	-120.68
193.314	56.69
193.702	2222.31
194.089	77.33
194.477	35.96
194.864	-131.94
195.252	198.86
195.639	120.18
196.027	245.76
196.414	266.51
196.801	142.74
197.189	54.29
197.576	-13.94
197.963	31.85
198.351	53.79
198.738	-4.59
199.125	43.16
199.512	-6.45
199.899	19.82
200.286	-5.13
200.673	31.51
201.06	34.4
201.447	8.44
201.833	45.19
202.22	21.02
202.607	39.39
202.994	18.7
203.38	25.82
203.767	55.75
204.154	37.73
204.54	45.67
204.927	39.18
205.313	19.76
205.699	52.2
206.086	12.02
206.472	48.17
206.858	40.66
207.245	18.41
207.631	36.07
208.017	22.11
208.403	13.09
208.789	26.29
209.175	19.69
209.561	29.72
209.947	27.12
210.333	16.11
210.719	33.28
211.105	20.01
211.491	20.97
211.876	-2.33
212.262	30.44
212.648	23.99
213.034	-4.05
213.419	25.86
213.805	36.76
214.19	-3.38
214.576	29.65
214.961	20.41
215.346	21.39
215.732	17.97
216.117	-22.48
216.502	24.73
216.888	12.21
217.273	11.57
217.658	6.81
218.043	-15.87
218.428	8.09
218.813	-2.08
219.198	11.78
219.583	15.67
219.968	9.9
220.353	14.44
220.738	4.82
221.122	10.08
221.507	23.42
221.892	10.15
222.276	12.38
222.661	20.7
223.046	9.96
223.43	2.48
223.815	20.6
224.199	29.55
224.583	-13.21
224.968	5.33
225.352	-7.45
225.736	9.08
226.121	10.21
226.505	14.24
226.889	4.7
227.273	9.76
227.657	9.97
228.041	12.38
228.425	7.35
228.809	7.41
229.193	6.51
229.577	8.08
229.961	6.01
230.344	6.52
230.728	5.98
231.112	7.42
231.495	5.51
231.879	6.87
232.263	5.89
232.646	5.96
233.03	5.98
233.413	6.94
233.797	6.59
234.18	5.34
234.563	7.72
234.946	9.08
235.33	7.17
235.713	5.63
236.096	7.39
236.479	7.46
236.862	6.87
237.245	6.21
237.628	6.05
238.011	8.76
238.394	5.54
238.777	8.42
239.16	6.31
239.543	8.69
239.925	9.22
240.308	7.33
240.691	5.62
241.073	7.66
241.456	9.83
241.838	5.87
242.221	8.74
242.603	7.46
242.986	7.41
243.368	6.97
243.75	6.39
244.133	6.26
244.515	6.19
244.897	5.91
245.279	6.62
245.661	6.63
246.043	6.15
246.425	6.14
246.807	6.87
247.189	6.63
247.571	5.46
247.953	6.32
248.335	6.79
248.717	6.38
249.098	6.25
249.48	6.12
249.862	6.49
250.243	6.77
250.625	6.61
251.006	6.36
251.388	6.44
251.769	6.45
252.151	6.35
252.532	7.04
252.913	6.75
253.295	6.45
253.676	7.25
254.057	6.29
254.438	6.47
254.819	6.16
255.2	6.29
255.581	5.82
255.962	6.47
256.343	6.86
256.724	5.52
257.105	6.25
257.486	6.33
257.867	5.84
258.247	6.56
258.628	5.51
259.009	6.02
259.389	5.73
259.77	4.96
260.15	6.54
260.531	6.1
260.911	6.28
261.292	5.67
261.672	5.89
262.052	5.92
262.432	5.88
262.813	5.87
263.193	6.06
263.573	5.86
263.953	6.84
264.333	6.22
264.713	6.26
265.093	5.99
265.473	6.1
265.853	5.52
266.233	5.67
266.612	5.54
266.992	5.4
267.372	6.07
267.752	5.53
268.131	6.43
268.511	5.74
268.89	5.75
269.27	5.68
269.649	5.2
270.029	5.28
270.408	5.62
270.787	5.75
271.167	5.42
271.546	5.47
271.925	6.23
272.304	5.54
272.683	6.01
273.062	5.63
273.441	5.54
273.82	5.47
274.199	5.79
274.578	5.39
274.957	5.61
275.336	5.42
275.715	6.04
276.093	5.73
276.472	5.59
276.851	5.24
277.229	5.54
277.608	4.73
277.986	4.65
278.365	6.14
278.743	5.17
279.122	4.92
279.5	5.41
279.878	5.55
280.257	4.95
280.635	5.54
281.013	5.65
281.391	5.51
281.769	4.9
282.147	4.98
282.525	5.53
282.903	5.27
283.281	5.41
283.659	5.59
284.037	5.69
284.415	4.81
284.792	5.1
285.17	5.25
285.548	5.31
285.925	4.82
286.303	4.98
286.68	5.19
287.058	5.46
287.435	5.18
287.813	4.98
288.19	5.17
288.567	5.57
288.945	5.47
289.322	5.73
289.699	5.08
290.076	6.12
290.453	5.49
290.83	4.8
291.207	5.33
291.584	5.01
291.961	5.27
292.338	5.22
292.715	5.62
293.092	5.34
293.469	5.76
293.845	5.58
294.222	5.67
294.599	5.53
294.975	5.9
295.352	5.9
295.728	5.48
296.105	5.72
296.481	5.72
296.858	6.02
297.234	5.75
297.61	5.09
297.986	5.88
298.363	6.15
298.739	6.11
299.115	5.59
299.491	5.86
299.867	6.34
300.243	5.97
300.619	6.02
300.995	5.94
301.371	5.97
301.746	6.16
302.122	6.21
302.498	5.68
302.874	6.32
303.249	6.13
303.625	6.56
304	6.65
304.376	5.77
304.751	5.72
305.127	5.47
305.502	6.44
305.878	6.12
306.253	5.99
306.628	6.25
307.003	6.22
307.378	5.89
307.754	6.36
308.129	6.49
308.504	6.97
308.879	6.33
309.254	6.38
309.629	5.65
310.003	5.82
310.378	6.58
310.753	6.04
311.128	6.15
311.502	5.87
311.877	5.85
312.252	6
312.626	6.46
313.001	6.1
313.375	5.98
313.75	6.37
314.124	6
314.498	6.27
314.873	5.73
315.247	6.3
315.621	6.03
315.995	5.95
316.369	6.17
316.743	6.52
317.117	6.34
317.491	6.14
317.865	5.89
318.239	6.68
318.613	6.91
318.987	6.09
319.361	5.58
319.734	6.17
320.108	5.85
320.482	6.45
320.855	6.23
321.229	6.67
321.602	6.34
321.976	6.43
322.349	6.53
322.723	5.41
323.096	6.34
323.469	5.92
323.843	6.14
324.216	6.43
324.589	6.54
324.962	7.08
325.335	6.4
325.708	6.37
326.081	6.4
326.454	6.36
326.827	6.23
327.2	6.4
327.573	6.52
327.945	6.51
328.318	6.15
328.691	6.05
329.063	7.12
329.436	5.94
329.809	6.15
330.181	6.58
330.553	6.79
330.926	6.57
331.298	6.59
331.671	6.04
332.043	6.23
332.415	6.34
332.787	6.26
333.159	6.22
333.532	6.38
333.904	6.37
334.276	5.5
334.648	6.36
335.02	6.5
335.391	5.97
335.763	6.6
336.135	6.47
336.507	6.09
336.879	6.15
337.25	6.02
337.622	6.94
337.993	6.75
338.365	6.8
338.736	6.13
339.108	6.23
339.479	5.83
339.851	6.28
340.222	5.95
340.593	6.08
340.964	6.13
341.336	6.62
341.707	6.5
342.078	5.87
342.449	6.09
342.82	6.28
343.191	6.06
343.562	6.41
343.933	6.1
344.303	6.2
344.674	6.52
345.045	6.57
345.416	6.4
345.786	5.97
346.157	6.38
346.527	6.25
346.898	6.26
347.268	6.03
347.639	6.42
348.009	6.05
348.38	6.3
348.75	6.06
349.12	6.09
349.49	6.17
349.861	7.17
350.231	6.08
350.601	5.84
350.971	6.29
351.341	6.41
351.711	6.77
352.081	6.82
352.45	6.41
352.82	6.12
353.19	6.39
353.56	6.58
353.929	5.99
354.299	6.07
354.669	6.66
355.038	6.11
355.408	6.33
355.777	6.23
356.147	6.22
356.516	6.1
356.885	6.4
357.254	6.2
357.624	6.3
357.993	6.06
358.362	6.11
358.731	5.96
359.1	5.63
359.469	5.87
359.838	6.41
360.207	6.07
360.576	6.35
360.945	6.01
361.314	6.21
361.682	6.29
362.051	6.14
362.42	6.19
362.788	6.37
363.157	6.26
363.525	5.94
363.894	6.18
364.262	6.15
364.631	6.24
364.999	6.36
365.367	6.43
365.735	6.2
366.104	5.99
366.472	6.55
366.84	6.28
367.208	6.12
367.576	6.21
367.944	6.53
368.312	6.07
368.68	6.34
369.048	6.15
369.416	6.43
369.783	6.3
370.151	6.34
370.519	6.5
370.886	6.23
371.254	6.36
371.621	6.42
371.989	6.37
372.356	6.22
372.724	6.69
373.091	6.46
373.458	6.08
373.826	6.07
374.193	6.19
374.56	6.4
374.927	6.42
375.294	6.6
375.661	6.42
376.028	6.72
376.395	6.71
376.762	6.16
377.129	6.65
377.496	6.31
377.863	6.78
378.229	6.23
378.596	6.54
378.963	6.34
379.329	6.47
379.696	6.45
380.062	6.4
380.429	6.34
380.795	6.32
381.161	6.17
381.528	6.55
381.894	6.46
382.26	6.38
382.626	6.65
382.993	6.52
383.359	6.55
383.725	6.31
384.091	6.47
384.457	6.34
384.823	6.58
385.188	6.83
385.554	6.3
385.92	6.71
386.286	6.66
386.651	6.13
387.017	6.72
387.383	6.7
387.748	6.17
388.114	6.57
388.479	6.31
388.845	6.58
389.21	6.35
389.575	6.19
389.94	6.45
390.306	6.45
390.671	6.54
391.036	6.4
391.401	6.52
391.766	6.35
392.131	6.41
392.496	6.64
392.861	6.48
393.226	6.57
393.591	6.39
393.956	6.7
394.32	6.57
394.685	6.34
395.05	6.7
395.414	6.58
395.779	6.29
396.143	6.46
396.508	6.35
396.872	6.38
397.236	6.42
397.601	6.18
397.965	6.43
398.329	6.23
398.694	6.64
399.058	6.27
399.422	6.58
399.786	6.52
400.15	6.62
400.514	6.56
400.878	6.52
401.242	6.83
401.605	6.78
401.969	6.51
402.333	6.44
402.697	6.53
403.06	6.73
403.424	6.43
403.787	6.3
404.151	6.35
404.514	6.55
404.878	6.81
405.241	6.64
405.604	6.29
405.968	6.47
406.331	6.59
406.694	6.52
407.057	6.34
407.42	6.73
407.783	6.58
408.146	6.51
408.509	6.52
408.872	6.76
409.235	6.59
409.598	6.72
409.961	6.51
410.323	6.75
410.686	6.39
411.049	6.72
411.411	6.64
411.774	6.86
412.136	6.46
412.499	6.76
412.861	6.7
413.223	6.65
413.586	6.51
413.948	6.85
414.31	7.07
414.672	6.59
415.035	6.68
415.397	6.69
415.759	6.78
416.121	6.81
416.483	6.69
416.845	6.67
417.206	6.56
417.568	6.87
417.93	6.78
418.292	6.61
418.653	6.73
419.015	6.7
419.377	6.68
419.738	6.51
420.1	6.41
420.461	6.43
420.822	6.41
421.184	6.52
421.545	6.56
421.906	6.48
422.267	6.56
422.629	6.61
422.99	6.4
423.351	6.47
423.712	6.46
424.073	6.61
424.434	6.49
424.795	6.48
425.155	6.61
425.516	6.52
425.877	6.59
426.238	6.42
426.598	6.53
426.959	6.48
427.32	6.63
427.68	6.64
428.041	6.61
428.401	6.62
428.761	6.61
429.122	6.64
429.482	6.76
429.842	6.65
430.202	6.59
430.563	6.78
430.923	6.8
431.283	6.72
431.643	6.87
432.003	6.87
432.363	6.64
432.722	6.88
433.082	6.74
433.442	6.69
433.802	6.93
434.161	6.5
434.521	6.83
434.881	6.84
435.24	6.79
435.6	6.72
435.959	6.74
436.319	6.66
436.678	6.77
437.037	6.79
437.396	6.8
437.756	6.89
438.115	6.64
438.474	6.8
438.833	6.76
439.192	6.67
439.551	6.7
439.91	6.71
440.269	6.85
440.628	6.86
440.987	6.79
441.345	6.69
441.704	6.86
442.063	6.76
442.421	6.69
442.78	6.68
443.138	6.77
443.497	6.9
443.855	6.82
444.214	6.71
444.572	6.89
444.93	6.93
445.288	6.86
445.647	6.95
446.005	6.74
446.363	6.82
446.721	6.78
447.079	6.97
447.437	6.74
447.795	6.66
448.153	6.7
448.51	6.73
448.868	6.58
449.226	6.66
449.584	6.75
449.941	6.69
450.299	6.82
450.656	6.69
451.014	6.8
451.371	6.78
451.729	6.79
452.086	6.87
452.443	6.88
452.801	6.99
453.158	6.83
453.515	6.95
453.872	6.89
454.229	7.04
454.586	6.82
454.943	6.84
455.3	6.66
455.657	6.84
456.014	6.81
456.371	6.97
456.727	6.89
457.084	6.86
457.441	7.05
457.797	6.97
458.154	6.82
458.51	6.94
458.867	6.9
459.223	7.02
459.58	7
459.936	6.87
460.292	6.99
460.648	6.75
461.005	6.74
461.361	6.92
461.717	6.79
462.073	6.84
462.429	6.76
462.785	6.87
463.141	6.92
463.496	6.84
463.852	7.12
464.208	7.06
464.564	7.19
464.919	6.83
465.275	7.11
465.631	7.17
465.986	6.93
466.342	7.07
466.697	6.98
467.052	6.9
467.408	7.14
467.763	6.97
468.118	7.08
468.473	7.07
468.829	7.09
469.184	6.97
469.539	6.94
469.894	7.02
470.249	7
470.603	7
470.958	7.13
471.313	7.25
471.668	7.13
472.023	7.06
472.377	7.11
472.732	6.92
473.086	7.14
473.441	7.03
473.795	7.25
474.15	7.11
474.504	6.97
474.859	7.15
475.213	7.09
475.567	7.26
475.921	7.03
476.275	7.14
476.63	7.27
476.984	7.09
477.338	6.97
477.692	7
478.045	7.11
478.399	7.06
478.753	7.04
479.107	6.99
479.461	7.06
479.814	7.05
480.168	7.04
480.521	7.16
480.875	7.09
481.228	7.11
481.582	7.25
481.935	7.06
482.289	7.14
482.642	6.98
482.995	7
483.348	7.12
483.701	7.02
484.055	7.02
484.408	7.04
484.761	6.94
485.114	6.83
485.466	6.74
485.819	6.66
486.172	6.58
486.525	6.69
486.878	6.74
487.23	6.78
487.583	6.87
487.936	6.88
488.288	6.97
488.641	6.92
488.993	6.88
489.345	6.85
489.698	6.76
490.05	6.75
490.402	6.75
490.754	6.79
491.107	6.88
491.459	6.97
491.811	6.91
492.163	7.06
492.515	7.08
492.866	7.01
493.218	6.88
493.57	6.82
493.922	6.85
494.274	6.86
494.625	6.92
494.977	6.95
495.328	7.06
495.68	7.06
496.031	7
496.383	7.19
496.734	7.17
497.086	7.2
497.437	7.16
497.788	7.09
498.139	7.38
498.49	7.1
498.842	7.12
499.193	7.14
499.544	7.16
499.894	7.1
500.245	7.18
500.596	7.13
500.947	7.08
501.298	7.13
501.648	7.15
501.999	7.26
502.35	7.14
502.7	7.28
503.051	7.16
503.401	7.24
503.752	7.25
504.102	7.34
504.452	7.14
504.803	7.18
505.153	7.18
505.503	7.26
505.853	7.31
506.203	7.23
506.553	7.11
506.903	7.2
507.253	7.34
507.603	7.3
507.953	7.24
508.303	7.17
508.652	7.2
509.002	7.25
509.352	7.35
509.701	7.37
510.051	7.28
510.4	7.22
510.75	7.27
511.099	7.27
511.449	7.29
511.798	7.38
512.147	7.2
512.496	7.2
512.846	7.22
513.195	7.3
513.544	7.35
513.893	7.09
514.242	7.22
514.591	7.24
514.939	7.07
515.288	7.27
515.637	7.23
515.986	7.45
516.334	7.32
516.683	7.28
517.032	7.16
517.38	7.23
517.729	7.36
518.077	7.15
518.426	7.32
518.774	7.22
519.122	7.4
519.47	7.31
519.819	7.22
520.167	7.18
520.515	7.16
520.863	7.2
521.211	7.16
521.559	7.21
521.907	7.18
522.255	7.27
522.602	7.35
522.95	7.3
523.298	7.2
523.645	7.29
523.993	7.3
524.341	7.41
524.688	7.44
525.036	7.37
525.383	7.31
525.73	7.48
526.078	7.32
526.425	7.44
526.772	7.38
527.119	7.4
527.466	7.23
527.814	7.3
528.161	7.26
528.508	7.16
528.854	7.27
529.201	7.31
529.548	7.23
529.895	7.18
530.242	7.1
530.588	6.9
530.935	6.94
531.282	6.99
531.628	7.09
531.975	7.08
532.321	7.19
532.667	7.21
533.014	7.24
533.36	7.31
533.706	7.37
534.052	7.31
534.399	7.28
534.745	7.2
535.091	7.25
535.437	7.19
535.783	7.12
536.129	7.29
536.474	7.31
536.82	7.33
537.166	7.28
537.512	7.36
537.857	7.46
538.203	7.36
538.549	7.39
538.894	7.29
539.239	7.25
539.585	7.4
539.93	7.4
540.276	7.53
540.621	7.47
540.966	7.53
541.311	7.51
541.656	7.49
542.001	7.43
542.346	7.39
542.691	7.29
543.036	7.27
543.381	7.16
543.726	7.12
544.071	7.17
544.415	7.24
544.76	7.26
545.105	7.32
545.449	7.35
545.794	7.37
546.138	7.36
546.483	7.34
546.827	7.44
547.171	7.52
547.516	7.49
547.86	7.52
548.204	7.36
548.548	7.4
548.892	7.41
549.236	7.46
549.58	7.38
549.924	7.47
550.268	7.4
550.612	7.49
550.956	7.69
551.3	7.47
551.643	7.51
551.987	7.67
552.33	7.56
552.674	7.52
553.017	7.55
553.361	7.61
553.704	7.63
554.048	7.6
554.391	7.56
554.734	7.58
555.077	7.57
555.42	7.49
555.764	7.57
556.107	7.71
556.45	7.63
556.793	7.64
557.135	7.5
557.478	7.64
557.821	7.61
558.164	7.76
558.507	7.72
558.849	7.84
559.192	7.55
559.534	7.87
559.877	7.53
560.219	7.75
560.562	7.69
560.904	7.63
561.246	7.72
561.589	7.64
561.931	7.71
562.273	7.6
562.615	7.87
562.957	7.8
563.299	7.53
563.641	7.76
563.983	7.63
564.325	7.57
564.667	7.68
565.008	7.72
565.35	7.67
565.692	7.65
566.033	7.8
566.375	7.8
566.716	7.77
567.058	7.69
567.399	7.86
567.741	7.55
568.082	7.71
568.423	7.71
568.764	7.55
569.105	7.77
569.447	7.72
569.788	7.74
570.129	7.7
570.47	7.79
570.811	7.87
571.151	7.55
571.492	7.88
571.833	7.99
572.174	7.8
572.514	7.8
572.855	7.67
573.195	7.94
573.536	7.74
573.876	7.83
574.217	7.67
574.557	7.65
574.898	7.67
575.238	7.69
575.578	7.86
575.918	7.67
576.258	7.84
576.598	7.78
576.938	7.82
577.278	7.84
577.618	7.47
577.958	7.71
578.298	7.8
578.638	7.76
578.977	7.93
579.317	7.9
579.657	7.87
579.996	7.9
580.336	7.84
580.675	7.71
581.014	7.96
581.354	7.69
581.693	7.89
582.032	8.07
582.372	7.97
582.711	7.96
583.05	8.16
583.389	7.81
583.728	7.87
584.067	8.06
584.406	7.89
584.745	7.92
585.083	7.99
585.422	8.02
585.761	8.07
586.1	7.91
586.438	7.62
586.777	7.83
587.115	8.19
587.454	7.87
587.792	7.78
588.13	8.25
588.469	7.87
588.807	7.76
589.145	7.94
589.483	7.73
589.821	7.91
590.159	7.93
590.497	8.06
590.835	8.07
591.173	7.95
591.511	8.16
591.849	7.91
592.187	7.88
592.524	7.8
592.862	8.1
593.2	8.15
593.537	7.86
593.875	8.08
594.212	8.08
594.55	8.13
594.887	8.02
595.224	8.12
595.561	7.91
595.899	8.17
596.236	7.93
596.573	8.19
596.91	8.03
597.247	7.76
597.584	7.8
597.921	7.88
598.258	7.94
598.594	8.19
598.931	7.71
599.268	7.68
599.604	7.8
599.941	7.89
600.277	7.93
600.614	8
600.95	8.17
601.287	7.96
601.623	7.98
601.959	8.13
602.296	7.98
602.632	8.03
602.968	8
603.304	8.29
603.64	7.71
603.976	8.09
604.312	8.04
604.648	7.92
604.984	7.98
605.319	7.89
605.655	7.74
605.991	7.92
606.326	8.02
606.662	7.86
606.998	7.7
607.333	7.74
607.668	7.76
608.004	7.88
608.339	7.9
608.674	8.08
609.01	8.17
609.345	8.22
609.68	7.98
610.015	7.86
610.35	8.24
610.685	8.28
611.02	7.92
611.355	7.89
611.689	8.03
612.024	8.13
612.359	8.22
612.694	8.11
613.028	8.18
613.363	8.05
613.697	7.78
614.032	8.14
614.366	8.17
614.7	8.16
615.035	7.88
615.369	8.32
615.703	7.86
616.037	8.23
616.371	8.09
616.705	8.32
617.039	8.09
617.373	8.27
617.707	8.29
618.041	7.86
618.375	8.09
618.709	7.99
619.042	7.93
619.376	8.39
619.71	8.44
620.043	8.12
620.377	8.24
620.71	8.32
621.043	8.36
621.377	7.99
621.71	8.07
622.043	8.29
622.376	8.18
622.709	8.29
623.043	8.58
623.376	8.14
623.709	8.32
624.041	7.81
624.374	8.38
624.707	8.04
625.04	8.35
625.373	8.48
625.705	8.1
626.038	8.25
626.37	8.14
626.703	8.14
627.035	8.15
627.368	8.33
627.7	8.38
628.032	8.2
628.365	8.24
628.697	8.27
629.029	8.08
629.361	8.21
629.693	7.91
630.025	8.13
630.357	8.26
630.689	8.19
631.021	8.66
631.353	8.6
631.684	8.41
632.016	8.47
632.348	8.31
632.679	8.15
633.011	8.38
633.342	8.09
633.674	8.13
634.005	8.54
634.336	8.65
634.668	8.05
634.999	8.16
635.33	8.13
635.661	8.61
635.992	8.31
636.323	8.79
636.654	8.44
636.985	8.01
637.316	8.33
637.647	8.46
637.977	7.94
638.308	8.4
638.639	8.25
638.969	8.58
639.3	8.13
639.63	8.26
639.961	8.35
640.291	8.33
640.622	8.05
640.952	8.51
641.282	8.53
641.612	8.34
641.943	8.54
642.273	8.26
642.603	8.64
642.933	8.76
643.263	8.82
643.592	8.19
643.922	8.62
644.252	8.09
644.582	8.21
644.911	8.59
645.241	8.83
645.571	8.83
645.9	8.71
646.23	8.47
646.559	8.39
646.888	8.76
647.218	8.48
647.547	8.54
647.876	8.09
648.205	8.76
648.534	8.57
648.863	8.67
649.192	8.25
649.521	8.2
649.85	8.57
650.179	8.14
650.508	8.12
650.837	8.59
651.165	8.66
651.494	7.98
651.822	8.63
652.151	8.84
652.479	8.61
652.808	8.46
653.136	8.27
653.465	8.76
653.793	8.62
654.121	8.73
654.449	8.63
654.777	8.67
655.105	8.72
655.433	8.76
655.761	8.87
656.089	8.57
656.417	8.77
656.745	8.32
657.073	8.66
657.4	8.82
657.728	8.47
658.056	8.59
658.383	9.08
658.711	8.63
659.038	9.15
659.365	8.72
659.693	8.94
660.02	8.88
660.347	8.89
660.674	8.49
661.001	8.35
661.329	8.5
661.656	8.91
661.982	8.67
662.309	8.64
662.636	8.43
662.963	9.03
663.29	8.73
663.616	8.59
663.943	8.19
664.27	8.65
664.596	8.55
664.923	8.8
665.249	8.14
665.576	9.1
665.902	8.98
666.228	8.88
666.554	9.02
666.881	8.76
667.207	9.04
667.533	9.09
667.859	9
668.185	8.91
668.511	8.95
668.837	8.63
669.162	9.43
669.488	8.67
669.814	8.71
670.139	9.11
670.465	8.31
670.791	9.12
671.116	8.65
671.442	8.44
671.767	8.63
672.092	9.38
672.418	9.07
672.743	8.9
673.068	8.91
673.393	9.05
673.718	8.55
674.043	8.71
674.368	8.78
674.693	9.57
675.018	9.7
675.343	8.7
675.667	8.76
675.992	9.38
676.317	9.12
676.641	9.17
676.966	9.65
677.29	9.36
677.615	8.7
677.939	9.22
678.264	8.96
678.588	8.97
678.912	9.09
679.236	8.33
679.56	8.89
679.885	9.14
680.209	8.65
680.532	8.92
680.856	8.84
681.18	9.12
681.504	9.35
681.828	9.21
682.152	8.77
682.475	8.69
682.799	9.51
683.122	9.03
683.446	9.29
683.769	9.1
684.093	9.31
684.416	9.13
684.739	8.93
685.062	8.27
685.386	8.87
685.709	9.03
686.032	9.15
686.355	10.18
686.678	8.9
687.001	9.6
687.324	8.87
687.646	8.78
687.969	9.21
688.292	9.2
688.614	8.95
688.937	8.66
689.26	8.77
689.582	8.76
689.904	8.92
690.227	9.14
690.549	9.67
690.871	9.45
691.194	9.59
691.516	9.33
691.838	9.87
692.16	9.31
692.482	9.59
