Data from 0224_forehead_Reflection__3__106.txt Node

Date: Fri Oct 20 21:27:30 CDT 2023
User: ToomeyLab
Spectrometer: FLMS14357
Trigger mode: 0
Integration Time (sec): 1.000000E-2
Scans to average: 100
Electric dark correction enabled: true
Nonlinearity correction enabled: false
Boxcar width: 0
XAxis mode: Wavelengths
Number of Pixels in Spectrum: 2048
>>>>>Begin Spectral Data<<<<<
189.047	851.04
189.435	851.04
189.823	851.04
190.211	-30.99
190.599	118.95
190.987	180.72
191.375	-56.36
191.763	65.22
192.151	1797.83
192.538	32.98
192.926	-15.55
193.314	78.08
193.702	865.38
194.089	150.58
194.477	38.07
194.864	-405.06
195.252	209.83
195.639	-1497.37
196.027	141.76
196.414	136.01
196.801	131.92
197.189	103.36
197.576	-141.21
197.963	37.31
198.351	72.19
198.738	73.19
199.125	83.26
199.512	65.24
199.899	44.04
200.286	8.99
200.673	41.21
201.06	36.24
201.447	101.39
201.833	68.26
202.22	59
202.607	52.1
202.994	86.93
203.38	56.1
203.767	37.07
204.154	51.44
204.54	68.14
204.927	59.83
205.313	42.55
205.699	96.02
206.086	38.4
206.472	65.33
206.858	52.79
207.245	63.22
207.631	86.67
208.017	54.23
208.403	67.4
208.789	67.6
209.175	42.52
209.561	57.46
209.947	52.42
210.333	67.01
210.719	38.11
211.105	61.46
211.491	57.79
211.876	38.39
212.262	39.64
212.648	63.79
213.034	47.97
213.419	50.12
213.805	43.43
214.19	26.94
214.576	37.46
214.961	37.52
215.346	19.44
215.732	54.12
216.117	-7.05
216.502	41.97
216.888	19.13
217.273	17.35
217.658	29.85
218.043	17.68
218.428	46.94
218.813	32.43
219.198	59.54
219.583	9.09
219.968	25.71
220.353	30
220.738	39.13
221.122	6.74
221.507	28.49
221.892	26.96
222.276	14.07
222.661	29.08
223.046	17.22
223.43	14.51
223.815	44.21
224.199	25.82
224.583	5.38
224.968	18.29
225.352	22.68
225.736	16.21
226.121	20.23
226.505	21.17
226.889	18.7
227.273	18.4
227.657	21.95
228.041	16.31
228.425	8.51
228.809	11.36
229.193	14.23
229.577	16.1
229.961	7.71
230.344	12.19
230.728	8.99
231.112	9.38
231.495	8.85
231.879	9.09
232.263	10.01
232.646	9.37
233.03	9.85
233.413	8.64
233.797	10.62
234.18	12.43
234.563	12.5
234.946	11.36
235.33	12.84
235.713	10.1
236.096	10.92
236.479	9.36
236.862	11.74
237.245	8.86
237.628	10.73
238.011	10.42
238.394	11.57
238.777	10.7
239.16	9.92
239.543	9.97
239.925	11.69
240.308	10.87
240.691	10.58
241.073	10.34
241.456	10.22
241.838	9.35
242.221	11.13
242.603	8.29
242.986	9.05
243.368	9.83
243.75	9.13
244.133	8.26
244.515	7.94
244.897	8.3
245.279	8.9
245.661	8.12
246.043	8.37
246.425	9
246.807	9.61
247.189	8.87
247.571	8.31
247.953	8.28
248.335	9.09
248.717	7.87
249.098	7.98
249.48	7.96
249.862	8.41
250.243	8.54
250.625	8.31
251.006	8.69
251.388	8.2
251.769	9.13
252.151	8.96
252.532	7.79
252.913	8.95
253.295	8.37
253.676	8.59
254.057	8.38
254.438	7.87
254.819	8.88
255.2	9.03
255.581	8.7
255.962	8.53
256.343	8.1
256.724	7.56
257.105	9.26
257.486	9.39
257.867	9.18
258.247	8.57
258.628	8.74
259.009	8.48
259.389	7.79
259.77	8.67
260.15	8.9
260.531	7.8
260.911	8.75
261.292	7.81
261.672	7.98
262.052	8.23
262.432	7.79
262.813	8.08
263.193	8.13
263.573	7.94
263.953	7.85
264.333	8.42
264.713	8.56
265.093	8.26
265.473	8.44
265.853	7.84
266.233	9.01
266.612	8.61
266.992	8.95
267.372	8.5
267.752	7.88
268.131	8.9
268.511	8.41
268.89	8.53
269.27	8.41
269.649	8.18
270.029	8.28
270.408	8.6
270.787	8.41
271.167	8.02
271.546	8.29
271.925	9.05
272.304	8.83
272.683	8.33
273.062	7.34
273.441	8.14
273.82	8.26
274.199	8.19
274.578	8.12
274.957	8.16
275.336	8.15
275.715	7.85
276.093	7.59
276.472	8.43
276.851	8.56
277.229	8.45
277.608	7.7
277.986	7.83
278.365	8.69
278.743	7.85
279.122	7.86
279.5	7.83
279.878	7.16
280.257	8.05
280.635	7.75
281.013	8.33
281.391	8.51
281.769	8.33
282.147	7.74
282.525	8.52
282.903	8.19
283.281	8.06
283.659	7.74
284.037	8.12
284.415	7.04
284.792	7.28
285.17	8.04
285.548	8.12
285.925	7.58
286.303	7.34
286.68	8.01
287.058	8.64
287.435	8.03
287.813	7.08
288.19	7.71
288.567	8.07
288.945	8.54
289.322	8.51
289.699	7.69
290.076	8.66
290.453	8.13
290.83	8.38
291.207	8.52
291.584	8.09
291.961	8.28
292.338	8.22
292.715	8.11
293.092	8.34
293.469	8.53
293.845	8.11
294.222	8.12
294.599	8.66
294.975	9.66
295.352	9.38
295.728	8.82
296.105	9.07
296.481	8.74
296.858	8.83
297.234	9
297.61	8.44
297.986	8.9
298.363	9.13
298.739	9.15
299.115	8.37
299.491	8.99
299.867	8.89
300.243	9.16
300.619	8.86
300.995	9.13
301.371	9.77
301.746	9.22
302.122	9.56
302.498	9.7
302.874	9.67
303.249	9.19
303.625	9.62
304	9.96
304.376	9.15
304.751	9.33
305.127	9.56
305.502	9.81
305.878	9.78
306.253	9.88
306.628	10.22
307.003	9.92
307.378	9.51
307.754	10.08
308.129	10.51
308.504	10.53
308.879	10.46
309.254	10.56
309.629	10.21
310.003	10.3
310.378	11.06
310.753	10.89
311.128	10.71
311.502	10.8
311.877	11.02
312.252	10.79
312.626	11.27
313.001	10.71
313.375	10.73
313.75	11
314.124	10.95
314.498	11.14
314.873	10.59
315.247	11.02
315.621	11.28
315.995	12.02
316.369	10.97
316.743	11.5
317.117	11.94
317.491	10.93
317.865	11.51
318.239	12.38
318.613	11.89
318.987	10.99
319.361	11.8
319.734	11.56
320.108	11.81
320.482	12.67
320.855	12.42
321.229	12.48
321.602	12.55
321.976	12.27
322.349	12.04
322.723	12.52
323.096	12.32
323.469	12.96
323.843	13.04
324.216	13.01
324.589	12.52
324.962	13.23
325.335	12.57
325.708	12.49
326.081	12.57
326.454	12.9
326.827	13.13
327.2	13.18
327.573	13.09
327.945	13.02
328.318	12.94
328.691	12.88
329.063	13.55
329.436	12.77
329.809	13.42
330.181	13.79
330.553	13.31
330.926	13.21
331.298	13.15
331.671	12.9
332.043	13.17
332.415	13.52
332.787	13.79
333.159	13.47
333.532	14.01
333.904	13.77
334.276	13.41
334.648	13.81
335.02	14.17
335.391	13.58
335.763	14.55
336.135	13.66
336.507	14.05
336.879	13.86
337.25	14.28
337.622	14.83
337.993	14.44
338.365	14.04
338.736	14
339.108	14.51
339.479	13.83
339.851	14.51
340.222	14.35
340.593	14.05
340.964	14.63
341.336	14.49
341.707	14.52
342.078	14.5
342.449	14.64
342.82	14.49
343.191	15.01
343.562	15.04
343.933	14.99
344.303	14.94
344.674	15.11
345.045	14.85
345.416	15.09
345.786	14.53
346.157	14.79
346.527	15.45
346.898	15.3
347.268	15.3
347.639	14.96
348.009	15.36
348.38	15.47
348.75	15.56
349.12	15.86
349.49	15.61
349.861	15.93
350.231	15.34
350.601	15.66
350.971	16.14
351.341	16.07
351.711	15.74
352.081	15.69
352.45	15.72
352.82	15.85
353.19	16.15
353.56	16.22
353.929	16.2
354.299	15.72
354.669	16.17
355.038	16.32
355.408	16.47
355.777	16.4
356.147	16.23
356.516	16.7
356.885	16.67
357.254	16.43
357.624	16.3
357.993	16.48
358.362	16.6
358.731	16.09
359.1	16.17
359.469	16.64
359.838	16.95
360.207	17.02
360.576	16.73
360.945	16.69
361.314	16.91
361.682	17.08
362.051	16.75
362.42	16.75
362.788	17.21
363.157	16.82
363.525	16.98
363.894	16.98
364.262	17.14
364.631	17.23
364.999	17.08
365.367	16.96
365.735	17.34
366.104	17.25
366.472	17.47
366.84	17.79
367.208	17.44
367.576	17.66
367.944	17.6
368.312	17.67
368.68	17.94
369.048	18.07
369.416	18.1
369.783	17.8
370.151	17.83
370.519	18.2
370.886	18.29
371.254	18.33
371.621	18.3
371.989	18.26
372.356	18.05
372.724	18.45
373.091	18.41
373.458	18.48
373.826	18.49
374.193	18.01
374.56	18.25
374.927	18.93
375.294	18.53
375.661	19.03
376.028	19.11
376.395	19.24
376.762	18.8
377.129	19.02
377.496	19.14
377.863	18.95
378.229	18.96
378.596	19.39
378.963	18.84
379.329	19.19
379.696	19.3
380.062	19.4
380.429	19.09
380.795	19.25
381.161	19.64
381.528	19.84
381.894	19.17
382.26	19.48
382.626	19.84
382.993	19.78
383.359	19.84
383.725	19.5
384.091	19.85
384.457	20.09
384.823	19.95
385.188	20.31
385.554	20.14
385.92	19.91
386.286	20.4
386.651	20.02
387.017	20.23
387.383	20.22
387.748	19.9
388.114	20.32
388.479	20.47
388.845	20.48
389.21	20.5
389.575	20.35
389.94	20.64
390.306	20.77
390.671	20.71
391.036	20.56
391.401	20.82
391.766	20.82
392.131	20.91
392.496	21.14
392.861	21.01
393.226	21.16
393.591	21.14
393.956	21.14
394.32	21.26
394.685	21
395.05	21.48
395.414	21.31
395.779	21.59
396.143	21.5
396.508	21.16
396.872	21.43
397.236	21.75
397.601	21.66
397.965	21.61
398.329	21.72
398.694	21.84
399.058	21.94
399.422	21.77
399.786	21.88
400.15	21.94
400.514	21.81
400.878	22.24
401.242	22.32
401.605	22.19
401.969	22.16
402.333	22.21
402.697	22.33
403.06	22.41
403.424	22.4
403.787	22.39
404.151	22.61
404.514	22.96
404.878	22.68
405.241	22.45
405.604	22.77
405.968	22.89
406.331	22.66
406.694	22.95
407.057	22.69
407.42	22.97
407.783	23.15
408.146	22.85
408.509	22.92
408.872	23.41
409.235	23.12
409.598	23.26
409.961	23.32
410.323	23.26
410.686	23.08
411.049	23.27
411.411	23.4
411.774	23.5
412.136	23.69
412.499	23.58
412.861	23.8
413.223	23.92
413.586	23.78
413.948	24.05
414.31	23.99
414.672	23.96
415.035	23.93
415.397	24.23
415.759	24.16
416.121	24.09
416.483	24.62
416.845	24.03
417.206	24.09
417.568	24.35
417.93	24.38
418.292	24.2
418.653	24.68
419.015	24.45
419.377	24.4
419.738	24.27
420.1	24.49
420.461	24.34
420.822	24.25
421.184	24.55
421.545	24.47
421.906	24.57
422.267	24.49
422.629	24.55
422.99	24.47
423.351	24.54
423.712	24.56
424.073	24.52
424.434	24.82
424.795	24.8
425.155	24.8
425.516	24.81
425.877	24.96
426.238	24.66
426.598	24.93
426.959	24.87
427.32	25.08
427.68	25.32
428.041	25.4
428.401	25.29
428.761	25.54
429.122	25.58
429.482	25.66
429.842	25.82
430.202	25.74
430.563	25.87
430.923	26.1
431.283	26.02
431.643	26.46
432.003	26.29
432.363	26.22
432.722	26.44
433.082	26.36
433.442	26.51
433.802	26.62
434.161	26.5
434.521	26.69
434.881	26.54
435.24	26.63
435.6	26.67
435.959	26.6
436.319	26.61
436.678	26.83
437.037	26.74
437.396	26.71
437.756	27.07
438.115	26.98
438.474	27.37
438.833	27.22
439.192	27.26
439.551	27.2
439.91	27.16
440.269	27.4
440.628	27.25
440.987	27.28
441.345	27.32
441.704	27.22
442.063	27.31
442.421	27.41
442.78	27.37
443.138	27.48
443.497	27.58
443.855	27.69
444.214	27.48
444.572	27.74
444.93	27.96
445.288	28
445.647	28.12
446.005	28.01
446.363	27.94
446.721	28.06
447.079	28.37
447.437	28.05
447.795	27.94
448.153	27.97
448.51	28
448.868	27.91
449.226	28.13
449.584	28.14
449.941	28.21
450.299	28.43
450.656	28.39
451.014	28.57
451.371	28.72
451.729	28.66
452.086	28.96
452.443	28.97
452.801	29.01
453.158	29.26
453.515	29.35
453.872	29.21
454.229	29.6
454.586	29.25
454.943	29.18
455.3	29.29
455.657	29.37
456.014	29.45
456.371	29.47
456.727	29.8
457.084	29.71
457.441	30.05
457.797	30.03
458.154	29.76
458.51	29.87
458.867	30.02
459.223	30.06
459.58	30.15
459.936	30.3
460.292	30.1
460.648	30.21
461.005	30.35
461.361	30.13
461.717	30.16
462.073	30
462.429	30.03
462.785	30.12
463.141	30.27
463.496	30.47
463.852	30.82
464.208	30.9
464.564	30.96
464.919	30.98
465.275	31.24
465.631	31
465.986	31.33
466.342	31.34
466.697	31.45
467.052	31.34
467.408	31.49
467.763	31.32
468.118	31.7
468.473	31.44
468.829	31.54
469.184	31.54
469.539	31.62
469.894	31.63
470.249	31.72
470.603	31.98
470.958	31.86
471.313	32.06
471.668	32.09
472.023	32.39
472.377	32.23
472.732	32.29
473.086	32.38
473.441	32.42
473.795	32.37
474.15	32.46
474.504	32.46
474.859	32.44
475.213	32.46
475.567	32.46
475.921	32.78
476.275	32.7
476.63	33
476.984	32.95
477.338	33.25
477.692	32.93
478.045	33.02
478.399	33.05
478.753	33.06
479.107	33.14
479.461	33.12
479.814	32.97
480.168	33.3
480.521	33.17
480.875	33.31
481.228	33.39
481.582	33.4
481.935	33.49
482.289	33.72
482.642	33.36
482.995	33.44
483.348	33.46
483.701	33.51
484.055	33.47
484.408	33.33
484.761	33.29
485.114	32.99
485.466	32.63
485.819	32.73
486.172	32.8
486.525	32.88
486.878	32.98
487.23	32.97
487.583	33.22
487.936	33.34
488.288	33.58
488.641	33.67
488.993	33.34
489.345	33.49
489.698	33.4
490.05	33.46
490.402	33.57
490.754	33.63
491.107	33.8
491.459	33.86
491.811	34.26
492.163	34.42
492.515	34.58
492.866	34.51
493.218	34.19
493.57	34.02
493.922	34.16
494.274	34.26
494.625	34.28
494.977	34.66
495.328	34.83
495.68	35.19
496.031	35.17
496.383	35.62
496.734	35.51
497.086	35.81
497.437	35.69
497.788	35.78
498.139	35.94
498.49	35.75
498.842	35.71
499.193	35.67
499.544	35.96
499.894	35.79
500.245	35.9
500.596	36.15
500.947	36.21
501.298	36.13
501.648	36.23
501.999	36.42
502.35	36.69
502.7	36.51
503.051	36.72
503.401	37.06
503.752	36.81
504.102	36.99
504.452	37.11
504.803	37.26
505.153	37.3
505.503	37.08
505.853	37.18
506.203	37.34
506.553	37.24
506.903	37.14
507.253	37.31
507.603	37.62
507.953	37.43
508.303	37.57
508.652	37.58
509.002	37.67
509.352	37.71
509.701	38.04
510.051	37.6
510.4	37.75
510.75	37.71
511.099	37.76
511.449	37.78
511.798	37.88
512.147	37.9
512.496	38.06
512.846	37.99
513.195	38.42
513.544	38.31
513.893	38.16
514.242	38.18
514.591	38.22
514.939	38.21
515.288	38.21
515.637	38.62
515.986	38.71
516.334	38.62
516.683	38.84
517.032	38.76
517.38	38.72
517.729	39
518.077	39.3
518.426	39.08
518.774	39.16
519.122	39.09
519.47	38.99
519.819	38.82
520.167	38.74
520.515	38.91
520.863	38.96
521.211	38.94
521.559	38.98
521.907	39.22
522.255	39.1
522.602	39.33
522.95	39.42
523.298	39.69
523.645	39.63
523.993	39.98
524.341	40
524.688	40.19
525.036	40.09
525.383	40.14
525.73	40.2
526.078	40.04
526.425	40.41
526.772	40.03
527.119	40.11
527.466	39.92
527.814	40.07
528.161	40.14
528.508	39.97
528.854	39.98
529.201	39.96
529.548	40.19
529.895	39.91
530.242	39.76
530.588	39.74
530.935	39.85
531.282	39.96
531.628	39.95
531.975	39.98
532.321	40.29
532.667	40.43
533.014	40.67
533.36	40.98
533.706	41.02
534.052	40.96
534.399	41.03
534.745	40.78
535.091	40.82
535.437	40.6
535.783	40.77
536.129	40.92
536.474	41
536.82	41.3
537.166	41.41
537.512	41.56
537.857	41.55
538.203	41.53
538.549	41.7
538.894	41.73
539.239	41.74
539.585	41.88
539.93	41.89
540.276	42.16
540.621	42.31
540.966	42.4
541.311	42.62
541.656	42.66
542.001	42.54
542.346	42.49
542.691	42.5
543.036	42.18
543.381	41.9
543.726	42
544.071	42.09
544.415	42.18
544.76	42.24
545.105	42.55
545.449	42.44
545.794	42.77
546.138	42.92
546.483	43.08
546.827	43.24
547.171	43.32
547.516	43.37
547.86	43.47
548.204	43.45
548.548	43.44
548.892	43.5
549.236	43.46
549.58	43.77
549.924	43.75
550.268	43.9
550.612	43.91
550.956	44.29
551.3	44.25
551.643	44.44
551.987	44.73
552.33	44.64
552.674	44.5
553.017	44.91
553.361	45.01
553.704	44.99
554.048	44.91
554.391	44.85
554.734	44.93
555.077	44.94
555.42	44.86
555.764	45.01
556.107	45.15
556.45	45.27
556.793	45.33
557.135	45.57
557.478	45.23
557.821	45.97
558.164	45.82
558.507	45.9
558.849	45.98
559.192	46.19
559.534	45.7
559.877	45.9
560.219	45.95
560.562	46.08
560.904	45.89
561.246	46.38
561.589	46.21
561.931	46.15
562.273	46.57
562.615	46.74
562.957	46.72
563.299	46.55
563.641	46.43
563.983	46.36
564.325	46.55
564.667	46.91
565.008	46.79
565.35	47.04
565.692	46.9
566.033	47.1
566.375	47.04
566.716	46.69
567.058	46.93
567.399	47.03
567.741	47.07
568.082	47.13
568.423	47.14
568.764	47.04
569.105	47.11
569.447	47.13
569.788	47.31
570.129	47.68
570.47	47.55
570.811	47.61
571.151	47.59
571.492	47.82
571.833	48.05
572.174	48.13
572.514	48.1
572.855	48.1
573.195	48.11
573.536	47.92
573.876	48.07
574.217	47.99
574.557	47.89
574.898	48
575.238	47.78
575.578	48.32
575.918	48.15
576.258	48.24
576.598	48.69
576.938	48.59
577.278	48.62
577.618	48.69
577.958	48.48
578.298	48.81
578.638	48.93
578.977	48.91
579.317	48.95
579.657	48.94
579.996	49.13
580.336	49.12
580.675	49.33
581.014	49.39
581.354	49.7
581.693	49.7
582.032	49.76
582.372	49.95
582.711	50
583.05	50.32
583.389	49.76
583.728	49.93
584.067	49.98
584.406	50.23
584.745	50.22
585.083	50.63
585.422	50.36
585.761	50.51
586.1	50.28
586.438	50.23
586.777	50.11
587.115	50.77
587.454	50.47
587.792	50.55
588.13	50.89
588.469	50.74
588.807	50.77
589.145	51.06
589.483	51.07
589.821	50.95
590.159	50.92
590.497	50.99
590.835	51
591.173	51.62
591.511	51.5
591.849	51.16
592.187	51.24
592.524	51.18
592.862	51.43
593.2	51.32
593.537	51.4
593.875	51.27
594.212	51.35
594.55	51.65
594.887	51.81
595.224	51.96
595.561	51.5
595.899	51.94
596.236	51.89
596.573	51.85
596.91	52.17
597.247	51.81
597.584	51.96
597.921	52.22
598.258	52.46
598.594	52.24
598.931	51.9
599.268	51.97
599.604	52.56
599.941	52.22
600.277	51.83
600.614	52.34
600.95	52.63
601.287	52.74
601.623	53
601.959	52.65
602.296	53.13
602.632	52.82
602.968	52.99
603.304	53.1
603.64	52.84
603.976	52.95
604.312	53.02
604.648	53.14
604.984	53.05
605.319	53.37
605.655	52.88
605.991	53.17
606.326	53.12
606.662	53.09
606.998	52.94
607.333	52.99
607.668	52.97
608.004	53.39
608.339	53.45
608.674	53.2
609.01	53.57
609.345	53.55
609.68	53.88
610.015	53.81
610.35	54.15
610.685	54.45
611.02	53.98
611.355	53.97
611.689	54.04
612.024	53.89
612.359	53.63
612.694	53.82
613.028	54.21
613.363	54.21
613.697	54.27
614.032	54.3
614.366	54.26
614.7	54.46
615.035	54.68
615.369	54.65
615.703	55.05
616.037	54.8
616.371	54.5
616.705	54.8
617.039	54.93
617.373	55.22
617.707	55.2
618.041	55.5
618.375	55.2
618.709	54.74
619.042	55.95
619.376	55.22
619.71	55.84
620.043	56.1
620.377	55.32
620.71	55.48
621.043	55.52
621.377	55.69
621.71	55.88
622.043	55.82
622.376	55.63
622.709	55.79
623.043	56.12
623.376	55.8
623.709	55.96
624.041	55.82
624.374	56.27
624.707	56.4
625.04	56.28
625.373	56.35
625.705	56.87
626.038	56.68
626.37	56.21
626.703	56.32
627.035	56.34
627.368	56.82
627.7	56.36
628.032	56.98
628.365	56.93
628.697	56.6
629.029	56.44
629.361	56.11
629.693	56.75
630.025	56.48
630.357	56.57
630.689	56.63
631.021	56.57
631.353	56.83
631.684	56.98
632.016	57.22
632.348	56.72
632.679	57.36
633.011	56.91
633.342	57.62
633.674	57.37
634.005	57.29
634.336	57.82
634.668	57.36
634.999	57.6
635.33	57.5
635.661	57.86
635.992	57.74
636.323	57.72
636.654	57.87
636.985	57.31
637.316	58.09
637.647	58.17
637.977	57.79
638.308	57.73
638.639	57.77
638.969	58.18
639.3	57.73
639.63	57.88
639.961	57.89
640.291	58.34
640.622	58.72
640.952	58.32
641.282	58.38
641.612	58.61
641.943	57.96
642.273	58.62
642.603	58.47
642.933	59.05
643.263	58.85
643.592	58.76
643.922	59.09
644.252	58.93
644.582	59.02
644.911	58.73
645.241	59.22
645.571	59.51
645.9	58.35
646.23	58.88
646.559	59.4
646.888	59.33
647.218	59.31
647.547	59.24
647.876	59.25
648.205	59.02
648.534	59.21
648.863	59.54
649.192	59.76
649.521	60
649.85	60
650.179	59.26
650.508	59.5
650.837	60.09
651.165	60.03
651.494	59.8
651.822	60.04
652.151	60.19
652.479	60.2
652.808	60.09
653.136	59.95
653.465	60.03
653.793	60.13
654.121	60.31
654.449	60.22
654.777	60.33
655.105	60.92
655.433	60.52
655.761	60.85
656.089	60.56
656.417	60.59
656.745	60.28
657.073	60.65
657.4	61.09
657.728	61.14
658.056	60.74
658.383	60.49
658.711	60.83
659.038	61.47
659.365	61.1
659.693	60.65
660.02	60.72
660.347	61.27
660.674	61.82
661.001	60.84
661.329	60.62
661.656	61.05
661.982	60.81
662.309	61.06
662.636	61.17
662.963	61.23
663.29	61.1
663.616	61.55
663.943	61.35
664.27	61.33
664.596	61.7
664.923	61.43
665.249	61.41
665.576	62.75
665.902	61.4
666.228	61.68
666.554	62.12
666.881	61.91
667.207	61.62
667.533	62.79
667.859	62.1
668.185	61.7
668.511	61.85
668.837	62.25
