Data from 0399_chest_Reflection__0__200.txt Node

Date: Fri Dec 15 18:17:17 CST 2023
User: ToomeyLab
Spectrometer: FLMS14357
Trigger mode: 0
Integration Time (sec): 1.000000E-2
Scans to average: 100
Electric dark correction enabled: true
Nonlinearity correction enabled: false
Boxcar width: 0
XAxis mode: Wavelengths
Number of Pixels in Spectrum: 2048
>>>>>Begin Spectral Data<<<<<
189.047	-256.86
189.435	-256.86
189.823	-256.86
190.211	37.1
190.599	-666.57
190.987	80.55
191.375	73.29
191.763	87.04
192.151	24.92
192.538	143.79
192.926	659.14
193.314	74.04
193.702	653.13
194.089	-89.37
194.477	58.47
194.864	-26.74
195.252	87.81
195.639	84.71
196.027	52.42
196.414	155.33
196.801	1003.05
197.189	225.37
197.576	304.02
197.963	-285.09
198.351	-40.86
198.738	-91.48
199.125	9.92
199.512	-37.87
199.899	6.87
200.286	52.23
200.673	10.62
201.06	-12.39
201.447	-15.73
201.833	-16.09
202.22	45.7
202.607	18.81
202.994	10.9
203.38	-21.36
203.767	13.91
204.154	47.19
204.54	41.23
204.927	13.66
205.313	-86.24
205.699	35.34
206.086	33.3
206.472	31.81
206.858	23.51
207.245	-37.22
207.631	17.61
208.017	-23.04
208.403	22.51
208.789	18.64
209.175	-9.55
209.561	-31.92
209.947	-29.23
210.333	-3.79
210.719	23.34
211.105	23.62
211.491	-36.03
211.876	38.96
212.262	4.02
212.648	4.35
213.034	34.92
213.419	2.43
213.805	-13.85
214.19	-9.1
214.576	-1.94
214.961	-15.25
215.346	-54.71
215.732	-16.95
216.117	15.2
216.502	-15.27
216.888	-5.59
217.273	9.42
217.658	-52.77
218.043	14.01
218.428	-52.5
218.813	-64.23
219.198	-14.83
219.583	25.56
219.968	8.05
220.353	-13.9
220.738	15.16
221.122	0.38
221.507	-41.27
221.892	-38.38
222.276	-46.92
222.661	3.77
223.046	5.54
223.43	12.88
223.815	14.59
224.199	-8.43
224.583	-0.66
224.968	-7.79
225.352	9.97
225.736	-5.83
226.121	-8.19
226.505	3.33
226.889	7.31
227.273	5.88
227.657	9.09
228.041	2.68
228.425	5.33
228.809	6.93
229.193	7.17
229.577	3.82
229.961	6
230.344	5.07
230.728	5.2
231.112	5.79
231.495	4.92
231.879	5.01
232.263	5.86
232.646	5.85
233.03	5.36
233.413	4.63
233.797	4.25
234.18	3.61
234.563	5.47
234.946	5.7
235.33	8.7
235.713	5.76
236.096	4.47
236.479	7.43
236.862	4.6
237.245	5.43
237.628	1.91
238.011	5.78
238.394	6.74
238.777	6.45
239.16	5.51
239.543	4.39
239.925	5.66
240.308	6.63
240.691	7.24
241.073	6.47
241.456	4.67
241.838	4.59
242.221	4.67
242.603	5.99
242.986	5.67
243.368	5.57
243.75	5.45
244.133	4.97
244.515	5.4
244.897	5.24
245.279	5.47
245.661	3.96
246.043	4.66
246.425	4.08
246.807	6.44
247.189	6.45
247.571	5.41
247.953	5.19
248.335	5.26
248.717	5.2
249.098	5
249.48	5.14
249.862	4.92
250.243	5.21
250.625	4.87
251.006	5.29
251.388	3.36
251.769	4.12
252.151	5.9
252.532	4.54
252.913	3.91
253.295	5.2
253.676	5.63
254.057	4.97
254.438	4.69
254.819	4.16
255.2	4.18
255.581	3.54
255.962	4.08
256.343	4.97
256.724	3.59
257.105	4.31
257.486	4.22
257.867	5.47
258.247	5.44
258.628	4.61
259.009	4.51
259.389	4.3
259.77	4.33
260.15	3.71
260.531	4.4
260.911	5.3
261.292	5.1
261.672	5.27
262.052	4.96
262.432	5
262.813	4.37
263.193	4.93
263.573	4.8
263.953	4.49
264.333	5.47
264.713	4.92
265.093	4.59
265.473	4.36
265.853	3.23
266.233	4.85
266.612	3.21
266.992	4.31
267.372	4.88
267.752	3.86
268.131	4.67
268.511	5.2
268.89	5.55
269.27	4.07
269.649	4.41
270.029	4.19
270.408	5.13
270.787	5.44
271.167	4.78
271.546	4.74
271.925	4.14
272.304	4.38
272.683	5.56
273.062	4.51
273.441	5.02
273.82	4.19
274.199	4.87
274.578	4.62
274.957	4.75
275.336	4.75
275.715	4.42
276.093	4.15
276.472	3.76
276.851	4.68
277.229	4.27
277.608	3.65
277.986	4.37
278.365	4.64
278.743	3.88
279.122	4.01
279.5	4.19
279.878	4.83
280.257	4.39
280.635	4.49
281.013	4.45
281.391	4.57
281.769	5
282.147	4.28
282.525	5.05
282.903	3.95
283.281	4.44
283.659	5.06
284.037	5.05
284.415	4.65
284.792	5
285.17	3.72
285.548	3.96
285.925	4.4
286.303	4.56
286.68	4.51
287.058	4.26
287.435	4.22
287.813	4.37
288.19	4.12
288.567	4.43
288.945	4.56
289.322	4.18
289.699	4.83
290.076	3.95
290.453	4.25
290.83	4.31
291.207	3.91
291.584	4.52
291.961	4.64
292.338	4.37
292.715	4.95
293.092	4.41
293.469	4.04
293.845	4.75
294.222	3.9
294.599	4.13
294.975	4.07
295.352	4.6
295.728	4.05
296.105	4.44
296.481	4.53
296.858	4.45
297.234	3.94
297.61	4.21
297.986	4.01
298.363	4.62
298.739	4.75
299.115	4.34
299.491	4.45
299.867	4.4
300.243	4.26
300.619	4.17
300.995	4.29
301.371	4.66
301.746	4.45
302.122	5.08
302.498	4.48
302.874	4.59
303.249	4.06
303.625	4.58
304	4.43
304.376	4.73
304.751	3.61
305.127	5.14
305.502	4.51
305.878	4.4
306.253	4.65
306.628	5.12
307.003	4.31
307.378	4.1
307.754	4.33
308.129	3.79
308.504	4.83
308.879	4.16
309.254	5.34
309.629	4.95
310.003	4.65
310.378	5.16
310.753	4.42
311.128	4.37
311.502	4.14
311.877	5.2
312.252	3.93
312.626	4.65
313.001	4.56
313.375	5.23
313.75	4.18
314.124	4.38
314.498	4.54
314.873	4.52
315.247	4.28
315.621	4.04
315.995	3.92
316.369	4.7
316.743	4.43
317.117	4.51
317.491	4.12
317.865	4.78
318.239	3.93
318.613	4.48
318.987	4.37
319.361	3.79
319.734	5.37
320.108	4.47
320.482	4.77
320.855	4.96
321.229	4.53
321.602	4.58
321.976	5.29
322.349	4.63
322.723	4.24
323.096	4.79
323.469	3.68
323.843	4.22
324.216	4.64
324.589	4.39
324.962	4.92
325.335	4.32
325.708	4.17
326.081	4.27
326.454	4.25
326.827	4.39
327.2	4.99
327.573	4.52
327.945	4.86
328.318	4.33
328.691	3.7
329.063	4.65
329.436	4.17
329.809	4.6
330.181	4.62
330.553	4.66
330.926	4.93
331.298	4.43
331.671	4.73
332.043	5.42
332.415	4.74
332.787	4.85
333.159	5.37
333.532	4.86
333.904	4.67
334.276	4.53
334.648	5.06
335.02	4.67
335.391	4.18
335.763	4.34
336.135	4.34
336.507	5.17
336.879	4.55
337.25	4.34
337.622	4.57
337.993	4.22
338.365	4.6
338.736	4.55
339.108	4.7
339.479	4.5
339.851	5.01
340.222	3.97
340.593	4.44
340.964	4.27
341.336	4.92
341.707	4.24
342.078	4.84
342.449	4.91
342.82	4.76
343.191	4.85
343.562	4.54
343.933	4.71
344.303	4.02
344.674	4.63
345.045	4.86
345.416	5.02
345.786	4.23
346.157	4.63
346.527	4.15
346.898	4
347.268	4.78
347.639	4.55
348.009	4.92
348.38	4.26
348.75	4.76
349.12	4.72
349.49	4.48
349.861	4.58
350.231	3.88
350.601	4.86
350.971	4.79
351.341	4.76
351.711	4.38
352.081	4.52
352.45	4.31
352.82	5.07
353.19	4.5
353.56	4.17
353.929	4.66
354.299	4.7
354.669	4.65
355.038	5.19
355.408	4.14
355.777	4.26
356.147	4.24
356.516	4.45
356.885	4.45
357.254	4.49
357.624	4.9
357.993	5.09
358.362	4.41
358.731	4.6
359.1	4.73
359.469	4.99
359.838	4.84
360.207	4.32
360.576	4.46
360.945	4.67
361.314	5.17
361.682	4.63
362.051	4.45
362.42	4.8
362.788	4.7
363.157	4.94
363.525	4.75
363.894	4.89
364.262	4.63
364.631	4.5
364.999	4.75
365.367	4.42
365.735	5.2
366.104	4.85
366.472	4.84
366.84	4.39
367.208	4.57
367.576	5.14
367.944	5.04
368.312	4.83
368.68	4.45
369.048	4.94
369.416	4.98
369.783	4.39
370.151	4.92
370.519	5.29
370.886	4.89
371.254	4.67
371.621	4.96
371.989	4.95
372.356	4.05
372.724	4.78
373.091	4.47
373.458	4.52
373.826	4.86
374.193	4.31
374.56	5.12
374.927	4.97
375.294	4.91
375.661	4.55
376.028	4.64
376.395	4.71
376.762	5.02
377.129	4.86
377.496	4.81
377.863	4.83
378.229	4.41
378.596	4.86
378.963	4.62
379.329	4.64
379.696	4.91
380.062	5.05
380.429	4.61
380.795	4.75
381.161	4.79
381.528	5.31
381.894	4.83
382.26	4.45
382.626	4.84
382.993	4.49
383.359	5.38
383.725	4.7
384.091	4.69
384.457	4.95
384.823	4.68
385.188	4.97
385.554	4.83
385.92	5.02
386.286	5.09
386.651	4.91
387.017	5.18
387.383	4.86
387.748	4.77
388.114	5.08
388.479	4.67
388.845	4.7
389.21	5.16
389.575	4.89
389.94	4.65
390.306	4.95
390.671	5.32
391.036	4.68
391.401	4.58
391.766	4.97
392.131	4.55
392.496	5.03
392.861	4.73
393.226	4.98
393.591	4.99
393.956	4.68
394.32	4.93
394.685	4.97
395.05	4.88
395.414	4.81
395.779	4.82
396.143	5.01
396.508	4.91
396.872	4.74
397.236	5.08
397.601	4.9
397.965	4.92
398.329	4.97
398.694	4.91
399.058	5.07
399.422	4.76
399.786	4.99
400.15	5.03
400.514	5.01
400.878	4.79
401.242	5.11
401.605	4.91
401.969	4.9
402.333	4.92
402.697	4.89
403.06	4.97
403.424	4.97
403.787	4.92
404.151	4.95
404.514	4.77
404.878	4.92
405.241	4.99
405.604	4.94
405.968	5.05
406.331	5.14
406.694	5.31
407.057	4.91
407.42	5.1
407.783	4.83
408.146	5.19
408.509	4.95
408.872	4.96
409.235	4.85
409.598	5.24
409.961	5.28
410.323	5.09
410.686	4.87
411.049	4.79
411.411	4.97
411.774	5.15
412.136	4.94
412.499	5.13
412.861	4.96
413.223	4.82
413.586	4.97
413.948	4.76
414.31	5.29
414.672	4.53
415.035	4.91
415.397	5.01
415.759	4.8
416.121	5.17
416.483	5.06
416.845	5.14
417.206	4.91
417.568	5.05
417.93	4.67
418.292	4.82
418.653	4.75
419.015	5.05
419.377	4.83
419.738	5.24
420.1	4.95
420.461	5.06
420.822	5.13
421.184	4.95
421.545	5.02
421.906	4.98
422.267	5.06
422.629	4.96
422.99	4.97
423.351	4.9
423.712	4.86
424.073	4.93
424.434	4.81
424.795	4.91
425.155	4.9
425.516	4.78
425.877	4.96
426.238	4.88
426.598	5.04
426.959	4.93
427.32	4.92
427.68	4.96
428.041	4.93
428.401	5.06
428.761	4.87
429.122	5.26
429.482	4.97
429.842	5.06
430.202	5
430.563	5.03
430.923	4.98
431.283	5.2
431.643	5.01
432.003	5.09
432.363	5.1
432.722	4.92
433.082	4.87
433.442	5.02
433.802	5.1
434.161	4.83
434.521	5.27
434.881	5.21
435.24	5.01
435.6	5.13
435.959	5.09
436.319	4.98
436.678	4.97
437.037	5.14
437.396	5.13
437.756	5.05
438.115	4.98
438.474	5.21
438.833	4.84
439.192	5.04
439.551	5.2
439.91	5.15
440.269	5.09
440.628	4.91
440.987	5.06
441.345	4.82
441.704	5.07
442.063	5.02
442.421	5.08
442.78	4.97
443.138	5
443.497	5.01
443.855	5.08
444.214	5.05
444.572	5.13
444.93	5.22
445.288	5.15
445.647	5.15
446.005	5.09
446.363	5.33
446.721	5.17
447.079	4.89
447.437	5.12
447.795	5.07
448.153	4.95
448.51	5.09
448.868	5.05
449.226	5.07
449.584	5
449.941	5.25
450.299	5.12
450.656	5.07
451.014	5.14
451.371	5.12
451.729	4.98
452.086	5.19
452.443	5.1
452.801	5.26
453.158	5.13
453.515	5.14
453.872	5.25
454.229	5.11
454.586	5.1
454.943	5.17
455.3	5.22
455.657	4.96
456.014	4.89
456.371	5.09
456.727	5.06
457.084	5.47
457.441	5.21
457.797	5.11
458.154	5.35
458.51	5.52
458.867	5.24
459.223	5.39
459.58	5.33
459.936	5.32
460.292	5.22
460.648	5.18
461.005	5.31
461.361	5.33
461.717	5.31
462.073	5.03
462.429	5.2
462.785	5.23
463.141	5.08
463.496	5.27
463.852	5.31
464.208	5.24
464.564	5.3
464.919	5.18
465.275	5.43
465.631	5.38
465.986	5.18
466.342	5.35
466.697	5.05
467.052	5.29
467.408	5.43
467.763	5.31
468.118	5.17
468.473	5.2
468.829	5.22
469.184	5.35
469.539	5.42
469.894	5.18
470.249	5.27
470.603	5.33
470.958	5.39
471.313	5.45
471.668	5.32
472.023	5.49
472.377	5.25
472.732	5.28
473.086	5.36
473.441	5.11
473.795	5.41
474.15	5.36
474.504	5.38
474.859	5.31
475.213	5.24
475.567	5.15
475.921	5.13
476.275	5.4
476.63	5.4
476.984	5.45
477.338	5.35
477.692	5.26
478.045	5.44
478.399	5.38
478.753	5.52
479.107	5.45
479.461	5.32
479.814	5.26
480.168	5.24
480.521	5.34
480.875	5.26
481.228	5.28
481.582	5.32
481.935	5.37
482.289	5.35
482.642	5.44
482.995	5.35
483.348	5.28
483.701	5.48
484.055	5.36
484.408	5.4
484.761	5.39
485.114	5.3
485.466	5.19
485.819	5.13
486.172	5.1
486.525	5
486.878	4.99
487.23	5.09
487.583	5.17
487.936	5.2
488.288	5.25
488.641	5.32
488.993	5.26
489.345	5.18
489.698	5.21
490.05	5.15
490.402	5.22
490.754	5.16
491.107	5.3
491.459	5.33
491.811	5.31
492.163	5.33
492.515	5.52
492.866	5.44
493.218	5.42
493.57	5.3
493.922	5.25
494.274	5.34
494.625	5.31
494.977	5.29
495.328	5.46
495.68	5.44
496.031	5.57
496.383	5.4
496.734	5.61
497.086	5.6
497.437	5.5
497.788	5.6
498.139	5.49
498.49	5.53
498.842	5.39
499.193	5.7
499.544	5.55
499.894	5.49
500.245	5.6
500.596	5.4
500.947	5.59
501.298	5.5
501.648	5.61
501.999	5.61
502.35	5.68
502.7	5.66
503.051	5.44
503.401	5.51
503.752	5.79
504.102	5.57
504.452	5.59
504.803	5.66
505.153	5.65
505.503	5.55
505.853	5.7
506.203	5.59
506.553	5.54
506.903	5.6
507.253	5.55
507.603	5.55
507.953	5.77
508.303	5.84
508.652	5.57
509.002	5.81
509.352	5.76
509.701	5.62
510.051	5.67
510.4	5.7
510.75	5.64
511.099	5.74
511.449	5.6
511.798	5.58
512.147	5.82
512.496	5.7
512.846	5.66
513.195	5.75
513.544	5.67
513.893	5.72
514.242	5.66
514.591	5.94
514.939	5.59
515.288	5.66
515.637	5.76
515.986	5.86
516.334	5.92
516.683	5.85
517.032	5.71
517.38	5.98
517.729	5.92
518.077	5.68
518.426	5.75
518.774	5.9
519.122	5.83
519.47	5.87
519.819	5.67
520.167	5.83
520.515	5.79
520.863	5.84
521.211	5.81
521.559	5.85
521.907	5.83
522.255	5.88
522.602	5.91
522.95	5.91
523.298	5.87
523.645	6.09
523.993	6.06
524.341	5.96
524.688	6.08
525.036	5.96
525.383	5.99
525.73	6.16
526.078	6.04
526.425	6.01
526.772	6.07
527.119	6.01
527.466	6.02
527.814	6.04
528.161	5.85
528.508	5.94
528.854	5.91
529.201	5.92
529.548	5.95
529.895	5.94
530.242	5.89
530.588	5.87
530.935	5.86
531.282	5.84
531.628	5.78
531.975	5.81
532.321	5.91
532.667	5.99
533.014	6.09
533.36	5.98
533.706	6.03
534.052	6
534.399	6
534.745	6.08
535.091	6.09
535.437	6.06
535.783	6.02
536.129	6.05
536.474	6.11
536.82	6.05
537.166	6.27
537.512	6.23
537.857	6.17
538.203	6.17
538.549	6.22
538.894	6.19
539.239	6.27
539.585	6.26
539.93	6.17
540.276	6.27
540.621	6.33
540.966	6.41
541.311	6.33
541.656	6.28
542.001	6.28
542.346	6.49
542.691	6.42
543.036	6.32
543.381	6.19
543.726	6.25
544.071	6.16
544.415	6.29
544.76	6.21
545.105	6.32
545.449	6.33
545.794	6.46
546.138	6.39
546.483	6.47
546.827	6.5
547.171	6.57
547.516	6.67
547.86	6.46
548.204	6.52
548.548	6.49
548.892	6.7
549.236	6.54
549.58	6.5
549.924	6.54
550.268	6.77
550.612	6.78
550.956	6.79
551.3	6.59
551.643	6.95
551.987	6.97
552.33	6.9
552.674	6.86
553.017	6.73
553.361	6.83
553.704	6.9
554.048	6.74
554.391	6.92
554.734	6.88
555.077	6.9
555.42	6.75
555.764	6.86
556.107	6.77
556.45	6.75
556.793	7.01
557.135	6.81
557.478	7.24
557.821	6.91
558.164	6.9
558.507	7.17
558.849	7.02
559.192	7.12
559.534	7.15
559.877	7.23
560.219	7.17
560.562	7.38
560.904	7.25
561.246	7.25
561.589	7.14
561.931	7.25
562.273	7.25
562.615	7.15
562.957	7.36
563.299	7.18
563.641	7.36
563.983	7.36
564.325	7.15
564.667	7.24
565.008	7.32
565.35	7.26
565.692	7.15
566.033	7.44
566.375	7.51
566.716	7.65
567.058	7.38
567.399	7.51
567.741	7.29
568.082	7.6
568.423	7.36
568.764	7.35
569.105	7.45
569.447	7.58
569.788	7.54
570.129	7.52
570.47	7.8
570.811	7.7
571.151	7.67
571.492	7.77
571.833	7.68
572.174	7.57
572.514	7.68
572.855	7.82
573.195	7.8
573.536	7.79
573.876	7.59
574.217	7.57
574.557	7.88
574.898	7.95
575.238	7.94
575.578	7.68
575.918	8.1
576.258	7.94
576.598	7.96
576.938	7.94
577.278	7.94
577.618	7.93
577.958	7.86
578.298	8.05
578.638	8.02
578.977	8.01
579.317	8.13
579.657	8.12
579.996	8.14
580.336	8.26
580.675	8.15
581.014	8.32
581.354	8.11
581.693	8.23
582.032	8.26
582.372	8.43
582.711	8.33
583.05	8.16
583.389	8.33
583.728	8.2
584.067	8.62
584.406	8.59
584.745	8.39
585.083	8.71
585.422	8.61
585.761	8.4
586.1	8.49
586.438	8.51
586.777	8.85
587.115	8.45
587.454	8.54
587.792	8.65
588.13	9.26
588.469	8.61
588.807	8.66
589.145	8.49
589.483	8.84
589.821	8.77
590.159	8.92
590.497	9.18
590.835	8.86
591.173	8.76
591.511	9.16
591.849	9.01
592.187	8.95
592.524	8.8
592.862	8.85
593.2	9.14
593.537	8.98
593.875	9.01
594.212	8.87
594.55	9.02
594.887	9.04
595.224	9.16
595.561	9.04
595.899	9.19
596.236	9.33
596.573	9.37
596.91	8.82
597.247	9.22
597.584	9.56
597.921	9.31
598.258	9.19
598.594	9.44
598.931	9.42
599.268	9.49
599.604	9.29
599.941	9.42
600.277	9.52
600.614	9.24
600.95	9.26
601.287	9.73
601.623	9.47
601.959	9.45
602.296	9.6
602.632	9.67
602.968	9.81
603.304	9.8
603.64	9.76
603.976	10.08
604.312	9.51
604.648	9.73
604.984	9.8
605.319	9.82
605.655	9.89
605.991	9.82
606.326	9.91
606.662	9.93
606.998	9.75
607.333	10
607.668	9.94
608.004	10.2
608.339	10.27
608.674	9.99
609.01	9.58
609.345	10.2
609.68	10.34
610.015	10.18
610.35	10.12
610.685	10.22
611.02	10.47
611.355	10.16
611.689	10.4
612.024	10.3
612.359	10.22
612.694	10.3
613.028	10.45
613.363	10.66
613.697	10.6
614.032	10.5
614.366	10.22
614.7	11.08
615.035	11.01
615.369	10.79
615.703	10.75
616.037	11.06
616.371	10.53
616.705	10.77
617.039	10.83
617.373	10.72
617.707	10.63
618.041	10.86
618.375	10.95
618.709	10.91
619.042	10.92
619.376	11.11
619.71	11.02
620.043	11.15
620.377	10.88
620.71	11.35
621.043	10.94
621.377	11.25
621.71	11.18
622.043	11.14
622.376	10.86
622.709	11.07
623.043	11.11
623.376	11.52
623.709	10.86
624.041	11.3
624.374	11.22
624.707	11.33
625.04	11.58
625.373	11.18
625.705	11.52
626.038	11.33
626.37	11.5
626.703	11.11
627.035	11.47
627.368	11.94
627.7	11.73
628.032	11.39
628.365	11.92
628.697	11.65
629.029	11.57
629.361	11.66
629.693	11.82
630.025	11.81
630.357	11.88
630.689	11.74
631.021	11.52
631.353	11.83
631.684	11.65
632.016	11.43
632.348	12.04
632.679	12.02
633.011	12.05
633.342	12.45
633.674	11.76
634.005	12.34
634.336	12.14
634.668	12.9
634.999	12
635.33	12.04
635.661	12.57
635.992	12.24
636.323	12.36
636.654	12.45
636.985	12.1
637.316	12.22
637.647	12.36
637.977	12.79
638.308	12.48
638.639	11.99
638.969	12.32
639.3	12.16
639.63	12.07
639.961	12.79
640.291	12.64
640.622	12.82
640.952	12.54
641.282	12.97
641.612	12.81
641.943	12.37
642.273	13.25
642.603	13.27
642.933	13.15
643.263	13.06
643.592	12.58
643.922	12.87
644.252	13.15
644.582	12.94
644.911	12.93
645.241	12.98
645.571	12.57
645.9	12.84
646.23	12.78
646.559	13.27
646.888	13.39
647.218	12.94
647.547	13.28
647.876	13.25
648.205	13.37
648.534	13.27
648.863	12.99
649.192	13.63
649.521	13.34
649.85	13.08
650.179	13.76
650.508	13.25
650.837	13.38
651.165	12.66
651.494	13.46
651.822	13.95
652.151	13.43
652.479	13.51
652.808	13.62
653.136	13.73
653.465	13.39
653.793	13.49
654.121	13.54
654.449	13.9
654.777	13.79
655.105	13.83
655.433	13.34
655.761	13.44
656.089	13.97
656.417	14.42
656.745	13.46
657.073	13.64
657.4	14.39
657.728	13.83
658.056	14.19
658.383	14.16
658.711	13.68
659.038	14.13
659.365	14.62
659.693	13.63
660.02	14.18
660.347	14.22
660.674	14.7
661.001	14.52
661.329	13.79
661.656	14.34
661.982	14.35
662.309	14.43
662.636	14.11
662.963	14.65
663.29	14.52
663.616	15.09
663.943	14.03
664.27	14.81
664.596	14.71
664.923	14.87
665.249	15.09
665.576	14.93
665.902	15.71
666.228	15.12
666.554	14.67
666.881	14.72
667.207	14.9
667.533	14.61
667.859	15.24
668.185	15.61
668.511	14.39
668.837	14.27
669.162	14.76
669.488	14.79
669.814	14.82
670.139	15.01
670.465	15.49
670.791	15.47
671.116	15.47
671.442	14.81
671.767	15.37
672.092	15.38
672.418	15.3
672.743	15.67
673.068	15.36
673.393	15.55
673.718	15.41
674.043	15.2
674.368	15.68
674.693	16.07
675.018	15.23
675.343	15.25
675.667	15.54
675.992	15.65
676.317	15.72
676.641	16.09
676.966	15.4
677.29	14.87
677.615	16.63
677.939	16.03
678.264	16.1
678.588	15.88
678.912	15.97
679.236	16.21
679.56	15.69
679.885	16.02
680.209	15.76
680.532	16.4
680.856	16.85
681.18	16.36
681.504	15.7
681.828	16.78
682.152	15.63
682.475	16.17
682.799	16.35
683.122	16.58
683.446	15.94
683.769	16.29
684.093	16.22
684.416	17.04
684.739	16.5
685.062	16.25
685.386	17.2
685.709	15.52
686.032	16.31
686.355	16.19
686.678	16.02
