Data from 0399_forehead_Reflection__4__214.txt Node

Date: Fri Dec 15 18:20:36 CST 2023
User: ToomeyLab
Spectrometer: FLMS14357
Trigger mode: 0
Integration Time (sec): 1.000000E-2
Scans to average: 100
Electric dark correction enabled: true
Nonlinearity correction enabled: false
Boxcar width: 0
XAxis mode: Wavelengths
Number of Pixels in Spectrum: 2048
>>>>>Begin Spectral Data<<<<<
189.047	-371.12
189.435	-371.12
189.823	-371.12
190.211	103
190.599	-902.55
190.987	41.9
191.375	96.56
191.763	172.63
192.151	-333.92
192.538	58.79
192.926	308.73
193.314	165.69
193.702	87.68
194.089	72.93
194.477	33.39
194.864	17.65
195.252	126.96
195.639	64.08
196.027	111.12
196.414	58.49
196.801	766.04
197.189	157.3
197.576	222.19
197.963	517.05
198.351	14.96
198.738	63.02
199.125	4.17
199.512	-16.31
199.899	7.74
200.286	38.48
200.673	33.21
201.06	-4.87
201.447	36.74
201.833	35.47
202.22	61.5
202.607	34.1
202.994	85.33
203.38	23.79
203.767	33.26
204.154	54.17
204.54	33.7
204.927	-39.08
205.313	-20.61
205.699	29.55
206.086	56.15
206.472	36.42
206.858	31.54
207.245	10.51
207.631	46.83
208.017	29.87
208.403	42.39
208.789	153.08
209.175	58.08
209.561	-39.8
209.947	39.65
210.333	-40.8
210.719	30.3
211.105	26.22
211.491	-24.44
211.876	7.73
212.262	15.8
212.648	13.68
213.034	30.96
213.419	-30.38
213.805	-7.7
214.19	-6.85
214.576	11.36
214.961	-3.39
215.346	5.82
215.732	17.09
216.117	28.22
216.502	26.4
216.888	25.98
217.273	23.67
217.658	18.99
218.043	20.11
218.428	-12.04
218.813	4.35
219.198	-23.47
219.583	38.47
219.968	32.74
220.353	14.31
220.738	22.71
221.122	38.64
221.507	18.09
221.892	-32.81
222.276	-25.64
222.661	7.8
223.046	24.21
223.43	12.98
223.815	10.64
224.199	-4.03
224.583	1.24
224.968	7.58
225.352	13.7
225.736	5.55
226.121	1.83
226.505	-0.71
226.889	8.41
227.273	-0.32
227.657	14.32
228.041	2.3
228.425	2.35
228.809	6.82
229.193	2
229.577	0.49
229.961	2.63
230.344	2.03
230.728	1.55
231.112	2.72
231.495	2.25
231.879	2.57
232.263	3.1
232.646	2.46
233.03	1.1
233.413	2.25
233.797	2.25
234.18	2.29
234.563	3.55
234.946	1.99
235.33	2.67
235.713	2.9
236.096	2.44
236.479	4.1
236.862	2.33
237.245	4.38
237.628	3.02
238.011	3.97
238.394	2.12
238.777	3.02
239.16	0.88
239.543	3.01
239.925	2.19
240.308	3.85
240.691	3.72
241.073	4.55
241.456	3.15
241.838	2.91
242.221	1.52
242.603	3.2
242.986	3.54
243.368	2.23
243.75	2.48
244.133	2.19
244.515	2.26
244.897	2.51
245.279	2.45
245.661	2.5
246.043	2.39
246.425	2.26
246.807	2.8
247.189	3.74
247.571	2.44
247.953	2.76
248.335	2.23
248.717	2.44
249.098	2.09
249.48	2.28
249.862	2.17
250.243	2.26
250.625	2.11
251.006	2.72
251.388	1.17
251.769	1.5
252.151	2.49
252.532	2.01
252.913	1.47
253.295	2.06
253.676	2.99
254.057	2.32
254.438	2.53
254.819	1.3
255.2	2.12
255.581	2.91
255.962	2.31
256.343	1.99
256.724	1.02
257.105	2.74
257.486	1.91
257.867	1.94
258.247	3.22
258.628	2.22
259.009	1.93
259.389	2.34
259.77	1.92
260.15	2.21
260.531	1.56
260.911	2.84
261.292	2.41
261.672	1.96
262.052	2.32
262.432	2.35
262.813	1.86
263.193	2.48
263.573	2.04
263.953	2.48
264.333	2.83
264.713	2.79
265.093	2.25
265.473	2.75
265.853	1.38
266.233	3.05
266.612	0.84
266.992	1.03
267.372	3.5
267.752	1.88
268.131	2.01
268.511	2.25
268.89	2.77
269.27	1.76
269.649	1.94
270.029	1.8
270.408	3.12
270.787	2.43
271.167	2.93
271.546	2.67
271.925	1.86
272.304	2.28
272.683	2.66
273.062	2.14
273.441	2.3
273.82	1.16
274.199	2.23
274.578	2.34
274.957	2.37
275.336	1.83
275.715	1.87
276.093	2.38
276.472	2.68
276.851	1.4
277.229	2.05
277.608	1.33
277.986	1.79
278.365	1.91
278.743	2.26
279.122	2.28
279.5	2.46
279.878	2.57
280.257	3.02
280.635	1.18
281.013	2.46
281.391	2.85
281.769	2.08
282.147	2.53
282.525	2.71
282.903	2.16
283.281	2.6
283.659	2.93
284.037	2.32
284.415	2.35
284.792	2.61
285.17	1.37
285.548	1.63
285.925	2.02
286.303	2.48
286.68	1.96
287.058	2.01
287.435	2.08
287.813	2.16
288.19	2.14
288.567	1.77
288.945	2.53
289.322	2.12
289.699	1.81
290.076	2.31
290.453	2.05
290.83	2.13
291.207	1.92
291.584	2.49
291.961	2.31
292.338	2.26
292.715	2.66
293.092	2.56
293.469	2.4
293.845	2.4
294.222	2.17
294.599	2.48
294.975	2.17
295.352	2.72
295.728	2.08
296.105	2.18
296.481	2.83
296.858	2.09
297.234	1.88
297.61	2.04
297.986	2.23
298.363	2.46
298.739	2.63
299.115	1.95
299.491	2.37
299.867	2.34
300.243	2.58
300.619	2.2
300.995	2.67
301.371	3
301.746	1.91
302.122	2.81
302.498	2.07
302.874	2.58
303.249	2.7
303.625	2.55
304	3.17
304.376	2.01
304.751	2.36
305.127	3
305.502	1.67
305.878	1.99
306.253	2.78
306.628	2.94
307.003	2.81
307.378	3.08
307.754	2.4
308.129	2.22
308.504	3.32
308.879	2.3
309.254	3.14
309.629	3.17
310.003	2.77
310.378	3.38
310.753	3.04
311.128	3.26
311.502	3.17
311.877	3.26
312.252	2.66
312.626	2.94
313.001	2.42
313.375	3.1
313.75	2.58
314.124	3.12
314.498	2.87
314.873	2.96
315.247	2.93
315.621	3.27
315.995	2.72
316.369	3.03
316.743	2.99
317.117	2.84
317.491	3.16
317.865	3.33
318.239	3.88
318.613	3.15
318.987	3.57
319.361	3.21
319.734	3.87
320.108	4.41
320.482	3.24
320.855	3.54
321.229	3.36
321.602	3.46
321.976	3.9
322.349	3.86
322.723	3.51
323.096	3.94
323.469	3.33
323.843	3.13
324.216	3.79
324.589	3.2
324.962	4.28
325.335	4.23
325.708	3.78
326.081	3.93
326.454	3.88
326.827	3.6
327.2	4.18
327.573	4.38
327.945	4.17
328.318	3.63
328.691	3.24
329.063	3.49
329.436	4.02
329.809	4.59
330.181	3.79
330.553	4.36
330.926	3.62
331.298	4.25
331.671	3.65
332.043	4.24
332.415	4.55
332.787	4.41
333.159	5.35
333.532	4.75
333.904	4.66
334.276	4.42
334.648	4.88
335.02	3.89
335.391	3.99
335.763	4.4
336.135	4.13
336.507	4.55
336.879	4.88
337.25	4.78
337.622	4.54
337.993	4.63
338.365	4.49
338.736	4.86
339.108	4.9
339.479	4.19
339.851	4.52
340.222	4.75
340.593	4.8
340.964	4.73
341.336	5.58
341.707	4.7
342.078	4.87
342.449	4.68
342.82	4.43
343.191	5.03
343.562	4.89
343.933	4.9
344.303	4.56
344.674	4.58
345.045	5.09
345.416	5.45
345.786	4.66
346.157	5.44
346.527	4.83
346.898	5.19
347.268	5.11
347.639	5.31
348.009	5.16
348.38	4.9
348.75	4.9
349.12	4.94
349.49	5.44
349.861	5.44
350.231	4.83
350.601	5.23
350.971	5.21
351.341	5.61
351.711	5.46
352.081	5.41
352.45	5.15
352.82	5.61
353.19	5.53
353.56	5.29
353.929	5.71
354.299	5.45
354.669	5.02
355.038	5.97
355.408	5.54
355.777	5.73
356.147	5.85
356.516	5.39
356.885	6.18
357.254	5.73
357.624	6.31
357.993	6.06
358.362	5.9
358.731	5.7
359.1	5.61
359.469	5.95
359.838	6.13
360.207	5.71
360.576	6.24
360.945	5.86
361.314	6.57
361.682	5.93
362.051	5.92
362.42	6.22
362.788	5.89
363.157	6.24
363.525	6.35
363.894	6.31
364.262	6.22
364.631	6.18
364.999	6.44
365.367	6.36
365.735	7.21
366.104	6.75
366.472	6.39
366.84	6.05
367.208	6.42
367.576	6.66
367.944	6.83
368.312	6.86
368.68	6.52
369.048	6.64
369.416	6.52
369.783	6.45
370.151	6.88
370.519	7.3
370.886	7.13
371.254	7.26
371.621	6.92
371.989	7.31
372.356	6.4
372.724	7.09
373.091	6.55
373.458	7.17
373.826	6.93
374.193	6.78
374.56	7.21
374.927	7.25
375.294	7.02
375.661	6.96
376.028	6.96
376.395	6.99
376.762	7.16
377.129	7.42
377.496	7.37
377.863	7.29
378.229	6.78
378.596	7.58
378.963	7.31
379.329	7.57
379.696	7.48
380.062	7.66
380.429	7.75
380.795	7.51
381.161	7.87
381.528	7.98
381.894	7.52
382.26	7.42
382.626	8.06
382.993	7.66
383.359	7.83
383.725	7.53
384.091	7.82
384.457	7.99
384.823	7.91
385.188	7.86
385.554	8.34
385.92	8.17
386.286	8.05
386.651	8.52
387.017	8.3
387.383	8.26
387.748	8.02
388.114	8.49
388.479	8.11
388.845	8.69
389.21	8.77
389.575	8.65
389.94	8.62
390.306	8.5
390.671	8.91
391.036	8.35
391.401	8.31
391.766	8.46
392.131	8.49
392.496	8.85
392.861	8.68
393.226	8.54
393.591	8.81
393.956	8.62
394.32	8.8
394.685	8.77
395.05	8.77
395.414	8.83
395.779	8.7
396.143	8.85
396.508	9.34
396.872	9.18
397.236	9.16
397.601	8.74
397.965	9.08
398.329	9.08
398.694	9.38
399.058	9.34
399.422	9.26
399.786	9.55
400.15	9.34
400.514	9.62
400.878	9.32
401.242	9.76
401.605	9.61
401.969	9.51
402.333	9.69
402.697	9.56
403.06	9.54
403.424	9.61
403.787	9.62
404.151	9.74
404.514	9.74
404.878	9.58
405.241	9.86
405.604	9.83
405.968	9.56
406.331	9.61
406.694	10.02
407.057	9.94
407.42	10.14
407.783	9.89
408.146	10.13
408.509	10.13
408.872	9.89
409.235	10.23
409.598	10.33
409.961	10.19
410.323	10.44
410.686	10.28
411.049	10.23
411.411	10.29
411.774	10.56
412.136	10.42
412.499	10.19
412.861	10.37
413.223	10.22
413.586	10.24
413.948	10.37
414.31	10.31
414.672	10.48
415.035	10.72
415.397	10.95
415.759	10.72
416.121	11.05
416.483	10.73
416.845	10.74
417.206	10.59
417.568	10.8
417.93	10.67
418.292	10.82
418.653	10.85
419.015	10.84
419.377	10.85
419.738	10.92
420.1	10.79
420.461	10.97
420.822	11.01
421.184	10.76
421.545	10.91
421.906	10.84
422.267	10.84
422.629	10.94
422.99	10.85
423.351	10.88
423.712	11.01
424.073	11.08
424.434	11.18
424.795	11.14
425.155	11.32
425.516	11.15
425.877	11.22
426.238	11.31
426.598	11.36
426.959	11.45
427.32	11.28
427.68	11.43
428.041	11.53
428.401	11.79
428.761	11.76
429.122	11.96
429.482	11.81
429.842	12.16
430.202	12.18
430.563	12.08
430.923	12.01
431.283	12.06
431.643	12.21
432.003	12.2
432.363	12.36
432.722	12.33
433.082	12.41
433.442	12.44
433.802	12.16
434.161	12.49
434.521	12.65
434.881	12.47
435.24	12.34
435.6	12.56
435.959	12.41
436.319	12.54
436.678	12.51
437.037	12.51
437.396	12.73
437.756	12.96
438.115	13.01
438.474	12.98
438.833	12.82
439.192	13
439.551	13.17
439.91	12.95
440.269	13.02
440.628	12.94
440.987	13.09
441.345	12.85
441.704	13.07
442.063	13
442.421	12.99
442.78	12.95
443.138	13.08
443.497	13.26
443.855	13.28
444.214	13.43
444.572	13.38
444.93	13.41
445.288	13.49
445.647	13.68
446.005	13.63
446.363	13.72
446.721	13.73
447.079	13.46
447.437	13.49
447.795	13.61
448.153	13.3
448.51	13.6
448.868	13.66
449.226	13.64
449.584	13.68
449.941	13.88
450.299	13.95
450.656	13.95
451.014	14.13
451.371	13.94
451.729	14.07
452.086	14.36
452.443	14.35
452.801	14.45
453.158	14.57
453.515	14.27
453.872	14.51
454.229	14.31
454.586	14.35
454.943	14.52
455.3	14.74
455.657	14.62
456.014	14.71
456.371	14.74
456.727	14.66
457.084	14.95
457.441	14.89
457.797	15.02
458.154	14.93
458.51	15.05
458.867	15.16
459.223	15.43
459.58	15.1
459.936	15.19
460.292	15.05
460.648	15.06
461.005	14.94
461.361	14.81
461.717	14.87
462.073	14.89
462.429	14.95
462.785	15.05
463.141	15.35
463.496	15.38
463.852	15.54
464.208	15.58
464.564	15.7
464.919	15.62
465.275	15.64
465.631	15.89
465.986	15.78
466.342	15.72
466.697	15.81
467.052	15.95
467.408	15.96
467.763	16
468.118	16.08
468.473	16.09
468.829	16.09
469.184	16
469.539	16.11
469.894	15.92
470.249	16.28
470.603	16.16
470.958	16.53
471.313	16.49
471.668	16.55
472.023	16.51
472.377	16.53
472.732	16.47
473.086	16.45
473.441	16.36
473.795	16.63
474.15	16.71
474.504	16.54
474.859	16.75
475.213	16.56
475.567	16.97
475.921	16.69
476.275	16.89
476.63	16.96
476.984	17.06
477.338	17.23
477.692	17.05
478.045	17.24
478.399	17.22
478.753	17.13
479.107	17.18
479.461	17.19
479.814	17.29
480.168	17.17
480.521	17.19
480.875	17.37
481.228	17.32
481.582	17.32
481.935	17.56
482.289	17.71
482.642	17.53
482.995	17.39
483.348	17.28
483.701	17.48
484.055	17.47
484.408	17.43
484.761	17.15
485.114	16.83
485.466	16.51
485.819	16.36
486.172	16.48
486.525	16.7
486.878	16.87
487.23	17.07
487.583	17.28
487.936	17.47
488.288	17.46
488.641	17.23
488.993	17.13
489.345	17.01
489.698	17.08
490.05	17.06
490.402	17.26
490.754	17.48
491.107	17.68
491.459	17.83
491.811	17.89
492.163	18.2
492.515	18.15
492.866	17.88
493.218	17.77
493.57	17.55
493.922	17.59
494.274	17.93
494.625	18.14
494.977	18.3
495.328	18.5
495.68	18.75
496.031	18.83
496.383	18.91
496.734	19.19
497.086	19.05
497.437	18.98
497.788	18.96
498.139	18.95
498.49	19.03
498.842	18.88
499.193	18.85
499.544	19.11
499.894	19.2
500.245	19.09
500.596	19.18
500.947	19.37
501.298	19.38
501.648	19.4
501.999	19.55
502.35	19.66
502.7	19.6
503.051	19.63
503.401	19.8
503.752	20.06
504.102	20
504.452	19.94
504.803	19.96
505.153	19.86
505.503	20.12
505.853	19.9
506.203	19.89
506.553	20
506.903	20.15
507.253	20.24
507.603	20.09
507.953	20.27
508.303	20.38
508.652	20.31
509.002	20.48
509.352	20.34
509.701	20.36
510.051	20.31
510.4	20.14
510.75	20.25
511.099	20.32
511.449	20.24
511.798	20.51
512.147	20.39
512.496	20.48
512.846	20.66
513.195	20.63
513.544	20.6
513.893	20.7
514.242	20.47
514.591	20.7
514.939	20.83
515.288	20.81
515.637	20.78
515.986	20.89
516.334	20.86
516.683	21.02
517.032	21.04
517.38	21.16
517.729	21.38
518.077	21.26
518.426	21.22
518.774	21.16
519.122	21.06
519.47	21.03
519.819	20.87
520.167	20.76
520.515	20.78
520.863	20.74
521.211	20.9
521.559	21.16
521.907	21.09
522.255	21.21
522.602	21.34
522.95	21.49
523.298	21.4
523.645	21.58
523.993	21.73
524.341	21.7
524.688	21.85
525.036	21.84
525.383	21.96
525.73	21.99
526.078	21.82
526.425	21.76
526.772	21.81
527.119	21.59
527.466	21.39
527.814	21.47
528.161	21.44
528.508	21.64
528.854	21.63
529.201	21.55
529.548	21.38
529.895	21.44
530.242	20.83
530.588	20.75
530.935	20.88
531.282	21.02
531.628	21.25
531.975	21.43
532.321	21.64
532.667	21.76
533.014	21.93
533.36	22.1
533.706	22.06
534.052	22.23
534.399	21.78
534.745	21.88
535.091	21.77
535.437	21.68
535.783	21.86
536.129	21.94
536.474	22.2
536.82	22.35
537.166	22.62
537.512	22.74
537.857	22.63
538.203	22.53
538.549	22.37
538.894	22.44
539.239	22.52
539.585	22.77
539.93	22.81
540.276	23.04
540.621	23.17
540.966	23.27
541.311	23.14
541.656	23.27
542.001	23.17
542.346	23.11
542.691	22.7
543.036	22.37
543.381	22.19
543.726	22.36
544.071	22.64
544.415	22.77
544.76	22.87
545.105	22.93
545.449	23.01
545.794	23.22
546.138	23.34
546.483	23.49
546.827	23.53
547.171	23.47
547.516	23.68
547.86	23.77
548.204	23.66
548.548	23.61
548.892	23.69
549.236	23.78
549.58	23.91
549.924	24.04
550.268	24.34
550.612	24.38
550.956	24.5
551.3	24.71
551.643	24.52
551.987	24.67
552.33	24.67
552.674	24.85
553.017	24.66
553.361	24.87
553.704	25
554.048	24.72
554.391	24.71
554.734	24.42
555.077	24.83
555.42	24.57
555.764	24.78
556.107	24.79
556.45	24.94
556.793	24.86
557.135	25.29
557.478	25.31
557.821	25.34
558.164	25.1
558.507	25.41
558.849	25.15
559.192	25.35
559.534	25.76
559.877	25.7
560.219	25.52
560.562	25.78
560.904	25.46
561.246	25.55
561.589	25.61
561.931	25.78
562.273	25.7
562.615	25.71
562.957	25.91
563.299	25.67
563.641	25.58
563.983	25.64
564.325	26.04
564.667	25.81
565.008	25.85
565.35	25.95
565.692	25.84
566.033	26.02
566.375	26.25
566.716	26.28
567.058	26.07
567.399	25.9
567.741	25.87
568.082	25.91
568.423	25.86
568.764	25.81
569.105	25.93
569.447	25.96
569.788	26.27
570.129	26.42
570.47	26.58
570.811	26.36
571.151	26.25
571.492	26.36
571.833	26.51
572.174	26.4
572.514	26.57
572.855	26.48
573.195	26.67
573.536	26.46
573.876	26.4
574.217	26.32
574.557	26.63
574.898	26.55
575.238	26.69
575.578	26.61
575.918	26.75
576.258	26.81
576.598	26.85
576.938	26.85
577.278	26.71
577.618	26.71
577.958	26.85
578.298	26.99
578.638	27.02
578.977	27.08
579.317	26.94
579.657	27.34
579.996	27.31
580.336	27.52
580.675	27.32
581.014	27.25
581.354	27.44
581.693	27.56
582.032	27.23
582.372	27.4
582.711	27.45
583.05	27.75
583.389	27.71
583.728	27.52
584.067	27.61
584.406	27.78
584.745	27.73
585.083	27.97
585.422	27.91
585.761	27.68
586.1	27.94
586.438	27.88
586.777	28.54
587.115	28.28
587.454	28.32
587.792	28.32
588.13	28.36
588.469	28.21
588.807	28.22
589.145	28.24
589.483	28.27
589.821	28.51
590.159	28.45
590.497	28.71
590.835	28.8
591.173	28.11
591.511	28.38
591.849	28.26
592.187	28.15
592.524	28.67
592.862	28.63
593.2	28.46
593.537	28.25
593.875	28.49
594.212	28.51
594.55	28.98
594.887	28.8
595.224	28.74
595.561	28.56
595.899	28.82
596.236	28.95
596.573	28.57
596.91	28.71
597.247	28.57
597.584	29.03
597.921	28.72
598.258	28.52
598.594	28.89
598.931	28.58
599.268	28.32
599.604	28.67
599.941	28.78
600.277	28.94
600.614	28.75
600.95	28.77
601.287	29.16
601.623	29.2
601.959	29.31
602.296	29.32
602.632	29.05
602.968	29.23
603.304	29.59
603.64	29.6
603.976	29.43
604.312	29.42
604.648	29.48
604.984	29.21
605.319	29.36
605.655	29.2
605.991	29.35
606.326	29.38
606.662	29.32
606.998	28.95
607.333	29.44
607.668	29.55
608.004	29.44
608.339	29.86
608.674	29.81
609.01	30.05
609.345	29.76
609.68	29.94
610.015	29.78
610.35	29.79
610.685	29.98
611.02	29.78
611.355	29.74
611.689	29.92
612.024	29.75
612.359	29.75
612.694	30.01
613.028	30
613.363	30.33
613.697	30.11
614.032	30.26
614.366	30.3
614.7	30.6
615.035	30.39
615.369	30.26
615.703	30.26
616.037	30.97
616.371	30.48
616.705	30.5
617.039	30.67
617.373	30.73
617.707	30.35
618.041	30.54
618.375	30.86
618.709	30.77
619.042	30.66
619.376	30.96
619.71	31.05
620.043	30.7
620.377	30.88
620.71	30.36
621.043	31
621.377	30.95
621.71	30.99
622.043	31.16
622.376	30.98
622.709	31.3
623.043	31.43
623.376	31.19
623.709	31.07
624.041	31.72
624.374	31.13
624.707	31.27
625.04	30.97
625.373	31.12
625.705	31.44
626.038	31.33
626.37	31.54
626.703	31.37
627.035	31.42
627.368	31.77
627.7	31.72
628.032	31.04
628.365	31.52
628.697	31.53
629.029	31.59
629.361	31.49
629.693	31.46
630.025	31.25
630.357	31.75
630.689	31.76
631.021	31.73
631.353	31.98
631.684	31.58
632.016	31.84
632.348	32.34
632.679	31.83
633.011	32
633.342	32.07
633.674	32.12
634.005	32.07
634.336	31.97
634.668	32.7
634.999	31.99
635.33	32.3
635.661	32.17
635.992	31.99
636.323	31.95
636.654	32.16
636.985	32.35
637.316	31.94
637.647	31.58
637.977	32.43
638.308	32.29
638.639	31.81
638.969	32.34
639.3	32.14
639.63	31.99
639.961	32.48
640.291	32.9
640.622	32.15
640.952	32.36
641.282	32.59
641.612	32.62
641.943	32.76
642.273	32.36
642.603	32.83
642.933	32.71
643.263	32.82
643.592	32.36
643.922	32.55
644.252	33.07
644.582	33.27
644.911	32.65
645.241	33.01
645.571	33.53
645.9	32.71
646.23	33.27
646.559	32.94
646.888	32.78
647.218	33.29
647.547	33.33
647.876	33.1
648.205	33.28
648.534	33.18
648.863	32.91
649.192	33.08
649.521	33.41
649.85	33.14
650.179	33.47
650.508	32.86
650.837	33.47
651.165	33.16
651.494	33.98
651.822	32.77
652.151	32.56
652.479	33.68
652.808	33.39
653.136	33.29
653.465	32.81
653.793	33.69
654.121	33.3
654.449	33.89
654.777	33.72
655.105	33.75
655.433	33.68
655.761	33.13
656.089	33.88
656.417	33.95
656.745	33.45
657.073	33.37
657.4	34.1
657.728	33.92
658.056	34.24
658.383	33.71
658.711	34.09
659.038	33.63
659.365	34.56
659.693	33.97
660.02	34.07
660.347	34.18
660.674	33.65
661.001	33.8
661.329	33.7
661.656	34.08
661.982	33.81
662.309	33.71
662.636	33.69
662.963	34.02
663.29	34.2
663.616	34.13
663.943	33.97
664.27	34.01
664.596	34.21
664.923	34.44
665.249	34.07
665.576	34.28
665.902	34.4
666.228	34.48
666.554	34.6
666.881	34.67
667.207	34.78
667.533	35.22
667.859	34.95
668.185	35.26
668.511	34.6
668.837	34.53
669.162	35.2
669.488	33.55
669.814	34.77
670.139	34.89
670.465	34.92
670.791	34.73
671.116	35.65
671.442	34.68
671.767	34.38
672.092	35.3
672.418	35.27
672.743	34.71
673.068	34.47
673.393	35.01
673.718	34.87
674.043	34.63
674.368	34.84
