Data from 0399_crown_Reflection__4__209.txt Node

Date: Fri Dec 15 18:19:29 CST 2023
User: ToomeyLab
Spectrometer: FLMS14357
Trigger mode: 0
Integration Time (sec): 1.000000E-2
Scans to average: 100
Electric dark correction enabled: true
Nonlinearity correction enabled: false
Boxcar width: 0
XAxis mode: Wavelengths
Number of Pixels in Spectrum: 2048
>>>>>Begin Spectral Data<<<<<
189.047	142.42
189.435	142.42
189.823	142.42
190.211	100.17
190.599	-485.27
190.987	109.95
191.375	-41.4
191.763	71.82
192.151	-182.95
192.538	94.53
192.926	-49.92
193.314	79.64
193.702	649.9
194.089	10.59
194.477	26.7
194.864	-49.28
195.252	87.56
195.639	43.85
196.027	-21.1
196.414	178.75
196.801	396.95
197.189	158.72
197.576	155.83
197.963	-372.84
198.351	-29.26
198.738	-27.02
199.125	22.61
199.512	-29.12
199.899	57.14
200.286	11.84
200.673	3.45
201.06	-11.87
201.447	-1.04
201.833	1.38
202.22	73.6
202.607	4.76
202.994	-11.42
203.38	-19.08
203.767	32.53
204.154	15.07
204.54	36.81
204.927	-46.08
205.313	-63.63
205.699	25.84
206.086	52.66
206.472	23.13
206.858	12.76
207.245	-20.38
207.631	41.73
208.017	-7.62
208.403	-24.95
208.789	1.63
209.175	0.01
209.561	-15.59
209.947	4.51
210.333	-79.23
210.719	-0.63
211.105	5.72
211.491	-23.3
211.876	34.2
212.262	23.94
212.648	-35.46
213.034	23.8
213.419	6.14
213.805	-21.8
214.19	-19.32
214.576	-19.63
214.961	-106.61
215.346	-83.26
215.732	-9.47
216.117	-5.85
216.502	-22.22
216.888	44.27
217.273	20.24
217.658	-2.76
218.043	12.29
218.428	-34.11
218.813	-32.79
219.198	-21.26
219.583	6.41
219.968	-12.66
220.353	-24.97
220.738	15.02
221.122	-13.78
221.507	-16.04
221.892	-17.41
222.276	-36.56
222.661	14.72
223.046	0.05
223.43	14.01
223.815	8.5
224.199	-13.1
224.583	1.85
224.968	1.14
225.352	7.98
225.736	-3.12
226.121	-9.98
226.505	3.16
226.889	11.94
227.273	4.28
227.657	6.66
228.041	2.68
228.425	4.18
228.809	7.94
229.193	6.38
229.577	3.77
229.961	4.68
230.344	5.69
230.728	5.97
231.112	6.4
231.495	6.25
231.879	5.28
232.263	7
232.646	5.78
233.03	6.18
233.413	6.31
233.797	5.7
234.18	3.42
234.563	5.85
234.946	3.68
235.33	7.04
235.713	4.2
236.096	6.48
236.479	6.55
236.862	5.54
237.245	5.34
237.628	5.53
238.011	7.01
238.394	7.79
238.777	5.71
239.16	3.79
239.543	6.18
239.925	6.65
240.308	4.9
240.691	5.69
241.073	5.65
241.456	4.8
241.838	5.11
242.221	5.44
242.603	6.04
242.986	6.38
243.368	6.14
243.75	6.59
244.133	6.35
244.515	7.11
244.897	6.48
245.279	6.58
245.661	6
246.043	4.37
246.425	6.21
246.807	6.97
247.189	6.74
247.571	6.77
247.953	6.97
248.335	6.52
248.717	6.87
249.098	6.46
249.48	6.58
249.862	6.57
250.243	6.32
250.625	6.96
251.006	6.54
251.388	5.24
251.769	5.93
252.151	6.53
252.532	5.29
252.913	5.92
253.295	5.88
253.676	6.41
254.057	6.73
254.438	6.11
254.819	5.61
255.2	5.96
255.581	7.18
255.962	5.48
256.343	6.38
256.724	5.67
257.105	4.53
257.486	5.93
257.867	5.31
258.247	5.65
258.628	5.76
259.009	6.22
259.389	6.69
259.77	6.41
260.15	5.19
260.531	5.5
260.911	6.72
261.292	6.45
261.672	6.44
262.052	6.45
262.432	6.15
262.813	6.08
263.193	6.08
263.573	5.5
263.953	4.47
264.333	6.13
264.713	6.52
265.093	5.56
265.473	6.11
265.853	5.68
266.233	6.3
266.612	4.25
266.992	4.52
267.372	5.43
267.752	5.64
268.131	6.12
268.511	6.76
268.89	5.52
269.27	5.91
269.649	5.22
270.029	5.23
270.408	6.27
270.787	5.6
271.167	6.28
271.546	6.01
271.925	4.94
272.304	5.51
272.683	5.99
273.062	5.47
273.441	5.96
273.82	5.17
274.199	5.67
274.578	5.6
274.957	5.3
275.336	5.83
275.715	5.14
276.093	5.78
276.472	5.47
276.851	5.13
277.229	5.48
277.608	4.54
277.986	5.43
278.365	5.66
278.743	4.86
279.122	5
279.5	5.09
279.878	5.68
280.257	5.72
280.635	5.74
281.013	4.91
281.391	6.01
281.769	6.03
282.147	5.51
282.525	5.79
282.903	4.88
283.281	5.49
283.659	5.86
284.037	5.46
284.415	5.99
284.792	6.03
285.17	5.21
285.548	5.62
285.925	5.08
286.303	5.37
286.68	5.36
287.058	5.35
287.435	5.56
287.813	5.68
288.19	5.28
288.567	5.57
288.945	5.66
289.322	5.66
289.699	5.82
290.076	5.32
290.453	5.52
290.83	5.27
291.207	5.31
291.584	5.95
291.961	5.55
292.338	5.93
292.715	5.94
293.092	5.68
293.469	5.62
293.845	6.14
294.222	4.91
294.599	6.16
294.975	5.91
295.352	5.94
295.728	5.58
296.105	5.62
296.481	6.58
296.858	6.17
297.234	5.75
297.61	6.01
297.986	5.99
298.363	6.49
298.739	6.19
299.115	5.91
299.491	5.85
299.867	6.14
300.243	5.88
300.619	5.56
300.995	5.72
301.371	6.23
301.746	5.85
302.122	6.22
302.498	5.5
302.874	6.02
303.249	6.56
303.625	6.12
304	6.67
304.376	5.86
304.751	5.74
305.127	6.81
305.502	5.44
305.878	5.51
306.253	6.83
306.628	6.21
307.003	5.74
307.378	6.14
307.754	5.85
308.129	5.52
308.504	6.23
308.879	6.08
309.254	6.07
309.629	7.05
310.003	5.96
310.378	6.86
310.753	6.54
311.128	6.06
311.502	6.26
311.877	6.47
312.252	6
312.626	5.89
313.001	5.87
313.375	6.42
313.75	5.91
314.124	6.07
314.498	5.87
314.873	5.85
315.247	5.67
315.621	6.1
315.995	5.48
316.369	6.19
316.743	5.28
317.117	6.84
317.491	5.63
317.865	6.3
318.239	5.59
318.613	6.06
318.987	6.8
319.361	5.78
319.734	6.69
320.108	6.64
320.482	6.35
320.855	6.08
321.229	6.04
321.602	6.25
321.976	6.59
322.349	6
322.723	5.98
323.096	6.41
323.469	5.98
323.843	5.78
324.216	6.96
324.589	6.04
324.962	6.18
325.335	5.49
325.708	6
326.081	6.25
326.454	6.23
326.827	6.08
327.2	6.59
327.573	6.39
327.945	6.53
328.318	5.95
328.691	5.34
329.063	5.69
329.436	6.36
329.809	6.62
330.181	6.39
330.553	5.92
330.926	6.1
331.298	6.45
331.671	6.3
332.043	6.83
332.415	6.85
332.787	6.32
333.159	7.05
333.532	6.4
333.904	6.37
334.276	6.28
334.648	6.15
335.02	6.68
335.391	6.19
335.763	5.87
336.135	6.03
336.507	6.82
336.879	5.99
337.25	5.77
337.622	5.87
337.993	6.58
338.365	6.07
338.736	6.78
339.108	6.61
339.479	6.38
339.851	6.57
340.222	6.25
340.593	6.03
340.964	6.28
341.336	6.64
341.707	5.76
342.078	6.57
342.449	6.45
342.82	6.52
343.191	6.19
343.562	6.25
343.933	6.13
344.303	6.3
344.674	6.24
345.045	6.09
345.416	6.16
345.786	6.18
346.157	6.57
346.527	6
346.898	6.04
347.268	6.77
347.639	6.11
348.009	6.27
348.38	6.2
348.75	6.01
349.12	6.17
349.49	6.14
349.861	6.18
350.231	5.88
350.601	6.57
350.971	6.51
351.341	6.27
351.711	6.31
352.081	6.44
352.45	5.83
352.82	6.7
353.19	6.22
353.56	6.23
353.929	6.05
354.299	6.35
354.669	5.87
355.038	6.62
355.408	6.29
355.777	6.12
356.147	6.08
356.516	6.47
356.885	6.47
357.254	5.82
357.624	6.67
357.993	6.32
358.362	5.78
358.731	5.89
359.1	6.21
359.469	6.41
359.838	6.71
360.207	6.55
360.576	6.27
360.945	6.54
361.314	6.67
361.682	5.46
362.051	5.95
362.42	6.12
362.788	6.38
363.157	6.17
363.525	6.53
363.894	6.33
364.262	6.46
364.631	6.23
364.999	6.37
365.367	5.9
365.735	7.01
366.104	6.39
366.472	6.46
366.84	6.28
367.208	6.31
367.576	6.53
367.944	6.84
368.312	6.32
368.68	5.84
369.048	6.46
369.416	6.34
369.783	6.26
370.151	6.72
370.519	6.65
370.886	6.97
371.254	6.15
371.621	6.51
371.989	6.58
372.356	6.16
372.724	6.32
373.091	6.27
373.458	6.66
373.826	6.31
374.193	6.12
374.56	6.66
374.927	6.46
375.294	6.52
375.661	6.37
376.028	6.49
376.395	6.43
376.762	6.59
377.129	6.64
377.496	6.48
377.863	6.69
378.229	6.22
378.596	6.61
378.963	6.41
379.329	6.37
379.696	6.77
380.062	6.61
380.429	6.21
380.795	6.34
381.161	6.61
381.528	6.74
381.894	6.45
382.26	6.04
382.626	6.63
382.993	5.94
383.359	6.64
383.725	6.51
384.091	6.72
384.457	6.61
384.823	6.61
385.188	6.47
385.554	6.23
385.92	6.98
386.286	6.67
386.651	6.58
387.017	6.8
387.383	6.62
387.748	6.71
388.114	6.76
388.479	6.53
388.845	6.67
389.21	6.68
389.575	6.62
389.94	6.4
390.306	6.16
390.671	6.8
391.036	6.3
391.401	6.35
391.766	6.58
392.131	6.52
392.496	6.8
392.861	6.25
393.226	6.69
393.591	6.85
393.956	6.55
394.32	6.71
394.685	6.47
395.05	6.54
395.414	6.51
395.779	6.5
396.143	6.63
396.508	6.61
396.872	6.7
397.236	6.67
397.601	6.21
397.965	6.43
398.329	6.65
398.694	6.89
399.058	6.98
399.422	6.43
399.786	6.67
400.15	6.81
400.514	6.98
400.878	6.98
401.242	6.89
401.605	6.72
401.969	6.7
402.333	6.52
402.697	6.74
403.06	7.01
403.424	7.09
403.787	6.77
404.151	7
404.514	6.86
404.878	6.74
405.241	6.81
405.604	6.78
405.968	6.88
406.331	6.75
406.694	7.12
407.057	6.77
407.42	6.95
407.783	6.46
408.146	6.85
408.509	6.81
408.872	6.59
409.235	6.7
409.598	6.91
409.961	6.93
410.323	7.06
410.686	7.01
411.049	6.47
411.411	6.86
411.774	6.73
412.136	6.87
412.499	6.73
412.861	6.77
413.223	6.82
413.586	6.94
413.948	6.94
414.31	6.9
414.672	6.75
415.035	6.97
415.397	6.91
415.759	6.8
416.121	6.93
416.483	6.63
416.845	6.92
417.206	6.86
417.568	6.96
417.93	6.9
418.292	7.01
418.653	7.05
419.015	6.88
419.377	7.02
419.738	7.08
420.1	6.94
420.461	6.99
420.822	7.01
421.184	6.82
421.545	6.95
421.906	6.76
422.267	7.03
422.629	6.91
422.99	6.83
423.351	6.92
423.712	6.84
424.073	6.84
424.434	6.95
424.795	6.9
425.155	6.92
425.516	6.87
425.877	6.88
426.238	6.87
426.598	6.91
426.959	6.82
427.32	6.77
427.68	6.74
428.041	6.87
428.401	6.94
428.761	6.93
429.122	6.95
429.482	6.98
429.842	7.23
430.202	6.91
430.563	6.93
430.923	7
431.283	7.17
431.643	7.11
432.003	6.95
432.363	7.06
432.722	7.01
433.082	7.05
433.442	6.93
433.802	7.03
434.161	7.18
434.521	7.45
434.881	7.08
435.24	7
435.6	7.13
435.959	7.17
436.319	7.04
436.678	7.11
437.037	7.2
437.396	7.1
437.756	7.28
438.115	7.14
438.474	7.31
438.833	7.11
439.192	7.13
439.551	7.25
439.91	7.17
440.269	7.21
440.628	7.15
440.987	7.31
441.345	6.99
441.704	7.38
442.063	7.15
442.421	7.09
442.78	7.08
443.138	7.1
443.497	7.05
443.855	7.14
444.214	7.07
444.572	7.26
444.93	7.25
445.288	7.34
445.647	7.19
446.005	7.26
446.363	7.34
446.721	7.16
447.079	7.07
447.437	7.18
447.795	7.25
448.153	6.99
448.51	7.17
448.868	7.13
449.226	7.18
449.584	7.21
449.941	7.27
450.299	7.12
450.656	7.16
451.014	7.32
451.371	7.3
451.729	7.24
452.086	7.56
452.443	7.11
452.801	7.41
453.158	7.29
453.515	7.41
453.872	7.5
454.229	7.38
454.586	7.39
454.943	7.38
455.3	7.47
455.657	7.25
456.014	7.33
456.371	7.36
456.727	7.34
457.084	7.62
457.441	7.33
457.797	7.31
458.154	7.56
458.51	7.51
458.867	7.66
459.223	7.5
459.58	7.58
459.936	7.51
460.292	7.39
460.648	7.38
461.005	7.51
461.361	7.57
461.717	7.54
462.073	7.34
462.429	7.39
462.785	7.4
463.141	7.34
463.496	7.51
463.852	7.54
464.208	7.59
464.564	7.6
464.919	7.56
465.275	7.67
465.631	7.61
465.986	7.62
466.342	7.41
466.697	7.55
467.052	7.57
467.408	7.53
467.763	7.81
468.118	7.69
468.473	7.54
468.829	7.7
469.184	7.56
469.539	7.61
469.894	7.36
470.249	7.66
470.603	7.83
470.958	7.78
471.313	7.9
471.668	7.74
472.023	7.76
472.377	7.81
472.732	7.52
473.086	7.61
473.441	7.32
473.795	7.67
474.15	7.6
474.504	7.63
474.859	7.71
475.213	7.64
475.567	7.69
475.921	7.64
476.275	7.71
476.63	7.86
476.984	7.79
477.338	7.88
477.692	7.55
478.045	7.68
478.399	7.71
478.753	7.9
479.107	7.88
479.461	7.69
479.814	7.87
480.168	7.87
480.521	7.76
480.875	7.76
481.228	7.76
481.582	7.72
481.935	7.82
482.289	7.85
482.642	7.92
482.995	7.81
483.348	7.82
483.701	7.74
484.055	7.9
484.408	7.87
484.761	7.77
485.114	7.78
485.466	7.61
485.819	7.53
486.172	7.45
486.525	7.42
486.878	7.43
487.23	7.5
487.583	7.58
487.936	7.65
488.288	7.76
488.641	7.77
488.993	7.71
489.345	7.66
489.698	7.61
490.05	7.61
490.402	7.67
490.754	7.6
491.107	7.66
491.459	7.73
491.811	7.83
492.163	7.84
492.515	7.88
492.866	7.84
493.218	7.9
493.57	7.82
493.922	7.73
494.274	7.73
494.625	7.81
494.977	7.78
495.328	7.93
495.68	7.83
496.031	8.05
496.383	8.01
496.734	8.05
497.086	8.11
497.437	8.1
497.788	8.01
498.139	7.89
498.49	8.07
498.842	7.95
499.193	8.05
499.544	8.06
499.894	8.04
500.245	7.92
500.596	8.05
500.947	8.26
501.298	7.93
501.648	8.13
501.999	8.28
502.35	8.11
502.7	8.21
503.051	7.9
503.401	8.04
503.752	8.39
504.102	8.21
504.452	8.26
504.803	8.19
505.153	8.28
505.503	8.14
505.853	8.15
506.203	8.07
506.553	8.27
506.903	8.13
507.253	8.11
507.603	8.15
507.953	8.21
508.303	8.22
508.652	8.16
509.002	8.21
509.352	8.3
509.701	8.24
510.051	8.23
510.4	8.28
510.75	8.29
511.099	8.36
511.449	8.24
511.798	8.15
512.147	8.24
512.496	8.19
512.846	8.42
513.195	8.19
513.544	8.36
513.893	8.32
514.242	8.36
514.591	8.44
514.939	8.35
515.288	8.27
515.637	8.31
515.986	8.44
516.334	8.26
516.683	8.45
517.032	8.44
517.38	8.34
517.729	8.54
518.077	8.26
518.426	8.5
518.774	8.42
519.122	8.39
519.47	8.48
519.819	8.28
520.167	8.44
520.515	8.36
520.863	8.46
521.211	8.37
521.559	8.37
521.907	8.34
522.255	8.34
522.602	8.3
522.95	8.33
523.298	8.61
523.645	8.51
523.993	8.4
524.341	8.48
524.688	8.58
525.036	8.5
525.383	8.59
525.73	8.73
526.078	8.49
526.425	8.56
526.772	8.58
527.119	8.64
527.466	8.46
527.814	8.57
528.161	8.5
528.508	8.46
528.854	8.49
529.201	8.53
529.548	8.43
529.895	8.51
530.242	8.43
530.588	8.33
530.935	8.31
531.282	8.31
531.628	8.22
531.975	8.3
532.321	8.42
532.667	8.46
533.014	8.51
533.36	8.5
533.706	8.57
534.052	8.61
534.399	8.6
534.745	8.54
535.091	8.58
535.437	8.52
535.783	8.54
536.129	8.47
536.474	8.51
536.82	8.56
537.166	8.68
537.512	8.66
537.857	8.71
538.203	8.82
538.549	8.55
538.894	8.59
539.239	8.56
539.585	8.64
539.93	8.56
540.276	8.85
540.621	8.88
540.966	8.88
541.311	8.72
541.656	8.76
542.001	8.84
542.346	8.88
542.691	8.68
543.036	8.72
543.381	8.53
543.726	8.58
544.071	8.61
544.415	8.62
544.76	8.55
545.105	8.62
545.449	8.73
545.794	8.85
546.138	8.74
546.483	8.8
546.827	8.81
547.171	8.82
547.516	8.95
547.86	8.84
548.204	8.85
548.548	8.79
548.892	8.91
549.236	8.86
549.58	8.85
549.924	8.93
550.268	8.97
550.612	8.97
550.956	9.14
551.3	8.98
551.643	9.1
551.987	9.1
552.33	8.98
552.674	9.23
553.017	9.14
553.361	9.02
553.704	9.21
554.048	9.22
554.391	9.12
554.734	9.06
555.077	9.29
555.42	8.96
555.764	9.13
556.107	8.92
556.45	8.97
556.793	9.05
557.135	9.1
557.478	9.32
557.821	9.23
558.164	9.17
558.507	9.12
558.849	9.18
559.192	9.38
559.534	9.33
559.877	9.21
560.219	9.12
560.562	9.51
560.904	9.14
561.246	9.4
561.589	9.3
561.931	9.21
562.273	9.03
562.615	9.39
562.957	9.26
563.299	9.26
563.641	9.43
563.983	9.38
564.325	9.16
564.667	9.18
565.008	9.15
565.35	9.33
565.692	9.11
566.033	9.12
566.375	9.42
566.716	9.49
567.058	9.38
567.399	9.45
567.741	9.08
568.082	9.44
568.423	9.37
568.764	9.31
569.105	9.47
569.447	9.41
569.788	9.27
570.129	9.51
570.47	9.29
570.811	9.55
571.151	9.57
571.492	9.51
571.833	9.52
572.174	9.58
572.514	9.5
572.855	9.46
573.195	9.51
573.536	9.45
573.876	9.37
574.217	9.3
574.557	9.53
574.898	9.56
575.238	9.44
575.578	9.23
575.918	9.62
576.258	9.74
576.598	9.5
576.938	9.51
577.278	9.46
577.618	9.5
577.958	9.57
578.298	9.43
578.638	9.47
578.977	9.55
579.317	9.48
579.657	9.62
579.996	9.68
580.336	9.48
580.675	9.61
581.014	9.56
581.354	9.52
581.693	9.73
582.032	9.46
582.372	9.47
582.711	9.76
583.05	9.65
583.389	9.73
583.728	9.51
584.067	9.74
584.406	9.91
584.745	9.76
585.083	9.93
585.422	9.57
585.761	9.79
586.1	9.56
586.438	9.73
586.777	9.87
587.115	9.98
587.454	9.83
587.792	9.49
588.13	9.94
588.469	9.82
588.807	10
589.145	9.8
589.483	9.92
589.821	9.62
590.159	9.77
590.497	10.17
590.835	10.06
591.173	9.87
591.511	10.03
591.849	9.95
592.187	9.48
592.524	9.88
592.862	9.88
593.2	9.9
593.537	9.79
593.875	9.65
594.212	9.81
594.55	9.77
594.887	9.87
595.224	9.9
595.561	9.82
595.899	10.23
596.236	9.9
596.573	9.94
596.91	9.63
597.247	9.64
597.584	10.16
597.921	9.83
598.258	9.86
598.594	9.98
598.931	10
599.268	10.09
599.604	10.04
599.941	10.1
600.277	9.82
600.614	9.86
600.95	9.88
601.287	9.82
601.623	9.76
601.959	9.79
602.296	10.05
602.632	9.9
602.968	9.92
603.304	10.26
603.64	10.04
603.976	10.24
604.312	10.23
604.648	10.29
604.984	10.13
605.319	10.15
605.655	10.31
605.991	10.21
606.326	10.33
606.662	10.3
606.998	9.96
607.333	10.24
607.668	10.11
608.004	10.2
608.339	10.11
608.674	10
609.01	10.37
609.345	10.04
609.68	10.22
610.015	9.84
610.35	9.93
610.685	10.03
611.02	10.3
611.355	10.34
611.689	10.28
612.024	10.25
612.359	10.15
612.694	10.32
613.028	10.04
613.363	10.4
613.697	10.46
614.032	10.47
614.366	10.28
614.7	10.38
615.035	10.13
615.369	10.43
615.703	10.09
616.037	10.52
616.371	10.19
616.705	10.33
617.039	10.24
617.373	10.22
617.707	9.91
618.041	9.98
618.375	10.42
618.709	10.52
619.042	10.21
619.376	10.45
619.71	10.62
620.043	10.23
620.377	10.47
620.71	10.58
621.043	10.57
621.377	10.56
621.71	10.28
622.043	10.38
622.376	10.14
622.709	10.39
623.043	10.47
623.376	10.56
623.709	10.62
624.041	10.57
624.374	10.9
624.707	10.43
625.04	10.73
625.373	10.47
625.705	10.64
626.038	10.66
626.37	10.77
626.703	10.17
627.035	10.46
627.368	11.01
627.7	10.82
628.032	10.68
628.365	11.06
628.697	10.79
629.029	10.54
629.361	10.79
629.693	10.62
630.025	10.37
630.357	10.96
630.689	10.79
631.021	10.65
631.353	10.74
631.684	10.42
632.016	10.31
632.348	10.85
632.679	10.63
633.011	10.77
633.342	11.33
633.674	11.34
634.005	11.29
634.336	11.03
634.668	11.48
634.999	11
635.33	10.87
635.661	10.8
635.992	10.73
636.323	11.07
636.654	11.3
636.985	10.78
637.316	11.04
637.647	10.72
637.977	11.08
638.308	11.17
638.639	10.5
638.969	10.87
639.3	10.95
639.63	10.89
639.961	11.13
640.291	11.14
640.622	11.27
640.952	11.13
641.282	11.32
641.612	10.77
641.943	10.82
642.273	11.42
642.603	10.94
642.933	11.32
643.263	11.05
643.592	10.67
643.922	10.85
644.252	11.48
644.582	11.47
644.911	10.97
645.241	10.88
645.571	10.91
645.9	10.85
646.23	11.28
646.559	11.02
646.888	10.98
647.218	10.81
647.547	11.12
647.876	10.74
648.205	10.97
648.534	10.85
648.863	11.08
649.192	11.26
649.521	10.54
649.85	10.78
650.179	10.99
650.508	11.02
650.837	10.55
651.165	11.19
651.494	11.13
651.822	11.42
652.151	11.18
652.479	10.95
652.808	11.02
653.136	11.41
653.465	10.96
653.793	11.07
654.121	10.88
654.449	11.35
654.777	11.19
655.105	11.9
655.433	10.86
655.761	11.15
656.089	11.19
656.417	11.64
656.745	11.23
657.073	11.16
657.4	11.93
657.728	11.49
658.056	11.42
658.383	11.85
658.711	11.71
659.038	11.3
659.365	11.58
659.693	11.27
660.02	11.46
660.347	11.25
660.674	11.67
661.001	11.68
661.329	10.87
661.656	11.34
661.982	11.71
662.309	11.55
662.636	11.62
662.963	11.63
663.29	11.91
663.616	12.02
663.943	11.06
664.27	11.24
664.596	11.35
664.923	11.65
665.249	11.49
665.576	11.28
665.902	11.97
666.228	12
666.554	11.9
666.881	11.6
667.207	11.53
667.533	11.67
667.859	11.54
668.185	12.37
668.511	10.78
668.837	11.37
669.162	11.74
669.488	11.55
669.814	12.07
670.139	12.07
670.465	12.04
670.791	12.12
671.116	12.5
671.442	11.51
671.767	11.82
672.092	11.87
672.418	11.9
672.743	11.99
673.068	11.27
673.393	11.92
673.718	12.06
674.043	11.87
674.368	12.02
674.693	12.45
675.018	11.25
675.343	12.17
675.667	11.97
675.992	12.24
676.317	11.6
676.641	12.08
676.966	11.99
677.29	11.44
677.615	11.96
677.939	12.67
678.264	12.67
678.588	12.56
678.912	12.33
679.236	12.54
679.56	12.32
679.885	13.4
680.209	12.09
680.532	12
680.856	12.53
681.18	12.47
681.504	12.16
681.828	12.78
682.152	12.15
682.475	11.98
682.799	11.69
683.122	12.06
683.446	11.58
683.769	12.56
684.093	12.12
684.416	12.57
684.739	12.28
685.062	11.71
685.386	12.32
685.709	12.17
686.032	12
