Data from 0399_crown_Reflection__0__205.txt Node

Date: Fri Dec 15 18:18:52 CST 2023
User: ToomeyLab
Spectrometer: FLMS14357
Trigger mode: 0
Integration Time (sec): 1.000000E-2
Scans to average: 100
Electric dark correction enabled: true
Nonlinearity correction enabled: false
Boxcar width: 0
XAxis mode: Wavelengths
Number of Pixels in Spectrum: 2048
>>>>>Begin Spectral Data<<<<<
189.047	165.06
189.435	165.06
189.823	165.06
190.211	-219.19
190.599	-313.31
190.987	75.77
191.375	30.38
191.763	-48.48
192.151	-122.05
192.538	124.3
192.926	411.53
193.314	59.26
193.702	103.84
194.089	-114.22
194.477	76.54
194.864	-63
195.252	162.96
195.639	55.33
196.027	29.98
196.414	48.13
196.801	222.64
197.189	62.42
197.576	83.09
197.963	-338.47
198.351	-70.91
198.738	44.13
199.125	25.28
199.512	25.61
199.899	18.38
200.286	32.71
200.673	-6.56
201.06	18.22
201.447	-52.43
201.833	39.24
202.22	51.77
202.607	22.21
202.994	17.08
203.38	33.87
203.767	8.9
204.154	19.28
204.54	46.18
204.927	-58.55
205.313	-35.6
205.699	51.58
206.086	82.17
206.472	33.91
206.858	13.32
207.245	-11.65
207.631	40.31
208.017	51.77
208.403	9.71
208.789	107.93
209.175	36.31
209.561	-16.13
209.947	-31.47
210.333	-56.72
210.719	-5.75
211.105	23.23
211.491	-75.69
211.876	-1.14
212.262	41.8
212.648	30.06
213.034	35.06
213.419	-3.94
213.805	-5.29
214.19	-20.27
214.576	-17.79
214.961	-14.55
215.346	-70.58
215.732	-5.38
216.117	21.26
216.502	-12.89
216.888	-0.94
217.273	9.27
217.658	32.71
218.043	24.75
218.428	10.61
218.813	1.5
219.198	-2.56
219.583	-0.65
219.968	-0.74
220.353	9.71
220.738	31.09
221.122	22.49
221.507	-29.44
221.892	16.96
222.276	-25.36
222.661	5.92
223.046	30.82
223.43	26.59
223.815	11.17
224.199	12.88
224.583	1
224.968	15.16
225.352	16.52
225.736	-1.83
226.121	-0.49
226.505	0.34
226.889	11.56
227.273	1.49
227.657	20.93
228.041	7.22
228.425	4.13
228.809	8.85
229.193	10.87
229.577	10.05
229.961	8.36
230.344	6.34
230.728	6.88
231.112	8.88
231.495	7.57
231.879	8.55
232.263	7.38
232.646	7.01
233.03	7.51
233.413	6.62
233.797	6.16
234.18	7.58
234.563	9.03
234.946	8.65
235.33	10.03
235.713	7.46
236.096	8.15
236.479	9.1
236.862	6.49
237.245	8.38
237.628	7.4
238.011	7.6
238.394	7.2
238.777	6.08
239.16	6.31
239.543	6.62
239.925	9.57
240.308	8.44
240.691	8.22
241.073	10.27
241.456	7.74
241.838	7.28
242.221	6.93
242.603	8.25
242.986	6.64
243.368	7.67
243.75	7.5
244.133	7.18
244.515	7.43
244.897	7.81
245.279	7.06
245.661	7.04
246.043	6.4
246.425	7.26
246.807	8.63
247.189	6.93
247.571	7.89
247.953	7.38
248.335	7.17
248.717	7.03
249.098	6.97
249.48	6.91
249.862	6.95
250.243	6.99
250.625	6.76
251.006	7.16
251.388	5.35
251.769	6.89
252.151	7.55
252.532	7.09
252.913	7.68
253.295	6.36
253.676	6.66
254.057	6.44
254.438	6.36
254.819	6.59
255.2	6.19
255.581	6.1
255.962	4.78
256.343	7.35
256.724	5.8
257.105	6.09
257.486	6.9
257.867	7.79
258.247	5.92
258.628	6.08
259.009	7.25
259.389	6.42
259.77	5.11
260.15	5.29
260.531	6.22
260.911	6.48
261.292	6.41
261.672	6.53
262.052	6.26
262.432	6.57
262.813	6.5
263.193	6.57
263.573	6.03
263.953	5.31
264.333	6.96
264.713	6.89
265.093	5.67
265.473	5.99
265.853	5.21
266.233	6.12
266.612	4.45
266.992	5.04
267.372	5.9
267.752	6.1
268.131	6.12
268.511	6.47
268.89	6.34
269.27	5.99
269.649	5
270.029	6
270.408	6.64
270.787	5.72
271.167	6.52
271.546	6.01
271.925	5.07
272.304	5.64
272.683	6.26
273.062	6.01
273.441	6.55
273.82	5.73
274.199	5.58
274.578	6.31
274.957	6.1
275.336	5.81
275.715	5.17
276.093	6.05
276.472	6.14
276.851	5.17
277.229	5.02
277.608	5.07
277.986	5.61
278.365	6.04
278.743	5.27
279.122	5.36
279.5	6.32
279.878	5.93
280.257	6.24
280.635	5.61
281.013	5.23
281.391	6.57
281.769	6.05
282.147	6.1
282.525	5.55
282.903	5.1
283.281	6.2
283.659	5.8
284.037	5.35
284.415	5.92
284.792	5.96
285.17	5.09
285.548	5.24
285.925	5.73
286.303	6
286.68	5.46
287.058	5.67
287.435	5.36
287.813	5.56
288.19	5.46
288.567	5.46
288.945	5.74
289.322	5.38
289.699	5.02
290.076	5.37
290.453	5.56
290.83	5.19
291.207	5.33
291.584	5.89
291.961	5.78
292.338	5.53
292.715	5.84
293.092	5.42
293.469	5.89
293.845	6.06
294.222	5.33
294.599	5.64
294.975	4.79
295.352	5.3
295.728	4.92
296.105	5.3
296.481	5.45
296.858	5.6
297.234	5.73
297.61	5.3
297.986	5.22
298.363	5.28
298.739	5.55
299.115	4.95
299.491	4.81
299.867	5.26
300.243	5.31
300.619	4.89
300.995	4.96
301.371	5.42
301.746	4.9
302.122	5.1
302.498	5.62
302.874	5.59
303.249	5.1
303.625	5.08
304	5.04
304.376	5.33
304.751	4.9
305.127	6.23
305.502	4.57
305.878	4.86
306.253	5.06
306.628	5.54
307.003	5.14
307.378	5.22
307.754	4.87
308.129	4.13
308.504	5.74
308.879	4.66
309.254	5.87
309.629	5.89
310.003	5.01
310.378	5.59
310.753	5.14
311.128	5.43
311.502	5.26
311.877	5.45
312.252	4.69
312.626	5.18
313.001	4.92
313.375	5.38
313.75	4.67
314.124	5.32
314.498	4.91
314.873	4.58
315.247	5.26
315.621	5.17
315.995	4.06
316.369	4.81
316.743	4.97
317.117	5.01
317.491	4.78
317.865	4.68
318.239	4.82
318.613	5.31
318.987	5.3
319.361	4.97
319.734	5.35
320.108	5.44
320.482	5.13
320.855	5.73
321.229	5.14
321.602	5.05
321.976	5.61
322.349	4.9
322.723	5.51
323.096	5.78
323.469	4.47
323.843	5.15
324.216	5.54
324.589	5.39
324.962	5.08
325.335	4.68
325.708	5.37
326.081	4.67
326.454	5.05
326.827	4.73
327.2	5.37
327.573	5.31
327.945	5.45
328.318	4.44
328.691	5.27
329.063	4.93
329.436	4.84
329.809	5.52
330.181	4.53
330.553	4.86
330.926	4.68
331.298	4.93
331.671	5.42
332.043	6.14
332.415	5.6
332.787	5.33
333.159	5.62
333.532	5.95
333.904	5.13
334.276	4.6
334.648	5.4
335.02	5.37
335.391	4.96
335.763	5.07
336.135	4.88
336.507	5.45
336.879	5.31
337.25	5.13
337.622	5
337.993	5.14
338.365	5.45
338.736	4.95
339.108	5.7
339.479	5.28
339.851	5.19
340.222	5.18
340.593	5.47
340.964	5.03
341.336	5.69
341.707	5.35
342.078	5.73
342.449	5.65
342.82	5.19
343.191	4.74
343.562	4.87
343.933	5.14
344.303	5.44
344.674	5.09
345.045	5.61
345.416	5.28
345.786	4.7
346.157	5.44
346.527	5.04
346.898	4.74
347.268	5.23
347.639	5.28
348.009	4.87
348.38	5.2
348.75	5.09
349.12	5.08
349.49	5.38
349.861	5.56
350.231	4.94
350.601	5.32
350.971	5.41
351.341	5.16
351.711	4.98
352.081	5.3
352.45	4.8
352.82	5.87
353.19	5.25
353.56	4.97
353.929	5.61
354.299	5.15
354.669	4.97
355.038	5.87
355.408	5.92
355.777	5.59
356.147	5.35
356.516	5.04
356.885	5.93
357.254	5.25
357.624	5.91
357.993	5.77
358.362	5.22
358.731	5.37
359.1	5.24
359.469	5.57
359.838	5.45
360.207	5.62
360.576	5.5
360.945	5.23
361.314	5.81
361.682	5.32
362.051	5.65
362.42	5.52
362.788	5.41
363.157	5.58
363.525	5.64
363.894	5.41
364.262	5.5
364.631	5.65
364.999	5.6
365.367	5.16
365.735	6.06
366.104	5.77
366.472	5.9
366.84	5.47
367.208	5.16
367.576	5.5
367.944	5.82
368.312	5.61
368.68	5.49
369.048	5.78
369.416	5.7
369.783	5.46
370.151	5.74
370.519	5.88
370.886	5.26
371.254	5.57
371.621	5.77
371.989	5.76
372.356	5.15
372.724	5.55
373.091	5.29
373.458	5.46
373.826	5.44
374.193	5.68
374.56	5.62
374.927	5.89
375.294	5.41
375.661	5.51
376.028	5.7
376.395	5.65
376.762	5.67
377.129	5.44
377.496	5.37
377.863	5.81
378.229	5.17
378.596	5.65
378.963	5.71
379.329	5.55
379.696	5.76
380.062	6.07
380.429	5.6
380.795	5.23
381.161	5.65
381.528	5.83
381.894	5.71
382.26	5.69
382.626	5.73
382.993	5.26
383.359	6.13
383.725	5.55
384.091	5.61
384.457	5.45
384.823	5.91
385.188	6.14
385.554	5.82
385.92	5.83
386.286	5.86
386.651	5.99
387.017	5.78
387.383	5.71
387.748	5.49
388.114	5.96
388.479	5.77
388.845	6
389.21	5.66
389.575	5.89
389.94	5.97
390.306	5.8
390.671	6.09
391.036	5.47
391.401	5.72
391.766	5.74
392.131	5.59
392.496	5.68
392.861	5.85
393.226	6.01
393.591	5.89
393.956	5.88
394.32	5.99
394.685	5.91
395.05	5.85
395.414	5.71
395.779	5.78
396.143	5.66
396.508	5.84
396.872	5.88
397.236	6.08
397.601	5.55
397.965	5.77
398.329	5.84
398.694	5.78
399.058	6.03
399.422	5.79
399.786	5.85
400.15	6.21
400.514	6.08
400.878	5.84
401.242	6.4
401.605	6.09
401.969	5.74
402.333	5.97
402.697	5.83
403.06	5.91
403.424	5.99
403.787	5.84
404.151	6.02
404.514	6.26
404.878	5.75
405.241	6.08
405.604	6.21
405.968	5.86
406.331	5.98
406.694	6.13
407.057	5.91
407.42	6.18
407.783	5.85
408.146	5.86
408.509	5.99
408.872	5.72
409.235	5.92
409.598	6.08
409.961	5.91
410.323	6.09
410.686	6.08
411.049	5.72
411.411	6
411.774	5.94
412.136	5.96
412.499	6.08
412.861	6.02
413.223	5.89
413.586	5.82
413.948	6.22
414.31	6.1
414.672	5.98
415.035	5.95
415.397	6.01
415.759	5.99
416.121	6.38
416.483	5.75
416.845	6.08
417.206	5.96
417.568	5.87
417.93	5.98
418.292	6.07
418.653	5.85
419.015	6.08
419.377	5.88
419.738	5.84
420.1	5.89
420.461	6
420.822	6.03
421.184	5.91
421.545	5.77
421.906	5.8
422.267	5.84
422.629	5.83
422.99	5.81
423.351	5.72
423.712	5.8
424.073	5.88
424.434	5.8
424.795	5.79
425.155	5.85
425.516	5.81
425.877	5.8
426.238	5.75
426.598	5.99
426.959	5.99
427.32	5.83
427.68	5.92
428.041	5.72
428.401	6.05
428.761	5.86
429.122	6.04
429.482	5.75
429.842	6.04
430.202	6.2
430.563	6.03
430.923	5.76
431.283	6.02
431.643	5.97
432.003	5.91
432.363	6.11
432.722	5.89
433.082	6.04
433.442	5.81
433.802	5.93
434.161	5.68
434.521	6.2
434.881	6.05
435.24	5.83
435.6	5.87
435.959	5.89
436.319	5.95
436.678	5.84
437.037	5.84
437.396	6.19
437.756	5.86
438.115	5.96
438.474	6.15
438.833	5.94
439.192	6.08
439.551	6.09
439.91	6.03
440.269	5.98
440.628	5.8
440.987	5.81
441.345	5.81
441.704	5.97
442.063	5.94
442.421	6.01
442.78	5.87
443.138	5.93
443.497	5.82
443.855	5.82
444.214	5.94
444.572	6.03
444.93	6.02
445.288	5.97
445.647	5.95
446.005	5.77
446.363	6.03
446.721	5.91
447.079	5.65
447.437	5.84
447.795	5.85
448.153	5.71
448.51	5.82
448.868	5.82
449.226	5.85
449.584	5.77
449.941	5.91
450.299	5.96
450.656	5.82
451.014	5.93
451.371	5.78
451.729	5.8
452.086	6.11
452.443	5.88
452.801	5.99
453.158	5.92
453.515	5.98
453.872	6.19
454.229	6.07
454.586	5.73
454.943	5.88
455.3	5.94
455.657	5.97
456.014	6.04
456.371	6.1
456.727	5.76
457.084	6.11
457.441	5.91
457.797	6.01
458.154	6.14
458.51	6.02
458.867	6.18
459.223	5.99
459.58	6.05
459.936	5.98
460.292	6.01
460.648	5.92
461.005	5.9
461.361	5.94
461.717	5.85
462.073	5.76
462.429	5.87
462.785	6.01
463.141	5.84
463.496	5.98
463.852	6.23
464.208	6.05
464.564	6.09
464.919	6.07
465.275	5.99
465.631	5.99
465.986	5.85
466.342	5.89
466.697	5.96
467.052	6.02
467.408	6.12
467.763	5.91
468.118	5.98
468.473	5.88
468.829	5.86
469.184	5.86
469.539	5.95
469.894	5.79
470.249	5.95
470.603	5.93
470.958	6.13
471.313	5.94
471.668	6.06
472.023	5.94
472.377	6.01
472.732	6.04
473.086	6
473.441	6.04
473.795	6.06
474.15	5.8
474.504	5.91
474.859	6.07
475.213	5.82
475.567	5.74
475.921	5.87
476.275	5.93
476.63	5.92
476.984	6
477.338	6.05
477.692	5.92
478.045	6.02
478.399	5.96
478.753	6.01
479.107	5.91
479.461	5.89
479.814	5.79
480.168	5.92
480.521	5.82
480.875	5.89
481.228	5.79
481.582	5.78
481.935	5.78
482.289	5.88
482.642	5.91
482.995	5.86
483.348	5.7
483.701	5.79
484.055	5.86
484.408	5.86
484.761	5.71
485.114	5.59
485.466	5.4
485.819	5.48
486.172	5.45
486.525	5.51
486.878	5.61
487.23	5.59
487.583	5.71
487.936	5.72
488.288	5.68
488.641	5.68
488.993	5.56
489.345	5.54
489.698	5.51
490.05	5.52
490.402	5.65
490.754	5.61
491.107	5.72
491.459	5.69
491.811	5.78
492.163	5.8
492.515	5.72
492.866	5.73
493.218	5.68
493.57	5.55
493.922	5.62
494.274	5.69
494.625	5.77
494.977	5.78
495.328	5.83
495.68	5.81
496.031	6.01
496.383	5.83
496.734	5.86
497.086	5.87
497.437	5.84
497.788	5.82
498.139	5.67
498.49	5.9
498.842	5.77
499.193	5.75
499.544	5.7
499.894	5.91
500.245	5.74
500.596	5.75
500.947	5.8
501.298	5.68
501.648	5.76
501.999	5.88
502.35	5.81
502.7	5.92
503.051	5.59
503.401	5.79
503.752	6.01
504.102	5.95
504.452	5.73
504.803	5.73
505.153	5.61
505.503	5.82
505.853	5.7
506.203	5.71
506.553	5.67
506.903	5.66
507.253	5.77
507.603	5.61
507.953	5.84
508.303	5.97
508.652	5.63
509.002	5.79
509.352	5.9
509.701	5.81
510.051	5.72
510.4	5.65
510.75	5.75
511.099	5.67
511.449	5.73
511.798	5.73
512.147	5.73
512.496	5.7
512.846	5.76
513.195	5.67
513.544	5.8
513.893	5.77
514.242	5.73
514.591	5.78
514.939	5.65
515.288	5.65
515.637	5.72
515.986	5.78
516.334	5.69
516.683	5.89
517.032	5.69
517.38	5.81
517.729	5.71
518.077	5.62
518.426	5.76
518.774	5.64
519.122	5.58
519.47	5.69
519.819	5.59
520.167	5.62
520.515	5.56
520.863	5.59
521.211	5.58
521.559	5.68
521.907	5.61
522.255	5.6
522.602	5.64
522.95	5.66
523.298	5.74
523.645	5.8
523.993	5.59
524.341	5.75
524.688	5.9
525.036	5.66
525.383	5.69
525.73	5.79
526.078	5.6
526.425	5.62
526.772	5.71
527.119	5.63
527.466	5.58
527.814	5.56
528.161	5.56
528.508	5.58
528.854	5.58
529.201	5.43
529.548	5.56
529.895	5.39
530.242	5.32
530.588	5.29
530.935	5.36
531.282	5.43
531.628	5.47
531.975	5.52
532.321	5.59
532.667	5.65
533.014	5.62
533.36	5.65
533.706	5.61
534.052	5.59
534.399	5.44
534.745	5.35
535.091	5.39
535.437	5.41
535.783	5.51
536.129	5.54
536.474	5.58
536.82	5.54
537.166	5.57
537.512	5.55
537.857	5.57
538.203	5.58
538.549	5.5
538.894	5.51
539.239	5.58
539.585	5.61
539.93	5.57
540.276	5.69
540.621	5.71
540.966	5.6
541.311	5.38
541.656	5.56
542.001	5.54
542.346	5.58
542.691	5.39
543.036	5.35
543.381	5.28
543.726	5.33
544.071	5.49
544.415	5.5
544.76	5.49
545.105	5.47
545.449	5.5
545.794	5.58
546.138	5.57
546.483	5.52
546.827	5.62
547.171	5.62
547.516	5.65
547.86	5.49
548.204	5.45
548.548	5.39
548.892	5.53
549.236	5.56
549.58	5.49
549.924	5.51
550.268	5.64
550.612	5.78
550.956	5.76
551.3	5.61
551.643	5.8
551.987	5.79
552.33	5.74
552.674	5.69
553.017	5.39
553.361	5.65
553.704	5.77
554.048	5.57
554.391	5.51
554.734	5.48
555.077	5.48
555.42	5.37
555.764	5.47
556.107	5.29
556.45	5.42
556.793	5.54
557.135	5.51
557.478	5.76
557.821	5.53
558.164	5.39
558.507	5.74
558.849	5.58
559.192	5.76
559.534	5.43
559.877	5.57
560.219	5.57
560.562	5.77
560.904	5.51
561.246	5.5
561.589	5.54
561.931	5.76
562.273	5.44
562.615	5.5
562.957	5.6
563.299	5.27
563.641	5.57
563.983	5.63
564.325	5.41
564.667	5.19
565.008	5.42
565.35	5.48
565.692	5.34
566.033	5.32
566.375	5.7
566.716	5.74
567.058	5.45
567.399	5.49
567.741	5.35
568.082	5.61
568.423	5.44
568.764	5.49
569.105	5.5
569.447	5.55
569.788	5.39
570.129	5.66
570.47	5.45
570.811	5.36
571.151	5.38
571.492	5.41
571.833	5.52
572.174	5.48
572.514	5.5
572.855	5.46
573.195	5.56
573.536	5.34
573.876	5.23
574.217	5.37
574.557	5.56
574.898	5.61
575.238	5.52
575.578	5.3
575.918	5.49
576.258	5.51
576.598	5.57
576.938	5.42
577.278	5.35
577.618	5.38
577.958	5.41
578.298	5.45
578.638	5.37
578.977	5.29
579.317	5.31
579.657	5.46
579.996	5.41
580.336	5.34
580.675	5.37
581.014	5.48
581.354	5.48
581.693	5.48
582.032	5.25
582.372	5.39
582.711	5.28
583.05	5.32
583.389	5.3
583.728	5.19
584.067	5.57
584.406	5.5
584.745	5.46
585.083	5.65
585.422	5.42
585.761	5.59
586.1	5.71
586.438	5.42
586.777	5.6
587.115	5.57
587.454	5.24
587.792	5.24
588.13	5.54
588.469	5.37
588.807	5.41
589.145	5.39
589.483	5.28
589.821	5.43
590.159	5.58
590.497	5.8
590.835	5.71
591.173	5.33
591.511	5.57
591.849	5.44
592.187	5.52
592.524	5.26
592.862	5.45
593.2	5.36
593.537	5.34
593.875	5.3
594.212	5.18
594.55	5.38
594.887	5.36
595.224	5.5
595.561	5.35
595.899	5.28
596.236	5.2
596.573	5.5
596.91	5.05
597.247	5.25
597.584	5.54
597.921	5.14
598.258	5.06
598.594	5.39
598.931	5.09
599.268	5.32
599.604	5.21
599.941	5.4
600.277	5.22
600.614	5.19
600.95	4.93
601.287	5.39
601.623	5.1
601.959	5.08
602.296	5.34
602.632	5.07
602.968	5.52
603.304	5.16
603.64	5.34
603.976	5.31
604.312	5.22
604.648	5.15
604.984	5.24
605.319	5.22
605.655	5.27
605.991	5.3
606.326	5.16
606.662	5.24
606.998	4.97
607.333	5.17
607.668	5.17
608.004	5.41
608.339	5.5
608.674	5.24
609.01	5.15
609.345	5.02
609.68	5.29
610.015	4.94
610.35	5.08
610.685	4.97
611.02	5.32
611.355	5.22
611.689	5.26
612.024	5.26
612.359	5.18
612.694	5.19
613.028	5.22
613.363	5.28
613.697	5.35
614.032	5.3
614.366	5.05
614.7	5.38
615.035	5.31
615.369	5.09
615.703	5.31
616.037	5.17
616.371	4.71
616.705	4.69
617.039	5.29
617.373	5.17
617.707	5.03
618.041	4.82
618.375	5.21
618.709	5
619.042	4.93
619.376	5.21
619.71	5.37
620.043	5.24
620.377	5.18
620.71	5.06
621.043	4.86
621.377	4.83
621.71	5.31
622.043	4.98
622.376	4.93
622.709	5.22
623.043	4.89
623.376	5.21
623.709	5.23
624.041	5.23
624.374	5.27
624.707	4.94
625.04	5.23
625.373	4.86
625.705	5.05
626.038	5.09
626.37	4.97
626.703	4.86
627.035	5.57
627.368	5.26
627.7	5.33
628.032	4.79
628.365	5.41
628.697	5.3
629.029	5.07
629.361	5.29
629.693	5.47
630.025	4.86
630.357	5.14
630.689	5.27
631.021	5.27
631.353	5.42
631.684	4.85
632.016	4.78
632.348	5.36
632.679	4.95
633.011	5.46
633.342	5.49
633.674	5.13
634.005	5.41
634.336	5.29
634.668	6.02
634.999	4.6
635.33	5.57
635.661	5.11
635.992	4.86
636.323	5.16
636.654	5.41
636.985	5.25
637.316	5.17
637.647	4.71
637.977	5.39
638.308	5.34
638.639	4.99
638.969	5.15
639.3	4.69
639.63	4.61
639.961	4.98
640.291	4.67
640.622	5.02
640.952	5
641.282	5.62
641.612	5.31
641.943	4.68
642.273	4.69
642.603	5.4
642.933	5.36
643.263	5.18
643.592	4.99
643.922	4.6
644.252	4.94
644.582	4.77
644.911	5.1
645.241	5.28
645.571	4.93
645.9	4.5
646.23	5.26
646.559	5.07
646.888	5.22
647.218	4.95
647.547	5.46
647.876	4.94
648.205	5.32
648.534	4.63
648.863	4.69
649.192	5.37
649.521	5.14
649.85	4.09
650.179	5.01
650.508	4.69
650.837	5.15
651.165	4.67
651.494	5.38
651.822	5.11
652.151	5
652.479	5.56
652.808	4.87
653.136	5.02
653.465	4.41
653.793	5.09
654.121	4.87
654.449	5.24
654.777	5
655.105	5.06
655.433	4.18
655.761	5.09
656.089	5.08
656.417	5.29
656.745	4.61
657.073	4.29
657.4	5.5
657.728	5.12
658.056	5.04
658.383	5
658.711	4.92
659.038	5.31
659.365	5.89
659.693	4.81
660.02	5.15
660.347	4.58
660.674	5
661.001	5.18
661.329	4.1
661.656	4.83
661.982	5.36
662.309	4.84
662.636	4.92
662.963	5.34
663.29	5.42
663.616	5.22
663.943	4.66
664.27	4.95
664.596	4.81
664.923	5.25
665.249	5.25
665.576	5.08
665.902	5.26
666.228	4.87
666.554	4.92
666.881	4.67
667.207	5.05
667.533	4.7
667.859	5.3
668.185	5.38
668.511	3.93
668.837	4.52
669.162	5
669.488	4.85
669.814	5.33
670.139	5.15
670.465	5.23
670.791	5.67
671.116	5.78
671.442	5.3
671.767	5.22
672.092	5.21
672.418	5.23
672.743	4.96
673.068	4.35
673.393	4.31
673.718	4.78
674.043	4.74
674.368	5.01
674.693	5.67
675.018	5.2
675.343	4.38
675.667	5.27
675.992	5.34
676.317	5.1
676.641	5.65
676.966	5.84
677.29	4.78
677.615	4.52
677.939	5.57
678.264	5.65
678.588	5.15
678.912	4.78
679.236	5.59
679.56	4.45
679.885	5.89
680.209	5
680.532	5.38
680.856	5.64
681.18	5.01
681.504	4.76
681.828	5.01
682.152	4.99
682.475	5.21
682.799	5.17
683.122	5.09
683.446	4.44
683.769	5.38
684.093	4.2
684.416	5.29
684.739	4.95
685.062	4.27
685.386	5.31
685.709	4.64
686.032	4.77
686.355	5.43
686.678	4.6
687.001	4.72
687.324	5.54
687.646	4.83
687.969	4.8
688.292	4.13
688.614	5.19
688.937	5.26
689.26	5.42
689.582	5.65
689.904	5.1
690.227	5.38
690.549	4.78
690.871	6
691.194	4.79
691.516	4.46
691.838	5.14
692.16	4.86
692.482	4.03
692.804	4.88
