Data from 0399_crown_Reflection__2__207.txt Node

Date: Fri Dec 15 18:19:11 CST 2023
User: ToomeyLab
Spectrometer: FLMS14357
Trigger mode: 0
Integration Time (sec): 1.000000E-2
Scans to average: 100
Electric dark correction enabled: true
Nonlinearity correction enabled: false
Boxcar width: 0
XAxis mode: Wavelengths
Number of Pixels in Spectrum: 2048
>>>>>Begin Spectral Data<<<<<
189.047	477.18
189.435	477.18
189.823	477.18
190.211	-173.18
190.599	241.64
190.987	115.58
191.375	0.85
191.763	76.62
192.151	-67.65
192.538	48.68
192.926	341.85
193.314	121.91
193.702	99.19
194.089	107.27
194.477	7.33
194.864	83.36
195.252	90.09
195.639	79.41
196.027	22.11
196.414	156.85
196.801	-175.76
197.189	90.86
197.576	266.54
197.963	-435.05
198.351	-55.27
198.738	-85.32
199.125	3.38
199.512	-5.95
199.899	5.26
200.286	54.69
200.673	-4.38
201.06	6.03
201.447	-55.83
201.833	1.32
202.22	40.86
202.607	23.07
202.994	5.57
203.38	11.61
203.767	46.38
204.154	9.49
204.54	11.53
204.927	-17.19
205.313	-47.5
205.699	2.44
206.086	49.88
206.472	13.57
206.858	42.94
207.245	-44.07
207.631	34.9
208.017	-36.37
208.403	13.74
208.789	59.26
209.175	6.85
209.561	-24.65
209.947	-12.86
210.333	-22.26
210.719	12.41
211.105	18.64
211.491	-25.18
211.876	23.74
212.262	9.15
212.648	-20.86
213.034	34.87
213.419	7.88
213.805	1.89
214.19	-34.56
214.576	-15.65
214.961	-34.7
215.346	-73.68
215.732	-40.68
216.117	-0.92
216.502	-14.71
216.888	-23.68
217.273	6.67
217.658	-33.98
218.043	7.28
218.428	-43.29
218.813	-34.69
219.198	14.57
219.583	-3.07
219.968	5.44
220.353	-11
220.738	28.89
221.122	-18.63
221.507	-17.75
221.892	-54.78
222.276	-34.83
222.661	5.62
223.046	15.29
223.43	5.73
223.815	4.79
224.199	-2.37
224.583	5.39
224.968	-7.42
225.352	2.06
225.736	4.15
226.121	-20.35
226.505	6.88
226.889	4.33
227.273	-11.36
227.657	11.13
228.041	-1.42
228.425	2.22
228.809	-2.22
229.193	1.24
229.577	-0.39
229.961	2.07
230.344	0.54
230.728	1.58
231.112	1.93
231.495	2.5
231.879	1.59
232.263	2.91
232.646	4.09
233.03	2.05
233.413	1.56
233.797	2.11
234.18	0.22
234.563	3.88
234.946	1.18
235.33	4.5
235.713	3.67
236.096	1.94
236.479	2.85
236.862	1.85
237.245	4.5
237.628	1.73
238.011	2.87
238.394	2.8
238.777	2.52
239.16	-1.12
239.543	2.62
239.925	2.65
240.308	0.93
240.691	4.44
241.073	1.97
241.456	2.66
241.838	0.68
242.221	1.26
242.603	2.82
242.986	3.37
243.368	2.32
243.75	2.57
244.133	1.58
244.515	2.37
244.897	2.7
245.279	2.04
245.661	2.15
246.043	2.33
246.425	1.82
246.807	3.01
247.189	2.69
247.571	2.68
247.953	2.38
248.335	2.23
248.717	2.38
249.098	2.27
249.48	2.45
249.862	2.26
250.243	2.25
250.625	2.37
251.006	2.37
251.388	1.12
251.769	1.44
252.151	2.64
252.532	2.26
252.913	2.2
253.295	2.57
253.676	2.13
254.057	2.72
254.438	1.9
254.819	1.43
255.2	1.89
255.581	2.09
255.962	2.13
256.343	1.92
256.724	2.44
257.105	2.29
257.486	2.46
257.867	2.26
258.247	1.69
258.628	2.06
259.009	2.71
259.389	2.92
259.77	2.05
260.15	1.69
260.531	1.11
260.911	2.46
261.292	2.26
261.672	2.08
262.052	2.36
262.432	2.61
262.813	2.15
263.193	2.13
263.573	1.58
263.953	2.23
264.333	2.75
264.713	1.93
265.093	1.48
265.473	2.09
265.853	0.94
266.233	2.18
266.612	-0.06
266.992	1.1
267.372	2.78
267.752	1.67
268.131	1.64
268.511	2.34
268.89	2.27
269.27	1.4
269.649	1.73
270.029	1.84
270.408	2.98
270.787	1.92
271.167	2.54
271.546	2.1
271.925	1.84
272.304	2.02
272.683	2.12
273.062	2
273.441	2.1
273.82	1.72
274.199	2.06
274.578	2.27
274.957	1.96
275.336	2.24
275.715	1.67
276.093	1.68
276.472	1.96
276.851	2.09
277.229	1.81
277.608	1.18
277.986	2.14
278.365	2.58
278.743	1.85
279.122	2.21
279.5	2.29
279.878	2.2
280.257	1.67
280.635	1.36
281.013	1.38
281.391	2.84
281.769	1.9
282.147	2.41
282.525	2.56
282.903	1.61
283.281	2.31
283.659	2.51
284.037	2.23
284.415	1.9
284.792	2.31
285.17	1.13
285.548	1.39
285.925	2.21
286.303	1.98
286.68	1.69
287.058	1.78
287.435	2.11
287.813	2.3
288.19	1.97
288.567	1.84
288.945	2.32
289.322	1.91
289.699	1.92
290.076	1.46
290.453	1.5
290.83	1.5
291.207	1.35
291.584	2.38
291.961	2.4
292.338	1.99
292.715	2.4
293.092	2.08
293.469	1.96
293.845	2.27
294.222	1.38
294.599	2.71
294.975	1.69
295.352	2.38
295.728	1.35
296.105	2.17
296.481	2.69
296.858	2.52
297.234	2.14
297.61	1.75
297.986	1.81
298.363	2.27
298.739	2.35
299.115	2.11
299.491	1.97
299.867	2.2
300.243	2.56
300.619	1.75
300.995	2.43
301.371	2.07
301.746	1.74
302.122	2.59
302.498	1.87
302.874	2.48
303.249	2.09
303.625	2.22
304	2.68
304.376	1.9
304.751	1.43
305.127	3.06
305.502	1.7
305.878	1.75
306.253	1.75
306.628	2.58
307.003	2.15
307.378	2.13
307.754	2.99
308.129	1.5
308.504	2.24
308.879	2.26
309.254	3.4
309.629	2.79
310.003	2.16
310.378	2.61
310.753	2.45
311.128	2.18
311.502	1.99
311.877	2.67
312.252	1.74
312.626	2.07
313.001	1.89
313.375	2.72
313.75	2.03
314.124	2.29
314.498	2.04
314.873	2.42
315.247	2.11
315.621	2.07
315.995	1.6
316.369	2.29
316.743	1.81
317.117	1.89
317.491	1.71
317.865	1.92
318.239	1.75
318.613	2.15
318.987	2.25
319.361	1.94
319.734	2.01
320.108	1.76
320.482	1.72
320.855	2.74
321.229	2.28
321.602	2.27
321.976	2.59
322.349	2.08
322.723	2.17
323.096	2.3
323.469	1.66
323.843	1.84
324.216	3.14
324.589	2.57
324.962	2.44
325.335	2.12
325.708	1.73
326.081	2.42
326.454	2.2
326.827	2.23
327.2	2.6
327.573	2.84
327.945	2.52
328.318	2.01
328.691	1.56
329.063	2.1
329.436	2.27
329.809	2.56
330.181	1.48
330.553	2.34
330.926	2.22
331.298	2.87
331.671	1.88
332.043	3.15
332.415	2.52
332.787	2.58
333.159	3.02
333.532	2.57
333.904	2.22
334.276	2.42
334.648	2.33
335.02	2.51
335.391	1.58
335.763	2.36
336.135	1.84
336.507	3.02
336.879	1.69
337.25	2.2
337.622	2.06
337.993	1.96
338.365	2.6
338.736	2.63
339.108	2.18
339.479	2.24
339.851	2.12
340.222	2.7
340.593	2.4
340.964	2.05
341.336	2.88
341.707	1.94
342.078	2.64
342.449	2.16
342.82	2.21
343.191	2.05
343.562	2.43
343.933	2.57
344.303	2.51
344.674	1.82
345.045	2.42
345.416	3.21
345.786	2.15
346.157	2.71
346.527	1.96
346.898	2.14
347.268	2.69
347.639	1.94
348.009	2.61
348.38	2.01
348.75	1.9
349.12	2.32
349.49	2.85
349.861	2.42
350.231	2.06
350.601	2.58
350.971	2.67
351.341	2.33
351.711	2.38
352.081	2.29
352.45	1.84
352.82	2.58
353.19	2.54
353.56	2.08
353.929	2.59
354.299	2.36
354.669	1.91
355.038	2.86
355.408	1.98
355.777	2.58
356.147	1.93
356.516	2.32
356.885	2.53
357.254	2.11
357.624	2.38
357.993	2.46
358.362	2.33
358.731	2.55
359.1	2.2
359.469	2.3
359.838	2.41
360.207	2.04
360.576	2.08
360.945	2.51
361.314	2.51
361.682	2.21
362.051	2.26
362.42	2.62
362.788	2.27
363.157	2.41
363.525	2.52
363.894	2.61
364.262	2.55
364.631	2.54
364.999	2.56
365.367	2.11
365.735	2.97
366.104	2.37
366.472	2.52
366.84	2.35
367.208	2.67
367.576	2.57
367.944	2.81
368.312	2.62
368.68	2.26
369.048	2.72
369.416	2.43
369.783	2.46
370.151	2.66
370.519	2.52
370.886	2.76
371.254	2.13
371.621	2.63
371.989	2.81
372.356	2.18
372.724	2.17
373.091	2.09
373.458	2.58
373.826	2.3
374.193	2.33
374.56	2.83
374.927	2.59
375.294	2.42
375.661	2.24
376.028	2.24
376.395	2.23
376.762	2.59
377.129	2.26
377.496	2.13
377.863	2.45
378.229	1.92
378.596	2.46
378.963	2.17
379.329	1.9
379.696	2.6
380.062	2.21
380.429	2.5
380.795	2.16
381.161	2.63
381.528	2.72
381.894	2.23
382.26	2.78
382.626	2.56
382.993	2.25
383.359	2.49
383.725	2.22
384.091	2.43
384.457	2.77
384.823	2.35
385.188	2.6
385.554	2.62
385.92	2.83
386.286	2.89
386.651	2.8
387.017	2.84
387.383	2.35
387.748	2.06
388.114	2.74
388.479	2.39
388.845	2.52
389.21	2.73
389.575	2.49
389.94	2.73
390.306	2.67
390.671	2.73
391.036	2.47
391.401	2.14
391.766	2.58
392.131	1.99
392.496	2.59
392.861	2.53
393.226	2.76
393.591	2.57
393.956	2.55
394.32	2.76
394.685	2.56
395.05	2.58
395.414	2.4
395.779	2.11
396.143	2.47
396.508	2.6
396.872	2.65
397.236	2.92
397.601	2.5
397.965	2.64
398.329	2.59
398.694	2.77
399.058	2.69
399.422	2.3
399.786	2.94
400.15	3
400.514	2.68
400.878	2.89
401.242	2.62
401.605	2.79
401.969	2.66
402.333	2.62
402.697	2.59
403.06	2.62
403.424	2.86
403.787	2.5
404.151	2.8
404.514	2.83
404.878	2.62
405.241	2.91
405.604	2.52
405.968	2.77
406.331	2.76
406.694	2.81
407.057	2.52
407.42	2.79
407.783	2.32
408.146	2.66
408.509	2.48
408.872	2.54
409.235	2.87
409.598	2.91
409.961	2.5
410.323	2.9
410.686	2.9
411.049	2.37
411.411	2.52
411.774	2.78
412.136	2.62
412.499	2.81
412.861	2.5
413.223	2.44
413.586	2.64
413.948	2.69
414.31	2.71
414.672	2.61
415.035	2.24
415.397	2.86
415.759	2.63
416.121	2.85
416.483	2.87
416.845	2.8
417.206	2.69
417.568	2.93
417.93	2.42
418.292	2.71
418.653	2.52
419.015	2.81
419.377	2.72
419.738	2.65
420.1	2.69
420.461	2.81
420.822	2.61
421.184	2.75
421.545	2.76
421.906	2.61
422.267	2.63
422.629	2.72
422.99	2.73
423.351	2.7
423.712	2.85
424.073	2.73
424.434	2.69
424.795	2.73
425.155	2.79
425.516	2.62
425.877	2.68
426.238	2.65
426.598	2.73
426.959	2.75
427.32	2.61
427.68	2.71
428.041	2.62
428.401	2.82
428.761	2.75
429.122	2.79
429.482	2.79
429.842	2.83
430.202	2.83
430.563	2.78
430.923	2.69
431.283	2.99
431.643	2.81
432.003	2.86
432.363	2.9
432.722	2.95
433.082	2.74
433.442	2.78
433.802	2.69
434.161	2.87
434.521	3
434.881	2.84
435.24	2.6
435.6	2.78
435.959	2.85
436.319	2.82
436.678	2.72
437.037	2.74
437.396	2.95
437.756	3.1
438.115	2.7
438.474	2.88
438.833	2.71
439.192	2.85
439.551	2.81
439.91	2.73
440.269	2.91
440.628	2.67
440.987	2.87
441.345	2.55
441.704	2.79
442.063	2.69
442.421	2.82
442.78	2.89
443.138	2.73
443.497	3
443.855	2.82
444.214	2.88
444.572	2.83
444.93	2.93
445.288	2.86
445.647	2.9
446.005	2.71
446.363	2.97
446.721	2.97
447.079	2.69
447.437	2.89
447.795	2.9
448.153	2.68
448.51	2.9
448.868	2.82
449.226	2.86
449.584	2.87
449.941	2.84
450.299	2.87
450.656	2.94
451.014	2.92
451.371	2.85
451.729	2.76
452.086	3.06
452.443	3
452.801	2.95
453.158	2.93
453.515	2.96
453.872	2.97
454.229	2.89
454.586	2.89
454.943	2.97
455.3	2.94
455.657	2.75
456.014	2.82
456.371	3.07
456.727	2.88
457.084	2.97
457.441	3.08
457.797	2.91
458.154	3.21
458.51	3.13
458.867	3.02
459.223	3.1
459.58	2.92
459.936	3.02
460.292	2.94
460.648	2.9
461.005	2.98
461.361	2.85
461.717	2.99
462.073	2.77
462.429	2.93
462.785	2.89
463.141	2.89
463.496	2.99
463.852	3.13
464.208	2.95
464.564	2.91
464.919	3.09
465.275	2.87
465.631	3.19
465.986	2.92
466.342	2.86
466.697	2.84
467.052	3.13
467.408	3.02
467.763	3.1
468.118	3.1
468.473	2.94
468.829	2.86
469.184	2.87
469.539	3.11
469.894	2.91
470.249	3.13
470.603	3.12
470.958	3.04
471.313	3.23
471.668	3.15
472.023	2.91
472.377	3.12
472.732	2.86
473.086	3.08
473.441	2.9
473.795	3.19
474.15	3.13
474.504	2.93
474.859	2.98
475.213	2.95
475.567	2.97
475.921	3
476.275	3.15
476.63	3.13
476.984	3.2
477.338	3.2
477.692	2.93
478.045	3.06
478.399	3.09
478.753	3.11
479.107	3.18
479.461	2.92
479.814	3.07
480.168	3.01
480.521	3.07
480.875	3.04
481.228	3.1
481.582	2.93
481.935	3.01
482.289	3.04
482.642	2.99
482.995	3.1
483.348	2.96
483.701	3.02
484.055	3.22
484.408	3.13
484.761	3.06
485.114	2.9
485.466	2.83
485.819	2.84
486.172	2.86
486.525	2.93
486.878	2.99
487.23	3.02
487.583	3.04
487.936	3.08
488.288	2.99
488.641	3.07
488.993	2.99
489.345	2.96
489.698	2.97
490.05	2.95
490.402	3.05
490.754	3.07
491.107	3.1
491.459	3.13
491.811	3.21
492.163	3.17
492.515	3.08
492.866	3.14
493.218	3.01
493.57	2.95
493.922	2.99
494.274	3.12
494.625	3.19
494.977	3.19
495.328	3.35
495.68	3.1
496.031	3.27
496.383	3.14
496.734	3.32
497.086	3.31
497.437	3.21
497.788	3.2
498.139	3.12
498.49	3.18
498.842	3.13
499.193	3.08
499.544	3.15
499.894	3.05
500.245	3.23
500.596	3.12
500.947	3.17
501.298	3.13
501.648	3.31
501.999	3.27
502.35	3.31
502.7	3.19
503.051	3.25
503.401	3.2
503.752	3.45
504.102	3.24
504.452	3.29
504.803	3.02
505.153	3.33
505.503	3.24
505.853	3.22
506.203	3.27
506.553	3.29
506.903	3.07
507.253	3.17
507.603	3.11
507.953	3.37
508.303	3.31
508.652	3.08
509.002	3.36
509.352	3.36
509.701	3.13
510.051	3.32
510.4	3.23
510.75	3.25
511.099	3.32
511.449	3.3
511.798	3.31
512.147	3.27
512.496	3.25
512.846	3.23
513.195	3.2
513.544	3.26
513.893	3.48
514.242	3.23
514.591	3.46
514.939	3.22
515.288	3.25
515.637	3.33
515.986	3.32
516.334	3.39
516.683	3.49
517.032	3.36
517.38	3.41
517.729	3.28
518.077	3.24
518.426	3.38
518.774	3.32
519.122	3.24
519.47	3.27
519.819	3.11
520.167	3.29
520.515	3.21
520.863	3.27
521.211	3.29
521.559	3.4
521.907	3.2
522.255	3.36
522.602	3.34
522.95	3.29
523.298	3.33
523.645	3.36
523.993	3.22
524.341	3.39
524.688	3.47
525.036	3.34
525.383	3.26
525.73	3.46
526.078	3.27
526.425	3.27
526.772	3.34
527.119	3.31
527.466	3.25
527.814	3.3
528.161	3.23
528.508	3.35
528.854	3.35
529.201	3.29
529.548	3.23
529.895	3.25
530.242	3.13
530.588	3.09
530.935	3.15
531.282	3.23
531.628	3.25
531.975	3.26
532.321	3.33
532.667	3.31
533.014	3.38
533.36	3.37
533.706	3.36
534.052	3.3
534.399	3.23
534.745	3.26
535.091	3.28
535.437	3.23
535.783	3.28
536.129	3.37
536.474	3.4
536.82	3.35
537.166	3.51
537.512	3.49
537.857	3.38
538.203	3.4
538.549	3.28
538.894	3.3
539.239	3.45
539.585	3.33
539.93	3.32
540.276	3.44
540.621	3.52
540.966	3.44
541.311	3.31
541.656	3.28
542.001	3.37
542.346	3.5
542.691	3.35
543.036	3.24
543.381	3.16
543.726	3.24
544.071	3.4
544.415	3.4
544.76	3.43
545.105	3.46
545.449	3.44
545.794	3.49
546.138	3.34
546.483	3.51
546.827	3.59
547.171	3.43
547.516	3.65
547.86	3.44
548.204	3.49
548.548	3.38
548.892	3.53
549.236	3.4
549.58	3.4
549.924	3.61
550.268	3.58
550.612	3.58
550.956	3.54
551.3	3.51
551.643	3.75
551.987	3.78
552.33	3.56
552.674	3.45
553.017	3.52
553.361	3.5
553.704	3.67
554.048	3.47
554.391	3.49
554.734	3.57
555.077	3.56
555.42	3.43
555.764	3.52
556.107	3.47
556.45	3.35
556.793	3.54
557.135	3.53
557.478	3.62
557.821	3.65
558.164	3.56
558.507	3.72
558.849	3.54
559.192	3.65
559.534	3.68
559.877	3.81
560.219	3.48
560.562	3.75
560.904	3.57
561.246	3.72
561.589	3.62
561.931	3.62
562.273	3.56
562.615	3.67
562.957	3.52
563.299	3.3
563.641	3.67
563.983	3.63
564.325	3.56
564.667	3.53
565.008	3.59
565.35	3.73
565.692	3.47
566.033	3.73
566.375	3.88
566.716	3.88
567.058	3.61
567.399	3.68
567.741	3.5
568.082	3.63
568.423	3.58
568.764	3.61
569.105	3.7
569.447	3.86
569.788	3.58
570.129	3.76
570.47	3.64
570.811	3.9
571.151	3.6
571.492	3.79
571.833	3.8
572.174	3.63
572.514	3.76
572.855	3.63
573.195	3.7
573.536	3.69
573.876	3.35
574.217	3.45
574.557	3.62
574.898	3.78
575.238	3.78
575.578	3.64
575.918	3.84
576.258	3.47
576.598	3.75
576.938	3.54
577.278	3.54
577.618	3.59
577.958	3.56
578.298	3.65
578.638	3.54
578.977	3.63
579.317	3.7
579.657	3.83
579.996	3.49
580.336	3.56
580.675	3.58
581.014	3.66
581.354	3.72
581.693	3.61
582.032	3.55
582.372	3.73
582.711	3.61
583.05	3.69
583.389	3.89
583.728	3.6
584.067	3.83
584.406	3.79
584.745	3.69
585.083	3.9
585.422	3.83
585.761	4.09
586.1	3.94
586.438	3.78
586.777	4.07
587.115	3.76
587.454	3.8
587.792	3.89
588.13	3.84
588.469	3.79
588.807	3.75
589.145	4.01
589.483	3.93
589.821	4.02
590.159	3.8
590.497	3.96
590.835	4.02
591.173	3.88
591.511	3.98
591.849	4.07
592.187	4
592.524	3.68
592.862	3.85
593.2	3.9
593.537	3.81
593.875	3.87
594.212	3.71
594.55	3.87
594.887	3.94
595.224	3.92
595.561	3.89
595.899	3.89
596.236	3.98
596.573	3.96
596.91	3.57
597.247	3.47
597.584	4.17
597.921	3.74
598.258	3.71
598.594	3.74
598.931	3.63
599.268	3.99
599.604	3.78
599.941	3.88
600.277	3.8
600.614	3.86
600.95	3.59
601.287	3.88
601.623	3.67
601.959	3.7
602.296	3.87
602.632	3.81
602.968	4.06
603.304	3.73
603.64	3.85
603.976	3.81
604.312	3.96
604.648	3.78
604.984	3.92
605.319	4.02
605.655	3.76
605.991	3.61
606.326	3.79
606.662	3.84
606.998	3.76
607.333	3.83
607.668	3.9
608.004	3.98
608.339	4.08
608.674	3.82
609.01	3.74
609.345	3.7
609.68	4.09
610.015	3.76
610.35	3.84
610.685	3.81
611.02	3.9
611.355	3.96
611.689	3.84
612.024	3.97
612.359	4.04
612.694	4.07
613.028	3.82
613.363	3.92
613.697	3.97
614.032	3.8
614.366	3.97
614.7	4.02
615.035	4.12
615.369	3.84
615.703	3.77
616.037	4.01
616.371	3.47
616.705	3.67
617.039	3.98
617.373	3.65
617.707	4.01
618.041	3.66
618.375	4.22
618.709	3.93
619.042	4.01
619.376	4.27
619.71	4.33
620.043	3.85
620.377	4.01
620.71	3.94
621.043	3.66
621.377	4
621.71	4.08
622.043	3.98
622.376	3.66
622.709	3.95
623.043	4.2
623.376	3.72
623.709	3.97
624.041	4.5
624.374	4.08
624.707	3.83
625.04	4.25
625.373	3.5
625.705	4.18
626.038	3.98
626.37	3.74
626.703	4.36
627.035	3.89
627.368	4.27
627.7	3.96
628.032	3.61
628.365	4.41
628.697	4.27
629.029	3.83
629.361	3.93
629.693	4.24
630.025	4
630.357	4.38
630.689	4.07
631.021	4
631.353	4.19
631.684	4.07
632.016	3.84
632.348	4.32
632.679	4.42
633.011	4.34
633.342	4.34
633.674	4.12
634.005	4.47
634.336	3.94
634.668	4.39
634.999	3.94
635.33	4.08
635.661	4.26
635.992	3.8
636.323	4.24
636.654	4.35
636.985	3.69
637.316	3.98
637.647	3.93
637.977	4.44
638.308	4.36
638.639	4.25
638.969	3.84
639.3	4.16
639.63	4.06
639.961	4.12
640.291	4.47
640.622	3.99
640.952	3.76
641.282	4.5
641.612	4.22
641.943	4.05
642.273	4.21
642.603	4.35
642.933	4.52
643.263	4.2
643.592	4.18
643.922	4.07
644.252	4.06
644.582	3.79
644.911	3.77
645.241	4.43
645.571	4.5
645.9	3.99
646.23	4.38
646.559	4.63
646.888	4.44
647.218	4.07
647.547	4.54
647.876	4.12
648.205	4.16
648.534	4.18
648.863	3.81
649.192	4.24
649.521	3.88
649.85	3.76
650.179	4.62
650.508	4.24
650.837	4.08
651.165	3.9
651.494	4.31
651.822	4
652.151	4.07
652.479	4.16
652.808	3.98
653.136	4.06
653.465	3.87
653.793	3.62
654.121	3.75
654.449	4.21
654.777	4.47
655.105	4.3
655.433	4.23
655.761	4.58
656.089	4.51
656.417	4.25
656.745	3.42
657.073	4.11
657.4	4.75
657.728	4.35
658.056	4.41
658.383	4.05
658.711	4.31
659.038	4.46
659.365	4.73
659.693	3.94
660.02	4.16
660.347	4.53
660.674	4.53
661.001	4.38
661.329	3.77
661.656	4.07
661.982	4.69
662.309	3.94
662.636	3.9
662.963	4.54
663.29	4.6
663.616	4.25
663.943	4.23
664.27	4.27
664.596	4.98
664.923	4.17
665.249	4.43
665.576	4.2
665.902	5.07
666.228	4.71
666.554	4.5
666.881	4.1
667.207	4.3
667.533	4.52
667.859	4.76
668.185	4.31
668.511	3.88
668.837	3.55
669.162	4.78
669.488	4.06
669.814	4.16
670.139	4.97
670.465	4.16
670.791	4.37
671.116	5.23
671.442	4.18
671.767	4.07
672.092	4.78
672.418	4.41
672.743	4.72
673.068	3.99
673.393	4.21
673.718	4.67
674.043	4.54
674.368	4.06
674.693	5.39
675.018	4.26
675.343	4.71
675.667	4.25
675.992	4.15
676.317	4.7
676.641	4.39
676.966	4.72
677.29	4.17
677.615	4.97
677.939	5.03
678.264	4.94
678.588	4.74
678.912	4.9
679.236	5.05
679.56	4.15
679.885	4.66
680.209	4.48
680.532	4.46
680.856	5.12
681.18	4.52
681.504	4.97
681.828	5.11
682.152	4.32
682.475	4.55
682.799	4.36
683.122	4.84
683.446	3.96
683.769	5.27
684.093	4.12
684.416	5.08
684.739	4.81
685.062	4.76
685.386	4.68
685.709	4.2
686.032	3.91
686.355	5.32
686.678	4.73
687.001	4.47
687.324	5.01
687.646	4.4
687.969	4.31
688.292	4.39
688.614	4.62
688.937	5.42
689.26	4.32
689.582	4.8
689.904	4.7
690.227	5.62
690.549	4.82
690.871	5.09
691.194	4.24
691.516	4.1
691.838	4.32
692.16	4.17
692.482	4.8
