Data from 0399_forehead_Reflection__2__212.txt Node

Date: Fri Dec 15 18:20:17 CST 2023
User: ToomeyLab
Spectrometer: FLMS14357
Trigger mode: 0
Integration Time (sec): 1.000000E-2
Scans to average: 100
Electric dark correction enabled: true
Nonlinearity correction enabled: false
Boxcar width: 0
XAxis mode: Wavelengths
Number of Pixels in Spectrum: 2048
>>>>>Begin Spectral Data<<<<<
189.047	-59.18
189.435	-59.18
189.823	-59.18
190.211	194.34
190.599	-769.41
190.987	117.52
191.375	-51.66
191.763	-26.28
192.151	-2.75
192.538	90.45
192.926	523.89
193.314	101.13
193.702	749.09
194.089	-37.39
194.477	-25.99
194.864	23.86
195.252	55.77
195.639	53.55
196.027	197.81
196.414	100.53
196.801	63.28
197.189	10.3
197.576	298.65
197.963	50.39
198.351	-48.58
198.738	57.7
199.125	22.58
199.512	-40.28
199.899	36.84
200.286	81.48
200.673	-9.31
201.06	-5.18
201.447	1.7
201.833	-8.09
202.22	53.72
202.607	52.41
202.994	59.85
203.38	3.93
203.767	-13.93
204.154	22.68
204.54	68.63
204.927	-72.43
205.313	-21.19
205.699	4.72
206.086	81.51
206.472	27.49
206.858	49.87
207.245	-8.01
207.631	18.22
208.017	85.71
208.403	-6.94
208.789	29.1
209.175	-7.83
209.561	14.82
209.947	18.99
210.333	-106.68
210.719	13.79
211.105	67.68
211.491	-50.96
211.876	34.03
212.262	12
212.648	-14.13
213.034	13.52
213.419	47.1
213.805	-23.41
214.19	-29.6
214.576	18.63
214.961	5.41
215.346	-26.02
215.732	-9.06
216.117	32.55
216.502	-2.41
216.888	48.19
217.273	30.88
217.658	16.31
218.043	35.03
218.428	-26.07
218.813	10.98
219.198	-41.5
219.583	-1.25
219.968	-10.44
220.353	-6.59
220.738	21.35
221.122	23.49
221.507	-9.55
221.892	-40.67
222.276	-19.15
222.661	-11.98
223.046	10.82
223.43	28.24
223.815	10.18
224.199	-12.16
224.583	18.8
224.968	6.7
225.352	26.7
225.736	6.07
226.121	-7.51
226.505	7.94
226.889	10.08
227.273	8.37
227.657	4.61
228.041	4.03
228.425	3.82
228.809	6.37
229.193	5.04
229.577	5.2
229.961	4.19
230.344	4.02
230.728	3.85
231.112	4.31
231.495	4.72
231.879	4.15
232.263	4.13
232.646	5.17
233.03	3.56
233.413	3.86
233.797	3.22
234.18	4.48
234.563	4.45
234.946	2.71
235.33	7.28
235.713	6.56
236.096	3.3
236.479	4.24
236.862	5.94
237.245	6.7
237.628	1.29
238.011	3.95
238.394	4.98
238.777	4.16
239.16	2.49
239.543	4.79
239.925	3.89
240.308	3.27
240.691	5.54
241.073	3.46
241.456	5.55
241.838	3.91
242.221	2.7
242.603	5.05
242.986	3.61
243.368	3.55
243.75	3.85
244.133	3.42
244.515	3.9
244.897	3.66
245.279	4.33
245.661	4.1
246.043	4.32
246.425	3.15
246.807	4.69
247.189	3.43
247.571	4.45
247.953	3.9
248.335	3.84
248.717	4.16
249.098	3.79
249.48	3.79
249.862	3.68
250.243	3.7
250.625	3.69
251.006	4.19
251.388	3.29
251.769	3.79
252.151	5.71
252.532	3.92
252.913	3.57
253.295	2.28
253.676	3.56
254.057	3.57
254.438	3.43
254.819	3
255.2	3.23
255.581	3
255.962	3.59
256.343	5.69
256.724	4.13
257.105	3.79
257.486	3.37
257.867	4.26
258.247	2.91
258.628	4.12
259.009	3.82
259.389	4.25
259.77	3.47
260.15	3.61
260.531	3.42
260.911	4.29
261.292	3.43
261.672	3.86
262.052	3.82
262.432	3.62
262.813	3.54
263.193	3.4
263.573	3.38
263.953	3.13
264.333	3.31
264.713	3.79
265.093	3.19
265.473	3.45
265.853	3.01
266.233	3.9
266.612	1.34
266.992	1.81
267.372	4.13
267.752	3.57
268.131	3.53
268.511	4.08
268.89	3.93
269.27	3.15
269.649	3.67
270.029	3.13
270.408	5.05
270.787	3.69
271.167	4.42
271.546	3.98
271.925	3.82
272.304	3.7
272.683	3.51
273.062	3.45
273.441	3.63
273.82	3.21
274.199	3.41
274.578	3.93
274.957	3.44
275.336	3.88
275.715	3.5
276.093	3.65
276.472	3.34
276.851	3.2
277.229	3.36
277.608	2.56
277.986	3.38
278.365	3.2
278.743	3.39
279.122	3.54
279.5	3.4
279.878	3.61
280.257	3.41
280.635	3.15
281.013	2.91
281.391	3.54
281.769	3.39
282.147	4.17
282.525	4.06
282.903	3.76
283.281	3.82
283.659	4.02
284.037	3.8
284.415	3.55
284.792	4.02
285.17	2.54
285.548	3.42
285.925	3.22
286.303	3.53
286.68	3.23
287.058	3.76
287.435	3.58
287.813	3.51
288.19	3.23
288.567	3.31
288.945	3.9
289.322	3.56
289.699	3.43
290.076	3.44
290.453	3.39
290.83	3.95
291.207	3.36
291.584	3.53
291.961	4.19
292.338	3.76
292.715	4.13
293.092	3.59
293.469	3.48
293.845	4.02
294.222	3.23
294.599	3.27
294.975	3.32
295.352	3.79
295.728	3.53
296.105	4.05
296.481	4.07
296.858	3.48
297.234	3.34
297.61	3.65
297.986	3.95
298.363	4.25
298.739	3.92
299.115	3.64
299.491	3.8
299.867	3.83
300.243	3.89
300.619	3.4
300.995	3.36
301.371	4.35
301.746	3.95
302.122	4.38
302.498	3.48
302.874	4.05
303.249	4.15
303.625	4.3
304	4.54
304.376	3.36
304.751	3.57
305.127	4.82
305.502	3.73
305.878	3.77
306.253	4.28
306.628	5.02
307.003	4.18
307.378	4.5
307.754	3.99
308.129	3.74
308.504	4.14
308.879	4.14
309.254	4.86
309.629	4.92
310.003	4.62
310.378	4.86
310.753	4.72
311.128	4.39
311.502	4.55
311.877	5.31
312.252	4.61
312.626	4.6
313.001	4.83
313.375	4.99
313.75	4.43
314.124	4.79
314.498	5.19
314.873	4.68
315.247	4.68
315.621	4.99
315.995	4.59
316.369	4.87
316.743	4.95
317.117	5.16
317.491	5.19
317.865	5.23
318.239	4.87
318.613	5.12
318.987	4.93
319.361	4.23
319.734	5.38
320.108	5.18
320.482	5.79
320.855	5.75
321.229	6.08
321.602	5.77
321.976	5.97
322.349	5.4
322.723	5.19
323.096	5.72
323.469	4.62
323.843	5.67
324.216	5.89
324.589	5.93
324.962	5.92
325.335	6.07
325.708	5.79
326.081	5.84
326.454	5.91
326.827	6.19
327.2	6.27
327.573	5.97
327.945	6.17
328.318	5.84
328.691	5.62
329.063	5.92
329.436	5.87
329.809	6.43
330.181	5.55
330.553	6.43
330.926	6.36
331.298	5.98
331.671	5.8
332.043	6.69
332.415	6.47
332.787	6.44
333.159	6.85
333.532	7.31
333.904	6.4
334.276	6.83
334.648	6.01
335.02	6.42
335.391	6.6
335.763	6.07
336.135	6.67
336.507	6.65
336.879	6.46
337.25	6.56
337.622	6.69
337.993	6.49
338.365	6.73
338.736	6.55
339.108	6.56
339.479	6.43
339.851	7.02
340.222	7.12
340.593	6.75
340.964	6.53
341.336	7.43
341.707	6.58
342.078	7.65
342.449	7.49
342.82	7.08
343.191	6.86
343.562	7.41
343.933	7.27
344.303	7.24
344.674	6.93
345.045	7.59
345.416	7.53
345.786	7.26
346.157	7.96
346.527	6.97
346.898	7.11
347.268	7.75
347.639	7.64
348.009	7.36
348.38	7.03
348.75	7.3
349.12	7.65
349.49	8.19
349.861	7.41
350.231	7.51
350.601	7.79
350.971	7.43
351.341	7.65
351.711	7.54
352.081	7.8
352.45	7.25
352.82	8.16
353.19	7.59
353.56	6.7
353.929	8.13
354.299	7.58
354.669	7.41
355.038	8.44
355.408	7.79
355.777	7.87
356.147	7.67
356.516	8.17
356.885	8
357.254	7.81
357.624	8.57
357.993	8.36
358.362	7.91
358.731	8.15
359.1	7.97
359.469	8.1
359.838	8.39
360.207	8.11
360.576	7.88
360.945	8.04
361.314	8.71
361.682	8.46
362.051	8.23
362.42	8.36
362.788	8.59
363.157	8.62
363.525	8.52
363.894	8.41
364.262	8.56
364.631	8.52
364.999	8.78
365.367	8.27
365.735	9.28
366.104	9.29
366.472	8.81
366.84	8.28
367.208	8.48
367.576	8.72
367.944	9.02
368.312	8.72
368.68	8.74
369.048	9.1
369.416	8.99
369.783	8.47
370.151	9.22
370.519	9.25
370.886	8.96
371.254	8.48
371.621	9.52
371.989	9.22
372.356	9
372.724	9.01
373.091	9.24
373.458	9.02
373.826	9.1
374.193	9.09
374.56	9.2
374.927	9.36
375.294	9.4
375.661	9.16
376.028	9.33
376.395	9.37
376.762	9.65
377.129	9.63
377.496	9.38
377.863	9.88
378.229	9.37
378.596	10.1
378.963	9.91
379.329	9.46
379.696	9.64
380.062	10.04
380.429	9.95
380.795	9.79
381.161	9.72
381.528	10.1
381.894	10.02
382.26	10.14
382.626	9.94
382.993	9.93
383.359	10.3
383.725	9.94
384.091	10.33
384.457	10.25
384.823	10.22
385.188	10.53
385.554	10.37
385.92	10.57
386.286	10.32
386.651	10.59
387.017	10.43
387.383	10.34
387.748	10.43
388.114	10.81
388.479	10.32
388.845	10.77
389.21	10.61
389.575	10.63
389.94	10.63
390.306	10.6
390.671	10.94
391.036	10.53
391.401	10.23
391.766	10.84
392.131	10.65
392.496	11.03
392.861	10.76
393.226	10.94
393.591	10.64
393.956	10.99
394.32	11
394.685	10.65
395.05	10.81
395.414	11.23
395.779	10.98
396.143	11.19
396.508	11.46
396.872	11.16
397.236	11.13
397.601	10.96
397.965	11.43
398.329	11.18
398.694	11.42
399.058	11.51
399.422	11.12
399.786	11.43
400.15	11.49
400.514	11.51
400.878	11.46
401.242	11.9
401.605	11.57
401.969	11.47
402.333	11.62
402.697	11.57
403.06	11.71
403.424	11.89
403.787	11.77
404.151	11.92
404.514	11.83
404.878	11.75
405.241	11.86
405.604	11.77
405.968	11.98
406.331	11.99
406.694	11.92
407.057	11.94
407.42	12.2
407.783	11.94
408.146	12.03
408.509	12.01
408.872	11.95
409.235	12
409.598	12.28
409.961	12.17
410.323	12.18
410.686	12.24
411.049	12.26
411.411	12.18
411.774	12.51
412.136	12.29
412.499	12.42
412.861	12.27
413.223	12.34
413.586	12.39
413.948	12.42
414.31	12.22
414.672	12.59
415.035	12.47
415.397	12.75
415.759	12.3
416.121	12.71
416.483	12.5
416.845	12.76
417.206	12.68
417.568	12.63
417.93	12.73
418.292	12.89
418.653	12.94
419.015	13.07
419.377	12.77
419.738	12.89
420.1	12.96
420.461	13.01
420.822	12.95
421.184	12.86
421.545	12.88
421.906	12.8
422.267	13.03
422.629	13.02
422.99	13.03
423.351	13.02
423.712	13.04
424.073	13.11
424.434	13.1
424.795	13.25
425.155	13.31
425.516	13.23
425.877	13.32
426.238	13.4
426.598	13.3
426.959	13.46
427.32	13.39
427.68	13.33
428.041	13.48
428.401	13.69
428.761	13.56
429.122	13.67
429.482	13.9
429.842	13.92
430.202	14.04
430.563	14.07
430.923	14.01
431.283	14.41
431.643	14.29
432.003	14.34
432.363	14.18
432.722	14.36
433.082	14.21
433.442	14.33
433.802	14.29
434.161	14.31
434.521	14.69
434.881	14.5
435.24	14.59
435.6	14.49
435.959	14.65
436.319	14.53
436.678	14.55
437.037	14.59
437.396	14.79
437.756	15.04
438.115	14.72
438.474	14.81
438.833	14.81
439.192	14.95
439.551	15.19
439.91	14.96
440.269	15.17
440.628	15
440.987	15.19
441.345	15.11
441.704	15.02
442.063	15.23
442.421	15.11
442.78	15.16
443.138	15.06
443.497	15.07
443.855	15.15
444.214	15.15
444.572	15.37
444.93	15.43
445.288	15.38
445.647	15.57
446.005	15.75
446.363	15.69
446.721	15.79
447.079	15.49
447.437	15.76
447.795	15.74
448.153	15.49
448.51	15.64
448.868	15.61
449.226	15.55
449.584	15.56
449.941	15.87
450.299	15.82
450.656	15.84
451.014	16
451.371	16
451.729	16.02
452.086	16.22
452.443	16.17
452.801	16.4
453.158	16.19
453.515	16.35
453.872	16.45
454.229	16.34
454.586	16.44
454.943	16.57
455.3	16.51
455.657	16.49
456.014	16.43
456.371	16.68
456.727	16.89
457.084	16.75
457.441	16.8
457.797	16.79
458.154	16.97
458.51	17.11
458.867	16.92
459.223	17.23
459.58	17.13
459.936	17.36
460.292	17.25
460.648	17.26
461.005	17.12
461.361	17.27
461.717	17.24
462.073	17
462.429	17.04
462.785	16.99
463.141	17.08
463.496	17.35
463.852	17.45
464.208	17.41
464.564	17.44
464.919	17.44
465.275	17.61
465.631	18
465.986	17.89
466.342	17.96
466.697	17.76
467.052	17.85
467.408	17.77
467.763	17.96
468.118	18.02
468.473	17.92
468.829	17.97
469.184	17.92
469.539	18.18
469.894	17.94
470.249	18.16
470.603	18.27
470.958	18.43
471.313	18.36
471.668	18.42
472.023	18.5
472.377	18.62
472.732	18.52
473.086	18.61
473.441	18.52
473.795	18.6
474.15	18.7
474.504	18.68
474.859	18.66
475.213	18.55
475.567	18.54
475.921	18.74
476.275	18.76
476.63	18.87
476.984	19.25
477.338	18.99
477.692	19.04
478.045	19.16
478.399	19.18
478.753	19.09
479.107	19.16
479.461	19.13
479.814	19.13
480.168	19.06
480.521	18.9
480.875	19.27
481.228	19.02
481.582	19.09
481.935	19.22
482.289	19.56
482.642	19.41
482.995	19.53
483.348	19.53
483.701	19.24
484.055	19.51
484.408	19.36
484.761	19.27
485.114	19.3
485.466	19.03
485.819	18.97
486.172	18.65
486.525	18.6
486.878	18.47
487.23	18.64
487.583	18.89
487.936	19.31
488.288	19.41
488.641	19.61
488.993	19.39
489.345	19.35
489.698	19.26
490.05	19.14
490.402	19.25
490.754	19.28
491.107	19.46
491.459	19.51
491.811	19.78
492.163	19.92
492.515	20.07
492.866	20.21
493.218	20.1
493.57	19.99
493.922	19.79
494.274	19.76
494.625	19.87
494.977	19.93
495.328	20.12
495.68	20.46
496.031	20.65
496.383	20.7
496.734	20.85
497.086	21.04
497.437	21.12
497.788	21.05
498.139	20.91
498.49	21.2
498.842	20.99
499.193	20.92
499.544	20.9
499.894	20.91
500.245	20.96
500.596	21
500.947	21.23
501.298	21.08
501.648	21.17
501.999	21.36
502.35	21.3
502.7	21.53
503.051	21.38
503.401	21.58
503.752	21.7
504.102	21.75
504.452	21.74
504.803	21.91
505.153	21.75
505.503	21.81
505.853	21.98
506.203	22
506.553	21.79
506.903	21.83
507.253	21.79
507.603	21.96
507.953	22.11
508.303	22.25
508.652	22.01
509.002	22.24
509.352	22.26
509.701	22.23
510.051	22.3
510.4	22.32
510.75	22.29
511.099	22.36
511.449	22.2
511.798	22.15
512.147	22.41
512.496	22.25
512.846	22.28
513.195	22.21
513.544	22.53
513.893	22.51
514.242	22.5
514.591	22.5
514.939	22.48
515.288	22.42
515.637	22.73
515.986	22.86
516.334	22.72
516.683	22.85
517.032	22.94
517.38	22.91
517.729	23.09
518.077	22.93
518.426	23.11
518.774	23.1
519.122	23.11
519.47	23.1
519.819	22.87
520.167	23.01
520.515	22.75
520.863	22.78
521.211	22.79
521.559	22.81
521.907	22.84
522.255	22.97
522.602	23.17
522.95	23.24
523.298	23.3
523.645	23.39
523.993	23.73
524.341	23.53
524.688	23.61
525.036	23.6
525.383	23.67
525.73	23.89
526.078	23.77
526.425	23.82
526.772	23.83
527.119	23.7
527.466	23.64
527.814	23.61
528.161	23.52
528.508	23.39
528.854	23.37
529.201	23.58
529.548	23.52
529.895	23.61
530.242	23.38
530.588	23.31
530.935	23.16
531.282	23.02
531.628	22.88
531.975	23.07
532.321	23.26
532.667	23.54
533.014	23.88
533.36	23.84
533.706	23.91
534.052	24.2
534.399	24.11
534.745	24.03
535.091	24.07
535.437	23.99
535.783	23.8
536.129	23.76
536.474	23.75
536.82	24.03
537.166	24.26
537.512	24.41
537.857	24.46
538.203	24.56
538.549	24.5
538.894	24.42
539.239	24.42
539.585	24.54
539.93	24.29
540.276	24.78
540.621	24.86
540.966	24.96
541.311	25.04
541.656	25.23
542.001	25.15
542.346	25.13
542.691	25.05
543.036	24.99
543.381	24.77
543.726	24.6
544.071	24.46
544.415	24.46
544.76	24.54
545.105	24.75
545.449	24.85
545.794	25.05
546.138	25.11
546.483	25.27
546.827	25.3
547.171	25.46
547.516	25.66
547.86	25.64
548.204	25.67
548.548	25.74
548.892	25.84
549.236	25.61
549.58	25.76
549.924	25.77
550.268	25.97
550.612	25.96
550.956	26.16
551.3	26.22
551.643	26.26
551.987	26.39
552.33	26.22
552.674	26.48
553.017	26.39
553.361	26.66
553.704	26.86
554.048	26.8
554.391	26.81
554.734	26.61
555.077	26.69
555.42	26.69
555.764	26.34
556.107	26.38
556.45	26.65
556.793	26.77
557.135	26.99
557.478	27.19
557.821	27.07
558.164	27.11
558.507	26.9
558.849	27.31
559.192	27.09
559.534	27.27
559.877	27.31
560.219	27.27
560.562	27.49
560.904	27.53
561.246	27.41
561.589	27.82
561.931	27.47
562.273	27.54
562.615	27.59
562.957	27.82
563.299	27.83
563.641	27.83
563.983	27.76
564.325	27.52
564.667	27.63
565.008	27.78
565.35	27.67
565.692	27.7
566.033	27.92
566.375	27.97
566.716	28.03
567.058	28.07
567.399	27.89
567.741	27.8
568.082	28.12
568.423	27.74
568.764	27.75
569.105	27.79
569.447	27.94
569.788	27.81
570.129	28.27
570.47	28.41
570.811	28.33
571.151	28.29
571.492	28.28
571.833	28.5
572.174	28.33
572.514	28.3
572.855	28.5
573.195	28.65
573.536	28.5
573.876	28.37
574.217	28.46
574.557	28.53
574.898	28.47
575.238	28.69
575.578	28.42
575.918	28.54
576.258	28.7
576.598	29
576.938	28.89
577.278	28.7
577.618	28.9
577.958	28.72
578.298	28.82
578.638	28.84
578.977	29.07
579.317	28.92
579.657	29.22
579.996	29.31
580.336	29.3
580.675	29.17
581.014	29.4
581.354	29.01
581.693	29.37
582.032	29.35
582.372	29.42
582.711	29.48
583.05	29.54
583.389	29.61
583.728	29.51
584.067	29.91
584.406	29.54
584.745	29.95
585.083	30.02
585.422	29.99
585.761	29.76
586.1	29.88
586.438	29.99
586.777	29.91
587.115	30.13
587.454	30.05
587.792	29.91
588.13	30.34
588.469	30.04
588.807	30.31
589.145	29.91
589.483	30.25
589.821	29.88
590.159	30.44
590.497	30.82
590.835	30.66
591.173	30.37
591.511	30.59
591.849	30.44
592.187	30.41
592.524	30.18
592.862	30.54
593.2	30.62
593.537	30.63
593.875	30.48
594.212	30.4
594.55	30.53
594.887	30.73
595.224	30.62
595.561	30.47
595.899	30.8
596.236	31
596.573	30.95
596.91	30.61
597.247	30.73
597.584	31.22
597.921	30.8
598.258	30.77
598.594	30.97
598.931	30.85
599.268	31.1
599.604	30.89
599.941	30.98
600.277	30.85
600.614	30.79
600.95	30.62
601.287	31.39
601.623	31.24
601.959	31.09
602.296	31.29
602.632	31.36
602.968	31.17
603.304	31.43
603.64	31.7
603.976	31.85
604.312	31.53
604.648	31.55
604.984	31.87
605.319	31.79
605.655	31.57
605.991	32.06
606.326	31.54
606.662	31.65
606.998	31.71
607.333	31.48
607.668	31.65
608.004	31.56
608.339	32.04
608.674	31.76
609.01	31.58
609.345	31.54
609.68	31.96
610.015	31.84
610.35	32.22
610.685	32.09
611.02	32.28
611.355	32.38
611.689	32.72
612.024	32.1
612.359	32.07
612.694	31.93
613.028	32.14
613.363	32.31
613.697	32.11
614.032	32.55
614.366	32.31
614.7	32.63
615.035	32.79
615.369	32.35
615.703	32.82
616.037	32.52
616.371	32.36
616.705	32.99
617.039	32.74
617.373	32.72
617.707	32.75
618.041	32.94
618.375	32.99
618.709	32.79
619.042	33.04
619.376	32.84
619.71	33.17
620.043	33.76
620.377	33.15
620.71	32.87
621.043	33.11
621.377	33.19
621.71	33.4
622.043	33.16
622.376	33.05
622.709	33.33
623.043	33.26
623.376	33.88
623.709	32.99
624.041	33.66
624.374	33.67
624.707	33.3
625.04	33.6
625.373	33.66
625.705	33.54
626.038	33.94
626.37	33.49
626.703	34
627.035	34.05
627.368	34.18
627.7	33.73
628.032	33.68
628.365	34.13
628.697	33.82
629.029	34.09
629.361	33.97
629.693	34.15
630.025	33.74
630.357	34.53
630.689	34.13
631.021	34.1
631.353	33.92
631.684	33.58
632.016	33.94
632.348	34.24
632.679	34.4
633.011	34
633.342	34.43
633.674	34.04
634.005	34.54
634.336	34.56
634.668	34.89
634.999	34.49
635.33	34.46
635.661	34.87
635.992	34.77
636.323	34.74
636.654	34.52
636.985	34.75
637.316	34.58
637.647	34.37
637.977	35
638.308	34.68
638.639	34.19
638.969	34.58
639.3	34.66
639.63	34.82
639.961	34.75
640.291	34.62
640.622	34.79
640.952	34.83
641.282	35.27
641.612	35.4
641.943	35.43
642.273	35.38
642.603	35.68
642.933	35.06
643.263	35.03
643.592	35.2
643.922	34.81
644.252	35.1
644.582	36.05
644.911	35.39
645.241	35.41
645.571	35.42
645.9	35.15
646.23	35.43
646.559	34.84
646.888	35.41
647.218	35.17
647.547	35.85
647.876	36.66
648.205	35.7
648.534	35.34
648.863	35.39
649.192	35.63
649.521	35.5
649.85	36.02
650.179	35.94
650.508	35.41
650.837	36.04
651.165	35.63
651.494	35.73
651.822	35.71
652.151	35.98
652.479	36
652.808	36.42
653.136	36.25
653.465	35.57
653.793	35.85
654.121	35.8
654.449	36.07
654.777	36.41
655.105	36.23
655.433	35.59
655.761	35.93
656.089	36.02
656.417	36.28
656.745	36.05
657.073	35.83
657.4	36.51
657.728	36.57
658.056	36.72
658.383	36.2
658.711	36.95
659.038	36.95
659.365	37.12
659.693	36.41
660.02	36.95
660.347	36.64
660.674	36.69
661.001	37.25
661.329	36.13
661.656	36.86
661.982	36.24
662.309	36.61
662.636	36.33
662.963	36.87
663.29	36.57
663.616	37.06
663.943	36.12
664.27	35.75
664.596	36.9
664.923	37
665.249	37.19
665.576	36.99
665.902	37.38
666.228	37.1
666.554	37.01
666.881	37.42
667.207	38.14
667.533	37.67
667.859	37.38
668.185	37.56
668.511	36.62
668.837	37.05
669.162	37.45
669.488	37.3
669.814	37.63
670.139	37.81
670.465	37.82
670.791	37.24
671.116	38.18
671.442	37.44
671.767	37.68
672.092	37.56
672.418	37.83
672.743	37.52
673.068	37.39
673.393	37.07
