Data from 0399_forehead_Reflection__3__213.txt Node

Date: Fri Dec 15 18:20:26 CST 2023
User: ToomeyLab
Spectrometer: FLMS14357
Trigger mode: 0
Integration Time (sec): 1.000000E-2
Scans to average: 100
Electric dark correction enabled: true
Nonlinearity correction enabled: false
Boxcar width: 0
XAxis mode: Wavelengths
Number of Pixels in Spectrum: 2048
>>>>>Begin Spectral Data<<<<<
189.047	-563.46
189.435	-563.46
189.823	-563.46
190.211	100.86
190.599	-501.13
190.987	33.41
191.375	-23.97
191.763	166.43
192.151	-156.46
192.538	67.65
192.926	565.57
193.314	105.85
193.702	929.49
194.089	59.86
194.477	30.42
194.864	-19.52
195.252	133.66
195.639	65.98
196.027	-75.12
196.414	154.21
196.801	437.59
197.189	77.49
197.576	185.54
197.963	103.6
198.351	-5.39
198.738	29.1
199.125	45.59
199.512	-32.91
199.899	15.71
200.286	27.45
200.673	85.59
201.06	-9.95
201.447	3.07
201.833	-9.15
202.22	63.78
202.607	13.54
202.994	-35.29
203.38	28.76
203.767	56.1
204.154	10.81
204.54	25.95
204.927	-17.05
205.313	-41.39
205.699	23.7
206.086	20.81
206.472	75.8
206.858	57.3
207.245	-6.71
207.631	39.19
208.017	6.4
208.403	-24.38
208.789	56.4
209.175	23.82
209.561	-35.68
209.947	-29.32
210.333	-32.34
210.719	6.91
211.105	46.51
211.491	-12.64
211.876	53.8
212.262	23.36
212.648	13.08
213.034	51.48
213.419	9.01
213.805	-11.02
214.19	-10.77
214.576	-21.4
214.961	-63.89
215.346	-88.95
215.732	36.08
216.117	8.8
216.502	-24.35
216.888	-16.18
217.273	16.85
217.658	-5.46
218.043	41.29
218.428	-14.33
218.813	-20.23
219.198	8.24
219.583	8.76
219.968	22.06
220.353	-41.97
220.738	27.55
221.122	9.4
221.507	-3.83
221.892	-46.38
222.276	-16.18
222.661	14.02
223.046	15.59
223.43	16
223.815	27.65
224.199	-11.99
224.583	4.62
224.968	7.39
225.352	15.67
225.736	5.19
226.121	-8.2
226.505	8.95
226.889	9.76
227.273	4.21
227.657	6.65
228.041	4.06
228.425	4.75
228.809	9.33
229.193	2.25
229.577	3.51
229.961	5.86
230.344	4.59
230.728	5.5
231.112	6.32
231.495	6.2
231.879	4.12
232.263	5.68
232.646	5.64
233.03	5.56
233.413	4.61
233.797	7.33
234.18	5.44
234.563	4.05
234.946	4.72
235.33	5.33
235.713	4.1
236.096	5.92
236.479	7.44
236.862	5.23
237.245	8.88
237.628	5.12
238.011	6.08
238.394	4.68
238.777	5.03
239.16	4.13
239.543	6.96
239.925	7.02
240.308	4.75
240.691	7.06
241.073	4.76
241.456	5.44
241.838	4.82
242.221	4.47
242.603	5.27
242.986	5.81
243.368	5.36
243.75	5.13
244.133	5.31
244.515	5.48
244.897	5.44
245.279	6.02
245.661	5.32
246.043	3.77
246.425	4.98
246.807	7.54
247.189	5.65
247.571	5.31
247.953	5.71
248.335	5.34
248.717	5.66
249.098	5.19
249.48	4.84
249.862	5.15
250.243	4.82
250.625	5.37
251.006	5.68
251.388	4.13
251.769	5.42
252.151	6.63
252.532	5.27
252.913	4.77
253.295	4.1
253.676	4.75
254.057	5.57
254.438	5.07
254.819	4.2
255.2	5.6
255.581	5.17
255.962	4.99
256.343	5.72
256.724	4.08
257.105	5.63
257.486	4.32
257.867	5.32
258.247	4.91
258.628	5
259.009	4.05
259.389	6.27
259.77	4.76
260.15	4.55
260.531	4.9
260.911	5.7
261.292	5.27
261.672	5.26
262.052	5
262.432	5.06
262.813	5.04
263.193	4.92
263.573	5.07
263.953	4.69
264.333	5.89
264.713	4.83
265.093	4.7
265.473	5.05
265.853	3.87
266.233	6.28
266.612	3.3
266.992	4.02
267.372	5.83
267.752	4.85
268.131	4.74
268.511	5.17
268.89	4.91
269.27	4.58
269.649	4.32
270.029	4.16
270.408	5.83
270.787	4.61
271.167	4.94
271.546	4.46
271.925	4.49
272.304	4.62
272.683	5.25
273.062	4.46
273.441	5.1
273.82	4.17
274.199	4.72
274.578	4.79
274.957	4.6
275.336	4.84
275.715	4.35
276.093	4.85
276.472	5.07
276.851	4.49
277.229	4.33
277.608	4.49
277.986	4.67
278.365	5.02
278.743	4.67
279.122	5.27
279.5	5.13
279.878	5.3
280.257	5.06
280.635	4.43
281.013	5.03
281.391	4.87
281.769	4.69
282.147	5.09
282.525	5.42
282.903	4.47
283.281	5.15
283.659	4.84
284.037	4.89
284.415	4.65
284.792	4.64
285.17	4.03
285.548	4.46
285.925	5.06
286.303	5.08
286.68	4.77
287.058	4.84
287.435	4.85
287.813	4.63
288.19	4.7
288.567	4.33
288.945	5.07
289.322	4.48
289.699	4.68
290.076	4.64
290.453	4.8
290.83	4.79
291.207	4.65
291.584	5.09
291.961	5.21
292.338	4.87
292.715	5.22
293.092	5
293.469	5.22
293.845	5.01
294.222	5
294.599	5.36
294.975	4.53
295.352	5.34
295.728	4.6
296.105	4.91
296.481	5.51
296.858	5.34
297.234	4.96
297.61	5.42
297.986	5.15
298.363	5.11
298.739	5.18
299.115	4.66
299.491	5.09
299.867	4.96
300.243	5.26
300.619	5.1
300.995	4.92
301.371	5.43
301.746	5.39
302.122	5.34
302.498	5.37
302.874	5.61
303.249	5.75
303.625	5.37
304	5.68
304.376	5.3
304.751	4.74
305.127	6.41
305.502	5.25
305.878	4.97
306.253	5.57
306.628	5.79
307.003	5.32
307.378	6.24
307.754	5.84
308.129	5.36
308.504	5.51
308.879	4.77
309.254	6.3
309.629	6.57
310.003	6.24
310.378	6.24
310.753	6.41
311.128	6.17
311.502	6.06
311.877	6.52
312.252	5.52
312.626	6.23
313.001	6.06
313.375	6.37
313.75	6.31
314.124	6.19
314.498	6.18
314.873	6.23
315.247	6.52
315.621	6.92
315.995	6.01
316.369	6.71
316.743	6.36
317.117	6.7
317.491	6.64
317.865	6.86
318.239	6.9
318.613	7.04
318.987	7.5
319.361	6.51
319.734	7.64
320.108	7.29
320.482	7.55
320.855	7.32
321.229	7.05
321.602	6.49
321.976	6.93
322.349	7.41
322.723	6.85
323.096	7.61
323.469	7.15
323.843	7.7
324.216	7.9
324.589	6.74
324.962	7.53
325.335	7.8
325.708	7.61
326.081	7.44
326.454	7.6
326.827	7.26
327.2	7.64
327.573	7.76
327.945	7.88
328.318	7.47
328.691	7.42
329.063	7.24
329.436	7.5
329.809	8.14
330.181	7.25
330.553	8.02
330.926	8.4
331.298	8.56
331.671	8.26
332.043	8.1
332.415	8.52
332.787	8.15
333.159	8.59
333.532	9.08
333.904	7.95
334.276	8.04
334.648	8.7
335.02	8.1
335.391	8.24
335.763	8.16
336.135	7.84
336.507	8.82
336.879	8.32
337.25	7.98
337.622	8.15
337.993	8.31
338.365	9
338.736	8.35
339.108	9.12
339.479	8.05
339.851	8.63
340.222	8.6
340.593	8.96
340.964	8.39
341.336	9.41
341.707	8.62
342.078	9.17
342.449	9.2
342.82	8.54
343.191	8.92
343.562	8.99
343.933	8.88
344.303	9.52
344.674	9.32
345.045	9.36
345.416	9.83
345.786	8.76
346.157	9.87
346.527	8.98
346.898	9.23
347.268	9.68
347.639	9.01
348.009	9.41
348.38	9.08
348.75	9.12
349.12	9.34
349.49	9.97
349.861	9.39
350.231	9.2
350.601	9.81
350.971	9.9
351.341	9.67
351.711	9.8
352.081	9.9
352.45	9.34
352.82	9.96
353.19	10.01
353.56	9.48
353.929	10.37
354.299	10
354.669	9.67
355.038	10.3
355.408	10.21
355.777	10
356.147	10.06
356.516	10.27
356.885	10.58
357.254	10.45
357.624	10.42
357.993	10.38
358.362	9.88
358.731	10.32
359.1	10.28
359.469	10.22
359.838	10.32
360.207	9.9
360.576	10.34
360.945	10.31
361.314	10.67
361.682	10.36
362.051	10.3
362.42	10.69
362.788	10.79
363.157	10.95
363.525	11.23
363.894	10.64
364.262	10.98
364.631	10.64
364.999	11
365.367	10.69
365.735	11.59
366.104	11.13
366.472	11.19
366.84	10.89
367.208	11.01
367.576	10.85
367.944	11.55
368.312	10.9
368.68	11.09
369.048	11.43
369.416	11.58
369.783	11.12
370.151	11.52
370.519	11.65
370.886	11.52
371.254	11.76
371.621	11.83
371.989	11.92
372.356	11.13
372.724	11.82
373.091	11.19
373.458	11.52
373.826	11.55
374.193	12.06
374.56	11.97
374.927	12.08
375.294	11.74
375.661	11.84
376.028	11.45
376.395	11.94
376.762	12.17
377.129	12.14
377.496	12.13
377.863	11.97
378.229	11.79
378.596	12.31
378.963	12.23
379.329	12.36
379.696	12.31
380.062	12.23
380.429	12.35
380.795	12.55
381.161	12.54
381.528	12.69
381.894	12.9
382.26	12.49
382.626	12.69
382.993	12.4
383.359	12.66
383.725	12.5
384.091	13.13
384.457	13.48
384.823	12.89
385.188	12.9
385.554	12.89
385.92	13.16
386.286	13.29
386.651	13.23
387.017	13.75
387.383	12.88
387.748	12.76
388.114	13.26
388.479	13.13
388.845	13.71
389.21	13.73
389.575	13.5
389.94	13.42
390.306	13.4
390.671	13.79
391.036	13.21
391.401	13.35
391.766	13.52
392.131	13.79
392.496	13.71
392.861	13.71
393.226	13.85
393.591	13.97
393.956	13.9
394.32	13.88
394.685	13.5
395.05	13.56
395.414	14.1
395.779	13.73
396.143	14.1
396.508	14.17
396.872	14.15
397.236	14.13
397.601	13.94
397.965	14.35
398.329	14.45
398.694	14.4
399.058	14.25
399.422	14.03
399.786	14.72
400.15	14.47
400.514	14.61
400.878	14.45
401.242	14.61
401.605	14.7
401.969	14.47
402.333	14.75
402.697	14.83
403.06	14.88
403.424	14.52
403.787	14.68
404.151	15.07
404.514	14.9
404.878	15.01
405.241	14.98
405.604	15.18
405.968	15.06
406.331	15.1
406.694	15.11
407.057	14.78
407.42	15.21
407.783	15
408.146	15.51
408.509	15.2
408.872	14.88
409.235	15.58
409.598	15.27
409.961	15.43
410.323	15.26
410.686	15.33
411.049	15.6
411.411	15.37
411.774	15.81
412.136	15.53
412.499	15.57
412.861	15.5
413.223	15.69
413.586	15.54
413.948	15.44
414.31	15.61
414.672	15.53
415.035	15.99
415.397	16.19
415.759	15.5
416.121	16.11
416.483	15.77
416.845	16.16
417.206	16.3
417.568	16.31
417.93	16.18
418.292	16.26
418.653	16.26
419.015	16.42
419.377	16.2
419.738	16.36
420.1	16.13
420.461	16.3
420.822	16.39
421.184	16.28
421.545	16.39
421.906	16.29
422.267	16.31
422.629	16.53
422.99	16.52
423.351	16.59
423.712	16.62
424.073	16.41
424.434	16.53
424.795	16.86
425.155	16.87
425.516	16.76
425.877	16.84
426.238	16.8
426.598	16.93
426.959	16.83
427.32	16.87
427.68	17.06
428.041	17.02
428.401	17.15
428.761	17.31
429.122	17.3
429.482	17.35
429.842	17.67
430.202	17.64
430.563	17.55
430.923	17.65
431.283	17.97
431.643	17.65
432.003	17.94
432.363	18.21
432.722	18.09
433.082	18.11
433.442	18.29
433.802	18.13
434.161	18.21
434.521	18.46
434.881	18.56
435.24	18.33
435.6	18.47
435.959	18.27
436.319	18.24
436.678	18.58
437.037	18.43
437.396	18.6
437.756	18.82
438.115	18.61
438.474	18.9
438.833	18.67
439.192	18.82
439.551	19.11
439.91	19.01
440.269	18.82
440.628	19.11
440.987	19.07
441.345	18.84
441.704	19.16
442.063	19.25
442.421	19.16
442.78	19.26
443.138	19.11
443.497	19.05
443.855	19.04
444.214	19.14
444.572	19.41
444.93	19.7
445.288	19.46
445.647	19.56
446.005	19.68
446.363	19.91
446.721	19.86
447.079	19.59
447.437	19.64
447.795	20.07
448.153	19.72
448.51	19.79
448.868	19.84
449.226	19.78
449.584	19.79
449.941	19.98
450.299	20.1
450.656	20.3
451.014	20.11
451.371	20.34
451.729	20.34
452.086	20.51
452.443	20.36
452.801	20.47
453.158	20.87
453.515	20.55
453.872	20.65
454.229	20.68
454.586	20.8
454.943	20.82
455.3	20.83
455.657	20.87
456.014	20.9
456.371	21.09
456.727	21.03
457.084	21.32
457.441	21.24
457.797	21.19
458.154	21.16
458.51	21.54
458.867	21.55
459.223	21.61
459.58	21.53
459.936	21.68
460.292	21.69
460.648	21.72
461.005	21.51
461.361	21.72
461.717	21.65
462.073	21.41
462.429	21.32
462.785	21.36
463.141	21.43
463.496	21.61
463.852	21.92
464.208	22.09
464.564	22.1
464.919	22.17
465.275	22.25
465.631	22.44
465.986	22.3
466.342	22.7
466.697	22.48
467.052	22.41
467.408	22.47
467.763	22.7
468.118	22.57
468.473	22.8
468.829	22.89
469.184	22.75
469.539	22.71
469.894	22.67
470.249	22.76
470.603	22.99
470.958	23.25
471.313	23.1
471.668	22.97
472.023	23.14
472.377	23.23
472.732	23.05
473.086	23.42
473.441	23.27
473.795	23.72
474.15	23.63
474.504	23.53
474.859	23.67
475.213	23.5
475.567	23.35
475.921	23.26
476.275	23.73
476.63	23.64
476.984	24.14
477.338	23.97
477.692	23.92
478.045	24.11
478.399	24.06
478.753	24.12
479.107	24.19
479.461	24.01
479.814	24.12
480.168	24.21
480.521	24.06
480.875	24.24
481.228	24.28
481.582	24.21
481.935	24.36
482.289	24.58
482.642	24.7
482.995	24.54
483.348	24.39
483.701	24.59
484.055	24.52
484.408	24.48
484.761	24.55
485.114	24.38
485.466	24.16
485.819	24.08
486.172	23.77
486.525	23.39
486.878	23.34
487.23	23.52
487.583	23.81
487.936	24.25
488.288	24.5
488.641	24.61
488.993	24.63
489.345	24.48
489.698	24.29
490.05	24.25
490.402	24.24
490.754	24.26
491.107	24.48
491.459	24.71
491.811	24.86
492.163	25.13
492.515	25.42
492.866	25.49
493.218	25.44
493.57	25.19
493.922	24.95
494.274	24.8
494.625	24.96
494.977	25.02
495.328	25.39
495.68	25.61
496.031	25.93
496.383	25.85
496.734	26.11
497.086	26.08
497.437	26.23
497.788	26.25
498.139	26.29
498.49	26.5
498.842	26.45
499.193	26.43
499.544	26.23
499.894	26.38
500.245	26.38
500.596	26.53
500.947	26.66
501.298	26.59
501.648	26.7
501.999	26.84
502.35	26.96
502.7	26.9
503.051	27.01
503.401	26.93
503.752	27.21
504.102	27.25
504.452	27.36
504.803	27.39
505.153	27.39
505.503	27.35
505.853	27.41
506.203	27.52
506.553	27.44
506.903	27.56
507.253	27.38
507.603	27.6
507.953	27.76
508.303	27.75
508.652	27.71
509.002	27.94
509.352	27.91
509.701	27.95
510.051	27.99
510.4	27.78
510.75	27.93
511.099	27.9
511.449	27.87
511.798	27.89
512.147	28.04
512.496	27.77
512.846	28.06
513.195	28.09
513.544	28.26
513.893	28.35
514.242	28.32
514.591	28.3
514.939	28.31
515.288	28.25
515.637	28.46
515.986	28.71
516.334	28.72
516.683	28.96
517.032	29.03
517.38	28.91
517.729	28.98
518.077	28.8
518.426	28.96
518.774	29.03
519.122	29.04
519.47	29.02
519.819	28.96
520.167	29.06
520.515	28.8
520.863	28.8
521.211	28.67
521.559	28.76
521.907	28.82
522.255	28.86
522.602	28.96
522.95	29.14
523.298	29.12
523.645	29.41
523.993	29.4
524.341	29.75
524.688	29.73
525.036	29.63
525.383	29.82
525.73	29.9
526.078	29.7
526.425	29.88
526.772	29.99
527.119	29.85
527.466	29.76
527.814	29.75
528.161	29.49
528.508	29.39
528.854	29.46
529.201	29.58
529.548	29.85
529.895	29.73
530.242	29.69
530.588	29.53
530.935	29.4
531.282	29.03
531.628	28.85
531.975	29.02
532.321	29.27
532.667	29.63
533.014	29.84
533.36	30.07
533.706	30.11
534.052	30.44
534.399	30.34
534.745	30.26
535.091	30.26
535.437	30.27
535.783	30
536.129	29.86
536.474	29.89
536.82	30.16
537.166	30.44
537.512	30.71
537.857	30.79
538.203	31.07
538.549	30.99
538.894	30.81
539.239	30.7
539.585	30.8
539.93	30.91
540.276	31.2
540.621	31.24
540.966	31.38
541.311	31.67
541.656	31.6
542.001	31.71
542.346	31.84
542.691	31.62
543.036	31.39
543.381	31.14
543.726	30.96
544.071	30.82
544.415	30.88
544.76	30.88
545.105	31.19
545.449	31.13
545.794	31.45
546.138	31.61
546.483	31.61
546.827	31.89
547.171	31.97
547.516	32.11
547.86	32.19
548.204	32.27
548.548	32.37
548.892	32.38
549.236	32.2
549.58	32.13
549.924	32.26
550.268	32.36
550.612	32.46
550.956	32.7
551.3	32.79
551.643	33.03
551.987	32.92
552.33	33.03
552.674	33.31
553.017	33.24
553.361	33.05
553.704	33.53
554.048	33.29
554.391	33.56
554.734	33.5
555.077	33.47
555.42	33.24
555.764	33.24
556.107	33.07
556.45	33.36
556.793	33.79
557.135	33.76
557.478	33.79
557.821	33.95
558.164	33.92
558.507	34.16
558.849	34.09
559.192	34.15
559.534	34.26
559.877	34.37
560.219	34.19
560.562	34.52
560.904	34.28
561.246	34.34
561.589	34.4
561.931	34.41
562.273	34.32
562.615	34.54
562.957	34.59
563.299	34.5
563.641	34.61
563.983	34.59
564.325	34.61
564.667	34.59
565.008	34.75
565.35	34.76
565.692	34.87
566.033	34.88
566.375	34.86
566.716	35.07
567.058	34.96
567.399	35.07
567.741	34.98
568.082	34.94
568.423	35.12
568.764	35.01
569.105	34.85
569.447	34.78
569.788	34.9
570.129	35.3
570.47	35.23
570.811	35.52
571.151	35.39
571.492	35.6
571.833	35.53
572.174	35.63
572.514	35.35
572.855	35.46
573.195	35.66
573.536	35.63
573.876	35.59
574.217	35.48
574.557	35.6
574.898	35.61
575.238	35.81
575.578	35.54
575.918	35.77
576.258	35.83
576.598	36.27
576.938	36.18
577.278	35.96
577.618	35.7
577.958	35.96
578.298	36.32
578.638	36.05
578.977	35.97
579.317	36.6
579.657	36.64
579.996	36.62
580.336	36.66
580.675	36.51
581.014	36.88
581.354	36.46
581.693	36.62
582.032	36.74
582.372	36.83
582.711	37.13
583.05	36.83
583.389	36.75
583.728	36.83
584.067	37.31
584.406	37.19
584.745	37.22
585.083	37.38
585.422	37.38
585.761	37.47
586.1	37.22
586.438	37.63
586.777	37.57
587.115	37.41
587.454	37.51
587.792	37.62
588.13	37.91
588.469	37.41
588.807	37.53
589.145	37.74
589.483	38.25
589.821	37.4
590.159	38.12
590.497	38.16
590.835	38.1
591.173	37.96
591.511	38.03
591.849	38.38
592.187	38.02
592.524	37.98
592.862	37.89
593.2	38.35
593.537	38.03
593.875	38.18
594.212	38.11
594.55	38.07
594.887	38.45
595.224	38.49
595.561	38.09
595.899	38.72
596.236	38.79
596.573	38.7
596.91	38.35
597.247	38.59
597.584	38.86
597.921	38.76
598.258	38.71
598.594	38.81
598.931	38.91
599.268	38.83
599.604	38.24
599.941	38.27
600.277	38.46
600.614	38.41
600.95	38.38
601.287	39.09
601.623	38.91
601.959	39.11
602.296	39.27
602.632	39.47
602.968	39.37
603.304	39.58
603.64	39.58
603.976	39.37
604.312	39.58
604.648	39.55
604.984	39.59
605.319	39.74
605.655	39.4
605.991	39.85
606.326	39.5
606.662	39.5
606.998	39.48
607.333	39.49
607.668	39.48
608.004	39.52
608.339	39.52
608.674	39.56
609.01	39.64
609.345	39.72
609.68	39.89
610.015	40.21
610.35	39.91
610.685	40.67
611.02	40.49
611.355	40.42
611.689	40.15
612.024	40.27
612.359	40.12
612.694	40.16
613.028	40.56
613.363	40.23
613.697	40.49
614.032	40.16
614.366	40.26
614.7	40.72
615.035	40.69
615.369	40.64
615.703	40.73
616.037	41.09
616.371	40.56
616.705	41.27
617.039	40.89
617.373	40.83
617.707	40.83
618.041	40.85
618.375	40.94
618.709	41.31
619.042	41.33
619.376	40.89
619.71	41.35
620.043	41.63
620.377	41.35
620.71	41.3
621.043	41.27
621.377	41.58
621.71	41.24
622.043	41.35
622.376	41.78
622.709	41.66
623.043	41.86
623.376	41.21
623.709	41.18
624.041	42.17
624.374	41.97
624.707	41.39
625.04	42.14
625.373	41.86
625.705	42.2
626.038	41.76
626.37	41.65
626.703	42.16
627.035	42.04
627.368	42.57
627.7	42.07
628.032	41.97
628.365	42.2
628.697	42.59
629.029	42.31
629.361	41.92
629.693	42.53
630.025	42.04
630.357	42.42
630.689	42.05
631.021	42.31
631.353	41.86
631.684	42.33
632.016	42.75
632.348	42.38
632.679	42.83
633.011	42.91
633.342	43.12
633.674	42.35
634.005	42.9
634.336	42.5
634.668	43.78
634.999	43.2
635.33	43.24
635.661	43.18
635.992	43.14
636.323	42.8
636.654	43.3
636.985	43.22
637.316	42.98
637.647	42.84
637.977	42.97
638.308	42.73
638.639	42.73
638.969	43.34
639.3	43.2
639.63	43.52
639.961	43.26
640.291	43.59
640.622	43.18
640.952	43.37
641.282	43.5
641.612	44.03
641.943	43.63
642.273	43.76
642.603	44.25
642.933	43.92
643.263	43.76
643.592	44.64
643.922	44.03
644.252	43.75
644.582	44.15
644.911	44.18
645.241	44.48
645.571	43.84
645.9	43.34
646.23	44.14
646.559	43.73
646.888	44.09
647.218	44.17
647.547	44.42
647.876	44.49
648.205	44.71
648.534	43.65
648.863	44.45
649.192	44.71
649.521	44.07
649.85	44.49
650.179	44.57
650.508	44.69
650.837	44.73
651.165	44.66
651.494	44.7
651.822	44.87
652.151	44.28
652.479	44.45
652.808	44.96
653.136	44.53
653.465	44.37
653.793	44.73
654.121	44.42
654.449	44.85
654.777	45.07
655.105	45.54
655.433	45.17
655.761	45.3
656.089	45.16
656.417	45.19
656.745	45.24
657.073	44.63
657.4	44.81
657.728	45.48
658.056	45.07
658.383	45.14
658.711	46.01
659.038	45.59
659.365	45.91
659.693	45.44
660.02	45.42
660.347	45.58
660.674	45.84
661.001	46.16
661.329	45.83
661.656	45.7
661.982	45.83
662.309	45.52
662.636	45.47
662.963	45.75
663.29	45.59
663.616	45.25
663.943	45.65
664.27	45.42
664.596	46.21
664.923	46.17
665.249	46.08
665.576	45.85
665.902	46.69
666.228	46.33
666.554	45.82
666.881	46.74
667.207	46.9
667.533	45.86
667.859	46.31
668.185	46.61
668.511	46.36
668.837	45.6
669.162	46.68
669.488	46.12
669.814	46.77
670.139	46.75
670.465	47.03
670.791	46.71
671.116	47
671.442	46.66
