Data from 0399_chest_Reflection__3__203.txt Node

Date: Fri Dec 15 18:17:57 CST 2023
User: ToomeyLab
Spectrometer: FLMS14357
Trigger mode: 0
Integration Time (sec): 1.000000E-2
Scans to average: 100
Electric dark correction enabled: true
Nonlinearity correction enabled: false
Boxcar width: 0
XAxis mode: Wavelengths
Number of Pixels in Spectrum: 2048
>>>>>Begin Spectral Data<<<<<
189.047	-86.81
189.435	-86.81
189.823	-86.81
190.211	203.51
190.599	-428.05
190.987	126.68
191.375	-56.36
191.763	93.11
192.151	51.53
192.538	163.38
192.926	528.34
193.314	68.19
193.702	-273.33
194.089	115.95
194.477	11.15
194.864	13.19
195.252	123.23
195.639	30.49
196.027	-33.82
196.414	101.58
196.801	728.16
197.189	25.25
197.576	168.85
197.963	453.04
198.351	-24.87
198.738	36.47
199.125	27.66
199.512	-18.95
199.899	11.4
200.286	23.14
200.673	-19.07
201.06	-19.6
201.447	9.52
201.833	-3.01
202.22	56.97
202.607	12.96
202.994	-4.64
203.38	7.5
203.767	34.02
204.154	22.64
204.54	17.74
204.927	4.57
205.313	-35.77
205.699	37.84
206.086	74.51
206.472	19.5
206.858	-1.38
207.245	-23.57
207.631	6.71
208.017	11.02
208.403	41.13
208.789	18.11
209.175	40.61
209.561	-26.53
209.947	13.23
210.333	-144.52
210.719	20.26
211.105	27.82
211.491	-47.87
211.876	40.16
212.262	30.72
212.648	-6.68
213.034	27.94
213.419	-21.66
213.805	-16.82
214.19	-29.33
214.576	23.1
214.961	13.77
215.346	-49.27
215.732	-21.54
216.117	-4.43
216.502	-6.9
216.888	39.95
217.273	27.12
217.658	2.14
218.043	-1.59
218.428	-36.85
218.813	-17.65
219.198	-33.36
219.583	15.65
219.968	31.59
220.353	-20.23
220.738	21.47
221.122	19.31
221.507	-15.48
221.892	-70.21
222.276	-7.24
222.661	-8.17
223.046	-1.45
223.43	-0.96
223.815	15.95
224.199	2.51
224.583	-3.72
224.968	8.29
225.352	13.79
225.736	-0.69
226.121	-8.17
226.505	8.13
226.889	5.79
227.273	6.42
227.657	15.05
228.041	7.15
228.425	2.35
228.809	6.38
229.193	10.19
229.577	3.65
229.961	4.39
230.344	4.54
230.728	4.14
231.112	5.33
231.495	4.61
231.879	2.76
232.263	4.56
232.646	3.95
233.03	3.2
233.413	5.17
233.797	5.61
234.18	2.6
234.563	3.91
234.946	3.78
235.33	6.17
235.713	4.83
236.096	4.5
236.479	4.24
236.862	4.28
237.245	4.28
237.628	3.99
238.011	5.35
238.394	5.27
238.777	5.04
239.16	3.55
239.543	5.83
239.925	6.3
240.308	3.87
240.691	5.29
241.073	5.6
241.456	3.61
241.838	4.47
242.221	5.39
242.603	4.77
242.986	5
243.368	5.24
243.75	5.52
244.133	4.75
244.515	5.08
244.897	5.05
245.279	5.28
245.661	4.65
246.043	4.02
246.425	3.41
246.807	5.31
247.189	4.59
247.571	4.23
247.953	5.79
248.335	4.99
248.717	4.91
249.098	5.2
249.48	5.14
249.862	5.07
250.243	5.25
250.625	4.99
251.006	5.15
251.388	3.57
251.769	4.3
252.151	5.24
252.532	5.16
252.913	5.73
253.295	3.93
253.676	4.74
254.057	4.91
254.438	4.98
254.819	4.5
255.2	4.06
255.581	4.19
255.962	4.48
256.343	5.33
256.724	3.29
257.105	5.96
257.486	3.85
257.867	4.92
258.247	4.66
258.628	4.76
259.009	5.36
259.389	5.01
259.77	4.87
260.15	4.42
260.531	4.2
260.911	5.24
261.292	4.75
261.672	4.92
262.052	4.71
262.432	4.82
262.813	4.96
263.193	4.05
263.573	3.99
263.953	4.3
264.333	5.12
264.713	5.05
265.093	4.22
265.473	4.32
265.853	3.76
266.233	4.5
266.612	2.88
266.992	3.5
267.372	4.28
267.752	4.35
268.131	4.47
268.511	4.76
268.89	4.88
269.27	4.52
269.649	3.76
270.029	3.74
270.408	5
270.787	4.42
271.167	4.66
271.546	4.25
271.925	3.53
272.304	4.41
272.683	4.68
273.062	4.16
273.441	4.43
273.82	3.94
274.199	4.53
274.578	4.31
274.957	4.42
275.336	4.37
275.715	3.36
276.093	3.72
276.472	4.21
276.851	3.9
277.229	4.13
277.608	4.14
277.986	4.67
278.365	4.27
278.743	4.02
279.122	4.2
279.5	4.5
279.878	4.27
280.257	4.35
280.635	3.58
281.013	4.13
281.391	4.37
281.769	4.29
282.147	4.53
282.525	4.66
282.903	4.04
283.281	4.58
283.659	4.42
284.037	4.77
284.415	4.18
284.792	4.6
285.17	3.98
285.548	4.26
285.925	4.81
286.303	4.39
286.68	4.31
287.058	4.28
287.435	4.31
287.813	4.1
288.19	4.43
288.567	3.89
288.945	4.6
289.322	4.51
289.699	4.37
290.076	4.05
290.453	4.72
290.83	4.01
291.207	3.96
291.584	4.84
291.961	4.8
292.338	4.69
292.715	4.92
293.092	4.15
293.469	4.35
293.845	5.28
294.222	4.29
294.599	4.38
294.975	4.79
295.352	4.82
295.728	4.43
296.105	4.61
296.481	5.1
296.858	5.16
297.234	5.07
297.61	4.87
297.986	4.65
298.363	4.91
298.739	5.16
299.115	4.93
299.491	4.8
299.867	4.96
300.243	5.2
300.619	4.48
300.995	4.28
301.371	5.16
301.746	4.44
302.122	5.36
302.498	5.32
302.874	5.02
303.249	5.14
303.625	4.95
304	5.27
304.376	5.02
304.751	4.37
305.127	5.56
305.502	4.9
305.878	4.33
306.253	4.83
306.628	5.61
307.003	4.63
307.378	5.62
307.754	5.15
308.129	4.77
308.504	5.61
308.879	4.74
309.254	6.28
309.629	5.82
310.003	5.37
310.378	5.55
310.753	5.61
311.128	5.47
311.502	5.17
311.877	5.76
312.252	5.2
312.626	5.56
313.001	5.29
313.375	5.3
313.75	5.01
314.124	5.43
314.498	4.98
314.873	5.16
315.247	5.24
315.621	5.89
315.995	5.15
316.369	5.34
316.743	5.67
317.117	5.88
317.491	4.93
317.865	5.16
318.239	5.35
318.613	5.96
318.987	5.34
319.361	5.13
319.734	5.79
320.108	5.88
320.482	5.2
320.855	6.03
321.229	5.6
321.602	5.75
321.976	5.57
322.349	5.61
322.723	5.73
323.096	6.25
323.469	4.75
323.843	6.2
324.216	6.55
324.589	5.72
324.962	5.95
325.335	6.28
325.708	5.77
326.081	5.57
326.454	6.49
326.827	5.91
327.2	5.96
327.573	6.81
327.945	6.05
328.318	5.67
328.691	5.42
329.063	6.16
329.436	5.58
329.809	6.21
330.181	5.28
330.553	5.63
330.926	5.3
331.298	5.71
331.671	5.43
332.043	6.47
332.415	5.82
332.787	5.79
333.159	6.57
333.532	6.44
333.904	5.81
334.276	6
334.648	5.72
335.02	5.87
335.391	5.73
335.763	5.56
336.135	5.6
336.507	6.35
336.879	6.34
337.25	5.43
337.622	5.81
337.993	6.05
338.365	6.23
338.736	6.36
339.108	6.12
339.479	5.77
339.851	6.16
340.222	5.58
340.593	6.04
340.964	5.53
341.336	6.23
341.707	6
342.078	6.33
342.449	5.81
342.82	5.75
343.191	6.51
343.562	6.14
343.933	6.15
344.303	6.22
344.674	6.28
345.045	5.79
345.416	6.9
345.786	5.92
346.157	6.23
346.527	5.34
346.898	5.55
347.268	5.91
347.639	5.86
348.009	6.29
348.38	5.18
348.75	5.61
349.12	6.31
349.49	6.11
349.861	6.09
350.231	5.85
350.601	5.75
350.971	6.16
351.341	6.31
351.711	6.09
352.081	6.19
352.45	6.13
352.82	5.98
353.19	5.86
353.56	5.66
353.929	5.76
354.299	5.96
354.669	5.43
355.038	6.28
355.408	6.54
355.777	6.25
356.147	5.65
356.516	6.14
356.885	6.02
357.254	6.15
357.624	6.93
357.993	5.93
358.362	5.99
358.731	5.64
359.1	6.03
359.469	6.07
359.838	5.99
360.207	6.12
360.576	5.91
360.945	5.91
361.314	6.62
361.682	5.67
362.051	5.74
362.42	5.89
362.788	6.03
363.157	6.21
363.525	6.34
363.894	6.2
364.262	5.93
364.631	6.01
364.999	6.3
365.367	5.69
365.735	6.71
366.104	6.33
366.472	6.3
366.84	6.14
367.208	5.78
367.576	6.26
367.944	6.68
368.312	6.23
368.68	5.76
369.048	5.82
369.416	6.19
369.783	5.54
370.151	6.23
370.519	6.33
370.886	6.2
371.254	5.91
371.621	6.47
371.989	6.68
372.356	6.02
372.724	6.01
373.091	6.17
373.458	6.04
373.826	6.1
374.193	5.96
374.56	6.26
374.927	6.11
375.294	6.21
375.661	6.05
376.028	6.17
376.395	5.73
376.762	5.94
377.129	6.14
377.496	5.95
377.863	5.86
378.229	5.56
378.596	6.3
378.963	5.95
379.329	5.89
379.696	6.11
380.062	6.13
380.429	6.3
380.795	6.27
381.161	6.11
381.528	6.03
381.894	6.1
382.26	6.14
382.626	6.1
382.993	5.78
383.359	6.47
383.725	6.1
384.091	6.19
384.457	6.41
384.823	5.98
385.188	6.13
385.554	6.14
385.92	6.43
386.286	6.3
386.651	6.43
387.017	6.36
387.383	6.19
387.748	6.28
388.114	6.5
388.479	5.88
388.845	6.43
389.21	6.44
389.575	6.23
389.94	6.29
390.306	6
390.671	6.27
391.036	6.07
391.401	5.86
391.766	6.29
392.131	6.08
392.496	6.34
392.861	6.2
393.226	6.55
393.591	6.29
393.956	6.07
394.32	6.16
394.685	5.99
395.05	6.23
395.414	6.46
395.779	6.12
396.143	6.23
396.508	6.49
396.872	6.29
397.236	6.54
397.601	6.09
397.965	6.23
398.329	6.42
398.694	6.28
399.058	6.72
399.422	5.89
399.786	6.39
400.15	6.62
400.514	6.38
400.878	6.28
401.242	6.51
401.605	6.39
401.969	6.58
402.333	6.42
402.697	6.35
403.06	6.15
403.424	6.59
403.787	6.52
404.151	6.71
404.514	6.44
404.878	6.27
405.241	6.47
405.604	6.55
405.968	6.47
406.331	6.37
406.694	6.51
407.057	6.37
407.42	6.47
407.783	6.3
408.146	6.55
408.509	6.29
408.872	6.32
409.235	6.31
409.598	6.71
409.961	6.55
410.323	6.85
410.686	6.23
411.049	6.4
411.411	6.38
411.774	6.51
412.136	6.38
412.499	6.22
412.861	6.31
413.223	6.21
413.586	6.15
413.948	6.42
414.31	6.36
414.672	6.27
415.035	6.27
415.397	6.53
415.759	6.12
416.121	6.86
416.483	6.35
416.845	6.42
417.206	6.28
417.568	6.43
417.93	6.3
418.292	6.37
418.653	6.3
419.015	6.45
419.377	6.37
419.738	6.49
420.1	6.41
420.461	6.55
420.822	6.36
421.184	6.24
421.545	6.36
421.906	6.05
422.267	6.55
422.629	6.39
422.99	6.26
423.351	6.29
423.712	6.34
424.073	6.43
424.434	6.34
424.795	6.38
425.155	6.29
425.516	6.3
425.877	6.35
426.238	6.33
426.598	6.32
426.959	6.38
427.32	6.4
427.68	6.42
428.041	6.27
428.401	6.53
428.761	6.48
429.122	6.5
429.482	6.39
429.842	6.63
430.202	6.47
430.563	6.65
430.923	6.23
431.283	6.69
431.643	6.5
432.003	6.33
432.363	6.54
432.722	6.51
433.082	6.46
433.442	6.68
433.802	6.5
434.161	6.62
434.521	6.68
434.881	6.75
435.24	6.55
435.6	6.58
435.959	6.54
436.319	6.45
436.678	6.44
437.037	6.66
437.396	6.59
437.756	6.59
438.115	6.46
438.474	6.78
438.833	6.45
439.192	6.53
439.551	6.78
439.91	6.76
440.269	6.74
440.628	6.59
440.987	6.63
441.345	6.43
441.704	6.62
442.063	6.63
442.421	6.65
442.78	6.51
443.138	6.64
443.497	6.5
443.855	6.53
444.214	6.62
444.572	6.7
444.93	6.71
445.288	6.88
445.647	6.73
446.005	6.72
446.363	6.79
446.721	6.81
447.079	6.59
447.437	6.62
447.795	6.83
448.153	6.58
448.51	6.69
448.868	6.64
449.226	6.6
449.584	6.66
449.941	6.78
450.299	6.59
450.656	6.83
451.014	6.8
451.371	6.8
451.729	6.67
452.086	6.97
452.443	6.68
452.801	6.81
453.158	6.82
453.515	6.74
453.872	6.95
454.229	6.74
454.586	6.7
454.943	6.76
455.3	6.97
455.657	6.79
456.014	6.79
456.371	6.84
456.727	6.84
457.084	7
457.441	6.89
457.797	6.84
458.154	7.04
458.51	6.95
458.867	7.02
459.223	7
459.58	6.71
459.936	7.06
460.292	6.95
460.648	6.82
461.005	6.9
461.361	6.88
461.717	6.89
462.073	6.73
462.429	6.87
462.785	6.91
463.141	6.79
463.496	6.89
463.852	6.94
464.208	6.91
464.564	6.88
464.919	7.08
465.275	6.95
465.631	7.07
465.986	6.89
466.342	6.95
466.697	6.87
467.052	7.06
467.408	7.05
467.763	7.14
468.118	6.92
468.473	7.02
468.829	7.1
469.184	6.87
469.539	6.99
469.894	6.83
470.249	7.11
470.603	7.3
470.958	7.29
471.313	7.28
471.668	7.15
472.023	7.06
472.377	7.21
472.732	7.41
473.086	7.09
473.441	6.99
473.795	7.18
474.15	7.23
474.504	7.26
474.859	7.24
475.213	7.11
475.567	7.23
475.921	7.24
476.275	7.33
476.63	7.18
476.984	7.2
477.338	7.21
477.692	7.34
478.045	7.19
478.399	7.22
478.753	7.27
479.107	7.23
479.461	7.36
479.814	7.32
480.168	7.29
480.521	7.25
480.875	7.37
481.228	7.21
481.582	7.39
481.935	7.27
482.289	7.23
482.642	7.46
482.995	7.18
483.348	7.19
483.701	7.22
484.055	7.2
484.408	7.22
484.761	7.23
485.114	7.12
485.466	7.07
485.819	7.01
486.172	6.86
486.525	6.85
486.878	6.87
487.23	6.93
487.583	6.99
487.936	7.16
488.288	7.21
488.641	7.28
488.993	7.11
489.345	7.09
489.698	7.09
490.05	6.99
490.402	7.08
490.754	7.06
491.107	7.13
491.459	7.21
491.811	7.24
492.163	7.26
492.515	7.33
492.866	7.29
493.218	7.36
493.57	7.28
493.922	7.19
494.274	7.24
494.625	7.14
494.977	7.27
495.328	7.55
495.68	7.39
496.031	7.57
496.383	7.49
496.734	7.73
497.086	7.57
497.437	7.6
497.788	7.54
498.139	7.59
498.49	7.7
498.842	7.49
499.193	7.58
499.544	7.48
499.894	7.58
500.245	7.69
500.596	7.6
500.947	7.77
501.298	7.65
501.648	7.72
501.999	7.85
502.35	7.61
502.7	7.75
503.051	7.51
503.401	7.65
503.752	7.83
504.102	7.62
504.452	7.85
504.803	7.81
505.153	7.67
505.503	7.74
505.853	7.97
506.203	7.69
506.553	7.93
506.903	7.79
507.253	7.74
507.603	7.76
507.953	7.8
508.303	7.95
508.652	7.79
509.002	7.96
509.352	7.92
509.701	7.82
510.051	7.98
510.4	7.83
510.75	7.76
511.099	7.87
511.449	7.8
511.798	7.9
512.147	7.89
512.496	7.83
512.846	7.87
513.195	7.89
513.544	7.84
513.893	7.97
514.242	7.9
514.591	8.11
514.939	7.92
515.288	7.82
515.637	7.99
515.986	8
516.334	8.06
516.683	8.13
517.032	8.03
517.38	8.14
517.729	8.18
518.077	8
518.426	8.09
518.774	8.19
519.122	8.07
519.47	8.12
519.819	8.03
520.167	7.96
520.515	8.01
520.863	8.08
521.211	7.99
521.559	7.97
521.907	7.99
522.255	7.87
522.602	8.08
522.95	8.07
523.298	8.22
523.645	8.26
523.993	8.3
524.341	8.36
524.688	8.35
525.036	8.19
525.383	8.09
525.73	8.42
526.078	8.19
526.425	8.21
526.772	8.38
527.119	8.26
527.466	8.26
527.814	8.13
528.161	8.16
528.508	8.15
528.854	8.27
529.201	8.03
529.548	8.04
529.895	8.09
530.242	8.09
530.588	8.01
530.935	7.96
531.282	7.87
531.628	7.82
531.975	7.97
532.321	8.02
532.667	8.08
533.014	8.28
533.36	8.38
533.706	8.28
534.052	8.39
534.399	8.35
534.745	8.3
535.091	8.32
535.437	8.25
535.783	8.22
536.129	8.28
536.474	8.23
536.82	8.31
537.166	8.42
537.512	8.49
537.857	8.46
538.203	8.52
538.549	8.47
538.894	8.42
539.239	8.44
539.585	8.44
539.93	8.46
540.276	8.68
540.621	8.65
540.966	8.51
541.311	8.64
541.656	8.72
542.001	8.74
542.346	8.73
542.691	8.56
543.036	8.61
543.381	8.39
543.726	8.45
544.071	8.48
544.415	8.49
544.76	8.48
545.105	8.5
545.449	8.61
545.794	8.59
546.138	8.78
546.483	8.71
546.827	8.83
547.171	8.79
547.516	8.87
547.86	8.76
548.204	8.86
548.548	8.76
548.892	9.07
549.236	8.76
549.58	8.81
549.924	8.91
550.268	8.94
550.612	9.13
550.956	9.2
551.3	9.2
551.643	9.2
551.987	9.13
552.33	9.31
552.674	9.29
553.017	9.33
553.361	9.17
553.704	9.42
554.048	9.27
554.391	9.24
554.734	9.27
555.077	9.27
555.42	9.09
555.764	9.13
556.107	9.13
556.45	9.31
556.793	9.2
557.135	9.29
557.478	9.6
557.821	9.38
558.164	9.46
558.507	9.55
558.849	9.29
559.192	9.53
559.534	9.54
559.877	9.61
560.219	9.44
560.562	9.83
560.904	9.5
561.246	9.53
561.589	9.78
561.931	9.77
562.273	9.55
562.615	9.65
562.957	9.79
563.299	9.48
563.641	9.65
563.983	9.84
564.325	9.56
564.667	9.68
565.008	9.69
565.35	9.79
565.692	9.66
566.033	9.78
566.375	9.87
566.716	9.85
567.058	9.78
567.399	9.75
567.741	9.73
568.082	9.88
568.423	9.67
568.764	9.61
569.105	9.75
569.447	9.9
569.788	9.66
570.129	9.94
570.47	9.93
570.811	10.07
571.151	10.08
571.492	9.99
571.833	10.01
572.174	9.93
572.514	9.96
572.855	10.05
573.195	10
573.536	10.09
573.876	9.87
574.217	9.89
574.557	10.1
574.898	10.34
575.238	10.29
575.578	9.98
575.918	10.33
576.258	9.96
576.598	10.24
576.938	10.28
577.278	10.23
577.618	10.14
577.958	10.07
578.298	10.2
578.638	10.32
578.977	10.23
579.317	10.22
579.657	10.39
579.996	10.19
580.336	10.43
580.675	10.27
581.014	10.44
581.354	10.56
581.693	10.49
582.032	10.15
582.372	10.33
582.711	10.3
583.05	10.31
583.389	10.47
583.728	10.51
584.067	10.68
584.406	10.46
584.745	10.7
585.083	10.71
585.422	10.3
585.761	10.78
586.1	10.68
586.438	10.92
586.777	11.1
587.115	10.91
587.454	10.63
587.792	10.82
588.13	10.97
588.469	10.73
588.807	10.77
589.145	10.66
589.483	11.11
589.821	10.87
590.159	10.77
590.497	11.31
590.835	11.37
591.173	10.81
591.511	11.15
591.849	11.08
592.187	11.08
592.524	10.99
592.862	10.83
593.2	11.1
593.537	11.15
593.875	10.86
594.212	11.15
594.55	11.06
594.887	11.29
595.224	10.81
595.561	11.18
595.899	11.1
596.236	11.02
596.573	11.32
596.91	11.01
597.247	11.38
597.584	11.59
597.921	11.34
598.258	11.11
598.594	11.36
598.931	11.23
599.268	11.42
599.604	11.32
599.941	11.11
600.277	11.26
600.614	11.3
600.95	11.15
601.287	11.75
601.623	11.53
601.959	11.44
602.296	11.76
602.632	11.31
602.968	11.68
603.304	11.6
603.64	11.39
603.976	11.79
604.312	11.33
604.648	11.51
604.984	11.56
605.319	11.71
605.655	11.72
605.991	11.88
606.326	11.53
606.662	11.88
606.998	11.41
607.333	11.54
607.668	11.83
608.004	11.62
608.339	11.91
608.674	11.65
609.01	11.71
609.345	11.67
609.68	12.13
610.015	11.92
610.35	11.79
610.685	11.88
611.02	11.83
611.355	11.78
611.689	11.93
612.024	11.92
612.359	11.88
612.694	12
613.028	11.79
613.363	12.1
613.697	12.07
614.032	12.02
614.366	12.54
614.7	12.4
615.035	12.3
615.369	12.32
615.703	12.34
616.037	12.3
616.371	11.95
616.705	12.22
617.039	12.42
617.373	12.13
617.707	12.45
618.041	12.16
618.375	12.35
618.709	12.67
619.042	11.98
619.376	12.43
619.71	12.68
620.043	12.21
620.377	12.7
620.71	12.65
621.043	12.36
621.377	12.54
621.71	12.14
622.043	12.44
622.376	12.41
622.709	12.33
623.043	12.89
623.376	12.45
623.709	12.64
624.041	12.84
624.374	12.97
624.707	12.73
625.04	12.9
625.373	12.34
625.705	12.42
626.038	12.26
626.37	12.75
626.703	12.95
627.035	12.91
627.368	13.1
627.7	12.87
628.032	12.51
628.365	13.32
628.697	13.01
629.029	12.87
629.361	12.79
629.693	13.08
630.025	12.74
630.357	13.12
630.689	13.19
631.021	12.88
631.353	13.35
631.684	12.79
632.016	13.22
632.348	13.41
632.679	13.42
633.011	13.25
633.342	13.27
633.674	12.91
634.005	13.67
634.336	13.26
634.668	13.88
634.999	12.97
635.33	13.56
635.661	13.79
635.992	13.29
636.323	13.38
636.654	13.65
636.985	13.02
637.316	13.21
637.647	13.38
637.977	13.57
638.308	14.16
638.639	12.97
638.969	13.43
639.3	13.7
639.63	13.04
639.961	13.64
640.291	13.59
640.622	13.54
640.952	13.98
641.282	13.88
641.612	13.75
641.943	13.59
642.273	13.61
642.603	14.06
642.933	13.92
643.263	14.4
643.592	13.84
643.922	13.34
644.252	13.68
644.582	13.57
644.911	13.7
645.241	13.94
645.571	14.01
645.9	13.62
646.23	14.51
646.559	13.95
646.888	14
647.218	13.93
647.547	14.34
647.876	13.79
648.205	14.46
648.534	13.79
648.863	13.49
649.192	14.08
649.521	14.18
649.85	13.91
650.179	14.37
650.508	14.06
650.837	14.25
651.165	14.24
651.494	14.75
651.822	14.11
652.151	13.95
652.479	14.33
652.808	14.03
653.136	14.55
653.465	14.03
653.793	13.72
654.121	14.14
654.449	14.76
654.777	14.57
655.105	14.58
655.433	14.16
655.761	14.35
656.089	14.44
656.417	14.7
656.745	14.1
657.073	14.27
657.4	15.23
657.728	14.84
658.056	14.37
658.383	14.48
658.711	14.85
659.038	14.86
659.365	15.05
659.693	14.76
660.02	14.74
660.347	14.72
660.674	14.64
661.001	15.07
661.329	14.17
661.656	15.02
661.982	14.97
662.309	14.82
662.636	15.05
662.963	15.31
663.29	14.92
663.616	14.88
663.943	14.52
664.27	15.31
664.596	15.04
664.923	14.95
665.249	15.01
665.576	14.86
665.902	16.17
666.228	14.81
666.554	15.76
666.881	15.17
667.207	15.97
667.533	15.33
667.859	15.73
668.185	15.76
668.511	14.75
668.837	14.11
669.162	15.69
669.488	15.56
669.814	15.58
670.139	15.63
670.465	15.65
670.791	15.77
671.116	16.14
671.442	15.11
671.767	15.71
672.092	15.87
672.418	15.54
672.743	15.09
673.068	15.31
673.393	14.92
673.718	15.26
674.043	15.58
674.368	16.05
674.693	16.73
675.018	15.51
675.343	16.42
675.667	15.57
675.992	15.86
676.317	15.62
676.641	15.83
676.966	15.24
677.29	15.55
677.615	16.49
677.939	15.86
678.264	16.05
678.588	15.71
678.912	15.65
679.236	16.14
679.56	15.29
679.885	16.11
680.209	15.24
680.532	15.39
680.856	16.26
681.18	15.3
681.504	16.08
681.828	16.25
682.152	15.59
682.475	16.22
682.799	15.95
683.122	16.86
683.446	15.89
683.769	16.3
684.093	16.12
