Data from 0399_chest_Reflection__1__201.txt Node

Date: Fri Dec 15 18:17:30 CST 2023
User: ToomeyLab
Spectrometer: FLMS14357
Trigger mode: 0
Integration Time (sec): 1.000000E-2
Scans to average: 100
Electric dark correction enabled: true
Nonlinearity correction enabled: false
Boxcar width: 0
XAxis mode: Wavelengths
Number of Pixels in Spectrum: 2048
>>>>>Begin Spectral Data<<<<<
189.047	-226.02
189.435	-226.02
189.823	-226.02
190.211	70.27
190.599	551.84
190.987	139.72
191.375	26.4
191.763	-28.09
192.151	-378.01
192.538	101.83
192.926	303.79
193.314	42.51
193.702	-80
194.089	-25.7
194.477	67.96
194.864	24.39
195.252	97
195.639	73.72
196.027	71.62
196.414	110.22
196.801	798.26
197.189	27.65
197.576	97.68
197.963	-97
198.351	-12.53
198.738	-8.8
199.125	-20.98
199.512	-21.17
199.899	-1.84
200.286	53.74
200.673	-53.33
201.06	-31.24
201.447	-11.15
201.833	25.05
202.22	91.43
202.607	-0.54
202.994	19.1
203.38	17.32
203.767	23.96
204.154	-5.07
204.54	45.94
204.927	-52.21
205.313	-68.01
205.699	-8.14
206.086	49.51
206.472	48.67
206.858	5.51
207.245	-21.24
207.631	48.28
208.017	39.51
208.403	28.12
208.789	76.17
209.175	5.53
209.561	-8.4
209.947	-7.4
210.333	-144.93
210.719	0.85
211.105	2.76
211.491	-54.01
211.876	47.08
212.262	23.06
212.648	6.86
213.034	-1.89
213.419	-11.34
213.805	-45.88
214.19	-13.86
214.576	-0.09
214.961	-38.22
215.346	-54.89
215.732	-7.57
216.117	18.79
216.502	-19.42
216.888	21.48
217.273	22.28
217.658	-9.8
218.043	-12.26
218.428	-33.94
218.813	-49.97
219.198	-35.6
219.583	4.13
219.968	-27.23
220.353	-18.49
220.738	27.32
221.122	-7.72
221.507	-24.05
221.892	-13.12
222.276	-27.03
222.661	2.03
223.046	14.04
223.43	4.48
223.815	12.16
224.199	-11.78
224.583	4.23
224.968	-9.75
225.352	15.28
225.736	8.89
226.121	-21.05
226.505	-0.2
226.889	13.1
227.273	-1.83
227.657	4.29
228.041	8.67
228.425	-0.67
228.809	4.09
229.193	1.34
229.577	4.11
229.961	4.59
230.344	4.89
230.728	5.64
231.112	4.94
231.495	3.84
231.879	4.02
232.263	2.52
232.646	4.75
233.03	4.43
233.413	4.32
233.797	3.75
234.18	3.02
234.563	0.82
234.946	1.26
235.33	4.65
235.713	4.91
236.096	3.87
236.479	4.07
236.862	3.2
237.245	6.32
237.628	1.85
238.011	3.68
238.394	5.03
238.777	5.35
239.16	2.35
239.543	3.98
239.925	6.75
240.308	2.95
240.691	4.38
241.073	5.9
241.456	3.46
241.838	4.14
242.221	3.59
242.603	4.26
242.986	4.56
243.368	4.31
243.75	4.59
244.133	3.98
244.515	4.83
244.897	4.35
245.279	4.34
245.661	3.6
246.043	2.96
246.425	2.66
246.807	4.66
247.189	5.38
247.571	4.44
247.953	4.53
248.335	4.79
248.717	4.63
249.098	4.21
249.48	4.47
249.862	4.46
250.243	4.14
250.625	3.95
251.006	4.17
251.388	2.38
251.769	4.26
252.151	4.67
252.532	4.84
252.913	3.99
253.295	3.62
253.676	3.85
254.057	4.32
254.438	4.18
254.819	4.4
255.2	3.36
255.581	3.86
255.962	2.6
256.343	3.01
256.724	5.03
257.105	3.85
257.486	3.4
257.867	3.67
258.247	3.69
258.628	3.55
259.009	3.63
259.389	4.18
259.77	4.05
260.15	3.59
260.531	2.63
260.911	4.38
261.292	3.87
261.672	4.36
262.052	4.03
262.432	4.3
262.813	3.99
263.193	4.25
263.573	3.46
263.953	3.35
264.333	4.32
264.713	3.77
265.093	3.4
265.473	3.76
265.853	3.04
266.233	3.43
266.612	2.75
266.992	2.74
267.372	4.85
267.752	3.11
268.131	4.09
268.511	4.54
268.89	4.33
269.27	3.43
269.649	3.32
270.029	3.63
270.408	4.91
270.787	4.28
271.167	4.14
271.546	3.93
271.925	3.07
272.304	4
272.683	4.09
273.062	3.26
273.441	3.92
273.82	3.14
274.199	3.98
274.578	3.91
274.957	3.89
275.336	4.06
275.715	3.18
276.093	3.73
276.472	3.83
276.851	2.94
277.229	3.54
277.608	3.09
277.986	3.75
278.365	3.24
278.743	3.32
279.122	3.36
279.5	3.39
279.878	3.95
280.257	3.31
280.635	2.75
281.013	2.63
281.391	3.55
281.769	3.75
282.147	4.06
282.525	3.48
282.903	3.65
283.281	3.54
283.659	3.98
284.037	4.14
284.415	4.03
284.792	3.55
285.17	3.18
285.548	3.22
285.925	3.92
286.303	3.84
286.68	3.55
287.058	3.62
287.435	3.77
287.813	3.82
288.19	3.6
288.567	3.36
288.945	4.11
289.322	3.62
289.699	3.77
290.076	3.83
290.453	3.78
290.83	3.52
291.207	3.7
291.584	3.25
291.961	4.45
292.338	4.09
292.715	4.06
293.092	3.83
293.469	3.61
293.845	3.86
294.222	3.33
294.599	3.16
294.975	3.64
295.352	4.43
295.728	3.25
296.105	3.7
296.481	4.71
296.858	4.19
297.234	3.26
297.61	3.83
297.986	3.5
298.363	4.18
298.739	4.18
299.115	3.53
299.491	3.85
299.867	3.73
300.243	4.08
300.619	3.36
300.995	4.04
301.371	4.4
301.746	3.51
302.122	3.99
302.498	3.42
302.874	4.03
303.249	4.54
303.625	3.61
304	3.86
304.376	3.41
304.751	3.4
305.127	4.78
305.502	3.71
305.878	3.11
306.253	3.28
306.628	4.58
307.003	4.34
307.378	4.2
307.754	3.92
308.129	3.14
308.504	3.69
308.879	3.82
309.254	4.34
309.629	4.34
310.003	3.83
310.378	4.15
310.753	4.76
311.128	4.02
311.502	3.59
311.877	4.46
312.252	4
312.626	4.13
313.001	4.07
313.375	4.15
313.75	3.62
314.124	4.43
314.498	3.99
314.873	3.89
315.247	3.27
315.621	4.17
315.995	3.4
316.369	3.76
316.743	3.82
317.117	4.44
317.491	4.22
317.865	4.62
318.239	4.2
318.613	4.03
318.987	4.2
319.361	3.56
319.734	4.57
320.108	4.16
320.482	3.64
320.855	3.9
321.229	3.57
321.602	3.59
321.976	4.32
322.349	4.01
322.723	3.56
323.096	4.4
323.469	3.53
323.843	4.16
324.216	4.21
324.589	4.22
324.962	3.48
325.335	3.81
325.708	4.32
326.081	3.91
326.454	3.94
326.827	3.99
327.2	3.78
327.573	3.89
327.945	3.71
328.318	3.56
328.691	3.53
329.063	3.79
329.436	4.18
329.809	4.14
330.181	3.95
330.553	4.48
330.926	4.04
331.298	4
331.671	3.78
332.043	4.47
332.415	3.96
332.787	4.18
333.159	4.23
333.532	4.75
333.904	4.1
334.276	3.89
334.648	4.29
335.02	3.59
335.391	3.87
335.763	3.37
336.135	4.03
336.507	3.96
336.879	3.92
337.25	3.92
337.622	3.57
337.993	3.98
338.365	3.86
338.736	4.05
339.108	4.06
339.479	3.63
339.851	4.08
340.222	3.92
340.593	4.36
340.964	3.84
341.336	4.74
341.707	3.82
342.078	4.37
342.449	4.21
342.82	3.61
343.191	3.95
343.562	4.09
343.933	4.28
344.303	4.73
344.674	4.14
345.045	4.16
345.416	4.42
345.786	3.59
346.157	4.68
346.527	3.77
346.898	3.77
347.268	4.18
347.639	3.91
348.009	4.33
348.38	3.57
348.75	4.03
349.12	3.67
349.49	4.29
349.861	4.17
350.231	4.04
350.601	4.53
350.971	4.29
351.341	4.36
351.711	4.31
352.081	4.51
352.45	3.66
352.82	4.57
353.19	4.21
353.56	4.29
353.929	4.25
354.299	4.18
354.669	3.92
355.038	4.07
355.408	4.07
355.777	3.97
356.147	3.85
356.516	3.95
356.885	4.24
357.254	4.23
357.624	4.69
357.993	4.11
358.362	3.8
358.731	4.05
359.1	4.17
359.469	4.28
359.838	4.39
360.207	4.13
360.576	4.16
360.945	4.22
361.314	4.55
361.682	3.83
362.051	3.98
362.42	4.22
362.788	4.03
363.157	4.38
363.525	4.29
363.894	4.31
364.262	4.26
364.631	4.42
364.999	4.01
365.367	3.86
365.735	4.87
366.104	4.31
366.472	4.04
366.84	4.24
367.208	4.44
367.576	4.3
367.944	4.39
368.312	4.06
368.68	3.61
369.048	4.53
369.416	4.02
369.783	3.69
370.151	4.33
370.519	4.46
370.886	4.58
371.254	4.29
371.621	4.19
371.989	4.41
372.356	3.65
372.724	4.11
373.091	3.9
373.458	4.17
373.826	3.81
374.193	4.22
374.56	4.49
374.927	4.67
375.294	4.44
375.661	4.25
376.028	3.77
376.395	4.07
376.762	4.47
377.129	3.97
377.496	4.01
377.863	4.24
378.229	3.56
378.596	4.13
378.963	4.35
379.329	4.06
379.696	4.4
380.062	4.11
380.429	3.87
380.795	4.01
381.161	4.06
381.528	4.34
381.894	4.2
382.26	4.04
382.626	4.44
382.993	3.95
383.359	4.82
383.725	4.19
384.091	4.08
384.457	4.23
384.823	3.89
385.188	4.37
385.554	4.07
385.92	4.33
386.286	4.44
386.651	4.48
387.017	4.47
387.383	3.99
387.748	3.98
388.114	4.51
388.479	4.22
388.845	4.41
389.21	4.17
389.575	4.61
389.94	4.18
390.306	4.44
390.671	4.5
391.036	3.87
391.401	3.89
391.766	4.08
392.131	4.33
392.496	4.54
392.861	4.32
393.226	4.77
393.591	4.25
393.956	4.16
394.32	4.37
394.685	4.29
395.05	4.14
395.414	4.1
395.779	4.24
396.143	4.51
396.508	4.17
396.872	4.51
397.236	4.64
397.601	4.27
397.965	4.43
398.329	4.32
398.694	4.38
399.058	4.52
399.422	4.29
399.786	4.44
400.15	4.48
400.514	4.53
400.878	4.35
401.242	4.87
401.605	4.44
401.969	4.26
402.333	4.38
402.697	4.41
403.06	4.48
403.424	4.3
403.787	4.27
404.151	4.68
404.514	4.55
404.878	4.48
405.241	4.55
405.604	4.29
405.968	4.42
406.331	4.6
406.694	4.64
407.057	4.36
407.42	4.73
407.783	4.21
408.146	4.47
408.509	4.4
408.872	4.28
409.235	4.27
409.598	4.53
409.961	4.4
410.323	4.86
410.686	4.37
411.049	4.26
411.411	4.32
411.774	4.38
412.136	4.36
412.499	4.36
412.861	4.45
413.223	4.29
413.586	4.3
413.948	4.35
414.31	4.54
414.672	4.37
415.035	4.35
415.397	4.57
415.759	4.34
416.121	4.35
416.483	4.5
416.845	4.44
417.206	4.38
417.568	4.42
417.93	4.16
418.292	4.42
418.653	4.59
419.015	4.58
419.377	4.58
419.738	4.53
420.1	4.4
420.461	4.48
420.822	4.52
421.184	4.39
421.545	4.44
421.906	4.27
422.267	4.24
422.629	4.41
422.99	4.48
423.351	4.36
423.712	4.35
424.073	4.34
424.434	4.41
424.795	4.47
425.155	4.46
425.516	4.28
425.877	4.41
426.238	4.44
426.598	4.44
426.959	4.46
427.32	4.38
427.68	4.31
428.041	4.34
428.401	4.59
428.761	4.55
429.122	4.41
429.482	4.36
429.842	4.67
430.202	4.52
430.563	4.47
430.923	4.29
431.283	4.57
431.643	4.38
432.003	4.61
432.363	4.6
432.722	4.42
433.082	4.65
433.442	4.48
433.802	4.43
434.161	4.48
434.521	4.68
434.881	4.58
435.24	4.34
435.6	4.53
435.959	4.37
436.319	4.38
436.678	4.5
437.037	4.51
437.396	4.49
437.756	4.62
438.115	4.41
438.474	4.74
438.833	4.42
439.192	4.48
439.551	4.7
439.91	4.54
440.269	4.55
440.628	4.46
440.987	4.56
441.345	4.44
441.704	4.57
442.063	4.48
442.421	4.54
442.78	4.44
443.138	4.56
443.497	4.48
443.855	4.54
444.214	4.48
444.572	4.71
444.93	4.49
445.288	4.53
445.647	4.71
446.005	4.63
446.363	4.55
446.721	4.77
447.079	4.48
447.437	4.56
447.795	4.7
448.153	4.38
448.51	4.56
448.868	4.67
449.226	4.53
449.584	4.59
449.941	4.61
450.299	4.62
450.656	4.67
451.014	4.71
451.371	4.5
451.729	4.63
452.086	4.83
452.443	4.53
452.801	4.68
453.158	4.69
453.515	4.52
453.872	4.95
454.229	4.61
454.586	4.54
454.943	4.49
455.3	4.78
455.657	4.56
456.014	4.68
456.371	4.68
456.727	4.78
457.084	4.79
457.441	4.61
457.797	4.53
458.154	4.83
458.51	4.66
458.867	4.67
459.223	4.89
459.58	4.84
459.936	4.68
460.292	4.58
460.648	4.76
461.005	4.7
461.361	4.64
461.717	4.73
462.073	4.49
462.429	4.68
462.785	4.63
463.141	4.69
463.496	4.72
463.852	4.68
464.208	4.78
464.564	4.92
464.919	4.71
465.275	4.75
465.631	5.01
465.986	4.78
466.342	4.61
466.697	4.59
467.052	4.83
467.408	4.8
467.763	4.76
468.118	4.96
468.473	4.78
468.829	4.9
469.184	4.79
469.539	4.78
469.894	4.65
470.249	4.92
470.603	4.86
470.958	4.88
471.313	4.89
471.668	4.95
472.023	4.86
472.377	4.66
472.732	4.81
473.086	4.69
473.441	4.54
473.795	4.99
474.15	4.87
474.504	4.75
474.859	4.88
475.213	4.53
475.567	4.88
475.921	4.65
476.275	4.96
476.63	5.04
476.984	5.11
477.338	4.8
477.692	4.66
478.045	4.7
478.399	4.82
478.753	4.9
479.107	4.82
479.461	4.99
479.814	4.75
480.168	4.77
480.521	4.79
480.875	4.9
481.228	4.92
481.582	4.82
481.935	4.88
482.289	4.79
482.642	4.8
482.995	4.86
483.348	4.78
483.701	4.84
484.055	4.93
484.408	4.86
484.761	4.83
485.114	4.74
485.466	4.56
485.819	4.56
486.172	4.54
486.525	4.6
486.878	4.63
487.23	4.63
487.583	4.69
487.936	4.76
488.288	4.81
488.641	4.84
488.993	4.66
489.345	4.67
489.698	4.64
490.05	4.64
490.402	4.69
490.754	4.74
491.107	4.79
491.459	4.89
491.811	4.87
492.163	4.91
492.515	4.92
492.866	4.94
493.218	4.86
493.57	4.71
493.922	4.73
494.274	4.84
494.625	4.95
494.977	4.93
495.328	4.99
495.68	4.99
496.031	5.01
496.383	4.93
496.734	5.06
497.086	5
497.437	4.9
497.788	4.99
498.139	5.02
498.49	5.04
498.842	4.89
499.193	5.02
499.544	5
499.894	4.92
500.245	4.98
500.596	4.98
500.947	4.94
501.298	4.93
501.648	5.07
501.999	5.21
502.35	5.15
502.7	5.04
503.051	4.95
503.401	5.01
503.752	5.1
504.102	5.11
504.452	5.06
504.803	5.15
505.153	5.12
505.503	4.94
505.853	5.26
506.203	5.09
506.553	4.99
506.903	5
507.253	5.03
507.603	5.01
507.953	5.1
508.303	5.26
508.652	4.97
509.002	5.16
509.352	5.25
509.701	5.06
510.051	4.98
510.4	5.11
510.75	5.09
511.099	5.18
511.449	5.15
511.798	5.11
512.147	5.09
512.496	5.09
512.846	5.21
513.195	5.14
513.544	5.04
513.893	5.25
514.242	5.11
514.591	5.35
514.939	5.15
515.288	5.18
515.637	5.2
515.986	5.24
516.334	5.28
516.683	5.14
517.032	5.2
517.38	5.19
517.729	5.34
518.077	5.16
518.426	5.31
518.774	5.32
519.122	5.23
519.47	5.22
519.819	5.14
520.167	5.24
520.515	5.21
520.863	5.27
521.211	5.29
521.559	5.25
521.907	5.21
522.255	5.27
522.602	5.25
522.95	5.33
523.298	5.29
523.645	5.44
523.993	5.3
524.341	5.35
524.688	5.4
525.036	5.4
525.383	5.38
525.73	5.36
526.078	5.3
526.425	5.31
526.772	5.45
527.119	5.39
527.466	5.24
527.814	5.33
528.161	5.28
528.508	5.26
528.854	5.35
529.201	5.32
529.548	5.3
529.895	5.29
530.242	5.14
530.588	5.19
530.935	5.19
531.282	5.22
531.628	5.25
531.975	5.28
532.321	5.37
532.667	5.43
533.014	5.43
533.36	5.42
533.706	5.36
534.052	5.54
534.399	5.37
534.745	5.43
535.091	5.36
535.437	5.35
535.783	5.37
536.129	5.42
536.474	5.36
536.82	5.44
537.166	5.53
537.512	5.54
537.857	5.59
538.203	5.56
538.549	5.46
538.894	5.64
539.239	5.5
539.585	5.5
539.93	5.51
540.276	5.7
540.621	5.62
540.966	5.7
541.311	5.58
541.656	5.6
542.001	5.6
542.346	5.76
542.691	5.5
543.036	5.55
543.381	5.5
543.726	5.49
544.071	5.61
544.415	5.57
544.76	5.58
545.105	5.66
545.449	5.59
545.794	5.7
546.138	5.69
546.483	5.67
546.827	5.78
547.171	5.78
547.516	5.84
547.86	5.71
548.204	5.84
548.548	5.72
548.892	5.84
549.236	5.79
549.58	5.74
549.924	5.88
550.268	5.94
550.612	6.05
550.956	5.97
551.3	5.99
551.643	6.22
551.987	6.11
552.33	5.9
552.674	6.07
553.017	5.89
553.361	5.88
553.704	6.17
554.048	5.87
554.391	5.94
554.734	5.99
555.077	6.06
555.42	6
555.764	6.02
556.107	6.06
556.45	5.86
556.793	6
557.135	6.13
557.478	6.31
557.821	5.98
558.164	6.01
558.507	6.34
558.849	6.16
559.192	6.16
559.534	6.28
559.877	6.25
560.219	6.04
560.562	6.33
560.904	6.31
561.246	6.26
561.589	6.32
561.931	6.26
562.273	6.23
562.615	6.47
562.957	6.32
563.299	6.19
563.641	6.21
563.983	6.32
564.325	6.09
564.667	6.13
565.008	6.48
565.35	6.3
565.692	6.05
566.033	6.3
566.375	6.56
566.716	6.4
567.058	6.34
567.399	6.32
567.741	6.19
568.082	6.41
568.423	6.33
568.764	6.42
569.105	6.45
569.447	6.52
569.788	6.37
570.129	6.43
570.47	6.54
570.811	6.65
571.151	6.73
571.492	6.65
571.833	6.61
572.174	6.59
572.514	6.61
572.855	6.71
573.195	6.45
573.536	6.61
573.876	6.44
574.217	6.38
574.557	6.81
574.898	6.77
575.238	6.76
575.578	6.57
575.918	6.82
576.258	6.86
576.598	6.87
576.938	6.77
577.278	6.79
577.618	6.64
577.958	6.81
578.298	6.69
578.638	6.65
578.977	6.74
579.317	6.74
579.657	6.82
579.996	6.89
580.336	6.98
580.675	6.99
581.014	6.74
581.354	6.79
581.693	6.95
582.032	6.92
582.372	6.93
582.711	7.14
583.05	6.82
583.389	6.8
583.728	6.7
584.067	7.1
584.406	7.17
584.745	6.99
585.083	6.98
585.422	7.01
585.761	7.24
586.1	7.36
586.438	6.87
586.777	7.24
587.115	7.34
587.454	7.09
587.792	7.12
588.13	7.28
588.469	7.09
588.807	7.11
589.145	6.99
589.483	7.18
589.821	7.31
590.159	7.27
590.497	7.59
590.835	7.66
591.173	7.05
591.511	7.74
591.849	7.78
592.187	7.5
592.524	7.44
592.862	7.51
593.2	7.62
593.537	7.41
593.875	7.29
594.212	7.54
594.55	7.68
594.887	7.72
595.224	7.61
595.561	7.57
595.899	7.84
596.236	7.55
596.573	7.84
596.91	7.03
597.247	7.35
597.584	7.89
597.921	7.64
598.258	7.53
598.594	7.77
598.931	7.59
599.268	7.67
599.604	7.48
599.941	7.74
600.277	7.76
600.614	7.68
600.95	7.21
601.287	7.88
601.623	7.97
601.959	7.51
602.296	8.06
602.632	7.68
602.968	8.06
603.304	7.89
603.64	7.81
603.976	7.95
604.312	7.84
604.648	8.06
604.984	8.2
605.319	8.12
605.655	7.65
605.991	7.95
606.326	8.06
606.662	8.16
606.998	7.72
607.333	8.06
607.668	8.05
608.004	8.09
608.339	8.23
608.674	8.18
609.01	7.97
609.345	8.02
609.68	8.35
610.015	8.06
610.35	8.15
610.685	8.04
611.02	8.44
611.355	8.42
611.689	8.02
612.024	8.25
612.359	8.04
612.694	8.31
613.028	8.45
613.363	8.29
613.697	8.58
614.032	8.47
614.366	8.52
614.7	8.66
615.035	8.58
615.369	8.38
615.703	8.38
616.037	8.65
616.371	8.32
616.705	8.34
617.039	8.64
617.373	8.59
617.707	8.45
618.041	8.53
618.375	8.55
618.709	8.62
619.042	8.55
619.376	8.94
619.71	8.99
620.043	8.73
620.377	8.85
620.71	8.75
621.043	8.74
621.377	8.83
621.71	8.51
622.043	8.54
622.376	8.21
622.709	8.8
623.043	9.17
623.376	9.19
623.709	8.86
624.041	9.36
624.374	8.89
624.707	8.71
625.04	9.29
625.373	8.75
625.705	9.13
626.038	8.89
626.37	8.8
626.703	8.93
627.035	9.08
627.368	9.39
627.7	9.13
628.032	9.26
628.365	9.61
628.697	9.22
629.029	8.97
629.361	9.17
629.693	9.07
630.025	9.19
630.357	9.62
630.689	9.34
631.021	9.43
631.353	9.35
631.684	9.05
632.016	9.02
632.348	9.79
632.679	9.46
633.011	9.47
633.342	9.99
633.674	9.64
634.005	9.97
634.336	9.38
634.668	10.05
634.999	9.24
635.33	9.84
635.661	9.88
635.992	9.56
636.323	9.8
636.654	9.76
636.985	9.54
637.316	9.63
637.647	9.77
637.977	9.69
638.308	9.78
638.639	9.2
638.969	9.71
639.3	9.5
639.63	9.84
639.961	9.88
640.291	9.93
640.622	9.71
640.952	9.65
641.282	10.12
641.612	10.19
641.943	9.77
642.273	9.96
642.603	10.57
642.933	10.25
643.263	9.97
643.592	10.37
643.922	10.09
644.252	10.2
644.582	10.65
644.911	9.38
645.241	10.09
645.571	10.07
645.9	9.88
646.23	10.27
646.559	10.73
646.888	10.11
647.218	10.1
647.547	10.67
647.876	9.72
648.205	10.75
648.534	10.44
648.863	9.92
649.192	10.74
649.521	10.49
649.85	10.48
650.179	10.53
650.508	10.29
650.837	10.24
651.165	10.12
651.494	10.15
651.822	10.37
652.151	10.13
652.479	10.23
652.808	10.02
653.136	10.75
653.465	10.12
653.793	10.65
654.121	11
654.449	11.3
654.777	11.04
655.105	10.78
655.433	10.25
655.761	10.51
656.089	10.95
656.417	10.7
656.745	11.05
657.073	10.53
657.4	11.42
657.728	10.8
658.056	10.7
658.383	10.93
658.711	11.19
659.038	11
659.365	11.4
659.693	10.71
660.02	10.83
660.347	10.84
660.674	11.24
661.001	11.5
661.329	10.51
661.656	11.02
661.982	11.56
662.309	11.06
662.636	11.09
662.963	11.73
663.29	11.6
663.616	11.24
663.943	10.95
664.27	11.36
664.596	11.69
664.923	11.47
665.249	11.06
665.576	11.11
665.902	11.71
666.228	11.66
666.554	11.41
666.881	11.08
667.207	11.47
667.533	11.45
667.859	12.33
668.185	12.11
668.511	11.05
668.837	10.44
669.162	12.21
669.488	11.65
669.814	12
670.139	11.5
670.465	12.14
670.791	11.9
671.116	12.34
671.442	11.92
671.767	11.96
672.092	12.56
672.418	11.78
672.743	11.98
673.068	11.59
673.393	11.76
673.718	12.13
674.043	11.58
674.368	11.9
674.693	12.33
675.018	11.88
675.343	12.11
675.667	12.11
675.992	11.86
676.317	12
676.641	12.28
676.966	12.79
677.29	11.9
677.615	12.16
677.939	12.45
678.264	13.09
678.588	12.03
678.912	12.58
679.236	13.19
679.56	12.09
679.885	12.74
680.209	12.02
680.532	12.15
680.856	13.03
681.18	12.32
681.504	12.68
681.828	12.45
682.152	12.35
682.475	12.74
682.799	12.72
683.122	12.67
683.446	12.49
683.769	13.12
684.093	12.15
684.416	12.75
684.739	12.88
685.062	12.08
685.386	13.95
685.709	12.31
686.032	12.11
686.355	13.49
686.678	11.79
687.001	13.31
687.324	13.2
687.646	13.01
687.969	12.16
688.292	12.5
688.614	11.97
