Data from 0399_crown_Reflection__1__206.txt Node

Date: Fri Dec 15 18:19:02 CST 2023
User: ToomeyLab
Spectrometer: FLMS14357
Trigger mode: 0
Integration Time (sec): 1.000000E-2
Scans to average: 100
Electric dark correction enabled: true
Nonlinearity correction enabled: false
Boxcar width: 0
XAxis mode: Wavelengths
Number of Pixels in Spectrum: 2048
>>>>>Begin Spectral Data<<<<<
189.047	-194.12
189.435	-194.12
189.823	-194.12
190.211	-83.55
190.599	-530.59
190.987	42.2
191.375	78.84
191.763	-7.93
192.151	-109.99
192.538	158.29
192.926	-210.71
193.314	182.07
193.702	333.13
194.089	222.55
194.477	24.34
194.864	48.98
195.252	117.73
195.639	75.44
196.027	-11.24
196.414	163.89
196.801	-34.98
197.189	269.8
197.576	299.83
197.963	27.51
198.351	-82.12
198.738	-82.59
199.125	10.88
199.512	-11.1
199.899	20.77
200.286	-6.5
200.673	-1.78
201.06	-12
201.447	-66.95
201.833	18.68
202.22	33.41
202.607	30.36
202.994	34.32
203.38	4.81
203.767	23.79
204.154	-20.15
204.54	30.18
204.927	-2.32
205.313	-100.49
205.699	27.17
206.086	40.41
206.472	22.92
206.858	2.38
207.245	-71.78
207.631	10.96
208.017	-18.23
208.403	-20.68
208.789	30.79
209.175	20.54
209.561	-10.26
209.947	-18.85
210.333	-198.98
210.719	-6.67
211.105	20.37
211.491	-44.29
211.876	-20.82
212.262	13.72
212.648	17.04
213.034	32.75
213.419	-6.63
213.805	-14.33
214.19	-23.32
214.576	9.4
214.961	-42.36
215.346	-34.11
215.732	-21.25
216.117	-13
216.502	-22.71
216.888	-21.03
217.273	25.06
217.658	3.06
218.043	-14.08
218.428	-52.5
218.813	-45.17
219.198	-21.14
219.583	0.5
219.968	26.3
220.353	-26.93
220.738	24.1
221.122	-4.81
221.507	-25.92
221.892	-25.35
222.276	-27.42
222.661	3.23
223.046	12.66
223.43	8.01
223.815	-0.4
224.199	-1.99
224.583	8.01
224.968	6.62
225.352	11.03
225.736	-1.79
226.121	-15.42
226.505	1.5
226.889	10.22
227.273	2.36
227.657	9.06
228.041	-1.17
228.425	5.61
228.809	7.96
229.193	7.48
229.577	2.91
229.961	6.73
230.344	5.62
230.728	6.48
231.112	7.91
231.495	7.81
231.879	6.65
232.263	8.38
232.646	7.98
233.03	8.81
233.413	6.87
233.797	8.06
234.18	5.29
234.563	6.5
234.946	5.72
235.33	8.93
235.713	7.57
236.096	6.07
236.479	9.08
236.862	4.32
237.245	7.93
237.628	5.75
238.011	5.63
238.394	6.55
238.777	6.73
239.16	5.98
239.543	6.52
239.925	7.75
240.308	6.13
240.691	7.26
241.073	7.43
241.456	6.06
241.838	6.92
242.221	6.41
242.603	7.48
242.986	6.77
243.368	6.76
243.75	8.02
244.133	6.44
244.515	7.21
244.897	6.99
245.279	6.6
245.661	6.64
246.043	5.38
246.425	6.18
246.807	6.96
247.189	7.45
247.571	7.22
247.953	7.64
248.335	6.83
248.717	6.94
249.098	6.66
249.48	7.08
249.862	6.93
250.243	6.89
250.625	6.83
251.006	7.09
251.388	5.52
251.769	6.65
252.151	6.48
252.532	6.36
252.913	6.34
253.295	6.01
253.676	7.13
254.057	6.84
254.438	6.9
254.819	6.08
255.2	5.29
255.581	7.16
255.962	4.61
256.343	6.38
256.724	6.92
257.105	7.04
257.486	8.01
257.867	7.39
258.247	5.74
258.628	5.94
259.009	6.35
259.389	7.07
259.77	6.08
260.15	5.45
260.531	5.89
260.911	6.75
261.292	6.25
261.672	6.46
262.052	6.4
262.432	6.55
262.813	6.42
263.193	5.95
263.573	6.25
263.953	6
264.333	6.75
264.713	5.92
265.093	5.81
265.473	6.24
265.853	5.49
266.233	6.65
266.612	4.77
266.992	4.83
267.372	6.94
267.752	5.61
268.131	6.41
268.511	6.43
268.89	6.34
269.27	5.9
269.649	6.21
270.029	6.01
270.408	6.82
270.787	6.51
271.167	6.27
271.546	6.7
271.925	5.18
272.304	5.22
272.683	6.12
273.062	5.74
273.441	6.22
273.82	5.66
274.199	5.55
274.578	6.16
274.957	5.79
275.336	6.3
275.715	5.74
276.093	5.96
276.472	6.26
276.851	5.43
277.229	5.84
277.608	5.6
277.986	6.68
278.365	6.23
278.743	5.92
279.122	5.88
279.5	6.23
279.878	6.21
280.257	6.66
280.635	5.23
281.013	5.14
281.391	6.61
281.769	5.81
282.147	5.84
282.525	6.3
282.903	6.08
283.281	5.73
283.659	5.99
284.037	6.4
284.415	6.09
284.792	6.41
285.17	4.89
285.548	5.94
285.925	5.64
286.303	5.8
286.68	5.78
287.058	5.7
287.435	5.54
287.813	5.78
288.19	5.78
288.567	5.77
288.945	6.17
289.322	5.82
289.699	5.77
290.076	5.64
290.453	5.26
290.83	5.61
291.207	4.67
291.584	6.16
291.961	5.74
292.338	6.13
292.715	5.99
293.092	5.45
293.469	5.34
293.845	6.64
294.222	5.17
294.599	5.59
294.975	6.07
295.352	6.11
295.728	5.29
296.105	5.69
296.481	6.32
296.858	5.39
297.234	5.55
297.61	5.57
297.986	5.42
298.363	5.87
298.739	5.84
299.115	5.29
299.491	5.5
299.867	5.69
300.243	5.67
300.619	5.51
300.995	5.46
301.371	5.89
301.746	5.27
302.122	6.14
302.498	5.29
302.874	6.1
303.249	5.69
303.625	5.33
304	6.16
304.376	6
304.751	5.27
305.127	6.25
305.502	5.19
305.878	4.91
306.253	5.14
306.628	5.71
307.003	5.25
307.378	6.14
307.754	5.32
308.129	4.56
308.504	5.68
308.879	5.29
309.254	6.87
309.629	6.24
310.003	5.48
310.378	5.67
310.753	5.44
311.128	5.37
311.502	5.31
311.877	5.86
312.252	4.81
312.626	5.45
313.001	5.77
313.375	5.56
313.75	5.3
314.124	5.59
314.498	5.51
314.873	5.32
315.247	4.86
315.621	5.43
315.995	5.29
316.369	5.55
316.743	5.52
317.117	5
317.491	5.2
317.865	4.86
318.239	5.6
318.613	5.21
318.987	5.53
319.361	4.75
319.734	5.74
320.108	5.35
320.482	5.37
320.855	5.04
321.229	5.21
321.602	5.34
321.976	5.72
322.349	5.32
322.723	5.23
323.096	5.61
323.469	5.17
323.843	5.37
324.216	6.4
324.589	5.01
324.962	5.71
325.335	4.92
325.708	4.99
326.081	4.97
326.454	5.84
326.827	4.89
327.2	5.71
327.573	5.6
327.945	4.78
328.318	5.24
328.691	4.65
329.063	4.83
329.436	5.16
329.809	5.3
330.181	4.94
330.553	5.11
330.926	5.39
331.298	4.85
331.671	5.23
332.043	5.81
332.415	5.51
332.787	4.99
333.159	5.6
333.532	5.46
333.904	5.41
334.276	5.21
334.648	5.73
335.02	5.59
335.391	5.27
335.763	5.2
336.135	5.14
336.507	5.82
336.879	5.43
337.25	5.01
337.622	5.1
337.993	4.81
338.365	5.61
338.736	5.08
339.108	5.19
339.479	5.16
339.851	5.55
340.222	5.37
340.593	5.4
340.964	5.43
341.336	6.08
341.707	5.15
342.078	5.55
342.449	5.09
342.82	5.13
343.191	5.62
343.562	5.24
343.933	5.3
344.303	4.99
344.674	5.18
345.045	4.85
345.416	4.9
345.786	4.88
346.157	5.43
346.527	4.77
346.898	4.71
347.268	5.58
347.639	5.32
348.009	5.04
348.38	4.8
348.75	4.76
349.12	5.02
349.49	5.75
349.861	5.6
350.231	5.03
350.601	5.12
350.971	5.11
351.341	5.08
351.711	5.16
352.081	5.09
352.45	5.32
352.82	5.64
353.19	5.29
353.56	5.24
353.929	5.39
354.299	4.77
354.669	4.83
355.038	5.17
355.408	5.09
355.777	5.05
356.147	5.25
356.516	5.38
356.885	5.6
357.254	5.63
357.624	5.08
357.993	5.33
358.362	5.42
358.731	4.97
359.1	5.6
359.469	5.18
359.838	5.44
360.207	4.96
360.576	5
360.945	5.1
361.314	5.43
361.682	5.12
362.051	5.11
362.42	5.35
362.788	5.42
363.157	5.58
363.525	5.59
363.894	5.2
364.262	5.1
364.631	5.04
364.999	5.33
365.367	4.97
365.735	5.94
366.104	5.57
366.472	5.51
366.84	5.24
367.208	5.17
367.576	5.59
367.944	5.73
368.312	5.15
368.68	5.25
369.048	5.44
369.416	5.19
369.783	5.14
370.151	5.52
370.519	5.7
370.886	5.82
371.254	5.2
371.621	5.34
371.989	5.56
372.356	5.05
372.724	5.19
373.091	5.15
373.458	5.36
373.826	5.02
374.193	5.49
374.56	5.87
374.927	5.57
375.294	5.64
375.661	5.03
376.028	5.23
376.395	5.04
376.762	5.31
377.129	5.27
377.496	5.5
377.863	5.6
378.229	4.91
378.596	5.44
378.963	5.58
379.329	5.3
379.696	5.35
380.062	5.67
380.429	5.65
380.795	5.04
381.161	5.44
381.528	5.14
381.894	5.8
382.26	5.55
382.626	5.54
382.993	5.43
383.359	5.76
383.725	5.33
384.091	5.33
384.457	5.66
384.823	5.59
385.188	5.59
385.554	5.55
385.92	5.45
386.286	5.32
386.651	5.65
387.017	5.74
387.383	5.58
387.748	5.32
388.114	5.82
388.479	5.61
388.845	5.65
389.21	5.53
389.575	5.62
389.94	5.64
390.306	5.92
390.671	5.88
391.036	5.06
391.401	5.28
391.766	5.37
392.131	5.36
392.496	5.89
392.861	5.48
393.226	5.61
393.591	5.76
393.956	5.39
394.32	5.71
394.685	5.19
395.05	5.51
395.414	5.6
395.779	5.33
396.143	5.68
396.508	5.69
396.872	5.67
397.236	5.86
397.601	5.73
397.965	5.48
398.329	5.66
398.694	5.98
399.058	5.53
399.422	5.56
399.786	5.86
400.15	5.99
400.514	5.8
400.878	5.69
401.242	5.8
401.605	5.72
401.969	5.7
402.333	5.98
402.697	5.86
403.06	5.89
403.424	5.55
403.787	5.53
404.151	6
404.514	5.67
404.878	5.79
405.241	5.95
405.604	5.73
405.968	5.94
406.331	5.75
406.694	5.76
407.057	5.85
407.42	5.76
407.783	5.51
408.146	5.69
408.509	5.79
408.872	5.65
409.235	5.96
409.598	5.95
409.961	5.66
410.323	5.95
410.686	5.82
411.049	5.74
411.411	5.69
411.774	5.72
412.136	5.89
412.499	5.68
412.861	5.72
413.223	5.91
413.586	6.04
413.948	5.88
414.31	5.66
414.672	5.56
415.035	5.79
415.397	6.04
415.759	5.43
416.121	5.88
416.483	5.82
416.845	5.84
417.206	5.88
417.568	5.81
417.93	5.71
418.292	6.03
418.653	5.85
419.015	5.78
419.377	5.88
419.738	5.89
420.1	5.91
420.461	5.96
420.822	5.9
421.184	5.63
421.545	5.91
421.906	5.68
422.267	5.84
422.629	5.76
422.99	5.77
423.351	5.73
423.712	5.77
424.073	5.82
424.434	5.8
424.795	5.9
425.155	5.79
425.516	5.73
425.877	5.77
426.238	5.76
426.598	5.92
426.959	5.76
427.32	5.73
427.68	5.92
428.041	5.75
428.401	6
428.761	5.88
429.122	5.98
429.482	5.78
429.842	6.17
430.202	6.02
430.563	5.96
430.923	5.9
431.283	6.14
431.643	6.02
432.003	5.89
432.363	6.22
432.722	6.13
433.082	6.02
433.442	5.84
433.802	5.82
434.161	5.76
434.521	6.22
434.881	6.16
435.24	6.01
435.6	5.95
435.959	5.95
436.319	6.02
436.678	5.98
437.037	5.91
437.396	6.19
437.756	6.15
438.115	5.9
438.474	6.23
438.833	5.99
439.192	5.85
439.551	6.18
439.91	6.02
440.269	6.01
440.628	5.92
440.987	6.1
441.345	5.8
441.704	6.11
442.063	6.12
442.421	5.9
442.78	5.92
443.138	6
443.497	5.98
443.855	5.83
444.214	6
444.572	6.02
444.93	6.13
445.288	6.12
445.647	6.26
446.005	5.95
446.363	6.03
446.721	6.2
447.079	6.06
447.437	6.1
447.795	6.17
448.153	5.88
448.51	6.11
448.868	5.94
449.226	5.99
449.584	6.02
449.941	6.22
450.299	6.16
450.656	6.28
451.014	6.16
451.371	6.05
451.729	6.11
452.086	6.18
452.443	6.2
452.801	6.19
453.158	6.24
453.515	6.07
453.872	6.35
454.229	6.11
454.586	6.13
454.943	5.97
455.3	6.2
455.657	6.24
456.014	5.97
456.371	6.15
456.727	6.23
457.084	6.3
457.441	6.2
457.797	6.17
458.154	6.33
458.51	6.21
458.867	6.24
459.223	6.23
459.58	6.31
459.936	6.27
460.292	6.29
460.648	6.24
461.005	6.09
461.361	6.13
461.717	6.05
462.073	6.1
462.429	6.2
462.785	6.1
463.141	6.11
463.496	6.2
463.852	6.32
464.208	6.28
464.564	6.46
464.919	6.37
465.275	6.26
465.631	6.33
465.986	6.42
466.342	6.14
466.697	6.04
467.052	6.23
467.408	6.29
467.763	6.3
468.118	6.24
468.473	6.3
468.829	6.37
469.184	6.26
469.539	6.39
469.894	6.07
470.249	6.57
470.603	6.38
470.958	6.45
471.313	6.36
471.668	6.39
472.023	6.44
472.377	6.24
472.732	6.28
473.086	6.31
473.441	6.19
473.795	6.56
474.15	6.36
474.504	6.22
474.859	6.38
475.213	6.21
475.567	6.37
475.921	6.32
476.275	6.35
476.63	6.4
476.984	6.55
477.338	6.47
477.692	6.27
478.045	6.33
478.399	6.3
478.753	6.48
479.107	6.36
479.461	6.33
479.814	6.36
480.168	6.24
480.521	6.33
480.875	6.36
481.228	6.41
481.582	6.34
481.935	6.37
482.289	6.36
482.642	6.54
482.995	6.25
483.348	6.3
483.701	6.27
484.055	6.31
484.408	6.42
484.761	6.23
485.114	6.18
485.466	6
485.819	5.99
486.172	6.01
486.525	6.07
486.878	6.1
487.23	6.12
487.583	6.27
487.936	6.33
488.288	6.28
488.641	6.29
488.993	6.15
489.345	6.11
489.698	6.08
490.05	6.14
490.402	6.21
490.754	6.18
491.107	6.31
491.459	6.4
491.811	6.42
492.163	6.37
492.515	6.4
492.866	6.45
493.218	6.3
493.57	6.15
493.922	6.24
494.274	6.32
494.625	6.4
494.977	6.47
495.328	6.62
495.68	6.43
496.031	6.61
496.383	6.5
496.734	6.66
497.086	6.63
497.437	6.5
497.788	6.5
498.139	6.37
498.49	6.45
498.842	6.39
499.193	6.44
499.544	6.56
499.894	6.46
500.245	6.46
500.596	6.38
500.947	6.6
501.298	6.45
501.648	6.53
501.999	6.7
502.35	6.51
502.7	6.59
503.051	6.49
503.401	6.46
503.752	6.63
504.102	6.53
504.452	6.49
504.803	6.56
505.153	6.41
505.503	6.49
505.853	6.54
506.203	6.59
506.553	6.67
506.903	6.59
507.253	6.47
507.603	6.6
507.953	6.66
508.303	6.74
508.652	6.62
509.002	6.58
509.352	6.69
509.701	6.61
510.051	6.52
510.4	6.51
510.75	6.59
511.099	6.62
511.449	6.5
511.798	6.47
512.147	6.68
512.496	6.49
512.846	6.58
513.195	6.65
513.544	6.62
513.893	6.56
514.242	6.49
514.591	6.69
514.939	6.56
515.288	6.51
515.637	6.8
515.986	6.75
516.334	6.71
516.683	6.64
517.032	6.65
517.38	6.8
517.729	6.74
518.077	6.55
518.426	6.76
518.774	6.73
519.122	6.73
519.47	6.64
519.819	6.61
520.167	6.66
520.515	6.48
520.863	6.69
521.211	6.64
521.559	6.68
521.907	6.55
522.255	6.65
522.602	6.75
522.95	6.59
523.298	6.65
523.645	6.79
523.993	6.69
524.341	6.82
524.688	6.81
525.036	6.77
525.383	6.79
525.73	6.73
526.078	6.69
526.425	6.66
526.772	6.75
527.119	6.73
527.466	6.62
527.814	6.65
528.161	6.65
528.508	6.71
528.854	6.67
529.201	6.65
529.548	6.56
529.895	6.58
530.242	6.45
530.588	6.41
530.935	6.49
531.282	6.48
531.628	6.58
531.975	6.63
532.321	6.66
532.667	6.67
533.014	6.79
533.36	6.74
533.706	6.66
534.052	6.77
534.399	6.63
534.745	6.67
535.091	6.49
535.437	6.7
535.783	6.58
536.129	6.73
536.474	6.71
536.82	6.78
537.166	6.86
537.512	6.83
537.857	6.73
538.203	6.86
538.549	6.75
538.894	6.74
539.239	6.77
539.585	6.75
539.93	6.76
540.276	6.79
540.621	6.94
540.966	6.88
541.311	6.91
541.656	6.77
542.001	6.79
542.346	6.86
542.691	6.76
543.036	6.7
543.381	6.61
543.726	6.7
544.071	6.74
544.415	6.72
544.76	6.86
545.105	6.77
545.449	6.8
545.794	6.86
546.138	6.88
546.483	6.83
546.827	6.94
547.171	7.04
547.516	7.1
547.86	6.93
548.204	6.89
548.548	6.84
548.892	6.93
549.236	6.93
549.58	6.82
549.924	6.97
550.268	7.05
550.612	6.99
550.956	7.1
551.3	6.92
551.643	7.14
551.987	7.1
552.33	7
552.674	7.19
553.017	7.06
553.361	6.83
553.704	7.27
554.048	7
554.391	6.96
554.734	6.86
555.077	7.02
555.42	7
555.764	7.03
556.107	6.86
556.45	6.99
556.793	7.23
557.135	7.12
557.478	7.33
557.821	7.2
558.164	7.07
558.507	7.31
558.849	6.9
559.192	7.09
559.534	7.13
559.877	7.35
560.219	7.03
560.562	7.3
560.904	7.22
561.246	7.29
561.589	7.1
561.931	7.05
562.273	7.15
562.615	7.18
562.957	7.22
563.299	7.06
563.641	7.04
563.983	7.21
564.325	7
564.667	7.08
565.008	7.11
565.35	7.05
565.692	6.99
566.033	7.14
566.375	7.26
566.716	7.24
567.058	7.1
567.399	7.27
567.741	7.15
568.082	7.1
568.423	7.02
568.764	7.05
569.105	7.13
569.447	7.21
569.788	7.07
570.129	7.19
570.47	7.23
570.811	7.55
571.151	7.38
571.492	7.26
571.833	7.22
572.174	7.02
572.514	7.17
572.855	7.36
573.195	7.17
573.536	7.04
573.876	7.19
574.217	7.11
574.557	7.25
574.898	7.14
575.238	7.41
575.578	7.16
575.918	7.28
576.258	7.45
576.598	7.29
576.938	7.13
577.278	7.16
577.618	7.11
577.958	7.06
578.298	7.11
578.638	7.19
578.977	7.27
579.317	7.25
579.657	7.4
579.996	7.09
580.336	7.23
580.675	7.28
581.014	7.27
581.354	7.42
581.693	7.38
582.032	7.22
582.372	7.27
582.711	7.48
583.05	7.03
583.389	7.37
583.728	7.16
584.067	7.54
584.406	7.34
584.745	7.2
585.083	7.57
585.422	7.5
585.761	7.35
586.1	7.46
586.438	7.27
586.777	7.36
587.115	7.32
587.454	7.33
587.792	7.3
588.13	7.54
588.469	7.21
588.807	7.57
589.145	7.14
589.483	7.35
589.821	7.39
590.159	7.49
590.497	7.55
590.835	7.81
591.173	7.23
591.511	7.51
591.849	7.39
592.187	7.4
592.524	7.56
592.862	7.57
593.2	7.49
593.537	7.32
593.875	7.35
594.212	7.32
594.55	7.3
594.887	7.46
595.224	7.39
595.561	7.54
595.899	7.46
596.236	7.36
596.573	7.62
596.91	7.08
597.247	7.34
597.584	7.59
597.921	7.36
598.258	7.11
598.594	7.43
598.931	7.29
599.268	7.43
599.604	7.28
599.941	7.48
600.277	7.31
600.614	7.35
600.95	7.42
601.287	7.64
601.623	7.44
601.959	7.26
602.296	7.3
602.632	7.44
602.968	7.63
603.304	7.51
603.64	7.46
603.976	7.63
604.312	7.57
604.648	7.36
604.984	7.62
605.319	7.42
605.655	7.37
605.991	7.4
606.326	7.52
606.662	7.37
606.998	7.45
607.333	7.39
607.668	7.53
608.004	7.77
608.339	7.83
608.674	7.47
609.01	7.21
609.345	7.22
609.68	7.65
610.015	7.24
610.35	7.33
610.685	7.36
611.02	7.46
611.355	7.61
611.689	7.45
612.024	7.49
612.359	7.35
612.694	7.37
613.028	7.38
613.363	7.48
613.697	7.79
614.032	7.81
614.366	7.63
614.7	7.53
615.035	7.85
615.369	7.44
615.703	7.54
616.037	7.54
616.371	7.12
616.705	7.48
617.039	7.47
617.373	7.35
617.707	7.34
618.041	7.22
618.375	7.57
618.709	7.53
619.042	7.62
619.376	7.88
619.71	7.45
620.043	7.95
620.377	7.58
620.71	7.46
621.043	7.18
621.377	7.51
621.71	7.43
622.043	7.37
622.376	7.47
622.709	7.58
623.043	7.8
623.376	7.63
623.709	7.55
624.041	7.88
624.374	7.61
624.707	7.57
625.04	7.59
625.373	7.52
625.705	7.76
626.038	7.59
626.37	7.24
626.703	7.42
627.035	7.64
627.368	7.59
627.7	7.46
628.032	7.15
628.365	8.06
628.697	7.79
629.029	7.32
629.361	7.8
629.693	7.58
630.025	7.54
630.357	7.89
630.689	7.54
631.021	7.67
631.353	8.02
631.684	7.58
632.016	7.19
632.348	7.85
632.679	7.58
633.011	7.7
633.342	7.81
633.674	7.38
634.005	7.83
634.336	7.35
634.668	8.26
634.999	7.42
635.33	7.44
635.661	8.02
635.992	7.59
636.323	8.11
636.654	7.7
636.985	7.66
637.316	7.83
637.647	6.93
637.977	8.02
638.308	8.04
638.639	7.24
638.969	7.73
639.3	7.52
639.63	7.04
639.961	7.58
640.291	7.88
640.622	8.09
640.952	7.41
641.282	8.22
641.612	8.03
641.943	7.24
642.273	7.35
642.603	8.27
642.933	7.65
643.263	7.66
643.592	7.26
643.922	7.63
644.252	7.69
644.582	7.69
644.911	7.57
645.241	7.76
645.571	7.42
645.9	8.09
646.23	7.52
646.559	7.7
646.888	7.48
647.218	7.49
647.547	7.69
647.876	7.27
648.205	7.63
648.534	7.66
648.863	7.27
649.192	7.82
649.521	7.49
649.85	7
650.179	7.36
650.508	7.4
650.837	7.07
651.165	7.12
651.494	7.24
651.822	7.46
652.151	7.59
652.479	7.7
652.808	7.54
653.136	7.96
653.465	7.11
653.793	7.24
654.121	7.31
654.449	7.88
654.777	7.98
655.105	7.9
655.433	7.76
655.761	6.94
656.089	7.69
656.417	7.74
656.745	7.46
657.073	7.42
657.4	8.3
657.728	7.89
658.056	8.21
658.383	7.89
658.711	8.1
659.038	7.72
659.365	8.29
659.693	7.61
660.02	8.21
660.347	7.93
660.674	7.69
661.001	7.59
661.329	7.48
661.656	7.93
661.982	8.15
662.309	8.14
662.636	7.66
662.963	8.1
663.29	8.03
663.616	8.01
663.943	7.28
664.27	7.94
664.596	8
664.923	8.04
665.249	7.59
665.576	7.73
665.902	8.87
666.228	7.51
666.554	7.53
666.881	7.83
667.207	7.56
667.533	7.93
667.859	8.29
668.185	8.19
668.511	7.32
668.837	7.64
669.162	8.48
669.488	7.28
669.814	8.02
670.139	7.73
670.465	8.27
670.791	8.08
671.116	8.39
671.442	7.58
671.767	7.25
672.092	7.7
672.418	8.12
672.743	7.36
673.068	8.19
673.393	7.75
673.718	8.01
674.043	7.41
674.368	8.15
674.693	8.24
675.018	8.02
675.343	7.56
675.667	7.23
675.992	8.64
676.317	8.91
676.641	8.43
676.966	8.3
677.29	7.75
677.615	7.97
677.939	7.96
678.264	8.09
678.588	7.99
678.912	7.76
679.236	8.53
679.56	7.41
679.885	8.32
680.209	8.25
680.532	8.14
680.856	8.44
681.18	8.13
681.504	7.8
681.828	8.35
682.152	7.74
682.475	8.13
682.799	7.77
683.122	8.77
683.446	7.85
683.769	7.94
684.093	8.15
684.416	8.79
684.739	8.14
685.062	8.27
685.386	7.97
685.709	7.01
686.032	7.5
686.355	8.17
686.678	7.8
687.001	7.69
687.324	9.14
687.646	7.42
687.969	7.86
688.292	8.04
688.614	7.49
688.937	8.71
689.26	8.17
689.582	8.38
689.904	8.02
690.227	8.15
690.549	8.66
690.871	7.95
691.194	7.81
691.516	8.21
691.838	8.05
692.16	7.77
692.482	7.13
