Data from 97278_forehead_Reflection__1__67.txt Node

Date: Fri Sep 23 20:13:16 CDT 2022
User: ToomeyLab
Spectrometer: FLMS14357
Trigger mode: 0
Integration Time (sec): 1.000000E-2
Scans to average: 100
Electric dark correction enabled: true
Nonlinearity correction enabled: false
Boxcar width: 0
XAxis mode: Wavelengths
Number of Pixels in Spectrum: 2048
>>>>>Begin Spectral Data<<<<<
189.047	264.84
189.435	264.84
189.823	264.84
190.211	116.22
190.599	-1421.75
190.987	58.79
191.375	34.13
191.763	85.72
192.151	160.5
192.538	-393.06
192.926	361.15
193.314	294.74
193.702	98.77
194.089	92.36
194.477	195.79
194.864	81.74
195.252	323.3
195.639	2.51
196.027	103.18
196.414	310.85
196.801	377.63
197.189	-328.36
197.576	-23.31
197.963	135.83
198.351	60.89
198.738	-16.46
199.125	22.74
199.512	35.86
199.899	21.35
200.286	68.31
200.673	11.29
201.06	29.97
201.447	35.98
201.833	47.66
202.22	24.64
202.607	46.94
202.994	11.37
203.38	70.24
203.767	-13.7
204.154	31.2
204.54	68.52
204.927	61.78
205.313	22.84
205.699	26.04
206.086	-31.45
206.472	18.93
206.858	18.23
207.245	2.85
207.631	40.63
208.017	17.97
208.403	17.74
208.789	31.14
209.175	17.09
209.561	25.55
209.947	10.87
210.333	40.15
210.719	-13.4
211.105	50.18
211.491	31.98
211.876	47.01
212.262	1.33
212.648	-4.04
213.034	-14.29
213.419	-36.35
213.805	40.84
214.19	16.46
214.576	33.08
214.961	31.18
215.346	3.18
215.732	33.75
216.117	21.81
216.502	14.16
216.888	16.81
217.273	29.05
217.658	6.47
218.043	53.42
218.428	23.74
218.813	41.27
219.198	18.85
219.583	49.42
219.968	30.83
220.353	5.24
220.738	20.24
221.122	1.46
221.507	1.89
221.892	4.21
222.276	11.11
222.661	17.17
223.046	15.35
223.43	11.14
223.815	13.2
224.199	0.6
224.583	2.27
224.968	-1.76
225.352	1.87
225.736	3.3
226.121	10.52
226.505	14.07
226.889	9.01
227.273	8.07
227.657	3.22
228.041	9.43
228.425	10.2
228.809	2.6
229.193	6.81
229.577	6.73
229.961	6.03
230.344	5.05
230.728	3.82
231.112	4
231.495	4.11
231.879	2.66
232.263	6.16
232.646	6.4
233.03	5.94
233.413	4.66
233.797	5.15
234.18	9.3
234.563	3.75
234.946	7.38
235.33	4.86
235.713	5.91
236.096	1.89
236.479	2.5
236.862	4.65
237.245	6.92
237.628	6.8
238.011	5.14
238.394	4.24
238.777	6.45
239.16	6.47
239.543	5.04
239.925	4.95
240.308	5.22
240.691	5.29
241.073	5.83
241.456	4.68
241.838	6.18
242.221	6.24
242.603	5.78
242.986	4.37
243.368	4.6
243.75	5.19
244.133	5.13
244.515	4.89
244.897	5.17
245.279	5.67
245.661	5.95
246.043	5.44
246.425	4.88
246.807	4.85
247.189	6.01
247.571	5.6
247.953	5.03
248.335	5.07
248.717	5.1
249.098	4.65
249.48	4.68
249.862	4.91
250.243	5.25
250.625	5.32
251.006	5.84
251.388	5.06
251.769	5.85
252.151	4.35
252.532	5.13
252.913	5.44
253.295	5.28
253.676	5.63
254.057	5.47
254.438	5.34
254.819	5.79
255.2	5.12
255.581	7.23
255.962	5.26
256.343	7.2
256.724	5.43
257.105	4.92
257.486	6.01
257.867	5.65
258.247	5.14
258.628	5.45
259.009	4.7
259.389	5.94
259.77	4.78
260.15	5.15
260.531	5.21
260.911	4.67
261.292	5.15
261.672	4.78
262.052	4.58
262.432	4.5
262.813	5.1
263.193	4.81
263.573	5.16
263.953	4.98
264.333	4.58
264.713	5.04
265.093	5.07
265.473	4.48
265.853	4.14
266.233	4.84
266.612	5.35
266.992	5.46
267.372	5
267.752	4.37
268.131	5.12
268.511	4.83
268.89	5.03
269.27	4.87
269.649	5.06
270.029	4.5
270.408	5.56
270.787	4.95
271.167	4.92
271.546	5.01
271.925	5.42
272.304	5.11
272.683	4.08
273.062	4.41
273.441	4.6
273.82	4.47
274.199	4.29
274.578	4.8
274.957	5.13
275.336	4.34
275.715	4.59
276.093	5.15
276.472	5.17
276.851	4.87
277.229	4.84
277.608	5.09
277.986	4.28
278.365	4.51
278.743	5.56
279.122	4.35
279.5	4.7
279.878	4.49
280.257	4.52
280.635	4.6
281.013	4.48
281.391	4.7
281.769	4.76
282.147	4.73
282.525	4.58
282.903	4.56
283.281	4.59
283.659	4.44
284.037	4.78
284.415	4.66
284.792	5.01
285.17	5.01
285.548	4.63
285.925	4.67
286.303	5.23
286.68	4.48
287.058	4.62
287.435	4.57
287.813	4.87
288.19	4.72
288.567	4.75
288.945	5.02
289.322	4.49
289.699	5.27
290.076	4.67
290.453	4.98
290.83	4.79
291.207	4.93
291.584	4.99
291.961	4.68
292.338	5.22
292.715	4.81
293.092	4.87
293.469	5.63
293.845	5.46
294.222	5.22
294.599	5.4
294.975	5.75
295.352	5.53
295.728	5.06
296.105	5.1
296.481	5.4
296.858	5.28
297.234	5.52
297.61	5.27
297.986	5.53
298.363	5.45
298.739	5.57
299.115	5.32
299.491	5.54
299.867	5.45
300.243	5.85
300.619	6.24
300.995	5.96
301.371	5.33
301.746	6.26
302.122	5.92
302.498	6.29
302.874	5.61
303.249	6.46
303.625	6.12
304	6.09
304.376	6.17
304.751	5.91
305.127	6.3
305.502	6.72
305.878	6.26
306.253	6.41
306.628	6.33
307.003	6.33
307.378	6.51
307.754	6.83
308.129	6.57
308.504	6.88
308.879	6.68
309.254	7.28
309.629	6.97
310.003	6.76
310.378	6.81
310.753	6.94
311.128	6.84
311.502	6.85
311.877	7.18
312.252	7.4
312.626	7.55
313.001	7.42
313.375	7.36
313.75	7.47
314.124	7.41
314.498	8.17
314.873	7.84
315.247	7.97
315.621	7.78
315.995	8.41
316.369	7.94
316.743	7.86
317.117	7.43
317.491	7.88
317.865	8.42
318.239	8.83
318.613	8.19
318.987	8.17
319.361	7.68
319.734	7.8
320.108	8.13
320.482	8.88
320.855	8.71
321.229	8.82
321.602	8.66
321.976	9.25
322.349	9.08
322.723	8.63
323.096	8.63
323.469	9.01
323.843	8.44
324.216	10.2
324.589	9.06
324.962	9.09
325.335	8.76
325.708	9.48
326.081	9.09
326.454	9.75
326.827	9.2
327.2	8.7
327.573	9.45
327.945	9.6
328.318	9.03
328.691	9.75
329.063	9.7
329.436	9.65
329.809	10.38
330.181	9.74
330.553	9.47
330.926	9.44
331.298	10.01
331.671	10.62
332.043	10.39
332.415	9.8
332.787	10.34
333.159	9.6
333.532	9.83
333.904	10.35
334.276	10.06
334.648	10.04
335.02	10.53
335.391	10.28
335.763	10.31
336.135	10.37
336.507	10.67
336.879	10.82
337.25	11.33
337.622	10.81
337.993	10.86
338.365	11.25
338.736	11.32
339.108	11.29
339.479	10.68
339.851	11.35
340.222	11.89
340.593	10.24
340.964	11.04
341.336	10.98
341.707	11.84
342.078	10.89
342.449	10.92
342.82	11.39
343.191	10.91
343.562	11.05
343.933	11.75
344.303	11.11
344.674	11.67
345.045	12.03
345.416	11.55
345.786	11.54
346.157	11.53
346.527	11.99
346.898	11.97
347.268	11.87
347.639	11.87
348.009	11.64
348.38	11.39
348.75	11.44
349.12	12.14
349.49	11.79
349.861	12.02
350.231	11.94
350.601	12.19
350.971	12.19
351.341	12.29
351.711	12.35
352.081	12.16
352.45	11.78
352.82	12.07
353.19	12.59
353.56	12.83
353.929	12.59
354.299	12.36
354.669	12.52
355.038	12.9
355.408	11.99
355.777	12.4
356.147	12.23
356.516	12.84
356.885	12.64
357.254	12.32
357.624	12.74
357.993	13.03
358.362	12.85
358.731	12.63
359.1	12.94
359.469	12.8
359.838	12.75
360.207	13.28
360.576	13.2
360.945	13.08
361.314	13.15
361.682	12.95
362.051	13.22
362.42	13.24
362.788	13.26
363.157	13.25
363.525	13.44
363.894	13.3
364.262	13.13
364.631	13.18
364.999	13.56
365.367	13.58
365.735	13.6
366.104	13.97
366.472	13.73
366.84	13.46
367.208	14.02
367.576	14.13
367.944	13.87
368.312	14.12
368.68	14.07
369.048	13.74
369.416	13.89
369.783	13.9
370.151	14.31
370.519	13.9
370.886	14.36
371.254	14.42
371.621	14.28
371.989	14.22
372.356	14.54
372.724	13.88
373.091	14.39
373.458	14.28
373.826	14.29
374.193	14.66
374.56	14.53
374.927	14.49
375.294	14.6
375.661	14.43
376.028	14.93
376.395	14.53
376.762	14.99
377.129	14.65
377.496	15.21
377.863	14.85
378.229	15.04
378.596	14.49
378.963	15.08
379.329	15.08
379.696	14.99
380.062	15.24
380.429	15.16
380.795	14.87
381.161	15.4
381.528	15.34
381.894	15.15
382.26	15.12
382.626	15.33
382.993	15.69
383.359	15.57
383.725	15.81
384.091	15.61
384.457	15.55
384.823	15.81
385.188	15.78
385.554	15.9
385.92	16.12
386.286	16.05
386.651	15.79
387.017	16.02
387.383	15.75
387.748	15.95
388.114	16.01
388.479	15.87
388.845	15.7
389.21	15.88
389.575	16.14
389.94	16.09
390.306	16.19
390.671	16.18
391.036	16.21
391.401	16.07
391.766	16.6
392.131	16.47
392.496	16.3
392.861	16.51
393.226	16.43
393.591	16.42
393.956	16.57
394.32	16.7
394.685	16.21
395.05	16.54
395.414	16.61
395.779	16.55
396.143	16.55
396.508	16.58
396.872	16.93
397.236	17.04
397.601	16.56
397.965	17.19
398.329	17.33
398.694	16.7
399.058	17.07
399.422	17.42
399.786	17.27
400.15	17.18
400.514	16.97
400.878	17.07
401.242	16.8
401.605	17.41
401.969	17.45
402.333	16.98
402.697	17.28
403.06	17.48
403.424	17.67
403.787	17.18
404.151	17.24
404.514	17.03
404.878	17.11
405.241	17.63
405.604	17.3
405.968	17.48
406.331	17.45
406.694	17.47
407.057	17.4
407.42	17.39
407.783	17.37
408.146	17.65
408.509	17.75
408.872	17.52
409.235	17.78
409.598	18.13
409.961	17.94
410.323	17.99
410.686	17.9
411.049	18.04
411.411	18.01
411.774	17.76
412.136	17.88
412.499	17.84
412.861	17.72
413.223	17.97
413.586	18.18
413.948	18.22
414.31	18.09
414.672	18.29
415.035	18.34
415.397	18.23
415.759	18.17
416.121	18.65
416.483	18.31
416.845	18.08
417.206	18.31
417.568	18.27
417.93	18.39
418.292	18.55
418.653	18.23
419.015	18.55
419.377	18.57
419.738	18.44
420.1	18.51
420.461	18.42
420.822	18.38
421.184	18.56
421.545	18.51
421.906	18.47
422.267	18.55
422.629	18.38
422.99	18.59
423.351	18.6
423.712	18.58
424.073	18.8
424.434	18.85
424.795	18.93
425.155	19.03
425.516	19
425.877	18.99
426.238	19.07
426.598	19.18
426.959	19.23
427.32	19.5
427.68	19.45
428.041	19.64
428.401	19.56
428.761	19.89
429.122	19.87
429.482	19.83
429.842	20.22
430.202	20.17
430.563	19.98
430.923	20.3
431.283	20.24
431.643	20.08
432.003	20.29
432.363	20.33
432.722	20.46
433.082	20.24
433.442	20.31
433.802	20.38
434.161	20.5
434.521	20.54
434.881	20.44
435.24	20.35
435.6	20.51
435.959	20.57
436.319	20.52
436.678	20.59
437.037	20.84
437.396	20.95
437.756	20.93
438.115	21.01
438.474	21.09
438.833	21.2
439.192	21.18
439.551	20.99
439.91	21.2
440.269	21.22
440.628	21.18
440.987	21.11
441.345	21.28
441.704	21.31
442.063	21.34
442.421	21.17
442.78	21.35
443.138	21.34
443.497	21.6
443.855	21.55
444.214	21.88
444.572	21.88
444.93	21.81
445.288	21.97
445.647	22.05
446.005	21.87
446.363	21.86
446.721	21.81
447.079	21.81
447.437	21.97
447.795	21.83
448.153	21.86
448.51	21.93
448.868	22
449.226	22.02
449.584	22.08
449.941	22.27
450.299	22.53
450.656	22.44
451.014	22.68
451.371	22.78
451.729	22.66
452.086	23.13
452.443	23.05
452.801	22.96
453.158	23.03
453.515	23.13
453.872	23.15
454.229	23.17
454.586	23.18
454.943	23.19
455.3	23.36
455.657	23.38
456.014	23.49
456.371	23.43
456.727	23.51
457.084	23.7
457.441	23.81
457.797	23.68
458.154	23.9
458.51	23.77
458.867	23.92
459.223	23.88
459.58	23.79
459.936	23.92
460.292	23.74
460.648	24.01
461.005	23.83
461.361	23.69
461.717	23.49
462.073	23.65
462.429	23.84
462.785	24.03
463.141	24.17
463.496	24.38
463.852	24.43
464.208	24.65
464.564	24.7
464.919	24.78
465.275	24.8
465.631	24.84
465.986	24.65
466.342	24.68
466.697	24.62
467.052	24.88
467.408	25.24
467.763	25
468.118	25.19
468.473	24.93
468.829	24.98
469.184	25.33
469.539	25.26
469.894	25.18
470.249	25.34
470.603	25.61
470.958	25.45
471.313	25.43
471.668	25.6
472.023	25.49
472.377	25.89
472.732	25.67
473.086	25.76
473.441	26.09
473.795	26.07
474.15	25.73
474.504	25.93
474.859	25.89
475.213	26.1
475.567	25.89
475.921	26.17
476.275	26.08
476.63	26.25
476.984	26.35
477.338	26.26
477.692	26.2
478.045	26.31
478.399	26.41
478.753	26.32
479.107	26.47
479.461	26.41
479.814	26.35
480.168	26.61
480.521	26.31
480.875	26.65
481.228	26.75
481.582	26.64
481.935	26.68
482.289	26.87
482.642	26.6
482.995	26.91
483.348	26.57
483.701	26.56
484.055	26.51
484.408	26.56
484.761	26.34
485.114	25.91
485.466	25.69
485.819	25.7
486.172	25.91
486.525	26.14
486.878	26.38
487.23	26.51
487.583	26.6
487.936	26.78
488.288	26.74
488.641	26.61
488.993	26.43
489.345	26.43
489.698	26.54
490.05	26.64
490.402	26.66
490.754	26.99
491.107	27.19
491.459	27.31
491.811	27.48
492.163	27.49
492.515	27.44
492.866	27.3
493.218	26.92
493.57	26.94
493.922	27.15
494.274	27.49
494.625	27.74
494.977	27.76
495.328	28
495.68	28.42
496.031	28.39
496.383	28.55
496.734	28.57
497.086	28.65
497.437	28.68
497.788	28.62
498.139	28.67
498.49	28.43
498.842	28.53
499.193	28.62
499.544	28.66
499.894	28.82
500.245	28.79
500.596	28.69
500.947	28.89
501.298	29.02
501.648	29.15
501.999	29.18
502.35	29.27
502.7	29.52
503.051	29.43
503.401	29.43
503.752	29.34
504.102	29.46
504.452	29.54
504.803	29.59
505.153	29.49
505.503	29.56
505.853	29.64
506.203	29.7
506.553	29.79
506.903	29.65
507.253	29.82
507.603	29.84
507.953	29.81
508.303	30.05
508.652	29.96
509.002	30.24
509.352	30.02
509.701	29.96
510.051	29.95
510.4	30.18
510.75	30.02
511.099	30.16
511.449	30.05
511.798	30.05
512.147	30.23
512.496	30.2
512.846	30.48
513.195	30.19
513.544	30.53
513.893	30.34
514.242	30.49
514.591	30.43
514.939	30.53
515.288	30.57
515.637	30.77
515.986	30.88
516.334	30.86
516.683	30.9
517.032	30.97
517.38	31.07
517.729	31.1
518.077	31.32
518.426	31.04
518.774	31.06
519.122	30.96
519.47	31.07
519.819	30.69
520.167	30.78
520.515	30.52
520.863	30.83
521.211	30.83
521.559	30.84
521.907	31.05
522.255	31.31
522.602	31.14
522.95	31.46
523.298	31.48
523.645	31.55
523.993	31.72
524.341	31.78
524.688	31.73
525.036	31.84
525.383	31.64
525.73	31.81
526.078	31.88
526.425	31.79
526.772	31.82
527.119	31.51
527.466	31.33
527.814	31.36
528.161	31.56
528.508	31.57
528.854	31.72
529.201	31.61
529.548	31.47
529.895	31.19
530.242	30.96
530.588	31
530.935	31.17
531.282	31.32
531.628	31.49
531.975	31.56
532.321	31.83
532.667	32.02
533.014	32.08
533.36	32.12
533.706	32.05
534.052	32.14
534.399	32
534.745	32.01
535.091	31.67
535.437	31.83
535.783	32.08
536.129	32.08
536.474	32.45
536.82	32.61
537.166	32.79
537.512	32.63
537.857	32.74
538.203	32.5
538.549	32.5
538.894	32.74
539.239	32.67
539.585	32.83
539.93	33.02
540.276	33.34
540.621	33.4
540.966	33.49
541.311	33.28
541.656	33.39
542.001	33.42
542.346	33.01
542.691	32.87
543.036	32.4
543.381	32.59
543.726	32.65
544.071	32.9
544.415	33.03
544.76	33.09
545.105	33.36
545.449	33.24
545.794	33.43
546.138	33.61
546.483	33.87
546.827	34.07
547.171	33.87
547.516	33.97
547.86	33.74
548.204	33.95
548.548	33.76
548.892	33.78
549.236	34.03
549.58	34.14
549.924	34.33
550.268	34.53
550.612	34.67
550.956	34.78
551.3	34.72
551.643	34.91
551.987	34.94
552.33	34.8
552.674	35.13
553.017	35.04
553.361	35.27
553.704	34.76
554.048	34.96
554.391	34.72
554.734	34.95
555.077	34.67
555.42	34.9
555.764	35.16
556.107	35.42
556.45	35.21
556.793	35.41
557.135	35.43
557.478	35.49
557.821	35.67
558.164	35.72
558.507	35.49
558.849	35.77
559.192	35.79
559.534	35.71
559.877	35.87
560.219	36.13
560.562	36.21
560.904	36.03
561.246	35.74
561.589	36.16
561.931	36.26
562.273	36.25
562.615	35.97
562.957	36.07
563.299	35.81
563.641	36.13
563.983	36.34
564.325	36.28
564.667	36.34
565.008	36.33
565.35	36.46
565.692	36.4
566.033	36.35
566.375	36.39
566.716	36.35
567.058	36.63
567.399	36.28
567.741	36.15
568.082	36.32
568.423	36.16
568.764	36.4
569.105	36.53
569.447	36.54
569.788	36.66
570.129	36.77
570.47	36.79
570.811	36.89
571.151	37.13
571.492	36.85
571.833	36.87
572.174	36.8
572.514	36.99
572.855	37.05
573.195	36.63
573.536	37.1
573.876	36.81
574.217	37.04
574.557	36.91
574.898	37.12
575.238	37.28
575.578	37.54
575.918	37.17
576.258	37.1
576.598	37.27
576.938	37.3
577.278	37.34
577.618	37.37
577.958	37.32
578.298	37.74
578.638	37.35
578.977	37.59
579.317	38.03
579.657	38.16
579.996	37.77
580.336	38.04
580.675	38.28
581.014	38.15
581.354	38.37
581.693	38.2
582.032	38.29
582.372	38.32
582.711	38.49
583.05	38.36
583.389	38.65
583.728	38.28
584.067	38.76
584.406	38.37
584.745	38.72
585.083	38.72
585.422	38.6
585.761	38.74
586.1	38.85
586.438	38.9
586.777	38.74
587.115	38.61
587.454	38.93
587.792	39.02
588.13	38.92
588.469	38.79
588.807	39.06
589.145	39.38
589.483	39.01
589.821	38.9
590.159	39.12
590.497	38.92
590.835	38.89
591.173	39.24
591.511	38.89
591.849	39.31
592.187	38.87
592.524	39.43
592.862	39.58
593.2	39.57
593.537	39.46
593.875	39.55
594.212	39.16
594.55	39.35
594.887	39.56
595.224	39.25
595.561	39.43
595.899	39.36
596.236	39.59
596.573	40.05
596.91	39.51
597.247	39.71
597.584	39.53
597.921	39.7
598.258	39.46
598.594	39.47
598.931	39.78
599.268	39.47
599.604	39.26
599.941	39.89
600.277	39.79
600.614	40.08
600.95	40
601.287	40.49
601.623	40.04
601.959	40.26
602.296	40.4
602.632	40.41
602.968	40.13
603.304	40.5
603.64	40.25
603.976	40.91
604.312	40.51
604.648	40.44
604.984	40.32
605.319	40.46
605.655	40.42
605.991	40.23
606.326	40.3
606.662	40.12
606.998	40.28
607.333	40.23
607.668	40.35
608.004	40.88
608.339	40.72
608.674	40.93
609.01	41.04
609.345	40.95
609.68	41.1
610.015	41.2
610.35	41.14
610.685	40.94
611.02	41.1
611.355	40.75
611.689	40.9
612.024	41.05
612.359	41.05
612.694	41.46
613.028	41.62
613.363	41.44
613.697	41.42
614.032	41.3
614.366	41.48
614.7	42.04
615.035	42.14
615.369	42.16
615.703	41.83
616.037	41.62
616.371	41.77
616.705	41.8
617.039	42.11
617.373	41.98
617.707	42.16
618.041	42.23
618.375	42.39
618.709	42.47
619.042	41.97
619.376	42.03
619.71	42.17
620.043	41.92
620.377	42.44
620.71	43.01
621.043	42.27
621.377	42.54
621.71	42.51
622.043	41.97
622.376	42.04
622.709	42.79
623.043	42.09
623.376	42.32
623.709	42.48
624.041	42.62
624.374	42.77
624.707	43.02
625.04	42.99
625.373	42.25
625.705	42.46
626.038	43.01
626.37	42.76
626.703	42.82
627.035	42.59
627.368	43.23
627.7	42.73
628.032	42.63
628.365	42.76
628.697	42.82
629.029	43.04
629.361	43.13
629.693	42.89
630.025	43.24
630.357	42.98
630.689	43.26
631.021	42.65
631.353	43.29
631.684	43.31
632.016	43.45
632.348	43.04
632.679	43.39
633.011	43.46
633.342	43.31
633.674	43.6
634.005	43.7
634.336	43.61
634.668	43.51
634.999	44.43
635.33	43.47
635.661	43.64
635.992	43.86
636.323	43.68
636.654	43.79
636.985	44.02
637.316	44.12
637.647	44.55
637.977	43.35
638.308	43.83
638.639	43.5
638.969	44.37
639.3	43.87
639.63	44.11
639.961	44.17
640.291	44.21
640.622	43.98
640.952	44.02
641.282	44.43
641.612	44.57
641.943	44.53
642.273	44.6
642.603	44.44
642.933	44.1
643.263	44.48
643.592	44.92
643.922	44.87
644.252	44.21
644.582	44.52
644.911	44.17
645.241	44.33
645.571	44.87
645.9	44.77
646.23	44.74
646.559	44.56
646.888	45.03
647.218	44.39
647.547	45.28
647.876	45.5
648.205	45.06
648.534	44.75
648.863	44.88
649.192	45.17
649.521	44.61
649.85	44.93
650.179	44.27
650.508	45.36
650.837	45.5
651.165	44.99
651.494	44.8
651.822	44.98
652.151	44.76
652.479	45.27
652.808	45.36
653.136	45.16
653.465	45.92
653.793	45.77
654.121	45.48
654.449	45.03
654.777	45.3
655.105	45.44
655.433	45.24
655.761	45.55
656.089	45.67
656.417	46.28
656.745	45.92
657.073	44.95
657.4	46.19
657.728	45.39
658.056	45.97
658.383	45.7
658.711	46.06
659.038	46.14
659.365	46.33
659.693	46.15
660.02	46.06
660.347	46.17
660.674	45.99
661.001	46.16
661.329	45.89
661.656	45.4
661.982	45.85
662.309	46.47
662.636	46.36
662.963	46.61
663.29	46.19
663.616	46.47
663.943	46.74
664.27	46.53
664.596	46.46
664.923	46.6
665.249	46.62
665.576	46.39
665.902	46.56
666.228	47.11
666.554	46.71
666.881	46.29
667.207	47.19
667.533	47.11
667.859	46.26
668.185	46.88
668.511	46.58
668.837	46.88
669.162	46.97
669.488	46.66
669.814	46.04
