Data from 97278_forehead_Reflection__2__68.txt Node

Date: Fri Sep 23 20:13:31 CDT 2022
User: ToomeyLab
Spectrometer: FLMS14357
Trigger mode: 0
Integration Time (sec): 1.000000E-2
Scans to average: 100
Electric dark correction enabled: true
Nonlinearity correction enabled: false
Boxcar width: 0
XAxis mode: Wavelengths
Number of Pixels in Spectrum: 2048
>>>>>Begin Spectral Data<<<<<
189.047	-79.95
189.435	-79.95
189.823	-79.95
190.211	82.01
190.599	-445.45
190.987	-319.31
191.375	103.56
191.763	79.11
192.151	-92.21
192.538	-545.16
192.926	129.15
193.314	350.26
193.702	254.4
194.089	-2.94
194.477	183.57
194.864	-261.32
195.252	127.2
195.639	95.62
196.027	43.49
196.414	599.51
196.801	101.91
197.189	92.09
197.576	2.98
197.963	120.98
198.351	30.78
198.738	0.55
199.125	50.25
199.512	12.67
199.899	20.02
200.286	31.93
200.673	15.43
201.06	9.62
201.447	46.74
201.833	8.66
202.22	9.58
202.607	35.14
202.994	1.94
203.38	26.57
203.767	1.32
204.154	54.77
204.54	-23.06
204.927	3.63
205.313	1.34
205.699	14.05
206.086	0.11
206.472	19.76
206.858	15.36
207.245	16.83
207.631	35.11
208.017	13.6
208.403	-28.85
208.789	22.2
209.175	17.73
209.561	23.67
209.947	8.62
210.333	41.67
210.719	46.85
211.105	30.85
211.491	12.45
211.876	43.45
212.262	15.61
212.648	-20.26
213.034	-27.05
213.419	31.15
213.805	19.06
214.19	7.89
214.576	14.14
214.961	17.54
215.346	-44.85
215.732	14.32
216.117	-0.32
216.502	15.87
216.888	20.78
217.273	-5.99
217.658	-13.07
218.043	11.03
218.428	21.1
218.813	-5.02
219.198	14.68
219.583	15.5
219.968	21.92
220.353	3.73
220.738	16.33
221.122	1.54
221.507	15.17
221.892	1.21
222.276	-1.97
222.661	-4.17
223.046	-0.5
223.43	9.03
223.815	8.6
224.199	-0.69
224.583	17.89
224.968	6.57
225.352	19.16
225.736	1.87
226.121	9.54
226.505	9.44
226.889	9.14
227.273	7.47
227.657	1.55
228.041	2.7
228.425	7.13
228.809	5.25
229.193	6.01
229.577	7.73
229.961	4.73
230.344	4.61
230.728	3.63
231.112	3.5
231.495	3.53
231.879	1.84
232.263	5
232.646	6.48
233.03	4.19
233.413	4.03
233.797	5.77
234.18	4.64
234.563	0.95
234.946	7.22
235.33	4.06
235.713	4.68
236.096	2.77
236.479	3.76
236.862	4.11
237.245	5.72
237.628	4.59
238.011	6.6
238.394	4.2
238.777	3.27
239.16	3.97
239.543	3.84
239.925	4.88
240.308	5.48
240.691	5.76
241.073	3.45
241.456	4.05
241.838	4.8
242.221	4.27
242.603	5.1
242.986	2.6
243.368	3.85
243.75	3.32
244.133	4.06
244.515	3.54
244.897	3.73
245.279	4.03
245.661	4.6
246.043	4.54
246.425	3.32
246.807	4.19
247.189	3.96
247.571	4.33
247.953	3.9
248.335	4.03
248.717	4.16
249.098	3.92
249.48	3.92
249.862	4.13
250.243	4.12
250.625	3.79
251.006	3.83
251.388	4.25
251.769	4.38
252.151	3.61
252.532	4.67
252.913	4.14
253.295	4.24
253.676	4.09
254.057	4.3
254.438	4.05
254.819	4.65
255.2	4.12
255.581	5.24
255.962	3.83
256.343	4.74
256.724	4.12
257.105	3.99
257.486	3.33
257.867	4.33
258.247	4.11
258.628	4.45
259.009	3.67
259.389	4.07
259.77	4.05
260.15	3.5
260.531	4.24
260.911	3.97
261.292	3.87
261.672	3.68
262.052	3.63
262.432	3.46
262.813	3.68
263.193	4.1
263.573	4.06
263.953	3.56
264.333	3.67
264.713	4.33
265.093	5.01
265.473	3.52
265.853	3.27
266.233	3.16
266.612	4.56
266.992	4.43
267.372	3.83
267.752	3.63
268.131	4.17
268.511	3.61
268.89	4.03
269.27	3.75
269.649	3.7
270.029	3.93
270.408	3.85
270.787	4
271.167	3.46
271.546	4.13
271.925	3.17
272.304	3.73
272.683	3.54
273.062	3.49
273.441	3.57
273.82	3.96
274.199	3.68
274.578	3.21
274.957	3.66
275.336	3.65
275.715	3.46
276.093	3.82
276.472	4.6
276.851	4.26
277.229	3.33
277.608	4.17
277.986	3.55
278.365	3.66
278.743	4.15
279.122	2.95
279.5	2.83
279.878	3.02
280.257	3.6
280.635	3.15
281.013	3.77
281.391	3.22
281.769	3.61
282.147	3.62
282.525	3.75
282.903	3.5
283.281	3.48
283.659	4
284.037	3.58
284.415	3.25
284.792	4.03
285.17	3.66
285.548	3.64
285.925	3.73
286.303	4.17
286.68	3.53
287.058	3.82
287.435	3.54
287.813	4
288.19	3.48
288.567	3.47
288.945	3.49
289.322	3.59
289.699	3.85
290.076	3.6
290.453	3.73
290.83	3.48
291.207	3.88
291.584	3.67
291.961	3.53
292.338	3.71
292.715	3.41
293.092	3.77
293.469	3.94
293.845	4.65
294.222	3.59
294.599	3.3
294.975	4.2
295.352	4.15
295.728	3.72
296.105	3.9
296.481	3.87
296.858	3.86
297.234	4.16
297.61	3.55
297.986	3.57
298.363	3.8
298.739	3.94
299.115	3.71
299.491	3.96
299.867	4.07
300.243	4.16
300.619	4.28
300.995	4.55
301.371	3.55
301.746	4.52
302.122	4.03
302.498	4.42
302.874	3.99
303.249	4.58
303.625	3.91
304	4.18
304.376	4
304.751	4.35
305.127	4.7
305.502	4.36
305.878	4.28
306.253	5.06
306.628	4.73
307.003	4.26
307.378	4.68
307.754	5.38
308.129	4.34
308.504	5.09
308.879	5.02
309.254	5.1
309.629	5.06
310.003	4.96
310.378	4.99
310.753	5
311.128	4.97
311.502	5
311.877	5.38
312.252	4.59
312.626	5.05
313.001	5.28
313.375	5.16
313.75	5.01
314.124	4.99
314.498	5.45
314.873	5.57
315.247	5.45
315.621	5.83
315.995	6.08
316.369	5.84
316.743	5.26
317.117	5.6
317.491	5.61
317.865	6.34
318.239	6.25
318.613	5.83
318.987	5.47
319.361	5.89
319.734	6.18
320.108	5.89
320.482	6.35
320.855	5.88
321.229	6.69
321.602	6.07
321.976	6.88
322.349	6.49
322.723	7.1
323.096	6.57
323.469	6.52
323.843	6.62
324.216	7.72
324.589	7.04
324.962	7.03
325.335	6.6
325.708	6.94
326.081	6.86
326.454	6.89
326.827	6.61
327.2	6.65
327.573	6.87
327.945	7.46
328.318	7.01
328.691	7.48
329.063	7.65
329.436	7.09
329.809	7.57
330.181	7.49
330.553	6.43
330.926	7.55
331.298	7.38
331.671	7.66
332.043	7.79
332.415	7.03
332.787	7.48
333.159	7.36
333.532	7.47
333.904	7.93
334.276	7.48
334.648	7.82
335.02	7.84
335.391	8.28
335.763	7.46
336.135	7.88
336.507	8.54
336.879	7.47
337.25	8.25
337.622	8.22
337.993	7.72
338.365	8.3
338.736	8.67
339.108	8.37
339.479	7.78
339.851	8.83
340.222	8.63
340.593	8.01
340.964	8.56
341.336	8.27
341.707	9.08
342.078	8.07
342.449	8.45
342.82	8.18
343.191	8.74
343.562	8.59
343.933	9.03
344.303	8.58
344.674	9.19
345.045	8.53
345.416	8.59
345.786	9.33
346.157	8.45
346.527	8.71
346.898	8.83
347.268	8.75
347.639	8.74
348.009	9.01
348.38	9.3
348.75	9.69
349.12	9.46
349.49	9.21
349.861	9.24
350.231	8.81
350.601	9.27
350.971	9.31
351.341	9.83
351.711	9.75
352.081	9.29
352.45	8.93
352.82	9.27
353.19	9.83
353.56	9.62
353.929	9.18
354.299	9.19
354.669	9.79
355.038	10.06
355.408	9.46
355.777	9.63
356.147	9.71
356.516	9.76
356.885	9.86
357.254	9.61
357.624	9.52
357.993	9.85
358.362	9.67
358.731	9.8
359.1	9.97
359.469	9.79
359.838	9.89
360.207	10.18
360.576	10.39
360.945	10.27
361.314	10.05
361.682	10.01
362.051	10.44
362.42	10.15
362.788	10.07
363.157	10.37
363.525	10.51
363.894	10.44
364.262	10.15
364.631	10.23
364.999	10.59
365.367	10.89
365.735	10.97
366.104	10.67
366.472	10.42
366.84	10.99
367.208	11
367.576	11.11
367.944	10.98
368.312	11.04
368.68	10.9
369.048	10.67
369.416	10.74
369.783	11.2
370.151	11.04
370.519	11.06
370.886	10.97
371.254	11.38
371.621	11.44
371.989	11.22
372.356	11.55
372.724	10.66
373.091	11.41
373.458	11.58
373.826	11.29
374.193	11.51
374.56	11.54
374.927	11.29
375.294	11.65
375.661	11.52
376.028	11.57
376.395	11.5
376.762	11.48
377.129	11.38
377.496	11.89
377.863	11.8
378.229	11.47
378.596	11.62
378.963	11.83
379.329	11.82
379.696	11.74
380.062	11.93
380.429	11.81
380.795	11.84
381.161	12.63
381.528	12.3
381.894	12.07
382.26	12.4
382.626	11.96
382.993	12.63
383.359	12.45
383.725	12.69
384.091	12.58
384.457	12.43
384.823	12.27
385.188	12.45
385.554	12.45
385.92	12.68
386.286	12.61
386.651	12.78
387.017	12.76
387.383	12.58
387.748	12.8
388.114	12.8
388.479	12.49
388.845	12.62
389.21	12.87
389.575	12.54
389.94	12.96
390.306	12.92
390.671	12.55
391.036	12.69
391.401	13.06
391.766	13.09
392.131	12.96
392.496	13.08
392.861	12.95
393.226	12.78
393.591	13.05
393.956	12.95
394.32	13.05
394.685	13.01
395.05	13.32
395.414	13.2
395.779	12.96
396.143	13.18
396.508	13.29
396.872	13.28
397.236	13.38
397.601	13.16
397.965	13.62
398.329	13.49
398.694	13.31
399.058	13.35
399.422	13.65
399.786	13.44
400.15	13.57
400.514	13.33
400.878	13.43
401.242	13.23
401.605	13.79
401.969	13.77
402.333	13.61
402.697	13.29
403.06	13.46
403.424	13.53
403.787	13.76
404.151	13.56
404.514	13.3
404.878	13.55
405.241	13.71
405.604	13.28
405.968	13.61
406.331	13.36
406.694	13.59
407.057	13.64
407.42	13.57
407.783	13.57
408.146	13.75
408.509	13.49
408.872	13.66
409.235	13.7
409.598	14.13
409.961	13.88
410.323	13.77
410.686	13.94
411.049	13.54
411.411	13.78
411.774	13.52
412.136	13.66
412.499	13.67
412.861	13.75
413.223	13.91
413.586	13.82
413.948	13.58
414.31	13.96
414.672	13.93
415.035	13.83
415.397	14.06
415.759	14.25
416.121	14.2
416.483	14.15
416.845	13.86
417.206	14.01
417.568	13.99
417.93	14.04
418.292	14.3
418.653	14.18
419.015	14.17
419.377	13.9
419.738	14.11
420.1	14.18
420.461	14.28
420.822	14.24
421.184	14.18
421.545	14.32
421.906	14.38
422.267	14.27
422.629	14.33
422.99	14.38
423.351	14.47
423.712	14.45
424.073	14.56
424.434	14.74
424.795	14.85
425.155	14.74
425.516	14.85
425.877	14.77
426.238	14.89
426.598	14.87
426.959	14.99
427.32	15.2
427.68	15.15
428.041	15.29
428.401	15.34
428.761	15.66
429.122	15.8
429.482	15.71
429.842	15.92
430.202	15.86
430.563	15.85
430.923	15.97
431.283	16.18
431.643	15.97
432.003	16.15
432.363	16.31
432.722	16.4
433.082	16.14
433.442	16.12
433.802	16.51
434.161	16.37
434.521	16.43
434.881	16.44
435.24	16.46
435.6	16.61
435.959	16.69
436.319	16.65
436.678	16.74
437.037	16.91
437.396	17.01
437.756	17.09
438.115	17.25
438.474	17.1
438.833	17.38
439.192	17.27
439.551	17.17
439.91	17.31
440.269	17.43
440.628	17.18
440.987	17.31
441.345	17.38
441.704	17.38
442.063	17.53
442.421	17.41
442.78	17.51
443.138	17.47
443.497	17.72
443.855	17.81
444.214	18.03
444.572	18.03
444.93	18.11
445.288	18.24
445.647	18.31
446.005	18.29
446.363	18.25
446.721	17.94
447.079	18.18
447.437	18.21
447.795	18.23
448.153	18.02
448.51	18.17
448.868	18.24
449.226	18.34
449.584	18.38
449.941	18.6
450.299	18.62
450.656	18.9
451.014	18.92
451.371	18.86
451.729	19.11
452.086	19.15
452.443	19.12
452.801	19.34
453.158	19.28
453.515	19.4
453.872	19.35
454.229	19.4
454.586	19.46
454.943	19.51
455.3	19.75
455.657	19.56
456.014	19.8
456.371	19.68
456.727	19.75
457.084	19.83
457.441	19.91
457.797	19.9
458.154	20.05
458.51	20.14
458.867	20.23
459.223	20.23
459.58	20.32
459.936	20.21
460.292	19.99
460.648	20.27
461.005	20.05
461.361	20.02
461.717	20.02
462.073	20.05
462.429	20.3
462.785	20.46
463.141	20.57
463.496	20.74
463.852	20.88
464.208	20.96
464.564	21.07
464.919	21.19
465.275	21.06
465.631	21.05
465.986	21.22
466.342	21.07
466.697	21.19
467.052	21.24
467.408	21.39
467.763	21.54
468.118	21.64
468.473	21.63
468.829	21.59
469.184	21.52
469.539	21.68
469.894	21.59
470.249	21.62
470.603	22.06
470.958	22.02
471.313	22.06
471.668	22.04
472.023	22
472.377	22.04
472.732	22
473.086	22.43
473.441	22.45
473.795	22.48
474.15	22.31
474.504	22.43
474.859	22.22
475.213	22.67
475.567	22.23
475.921	22.52
476.275	22.69
476.63	22.68
476.984	22.8
477.338	22.77
477.692	22.95
478.045	22.76
478.399	22.8
478.753	23.02
479.107	22.74
479.461	22.94
479.814	22.83
480.168	23.04
480.521	23.1
480.875	23.26
481.228	23.25
481.582	23.38
481.935	23.22
482.289	23.27
482.642	23.2
482.995	23.36
483.348	23.14
483.701	23.21
484.055	23.1
484.408	22.99
484.761	22.82
485.114	22.44
485.466	22.3
485.819	22.28
486.172	22.49
486.525	22.66
486.878	22.82
487.23	22.98
487.583	23.28
487.936	23.41
488.288	23.25
488.641	23.18
488.993	23.01
489.345	22.98
489.698	23.02
490.05	23.14
490.402	23.25
490.754	23.52
491.107	23.66
491.459	23.83
491.811	24.09
492.163	24.14
492.515	24.09
492.866	23.8
493.218	23.48
493.57	23.62
493.922	23.69
494.274	23.9
494.625	24.11
494.977	24.33
495.328	24.61
495.68	24.84
496.031	24.79
496.383	25.02
496.734	25.09
497.086	25.17
497.437	25.07
497.788	25.15
498.139	25.01
498.49	25.01
498.842	24.96
499.193	25.13
499.544	25.14
499.894	25.27
500.245	25.14
500.596	25.33
500.947	25.31
501.298	25.46
501.648	25.75
501.999	25.71
502.35	25.9
502.7	25.94
503.051	25.81
503.401	25.92
503.752	26
504.102	26.19
504.452	25.95
504.803	25.97
505.153	25.98
505.503	26
505.853	26.1
506.203	25.99
506.553	26.38
506.903	26.1
507.253	26.26
507.603	26.17
507.953	26.38
508.303	26.43
508.652	26.46
509.002	26.5
509.352	26.45
509.701	26.35
510.051	26.3
510.4	26.38
510.75	26.28
511.099	26.4
511.449	26.37
511.798	26.29
512.147	26.39
512.496	26.48
512.846	26.47
513.195	26.56
513.544	26.59
513.893	26.59
514.242	26.6
514.591	26.78
514.939	26.89
515.288	26.81
515.637	26.78
515.986	26.99
516.334	27
516.683	26.89
517.032	27.16
517.38	27.27
517.729	27.1
518.077	27.03
518.426	27.23
518.774	27.28
519.122	27.01
519.47	27.1
519.819	26.87
520.167	26.9
520.515	26.68
520.863	26.89
521.211	26.93
521.559	26.98
521.907	27.13
522.255	27.28
522.602	27.4
522.95	27.38
523.298	27.61
523.645	27.46
523.993	27.66
524.341	27.56
524.688	27.66
525.036	27.86
525.383	27.63
525.73	27.83
526.078	27.66
526.425	27.7
526.772	27.62
527.119	27.25
527.466	27.18
527.814	27.31
528.161	27.51
528.508	27.34
528.854	27.59
529.201	27.44
529.548	27.32
529.895	26.93
530.242	26.65
530.588	26.8
530.935	27
531.282	27.05
531.628	27.16
531.975	27.51
532.321	27.5
532.667	27.74
533.014	27.95
533.36	27.92
533.706	28.01
534.052	28.02
534.399	27.76
534.745	27.57
535.091	27.39
535.437	27.45
535.783	27.81
536.129	27.78
536.474	28.05
536.82	28.29
537.166	28.32
537.512	28.49
537.857	28.31
538.203	28.03
538.549	28.05
538.894	28.19
539.239	28.47
539.585	28.53
539.93	28.66
540.276	28.8
540.621	29.09
540.966	28.9
541.311	28.91
541.656	28.82
542.001	28.98
542.346	28.54
542.691	28.27
543.036	28.06
543.381	28.18
543.726	28.15
544.071	28.36
544.415	28.51
544.76	28.58
545.105	28.66
545.449	28.79
545.794	28.98
546.138	29.11
546.483	29.27
546.827	29.37
547.171	29.29
547.516	29.53
547.86	29.14
548.204	29.41
548.548	29.31
548.892	29.39
549.236	29.45
549.58	29.49
549.924	29.8
550.268	29.84
550.612	30.07
550.956	30.26
551.3	30.13
551.643	29.98
551.987	30.26
552.33	30.19
552.674	30.48
553.017	30.31
553.361	30.34
553.704	30.03
554.048	30.36
554.391	30.12
554.734	30.29
555.077	30
555.42	30.22
555.764	30.38
556.107	30.65
556.45	30.66
556.793	30.66
557.135	30.66
557.478	30.98
557.821	30.8
558.164	30.72
558.507	30.6
558.849	30.98
559.192	30.95
559.534	30.99
559.877	31.01
560.219	31.12
560.562	31.27
560.904	31.02
561.246	31.17
561.589	31.36
561.931	31.22
562.273	31.23
562.615	31.24
562.957	31.12
563.299	31.07
563.641	31.12
563.983	31.44
564.325	31.38
564.667	31.46
565.008	31.43
565.35	31.75
565.692	31.46
566.033	31.34
566.375	31.17
566.716	31.27
567.058	31.56
567.399	31.31
567.741	31.23
568.082	31.34
568.423	31.15
568.764	31.44
569.105	31.33
569.447	31.65
569.788	31.94
570.129	31.74
570.47	31.68
570.811	31.82
571.151	31.66
571.492	31.89
571.833	31.75
572.174	31.83
572.514	32.04
572.855	31.83
573.195	31.95
573.536	32.06
573.876	31.62
574.217	31.84
574.557	31.76
574.898	32.01
575.238	32.06
575.578	32.18
575.918	32.25
576.258	31.97
576.598	32.26
576.938	32.33
577.278	32.31
577.618	31.99
577.958	32.19
578.298	32.13
578.638	32.24
578.977	32.55
579.317	32.53
579.657	32.92
579.996	32.71
580.336	32.7
580.675	32.96
581.014	32.85
581.354	33.03
581.693	32.8
582.032	33.16
582.372	33.17
582.711	32.91
583.05	33.5
583.389	33.42
583.728	33.38
584.067	33.28
584.406	33.37
584.745	33.43
585.083	33.19
585.422	33.57
585.761	33.37
586.1	33.35
586.438	33.56
586.777	33.43
587.115	33.5
587.454	33.74
587.792	33.64
588.13	33.84
588.469	33.58
588.807	33.69
589.145	33.62
589.483	33.59
589.821	33.78
590.159	34.07
590.497	33.74
590.835	33.68
591.173	34.02
591.511	33.73
591.849	33.63
592.187	33.68
592.524	33.79
592.862	33.82
593.2	33.92
593.537	33.99
593.875	34.12
594.212	34.1
594.55	34.03
594.887	34.24
595.224	34.23
595.561	34.17
595.899	33.94
596.236	34.14
596.573	34.27
596.91	34.01
597.247	34.38
597.584	34.16
597.921	34.49
598.258	34.1
598.594	33.96
598.931	34.18
599.268	34.05
599.604	34.25
599.941	34.13
600.277	34.55
600.614	34.4
600.95	34.44
601.287	34.81
601.623	34.9
601.959	34.65
602.296	35
602.632	34.92
602.968	34.72
603.304	35.08
603.64	34.67
603.976	35.32
604.312	34.94
604.648	34.82
604.984	34.99
605.319	35
605.655	34.9
605.991	34.88
606.326	34.98
606.662	34.84
606.998	34.95
607.333	34.89
607.668	34.75
608.004	35.25
608.339	35.36
608.674	35.13
609.01	35.62
609.345	35.33
609.68	35.6
610.015	35.72
610.35	35.6
610.685	35.44
611.02	35.58
611.355	35.36
611.689	35.48
612.024	35.31
612.359	35.61
612.694	35.82
613.028	35.83
613.363	36.1
613.697	35.91
614.032	35.83
614.366	35.85
614.7	36.26
615.035	36.36
615.369	36.29
615.703	36.09
616.037	36.1
616.371	36.25
616.705	35.95
617.039	35.99
617.373	36.22
617.707	36.22
618.041	36.59
618.375	36.85
618.709	36.15
619.042	36.4
619.376	36.62
619.71	36.65
620.043	36.71
620.377	36.58
620.71	36.7
621.043	36.58
621.377	36.87
621.71	37.13
622.043	36.43
622.376	36.39
622.709	36.67
623.043	36.77
623.376	37.01
623.709	37.03
624.041	37.07
624.374	36.92
624.707	37.04
625.04	37.32
625.373	37.18
625.705	36.7
626.038	37.18
626.37	36.99
626.703	36.86
627.035	37.32
627.368	37.02
627.7	36.91
628.032	37.09
628.365	37.29
628.697	37.04
629.029	36.99
629.361	37.33
629.693	37.31
630.025	37.5
630.357	37.44
630.689	37.66
631.021	37.38
631.353	37.34
631.684	37.3
632.016	37.59
632.348	37.61
632.679	37.58
633.011	38.1
633.342	37.4
633.674	37.74
634.005	37.58
634.336	37.93
634.668	37.47
634.999	37.77
635.33	38.01
635.661	37.98
635.992	37.93
636.323	38.1
636.654	38.46
636.985	38
637.316	38.22
637.647	38.7
637.977	37.75
638.308	37.97
638.639	37.7
638.969	38.27
639.3	38.12
639.63	38.25
639.961	38.57
640.291	38.03
640.622	38.67
640.952	38.17
641.282	38.28
641.612	38.78
641.943	38.99
642.273	38.84
642.603	39.03
642.933	39.24
643.263	39.16
643.592	39.05
643.922	39.28
644.252	39.32
644.582	39.04
644.911	39.09
645.241	39.01
645.571	38.81
645.9	38.93
646.23	39.22
646.559	39.12
646.888	38.83
647.218	39.13
647.547	39.22
647.876	39.58
648.205	39.09
648.534	39.6
648.863	39.19
649.192	39.38
649.521	39.21
649.85	39.2
650.179	39.09
650.508	39.44
650.837	39.75
651.165	40.08
651.494	39.29
651.822	40.01
652.151	38.78
652.479	39.88
652.808	39.94
653.136	39.58
653.465	39.23
653.793	39.74
654.121	39.59
654.449	39.42
654.777	40.13
655.105	40.01
655.433	39.75
655.761	40.26
656.089	40.53
656.417	40.12
656.745	39.83
657.073	39.56
657.4	40.36
657.728	40.13
658.056	40.41
658.383	39.78
658.711	40.39
659.038	40.13
659.365	39.89
659.693	40.36
660.02	40.06
660.347	40.49
660.674	39.74
661.001	40.39
661.329	39.86
661.656	40.69
661.982	40.81
662.309	40.4
662.636	40.16
662.963	40.78
663.29	40.55
663.616	40.63
663.943	40.87
664.27	40.43
664.596	41.07
664.923	40.91
665.249	41.46
665.576	41.05
665.902	41.3
666.228	40.87
666.554	40.67
666.881	40.94
667.207	41.47
667.533	41.38
667.859	40.99
668.185	40.86
668.511	40.89
668.837	42.19
669.162	41.73
669.488	41
669.814	41.31
670.139	40.94
670.465	40.56
670.791	41.19
671.116	41.01
671.442	41.64
671.767	41.33
672.092	41.44
