Data from 97278_crown_Reflection__0__71.txt Node

Date: Fri Sep 23 20:14:29 CDT 2022
User: ToomeyLab
Spectrometer: FLMS14357
Trigger mode: 0
Integration Time (sec): 1.000000E-2
Scans to average: 100
Electric dark correction enabled: true
Nonlinearity correction enabled: false
Boxcar width: 0
XAxis mode: Wavelengths
Number of Pixels in Spectrum: 2048
>>>>>Begin Spectral Data<<<<<
189.047	-126.56
189.435	-126.56
189.823	-126.56
190.211	27.19
190.599	250.65
190.987	-300
191.375	2.9
191.763	124.97
192.151	-73.16
192.538	-96.13
192.926	3.21
193.314	641.54
193.702	128.61
194.089	-9.15
194.477	376.67
194.864	-318.32
195.252	274.5
195.639	77.63
196.027	359.97
196.414	203.41
196.801	-211.96
197.189	87.35
197.576	-39.96
197.963	16.07
198.351	57.37
198.738	-88.83
199.125	35.41
199.512	46.21
199.899	-9.38
200.286	18.09
200.673	-38.34
201.06	21.26
201.447	62.47
201.833	30.14
202.22	3.35
202.607	12.71
202.994	-14.96
203.38	33.23
203.767	10.78
204.154	65.61
204.54	27.47
204.927	16.78
205.313	41.76
205.699	-5.79
206.086	-26.06
206.472	4.66
206.858	39.57
207.245	22.24
207.631	8.26
208.017	-3.74
208.403	8.53
208.789	15.88
209.175	14.12
209.561	4.73
209.947	-26.58
210.333	-8.22
210.719	3.58
211.105	45.88
211.491	8.47
211.876	-2.65
212.262	-7.16
212.648	8.09
213.034	-14.58
213.419	-36.17
213.805	39.42
214.19	-26.75
214.576	21.42
214.961	27.42
215.346	-40.27
215.732	21
216.117	3.14
216.502	17.57
216.888	20.08
217.273	3.74
217.658	-30.92
218.043	19.65
218.428	9.43
218.813	13.85
219.198	9.5
219.583	16.62
219.968	13.31
220.353	-1.59
220.738	-4.24
221.122	6.39
221.507	-2.42
221.892	-14.01
222.276	-11.15
222.661	1.61
223.046	-2.16
223.43	-13.37
223.815	3.54
224.199	9.05
224.583	10.34
224.968	7.74
225.352	4.85
225.736	4.84
226.121	14.29
226.505	6.99
226.889	5.97
227.273	6.98
227.657	5.64
228.041	6.71
228.425	5.96
228.809	5.95
229.193	8.75
229.577	8.08
229.961	6.07
230.344	4.84
230.728	5.47
231.112	5.29
231.495	5.01
231.879	4.01
232.263	7.27
232.646	7.9
233.03	6.46
233.413	6.39
233.797	5.22
234.18	7.27
234.563	4.69
234.946	7.23
235.33	3.93
235.713	7
236.096	3.95
236.479	4.47
236.862	6.41
237.245	7.23
237.628	7.39
238.011	6.34
238.394	5.49
238.777	5.98
239.16	4.9
239.543	3.79
239.925	5.74
240.308	7.63
240.691	6.96
241.073	4.44
241.456	4.49
241.838	6.51
242.221	5.92
242.603	6.3
242.986	5.03
243.368	5.72
243.75	5.36
244.133	5.3
244.515	5.17
244.897	5.38
245.279	6.36
245.661	6.02
246.043	7.29
246.425	5.14
246.807	4.89
247.189	6.69
247.571	5.07
247.953	5.67
248.335	5.37
248.717	5.74
249.098	5.26
249.48	5.2
249.862	5.67
250.243	5.81
250.625	5.59
251.006	5.74
251.388	5.44
251.769	5.22
252.151	3.8
252.532	4.83
252.913	5.69
253.295	5.62
253.676	5.57
254.057	5.24
254.438	5.53
254.819	6.55
255.2	5.61
255.581	6.87
255.962	4.72
256.343	5.38
256.724	4.69
257.105	4.7
257.486	5.69
257.867	5.79
258.247	5.17
258.628	4.38
259.009	4.84
259.389	5.34
259.77	4.08
260.15	4.61
260.531	5.33
260.911	4.94
261.292	5.03
261.672	4.99
262.052	5.15
262.432	4.96
262.813	5.02
263.193	5.31
263.573	5.38
263.953	4.54
264.333	4.9
264.713	5.12
265.093	5.24
265.473	5.41
265.853	4.11
266.233	5.46
266.612	5.43
266.992	5.97
267.372	5.21
267.752	4.92
268.131	5.21
268.511	4.65
268.89	5.12
269.27	4.82
269.649	4.92
270.029	5.2
270.408	4.53
270.787	4.47
271.167	4.72
271.546	4.41
271.925	4.54
272.304	4.31
272.683	5
273.062	4.78
273.441	4.88
273.82	4.54
274.199	4.68
274.578	4.12
274.957	4.59
275.336	4.68
275.715	4.66
276.093	5.33
276.472	5.48
276.851	4.39
277.229	5
277.608	4.84
277.986	4.42
278.365	4.76
278.743	5.55
279.122	3.98
279.5	4.7
279.878	4.7
280.257	4.52
280.635	3.99
281.013	4.32
281.391	4
281.769	4.24
282.147	4.42
282.525	4.22
282.903	4.52
283.281	4.62
283.659	4.67
284.037	4.52
284.415	4.23
284.792	4.28
285.17	4.9
285.548	4.31
285.925	4.77
286.303	4.85
286.68	4.58
287.058	4.51
287.435	4.14
287.813	4.61
288.19	4.63
288.567	4.61
288.945	4.55
289.322	4.68
289.699	4.57
290.076	4.39
290.453	4.04
290.83	4.32
291.207	4.32
291.584	4.46
291.961	4.12
292.338	4.72
292.715	4.19
293.092	3.88
293.469	4.92
293.845	4.73
294.222	4.56
294.599	4.24
294.975	4.11
295.352	4.41
295.728	4.65
296.105	4.23
296.481	4.2
296.858	4.04
297.234	3.94
297.61	3.75
297.986	4.23
298.363	4.3
298.739	4.31
299.115	3.96
299.491	4.29
299.867	4.07
300.243	4.59
300.619	4.42
300.995	4.44
301.371	3.43
301.746	4.15
302.122	4.02
302.498	4.13
302.874	3.91
303.249	4.27
303.625	4.71
304	4.07
304.376	3.79
304.751	3.64
305.127	4.06
305.502	4.33
305.878	4.21
306.253	4.25
306.628	4.29
307.003	3.87
307.378	4.04
307.754	4.22
308.129	3.64
308.504	4.31
308.879	4.33
309.254	4.34
309.629	4.1
310.003	3.96
310.378	4.62
310.753	4.02
311.128	4.01
311.502	3.64
311.877	3.98
312.252	3.71
312.626	4.1
313.001	3.77
313.375	4.12
313.75	3.68
314.124	3.65
314.498	4.02
314.873	4.51
315.247	4.22
315.621	3.79
315.995	4.43
316.369	4.37
316.743	4.17
317.117	3.68
317.491	3.99
317.865	3.96
318.239	4.24
318.613	3.48
318.987	3.66
319.361	3.58
319.734	3.79
320.108	3.31
320.482	3.93
320.855	3.79
321.229	4.33
321.602	3.68
321.976	4.11
322.349	3.2
322.723	4.07
323.096	4.25
323.469	3.86
323.843	3.48
324.216	4.02
324.589	4.3
324.962	4.36
325.335	4.12
325.708	3.94
326.081	3.88
326.454	4.01
326.827	3.34
327.2	3.3
327.573	4.56
327.945	4.71
328.318	3.45
328.691	4.24
329.063	4.19
329.436	4.1
329.809	4.23
330.181	4.2
330.553	3.39
330.926	4.18
331.298	4.17
331.671	4.29
332.043	3.87
332.415	4.04
332.787	3.78
333.159	4.02
333.532	3.78
333.904	3.59
334.276	3.61
334.648	3.46
335.02	3.98
335.391	3.81
335.763	3.97
336.135	4.12
336.507	3.88
336.879	4.06
337.25	3.86
337.622	3.83
337.993	4.1
338.365	3.96
338.736	4.34
339.108	4.27
339.479	3.5
339.851	3.96
340.222	4.3
340.593	4.01
340.964	3.81
341.336	3.84
341.707	4.52
342.078	3.9
342.449	3.96
342.82	3.76
343.191	3.74
343.562	3.64
343.933	4.78
344.303	4.46
344.674	4.56
345.045	4.35
345.416	3.98
345.786	4.35
346.157	3.83
346.527	4.08
346.898	4.29
347.268	4.01
347.639	4.32
348.009	3.64
348.38	4.29
348.75	3.98
349.12	4.16
349.49	4
349.861	4.23
350.231	3.7
350.601	4.32
350.971	4.52
351.341	3.87
351.711	4.18
352.081	3.97
352.45	3.71
352.82	3.76
353.19	4.37
353.56	3.8
353.929	3.99
354.299	4.28
354.669	4.56
355.038	4.35
355.408	4.26
355.777	4.12
356.147	3.73
356.516	4.21
356.885	4.14
357.254	4.01
357.624	3.94
357.993	4.2
358.362	4.05
358.731	3.94
359.1	4.12
359.469	4.16
359.838	3.81
360.207	4.29
360.576	4.35
360.945	3.85
361.314	4.01
361.682	3.77
362.051	4.17
362.42	4.37
362.788	3.82
363.157	4.16
363.525	3.97
363.894	4.21
364.262	4.08
364.631	4.25
364.999	4.27
365.367	3.98
365.735	4.27
366.104	4.31
366.472	4.06
366.84	4.33
367.208	3.99
367.576	4.39
367.944	4.2
368.312	4.42
368.68	4
369.048	3.82
369.416	4.3
369.783	4.25
370.151	3.79
370.519	4
370.886	4.36
371.254	4.48
371.621	3.98
371.989	4.4
372.356	4.39
372.724	4.34
373.091	4.18
373.458	4
373.826	4.41
374.193	4.42
374.56	4.16
374.927	4.42
375.294	4.31
375.661	4.33
376.028	3.94
376.395	4.29
376.762	4.16
377.129	4.12
377.496	4.46
377.863	4.41
378.229	4.49
378.596	3.98
378.963	4.62
379.329	4.61
379.696	4.24
380.062	4.25
380.429	4.29
380.795	4.27
381.161	4.65
381.528	4.26
381.894	4.38
382.26	4.11
382.626	4.14
382.993	4.35
383.359	4.41
383.725	4.51
384.091	4.59
384.457	4.73
384.823	4.3
385.188	4.73
385.554	4.49
385.92	4.84
386.286	4.19
386.651	4.55
387.017	4.71
387.383	4.39
387.748	4.53
388.114	4.3
388.479	4.41
388.845	4.47
389.21	4.25
389.575	4.43
389.94	4.33
390.306	4.1
390.671	4.13
391.036	4.38
391.401	4.44
391.766	4.39
392.131	4.33
392.496	4.38
392.861	4.66
393.226	4.31
393.591	4.5
393.956	4.67
394.32	4.63
394.685	4.33
395.05	4.62
395.414	4.43
395.779	4.42
396.143	4.36
396.508	4.74
396.872	4.41
397.236	4.46
397.601	4.43
397.965	4.82
398.329	4.7
398.694	4.51
399.058	4.65
399.422	4.58
399.786	4.55
400.15	4.59
400.514	4.53
400.878	4.73
401.242	4.37
401.605	4.81
401.969	4.73
402.333	4.42
402.697	4.29
403.06	4.48
403.424	4.61
403.787	4.45
404.151	4.71
404.514	4.51
404.878	4.7
405.241	4.58
405.604	4.43
405.968	4.57
406.331	4.55
406.694	4.8
407.057	4.49
407.42	4.58
407.783	4.4
408.146	4.53
408.509	4.61
408.872	4.64
409.235	4.63
409.598	4.81
409.961	4.56
410.323	4.51
410.686	4.58
411.049	4.54
411.411	4.61
411.774	4.46
412.136	4.55
412.499	4.6
412.861	4.74
413.223	4.5
413.586	4.86
413.948	4.58
414.31	4.42
414.672	4.64
415.035	4.73
415.397	4.68
415.759	4.65
416.121	4.62
416.483	4.61
416.845	4.43
417.206	4.6
417.568	4.66
417.93	4.39
418.292	4.85
418.653	4.6
419.015	4.55
419.377	4.52
419.738	4.58
420.1	4.56
420.461	4.63
420.822	4.67
421.184	4.62
421.545	4.57
421.906	4.5
422.267	4.5
422.629	4.46
422.99	4.53
423.351	4.52
423.712	4.5
424.073	4.42
424.434	4.58
424.795	4.59
425.155	4.62
425.516	4.67
425.877	4.64
426.238	4.58
426.598	4.61
426.959	4.65
427.32	4.61
427.68	4.62
428.041	4.63
428.401	4.6
428.761	4.63
429.122	4.73
429.482	4.57
429.842	4.87
430.202	4.83
430.563	4.63
430.923	4.75
431.283	4.89
431.643	4.62
432.003	4.78
432.363	4.83
432.722	4.74
433.082	4.53
433.442	4.74
433.802	4.76
434.161	4.76
434.521	4.82
434.881	4.69
435.24	4.54
435.6	4.68
435.959	4.72
436.319	4.49
436.678	4.61
437.037	4.72
437.396	4.79
437.756	4.68
438.115	4.72
438.474	4.78
438.833	4.9
439.192	4.72
439.551	4.75
439.91	4.74
440.269	4.85
440.628	4.66
440.987	4.5
441.345	4.52
441.704	4.66
442.063	4.71
442.421	4.49
442.78	4.58
443.138	4.51
443.497	4.81
443.855	4.66
444.214	4.63
444.572	4.62
444.93	4.63
445.288	4.86
445.647	4.94
446.005	4.59
446.363	4.66
446.721	4.59
447.079	4.61
447.437	4.64
447.795	4.59
448.153	4.5
448.51	4.64
448.868	4.7
449.226	4.73
449.584	4.6
449.941	4.81
450.299	4.75
450.656	4.79
451.014	4.81
451.371	4.61
451.729	4.71
452.086	4.85
452.443	4.95
452.801	4.79
453.158	4.77
453.515	4.75
453.872	4.85
454.229	4.88
454.586	4.71
454.943	4.73
455.3	4.79
455.657	4.76
456.014	4.89
456.371	4.83
456.727	4.86
457.084	4.74
457.441	5.01
457.797	4.61
458.154	4.77
458.51	4.87
458.867	4.97
459.223	4.76
459.58	4.88
459.936	4.93
460.292	4.59
460.648	4.84
461.005	4.6
461.361	4.64
461.717	4.64
462.073	4.75
462.429	4.72
462.785	4.85
463.141	4.91
463.496	4.9
463.852	4.81
464.208	4.93
464.564	4.89
464.919	4.83
465.275	4.84
465.631	4.8
465.986	4.67
466.342	4.88
466.697	4.76
467.052	4.8
467.408	4.9
467.763	4.83
468.118	4.65
468.473	4.65
468.829	4.77
469.184	4.98
469.539	4.71
469.894	4.74
470.249	4.83
470.603	4.91
470.958	4.86
471.313	4.96
471.668	4.82
472.023	4.69
472.377	4.82
472.732	4.75
473.086	4.66
473.441	4.9
473.795	4.92
474.15	4.74
474.504	4.87
474.859	4.62
475.213	4.85
475.567	4.64
475.921	4.86
476.275	4.77
476.63	4.93
476.984	4.98
477.338	4.69
477.692	4.79
478.045	4.57
478.399	4.87
478.753	4.68
479.107	4.84
479.461	4.81
479.814	4.71
480.168	4.74
480.521	4.85
480.875	4.78
481.228	5
481.582	4.71
481.935	4.83
482.289	4.81
482.642	4.59
482.995	4.92
483.348	4.63
483.701	4.75
484.055	4.65
484.408	4.63
484.761	4.59
485.114	4.35
485.466	4.32
485.819	4.33
486.172	4.51
486.525	4.67
486.878	4.68
487.23	4.74
487.583	4.73
487.936	4.78
488.288	4.62
488.641	4.61
488.993	4.5
489.345	4.57
489.698	4.51
490.05	4.59
490.402	4.58
490.754	4.72
491.107	4.78
491.459	4.73
491.811	4.83
492.163	4.91
492.515	4.67
492.866	4.51
493.218	4.38
493.57	4.5
493.922	4.62
494.274	4.71
494.625	4.75
494.977	4.79
495.328	4.88
495.68	5
496.031	4.82
496.383	4.8
496.734	4.79
497.086	4.82
497.437	4.91
497.788	4.88
498.139	4.77
498.49	4.71
498.842	4.63
499.193	4.82
499.544	4.84
499.894	4.77
500.245	4.9
500.596	4.78
500.947	4.7
501.298	4.83
501.648	4.94
501.999	4.8
502.35	4.95
502.7	4.93
503.051	4.76
503.401	4.78
503.752	4.81
504.102	4.89
504.452	4.77
504.803	4.82
505.153	4.82
505.503	4.62
505.853	4.93
506.203	4.91
506.553	4.92
506.903	4.85
507.253	4.84
507.603	4.79
507.953	4.87
508.303	4.83
508.652	4.94
509.002	4.81
509.352	4.84
509.701	4.77
510.051	4.9
510.4	4.88
510.75	4.74
511.099	4.76
511.449	4.77
511.798	4.84
512.147	4.73
512.496	4.74
512.846	4.78
513.195	4.77
513.544	4.9
513.893	4.71
514.242	4.72
514.591	4.75
514.939	4.86
515.288	4.83
515.637	4.92
515.986	4.82
516.334	4.78
516.683	4.85
517.032	4.82
517.38	4.93
517.729	4.81
518.077	4.8
518.426	4.91
518.774	4.81
519.122	4.79
519.47	4.8
519.819	4.77
520.167	4.65
520.515	4.66
520.863	4.79
521.211	4.63
521.559	4.82
521.907	4.8
522.255	4.86
522.602	4.81
522.95	4.8
523.298	4.79
523.645	4.85
523.993	4.78
524.341	4.85
524.688	4.78
525.036	4.88
525.383	4.73
525.73	4.93
526.078	4.71
526.425	4.89
526.772	4.82
527.119	4.66
527.466	4.59
527.814	4.71
528.161	4.81
528.508	4.81
528.854	4.81
529.201	4.64
529.548	4.68
529.895	4.57
530.242	4.41
530.588	4.47
530.935	4.56
531.282	4.62
531.628	4.71
531.975	4.75
532.321	4.73
532.667	4.79
533.014	4.77
533.36	4.81
533.706	4.73
534.052	4.79
534.399	4.64
534.745	4.62
535.091	4.56
535.437	4.6
535.783	4.69
536.129	4.79
536.474	4.75
536.82	4.75
537.166	4.82
537.512	4.69
537.857	4.78
538.203	4.7
538.549	4.64
538.894	4.76
539.239	4.84
539.585	4.9
539.93	4.84
540.276	4.99
540.621	4.74
540.966	4.84
541.311	4.86
541.656	4.71
542.001	4.87
542.346	4.62
542.691	4.54
543.036	4.53
543.381	4.59
543.726	4.62
544.071	4.66
544.415	4.8
544.76	4.71
545.105	4.8
545.449	4.74
545.794	4.78
546.138	4.87
546.483	4.97
546.827	4.83
547.171	4.88
547.516	4.81
547.86	4.83
548.204	4.74
548.548	4.74
548.892	4.77
549.236	4.83
549.58	4.88
549.924	5.03
550.268	5
550.612	4.93
550.956	4.91
551.3	4.96
551.643	4.79
551.987	5.02
552.33	4.87
552.674	4.86
553.017	4.8
553.361	4.79
553.704	4.87
554.048	4.82
554.391	4.83
554.734	4.72
555.077	4.78
555.42	4.77
555.764	4.79
556.107	4.87
556.45	4.93
556.793	4.85
557.135	4.91
557.478	4.94
557.821	4.81
558.164	4.95
558.507	4.85
558.849	4.86
559.192	5.07
559.534	4.91
559.877	4.84
560.219	4.81
560.562	5.15
560.904	4.89
561.246	4.81
561.589	4.91
561.931	4.93
562.273	5.06
562.615	4.9
562.957	4.71
563.299	4.91
563.641	4.87
563.983	4.87
564.325	4.8
564.667	5
565.008	5.08
565.35	4.91
565.692	5
566.033	4.75
566.375	4.9
566.716	4.91
567.058	4.94
567.399	4.65
567.741	4.9
568.082	4.88
568.423	4.77
568.764	4.81
569.105	4.72
569.447	4.76
569.788	4.86
570.129	4.82
570.47	4.82
570.811	4.94
571.151	4.97
571.492	4.9
571.833	4.9
572.174	4.92
572.514	4.93
572.855	4.8
573.195	4.89
573.536	5.11
573.876	4.67
574.217	4.85
574.557	4.93
574.898	4.82
575.238	4.9
575.578	4.87
575.918	4.8
576.258	4.87
576.598	4.8
576.938	4.96
577.278	5.04
577.618	4.79
577.958	5.05
578.298	4.87
578.638	4.91
578.977	4.92
579.317	4.99
579.657	4.97
579.996	4.92
580.336	5.01
580.675	4.95
581.014	4.87
581.354	5.03
581.693	4.88
582.032	4.83
582.372	5.1
582.711	5.06
583.05	5.02
583.389	5.13
583.728	4.94
584.067	4.86
584.406	4.73
584.745	4.96
585.083	4.91
585.422	5.02
585.761	4.99
586.1	4.91
586.438	4.84
586.777	4.87
587.115	4.95
587.454	4.89
587.792	5.01
588.13	4.94
588.469	4.66
588.807	4.76
589.145	4.9
589.483	5.02
589.821	5.06
590.159	4.72
590.497	4.72
590.835	4.71
591.173	5.02
591.511	4.99
591.849	4.67
592.187	4.79
592.524	5.12
592.862	4.91
593.2	4.99
593.537	5.06
593.875	5.17
594.212	5.01
594.55	4.72
594.887	4.72
595.224	4.77
595.561	4.88
595.899	4.71
596.236	4.74
596.573	5.03
596.91	4.83
597.247	4.81
597.584	5.08
597.921	4.93
598.258	4.65
598.594	4.86
598.931	4.93
599.268	4.88
599.604	4.7
599.941	4.98
600.277	4.84
600.614	4.97
600.95	4.83
601.287	5.06
601.623	4.77
601.959	4.88
602.296	4.81
602.632	5.11
602.968	4.7
603.304	4.87
603.64	4.76
603.976	4.78
604.312	5.06
604.648	4.86
604.984	4.85
605.319	4.96
605.655	4.91
605.991	4.61
606.326	4.75
606.662	4.64
606.998	4.87
607.333	4.79
607.668	4.85
608.004	4.84
608.339	4.98
608.674	4.96
609.01	4.95
609.345	4.95
609.68	4.78
610.015	5.11
610.35	4.83
610.685	4.47
611.02	4.73
611.355	4.64
611.689	4.71
612.024	4.76
612.359	4.7
612.694	5.1
613.028	4.99
613.363	5.05
613.697	4.89
614.032	4.75
614.366	4.86
614.7	4.94
615.035	4.95
615.369	5.01
615.703	4.73
616.037	4.55
616.371	4.79
616.705	4.66
617.039	5.01
617.373	4.86
617.707	5.25
618.041	4.87
618.375	4.9
618.709	4.46
619.042	4.61
619.376	5.47
619.71	4.84
620.043	4.53
620.377	5.12
620.71	5.01
621.043	4.9
621.377	4.73
621.71	4.98
622.043	4.85
622.376	4.48
622.709	5.04
623.043	4.77
623.376	4.9
623.709	5.18
624.041	5.02
624.374	4.42
624.707	5
625.04	5.24
625.373	4.89
625.705	5
626.038	4.51
626.37	4.75
626.703	4.77
627.035	5.12
627.368	5.13
627.7	4.86
628.032	4.62
628.365	4.5
628.697	4.7
629.029	4.85
629.361	5.02
629.693	4.93
630.025	5.02
630.357	5.05
630.689	4.99
631.021	4.34
631.353	5.04
631.684	5.05
632.016	5.21
632.348	4.66
632.679	5.09
633.011	5.25
633.342	5.33
633.674	4.91
634.005	4.87
634.336	5.08
634.668	4.84
634.999	5.22
635.33	4.93
635.661	5.09
635.992	4.88
636.323	4.83
636.654	5.14
636.985	5.24
637.316	4.96
637.647	5.12
637.977	4.65
638.308	4.77
638.639	4.83
638.969	5.17
639.3	4.95
639.63	4.63
639.961	5.16
640.291	5.01
640.622	4.93
640.952	4.93
641.282	5.17
641.612	4.82
641.943	4.93
642.273	5.03
642.603	5.11
642.933	5.13
643.263	4.62
643.592	5.03
643.922	5.01
644.252	5.13
644.582	5.14
644.911	4.73
645.241	5.19
645.571	5.25
645.9	5.11
646.23	5.46
646.559	5.1
646.888	4.99
647.218	5.22
647.547	5.09
647.876	4.74
648.205	5.01
648.534	5.71
648.863	5.09
649.192	5.22
649.521	4.85
649.85	4.85
650.179	4.37
650.508	5.09
650.837	5.18
651.165	5.42
651.494	4.84
651.822	4.58
652.151	4.79
652.479	4.86
652.808	5.02
653.136	5.07
653.465	4.73
653.793	4.83
654.121	4.22
654.449	5.04
654.777	5.31
655.105	4.66
655.433	4.9
655.761	4.95
656.089	5.1
656.417	5.38
656.745	4.68
657.073	4.53
657.4	4.98
657.728	5.25
658.056	5.32
658.383	5.03
658.711	4.84
659.038	4.95
659.365	4.62
659.693	5.3
660.02	5.23
660.347	5.08
660.674	4.54
661.001	5.32
661.329	4.81
661.656	5.49
661.982	5.2
662.309	5.17
662.636	5.23
662.963	5.36
663.29	4.81
663.616	4.92
663.943	5.04
664.27	4.87
664.596	5.12
664.923	5.33
665.249	5.33
665.576	5.54
665.902	4.96
666.228	6.02
666.554	4.99
666.881	5.16
667.207	4.86
667.533	4.48
667.859	4.89
668.185	5.1
668.511	4.63
668.837	5.81
669.162	5.26
669.488	4.45
669.814	5.13
670.139	4.92
670.465	5.1
670.791	5.18
671.116	5.02
671.442	5.14
671.767	4.83
672.092	4.82
672.418	5.55
672.743	5.01
673.068	4.89
673.393	5.45
673.718	5.18
674.043	6.04
674.368	5.27
674.693	5.06
675.018	5.05
675.343	5.48
675.667	4.57
675.992	4.98
676.317	5.05
676.641	4.72
676.966	5.51
677.29	5.24
677.615	4.78
677.939	4.73
678.264	4.47
678.588	4.69
678.912	4.49
679.236	5.07
679.56	4.86
679.885	5.19
680.209	4.81
680.532	5.26
680.856	5.19
681.18	5.36
681.504	5.67
681.828	5.28
682.152	5.18
682.475	5.02
682.799	4.68
683.122	5.11
683.446	5.28
683.769	5.04
684.093	5.78
684.416	4.77
684.739	5.31
685.062	5.44
685.386	5.44
685.709	5.11
686.032	5.14
686.355	5.14
686.678	5.52
687.001	5.22
687.324	5.41
687.646	5.68
687.969	4.73
688.292	4.98
688.614	5.58
688.937	4.33
689.26	5.4
689.582	5.03
689.904	5.71
690.227	5
690.549	4.95
690.871	5.47
691.194	4.78
691.516	5.1
691.838	5.27
692.16	5.35
692.482	6.65
692.804	5.15
