Data from 97278_chest_Reflection__4__65.txt Node

Date: Fri Sep 23 20:12:22 CDT 2022
User: ToomeyLab
Spectrometer: FLMS14357
Trigger mode: 0
Integration Time (sec): 1.000000E-2
Scans to average: 100
Electric dark correction enabled: true
Nonlinearity correction enabled: false
Boxcar width: 0
XAxis mode: Wavelengths
Number of Pixels in Spectrum: 2048
>>>>>Begin Spectral Data<<<<<
189.047	150.07
189.435	150.07
189.823	150.07
190.211	153.8
190.599	693.18
190.987	-76.03
191.375	165.2
191.763	73.98
192.151	-317.64
192.538	-1185.65
192.926	386.66
193.314	442.18
193.702	124.33
194.089	61.18
194.477	298.12
194.864	-97.26
195.252	76.42
195.639	73.78
196.027	-76.33
196.414	76.95
196.801	-156.1
197.189	-612.75
197.576	224.7
197.963	107.99
198.351	47.01
198.738	-51.12
199.125	48.59
199.512	16.34
199.899	12.76
200.286	17.2
200.673	6.21
201.06	-6.8
201.447	33.23
201.833	15.3
202.22	33.72
202.607	20.17
202.994	3.13
203.38	8.44
203.767	-27.64
204.154	65.58
204.54	6.85
204.927	39.42
205.313	46.12
205.699	42.03
206.086	2.55
206.472	43.8
206.858	20.8
207.245	19.2
207.631	10.08
208.017	21.77
208.403	42.33
208.789	53.45
209.175	20.53
209.561	33.36
209.947	6.7
210.333	-5.35
210.719	12.74
211.105	76.6
211.491	5.25
211.876	4.8
212.262	3.63
212.648	-5.17
213.034	-26.34
213.419	-42.68
213.805	25.15
214.19	-25
214.576	-18.19
214.961	24.53
215.346	-49.08
215.732	22.66
216.117	15.67
216.502	8.69
216.888	45.9
217.273	20.57
217.658	12.27
218.043	19.29
218.428	3.41
218.813	9.16
219.198	-5.22
219.583	18.94
219.968	7.74
220.353	-3.64
220.738	3.19
221.122	0.58
221.507	-0.19
221.892	9.46
222.276	-21.57
222.661	7.66
223.046	10.46
223.43	-4.24
223.815	7.36
224.199	-12.68
224.583	8.92
224.968	-1.11
225.352	3.64
225.736	2.19
226.121	12.68
226.505	4.34
226.889	2.54
227.273	4.53
227.657	-2.06
228.041	5.39
228.425	3.1
228.809	2.31
229.193	2.38
229.577	3.15
229.961	3.55
230.344	1.94
230.728	1.07
231.112	1.35
231.495	1.41
231.879	1.22
232.263	3.36
232.646	4.05
233.03	0.91
233.413	2.59
233.797	1.9
234.18	4.12
234.563	2.26
234.946	6.37
235.33	3.37
235.713	4.3
236.096	0.05
236.479	-0.26
236.862	1.02
237.245	4.76
237.628	2.82
238.011	4.09
238.394	2.87
238.777	2.69
239.16	2.69
239.543	2.41
239.925	3.44
240.308	2.79
240.691	1.85
241.073	1.61
241.456	1.84
241.838	4.39
242.221	2.83
242.603	3.1
242.986	0.99
243.368	1.37
243.75	2.42
244.133	1.96
244.515	1.31
244.897	1.98
245.279	3.1
245.661	3.26
246.043	3.25
246.425	2.19
246.807	1.76
247.189	2.69
247.571	1.73
247.953	1.65
248.335	2.5
248.717	2.17
249.098	2.08
249.48	1.92
249.862	1.91
250.243	2.04
250.625	2.22
251.006	2.62
251.388	2.42
251.769	2.03
252.151	0.48
252.532	2.25
252.913	2.23
253.295	2.22
253.676	2.18
254.057	2.15
254.438	1.86
254.819	2.38
255.2	3.18
255.581	3.58
255.962	2.46
256.343	1.39
256.724	2.94
257.105	2.62
257.486	1.26
257.867	2.49
258.247	2.95
258.628	1.63
259.009	1.77
259.389	1.68
259.77	1.89
260.15	2.24
260.531	1.94
260.911	2.13
261.292	1.81
261.672	1.75
262.052	1.84
262.432	1.93
262.813	1.74
263.193	1.68
263.573	2.54
263.953	1.64
264.333	1.93
264.713	2.18
265.093	2.13
265.473	2.22
265.853	2.83
266.233	1.25
266.612	1.97
266.992	2.66
267.372	1.6
267.752	2.46
268.131	2.77
268.511	1.81
268.89	2.67
269.27	2.4
269.649	1.77
270.029	2.35
270.408	2.01
270.787	2
271.167	1.99
271.546	1.93
271.925	2.37
272.304	1.86
272.683	2
273.062	1.84
273.441	2.43
273.82	1.76
274.199	1.67
274.578	1.51
274.957	1.59
275.336	1.74
275.715	2.29
276.093	2.63
276.472	3.33
276.851	2.22
277.229	1.83
277.608	1.75
277.986	1.75
278.365	2.08
278.743	2.48
279.122	1.49
279.5	2.41
279.878	1.77
280.257	1.38
280.635	2.52
281.013	1.54
281.391	1.86
281.769	1.57
282.147	1.43
282.525	1.76
282.903	1.91
283.281	2.1
283.659	2.14
284.037	1.83
284.415	1.58
284.792	1.8
285.17	2.16
285.548	1.38
285.925	1.84
286.303	2.53
286.68	1.81
287.058	1.82
287.435	1.89
287.813	2.08
288.19	1.89
288.567	2
288.945	2.41
289.322	2.21
289.699	2.45
290.076	2.03
290.453	1.78
290.83	2.22
291.207	1.95
291.584	2.08
291.961	2.41
292.338	2.18
292.715	2.18
293.092	2.05
293.469	2.51
293.845	2.63
294.222	2.14
294.599	1.64
294.975	2.52
295.352	2.09
295.728	1.62
296.105	2.25
296.481	2.15
296.858	2.18
297.234	1.88
297.61	1.51
297.986	2.23
298.363	2.09
298.739	2.11
299.115	2.33
299.491	2.28
299.867	1.73
300.243	2.43
300.619	2.67
300.995	2.31
301.371	1.5
301.746	2.35
302.122	2.56
302.498	2.43
302.874	2.25
303.249	2.05
303.625	2.35
304	2.13
304.376	2.19
304.751	1.49
305.127	2.32
305.502	2.19
305.878	2.38
306.253	2.13
306.628	2.51
307.003	1.5
307.378	2.32
307.754	2.85
308.129	2.36
308.504	2.45
308.879	2.51
309.254	2.24
309.629	2.34
310.003	3.16
310.378	2.65
310.753	2.03
311.128	2.35
311.502	2.27
311.877	2.12
312.252	2.17
312.626	2.18
313.001	2.16
313.375	2.32
313.75	2.3
314.124	1.94
314.498	2.71
314.873	2.36
315.247	2.83
315.621	2.13
315.995	3.17
316.369	2.46
316.743	1.7
317.117	1.7
317.491	1.97
317.865	3.06
318.239	3.02
318.613	2.4
318.987	1.87
319.361	2.38
319.734	2.56
320.108	1.82
320.482	2.67
320.855	2.38
321.229	2.88
321.602	2.19
321.976	3.12
322.349	2.85
322.723	2.74
323.096	2.1
323.469	1.7
323.843	2
324.216	2.77
324.589	2.78
324.962	2.6
325.335	2.29
325.708	2.58
326.081	2.02
326.454	2.48
326.827	2.16
327.2	1.92
327.573	2.46
327.945	3.05
328.318	2.11
328.691	2.3
329.063	2.52
329.436	2.77
329.809	3.28
330.181	2.52
330.553	2
330.926	2.23
331.298	2.87
331.671	3.1
332.043	2.57
332.415	2.65
332.787	2.3
333.159	2.28
333.532	2.27
333.904	2.7
334.276	1.94
334.648	2.64
335.02	2.67
335.391	2.69
335.763	2.13
336.135	2.78
336.507	3.27
336.879	2.23
337.25	2.43
337.622	2.48
337.993	2.51
338.365	2.66
338.736	3.3
339.108	3.25
339.479	2.39
339.851	2.41
340.222	3.06
340.593	2.6
340.964	2.82
341.336	2.69
341.707	3.2
342.078	2.42
342.449	2.18
342.82	2.59
343.191	2.22
343.562	2.52
343.933	3.2
344.303	2.78
344.674	2.65
345.045	2.68
345.416	2.68
345.786	2.43
346.157	2.43
346.527	2.58
346.898	2.53
347.268	2.8
347.639	2.61
348.009	2.48
348.38	2.22
348.75	2.3
349.12	2.87
349.49	2.66
349.861	2.64
350.231	2.56
350.601	2.48
350.971	2.45
351.341	2.2
351.711	2.84
352.081	2.36
352.45	2.53
352.82	2.74
353.19	2.88
353.56	2.92
353.929	2.51
354.299	2.44
354.669	2.75
355.038	2.82
355.408	2.08
355.777	2.46
356.147	1.88
356.516	2.9
356.885	2.93
357.254	2.42
357.624	2.87
357.993	2.69
358.362	2.57
358.731	2.43
359.1	2.85
359.469	2.58
359.838	2.38
360.207	2.58
360.576	2.95
360.945	2.51
361.314	2.4
361.682	2.28
362.051	2.71
362.42	2.65
362.788	2.59
363.157	2.54
363.525	2.7
363.894	2.44
364.262	2.44
364.631	2.76
364.999	2.57
365.367	2.53
365.735	2.71
366.104	2.61
366.472	2.61
366.84	2.51
367.208	2.76
367.576	2.69
367.944	2.44
368.312	2.78
368.68	2.59
369.048	2.42
369.416	2.69
369.783	2.67
370.151	2.72
370.519	2.69
370.886	2.8
371.254	2.81
371.621	2.6
371.989	2.78
372.356	2.95
372.724	2.49
373.091	2.85
373.458	2.64
373.826	2.64
374.193	2.83
374.56	2.61
374.927	2.87
375.294	2.7
375.661	2.62
376.028	2.43
376.395	2.54
376.762	2.56
377.129	2.28
377.496	2.95
377.863	2.75
378.229	2.64
378.596	2.3
378.963	2.64
379.329	2.97
379.696	2.74
380.062	2.95
380.429	2.42
380.795	2.51
381.161	2.79
381.528	2.82
381.894	2.61
382.26	2.49
382.626	2.6
382.993	3
383.359	3.01
383.725	2.98
384.091	2.8
384.457	2.82
384.823	2.54
385.188	2.77
385.554	2.91
385.92	3.01
386.286	2.9
386.651	2.85
387.017	3.07
387.383	2.88
387.748	2.78
388.114	2.84
388.479	2.9
388.845	3
389.21	2.75
389.575	2.72
389.94	2.68
390.306	2.58
390.671	2.79
391.036	2.76
391.401	2.84
391.766	2.73
392.131	2.76
392.496	2.87
392.861	2.98
393.226	2.44
393.591	2.79
393.956	2.78
394.32	2.82
394.685	2.84
395.05	2.92
395.414	2.69
395.779	2.52
396.143	2.63
396.508	2.84
396.872	2.76
397.236	2.98
397.601	2.71
397.965	3.02
398.329	3.05
398.694	2.81
399.058	2.93
399.422	2.91
399.786	3.09
400.15	2.88
400.514	2.66
400.878	3.05
401.242	2.89
401.605	3.32
401.969	3.1
402.333	2.81
402.697	2.72
403.06	2.81
403.424	2.5
403.787	2.81
404.151	3.02
404.514	2.74
404.878	2.79
405.241	2.83
405.604	2.69
405.968	2.74
406.331	2.85
406.694	2.97
407.057	3.03
407.42	2.88
407.783	2.87
408.146	2.81
408.509	3.01
408.872	2.83
409.235	3
409.598	2.9
409.961	2.93
410.323	2.82
410.686	3.11
411.049	3.04
411.411	2.87
411.774	2.89
412.136	2.92
412.499	2.84
412.861	2.88
413.223	2.9
413.586	3.03
413.948	3
414.31	2.77
414.672	2.81
415.035	2.91
415.397	2.99
415.759	2.8
416.121	3.19
416.483	2.75
416.845	2.85
417.206	3.03
417.568	2.89
417.93	2.84
418.292	3.06
418.653	2.87
419.015	3
419.377	2.72
419.738	2.97
420.1	2.95
420.461	2.95
420.822	2.96
421.184	2.99
421.545	2.89
421.906	2.87
422.267	2.87
422.629	2.87
422.99	2.9
423.351	2.92
423.712	2.84
424.073	2.88
424.434	2.99
424.795	2.92
425.155	2.81
425.516	2.97
425.877	2.92
426.238	2.93
426.598	2.94
426.959	2.91
427.32	2.95
427.68	3.03
428.041	3.03
428.401	2.98
428.761	3.03
429.122	2.88
429.482	2.98
429.842	3.51
430.202	3.23
430.563	2.98
430.923	3.25
431.283	3.34
431.643	3.1
432.003	2.98
432.363	3.11
432.722	3.28
433.082	2.94
433.442	3.02
433.802	3
434.161	2.97
434.521	3.05
434.881	3.01
435.24	3.13
435.6	3
435.959	3.18
436.319	3.05
436.678	2.98
437.037	3.12
437.396	3.2
437.756	3.18
438.115	2.98
438.474	3.08
438.833	3.23
439.192	3.26
439.551	3.11
439.91	2.94
440.269	3.08
440.628	3.13
440.987	3.08
441.345	3.04
441.704	3.14
442.063	3.13
442.421	3.03
442.78	3.05
443.138	3
443.497	3.18
443.855	3.08
444.214	3.25
444.572	3.17
444.93	3.17
445.288	3.28
445.647	3.42
446.005	3.01
446.363	3.17
446.721	3.13
447.079	3.11
447.437	3.17
447.795	3.22
448.153	3.02
448.51	3.11
448.868	3.15
449.226	3.18
449.584	3.15
449.941	3.26
450.299	3.29
450.656	3.16
451.014	3.22
451.371	3.08
451.729	3.02
452.086	3.3
452.443	3.26
452.801	3.26
453.158	3.24
453.515	3.2
453.872	3.17
454.229	3.2
454.586	3.21
454.943	3.32
455.3	3.16
455.657	3.35
456.014	3.37
456.371	3.17
456.727	3.27
457.084	3.27
457.441	3.35
457.797	3.21
458.154	3.31
458.51	3.32
458.867	3.37
459.223	3.29
459.58	3.24
459.936	3.31
460.292	3.13
460.648	3.24
461.005	3.28
461.361	3.21
461.717	3.23
462.073	3.23
462.429	3.22
462.785	3.26
463.141	3.3
463.496	3.35
463.852	3.51
464.208	3.32
464.564	3.44
464.919	3.44
465.275	3.28
465.631	3.28
465.986	3.25
466.342	3.4
466.697	3.28
467.052	3.4
467.408	3.4
467.763	3.47
468.118	3.26
468.473	3.34
468.829	3.48
469.184	3.47
469.539	3.38
469.894	3.49
470.249	3.38
470.603	3.69
470.958	3.65
471.313	3.4
471.668	3.49
472.023	3.34
472.377	3.46
472.732	3.59
473.086	3.48
473.441	3.47
473.795	3.59
474.15	3.52
474.504	3.54
474.859	3.47
475.213	3.68
475.567	3.37
475.921	3.51
476.275	3.34
476.63	3.42
476.984	3.65
477.338	3.54
477.692	3.48
478.045	3.39
478.399	3.49
478.753	3.67
479.107	3.54
479.461	3.43
479.814	3.46
480.168	3.45
480.521	3.55
480.875	3.65
481.228	3.69
481.582	3.62
481.935	3.57
482.289	3.56
482.642	3.49
482.995	3.67
483.348	3.37
483.701	3.53
484.055	3.44
484.408	3.35
484.761	3.39
485.114	3.23
485.466	3.17
485.819	3.18
486.172	3.29
486.525	3.41
486.878	3.44
487.23	3.48
487.583	3.49
487.936	3.55
488.288	3.44
488.641	3.42
488.993	3.32
489.345	3.38
489.698	3.37
490.05	3.39
490.402	3.39
490.754	3.56
491.107	3.57
491.459	3.53
491.811	3.58
492.163	3.64
492.515	3.56
492.866	3.46
493.218	3.37
493.57	3.34
493.922	3.49
494.274	3.52
494.625	3.59
494.977	3.62
495.328	3.77
495.68	3.75
496.031	3.76
496.383	3.72
496.734	3.69
497.086	3.85
497.437	3.84
497.788	3.79
498.139	3.71
498.49	3.6
498.842	3.66
499.193	3.86
499.544	3.71
499.894	3.72
500.245	3.81
500.596	3.81
500.947	3.71
501.298	3.86
501.648	3.95
501.999	3.83
502.35	3.99
502.7	3.8
503.051	3.77
503.401	3.82
503.752	3.88
504.102	3.96
504.452	3.94
504.803	3.81
505.153	3.97
505.503	3.76
505.853	3.99
506.203	3.89
506.553	3.91
506.903	4.03
507.253	3.9
507.603	3.91
507.953	3.92
508.303	3.86
508.652	3.89
509.002	3.95
509.352	3.96
509.701	3.81
510.051	3.93
510.4	3.92
510.75	3.92
511.099	3.92
511.449	4.06
511.798	3.9
512.147	3.95
512.496	3.9
512.846	3.95
513.195	3.82
513.544	4.05
513.893	3.88
514.242	3.98
514.591	3.94
514.939	4.07
515.288	4.16
515.637	3.99
515.986	4.13
516.334	3.99
516.683	4.17
517.032	4.05
517.38	4.13
517.729	4.18
518.077	3.97
518.426	4.22
518.774	4.06
519.122	4.04
519.47	4.09
519.819	4.04
520.167	3.99
520.515	4.01
520.863	4.11
521.211	4.07
521.559	4.11
521.907	4.17
522.255	4.2
522.602	4.09
522.95	4.18
523.298	4.27
523.645	4.11
523.993	4.18
524.341	4.3
524.688	4.25
525.036	4.37
525.383	4.14
525.73	4.35
526.078	4.22
526.425	4.38
526.772	4.27
527.119	4.26
527.466	4.07
527.814	4.14
528.161	4.24
528.508	4.31
528.854	4.39
529.201	4.16
529.548	4.22
529.895	4.09
530.242	3.96
530.588	3.98
530.935	4.1
531.282	4.18
531.628	4.25
531.975	4.28
532.321	4.33
532.667	4.34
533.014	4.34
533.36	4.42
533.706	4.33
534.052	4.42
534.399	4.32
534.745	4.26
535.091	4.24
535.437	4.32
535.783	4.4
536.129	4.43
536.474	4.46
536.82	4.5
537.166	4.57
537.512	4.52
537.857	4.57
538.203	4.47
538.549	4.49
538.894	4.53
539.239	4.61
539.585	4.67
539.93	4.61
540.276	4.72
540.621	4.72
540.966	4.64
541.311	4.75
541.656	4.52
542.001	4.78
542.346	4.52
542.691	4.53
543.036	4.48
543.381	4.48
543.726	4.59
544.071	4.62
544.415	4.7
544.76	4.65
545.105	4.72
545.449	4.8
545.794	4.88
546.138	4.86
546.483	4.95
546.827	4.83
547.171	5.04
547.516	4.93
547.86	4.81
548.204	4.86
548.548	4.84
548.892	4.76
549.236	5.03
549.58	5.15
549.924	5.22
550.268	5.28
550.612	5.23
550.956	5.15
551.3	5
551.643	5.16
551.987	5.1
552.33	5.09
552.674	5.11
553.017	5.14
553.361	5.22
553.704	5.14
554.048	5.26
554.391	5.23
554.734	5.33
555.077	5.04
555.42	5.1
555.764	5.33
556.107	5.4
556.45	5.46
556.793	5.19
557.135	5.56
557.478	5.49
557.821	5.34
558.164	5.49
558.507	5.43
558.849	5.72
559.192	5.41
559.534	5.61
559.877	5.65
560.219	5.47
560.562	5.69
560.904	5.55
561.246	5.54
561.589	5.58
561.931	5.48
562.273	5.78
562.615	5.61
562.957	5.43
563.299	5.56
563.641	5.61
563.983	5.73
564.325	5.78
564.667	5.97
565.008	5.77
565.35	6.06
565.692	5.65
566.033	5.84
566.375	5.94
566.716	5.78
567.058	5.85
567.399	5.61
567.741	5.7
568.082	5.76
568.423	5.61
568.764	5.87
569.105	5.87
569.447	5.79
569.788	6.03
570.129	5.85
570.47	5.95
570.811	5.96
571.151	6.18
571.492	6.02
571.833	6.11
572.174	6.1
572.514	6.13
572.855	6.04
573.195	5.91
573.536	6.14
573.876	5.79
574.217	6.07
574.557	6.23
574.898	6.15
575.238	6.29
575.578	6.41
575.918	6.23
576.258	6.35
576.598	6.22
576.938	6.44
577.278	6.4
577.618	6.24
577.958	6.43
578.298	6.48
578.638	6.48
578.977	6.6
579.317	6.62
579.657	6.53
579.996	6.44
580.336	6.53
580.675	6.52
581.014	6.55
581.354	6.56
581.693	6.64
582.032	6.74
582.372	6.8
582.711	6.68
583.05	6.88
583.389	6.85
583.728	6.99
584.067	6.97
584.406	6.69
584.745	6.91
585.083	6.99
585.422	6.86
585.761	6.97
586.1	6.8
586.438	6.8
586.777	6.77
587.115	6.89
587.454	6.92
587.792	7.28
588.13	7.23
588.469	6.65
588.807	7.02
589.145	7.43
589.483	7.3
589.821	7.1
590.159	7.24
590.497	7.22
590.835	7.1
591.173	7.4
591.511	7.28
591.849	7.21
592.187	7.23
592.524	7.65
592.862	7.54
593.2	7.44
593.537	7.42
593.875	7.66
594.212	7.58
594.55	7.37
594.887	7.48
595.224	7.44
595.561	7.45
595.899	7.38
596.236	7.3
596.573	7.71
596.91	7.43
597.247	7.83
597.584	7.55
597.921	7.46
598.258	7.57
598.594	7.4
598.931	7.56
599.268	7.44
599.604	7.57
599.941	7.62
600.277	7.92
600.614	7.7
600.95	7.8
601.287	7.99
601.623	7.75
601.959	7.85
602.296	7.76
602.632	7.84
602.968	7.63
603.304	7.71
603.64	7.74
603.976	8.02
604.312	8.17
604.648	8.09
604.984	7.88
605.319	8.06
605.655	7.99
605.991	7.98
606.326	7.95
606.662	8.17
606.998	8.11
607.333	8.01
607.668	8.05
608.004	8.24
608.339	8.29
608.674	8.4
609.01	8.56
609.345	8.36
609.68	8.32
610.015	8.42
610.35	8.47
610.685	8.08
611.02	8.31
611.355	8.33
611.689	8.44
612.024	8.43
612.359	8.43
612.694	8.82
613.028	8.84
613.363	8.72
613.697	8.74
614.032	8.56
614.366	8.9
614.7	8.74
615.035	9.02
615.369	9.15
615.703	8.8
616.037	8.6
616.371	8.83
616.705	8.84
617.039	8.98
617.373	9.43
617.707	9.27
618.041	9.62
618.375	9.15
618.709	8.86
619.042	9.18
619.376	9.26
619.71	8.97
620.043	8.77
620.377	9.24
620.71	9.13
621.043	8.93
621.377	8.79
621.71	9.15
622.043	8.98
622.376	9.16
622.709	9.42
623.043	9.27
623.376	9.33
623.709	9.27
624.041	9.47
624.374	9.3
624.707	9.19
625.04	9.99
625.373	9.54
625.705	9.27
626.038	9.05
626.37	9.45
626.703	9.42
627.035	9.79
627.368	9.36
627.7	9.33
628.032	9.46
628.365	9.25
628.697	9.6
629.029	9.75
629.361	9.75
629.693	9.64
630.025	9.97
630.357	9.98
630.689	9.66
631.021	9.61
631.353	9.86
631.684	10.17
632.016	10.03
632.348	9.94
632.679	9.98
633.011	10.17
633.342	10.25
633.674	9.88
634.005	9.82
634.336	10.28
634.668	10.15
634.999	9.88
635.33	10.3
635.661	9.94
635.992	10.16
636.323	10.47
636.654	10.32
636.985	10.36
637.316	10.12
637.647	10.2
637.977	10.18
638.308	9.96
638.639	10.12
638.969	10.43
639.3	10.22
639.63	10.07
639.961	10.7
640.291	10.21
640.622	10.54
640.952	10.61
641.282	10.89
641.612	11.1
641.943	10.55
642.273	10.9
642.603	10.79
642.933	11.1
643.263	10.51
643.592	10.88
643.922	10.73
644.252	10.99
644.582	11.35
644.911	10.52
645.241	10.75
645.571	11.24
645.9	10.97
646.23	11.22
646.559	10.63
646.888	11.43
647.218	11.15
647.547	11.34
647.876	10.46
648.205	10.93
648.534	11.29
648.863	11.01
649.192	10.88
649.521	10.96
649.85	10.88
650.179	10.67
650.508	11.31
650.837	11.69
651.165	11.24
651.494	11.16
651.822	11.26
652.151	10.97
652.479	11.2
652.808	11.29
653.136	11.31
653.465	11.01
653.793	11.07
654.121	11.4
654.449	11.3
654.777	11.26
655.105	11.85
655.433	11.67
655.761	11.75
656.089	12.06
656.417	11.14
656.745	11.62
657.073	11.27
657.4	11.78
657.728	11.51
658.056	11.69
658.383	11.89
658.711	11.66
659.038	11.56
659.365	11.49
659.693	12.1
660.02	11.95
660.347	11.77
660.674	11.47
661.001	12.1
661.329	11.83
661.656	11.79
661.982	12.04
662.309	12.01
662.636	12.21
662.963	12.42
663.29	12.11
663.616	11.84
663.943	11.97
664.27	11.84
664.596	12.47
664.923	12.45
665.249	12.23
665.576	13.19
665.902	11.74
666.228	12.43
666.554	12.03
666.881	12.51
667.207	12.54
667.533	12.55
667.859	12.05
668.185	12.56
668.511	12.13
668.837	12.56
669.162	12.38
669.488	12.49
669.814	12.68
670.139	12.63
670.465	12.29
670.791	12.39
671.116	12.18
671.442	13.25
671.767	12.41
672.092	12.82
672.418	13.22
672.743	13.02
673.068	12.58
673.393	12.59
673.718	12.39
674.043	12.87
674.368	12.54
674.693	12.96
675.018	13.57
675.343	13.82
675.667	12.84
675.992	13.14
676.317	13.37
676.641	12.61
676.966	13.37
677.29	12.95
677.615	12.97
677.939	12.69
678.264	12.66
678.588	12.71
678.912	13.06
679.236	12.6
679.56	12.76
679.885	13.63
680.209	13.8
680.532	13.15
680.856	13.44
681.18	13.67
681.504	13.66
681.828	13.33
682.152	13
682.475	13.05
682.799	13.49
683.122	13.54
683.446	13.23
683.769	13.69
684.093	13.73
684.416	13.74
684.739	13.85
685.062	13.73
685.386	13.69
685.709	14.16
686.032	13.93
686.355	13.82
686.678	13.7
687.001	13.86
687.324	14.32
687.646	14.38
687.969	14.31
688.292	13.75
688.614	14.2
688.937	14.29
