Data from 97278_chest_Reflection__2__63.txt Node

Date: Fri Sep 23 20:11:58 CDT 2022
User: ToomeyLab
Spectrometer: FLMS14357
Trigger mode: 0
Integration Time (sec): 1.000000E-2
Scans to average: 100
Electric dark correction enabled: true
Nonlinearity correction enabled: false
Boxcar width: 0
XAxis mode: Wavelengths
Number of Pixels in Spectrum: 2048
>>>>>Begin Spectral Data<<<<<
189.047	187.33
189.435	187.33
189.823	187.33
190.211	-64.08
190.599	-572.4
190.987	-913.62
191.375	-110.63
191.763	45.89
192.151	284.31
192.538	-497.58
192.926	15.38
193.314	1013.72
193.702	16.21
194.089	112.05
194.477	297.62
194.864	-134.54
195.252	576.56
195.639	40.08
196.027	128.61
196.414	288.41
196.801	254.19
197.189	-305.43
197.576	295.18
197.963	-81.77
198.351	37.99
198.738	-110.72
199.125	2.02
199.512	1.95
199.899	-8.11
200.286	-44.78
200.673	38.48
201.06	22
201.447	34
201.833	4.65
202.22	-32.45
202.607	-19.96
202.994	25.46
203.38	-33.87
203.767	5.03
204.154	45.57
204.54	19.08
204.927	8.27
205.313	9.34
205.699	-23.98
206.086	-14.95
206.472	20.21
206.858	21.35
207.245	4.18
207.631	42.14
208.017	-0.08
208.403	19.42
208.789	24.5
209.175	11.42
209.561	14.89
209.947	-5.31
210.333	13.25
210.719	-28.5
211.105	4.48
211.491	17.35
211.876	-4.99
212.262	-5.44
212.648	-16.59
213.034	-64.09
213.419	-80.07
213.805	20.02
214.19	-2.4
214.576	14.78
214.961	0.6
215.346	-47.14
215.732	12.31
216.117	-32.99
216.502	26.14
216.888	6.53
217.273	32.98
217.658	11.5
218.043	3.93
218.428	-8.47
218.813	18.16
219.198	9.53
219.583	0.9
219.968	-2.73
220.353	-27.85
220.738	-8.43
221.122	8.79
221.507	16.09
221.892	-10.09
222.276	-19.86
222.661	-0.9
223.046	13
223.43	-8.8
223.815	-0.91
224.199	8.67
224.583	1.05
224.968	1.1
225.352	9.65
225.736	6.8
226.121	4.72
226.505	3.45
226.889	8.77
227.273	8.86
227.657	2.5
228.041	1.43
228.425	5.67
228.809	6.02
229.193	7.32
229.577	6.24
229.961	5.41
230.344	5.49
230.728	4.75
231.112	4.62
231.495	4.62
231.879	2.55
232.263	4.53
232.646	5.7
233.03	5.98
233.413	5.41
233.797	3.65
234.18	8.18
234.563	4.46
234.946	4
235.33	4.67
235.713	6.21
236.096	3.36
236.479	3.59
236.862	3.52
237.245	6.69
237.628	4.74
238.011	7.46
238.394	4.33
238.777	5.2
239.16	6.21
239.543	2.25
239.925	4.43
240.308	5.9
240.691	5.91
241.073	3.37
241.456	4.31
241.838	5.87
242.221	5.48
242.603	5.37
242.986	4.29
243.368	4.49
243.75	4.84
244.133	5.08
244.515	4.33
244.897	5.15
245.279	5.65
245.661	5.62
246.043	6.51
246.425	4
246.807	2.9
247.189	5.08
247.571	5.23
247.953	4.56
248.335	4.8
248.717	4.8
249.098	4.65
249.48	4.68
249.862	4.9
250.243	4.89
250.625	5.13
251.006	5.28
251.388	4.8
251.769	4.94
252.151	2.79
252.532	4.49
252.913	5.84
253.295	5.02
253.676	4.35
254.057	4.3
254.438	4.76
254.819	5
255.2	4.34
255.581	5.53
255.962	3.98
256.343	4.1
256.724	3.1
257.105	4.88
257.486	3.6
257.867	4.31
258.247	4.76
258.628	3.98
259.009	4.29
259.389	4.93
259.77	3.98
260.15	4.33
260.531	5.12
260.911	4.76
261.292	4.58
261.672	4.36
262.052	4.2
262.432	4.14
262.813	4.72
263.193	4.55
263.573	4.35
263.953	4.23
264.333	3.94
264.713	4.46
265.093	5
265.473	4.81
265.853	4.42
266.233	4.3
266.612	4.01
266.992	4.64
267.372	4.23
267.752	5.23
268.131	4.68
268.511	3.82
268.89	4.34
269.27	4.19
269.649	4.08
270.029	4.46
270.408	4.4
270.787	4.69
271.167	3.94
271.546	4.27
271.925	3.92
272.304	4.18
272.683	4.44
273.062	3.95
273.441	4.6
273.82	4.49
274.199	4.12
274.578	3.7
274.957	3.66
275.336	4.57
275.715	3.91
276.093	4.81
276.472	5
276.851	4.93
277.229	4.35
277.608	4.34
277.986	4.07
278.365	4.44
278.743	4.82
279.122	4.26
279.5	4.31
279.878	3.98
280.257	4.04
280.635	4.56
281.013	3.47
281.391	4.05
281.769	4.28
282.147	4.07
282.525	4.5
282.903	4.29
283.281	4.08
283.659	4.52
284.037	4.38
284.415	4.39
284.792	4.2
285.17	4.24
285.548	4.6
285.925	4.13
286.303	4.35
286.68	4.27
287.058	4.46
287.435	4.24
287.813	4.62
288.19	4.3
288.567	3.93
288.945	4.33
289.322	4.15
289.699	4.72
290.076	4.55
290.453	4.02
290.83	4.05
291.207	3.89
291.584	4.63
291.961	3.94
292.338	4.33
292.715	4.22
293.092	4.23
293.469	4.72
293.845	4.51
294.222	4.24
294.599	4.06
294.975	4
295.352	4.62
295.728	4.35
296.105	4.24
296.481	4.14
296.858	4.42
297.234	4.36
297.61	3.78
297.986	4.23
298.363	4.22
298.739	4.33
299.115	4.01
299.491	4.25
299.867	3.96
300.243	4.47
300.619	4.38
300.995	4.82
301.371	3.61
301.746	4.28
302.122	4.11
302.498	4.44
302.874	3.85
303.249	4.23
303.625	4.37
304	3.84
304.376	4.1
304.751	3.86
305.127	4.25
305.502	4.16
305.878	4.33
306.253	4.49
306.628	4.39
307.003	3.58
307.378	4.6
307.754	4.52
308.129	4.35
308.504	4.26
308.879	4.13
309.254	4.99
309.629	4.19
310.003	4.68
310.378	4.22
310.753	4.32
311.128	4.45
311.502	4.39
311.877	4.4
312.252	4.05
312.626	4.41
313.001	4.01
313.375	4.25
313.75	4.08
314.124	3.95
314.498	4.42
314.873	4.6
315.247	4.49
315.621	3.84
315.995	4.75
316.369	4.19
316.743	4.19
317.117	4.06
317.491	4.26
317.865	4.87
318.239	4.63
318.613	4.38
318.987	4.46
319.361	4.15
319.734	3.94
320.108	4.01
320.482	4.79
320.855	4.54
321.229	4.21
321.602	4.59
321.976	4.53
322.349	4.53
322.723	4.41
323.096	4.56
323.469	3.7
323.843	4.18
324.216	4.67
324.589	4.4
324.962	4.42
325.335	4.46
325.708	4.4
326.081	4.23
326.454	3.94
326.827	4.24
327.2	3.77
327.573	4.67
327.945	4.68
328.318	3.93
328.691	4.23
329.063	4.38
329.436	4.06
329.809	5.07
330.181	4.21
330.553	4.22
330.926	4.57
331.298	4.16
331.671	4.25
332.043	4.42
332.415	4.24
332.787	3.84
333.159	4.05
333.532	4.03
333.904	4.14
334.276	4.44
334.648	4.15
335.02	4.61
335.391	4.26
335.763	3.54
336.135	4.45
336.507	4.27
336.879	4.53
337.25	4.59
337.622	4.87
337.993	4.09
338.365	4.22
338.736	5
339.108	4.39
339.479	4.01
339.851	4.65
340.222	4.9
340.593	4.16
340.964	4.27
341.336	4.06
341.707	5.22
342.078	4.17
342.449	4.45
342.82	4.63
343.191	4.14
343.562	4.23
343.933	4.79
344.303	4.27
344.674	4.47
345.045	4.59
345.416	4.56
345.786	4.72
346.157	4.31
346.527	4.2
346.898	4.77
347.268	4.64
347.639	4.51
348.009	4.37
348.38	4.65
348.75	4.46
349.12	4.29
349.49	4.61
349.861	4.49
350.231	4.21
350.601	4.66
350.971	4.61
351.341	4.34
351.711	4.52
352.081	4.21
352.45	4.27
352.82	3.93
353.19	4.64
353.56	4.63
353.929	4.39
354.299	4.58
354.669	4.19
355.038	4.88
355.408	4.47
355.777	4.63
356.147	3.97
356.516	4.56
356.885	4.62
357.254	4.27
357.624	4.61
357.993	4.55
358.362	4.32
358.731	4.32
359.1	4.29
359.469	4.28
359.838	4.05
360.207	4.43
360.576	4.36
360.945	4.21
361.314	4.25
361.682	4.29
362.051	4.41
362.42	4.74
362.788	4.38
363.157	4.57
363.525	4.59
363.894	4.4
364.262	4.32
364.631	4.39
364.999	4.44
365.367	4.43
365.735	4.81
366.104	4.71
366.472	4.42
366.84	4.49
367.208	4.69
367.576	4.47
367.944	4.48
368.312	4.46
368.68	4.53
369.048	4.24
369.416	4.8
369.783	4.64
370.151	4.69
370.519	4.52
370.886	4.58
371.254	4.76
371.621	4.44
371.989	4.55
372.356	4.92
372.724	4.35
373.091	4.41
373.458	4.31
373.826	4.36
374.193	4.53
374.56	4.66
374.927	4.51
375.294	4.83
375.661	4.52
376.028	4.03
376.395	4.53
376.762	4.24
377.129	4.41
377.496	4.59
377.863	4.63
378.229	4.47
378.596	4.74
378.963	4.65
379.329	4.9
379.696	4.69
380.062	4.35
380.429	4.76
380.795	4.22
381.161	4.41
381.528	4.6
381.894	4.81
382.26	4.12
382.626	4.58
382.993	4.73
383.359	4.51
383.725	4.75
384.091	4.65
384.457	4.79
384.823	4.31
385.188	4.69
385.554	4.75
385.92	4.84
386.286	4.7
386.651	4.9
387.017	4.88
387.383	4.34
387.748	4.7
388.114	4.7
388.479	4.77
388.845	4.92
389.21	4.34
389.575	4.39
389.94	4.51
390.306	4.57
390.671	4.38
391.036	4.36
391.401	4.83
391.766	4.57
392.131	4.6
392.496	4.52
392.861	4.68
393.226	4.46
393.591	4.49
393.956	4.85
394.32	4.53
394.685	4.57
395.05	4.84
395.414	4.73
395.779	4.67
396.143	4.73
396.508	4.67
396.872	4.72
397.236	4.83
397.601	4.55
397.965	4.87
398.329	4.95
398.694	4.61
399.058	4.75
399.422	5.17
399.786	5.04
400.15	4.78
400.514	4.47
400.878	4.82
401.242	4.73
401.605	4.74
401.969	4.68
402.333	4.67
402.697	4.16
403.06	4.83
403.424	4.64
403.787	4.82
404.151	4.63
404.514	4.95
404.878	4.88
405.241	4.68
405.604	4.76
405.968	4.71
406.331	4.66
406.694	4.82
407.057	4.8
407.42	4.73
407.783	4.71
408.146	4.79
408.509	4.9
408.872	4.7
409.235	4.59
409.598	4.88
409.961	4.75
410.323	4.38
410.686	4.76
411.049	4.79
411.411	4.84
411.774	4.6
412.136	4.69
412.499	4.68
412.861	4.6
413.223	4.83
413.586	4.73
413.948	4.75
414.31	4.49
414.672	4.73
415.035	4.87
415.397	4.93
415.759	4.96
416.121	4.97
416.483	4.9
416.845	4.48
417.206	4.87
417.568	4.85
417.93	4.76
418.292	4.81
418.653	4.73
419.015	4.82
419.377	4.71
419.738	4.67
420.1	4.68
420.461	4.72
420.822	4.81
421.184	4.77
421.545	4.74
421.906	4.84
422.267	4.74
422.629	4.73
422.99	4.72
423.351	4.75
423.712	4.79
424.073	4.74
424.434	4.82
424.795	4.79
425.155	4.73
425.516	4.89
425.877	4.8
426.238	4.84
426.598	4.79
426.959	4.77
427.32	4.86
427.68	4.87
428.041	4.82
428.401	4.88
428.761	4.99
429.122	4.86
429.482	4.79
429.842	4.95
430.202	5.05
430.563	4.91
430.923	5.03
431.283	5.16
431.643	4.85
432.003	4.87
432.363	5.04
432.722	5.16
433.082	4.83
433.442	4.86
433.802	4.89
434.161	5.07
434.521	4.92
434.881	4.8
435.24	4.99
435.6	4.89
435.959	4.86
436.319	4.99
436.678	4.95
437.037	5.1
437.396	4.9
437.756	5.12
438.115	4.85
438.474	4.97
438.833	5.13
439.192	5.28
439.551	5.16
439.91	5.03
440.269	5.1
440.628	4.94
440.987	4.88
441.345	4.96
441.704	4.92
442.063	5.02
442.421	4.87
442.78	4.98
443.138	4.82
443.497	5.05
443.855	4.97
444.214	5.12
444.572	5.06
444.93	4.91
445.288	5.03
445.647	5.2
446.005	5.24
446.363	5.08
446.721	5
447.079	5.02
447.437	5.1
447.795	5.03
448.153	4.88
448.51	4.95
448.868	4.97
449.226	5.03
449.584	5.05
449.941	5.06
450.299	5.19
450.656	4.95
451.014	5.15
451.371	5.01
451.729	5.07
452.086	5.19
452.443	4.97
452.801	5.19
453.158	5.05
453.515	5.12
453.872	5.17
454.229	5.16
454.586	5.17
454.943	5.09
455.3	5.12
455.657	5.19
456.014	5.26
456.371	5.02
456.727	5.22
457.084	5.14
457.441	5.29
457.797	5.09
458.154	5.19
458.51	5.17
458.867	5.35
459.223	5.36
459.58	5.15
459.936	5.32
460.292	5.04
460.648	5.32
461.005	5.23
461.361	5.16
461.717	5.18
462.073	5.14
462.429	5.01
462.785	5.19
463.141	5.23
463.496	5.19
463.852	5.39
464.208	5.3
464.564	5.43
464.919	5.28
465.275	5.36
465.631	5.22
465.986	4.95
466.342	5.32
466.697	5.03
467.052	5.16
467.408	5.35
467.763	5.26
468.118	5.24
468.473	5.27
468.829	5.19
469.184	5.42
469.539	5.21
469.894	5.26
470.249	5.08
470.603	5.4
470.958	5.45
471.313	5.24
471.668	5.31
472.023	5.36
472.377	5.23
472.732	5.24
473.086	5.32
473.441	5.37
473.795	5.42
474.15	5.36
474.504	5.22
474.859	5.36
475.213	5.47
475.567	5.29
475.921	5.42
476.275	5.23
476.63	5.28
476.984	5.41
477.338	5.4
477.692	5.41
478.045	5.31
478.399	5.45
478.753	5.47
479.107	5.25
479.461	5.27
479.814	5.36
480.168	5.33
480.521	5.34
480.875	5.34
481.228	5.47
481.582	5.46
481.935	5.39
482.289	5.45
482.642	5.24
482.995	5.54
483.348	5.26
483.701	5.39
484.055	5.33
484.408	5.28
484.761	5.27
485.114	5.13
485.466	5.1
485.819	5.07
486.172	5.12
486.525	5.13
486.878	5.17
487.23	5.24
487.583	5.33
487.936	5.38
488.288	5.33
488.641	5.27
488.993	5.27
489.345	5.25
489.698	5.21
490.05	5.2
490.402	5.28
490.754	5.35
491.107	5.31
491.459	5.39
491.811	5.36
492.163	5.46
492.515	5.41
492.866	5.4
493.218	5.22
493.57	5.28
493.922	5.28
494.274	5.36
494.625	5.4
494.977	5.45
495.328	5.46
495.68	5.46
496.031	5.53
496.383	5.64
496.734	5.7
497.086	5.7
497.437	5.77
497.788	5.67
498.139	5.74
498.49	5.48
498.842	5.65
499.193	5.6
499.544	5.52
499.894	5.53
500.245	5.58
500.596	5.6
500.947	5.58
501.298	5.66
501.648	5.72
501.999	5.69
502.35	5.74
502.7	5.64
503.051	5.53
503.401	5.57
503.752	5.66
504.102	5.81
504.452	5.65
504.803	5.69
505.153	5.68
505.503	5.72
505.853	5.8
506.203	5.73
506.553	5.83
506.903	5.65
507.253	5.69
507.603	5.75
507.953	5.64
508.303	5.8
508.652	5.82
509.002	5.79
509.352	5.83
509.701	5.72
510.051	5.93
510.4	5.86
510.75	5.88
511.099	5.77
511.449	5.76
511.798	5.79
512.147	5.78
512.496	5.73
512.846	5.88
513.195	5.78
513.544	5.86
513.893	5.88
514.242	5.76
514.591	5.86
514.939	5.77
515.288	5.9
515.637	5.87
515.986	5.83
516.334	5.77
516.683	5.86
517.032	5.88
517.38	6.04
517.729	5.87
518.077	5.77
518.426	5.98
518.774	5.85
519.122	5.99
519.47	5.98
519.819	5.91
520.167	5.85
520.515	5.87
520.863	5.89
521.211	5.86
521.559	5.96
521.907	5.95
522.255	6.01
522.602	5.87
522.95	5.92
523.298	5.98
523.645	6.01
523.993	6.11
524.341	6.14
524.688	6.09
525.036	6.13
525.383	6.01
525.73	6.18
526.078	6.06
526.425	6.24
526.772	6.11
527.119	6.02
527.466	5.93
527.814	6.03
528.161	6.02
528.508	6.06
528.854	6.07
529.201	6.2
529.548	6.09
529.895	5.95
530.242	5.85
530.588	5.89
530.935	5.89
531.282	5.93
531.628	6.01
531.975	5.99
532.321	6.04
532.667	6.09
533.014	6.16
533.36	6.28
533.706	6.21
534.052	6.23
534.399	6.16
534.745	6.16
535.091	6.04
535.437	6.14
535.783	6.21
536.129	6.2
536.474	6.23
536.82	6.31
537.166	6.32
537.512	6.34
537.857	6.31
538.203	6.35
538.549	6.32
538.894	6.36
539.239	6.36
539.585	6.48
539.93	6.36
540.276	6.44
540.621	6.39
540.966	6.46
541.311	6.64
541.656	6.43
542.001	6.65
542.346	6.42
542.691	6.32
543.036	6.36
543.381	6.31
543.726	6.39
544.071	6.38
544.415	6.45
544.76	6.4
545.105	6.56
545.449	6.57
545.794	6.59
546.138	6.66
546.483	6.77
546.827	6.81
547.171	6.83
547.516	6.72
547.86	6.65
548.204	6.76
548.548	6.67
548.892	6.57
549.236	6.81
549.58	6.91
549.924	6.92
550.268	7.07
550.612	6.86
550.956	6.96
551.3	6.86
551.643	6.83
551.987	6.95
552.33	6.88
552.674	6.88
553.017	6.98
553.361	7.09
553.704	6.85
554.048	6.93
554.391	7.01
554.734	7.09
555.077	6.99
555.42	7.08
555.764	7.07
556.107	7.03
556.45	7.19
556.793	6.99
557.135	7.12
557.478	7.26
557.821	7.27
558.164	7.12
558.507	7.23
558.849	7.24
559.192	7.49
559.534	7.31
559.877	7.23
560.219	7.29
560.562	7.53
560.904	7.28
561.246	7.04
561.589	7.34
561.931	7.48
562.273	7.44
562.615	7.49
562.957	7.4
563.299	7.5
563.641	7.44
563.983	7.51
564.325	7.56
564.667	7.63
565.008	7.46
565.35	7.89
565.692	7.49
566.033	7.53
566.375	7.77
566.716	7.72
567.058	7.81
567.399	7.59
567.741	7.61
568.082	7.67
568.423	7.51
568.764	7.6
569.105	7.64
569.447	7.77
569.788	7.64
570.129	7.8
570.47	7.91
570.811	7.83
571.151	7.87
571.492	7.91
571.833	7.89
572.174	7.78
572.514	8.03
572.855	7.96
573.195	8.05
573.536	8.04
573.876	7.77
574.217	7.95
574.557	7.95
574.898	7.94
575.238	8.26
575.578	8.16
575.918	7.98
576.258	8.14
576.598	8.15
576.938	8.18
577.278	8.22
577.618	8.3
577.958	8.25
578.298	8.28
578.638	8.2
578.977	8.28
579.317	8.46
579.657	8.44
579.996	8.31
580.336	8.55
580.675	8.49
581.014	8.46
581.354	8.67
581.693	8.56
582.032	8.59
582.372	8.73
582.711	8.71
583.05	8.56
583.389	8.6
583.728	8.72
584.067	8.81
584.406	8.62
584.745	8.64
585.083	8.59
585.422	8.6
585.761	8.75
586.1	8.84
586.438	8.99
586.777	8.86
587.115	8.89
587.454	9.38
587.792	9.15
588.13	8.84
588.469	8.79
588.807	8.92
589.145	8.9
589.483	9.09
589.821	9.16
590.159	9.24
590.497	9.17
590.835	9
591.173	9.26
591.511	9.37
591.849	9.05
592.187	9.1
592.524	9.37
592.862	9.45
593.2	9.32
593.537	9.47
593.875	9.35
594.212	9.48
594.55	9.36
594.887	9.3
595.224	9.33
595.561	9.44
595.899	9.25
596.236	9.2
596.573	9.67
596.91	9.73
597.247	9.72
597.584	9.84
597.921	9.67
598.258	9.59
598.594	9.46
598.931	9.66
599.268	9.55
599.604	9.5
599.941	9.75
600.277	9.77
600.614	9.83
600.95	9.97
601.287	9.69
601.623	10.01
601.959	9.77
602.296	9.98
602.632	9.9
602.968	9.82
603.304	10.2
603.64	10.17
603.976	10.03
604.312	10.48
604.648	10.19
604.984	9.92
605.319	10.38
605.655	10.09
605.991	10.09
606.326	10.19
606.662	10.32
606.998	10.28
607.333	10.29
607.668	10.23
608.004	10.52
608.339	10.31
608.674	10.3
609.01	10.47
609.345	10.27
609.68	10.6
610.015	11.1
610.35	10.21
610.685	10.33
611.02	10.77
611.355	10.51
611.689	10.82
612.024	10.62
612.359	10.85
612.694	10.91
613.028	10.93
613.363	10.93
613.697	11.02
614.032	10.62
614.366	10.92
614.7	11.03
615.035	11.07
615.369	11.44
615.703	11.06
616.037	10.92
616.371	11.08
616.705	11.2
617.039	10.92
617.373	11.36
617.707	11.55
618.041	11.59
618.375	11.71
618.709	11.36
619.042	11.23
619.376	11.68
619.71	11.12
620.043	11.09
620.377	11.4
620.71	11.21
621.043	11.6
621.377	11.29
621.71	11.71
622.043	11.24
622.376	11.44
622.709	11.88
623.043	11.55
623.376	11.72
623.709	11.84
624.041	11.48
624.374	11.68
624.707	11.66
625.04	12.18
625.373	12.12
625.705	12.01
626.038	11.75
626.37	11.63
626.703	11.99
627.035	12.28
627.368	11.79
627.7	11.85
628.032	11.8
628.365	11.89
628.697	11.92
629.029	12.31
629.361	12.23
629.693	12.44
630.025	12.05
630.357	12.19
630.689	12.26
631.021	12.06
631.353	12.64
631.684	12.14
632.016	12.39
632.348	12.09
632.679	12.41
633.011	12.16
633.342	12.72
633.674	12.42
634.005	12.47
634.336	13.14
634.668	12.34
634.999	12.83
635.33	12.59
635.661	12.78
635.992	12.98
636.323	12.89
636.654	12.83
636.985	13.11
637.316	13.17
637.647	12.9
637.977	12.97
638.308	13.28
638.639	12.68
638.969	13.27
639.3	13.17
639.63	12.73
639.961	13.2
640.291	13.03
640.622	13.3
640.952	13.39
641.282	13.02
641.612	13.12
641.943	13.4
642.273	13.65
642.603	13.57
642.933	13.43
643.263	13.52
643.592	13.51
643.922	13.37
644.252	13.49
644.582	13.97
644.911	13.54
645.241	13.7
645.571	13.83
645.9	13.8
646.23	14.03
646.559	13.74
646.888	13.94
647.218	14.15
647.547	14.25
647.876	13.51
648.205	13.75
648.534	13.93
648.863	13.83
649.192	14.2
649.521	13.75
649.85	13.68
650.179	14.23
650.508	14.24
650.837	14.16
651.165	14.11
651.494	13.89
651.822	14.43
652.151	14.18
652.479	14.23
652.808	14.47
653.136	14.27
653.465	14.36
653.793	14.49
654.121	14.28
654.449	14.35
654.777	14.41
655.105	14.59
655.433	14.46
655.761	14.36
656.089	14.83
656.417	14.71
656.745	14.39
657.073	14.02
657.4	14.98
657.728	14.47
658.056	15.05
658.383	14.99
658.711	14.42
659.038	15.01
659.365	13.95
659.693	15
660.02	14.96
660.347	15.21
660.674	15.02
661.001	15.18
661.329	14.82
661.656	15.41
661.982	14.66
662.309	15.04
662.636	15.31
662.963	15.41
663.29	15.64
663.616	15.49
663.943	15.37
664.27	15.37
664.596	15.31
664.923	15.58
665.249	15.38
665.576	16.07
665.902	15.01
666.228	15.95
666.554	15.31
666.881	15.55
667.207	16.07
667.533	15.13
667.859	15.49
668.185	15.57
668.511	15.45
668.837	15.72
669.162	15.95
669.488	15.62
669.814	16.14
670.139	16.07
670.465	15.96
670.791	15.85
671.116	15.46
671.442	15.87
671.767	15.87
672.092	15.91
672.418	16.65
672.743	16.27
673.068	15.68
673.393	16.03
673.718	16.35
674.043	16.73
674.368	16.75
674.693	16.03
675.018	16.42
675.343	16.84
675.667	16.45
675.992	16.9
676.317	16.85
676.641	16.54
676.966	17.11
677.29	16.19
677.615	16.54
677.939	16.92
678.264	16.69
678.588	16.47
678.912	16.84
679.236	16.87
679.56	16.32
679.885	17.13
680.209	17
680.532	16.68
680.856	17.24
681.18	16.99
681.504	17.2
681.828	17.35
682.152	17.26
682.475	17.39
682.799	17.77
683.122	17.17
683.446	17.16
683.769	16.8
684.093	18.05
684.416	17.46
684.739	17.55
685.062	16.97
685.386	17.48
685.709	17.12
686.032	17.68
686.355	17.72
686.678	17.64
