Data from 97278_forehead_Reflection__0__66.txt Node

Date: Fri Sep 23 20:13:04 CDT 2022
User: ToomeyLab
Spectrometer: FLMS14357
Trigger mode: 0
Integration Time (sec): 1.000000E-2
Scans to average: 100
Electric dark correction enabled: true
Nonlinearity correction enabled: false
Boxcar width: 0
XAxis mode: Wavelengths
Number of Pixels in Spectrum: 2048
>>>>>Begin Spectral Data<<<<<
189.047	42.01
189.435	42.01
189.823	42.01
190.211	-49.46
190.599	76.62
190.987	-789.66
191.375	40.76
191.763	32.48
192.151	-316.45
192.538	-368.39
192.926	430.61
193.314	150.26
193.702	187.33
194.089	151.47
194.477	229.41
194.864	-12.47
195.252	403.12
195.639	31.79
196.027	40.66
196.414	512.68
196.801	-4.31
197.189	-55.73
197.576	-97.61
197.963	24.53
198.351	65.84
198.738	-21.95
199.125	52.69
199.512	16
199.899	20.63
200.286	5.6
200.673	40.79
201.06	18.64
201.447	58.76
201.833	7.78
202.22	-4.9
202.607	28.66
202.994	58.05
203.38	-1.4
203.767	10.31
204.154	55.16
204.54	41.22
204.927	34.48
205.313	14.56
205.699	7.18
206.086	0.76
206.472	26.43
206.858	39.02
207.245	-11.04
207.631	39.52
208.017	11.07
208.403	45.11
208.789	28.12
209.175	30.79
209.561	43.25
209.947	26.7
210.333	17.67
210.719	36.9
211.105	16.87
211.491	41.21
211.876	40.27
212.262	4.64
212.648	3.15
213.034	-37.66
213.419	-15.47
213.805	44
214.19	12.02
214.576	12.59
214.961	34.83
215.346	1.39
215.732	5.33
216.117	35.21
216.502	38.4
216.888	29.58
217.273	48.57
217.658	-22.35
218.043	17
218.428	22.2
218.813	45.19
219.198	20.29
219.583	20.84
219.968	15.41
220.353	7.11
220.738	19.36
221.122	5.75
221.507	23.61
221.892	26.51
222.276	5.94
222.661	16.2
223.046	21.33
223.43	6.3
223.815	6.05
224.199	11.81
224.583	13.27
224.968	6.5
225.352	4.98
225.736	5.26
226.121	16.59
226.505	-0.46
226.889	8.44
227.273	6.72
227.657	1.81
228.041	1.1
228.425	2.82
228.809	4.88
229.193	5.67
229.577	4.12
229.961	2.31
230.344	2.28
230.728	1.43
231.112	1.85
231.495	2.14
231.879	0.04
232.263	3.03
232.646	3.32
233.03	2.78
233.413	3.5
233.797	0.72
234.18	3.13
234.563	3.63
234.946	3.74
235.33	1.68
235.713	3.63
236.096	1.03
236.479	1.92
236.862	1.83
237.245	4.01
237.628	5.37
238.011	4.44
238.394	2.83
238.777	3.7
239.16	2.24
239.543	1.96
239.925	3.36
240.308	3.64
240.691	3.6
241.073	2.02
241.456	1.19
241.838	4.77
242.221	2.71
242.603	3.43
242.986	1.59
243.368	1.92
243.75	2
244.133	2.09
244.515	2.12
244.897	2.38
245.279	3.37
245.661	2.93
246.043	2.54
246.425	3.36
246.807	1.28
247.189	3.17
247.571	2.02
247.953	2.32
248.335	2.37
248.717	2.27
249.098	1.96
249.48	2.21
249.862	2.25
250.243	2.76
250.625	2.48
251.006	2.43
251.388	2.93
251.769	2
252.151	1.33
252.532	3.62
252.913	3.31
253.295	2.57
253.676	2.43
254.057	2.23
254.438	2.28
254.819	3.09
255.2	2.3
255.581	4.67
255.962	2.32
256.343	4.78
256.724	2.11
257.105	3.15
257.486	2.3
257.867	2.54
258.247	2.89
258.628	2.2
259.009	2.58
259.389	2.22
259.77	2.1
260.15	1.86
260.531	2.36
260.911	2.05
261.292	2.12
261.672	2.06
262.052	2
262.432	2.1
262.813	2.23
263.193	2.28
263.573	2.35
263.953	2.08
264.333	2.59
264.713	2.51
265.093	3.18
265.473	2.54
265.853	2.43
266.233	2.24
266.612	2.49
266.992	3.2
267.372	2.27
267.752	2.13
268.131	3.1
268.511	2.31
268.89	2.22
269.27	2.24
269.649	1.74
270.029	2.44
270.408	2.35
270.787	1.85
271.167	1.91
271.546	1.92
271.925	1.96
272.304	2.06
272.683	1.71
273.062	2.09
273.441	2.36
273.82	2.08
274.199	2.27
274.578	1.8
274.957	2.14
275.336	2.34
275.715	2.39
276.093	2.69
276.472	3.53
276.851	2.29
277.229	1.89
277.608	2.4
277.986	2.53
278.365	2.26
278.743	2.47
279.122	1.93
279.5	2.22
279.878	2.07
280.257	1.79
280.635	2.15
281.013	2.37
281.391	2.06
281.769	2.27
282.147	2
282.525	2.43
282.903	1.95
283.281	2.07
283.659	2.21
284.037	1.82
284.415	1.94
284.792	2.1
285.17	1.65
285.548	2.08
285.925	2.36
286.303	2.59
286.68	2.26
287.058	2.04
287.435	1.85
287.813	2.38
288.19	2.33
288.567	2.03
288.945	2.17
289.322	1.99
289.699	2.46
290.076	2.25
290.453	1.94
290.83	2.18
291.207	2.47
291.584	2.67
291.961	2.3
292.338	2.3
292.715	1.82
293.092	2.03
293.469	2.61
293.845	3.28
294.222	2.59
294.599	2.08
294.975	2.65
295.352	2.5
295.728	2.48
296.105	2.44
296.481	2.38
296.858	2.33
297.234	2.57
297.61	2.41
297.986	2.35
298.363	2.4
298.739	2.68
299.115	2.42
299.491	2.36
299.867	2.55
300.243	2.89
300.619	3.16
300.995	2.88
301.371	2.17
301.746	3.24
302.122	2.16
302.498	2.87
302.874	2.47
303.249	2.91
303.625	2.37
304	2.88
304.376	3.11
304.751	2.84
305.127	2.49
305.502	3.04
305.878	3.06
306.253	3.1
306.628	3.37
307.003	2.97
307.378	3.47
307.754	3.8
308.129	2.95
308.504	2.99
308.879	3.46
309.254	3.28
309.629	3.2
310.003	3.45
310.378	3.36
310.753	2.86
311.128	3.25
311.502	3.41
311.877	3.57
312.252	3.15
312.626	3.71
313.001	3.93
313.375	3.48
313.75	3.46
314.124	3.31
314.498	3.97
314.873	3.78
315.247	4
315.621	3.77
315.995	3.82
316.369	3.61
316.743	3.67
317.117	3.64
317.491	3.84
317.865	4.12
318.239	4.17
318.613	3.69
318.987	3.62
319.361	3.65
319.734	3.88
320.108	3.69
320.482	4.88
320.855	4.29
321.229	4.74
321.602	4.63
321.976	5.09
322.349	4.53
322.723	4.79
323.096	4.6
323.469	3.98
323.843	4.27
324.216	5.19
324.589	4.63
324.962	4.67
325.335	4.6
325.708	4.95
326.081	4.62
326.454	4.93
326.827	4.5
327.2	5.01
327.573	5.13
327.945	5.14
328.318	4.86
328.691	4.98
329.063	5.52
329.436	5.49
329.809	5.41
330.181	5.63
330.553	4.96
330.926	5.23
331.298	5.47
331.671	6.01
332.043	5.5
332.415	5.54
332.787	5.13
333.159	5.68
333.532	5.03
333.904	5.03
334.276	5.29
334.648	5.63
335.02	5.13
335.391	5.23
335.763	6.07
336.135	5.58
336.507	5.84
336.879	5.97
337.25	6.1
337.622	5.77
337.993	5.98
338.365	5.62
338.736	6.08
339.108	6.18
339.479	5.54
339.851	6.35
340.222	6.74
340.593	5.4
340.964	6.09
341.336	5.96
341.707	6.83
342.078	5.84
342.449	6.19
342.82	6.17
343.191	6.33
343.562	6.12
343.933	6.89
344.303	6.23
344.674	6.81
345.045	6.83
345.416	6.69
345.786	6.77
346.157	6.5
346.527	6.83
346.898	7.19
347.268	6.52
347.639	7
348.009	6.77
348.38	6.87
348.75	6.96
349.12	7.07
349.49	6.85
349.861	7.01
350.231	6.32
350.601	6.42
350.971	6.91
351.341	6.57
351.711	7.13
352.081	7.46
352.45	7.09
352.82	7.02
353.19	7.45
353.56	7.15
353.929	6.86
354.299	7.47
354.669	7.44
355.038	7.52
355.408	6.84
355.777	6.93
356.147	7.04
356.516	7.32
356.885	7.09
357.254	6.97
357.624	7.34
357.993	7.61
358.362	7.5
358.731	7.24
359.1	7.63
359.469	7.44
359.838	7.3
360.207	7.77
360.576	7.85
360.945	7.14
361.314	7.66
361.682	7.38
362.051	7.72
362.42	7.56
362.788	7.73
363.157	7.98
363.525	7.95
363.894	7.8
364.262	7.72
364.631	8.03
364.999	7.77
365.367	7.95
365.735	8.28
366.104	8.15
366.472	8.35
366.84	8.09
367.208	8.27
367.576	8.31
367.944	8.44
368.312	8.11
368.68	7.92
369.048	8.21
369.416	8.55
369.783	8.06
370.151	8.52
370.519	8.59
370.886	8.69
371.254	8.63
371.621	8.89
371.989	8.67
372.356	8.99
372.724	8.49
373.091	8.62
373.458	8.51
373.826	8.85
374.193	8.94
374.56	8.83
374.927	9
375.294	9.34
375.661	8.82
376.028	9.03
376.395	9.15
376.762	9.01
377.129	8.8
377.496	9.07
377.863	9.45
378.229	9.02
378.596	8.94
378.963	9.71
379.329	9.11
379.696	9.08
380.062	9.07
380.429	9.38
380.795	9.2
381.161	9.45
381.528	9.54
381.894	9.46
382.26	9.64
382.626	9.33
382.993	9.8
383.359	9.5
383.725	9.92
384.091	9.35
384.457	9.77
384.823	9.53
385.188	9.83
385.554	9.85
385.92	10.09
386.286	9.94
386.651	10.03
387.017	9.84
387.383	9.88
387.748	9.93
388.114	10.06
388.479	9.78
388.845	9.85
389.21	9.85
389.575	9.79
389.94	9.87
390.306	9.95
390.671	10.01
391.036	9.93
391.401	10.32
391.766	10.25
392.131	10.33
392.496	10.32
392.861	10.18
393.226	10.09
393.591	10.35
393.956	10.35
394.32	10.38
394.685	10.4
395.05	10.52
395.414	10.32
395.779	10.17
396.143	10.11
396.508	10.54
396.872	10.39
397.236	10.61
397.601	10.36
397.965	10.64
398.329	10.84
398.694	10.39
399.058	10.7
399.422	10.91
399.786	10.81
400.15	10.8
400.514	10.57
400.878	10.51
401.242	10.65
401.605	11.02
401.969	11.08
402.333	10.66
402.697	10.89
403.06	10.9
403.424	11.03
403.787	10.76
404.151	10.78
404.514	10.65
404.878	10.87
405.241	11.01
405.604	10.57
405.968	10.75
406.331	10.77
406.694	10.72
407.057	10.66
407.42	10.76
407.783	10.97
408.146	10.88
408.509	10.81
408.872	10.81
409.235	10.62
409.598	11.26
409.961	11.03
410.323	10.74
410.686	11.16
411.049	10.82
411.411	11.15
411.774	10.83
412.136	10.9
412.499	10.65
412.861	11.06
413.223	11.15
413.586	11.06
413.948	11.1
414.31	10.95
414.672	11.19
415.035	10.93
415.397	11.42
415.759	11.27
416.121	11.3
416.483	11.15
416.845	11.07
417.206	11.29
417.568	11.46
417.93	11.21
418.292	11.34
418.653	11.21
419.015	11.15
419.377	11.04
419.738	11.29
420.1	11.23
420.461	11.29
420.822	11.3
421.184	11.32
421.545	11.48
421.906	11.43
422.267	11.36
422.629	11.35
422.99	11.47
423.351	11.54
423.712	11.48
424.073	11.65
424.434	11.67
424.795	11.79
425.155	11.8
425.516	11.82
425.877	11.77
426.238	11.87
426.598	11.96
426.959	12.06
427.32	12.24
427.68	12.22
428.041	12.34
428.401	12.42
428.761	12.6
429.122	12.62
429.482	12.79
429.842	12.91
430.202	12.96
430.563	12.8
430.923	12.99
431.283	13.16
431.643	12.95
432.003	12.94
432.363	13.28
432.722	13.13
433.082	13.09
433.442	13.28
433.802	13.25
434.161	13.24
434.521	13.24
434.881	13.19
435.24	13.26
435.6	13.24
435.959	13.51
436.319	13.63
436.678	13.58
437.037	13.9
437.396	13.79
437.756	13.85
438.115	13.96
438.474	14
438.833	13.98
439.192	14.02
439.551	13.94
439.91	13.97
440.269	14.15
440.628	14.05
440.987	13.96
441.345	14.12
441.704	14.22
442.063	14.28
442.421	14.25
442.78	14.28
443.138	14.3
443.497	14.6
443.855	14.59
444.214	14.78
444.572	14.71
444.93	14.68
445.288	14.96
445.647	15.02
446.005	14.88
446.363	14.77
446.721	14.74
447.079	14.79
447.437	14.99
447.795	14.76
448.153	14.72
448.51	14.78
448.868	14.87
449.226	15.07
449.584	15.13
449.941	15.37
450.299	15.4
450.656	15.56
451.014	15.55
451.371	15.37
451.729	15.63
452.086	15.88
452.443	15.86
452.801	15.83
453.158	15.98
453.515	15.88
453.872	15.83
454.229	16.07
454.586	16.04
454.943	16.08
455.3	16.13
455.657	16.03
456.014	16.31
456.371	16.28
456.727	16.25
457.084	16.42
457.441	16.51
457.797	16.52
458.154	16.6
458.51	16.68
458.867	16.56
459.223	16.55
459.58	16.76
459.936	16.56
460.292	16.55
460.648	16.72
461.005	16.81
461.361	16.46
461.717	16.44
462.073	16.69
462.429	16.74
462.785	16.95
463.141	16.98
463.496	17.31
463.852	17.51
464.208	17.35
464.564	17.71
464.919	17.63
465.275	17.58
465.631	17.35
465.986	17.53
466.342	17.5
466.697	17.54
467.052	17.65
467.408	17.85
467.763	17.75
468.118	17.98
468.473	17.81
468.829	17.71
469.184	18.12
469.539	18.02
469.894	18.13
470.249	18.22
470.603	18.42
470.958	18.44
471.313	18.27
471.668	18.42
472.023	18.19
472.377	18.43
472.732	18.5
473.086	18.46
473.441	18.6
473.795	18.71
474.15	18.5
474.504	18.66
474.859	18.65
475.213	18.87
475.567	18.72
475.921	19.17
476.275	19.1
476.63	18.99
476.984	19
477.338	19.17
477.692	19.06
478.045	18.97
478.399	19.1
478.753	19.04
479.107	19.12
479.461	19.12
479.814	19.22
480.168	19.22
480.521	19.23
480.875	19.44
481.228	19.68
481.582	19.35
481.935	19.55
482.289	19.35
482.642	19.3
482.995	19.47
483.348	19.4
483.701	19.14
484.055	19.16
484.408	19.05
484.761	18.94
485.114	18.47
485.466	18.2
485.819	18.25
486.172	18.59
486.525	18.98
486.878	19.16
487.23	19.38
487.583	19.5
487.936	19.6
488.288	19.51
488.641	19.16
488.993	18.95
489.345	19.04
489.698	19.13
490.05	19.2
490.402	19.39
490.754	19.8
491.107	19.97
491.459	20.04
491.811	20.19
492.163	20.34
492.515	20.09
492.866	19.77
493.218	19.39
493.57	19.41
493.922	19.75
494.274	20.03
494.625	20.29
494.977	20.47
495.328	20.75
495.68	20.88
496.031	21.03
496.383	21.11
496.734	21.17
497.086	21.14
497.437	21.14
497.788	21.13
498.139	21.09
498.49	20.74
498.842	20.96
499.193	20.92
499.544	21.12
499.894	21.1
500.245	21.25
500.596	21.21
500.947	21.38
501.298	21.46
501.648	21.77
501.999	21.53
502.35	21.66
502.7	21.76
503.051	21.75
503.401	21.81
503.752	21.83
504.102	22.07
504.452	21.91
504.803	21.78
505.153	21.96
505.503	21.94
505.853	22.01
506.203	21.92
506.553	22.08
506.903	21.96
507.253	22.23
507.603	22.14
507.953	22.08
508.303	22.24
508.652	22.26
509.002	22.32
509.352	22.33
509.701	22.15
510.051	22.13
510.4	22.15
510.75	22.04
511.099	22.07
511.449	22.03
511.798	22.28
512.147	22.34
512.496	22.29
512.846	22.34
513.195	22.33
513.544	22.44
513.893	22.45
514.242	22.37
514.591	22.52
514.939	22.63
515.288	22.5
515.637	22.7
515.986	22.82
516.334	22.65
516.683	22.9
517.032	22.88
517.38	23
517.729	22.93
518.077	22.98
518.426	22.9
518.774	22.88
519.122	22.66
519.47	22.86
519.819	22.62
520.167	22.36
520.515	22.22
520.863	22.55
521.211	22.65
521.559	22.83
521.907	22.85
522.255	23.03
522.602	23.06
522.95	23.28
523.298	23.35
523.645	23.31
523.993	23.24
524.341	23.38
524.688	23.4
525.036	23.43
525.383	23.2
525.73	23.42
526.078	23.47
526.425	23.39
526.772	23.2
527.119	22.91
527.466	22.68
527.814	22.94
528.161	23.1
528.508	23.07
528.854	23.08
529.201	23.06
529.548	22.96
529.895	22.33
530.242	22.02
530.588	22.12
530.935	22.5
531.282	22.76
531.628	23.07
531.975	23.05
532.321	23.3
532.667	23.41
533.014	23.4
533.36	23.48
533.706	23.51
534.052	23.46
534.399	23.34
534.745	23.03
535.091	22.75
535.437	23.03
535.783	23.38
536.129	23.45
536.474	23.78
536.82	23.93
537.166	23.95
537.512	23.95
537.857	23.87
538.203	23.77
538.549	23.56
538.894	23.73
539.239	23.97
539.585	24.1
539.93	24.26
540.276	24.46
540.621	24.63
540.966	24.48
541.311	24.49
541.656	24.34
542.001	24.35
542.346	23.85
542.691	23.65
543.036	23.21
543.381	23.37
543.726	23.64
544.071	23.9
544.415	24.17
544.76	24.09
545.105	24.22
545.449	24.27
545.794	24.5
546.138	24.59
546.483	24.83
546.827	24.85
547.171	24.86
547.516	24.7
547.86	24.65
548.204	24.83
548.548	24.59
548.892	24.58
549.236	24.92
549.58	25.12
549.924	25.3
550.268	25.29
550.612	25.42
550.956	25.44
551.3	25.46
551.643	25.42
551.987	25.42
552.33	25.57
552.674	25.8
553.017	25.63
553.361	25.69
553.704	25.52
554.048	25.59
554.391	25.51
554.734	25.62
555.077	25.34
555.42	25.78
555.764	25.66
556.107	25.89
556.45	25.91
556.793	25.85
557.135	26.04
557.478	26.11
557.821	26.05
558.164	25.98
558.507	26.08
558.849	26.19
559.192	26.18
559.534	26.37
559.877	26.26
560.219	26.24
560.562	26.34
560.904	26.21
561.246	26.28
561.589	26.39
561.931	26.3
562.273	26.48
562.615	26.48
562.957	26.2
563.299	26.3
563.641	26.43
563.983	26.54
564.325	26.56
564.667	26.76
565.008	26.66
565.35	26.65
565.692	26.79
566.033	26.49
566.375	26.81
566.716	26.83
567.058	26.73
567.399	26.31
567.741	26.49
568.082	26.42
568.423	26.39
568.764	26.52
569.105	26.61
569.447	26.73
569.788	26.75
570.129	26.89
570.47	26.88
570.811	27.04
571.151	27.04
571.492	27.05
571.833	26.83
572.174	26.83
572.514	27.15
572.855	26.84
573.195	26.81
573.536	26.95
573.876	26.7
574.217	26.82
574.557	26.81
574.898	27.03
575.238	27.21
575.578	27.2
575.918	27.02
576.258	27.15
576.598	27.28
576.938	27.33
577.278	27.28
577.618	27.35
577.958	27.47
578.298	27.51
578.638	27.51
578.977	27.52
579.317	27.72
579.657	27.75
579.996	27.78
580.336	27.85
580.675	27.67
581.014	28.04
581.354	28.06
581.693	27.75
582.032	28.19
582.372	28.26
582.711	28.14
583.05	28.25
583.389	28.19
583.728	28.26
584.067	28.24
584.406	27.95
584.745	28.04
585.083	28.26
585.422	27.96
585.761	28.17
586.1	28.19
586.438	28.2
586.777	28.3
587.115	28.31
587.454	28.7
587.792	28.55
588.13	28.29
588.469	28.1
588.807	28.52
589.145	28.61
589.483	28.73
589.821	28.73
590.159	28.87
590.497	28.34
590.835	28.26
591.173	28.65
591.511	28.39
591.849	28.48
592.187	28.72
592.524	28.87
592.862	28.84
593.2	28.62
593.537	28.84
593.875	28.89
594.212	28.89
594.55	28.62
594.887	29.05
595.224	28.84
595.561	29.32
595.899	28.68
596.236	29
596.573	29.26
596.91	29.21
597.247	29.01
597.584	29.23
597.921	29.16
598.258	28.7
598.594	28.72
598.931	28.62
599.268	28.83
599.604	28.85
599.941	29.31
600.277	29.35
600.614	29.37
600.95	29.5
601.287	29.76
601.623	29.34
601.959	29.67
602.296	29.34
602.632	29.65
602.968	29.4
603.304	29.65
603.64	29.35
603.976	29.74
604.312	29.9
604.648	29.32
604.984	29.58
605.319	29.35
605.655	29.37
605.991	29.38
606.326	29.08
606.662	29.27
606.998	29.45
607.333	29.64
607.668	29.77
608.004	29.99
608.339	29.95
608.674	30.1
609.01	30.11
609.345	29.89
609.68	30
610.015	29.98
610.35	29.97
610.685	29.99
611.02	29.92
611.355	29.79
611.689	30
612.024	29.7
612.359	30.19
612.694	30.44
613.028	30.54
613.363	30.74
613.697	30.46
614.032	30.49
614.366	30.37
614.7	30.88
615.035	30.49
615.369	30.7
615.703	30.46
616.037	30.68
616.371	30.32
616.705	30.59
617.039	30.57
617.373	30.95
617.707	31.09
618.041	30.51
618.375	30.85
618.709	30.46
619.042	30.87
619.376	31.07
619.71	30.68
620.043	30.74
620.377	30.96
620.71	31.28
621.043	31.4
621.377	30.86
621.71	31.5
622.043	31.32
622.376	30.7
622.709	31.23
623.043	30.86
623.376	31.34
623.709	30.92
624.041	31.24
624.374	31.23
624.707	31.1
625.04	31.67
625.373	31.39
625.705	31.25
626.038	31.54
626.37	31.31
626.703	31.49
627.035	31.55
627.368	31.49
627.7	31.53
628.032	31.17
628.365	31.25
628.697	31.32
629.029	31.76
629.361	31.92
629.693	31.28
630.025	31.56
630.357	31.83
630.689	31.75
631.021	31.76
631.353	31.98
631.684	31.58
632.016	31.81
632.348	31.54
632.679	31.92
633.011	32.04
633.342	31.83
633.674	31.75
634.005	31.81
634.336	32.36
634.668	32.23
634.999	32.37
635.33	31.73
635.661	32.09
635.992	32.18
636.323	32.33
636.654	32.52
636.985	32.39
637.316	32.48
637.647	32.48
637.977	32.04
638.308	32.04
638.639	32.12
638.969	32.81
639.3	32.35
639.63	32.51
639.961	32.4
640.291	32.88
640.622	32.92
640.952	33.01
641.282	32.55
641.612	32.7
641.943	33.05
642.273	32.88
642.603	32.68
642.933	32.62
643.263	32.61
643.592	32.95
643.922	33.19
644.252	33.24
644.582	33.34
644.911	32.95
645.241	33.05
645.571	33.32
645.9	32.86
646.23	32.85
646.559	32.81
646.888	33.51
647.218	33.19
647.547	32.88
647.876	33.38
648.205	33.39
648.534	33.6
648.863	33.05
649.192	33.44
649.521	33.23
649.85	32.98
650.179	32.4
650.508	33.85
650.837	33.82
651.165	33.85
651.494	33.21
651.822	33.39
652.151	33.58
652.479	33.53
652.808	33.71
653.136	33.45
653.465	33.53
653.793	33.15
654.121	33.52
654.449	33.14
654.777	33.86
655.105	33.2
655.433	33.57
655.761	33.86
656.089	33.99
656.417	33.86
656.745	33.78
657.073	33.08
657.4	33.9
657.728	34.04
658.056	33.9
658.383	33.92
658.711	34.44
659.038	33.9
659.365	34.26
659.693	34.08
660.02	33.72
660.347	34.02
660.674	33.57
661.001	34.03
661.329	33.46
661.656	34.21
661.982	34.05
662.309	34.16
662.636	34.34
662.963	34.53
663.29	34.37
663.616	34.36
663.943	34.5
664.27	34.7
664.596	34.31
664.923	34.33
665.249	34.46
665.576	34.75
665.902	34.28
666.228	34.65
666.554	34.56
666.881	34.92
667.207	34.88
667.533	33.88
667.859	34.95
668.185	34.66
668.511	34.5
668.837	35.09
669.162	35.19
669.488	34.75
669.814	34.84
670.139	35.18
670.465	34.72
670.791	34.04
671.116	33.92
671.442	35.06
671.767	35.12
672.092	34.95
672.418	35.39
672.743	35.16
673.068	34.82
673.393	35.05
673.718	35.11
674.043	35.28
