Data from 97278_crown_Reflection__3__74.txt Node

Date: Fri Sep 23 20:15:09 CDT 2022
User: ToomeyLab
Spectrometer: FLMS14357
Trigger mode: 0
Integration Time (sec): 1.000000E-2
Scans to average: 100
Electric dark correction enabled: true
Nonlinearity correction enabled: false
Boxcar width: 0
XAxis mode: Wavelengths
Number of Pixels in Spectrum: 2048
>>>>>Begin Spectral Data<<<<<
189.047	280.89
189.435	280.89
189.823	280.89
190.211	264.56
190.599	-970.78
190.987	-253.45
191.375	66.04
191.763	36.33
192.151	-213.2
192.538	-426.13
192.926	317.06
193.314	1027.44
193.702	105.44
194.089	69
194.477	186.71
194.864	82.57
195.252	165.58
195.639	48.42
196.027	-40.11
196.414	218.78
196.801	551.44
197.189	-159.49
197.576	85.79
197.963	65.57
198.351	72.85
198.738	25.14
199.125	32.72
199.512	20.82
199.899	7
200.286	-5.87
200.673	16.07
201.06	11.97
201.447	28.59
201.833	33.42
202.22	-1.32
202.607	18.45
202.994	-23.62
203.38	16.2
203.767	-26.78
204.154	54.79
204.54	26.72
204.927	9.59
205.313	14.92
205.699	5.37
206.086	-20.67
206.472	19.26
206.858	3.96
207.245	15.08
207.631	51.32
208.017	28.38
208.403	14.62
208.789	22.76
209.175	27.3
209.561	6.13
209.947	6.27
210.333	6.16
210.719	18.77
211.105	16.12
211.491	9.81
211.876	10.35
212.262	7.54
212.648	-15.25
213.034	-46.18
213.419	8.84
213.805	26.52
214.19	29.12
214.576	3.38
214.961	5.3
215.346	-8.81
215.732	23.36
216.117	16.3
216.502	46.54
216.888	3.95
217.273	5.01
217.658	6.22
218.043	16.62
218.428	22.52
218.813	24.11
219.198	2.54
219.583	16.15
219.968	27.11
220.353	1.24
220.738	14.11
221.122	-10.47
221.507	13.18
221.892	34.13
222.276	-9.4
222.661	6.92
223.046	5.55
223.43	3.12
223.815	-3.34
224.199	7.72
224.583	8.75
224.968	4.5
225.352	7.56
225.736	9.67
226.121	7.59
226.505	3.58
226.889	10.24
227.273	12.15
227.657	4.07
228.041	6.55
228.425	11.77
228.809	3.69
229.193	8.94
229.577	9.59
229.961	6.24
230.344	7.31
230.728	7.09
231.112	6.68
231.495	6.99
231.879	6.2
232.263	6.95
232.646	8.58
233.03	5.87
233.413	7.66
233.797	8.15
234.18	9.52
234.563	4.87
234.946	8.21
235.33	6.2
235.713	8.79
236.096	5.54
236.479	4.91
236.862	7.67
237.245	8.61
237.628	7.96
238.011	7.81
238.394	7.67
238.777	7.44
239.16	8.18
239.543	5.34
239.925	6.69
240.308	9.86
240.691	8.67
241.073	6.39
241.456	6.95
241.838	9.19
242.221	6.92
242.603	7.29
242.986	6.38
243.368	6.53
243.75	6.56
244.133	7.03
244.515	6.63
244.897	6.55
245.279	7.61
245.661	6.85
246.043	7.44
246.425	6.63
246.807	6.65
247.189	7.38
247.571	6.65
247.953	6.63
248.335	7
248.717	6.73
249.098	6.59
249.48	6.28
249.862	6.72
250.243	6.95
250.625	6.31
251.006	6.99
251.388	6.74
251.769	7.24
252.151	5.68
252.532	6.94
252.913	7
253.295	7.31
253.676	6.47
254.057	6.33
254.438	6.67
254.819	7.49
255.2	5.7
255.581	7.15
255.962	5.36
256.343	7.43
256.724	7.58
257.105	5.9
257.486	4.76
257.867	5.66
258.247	6.64
258.628	6.64
259.009	5.39
259.389	6.03
259.77	5.5
260.15	6.06
260.531	6.35
260.911	6.4
261.292	6.57
261.672	6.21
262.052	6.09
262.432	5.92
262.813	6.23
263.193	5.73
263.573	6.31
263.953	5.98
264.333	6.13
264.713	6.17
265.093	7.17
265.473	6.23
265.853	5.71
266.233	6.09
266.612	6.64
266.992	7.28
267.372	6.21
267.752	6.33
268.131	6.55
268.511	6.21
268.89	5.96
269.27	5.54
269.649	6.21
270.029	6.21
270.408	6.95
270.787	5.99
271.167	6.2
271.546	6.39
271.925	6.26
272.304	6.36
272.683	6.03
273.062	5.57
273.441	6.03
273.82	6.09
274.199	5.72
274.578	5.68
274.957	5.84
275.336	5.46
275.715	5.97
276.093	6.61
276.472	6.81
276.851	6.33
277.229	5.29
277.608	5.75
277.986	5.57
278.365	6.38
278.743	6.54
279.122	5.67
279.5	6.22
279.878	5.62
280.257	6.31
280.635	5.48
281.013	6.02
281.391	5.86
281.769	6.22
282.147	6
282.525	5.86
282.903	5.82
283.281	6.24
283.659	5.75
284.037	5.78
284.415	5.48
284.792	5.42
285.17	5.88
285.548	5.24
285.925	5.89
286.303	5.9
286.68	5.55
287.058	5.69
287.435	5.03
287.813	5.87
288.19	5.28
288.567	5.91
288.945	5.28
289.322	5.25
289.699	5.82
290.076	5.4
290.453	5.57
290.83	5.13
291.207	5.87
291.584	6.19
291.961	5.63
292.338	5.6
292.715	5.22
293.092	4.99
293.469	5.8
293.845	5.56
294.222	5.09
294.599	5.43
294.975	6.04
295.352	5.59
295.728	5.49
296.105	5.25
296.481	5.1
296.858	5.86
297.234	5.37
297.61	5.48
297.986	5.35
298.363	5.13
298.739	5.53
299.115	5.12
299.491	5.33
299.867	5.16
300.243	5.2
300.619	5.64
300.995	5.52
301.371	5.05
301.746	5.35
302.122	5.04
302.498	5.72
302.874	5.05
303.249	5.53
303.625	5.06
304	5.44
304.376	5.03
304.751	4.67
305.127	5.2
305.502	5.34
305.878	4.85
306.253	5.73
306.628	5.41
307.003	4.72
307.378	5.25
307.754	5.59
308.129	5.15
308.504	5.75
308.879	5.39
309.254	5.19
309.629	5.17
310.003	5.41
310.378	5.27
310.753	5.2
311.128	4.87
311.502	5.13
311.877	4.98
312.252	4.7
312.626	5.21
313.001	4.85
313.375	5.29
313.75	5.47
314.124	4.59
314.498	5.43
314.873	5.49
315.247	4.81
315.621	4.99
315.995	5.16
316.369	4.86
316.743	4.5
317.117	4.45
317.491	5.13
317.865	5.32
318.239	5.85
318.613	5.07
318.987	4.77
319.361	4.63
319.734	4.45
320.108	4.85
320.482	5.24
320.855	4.65
321.229	5.19
321.602	5.09
321.976	4.95
322.349	4.4
322.723	5.33
323.096	5.45
323.469	4.32
323.843	4.57
324.216	5.57
324.589	5.69
324.962	5.5
325.335	4.66
325.708	4.89
326.081	4.88
326.454	5.36
326.827	4.52
327.2	4.82
327.573	5.16
327.945	5.47
328.318	4.96
328.691	4.72
329.063	5.03
329.436	4.75
329.809	5.41
330.181	5.08
330.553	4.57
330.926	5.14
331.298	4.75
331.671	4.74
332.043	5.45
332.415	5.26
332.787	5.06
333.159	5.02
333.532	4.83
333.904	4.37
334.276	4.69
334.648	4.72
335.02	4.65
335.391	4.82
335.763	4.23
336.135	5.06
336.507	5.37
336.879	4.71
337.25	5.18
337.622	5.14
337.993	4.54
338.365	5.25
338.736	5.38
339.108	5.46
339.479	5.12
339.851	5.09
340.222	5.49
340.593	4.57
340.964	5.18
341.336	5.01
341.707	5.89
342.078	5.06
342.449	4.92
342.82	4.92
343.191	4.84
343.562	5.14
343.933	5.79
344.303	5.21
344.674	5.37
345.045	5.68
345.416	4.79
345.786	5
346.157	5.02
346.527	4.99
346.898	5.27
347.268	5.12
347.639	4.77
348.009	4.96
348.38	5
348.75	5.08
349.12	5.22
349.49	5.27
349.861	5.09
350.231	5.39
350.601	5.17
350.971	5.44
351.341	4.98
351.711	5.22
352.081	4.84
352.45	4.53
352.82	4.64
353.19	5.76
353.56	4.8
353.929	4.84
354.299	5.2
354.669	5.25
355.038	5.51
355.408	4.56
355.777	5.16
356.147	4.73
356.516	5.42
356.885	4.93
357.254	4.86
357.624	4.5
357.993	5.12
358.362	4.88
358.731	5.1
359.1	4.96
359.469	4.87
359.838	5.36
360.207	5.4
360.576	4.97
360.945	5.07
361.314	4.98
361.682	4.94
362.051	5.29
362.42	5.19
362.788	5.1
363.157	5.37
363.525	5.41
363.894	5.22
364.262	5.19
364.631	5.12
364.999	4.95
365.367	4.78
365.735	5
366.104	5.27
366.472	5.38
366.84	5.26
367.208	5.69
367.576	5.42
367.944	5.13
368.312	5.45
368.68	5.31
369.048	5.21
369.416	5.3
369.783	5.36
370.151	5.16
370.519	5.13
370.886	5.79
371.254	5.32
371.621	5.49
371.989	5.23
372.356	5.54
372.724	5.18
373.091	5.14
373.458	5.16
373.826	5.2
374.193	5.43
374.56	5.41
374.927	5.51
375.294	5.61
375.661	5.33
376.028	5.16
376.395	5.76
376.762	5.46
377.129	5.29
377.496	5.87
377.863	5.47
378.229	5.24
378.596	5.15
378.963	5.36
379.329	5.56
379.696	5.4
380.062	5.15
380.429	5.22
380.795	5.18
381.161	5.39
381.528	5.47
381.894	5.23
382.26	5.31
382.626	5.45
382.993	5.43
383.359	5.42
383.725	5.57
384.091	5.5
384.457	5.27
384.823	5.33
385.188	5.62
385.554	5.61
385.92	5.61
386.286	5.57
386.651	5.73
387.017	5.78
387.383	5.56
387.748	5.58
388.114	5.37
388.479	5.35
388.845	5.59
389.21	5.59
389.575	5.53
389.94	5.36
390.306	5.75
390.671	5.38
391.036	5.57
391.401	5.74
391.766	5.56
392.131	5.68
392.496	5.38
392.861	5.59
393.226	5.41
393.591	5.49
393.956	5.44
394.32	5.81
394.685	5.41
395.05	5.69
395.414	5.62
395.779	5.45
396.143	5.58
396.508	5.5
396.872	5.58
397.236	5.77
397.601	5.6
397.965	5.76
398.329	5.69
398.694	5.4
399.058	5.68
399.422	5.8
399.786	5.89
400.15	5.92
400.514	5.61
400.878	5.82
401.242	5.5
401.605	5.98
401.969	5.79
402.333	5.63
402.697	5.52
403.06	5.61
403.424	5.53
403.787	5.83
404.151	5.77
404.514	5.39
404.878	5.84
405.241	5.74
405.604	5.62
405.968	5.75
406.331	5.84
406.694	5.84
407.057	5.62
407.42	5.8
407.783	5.84
408.146	5.7
408.509	5.58
408.872	5.61
409.235	5.97
409.598	5.97
409.961	5.8
410.323	5.87
410.686	6.01
411.049	5.7
411.411	5.8
411.774	5.64
412.136	5.62
412.499	5.48
412.861	5.68
413.223	5.87
413.586	5.85
413.948	5.73
414.31	5.72
414.672	5.69
415.035	5.64
415.397	5.85
415.759	6.21
416.121	6.02
416.483	5.79
416.845	5.68
417.206	5.76
417.568	5.89
417.93	5.91
418.292	6.03
418.653	5.85
419.015	5.75
419.377	5.78
419.738	5.82
420.1	5.78
420.461	5.86
420.822	5.89
421.184	5.77
421.545	5.73
421.906	5.82
422.267	5.67
422.629	5.79
422.99	5.77
423.351	5.83
423.712	5.76
424.073	5.77
424.434	5.68
424.795	5.89
425.155	5.78
425.516	5.81
425.877	5.8
426.238	5.85
426.598	5.82
426.959	5.84
427.32	5.88
427.68	5.88
428.041	5.87
428.401	5.93
428.761	5.89
429.122	5.88
429.482	5.95
429.842	6.08
430.202	5.99
430.563	5.87
430.923	6.11
431.283	6.2
431.643	5.91
432.003	5.89
432.363	6.13
432.722	6.21
433.082	5.82
433.442	5.9
433.802	6
434.161	5.95
434.521	6.04
434.881	5.84
435.24	5.94
435.6	6.03
435.959	6.01
436.319	5.89
436.678	6.03
437.037	6.15
437.396	5.97
437.756	6.11
438.115	6.09
438.474	6.14
438.833	6.28
439.192	6.05
439.551	6.09
439.91	6.04
440.269	6.03
440.628	6.07
440.987	6
441.345	6.08
441.704	6.01
442.063	6.2
442.421	6.01
442.78	6.02
443.138	5.94
443.497	6.05
443.855	6.08
444.214	6.19
444.572	6.04
444.93	5.95
445.288	6.12
445.647	6.15
446.005	6.2
446.363	6.12
446.721	6.07
447.079	6.11
447.437	6.21
447.795	6.09
448.153	5.89
448.51	6.04
448.868	5.98
449.226	6
449.584	6.05
449.941	6.1
450.299	6.19
450.656	6.11
451.014	6.15
451.371	6
451.729	6.16
452.086	6.38
452.443	6.14
452.801	6.28
453.158	6.26
453.515	6.38
453.872	6.13
454.229	6.08
454.586	6.21
454.943	6.26
455.3	6.15
455.657	6.16
456.014	6.36
456.371	6.09
456.727	6.18
457.084	6.28
457.441	6.42
457.797	6.06
458.154	6.28
458.51	6.21
458.867	6.34
459.223	6.34
459.58	6.22
459.936	6.32
460.292	6.17
460.648	6.2
461.005	6.34
461.361	6.19
461.717	6.2
462.073	6.12
462.429	6.16
462.785	6.31
463.141	6.15
463.496	6.26
463.852	6.42
464.208	6.26
464.564	6.34
464.919	6.3
465.275	6.32
465.631	6.35
465.986	6.13
466.342	6.25
466.697	6.17
467.052	6.28
467.408	6.32
467.763	6.32
468.118	6.27
468.473	6.4
468.829	6.25
469.184	6.32
469.539	6.2
469.894	6.37
470.249	6.52
470.603	6.32
470.958	6.5
471.313	6.42
471.668	6.39
472.023	6.3
472.377	6.21
472.732	6.36
473.086	6.24
473.441	6.55
473.795	6.44
474.15	6.33
474.504	6.41
474.859	6.38
475.213	6.5
475.567	6.34
475.921	6.46
476.275	6.27
476.63	6.23
476.984	6.48
477.338	6.34
477.692	6.35
478.045	6.3
478.399	6.52
478.753	6.31
479.107	6.36
479.461	6.2
479.814	6.22
480.168	6.4
480.521	6.36
480.875	6.27
481.228	6.53
481.582	6.44
481.935	6.48
482.289	6.47
482.642	6.17
482.995	6.56
483.348	6.11
483.701	6.26
484.055	6.3
484.408	6.19
484.761	6.28
485.114	6.11
485.466	6.04
485.819	5.99
486.172	6.02
486.525	6.05
486.878	6.08
487.23	6.15
487.583	6.18
487.936	6.25
488.288	6.2
488.641	6.19
488.993	6.17
489.345	6.16
489.698	6.13
490.05	6.17
490.402	6.1
490.754	6.27
491.107	6.29
491.459	6.23
491.811	6.32
492.163	6.35
492.515	6.37
492.866	6.3
493.218	6.24
493.57	6.16
493.922	6.19
494.274	6.24
494.625	6.3
494.977	6.28
495.328	6.5
495.68	6.4
496.031	6.4
496.383	6.46
496.734	6.42
497.086	6.49
497.437	6.59
497.788	6.44
498.139	6.53
498.49	6.35
498.842	6.55
499.193	6.49
499.544	6.49
499.894	6.53
500.245	6.46
500.596	6.59
500.947	6.43
501.298	6.64
501.648	6.8
501.999	6.69
502.35	6.62
502.7	6.7
503.051	6.56
503.401	6.49
503.752	6.47
504.102	6.69
504.452	6.54
504.803	6.55
505.153	6.62
505.503	6.35
505.853	6.73
506.203	6.46
506.553	6.62
506.903	6.47
507.253	6.53
507.603	6.49
507.953	6.66
508.303	6.61
508.652	6.46
509.002	6.65
509.352	6.64
509.701	6.51
510.051	6.61
510.4	6.7
510.75	6.45
511.099	6.58
511.449	6.47
511.798	6.53
512.147	6.55
512.496	6.54
512.846	6.55
513.195	6.5
513.544	6.75
513.893	6.56
514.242	6.64
514.591	6.57
514.939	6.6
515.288	6.82
515.637	6.72
515.986	6.62
516.334	6.59
516.683	6.72
517.032	6.54
517.38	6.73
517.729	6.71
518.077	6.59
518.426	6.64
518.774	6.72
519.122	6.61
519.47	6.64
519.819	6.57
520.167	6.61
520.515	6.59
520.863	6.68
521.211	6.55
521.559	6.54
521.907	6.61
522.255	6.62
522.602	6.47
522.95	6.7
523.298	6.7
523.645	6.72
523.993	6.65
524.341	6.66
524.688	6.7
525.036	6.8
525.383	6.57
525.73	6.69
526.078	6.8
526.425	6.78
526.772	6.59
527.119	6.61
527.466	6.59
527.814	6.61
528.161	6.67
528.508	6.64
528.854	6.66
529.201	6.6
529.548	6.71
529.895	6.51
530.242	6.41
530.588	6.4
530.935	6.41
531.282	6.46
531.628	6.45
531.975	6.47
532.321	6.55
532.667	6.58
533.014	6.66
533.36	6.72
533.706	6.66
534.052	6.61
534.399	6.62
534.745	6.6
535.091	6.57
535.437	6.59
535.783	6.6
536.129	6.61
536.474	6.62
536.82	6.6
537.166	6.69
537.512	6.74
537.857	6.72
538.203	6.73
538.549	6.59
538.894	6.76
539.239	6.78
539.585	6.74
539.93	6.75
540.276	6.91
540.621	6.81
540.966	6.78
541.311	6.79
541.656	6.77
542.001	6.98
542.346	6.8
542.691	6.72
543.036	6.63
543.381	6.64
543.726	6.62
544.071	6.68
544.415	6.71
544.76	6.61
545.105	6.76
545.449	6.78
545.794	6.76
546.138	6.82
546.483	6.81
546.827	6.86
547.171	6.8
547.516	6.87
547.86	6.79
548.204	6.89
548.548	6.76
548.892	6.8
549.236	6.89
549.58	6.78
549.924	7.05
550.268	7.05
550.612	7.06
550.956	6.99
551.3	6.87
551.643	6.81
551.987	6.91
552.33	6.88
552.674	7.13
553.017	7.1
553.361	6.99
553.704	6.97
554.048	6.99
554.391	6.87
554.734	6.99
555.077	6.89
555.42	6.77
555.764	7
556.107	6.94
556.45	7.08
556.793	6.96
557.135	7.07
557.478	7.19
557.821	7.2
558.164	6.99
558.507	6.87
558.849	7.08
559.192	7.26
559.534	7.03
559.877	7.23
560.219	7.15
560.562	7.29
560.904	6.97
561.246	6.93
561.589	7.1
561.931	7.19
562.273	7.08
562.615	7.13
562.957	6.99
563.299	6.93
563.641	7.23
563.983	7.05
564.325	6.96
564.667	7.09
565.008	7.13
565.35	7.1
565.692	7.01
566.033	6.97
566.375	7.06
566.716	7.08
567.058	7.14
567.399	6.78
567.741	7.13
568.082	7.14
568.423	6.83
568.764	7.09
569.105	6.88
569.447	7.06
569.788	7.06
570.129	7.17
570.47	7.04
570.811	7.14
571.151	7.27
571.492	6.98
571.833	7.18
572.174	7.11
572.514	7.24
572.855	7.08
573.195	7.13
573.536	7.25
573.876	6.96
574.217	7.19
574.557	7.12
574.898	6.96
575.238	7.15
575.578	7.17
575.918	6.95
576.258	7.08
576.598	7.21
576.938	7.21
577.278	7.27
577.618	6.99
577.958	7.19
578.298	7.12
578.638	7.13
578.977	7.2
579.317	7.32
579.657	7.33
579.996	7.16
580.336	7.12
580.675	7.31
581.014	7.12
581.354	7.41
581.693	7.24
582.032	7.34
582.372	7.34
582.711	7.35
583.05	7.25
583.389	7.26
583.728	7.46
584.067	7.3
584.406	7.3
584.745	7.53
585.083	7.27
585.422	7.2
585.761	7.25
586.1	7.14
586.438	7.27
586.777	7.07
587.115	7.28
587.454	7.34
587.792	7.42
588.13	7.25
588.469	7.28
588.807	7.13
589.145	7.44
589.483	7.29
589.821	7.19
590.159	7.44
590.497	7.15
590.835	7.25
591.173	7.08
591.511	7.29
591.849	7.03
592.187	7.18
592.524	7.53
592.862	7.52
593.2	7.37
593.537	7.39
593.875	7.36
594.212	7.46
594.55	7.27
594.887	7.15
595.224	7.2
595.561	7.28
595.899	7.21
596.236	7.38
596.573	7.34
596.91	7.37
597.247	7.33
597.584	7.33
597.921	7.39
598.258	7.22
598.594	7.28
598.931	7.29
599.268	7.2
599.604	7.03
599.941	7.39
600.277	7.32
600.614	7.32
600.95	7.25
601.287	7.38
601.623	7.17
601.959	7.26
602.296	7.45
602.632	7.5
602.968	6.99
603.304	7.2
603.64	7.45
603.976	7.52
604.312	7.52
604.648	7.35
604.984	7.25
605.319	7.43
605.655	7.21
605.991	7.35
606.326	7.38
606.662	7.24
606.998	7.42
607.333	7.24
607.668	7.26
608.004	7.32
608.339	7.24
608.674	7.35
609.01	7.61
609.345	7.41
609.68	7.18
610.015	7.53
610.35	7.5
610.685	7.03
611.02	7.34
611.355	7.37
611.689	7.32
612.024	7.4
612.359	7.39
612.694	7.66
613.028	7.55
613.363	7.66
613.697	7.34
614.032	7.12
614.366	7.53
614.7	7.69
615.035	7.69
615.369	7.58
615.703	7.41
616.037	7.4
616.371	7.39
616.705	7.34
617.039	7.4
617.373	7.72
617.707	7.63
618.041	7.58
618.375	7.45
618.709	7.21
619.042	7.43
619.376	7.95
619.71	7.68
620.043	7.47
620.377	7.3
620.71	7.65
621.043	7.36
621.377	7.09
621.71	7.85
622.043	7.22
622.376	7.39
622.709	7.36
623.043	7.39
623.376	7.52
623.709	7.71
624.041	7.64
624.374	7.29
624.707	7.75
625.04	7.62
625.373	7.7
625.705	7.37
626.038	7.27
626.37	7.4
626.703	7.58
627.035	7.63
627.368	7.68
627.7	7.6
628.032	7.26
628.365	7.18
628.697	7.41
629.029	7.56
629.361	7.77
629.693	7.41
630.025	7.52
630.357	7.73
630.689	7.73
631.021	7.29
631.353	7.76
631.684	7.51
632.016	7.7
632.348	7.24
632.679	7.54
633.011	7.45
633.342	7.71
633.674	7.65
634.005	7.54
634.336	7.92
634.668	7.59
634.999	7.68
635.33	7.7
635.661	7.76
635.992	7.83
636.323	7.84
636.654	7.83
636.985	7.67
637.316	7.85
637.647	8.06
637.977	7.52
638.308	7.53
638.639	7.48
638.969	7.72
639.3	7.53
639.63	7.4
639.961	7.6
640.291	7.42
640.622	7.37
640.952	7.49
641.282	7.62
641.612	7.55
641.943	7.43
642.273	8
642.603	7.67
642.933	7.54
643.263	7.78
643.592	7.76
643.922	7.55
644.252	8.2
644.582	8.14
644.911	7.17
645.241	7.73
645.571	8.34
645.9	7.82
646.23	8.12
646.559	7.74
646.888	8.03
647.218	7.5
647.547	7.67
647.876	7.11
648.205	7.73
648.534	7.48
648.863	8.03
649.192	8.16
649.521	7.34
649.85	7.69
650.179	7.62
650.508	7.87
650.837	7.82
651.165	8.19
651.494	7.64
651.822	7.84
652.151	7.42
652.479	8.08
652.808	7.53
653.136	7.87
653.465	7.21
653.793	7.79
654.121	7.11
654.449	7.67
654.777	7.44
655.105	7.68
655.433	7.92
655.761	7.56
656.089	8.07
656.417	7.96
656.745	7.47
657.073	6.83
657.4	8.03
657.728	7.41
658.056	8.3
658.383	7.67
658.711	7.95
659.038	7.88
659.365	7.52
659.693	7.98
660.02	8.09
660.347	7.96
660.674	7.72
661.001	8.46
661.329	7.58
661.656	8.1
661.982	7.87
662.309	7.8
662.636	7.74
662.963	7.7
663.29	7.76
663.616	7.96
663.943	7.49
664.27	7.85
664.596	7.71
664.923	7.88
665.249	7.99
665.576	8.11
665.902	7.75
666.228	7.84
666.554	7.74
666.881	7.56
667.207	7.63
667.533	7.5
667.859	7.7
668.185	7.54
668.511	7.66
668.837	8.42
669.162	7.64
669.488	7.43
669.814	8.12
670.139	7.76
670.465	7.73
670.791	7.66
671.116	7.69
671.442	8.13
671.767	7.2
672.092	7.28
672.418	7.56
672.743	8.29
673.068	7.5
673.393	8.02
673.718	7.97
674.043	8.55
674.368	8.16
674.693	7.93
675.018	7.77
675.343	8.56
675.667	8.01
675.992	8
676.317	8.08
676.641	7.98
676.966	8.11
677.29	7.97
677.615	7.98
677.939	7.96
678.264	7.4
678.588	7.6
678.912	7.89
679.236	8.19
679.56	7.57
679.885	8.06
680.209	8.03
680.532	8.1
680.856	8.03
681.18	8.99
681.504	8.94
681.828	8.47
682.152	8
682.475	7.99
682.799	8.35
683.122	7.87
683.446	7.92
683.769	7.88
684.093	8.31
684.416	8.15
684.739	8.43
685.062	7.87
685.386	8.19
685.709	8.25
686.032	8.3
686.355	7.81
686.678	8.31
687.001	8.29
687.324	8.94
687.646	8.23
687.969	8.56
688.292	7.47
688.614	8.6
688.937	7.68
689.26	8.04
689.582	8.11
689.904	8.53
690.227	8.24
690.549	8.38
690.871	8.46
691.194	7.46
691.516	7.66
691.838	8.16
692.16	7.87
692.482	8.34
692.804	8.53
693.126	8.62
693.448	7.97
