Data from 97278_crown_Reflection__1__72.txt Node

Date: Fri Sep 23 20:14:45 CDT 2022
User: ToomeyLab
Spectrometer: FLMS14357
Trigger mode: 0
Integration Time (sec): 1.000000E-2
Scans to average: 100
Electric dark correction enabled: true
Nonlinearity correction enabled: false
Boxcar width: 0
XAxis mode: Wavelengths
Number of Pixels in Spectrum: 2048
>>>>>Begin Spectral Data<<<<<
189.047	323.17
189.435	323.17
189.823	323.17
190.211	-167.13
190.599	530.52
190.987	-344.48
191.375	334.19
191.763	57.9
192.151	-285.93
192.538	-715.16
192.926	373.03
193.314	666.41
193.702	-28.09
194.089	53.11
194.477	152.64
194.864	-118.96
195.252	-2.12
195.639	36.5
196.027	79.83
196.414	222.68
196.801	-263.88
197.189	-45.65
197.576	208.25
197.963	49.32
198.351	30.56
198.738	-188.55
199.125	17.16
199.512	-31.79
199.899	-22.51
200.286	-41.83
200.673	15.61
201.06	-26.3
201.447	46.55
201.833	-0.83
202.22	-52.76
202.607	-5.27
202.994	1.05
203.38	-84.48
203.767	-37.19
204.154	33.27
204.54	10.47
204.927	26.51
205.313	-4.13
205.699	1.02
206.086	-36.95
206.472	22.72
206.858	12.69
207.245	-5.17
207.631	5.25
208.017	7.04
208.403	-9.44
208.789	-0.73
209.175	7.14
209.561	11.69
209.947	-50.74
210.333	-52.93
210.719	-30.9
211.105	27.53
211.491	-1.45
211.876	12.9
212.262	-32.76
212.648	-29.11
213.034	-51.37
213.419	-46.21
213.805	5.52
214.19	-39.52
214.576	-1.21
214.961	17.03
215.346	-45.82
215.732	-7.67
216.117	-7.62
216.502	26.78
216.888	17.84
217.273	-21.36
217.658	-50.32
218.043	15.05
218.428	-2.31
218.813	8.62
219.198	-24.14
219.583	-4.99
219.968	-15.17
220.353	-5.27
220.738	0.6
221.122	2.96
221.507	-17.92
221.892	1.7
222.276	-36.79
222.661	-8.31
223.046	5.32
223.43	-10.42
223.815	-2.11
224.199	-2.35
224.583	6.16
224.968	-11.78
225.352	-9.83
225.736	2.57
226.121	11.24
226.505	7.74
226.889	5.67
227.273	6.69
227.657	0.09
228.041	0.95
228.425	1.71
228.809	3.56
229.193	4.77
229.577	3.62
229.961	3.16
230.344	2.64
230.728	3.05
231.112	3.31
231.495	3.43
231.879	0.67
232.263	3.51
232.646	4.58
233.03	3.19
233.413	3.8
233.797	2.22
234.18	6.52
234.563	2.37
234.946	3.04
235.33	0.52
235.713	4.11
236.096	-0.14
236.479	2.53
236.862	3.54
237.245	3
237.628	3.47
238.011	3.63
238.394	2.06
238.777	3.76
239.16	2.04
239.543	2.77
239.925	3.62
240.308	4.1
240.691	2.68
241.073	1.53
241.456	2.88
241.838	4.52
242.221	3.74
242.603	3.71
242.986	2.49
243.368	2.56
243.75	3.46
244.133	3.38
244.515	3.3
244.897	3.31
245.279	3.36
245.661	3.8
246.043	4.12
246.425	2.46
246.807	2.4
247.189	3.46
247.571	3.46
247.953	3.27
248.335	3.21
248.717	3.48
249.098	3.35
249.48	3.4
249.862	3.56
250.243	3.6
250.625	3.14
251.006	3.6
251.388	2.22
251.769	3.62
252.151	0.58
252.532	4.02
252.913	2.72
253.295	3.21
253.676	3.17
254.057	2.98
254.438	3.01
254.819	3.77
255.2	3.38
255.581	3.21
255.962	2.72
256.343	3.21
256.724	1.47
257.105	3.21
257.486	2.44
257.867	3.04
258.247	3.83
258.628	2.77
259.009	2.39
259.389	2.89
259.77	1.82
260.15	3.26
260.531	2.82
260.911	2.74
261.292	3.13
261.672	2.76
262.052	2.94
262.432	3.05
262.813	3.32
263.193	2.7
263.573	2.87
263.953	2.48
264.333	2.5
264.713	3.41
265.093	3.59
265.473	2.8
265.853	2.41
266.233	2.31
266.612	3.1
266.992	3.04
267.372	2.18
267.752	2.62
268.131	3
268.511	2.65
268.89	2.69
269.27	2.82
269.649	2.74
270.029	3.03
270.408	3.55
270.787	2.5
271.167	2.49
271.546	2.88
271.925	2.76
272.304	2.8
272.683	2.62
273.062	2.61
273.441	2.5
273.82	2.65
274.199	2.55
274.578	2.56
274.957	2.4
275.336	2.77
275.715	2.32
276.093	2.96
276.472	3.37
276.851	3.3
277.229	2.49
277.608	3.22
277.986	1.86
278.365	2.84
278.743	3.22
279.122	2.21
279.5	3.34
279.878	2.82
280.257	2.63
280.635	2.37
281.013	2.12
281.391	3.08
281.769	2.4
282.147	2.55
282.525	2.67
282.903	2.65
283.281	3.14
283.659	2.53
284.037	2.59
284.415	2.9
284.792	2.78
285.17	2.77
285.548	2.22
285.925	2.54
286.303	3.05
286.68	2.73
287.058	2.5
287.435	2.38
287.813	2.58
288.19	2.84
288.567	2.61
288.945	3.2
289.322	3.32
289.699	3.02
290.076	1.96
290.453	2.74
290.83	2.47
291.207	2.7
291.584	2.62
291.961	2.88
292.338	2.73
292.715	2.57
293.092	2.84
293.469	3.11
293.845	3.1
294.222	2.75
294.599	2.06
294.975	3.04
295.352	2.49
295.728	2.4
296.105	2.56
296.481	2.41
296.858	2.85
297.234	2.65
297.61	2.31
297.986	2.42
298.363	2.4
298.739	2.42
299.115	2.62
299.491	2.57
299.867	2.55
300.243	2.64
300.619	2.95
300.995	2.96
301.371	2.5
301.746	2.8
302.122	2.85
302.498	2.77
302.874	2.78
303.249	2.94
303.625	2.15
304	2.39
304.376	2.48
304.751	2.18
305.127	2.28
305.502	2.33
305.878	2.26
306.253	2.59
306.628	2.21
307.003	1.9
307.378	2.52
307.754	2.87
308.129	2.55
308.504	2.68
308.879	2.91
309.254	2.38
309.629	2.7
310.003	3.16
310.378	2.25
310.753	2.51
311.128	2.22
311.502	2.43
311.877	2.14
312.252	2.22
312.626	2.37
313.001	2.45
313.375	2.28
313.75	2.32
314.124	2.43
314.498	2.63
314.873	2.8
315.247	3.21
315.621	2.84
315.995	2.72
316.369	2.93
316.743	2.17
317.117	2.16
317.491	2.27
317.865	2.7
318.239	2.61
318.613	2.15
318.987	2.12
319.361	2.52
319.734	2.28
320.108	2.42
320.482	2.84
320.855	2.42
321.229	2.84
321.602	2.62
321.976	3.27
322.349	2.49
322.723	2.76
323.096	2.79
323.469	2.36
323.843	2.24
324.216	2.97
324.589	2.5
324.962	2.65
325.335	2.06
325.708	2.92
326.081	2.1
326.454	2.21
326.827	2.41
327.2	2.25
327.573	2.68
327.945	2.94
328.318	2.06
328.691	2.43
329.063	2.78
329.436	2.53
329.809	3.14
330.181	2.39
330.553	2.54
330.926	2.51
331.298	2.66
331.671	2.5
332.043	2.5
332.415	2.38
332.787	2.24
333.159	2.81
333.532	1.92
333.904	2.1
334.276	2.06
334.648	2.68
335.02	2.3
335.391	2.44
335.763	2.34
336.135	3.21
336.507	2.6
336.879	3
337.25	2.87
337.622	2.75
337.993	2.42
338.365	2.77
338.736	2.75
339.108	2.43
339.479	2.28
339.851	2.97
340.222	3.18
340.593	2.62
340.964	2.84
341.336	2.7
341.707	3.17
342.078	2.46
342.449	2.46
342.82	2.47
343.191	2.94
343.562	2.47
343.933	3.25
344.303	2.71
344.674	3.33
345.045	3.25
345.416	2.99
345.786	3.47
346.157	2.44
346.527	2.46
346.898	2.96
347.268	2.84
347.639	2.84
348.009	2.71
348.38	2.71
348.75	3.08
349.12	2.79
349.49	2.83
349.861	2.87
350.231	2.97
350.601	2.65
350.971	2.56
351.341	2.42
351.711	2.73
352.081	2.17
352.45	2.59
352.82	2.67
353.19	3.03
353.56	2.62
353.929	2.64
354.299	3.37
354.669	2.98
355.038	2.62
355.408	2.38
355.777	2.74
356.147	2.48
356.516	3.08
356.885	2.71
357.254	2.58
357.624	2.75
357.993	2.98
358.362	2.62
358.731	2.38
359.1	2.77
359.469	2.44
359.838	2.57
360.207	2.96
360.576	2.56
360.945	2.62
361.314	2.53
361.682	2.57
362.051	2.57
362.42	2.87
362.788	2.68
363.157	2.85
363.525	2.94
363.894	2.92
364.262	2.52
364.631	2.81
364.999	3.06
365.367	2.56
365.735	2.88
366.104	2.92
366.472	2.84
366.84	2.63
367.208	2.68
367.576	2.86
367.944	2.8
368.312	2.81
368.68	3.04
369.048	2.59
369.416	2.68
369.783	2.74
370.151	2.78
370.519	2.61
370.886	2.42
371.254	2.63
371.621	2.87
371.989	2.71
372.356	2.8
372.724	2.59
373.091	2.58
373.458	2.91
373.826	2.64
374.193	2.95
374.56	2.6
374.927	3.15
375.294	3.07
375.661	2.67
376.028	3.14
376.395	2.89
376.762	2.75
377.129	2.69
377.496	2.98
377.863	2.78
378.229	2.76
378.596	2.61
378.963	2.91
379.329	3.11
379.696	2.97
380.062	2.82
380.429	2.75
380.795	2.55
381.161	2.93
381.528	3.19
381.894	2.71
382.26	2.61
382.626	2.96
382.993	2.93
383.359	2.6
383.725	2.93
384.091	2.78
384.457	2.82
384.823	2.55
385.188	2.89
385.554	3.04
385.92	3.13
386.286	2.94
386.651	3.01
387.017	2.79
387.383	2.94
387.748	3.02
388.114	2.67
388.479	2.73
388.845	2.72
389.21	2.85
389.575	2.58
389.94	2.61
390.306	2.84
390.671	2.76
391.036	2.78
391.401	3
391.766	3.14
392.131	2.84
392.496	2.79
392.861	2.77
393.226	2.82
393.591	2.91
393.956	3
394.32	2.99
394.685	2.91
395.05	2.84
395.414	2.68
395.779	2.81
396.143	2.81
396.508	2.88
396.872	2.94
397.236	2.97
397.601	2.92
397.965	3.06
398.329	3.12
398.694	2.93
399.058	2.9
399.422	3.1
399.786	3.16
400.15	2.92
400.514	2.78
400.878	3.12
401.242	2.95
401.605	3.13
401.969	2.86
402.333	3.01
402.697	2.77
403.06	2.99
403.424	2.91
403.787	2.85
404.151	2.86
404.514	2.87
404.878	2.76
405.241	2.91
405.604	3.01
405.968	2.92
406.331	2.99
406.694	3.03
407.057	2.85
407.42	3.16
407.783	2.84
408.146	2.92
408.509	3.07
408.872	2.96
409.235	3.13
409.598	3.08
409.961	3.13
410.323	2.88
410.686	3.01
411.049	2.88
411.411	2.91
411.774	2.76
412.136	3.04
412.499	2.78
412.861	2.78
413.223	3.17
413.586	2.98
413.948	2.85
414.31	2.81
414.672	2.9
415.035	3.06
415.397	3.03
415.759	3.39
416.121	3.33
416.483	3.06
416.845	2.88
417.206	2.98
417.568	3.1
417.93	3.1
418.292	3
418.653	3.11
419.015	2.85
419.377	2.85
419.738	2.96
420.1	2.85
420.461	2.97
420.822	2.93
421.184	3.04
421.545	2.93
421.906	2.93
422.267	2.78
422.629	2.91
422.99	2.9
423.351	2.93
423.712	2.93
424.073	2.92
424.434	2.91
424.795	2.98
425.155	3
425.516	2.96
425.877	2.86
426.238	2.96
426.598	2.98
426.959	3.07
427.32	2.99
427.68	3
428.041	3
428.401	3
428.761	2.97
429.122	3.16
429.482	3
429.842	3.18
430.202	3.05
430.563	2.88
430.923	3.2
431.283	3.24
431.643	2.96
432.003	2.96
432.363	3.06
432.722	3.07
433.082	2.9
433.442	2.94
433.802	2.96
434.161	2.79
434.521	3.01
434.881	2.84
435.24	2.92
435.6	3.02
435.959	3.09
436.319	3.12
436.678	2.91
437.037	3.06
437.396	3.2
437.756	3.15
438.115	2.89
438.474	3.06
438.833	3.01
439.192	3
439.551	3.06
439.91	3.21
440.269	3.05
440.628	2.95
440.987	2.88
441.345	3.03
441.704	3.03
442.063	3.17
442.421	2.91
442.78	3
443.138	2.92
443.497	3.1
443.855	2.98
444.214	3.08
444.572	2.94
444.93	3.02
445.288	3.02
445.647	3.24
446.005	3.16
446.363	3.03
446.721	3.01
447.079	3.03
447.437	3.05
447.795	3.03
448.153	2.91
448.51	2.92
448.868	2.99
449.226	2.98
449.584	3.1
449.941	3.1
450.299	3.09
450.656	2.97
451.014	3.11
451.371	2.93
451.729	2.94
452.086	3.12
452.443	3.09
452.801	3
453.158	3.14
453.515	3.05
453.872	3.17
454.229	3.15
454.586	3.01
454.943	3.04
455.3	3.04
455.657	3.03
456.014	3.28
456.371	3.12
456.727	3.07
457.084	3.12
457.441	3.2
457.797	2.9
458.154	3.05
458.51	3.05
458.867	3.13
459.223	3.03
459.58	3.14
459.936	3
460.292	2.88
460.648	3.15
461.005	3.12
461.361	2.94
461.717	3.02
462.073	2.98
462.429	3.08
462.785	3.1
463.141	3.05
463.496	3.06
463.852	3.2
464.208	3.07
464.564	3.15
464.919	3.22
465.275	3.3
465.631	2.96
465.986	3
466.342	3.14
466.697	3.19
467.052	3.02
467.408	3.13
467.763	3.03
468.118	2.9
468.473	3.09
468.829	3.02
469.184	3.28
469.539	3.11
469.894	3.05
470.249	3.11
470.603	3.08
470.958	3.14
471.313	3.25
471.668	3.25
472.023	3
472.377	3.08
472.732	3.1
473.086	3.16
473.441	3.19
473.795	3.28
474.15	3.21
474.504	3.22
474.859	2.99
475.213	3.37
475.567	2.97
475.921	3.13
476.275	3.08
476.63	3.15
476.984	3.4
477.338	3.09
477.692	3.13
478.045	3.08
478.399	3.01
478.753	3.16
479.107	3.09
479.461	3.04
479.814	2.94
480.168	3.08
480.521	3.06
480.875	3.22
481.228	3.22
481.582	3.11
481.935	3.02
482.289	3.05
482.642	3.06
482.995	3.22
483.348	2.99
483.701	3.02
484.055	3.08
484.408	3.04
484.761	2.95
485.114	2.79
485.466	2.75
485.819	2.76
486.172	2.92
486.525	3.02
486.878	3.08
487.23	3.1
487.583	3.11
487.936	3.16
488.288	2.96
488.641	2.93
488.993	2.87
489.345	2.91
489.698	2.95
490.05	2.98
490.402	2.99
490.754	3.14
491.107	3.14
491.459	3.08
491.811	3.05
492.163	3.13
492.515	3.03
492.866	2.99
493.218	2.86
493.57	2.86
493.922	3.01
494.274	3.12
494.625	3.09
494.977	3.16
495.328	3.23
495.68	3.23
496.031	3.19
496.383	3.3
496.734	3.12
497.086	3.19
497.437	3.32
497.788	3.07
498.139	3.12
498.49	2.93
498.842	3.18
499.193	3.23
499.544	3.08
499.894	3.15
500.245	3.19
500.596	3.2
500.947	3.02
501.298	3.19
501.648	3.25
501.999	3.12
502.35	3.16
502.7	3.21
503.051	3.07
503.401	3.14
503.752	3.2
504.102	3.1
504.452	3.17
504.803	3.19
505.153	3.12
505.503	3.02
505.853	3.19
506.203	3.1
506.553	3.14
506.903	3.14
507.253	3.07
507.603	3.08
507.953	3.18
508.303	3.11
508.652	3.11
509.002	3.17
509.352	3.26
509.701	3.03
510.051	3.18
510.4	3.21
510.75	3.08
511.099	3.15
511.449	3.08
511.798	3.26
512.147	3.06
512.496	3.21
512.846	3.19
513.195	3.04
513.544	3.24
513.893	3.15
514.242	3.21
514.591	3.02
514.939	3.24
515.288	3.21
515.637	3.17
515.986	3.23
516.334	3.04
516.683	3.1
517.032	3.17
517.38	3.2
517.729	3.21
518.077	3.06
518.426	3.27
518.774	3.2
519.122	3.07
519.47	3.08
519.819	3.11
520.167	3.11
520.515	3.08
520.863	3.1
521.211	3.09
521.559	3.13
521.907	3.13
522.255	3.22
522.602	3.22
522.95	3.17
523.298	3.15
523.645	3.2
523.993	3.16
524.341	3.24
524.688	3.15
525.036	3.1
525.383	3.07
525.73	3.16
526.078	3.13
526.425	3.25
526.772	3
527.119	3.01
527.466	2.95
527.814	3.03
528.161	3.2
528.508	3.12
528.854	3.16
529.201	3.04
529.548	3.06
529.895	2.94
530.242	2.81
530.588	2.85
530.935	2.99
531.282	3.03
531.628	3.08
531.975	3.17
532.321	3.11
532.667	3.2
533.014	3.12
533.36	3.15
533.706	3.06
534.052	3.13
534.399	3.05
534.745	2.99
535.091	2.94
535.437	3.07
535.783	3.12
536.129	3.19
536.474	3.23
536.82	3.12
537.166	3.19
537.512	3.07
537.857	3.05
538.203	3
538.549	3
538.894	3.18
539.239	3.09
539.585	3.23
539.93	3.17
540.276	3.35
540.621	3.24
540.966	3.12
541.311	3.18
541.656	3.09
542.001	3.15
542.346	2.99
542.691	2.96
543.036	2.94
543.381	2.93
543.726	3.04
544.071	3.09
544.415	3.23
544.76	3.13
545.105	3.16
545.449	3.11
545.794	3.1
546.138	3.18
546.483	3.29
546.827	3.26
547.171	3.09
547.516	3.17
547.86	3.07
548.204	3.07
548.548	3.01
548.892	2.99
549.236	3.15
549.58	3.22
549.924	3.29
550.268	3.36
550.612	3.13
550.956	3.27
551.3	3.11
551.643	3.19
551.987	3.16
552.33	3.21
552.674	3.19
553.017	3.14
553.361	3.32
553.704	3.06
554.048	3.33
554.391	3.08
554.734	3.25
555.077	3.11
555.42	3.1
555.764	3.14
556.107	3.28
556.45	3.16
556.793	3.14
557.135	3.17
557.478	3.29
557.821	3.12
558.164	3.17
558.507	3.04
558.849	3.32
559.192	3.1
559.534	3.34
559.877	3.28
560.219	3.2
560.562	3.44
560.904	3.24
561.246	3.2
561.589	3.1
561.931	3.32
562.273	3.27
562.615	3.31
562.957	3.09
563.299	3.14
563.641	3.26
563.983	3.16
564.325	3.31
564.667	3.36
565.008	3.15
565.35	3.34
565.692	3.11
566.033	3.16
566.375	3.36
566.716	3.29
567.058	3.24
567.399	3.12
567.741	3.15
568.082	3.12
568.423	3.01
568.764	3.19
569.105	3.24
569.447	3.14
569.788	3.28
570.129	3.15
570.47	3.42
570.811	3.08
571.151	3.32
571.492	3.25
571.833	3.36
572.174	3.14
572.514	3.26
572.855	3.17
573.195	3.09
573.536	3.21
573.876	3.14
574.217	3.02
574.557	3.29
574.898	3.06
575.238	3.2
575.578	3.23
575.918	3.04
576.258	3.05
576.598	3.18
576.938	3.39
577.278	3.31
577.618	3.08
577.958	3.28
578.298	3.14
578.638	3.12
578.977	3.23
579.317	3.28
579.657	3.48
579.996	3.15
580.336	3.31
580.675	3.22
581.014	3.2
581.354	3.5
581.693	3.27
582.032	3.21
582.372	3.37
582.711	3.19
583.05	3.52
583.389	3.26
583.728	3.32
584.067	3.29
584.406	3.24
584.745	3.13
585.083	3.21
585.422	3.05
585.761	3.34
586.1	3.16
586.438	3.15
586.777	3.45
587.115	3.09
587.454	3.59
587.792	3.22
588.13	3.61
588.469	3.2
588.807	3.17
589.145	3.12
589.483	3.2
589.821	3.37
590.159	3.09
590.497	3.34
590.835	2.96
591.173	2.99
591.511	3.37
591.849	2.94
592.187	3.22
592.524	3.54
592.862	3.5
593.2	3.41
593.537	3.14
593.875	3.11
594.212	3.29
594.55	2.82
594.887	3.19
595.224	3.29
595.561	3.22
595.899	3.07
596.236	3.08
596.573	3.38
596.91	3.24
597.247	3.21
597.584	3.27
597.921	3.22
598.258	3.07
598.594	3.15
598.931	3.21
599.268	3.19
599.604	3.28
599.941	3.36
600.277	3.39
600.614	3.2
600.95	3.33
601.287	3.41
601.623	3.03
601.959	3.04
602.296	3.11
602.632	3.23
602.968	3.09
603.304	3.26
603.64	3.13
603.976	3.29
604.312	3.13
604.648	3.22
604.984	3.15
605.319	3.34
605.655	3.11
605.991	3.18
606.326	3.2
606.662	3.2
606.998	3.33
607.333	3.11
607.668	3.14
608.004	3.26
608.339	3.21
608.674	3.48
609.01	3.36
609.345	3.39
609.68	3.27
610.015	3.37
610.35	3.63
610.685	3.07
611.02	3.19
611.355	3.15
611.689	3.11
612.024	3.25
612.359	3.24
612.694	3.5
613.028	3.32
613.363	3.89
613.697	3.27
614.032	3.17
614.366	3.11
614.7	3.37
615.035	3.31
615.369	3.56
615.703	3.24
616.037	3.5
616.371	3.21
616.705	3.11
617.039	3.45
617.373	3.22
617.707	3.27
618.041	3.32
618.375	3.69
618.709	3.23
619.042	3.18
619.376	3.73
619.71	3.31
620.043	3
620.377	3.11
620.71	3.23
621.043	3.54
621.377	2.93
621.71	3.34
622.043	3.04
622.376	3.14
622.709	3.35
623.043	3.09
623.376	3.47
623.709	3.22
624.041	3.41
624.374	3.23
624.707	3.52
625.04	3.69
625.373	3.42
625.705	3.51
626.038	3.13
626.37	3.04
626.703	3.42
627.035	3.66
627.368	3.17
627.7	3.27
628.032	2.99
628.365	3.07
628.697	3.03
629.029	3.44
629.361	3.46
629.693	3.17
630.025	3.44
630.357	3.62
630.689	3.1
631.021	3.09
631.353	3.56
631.684	3.34
632.016	3.5
632.348	3.26
632.679	3.51
633.011	3.23
633.342	3.25
633.674	3.14
634.005	3.24
634.336	3.78
634.668	3.41
634.999	3.38
635.33	3.42
635.661	3.45
635.992	3.38
636.323	3.48
636.654	3.61
636.985	3.24
637.316	3.39
637.647	3.78
637.977	3.53
638.308	3.29
638.639	3
638.969	3.29
639.3	3.23
639.63	2.93
639.961	3.35
640.291	3.27
640.622	3.33
640.952	3.25
641.282	3.3
641.612	3.31
641.943	3.31
642.273	3.54
642.603	3.45
642.933	3.39
643.263	3.15
643.592	3.09
643.922	3.39
644.252	3.48
644.582	4.09
644.911	3.07
645.241	3.31
645.571	3.63
645.9	3.13
646.23	3.5
646.559	3.13
646.888	3.26
647.218	3.44
647.547	3.09
647.876	2.69
648.205	3.13
648.534	4.06
648.863	3.44
649.192	3.29
649.521	3.16
649.85	2.92
650.179	2.88
650.508	3.31
650.837	3.51
651.165	3.51
651.494	3.49
651.822	3.42
652.151	3.57
652.479	3.49
652.808	2.82
653.136	3.05
653.465	3.03
653.793	3.28
654.121	2.93
654.449	3.18
654.777	3.28
655.105	2.8
655.433	3.09
655.761	3.31
656.089	3.59
656.417	3.65
656.745	3.24
657.073	2.94
657.4	3.6
657.728	3.41
658.056	3.82
658.383	3.51
658.711	3.22
659.038	3.81
659.365	2.73
659.693	3.49
660.02	3.55
660.347	3.36
660.674	2.92
661.001	3.48
661.329	3.24
661.656	3.53
661.982	2.82
662.309	3.6
662.636	3.59
662.963	3.7
663.29	3.12
663.616	4.11
663.943	3.11
664.27	3.45
664.596	3.62
664.923	3.1
665.249	3.7
665.576	3.44
665.902	3.2
666.228	3.67
666.554	3.39
666.881	3.35
667.207	3.54
667.533	3.23
667.859	2.88
668.185	3.18
668.511	2.45
668.837	3.51
669.162	3.36
669.488	3.4
669.814	3.53
670.139	3.57
670.465	3.34
670.791	3.17
671.116	3.54
671.442	3.85
671.767	3.36
672.092	3.47
672.418	3.94
672.743	3.84
673.068	3.15
673.393	3.12
673.718	4.27
674.043	3.84
674.368	3.49
674.693	3.51
675.018	3.94
675.343	4.4
675.667	3.57
675.992	3.51
676.317	3.67
676.641	3.25
676.966	3.93
677.29	3.36
677.615	3.38
677.939	2.98
678.264	3.23
678.588	3.58
678.912	2.88
679.236	3.21
679.56	2.78
679.885	3.13
680.209	3.37
680.532	3.23
680.856	3.65
681.18	3.8
681.504	3.62
681.828	3.78
682.152	4.05
682.475	3.45
682.799	3.72
683.122	3.24
683.446	3.83
683.769	3.51
684.093	3.82
684.416	3.49
684.739	3.65
685.062	3.73
685.386	3.19
685.709	3.14
686.032	3.65
686.355	3.42
686.678	3.63
687.001	3.55
687.324	4.05
687.646	4.07
687.969	4.08
688.292	3.35
688.614	3.58
688.937	3.21
689.26	2.92
689.582	2.89
689.904	4.12
690.227	3.2
690.549	3.44
690.871	4.65
691.194	2.86
691.516	3.1
691.838	3.01
692.16	3.46
692.482	3.84
692.804	3.47
