Data from 97278_crown_Reflection__4__75.txt Node

Date: Fri Sep 23 20:15:22 CDT 2022
User: ToomeyLab
Spectrometer: FLMS14357
Trigger mode: 0
Integration Time (sec): 1.000000E-2
Scans to average: 100
Electric dark correction enabled: true
Nonlinearity correction enabled: false
Boxcar width: 0
XAxis mode: Wavelengths
Number of Pixels in Spectrum: 2048
>>>>>Begin Spectral Data<<<<<
189.047	-92.14
189.435	-92.14
189.823	-92.14
190.211	-67.67
190.599	88.31
190.987	88.28
191.375	57.91
191.763	92.06
192.151	-148.92
192.538	-245.16
192.926	388.34
193.314	114.87
193.702	141.88
194.089	116.06
194.477	214.2
194.864	-151.65
195.252	304.82
195.639	69.79
196.027	-21.35
196.414	224.39
196.801	587.56
197.189	-91.7
197.576	116.1
197.963	89.34
198.351	45.47
198.738	-21.72
199.125	1.99
199.512	19.8
199.899	-27.07
200.286	-9.7
200.673	-7.81
201.06	-15.7
201.447	58.23
201.833	34.39
202.22	-23.64
202.607	7.01
202.994	-52.84
203.38	4.99
203.767	-35.42
204.154	-22.61
204.54	-9.21
204.927	21.82
205.313	28.91
205.699	-50.63
206.086	-10.18
206.472	16.93
206.858	33.44
207.245	11.32
207.631	9.74
208.017	3.14
208.403	33.27
208.789	14.1
209.175	6.91
209.561	-4.86
209.947	-14.34
210.333	-20.28
210.719	5.84
211.105	21.84
211.491	-0.99
211.876	17.41
212.262	-21.94
212.648	-40.71
213.034	-68.72
213.419	-41.24
213.805	19.44
214.19	1.3
214.576	-29.32
214.961	33.04
215.346	11.27
215.732	20.11
216.117	-0.89
216.502	2.61
216.888	-12.1
217.273	-3.45
217.658	-33.16
218.043	14.71
218.428	-23.68
218.813	6.78
219.198	-12.69
219.583	11.66
219.968	26.89
220.353	-3.81
220.738	13.28
221.122	-10.8
221.507	1.2
221.892	-1.09
222.276	-10.77
222.661	1.24
223.046	8.2
223.43	-6.2
223.815	5.62
224.199	-0.79
224.583	8.03
224.968	-0.77
225.352	3.24
225.736	4.12
226.121	7.06
226.505	3.14
226.889	4.7
227.273	2.56
227.657	5.45
228.041	0.52
228.425	1.09
228.809	4.08
229.193	4.66
229.577	5.56
229.961	4.23
230.344	4.08
230.728	3.07
231.112	4.01
231.495	3.65
231.879	1.86
232.263	3.01
232.646	3.73
233.03	5.38
233.413	4.33
233.797	3.86
234.18	6.87
234.563	1.31
234.946	5
235.33	3.18
235.713	3.89
236.096	1.86
236.479	2.33
236.862	2.9
237.245	4.65
237.628	5.28
238.011	6.84
238.394	3.04
238.777	3.64
239.16	4.57
239.543	3.83
239.925	3
240.308	5.25
240.691	3.7
241.073	3.22
241.456	3.47
241.838	4.65
242.221	4.4
242.603	5.17
242.986	2.56
243.368	3.12
243.75	3.5
244.133	3.49
244.515	3.62
244.897	4.11
245.279	4.04
245.661	4.49
246.043	5.2
246.425	3.45
246.807	2.75
247.189	5.75
247.571	4.07
247.953	3.48
248.335	3.86
248.717	4.01
249.098	3.9
249.48	3.78
249.862	4.02
250.243	4.35
250.625	3.86
251.006	4.27
251.388	4.09
251.769	4.35
252.151	1.98
252.532	3.52
252.913	3.77
253.295	3.93
253.676	3.2
254.057	3.79
254.438	4.05
254.819	4.67
255.2	4.26
255.581	5.34
255.962	2.56
256.343	4.29
256.724	3.35
257.105	3.16
257.486	3.04
257.867	4.12
258.247	4.04
258.628	2.71
259.009	2.05
259.389	3.51
259.77	3.63
260.15	3.55
260.531	3.58
260.911	3.49
261.292	3.53
261.672	3.16
262.052	3.49
262.432	3.49
262.813	3.54
263.193	3.3
263.573	3.81
263.953	2.9
264.333	3.52
264.713	3.8
265.093	4.34
265.473	3.28
265.853	2.48
266.233	3.48
266.612	3.07
266.992	4.11
267.372	3.07
267.752	3.29
268.131	3.14
268.511	3.58
268.89	3.11
269.27	3.27
269.649	3.29
270.029	3.12
270.408	3.32
270.787	3.5
271.167	2.99
271.546	3.05
271.925	3.53
272.304	3.48
272.683	3.12
273.062	3.04
273.441	3.62
273.82	3.43
274.199	3.13
274.578	3.19
274.957	3.37
275.336	3.35
275.715	3.3
276.093	4.21
276.472	4.28
276.851	3.95
277.229	3.57
277.608	3.61
277.986	3.27
278.365	3.03
278.743	3.6
279.122	3.04
279.5	3.2
279.878	2.95
280.257	2.9
280.635	3.29
281.013	2.78
281.391	2.95
281.769	3.54
282.147	3.14
282.525	3.43
282.903	3.18
283.281	2.82
283.659	3.43
284.037	3.54
284.415	3.23
284.792	2.82
285.17	3.4
285.548	2.93
285.925	3.18
286.303	3.71
286.68	3.28
287.058	3.21
287.435	3.17
287.813	3.22
288.19	3.22
288.567	3.44
288.945	3.34
289.322	3.64
289.699	3.6
290.076	3.25
290.453	3.13
290.83	3.07
291.207	2.95
291.584	3.59
291.961	2.99
292.338	3.41
292.715	2.88
293.092	2.87
293.469	3.21
293.845	4.19
294.222	3.48
294.599	2.92
294.975	3.12
295.352	2.93
295.728	3.51
296.105	3.62
296.481	3.11
296.858	3.15
297.234	3.35
297.61	2.8
297.986	3.08
298.363	3.23
298.739	3.22
299.115	3.28
299.491	3.19
299.867	3.2
300.243	3.05
300.619	3.58
300.995	3.42
301.371	2.6
301.746	3.16
302.122	2.92
302.498	3.4
302.874	2.84
303.249	3.66
303.625	3.25
304	3.25
304.376	3.02
304.751	2.87
305.127	3.3
305.502	3
305.878	3.09
306.253	3.53
306.628	3.15
307.003	2.39
307.378	3.09
307.754	3.78
308.129	3.68
308.504	2.95
308.879	3.53
309.254	3.23
309.629	3.43
310.003	3.21
310.378	3.08
310.753	3.12
311.128	2.9
311.502	3.27
311.877	2.85
312.252	3.37
312.626	2.95
313.001	3.17
313.375	3.05
313.75	3.19
314.124	2.82
314.498	3.3
314.873	3.7
315.247	3.32
315.621	3.23
315.995	3.57
316.369	3.18
316.743	2.46
317.117	2.88
317.491	3.09
317.865	2.77
318.239	3.56
318.613	3.11
318.987	2.66
319.361	3.18
319.734	3.45
320.108	2.94
320.482	2.59
320.855	2.99
321.229	3.73
321.602	2.96
321.976	2.96
322.349	3.33
322.723	3.43
323.096	3.05
323.469	2.84
323.843	2.78
324.216	3.65
324.589	3.16
324.962	3.39
325.335	2.97
325.708	3.45
326.081	3.57
326.454	3.14
326.827	2.96
327.2	2.76
327.573	3.24
327.945	3.56
328.318	2.7
328.691	3.39
329.063	3.33
329.436	3.27
329.809	3.9
330.181	2.7
330.553	2.54
330.926	3.28
331.298	3.08
331.671	3.11
332.043	3.84
332.415	3.16
332.787	2.88
333.159	3.83
333.532	2.2
333.904	2.54
334.276	2.64
334.648	3.23
335.02	3.01
335.391	2.92
335.763	3.04
336.135	3.33
336.507	3.21
336.879	3.2
337.25	3.43
337.622	3.1
337.993	3.23
338.365	3.25
338.736	3.55
339.108	4.16
339.479	3.03
339.851	3.48
340.222	3.34
340.593	3.17
340.964	3.41
341.336	2.53
341.707	3.6
342.078	3.23
342.449	3.18
342.82	3.21
343.191	2.8
343.562	3.09
343.933	3.53
344.303	3.17
344.674	3.59
345.045	3.37
345.416	3.19
345.786	3.99
346.157	3
346.527	3.4
346.898	3.5
347.268	3.64
347.639	3.2
348.009	3.15
348.38	3.17
348.75	3.04
349.12	3.12
349.49	2.97
349.861	3.63
350.231	2.65
350.601	2.95
350.971	3.3
351.341	3.07
351.711	3.37
352.081	2.93
352.45	3.2
352.82	3.13
353.19	3.87
353.56	3.46
353.929	2.94
354.299	3.51
354.669	3.08
355.038	3.54
355.408	2.78
355.777	3.12
356.147	2.98
356.516	3.67
356.885	3.26
357.254	3.23
357.624	3.02
357.993	3.48
358.362	3.05
358.731	3.03
359.1	3.29
359.469	3.25
359.838	3.19
360.207	3.32
360.576	3.35
360.945	3.33
361.314	2.96
361.682	3.19
362.051	3.32
362.42	3.3
362.788	3.47
363.157	3.39
363.525	3.29
363.894	3.17
364.262	3.22
364.631	3.44
364.999	3.33
365.367	3.19
365.735	3.51
366.104	3.45
366.472	3.35
366.84	3.08
367.208	3.34
367.576	3.57
367.944	3.36
368.312	3.45
368.68	3.27
369.048	3
369.416	3.49
369.783	3.6
370.151	3.4
370.519	3.4
370.886	3.35
371.254	3.5
371.621	3.29
371.989	3.52
372.356	3.46
372.724	3.19
373.091	3.28
373.458	3.26
373.826	3.18
374.193	3.38
374.56	3.41
374.927	3.45
375.294	3.76
375.661	3.11
376.028	3.13
376.395	3.28
376.762	3.23
377.129	2.89
377.496	3.71
377.863	3.24
378.229	3.47
378.596	3.34
378.963	3.65
379.329	3.45
379.696	3.47
380.062	3.42
380.429	3.72
380.795	3.25
381.161	3.34
381.528	3.27
381.894	3.25
382.26	3.43
382.626	3.41
382.993	3.5
383.359	3.16
383.725	3.86
384.091	3.31
384.457	3.48
384.823	3.24
385.188	3.75
385.554	3.45
385.92	3.73
386.286	3.49
386.651	3.41
387.017	3.66
387.383	3.23
387.748	3.74
388.114	3.55
388.479	3.25
388.845	3.58
389.21	3.48
389.575	3.47
389.94	3.43
390.306	3.41
390.671	3.3
391.036	3.5
391.401	3.53
391.766	3.43
392.131	3.24
392.496	3.55
392.861	3.39
393.226	3.4
393.591	3.43
393.956	3.64
394.32	3.4
394.685	3.36
395.05	3.39
395.414	3.54
395.779	3.52
396.143	3.67
396.508	3.56
396.872	3.52
397.236	3.54
397.601	3.61
397.965	3.45
398.329	3.76
398.694	3.54
399.058	3.5
399.422	3.56
399.786	3.79
400.15	3.56
400.514	3.47
400.878	3.5
401.242	3.33
401.605	3.85
401.969	3.51
402.333	3.26
402.697	3.26
403.06	3.79
403.424	3.59
403.787	3.46
404.151	3.58
404.514	3.73
404.878	3.4
405.241	3.68
405.604	3.35
405.968	3.6
406.331	3.5
406.694	3.61
407.057	3.48
407.42	3.67
407.783	3.37
408.146	3.77
408.509	3.39
408.872	3.42
409.235	3.77
409.598	3.77
409.961	3.77
410.323	3.54
410.686	3.75
411.049	3.67
411.411	3.64
411.774	3.34
412.136	3.51
412.499	3.66
412.861	3.6
413.223	3.44
413.586	3.53
413.948	3.54
414.31	3.59
414.672	3.83
415.035	3.58
415.397	3.73
415.759	3.77
416.121	3.62
416.483	3.63
416.845	3.16
417.206	3.49
417.568	3.6
417.93	3.62
418.292	3.69
418.653	3.82
419.015	3.58
419.377	3.5
419.738	3.51
420.1	3.59
420.461	3.62
420.822	3.64
421.184	3.67
421.545	3.65
421.906	3.55
422.267	3.59
422.629	3.52
422.99	3.55
423.351	3.54
423.712	3.58
424.073	3.52
424.434	3.65
424.795	3.73
425.155	3.61
425.516	3.65
425.877	3.56
426.238	3.65
426.598	3.64
426.959	3.74
427.32	3.73
427.68	3.7
428.041	3.74
428.401	3.63
428.761	3.69
429.122	3.62
429.482	3.6
429.842	3.84
430.202	3.74
430.563	3.61
430.923	3.73
431.283	3.81
431.643	3.63
432.003	3.73
432.363	3.85
432.722	3.83
433.082	3.64
433.442	3.6
433.802	3.68
434.161	3.65
434.521	3.82
434.881	3.73
435.24	3.59
435.6	3.7
435.959	3.73
436.319	3.75
436.678	3.6
437.037	3.86
437.396	3.76
437.756	3.72
438.115	3.77
438.474	3.74
438.833	3.84
439.192	3.95
439.551	3.86
439.91	3.67
440.269	3.64
440.628	3.7
440.987	3.6
441.345	3.69
441.704	3.74
442.063	3.88
442.421	3.63
442.78	3.7
443.138	3.67
443.497	3.74
443.855	3.76
444.214	3.85
444.572	3.75
444.93	3.58
445.288	3.81
445.647	3.82
446.005	3.85
446.363	3.8
446.721	3.72
447.079	3.95
447.437	3.83
447.795	3.76
448.153	3.63
448.51	3.71
448.868	3.75
449.226	3.87
449.584	3.82
449.941	3.81
450.299	3.98
450.656	3.79
451.014	3.84
451.371	3.66
451.729	3.84
452.086	3.99
452.443	3.79
452.801	3.9
453.158	3.85
453.515	3.76
453.872	3.96
454.229	4.03
454.586	3.88
454.943	3.93
455.3	3.88
455.657	3.9
456.014	4.03
456.371	3.89
456.727	3.91
457.084	3.92
457.441	4.08
457.797	3.73
458.154	3.89
458.51	3.87
458.867	4.16
459.223	4.08
459.58	3.93
459.936	3.85
460.292	3.77
460.648	3.85
461.005	3.93
461.361	3.77
461.717	3.88
462.073	3.92
462.429	3.92
462.785	3.93
463.141	3.89
463.496	3.97
463.852	4.01
464.208	3.99
464.564	4
464.919	4.08
465.275	4.02
465.631	3.92
465.986	3.86
466.342	3.98
466.697	4.02
467.052	4.01
467.408	3.98
467.763	4.08
468.118	3.96
468.473	4
468.829	3.91
469.184	3.96
469.539	3.92
469.894	3.98
470.249	3.99
470.603	4.05
470.958	4.03
471.313	4.01
471.668	4.05
472.023	4.06
472.377	3.95
472.732	3.98
473.086	3.98
473.441	4.03
473.795	4.22
474.15	3.97
474.504	4.07
474.859	4.04
475.213	4.18
475.567	3.92
475.921	4.11
476.275	3.95
476.63	4
476.984	4.26
477.338	3.98
477.692	4.13
478.045	3.87
478.399	3.99
478.753	4.13
479.107	3.81
479.461	4.05
479.814	3.98
480.168	3.9
480.521	3.93
480.875	4.02
481.228	4.22
481.582	4.1
481.935	4.14
482.289	4.05
482.642	3.97
482.995	4.14
483.348	3.94
483.701	3.93
484.055	3.91
484.408	3.91
484.761	3.82
485.114	3.71
485.466	3.66
485.819	3.67
486.172	3.78
486.525	3.9
486.878	3.97
487.23	3.97
487.583	4.01
487.936	3.92
488.288	3.9
488.641	3.88
488.993	3.81
489.345	3.83
489.698	3.85
490.05	3.9
490.402	3.87
490.754	3.98
491.107	4.07
491.459	4.01
491.811	3.96
492.163	4.12
492.515	4.03
492.866	3.91
493.218	3.77
493.57	3.8
493.922	3.91
494.274	4.03
494.625	4.02
494.977	4.09
495.328	4.14
495.68	4.14
496.031	4.09
496.383	4.15
496.734	4.09
497.086	4.17
497.437	4.17
497.788	4.1
498.139	4.14
498.49	4
498.842	4.08
499.193	4.09
499.544	4.08
499.894	4.25
500.245	4.12
500.596	4.06
500.947	4.1
501.298	4.29
501.648	4.35
501.999	4.19
502.35	4.36
502.7	4.17
503.051	4.14
503.401	4.19
503.752	3.98
504.102	4.17
504.452	4.11
504.803	4.2
505.153	4.31
505.503	4.03
505.853	4.19
506.203	4.14
506.553	4.05
506.903	4.08
507.253	4.23
507.603	4.2
507.953	4.16
508.303	4.26
508.652	4.21
509.002	4.24
509.352	4.29
509.701	4.1
510.051	4.15
510.4	4.2
510.75	4.11
511.099	4.24
511.449	4.05
511.798	4.23
512.147	4.22
512.496	4.1
512.846	4.22
513.195	4.15
513.544	4.35
513.893	4.14
514.242	4.15
514.591	4.16
514.939	4.24
515.288	4.3
515.637	4.24
515.986	4.27
516.334	4.23
516.683	4.25
517.032	4.18
517.38	4.34
517.729	4.19
518.077	4.09
518.426	4.25
518.774	4.16
519.122	4.21
519.47	4.04
519.819	4.14
520.167	4.13
520.515	4.04
520.863	4.08
521.211	4.14
521.559	4.21
521.907	4.18
522.255	4.22
522.602	4.23
522.95	4.3
523.298	4.26
523.645	4.13
523.993	4.2
524.341	4.32
524.688	4.29
525.036	4.34
525.383	4.21
525.73	4.23
526.078	4.33
526.425	4.22
526.772	4.23
527.119	4.15
527.466	4
527.814	4.13
528.161	4.17
528.508	4.17
528.854	4.25
529.201	4.14
529.548	4.09
529.895	4
530.242	3.9
530.588	3.91
530.935	4.06
531.282	4.12
531.628	4.16
531.975	4.22
532.321	4.19
532.667	4.28
533.014	4.21
533.36	4.23
533.706	4.2
534.052	4.14
534.399	4.09
534.745	4.09
535.091	4.03
535.437	4.11
535.783	4.19
536.129	4.25
536.474	4.28
536.82	4.3
537.166	4.36
537.512	4.25
537.857	4.29
538.203	4.18
538.549	4.2
538.894	4.22
539.239	4.32
539.585	4.38
539.93	4.35
540.276	4.43
540.621	4.43
540.966	4.31
541.311	4.41
541.656	4.24
542.001	4.35
542.346	4.2
542.691	4.17
543.036	4.12
543.381	4.11
543.726	4.16
544.071	4.22
544.415	4.26
544.76	4.26
545.105	4.22
545.449	4.3
545.794	4.34
546.138	4.42
546.483	4.32
546.827	4.42
547.171	4.37
547.516	4.4
547.86	4.36
548.204	4.31
548.548	4.14
548.892	4.29
549.236	4.46
549.58	4.35
549.924	4.45
550.268	4.57
550.612	4.47
550.956	4.45
551.3	4.42
551.643	4.35
551.987	4.5
552.33	4.37
552.674	4.4
553.017	4.38
553.361	4.3
553.704	4.27
554.048	4.49
554.391	4.35
554.734	4.38
555.077	4.27
555.42	4.38
555.764	4.37
556.107	4.41
556.45	4.52
556.793	4.34
557.135	4.57
557.478	4.52
557.821	4.33
558.164	4.49
558.507	4.34
558.849	4.54
559.192	4.52
559.534	4.64
559.877	4.61
560.219	4.39
560.562	4.76
560.904	4.43
561.246	4.35
561.589	4.53
561.931	4.47
562.273	4.53
562.615	4.58
562.957	4.26
563.299	4.45
563.641	4.62
563.983	4.57
564.325	4.48
564.667	4.64
565.008	4.52
565.35	4.71
565.692	4.44
566.033	4.59
566.375	4.67
566.716	4.35
567.058	4.41
567.399	4.35
567.741	4.56
568.082	4.38
568.423	4.32
568.764	4.48
569.105	4.43
569.447	4.55
569.788	4.57
570.129	4.42
570.47	4.48
570.811	4.46
571.151	4.7
571.492	4.59
571.833	4.55
572.174	4.56
572.514	4.52
572.855	4.43
573.195	4.53
573.536	4.66
573.876	4.39
574.217	4.5
574.557	4.46
574.898	4.52
575.238	4.61
575.578	4.64
575.918	4.49
576.258	4.57
576.598	4.63
576.938	4.59
577.278	4.57
577.618	4.49
577.958	4.64
578.298	4.61
578.638	4.49
578.977	4.69
579.317	4.75
579.657	4.66
579.996	4.53
580.336	4.66
580.675	4.49
581.014	4.6
581.354	4.57
581.693	4.61
582.032	4.72
582.372	4.88
582.711	4.73
583.05	4.86
583.389	4.76
583.728	4.63
584.067	4.63
584.406	4.46
584.745	4.69
585.083	4.39
585.422	4.44
585.761	4.7
586.1	4.64
586.438	4.56
586.777	4.44
587.115	4.49
587.454	4.78
587.792	4.72
588.13	4.63
588.469	4.63
588.807	4.5
589.145	4.78
589.483	4.82
589.821	4.76
590.159	4.57
590.497	4.58
590.835	4.52
591.173	4.57
591.511	4.69
591.849	4.69
592.187	4.71
592.524	4.7
592.862	4.84
593.2	4.67
593.537	4.78
593.875	4.79
594.212	4.87
594.55	4.65
594.887	4.58
595.224	4.44
595.561	4.48
595.899	4.39
596.236	4.54
596.573	4.72
596.91	4.63
597.247	4.67
597.584	4.78
597.921	4.53
598.258	4.62
598.594	4.57
598.931	4.65
599.268	4.61
599.604	4.71
599.941	4.97
600.277	4.98
600.614	4.71
600.95	4.63
601.287	4.8
601.623	4.49
601.959	4.72
602.296	4.78
602.632	4.78
602.968	4.28
603.304	4.49
603.64	4.83
603.976	4.76
604.312	4.96
604.648	4.75
604.984	4.56
605.319	4.78
605.655	4.72
605.991	4.7
606.326	4.64
606.662	4.74
606.998	4.9
607.333	4.55
607.668	4.65
608.004	4.82
608.339	4.8
608.674	4.9
609.01	4.77
609.345	4.91
609.68	4.76
610.015	4.76
610.35	4.84
610.685	4.64
611.02	4.57
611.355	4.7
611.689	4.7
612.024	4.62
612.359	4.84
612.694	4.92
613.028	4.93
613.363	5.1
613.697	4.56
614.032	4.78
614.366	4.75
614.7	4.85
615.035	4.89
615.369	5.04
615.703	4.58
616.037	4.85
616.371	4.77
616.705	4.58
617.039	4.76
617.373	5.04
617.707	5.22
618.041	4.96
618.375	5.24
618.709	4.72
619.042	4.52
619.376	5.05
619.71	4.82
620.043	4.75
620.377	4.66
620.71	4.98
621.043	4.77
621.377	4.3
621.71	4.72
622.043	4.58
622.376	4.89
622.709	5.07
623.043	4.57
623.376	4.88
623.709	4.98
624.041	4.91
624.374	4.87
624.707	4.85
625.04	5
625.373	4.91
625.705	5.16
626.038	4.82
626.37	4.82
626.703	5.03
627.035	5.22
627.368	4.82
627.7	4.75
628.032	4.67
628.365	4.56
628.697	4.56
629.029	5.04
629.361	5.08
629.693	4.88
630.025	5.01
630.357	4.81
630.689	5.04
631.021	4.92
631.353	5.25
631.684	4.8
632.016	5.24
632.348	4.94
632.679	4.83
633.011	4.74
633.342	5.17
633.674	5.07
634.005	4.81
634.336	5.49
634.668	5.27
634.999	5.01
635.33	5.12
635.661	5.2
635.992	4.99
636.323	5.19
636.654	5.33
636.985	5.02
637.316	4.87
637.647	5.09
637.977	5.13
638.308	4.8
638.639	4.92
638.969	5.39
639.3	4.69
639.63	5.08
639.961	5.27
640.291	4.95
640.622	4.88
640.952	4.54
641.282	5.41
641.612	4.69
641.943	4.88
642.273	5.11
642.603	5.25
642.933	5.29
643.263	4.96
643.592	5.13
643.922	4.7
644.252	5.83
644.582	5.16
644.911	5.05
645.241	4.89
645.571	5.41
645.9	5.15
646.23	5.15
646.559	5.03
646.888	5.23
647.218	5.34
647.547	5.04
647.876	4.67
648.205	5.42
648.534	5.33
648.863	5.07
649.192	5.47
649.521	5.14
649.85	5.2
650.179	4.92
650.508	4.9
650.837	4.98
651.165	5.48
651.494	4.73
651.822	4.92
652.151	5.03
652.479	5.45
652.808	5.15
653.136	5.15
653.465	4.91
653.793	5.11
654.121	4.58
654.449	4.98
654.777	5.08
655.105	5.08
655.433	4.84
655.761	5.31
656.089	5.46
656.417	5.15
656.745	5.04
657.073	4.55
657.4	5.42
657.728	4.96
658.056	5.19
658.383	4.85
658.711	4.92
659.038	5.17
659.365	5.03
659.693	5.37
660.02	4.99
660.347	5.53
660.674	4.88
661.001	5.46
661.329	5.15
661.656	5.43
661.982	5.22
662.309	5.29
662.636	5.24
662.963	5.51
663.29	5.3
663.616	5.33
663.943	5.25
664.27	5.13
664.596	4.82
664.923	5.19
665.249	5.6
665.576	5.46
665.902	4.93
666.228	5.37
666.554	4.94
666.881	5.75
667.207	5.68
667.533	5.02
667.859	4.93
668.185	5.77
668.511	5.03
668.837	5.87
669.162	5.39
669.488	5.3
669.814	5.89
670.139	5.36
670.465	5.15
670.791	5.01
671.116	4.93
671.442	5.43
671.767	4.99
672.092	5.01
672.418	5.72
672.743	5.32
673.068	4.57
673.393	5.38
673.718	4.97
674.043	6.27
674.368	4.8
674.693	5.19
675.018	5.82
675.343	5.33
675.667	5.67
675.992	5.44
676.317	5.42
676.641	5.56
676.966	5.92
677.29	5.25
677.615	5.18
677.939	5.64
678.264	4.84
678.588	5.05
678.912	5.87
679.236	4.83
679.56	5.19
679.885	4.81
680.209	5.11
680.532	5.55
680.856	5.5
681.18	5.59
681.504	5.57
681.828	6.12
682.152	5.76
682.475	5.39
682.799	5.62
683.122	5.25
683.446	5.67
683.769	4.9
684.093	5.07
684.416	5.52
684.739	5.53
685.062	5.56
685.386	5.26
685.709	5.01
686.032	5.44
686.355	5.45
686.678	6.56
687.001	5.47
687.324	5.47
687.646	5.54
687.969	5.1
688.292	4.67
688.614	5.65
688.937	5.26
689.26	5.63
689.582	5.34
689.904	6.36
690.227	5.4
690.549	5.69
690.871	6.53
691.194	5.1
691.516	5.34
691.838	5.77
692.16	6
692.482	5.72
692.804	5.73
