Data from 97278_chest_Reflection__0__61.txt Node

Date: Fri Sep 23 20:11:28 CDT 2022
User: ToomeyLab
Spectrometer: FLMS14357
Trigger mode: 0
Integration Time (sec): 1.000000E-2
Scans to average: 100
Electric dark correction enabled: true
Nonlinearity correction enabled: false
Boxcar width: 0
XAxis mode: Wavelengths
Number of Pixels in Spectrum: 2048
>>>>>Begin Spectral Data<<<<<
189.047	93.09
189.435	93.09
189.823	93.09
190.211	-141.22
190.599	1007.14
190.987	-267.93
191.375	145.99
191.763	77.3
192.151	161.26
192.538	-1344.19
192.926	121.43
193.314	707.95
193.702	194.41
194.089	-0.6
194.477	176.77
194.864	-33.72
195.252	7.79
195.639	10.43
196.027	87.83
196.414	308.05
196.801	388.28
197.189	2.96
197.576	21.57
197.963	135.45
198.351	42.53
198.738	-30.17
199.125	33.13
199.512	14.94
199.899	-8.45
200.286	-8.26
200.673	28.05
201.06	38.4
201.447	43.84
201.833	17.82
202.22	-5.18
202.607	6.79
202.994	-20.99
203.38	24.15
203.767	7.45
204.154	42.11
204.54	25.34
204.927	-0.2
205.313	34.96
205.699	-11.98
206.086	-20.63
206.472	39.17
206.858	5.47
207.245	2.03
207.631	1.6
208.017	1.16
208.403	27.87
208.789	11.58
209.175	17.28
209.561	23.31
209.947	-34.47
210.333	-1.87
210.719	-25.72
211.105	9.62
211.491	0.9
211.876	0.6
212.262	-2.93
212.648	-33.58
213.034	-45.84
213.419	-70.88
213.805	30.79
214.19	10.06
214.576	-12.65
214.961	13.43
215.346	-37.5
215.732	13.44
216.117	13.55
216.502	4.56
216.888	18.63
217.273	11.84
217.658	36.86
218.043	5.15
218.428	10.79
218.813	32.36
219.198	-4.4
219.583	-6.98
219.968	10.37
220.353	6.78
220.738	-5.21
221.122	-11.6
221.507	-5.03
221.892	2.4
222.276	-16.03
222.661	-6.49
223.046	-3.31
223.43	-1.23
223.815	6.05
224.199	-10.21
224.583	-3.11
224.968	0.25
225.352	-5.12
225.736	1.38
226.121	4.24
226.505	7.61
226.889	6.7
227.273	1.71
227.657	-1.98
228.041	3.97
228.425	1.93
228.809	2.97
229.193	5.05
229.577	2.55
229.961	2.21
230.344	1.67
230.728	1.08
231.112	1.21
231.495	1.03
231.879	-0.09
232.263	2.83
232.646	3.19
233.03	1.79
233.413	2.26
233.797	2.81
234.18	6.39
234.563	-0.55
234.946	3.5
235.33	-0.24
235.713	3.3
236.096	0.74
236.479	0.12
236.862	1.62
237.245	4.06
237.628	3.13
238.011	3.4
238.394	3.26
238.777	1.58
239.16	1.74
239.543	-0.05
239.925	1.83
240.308	1.79
240.691	2.15
241.073	0.69
241.456	2.18
241.838	3.67
242.221	2.22
242.603	2.23
242.986	1.1
243.368	1.83
243.75	2.02
244.133	1.69
244.515	2.12
244.897	2.28
245.279	2.32
245.661	2.8
246.043	2.36
246.425	1.89
246.807	1.55
247.189	2.99
247.571	2.57
247.953	1.87
248.335	2.23
248.717	1.96
249.098	1.97
249.48	1.85
249.862	2.04
250.243	2.6
250.625	2
251.006	2.57
251.388	2.32
251.769	1.47
252.151	1.4
252.532	1.35
252.913	2.89
253.295	2.08
253.676	2.71
254.057	2.16
254.438	2.04
254.819	2.37
255.2	2.95
255.581	2.57
255.962	1.71
256.343	1.67
256.724	1.83
257.105	2.31
257.486	2.6
257.867	2.42
258.247	1.79
258.628	0.93
259.009	1.47
259.389	1.79
259.77	1.43
260.15	1.87
260.531	1.65
260.911	1.99
261.292	2.11
261.672	1.89
262.052	2.07
262.432	1.89
262.813	1.96
263.193	2.16
263.573	2.26
263.953	1.71
264.333	2.1
264.713	2.44
265.093	2.1
265.473	2.07
265.853	0.57
266.233	0.49
266.612	1.66
266.992	2.61
267.372	1.6
267.752	2.37
268.131	1.88
268.511	1.64
268.89	2.08
269.27	1.72
269.649	2.01
270.029	1.85
270.408	2.07
270.787	1.87
271.167	1.48
271.546	2.08
271.925	1.37
272.304	1.53
272.683	2.08
273.062	1.63
273.441	2.1
273.82	1.89
274.199	2.14
274.578	1.41
274.957	1.42
275.336	1.79
275.715	2.03
276.093	2.42
276.472	2.57
276.851	2.17
277.229	1.91
277.608	1.96
277.986	1.48
278.365	1.47
278.743	1.93
279.122	1.28
279.5	1.9
279.878	1.08
280.257	2.18
280.635	1.56
281.013	1.31
281.391	0.95
281.769	2.09
282.147	1.9
282.525	1.71
282.903	1.9
283.281	1.31
283.659	1.74
284.037	1.74
284.415	1.79
284.792	2.01
285.17	1.73
285.548	1.49
285.925	1.46
286.303	2.11
286.68	2.03
287.058	1.83
287.435	1.75
287.813	1.97
288.19	1.97
288.567	2.21
288.945	2.17
289.322	2.62
289.699	2.5
290.076	2.04
290.453	1.78
290.83	1.74
291.207	1.38
291.584	2.33
291.961	2.03
292.338	1.7
292.715	1.84
293.092	1.64
293.469	2.21
293.845	2.51
294.222	1.66
294.599	1.67
294.975	1.86
295.352	2.02
295.728	1.79
296.105	2.1
296.481	1.98
296.858	1.97
297.234	2.28
297.61	2
297.986	1.93
298.363	1.92
298.739	2.04
299.115	1.76
299.491	2.09
299.867	2.08
300.243	2.11
300.619	2.51
300.995	2.14
301.371	1.68
301.746	2.38
302.122	1.98
302.498	2.36
302.874	1.85
303.249	1.9
303.625	1.5
304	2.31
304.376	2.05
304.751	1.36
305.127	2.09
305.502	2.16
305.878	1.94
306.253	1.72
306.628	1.99
307.003	1.65
307.378	2.23
307.754	2.49
308.129	2.41
308.504	1.69
308.879	2.33
309.254	2.51
309.629	2.21
310.003	2.54
310.378	2.1
310.753	1.42
311.128	1.72
311.502	2.29
311.877	2.14
312.252	1.7
312.626	2.31
313.001	2.07
313.375	2.24
313.75	2.15
314.124	2.3
314.498	2.3
314.873	2.47
315.247	2.42
315.621	2.25
315.995	2.22
316.369	2.56
316.743	2.2
317.117	1.91
317.491	1.89
317.865	2.47
318.239	2.87
318.613	1.69
318.987	1.82
319.361	2.24
319.734	2.23
320.108	2.21
320.482	2.33
320.855	2.45
321.229	2.42
321.602	2.36
321.976	2.41
322.349	2.24
322.723	2.21
323.096	2.23
323.469	2.13
323.843	2.03
324.216	2.77
324.589	2.56
324.962	2.07
325.335	1.79
325.708	2.4
326.081	2.4
326.454	2.37
326.827	2.16
327.2	2.01
327.573	2.34
327.945	2.67
328.318	2.03
328.691	2.52
329.063	2.09
329.436	2.61
329.809	3.46
330.181	2.04
330.553	1.64
330.926	2.09
331.298	2.36
331.671	2.54
332.043	2.25
332.415	2.56
332.787	2.14
333.159	2.67
333.532	2.38
333.904	2.06
334.276	2.29
334.648	2.12
335.02	2.41
335.391	1.97
335.763	2.07
336.135	3
336.507	2.82
336.879	2.2
337.25	2.97
337.622	2.3
337.993	2.2
338.365	2.36
338.736	2.7
339.108	3.01
339.479	2.37
339.851	2.63
340.222	2.82
340.593	2.16
340.964	2.38
341.336	2.05
341.707	2.78
342.078	1.79
342.449	2.11
342.82	2.61
343.191	2.62
343.562	2.18
343.933	2.91
344.303	2.52
344.674	2.93
345.045	2.8
345.416	2.82
345.786	2.6
346.157	2.18
346.527	2.66
346.898	2.61
347.268	2.57
347.639	2.37
348.009	2.75
348.38	2.26
348.75	2.68
349.12	2.46
349.49	2.74
349.861	2.52
350.231	2.41
350.601	2.09
350.971	2.58
351.341	2.59
351.711	2.23
352.081	2.37
352.45	2.1
352.82	1.81
353.19	2.87
353.56	3.05
353.929	2.32
354.299	2.67
354.669	2.47
355.038	2.82
355.408	2.17
355.777	2.51
356.147	2.19
356.516	2.64
356.885	2.36
357.254	2.3
357.624	2.49
357.993	2.66
358.362	2.43
358.731	2.51
359.1	2.49
359.469	2.14
359.838	2.1
360.207	2.57
360.576	2.73
360.945	2.17
361.314	2.37
361.682	2.2
362.051	2.78
362.42	2.6
362.788	2.1
363.157	2.54
363.525	2.66
363.894	2.65
364.262	2.39
364.631	2.53
364.999	2.57
365.367	2.34
365.735	2.45
366.104	2.41
366.472	2.61
366.84	2.48
367.208	2.68
367.576	2.76
367.944	2.31
368.312	2.78
368.68	2.4
369.048	2.48
369.416	2.68
369.783	2.76
370.151	2.66
370.519	2.44
370.886	2.53
371.254	2.47
371.621	2.61
371.989	2.56
372.356	2.94
372.724	2.1
373.091	2.41
373.458	2.72
373.826	2.6
374.193	2.7
374.56	2.36
374.927	2.76
375.294	2.44
375.661	2.58
376.028	2.92
376.395	2.41
376.762	2.4
377.129	2.37
377.496	2.7
377.863	2.73
378.229	2.76
378.596	2.35
378.963	2.71
379.329	3.03
379.696	2.6
380.062	2.72
380.429	2.56
380.795	2.7
381.161	2.98
381.528	2.8
381.894	2.79
382.26	2.69
382.626	2.68
382.993	2.72
383.359	2.54
383.725	2.46
384.091	2.4
384.457	2.81
384.823	2.27
385.188	2.94
385.554	2.62
385.92	2.77
386.286	2.7
386.651	2.99
387.017	2.84
387.383	2.76
387.748	2.73
388.114	2.59
388.479	2.61
388.845	2.69
389.21	2.51
389.575	2.7
389.94	2.45
390.306	2.54
390.671	2.52
391.036	2.82
391.401	2.82
391.766	2.69
392.131	2.85
392.496	2.6
392.861	2.73
393.226	2.63
393.591	2.81
393.956	2.75
394.32	2.81
394.685	2.68
395.05	2.89
395.414	2.66
395.779	2.8
396.143	2.69
396.508	2.75
396.872	2.57
397.236	2.99
397.601	2.64
397.965	3.21
398.329	2.82
398.694	2.56
399.058	2.89
399.422	2.85
399.786	2.94
400.15	2.41
400.514	2.77
400.878	2.89
401.242	2.92
401.605	3.02
401.969	2.83
402.333	2.82
402.697	2.71
403.06	2.79
403.424	2.71
403.787	2.78
404.151	2.6
404.514	2.68
404.878	2.88
405.241	2.75
405.604	2.57
405.968	2.7
406.331	2.72
406.694	2.91
407.057	2.79
407.42	2.69
407.783	2.65
408.146	3
408.509	2.79
408.872	2.78
409.235	2.97
409.598	3.1
409.961	2.94
410.323	2.67
410.686	2.9
411.049	2.8
411.411	2.93
411.774	2.72
412.136	2.77
412.499	2.77
412.861	2.73
413.223	2.79
413.586	2.83
413.948	2.8
414.31	2.87
414.672	2.7
415.035	2.86
415.397	3.14
415.759	2.97
416.121	3.19
416.483	2.58
416.845	2.69
417.206	2.5
417.568	2.92
417.93	2.86
418.292	2.99
418.653	2.92
419.015	2.76
419.377	2.69
419.738	2.79
420.1	2.74
420.461	2.77
420.822	2.93
421.184	2.93
421.545	2.84
421.906	2.95
422.267	2.85
422.629	2.83
422.99	2.86
423.351	2.84
423.712	2.8
424.073	2.74
424.434	2.88
424.795	2.96
425.155	2.87
425.516	2.85
425.877	2.86
426.238	2.85
426.598	2.84
426.959	2.91
427.32	2.97
427.68	2.95
428.041	2.94
428.401	2.88
428.761	2.98
429.122	2.97
429.482	2.87
429.842	3.15
430.202	3.12
430.563	2.99
430.923	3.01
431.283	3.17
431.643	2.95
432.003	2.86
432.363	3.17
432.722	2.98
433.082	2.88
433.442	2.96
433.802	3.17
434.161	2.99
434.521	3.04
434.881	2.92
435.24	2.96
435.6	3.08
435.959	2.89
436.319	3.11
436.678	3.04
437.037	3.12
437.396	2.98
437.756	2.97
438.115	3.06
438.474	3.18
438.833	3.24
439.192	3.02
439.551	2.85
439.91	2.97
440.269	3.04
440.628	2.98
440.987	2.97
441.345	3.04
441.704	3.1
442.063	3.05
442.421	2.86
442.78	2.94
443.138	2.99
443.497	3.15
443.855	3.03
444.214	3.17
444.572	2.96
444.93	3.09
445.288	2.93
445.647	3.27
446.005	3.06
446.363	3.22
446.721	3.1
447.079	3.11
447.437	3.17
447.795	3.13
448.153	2.95
448.51	3.01
448.868	3.07
449.226	3.07
449.584	3.01
449.941	3.1
450.299	3.22
450.656	3.04
451.014	3.27
451.371	3.08
451.729	3.12
452.086	3.33
452.443	3.15
452.801	3.02
453.158	3.19
453.515	3.2
453.872	3.14
454.229	3.18
454.586	3.14
454.943	3.13
455.3	3.26
455.657	3.22
456.014	3.24
456.371	3.14
456.727	3.29
457.084	3.02
457.441	3.3
457.797	3.04
458.154	3.13
458.51	3.12
458.867	3.39
459.223	3.24
459.58	3.38
459.936	3.13
460.292	3.11
460.648	3.27
461.005	3.13
461.361	3.17
461.717	3.21
462.073	3.13
462.429	3.18
462.785	3.18
463.141	3.22
463.496	3.3
463.852	3.2
464.208	3.27
464.564	3.32
464.919	3.23
465.275	3.3
465.631	3.09
465.986	3.11
466.342	3.15
466.697	3.3
467.052	3.29
467.408	3.35
467.763	3.28
468.118	3.32
468.473	3.33
468.829	3.31
469.184	3.32
469.539	3.27
469.894	3.34
470.249	3.43
470.603	3.3
470.958	3.41
471.313	3.36
471.668	3.25
472.023	3.29
472.377	3.26
472.732	3.31
473.086	3.39
473.441	3.45
473.795	3.53
474.15	3.48
474.504	3.47
474.859	3.44
475.213	3.62
475.567	3.22
475.921	3.49
476.275	3.41
476.63	3.4
476.984	3.51
477.338	3.2
477.692	3.6
478.045	3.27
478.399	3.46
478.753	3.57
479.107	3.42
479.461	3.34
479.814	3.31
480.168	3.34
480.521	3.47
480.875	3.37
481.228	3.49
481.582	3.39
481.935	3.42
482.289	3.57
482.642	3.39
482.995	3.65
483.348	3.2
483.701	3.4
484.055	3.38
484.408	3.32
484.761	3.35
485.114	3.19
485.466	3.12
485.819	3.15
486.172	3.17
486.525	3.31
486.878	3.35
487.23	3.41
487.583	3.41
487.936	3.43
488.288	3.36
488.641	3.25
488.993	3.3
489.345	3.29
489.698	3.28
490.05	3.32
490.402	3.33
490.754	3.45
491.107	3.44
491.459	3.43
491.811	3.46
492.163	3.54
492.515	3.41
492.866	3.43
493.218	3.25
493.57	3.32
493.922	3.42
494.274	3.45
494.625	3.51
494.977	3.49
495.328	3.63
495.68	3.57
496.031	3.42
496.383	3.76
496.734	3.66
497.086	3.71
497.437	3.67
497.788	3.6
498.139	3.63
498.49	3.45
498.842	3.59
499.193	3.71
499.544	3.54
499.894	3.6
500.245	3.67
500.596	3.65
500.947	3.54
501.298	3.69
501.648	3.78
501.999	3.7
502.35	3.76
502.7	3.71
503.051	3.59
503.401	3.51
503.752	3.77
504.102	3.86
504.452	3.68
504.803	3.74
505.153	3.78
505.503	3.63
505.853	3.82
506.203	3.77
506.553	3.85
506.903	3.77
507.253	3.74
507.603	3.74
507.953	3.75
508.303	3.8
508.652	3.73
509.002	3.92
509.352	3.91
509.701	3.81
510.051	3.91
510.4	3.86
510.75	3.7
511.099	3.8
511.449	3.7
511.798	3.85
512.147	3.76
512.496	3.84
512.846	3.83
513.195	3.82
513.544	3.93
513.893	3.83
514.242	3.88
514.591	3.8
514.939	3.95
515.288	3.89
515.637	3.88
515.986	4.02
516.334	3.83
516.683	4.08
517.032	4.02
517.38	4.01
517.729	3.91
518.077	3.9
518.426	4.03
518.774	4
519.122	3.96
519.47	3.94
519.819	3.95
520.167	3.87
520.515	3.8
520.863	3.95
521.211	3.96
521.559	3.97
521.907	3.97
522.255	3.99
522.602	4.07
522.95	4.14
523.298	4.06
523.645	4.05
523.993	4.12
524.341	4.18
524.688	4.05
525.036	4.1
525.383	4.05
525.73	4.19
526.078	4.21
526.425	4.08
526.772	4.11
527.119	4.09
527.466	3.98
527.814	4.11
528.161	4.2
528.508	4.12
528.854	4.17
529.201	4.09
529.548	4.14
529.895	4
530.242	3.85
530.588	3.91
530.935	3.98
531.282	4.06
531.628	4.06
531.975	4.15
532.321	4.09
532.667	4.28
533.014	4.18
533.36	4.3
533.706	4.25
534.052	4.27
534.399	4.22
534.745	4.18
535.091	4.1
535.437	4.17
535.783	4.18
536.129	4.33
536.474	4.3
536.82	4.34
537.166	4.45
537.512	4.38
537.857	4.38
538.203	4.35
538.549	4.34
538.894	4.37
539.239	4.32
539.585	4.43
539.93	4.5
540.276	4.61
540.621	4.51
540.966	4.54
541.311	4.56
541.656	4.45
542.001	4.58
542.346	4.48
542.691	4.46
543.036	4.34
543.381	4.4
543.726	4.4
544.071	4.48
544.415	4.51
544.76	4.46
545.105	4.57
545.449	4.6
545.794	4.64
546.138	4.72
546.483	4.68
546.827	4.73
547.171	4.69
547.516	4.73
547.86	4.63
548.204	4.71
548.548	4.66
548.892	4.65
549.236	4.7
549.58	4.84
549.924	4.97
550.268	5
550.612	5.03
550.956	4.89
551.3	4.93
551.643	4.92
551.987	4.94
552.33	5.07
552.674	5.01
553.017	5.19
553.361	5.01
553.704	4.88
554.048	5.03
554.391	5.01
554.734	5.15
555.077	4.91
555.42	4.95
555.764	4.92
556.107	5.19
556.45	5.19
556.793	5.21
557.135	5.22
557.478	5.17
557.821	5.19
558.164	5.36
558.507	5.22
558.849	5.44
559.192	5.43
559.534	5.33
559.877	5.39
560.219	5.36
560.562	5.53
560.904	5.36
561.246	5.25
561.589	5.44
561.931	5.5
562.273	5.48
562.615	5.53
562.957	5.43
563.299	5.42
563.641	5.56
563.983	5.45
564.325	5.41
564.667	5.49
565.008	5.58
565.35	5.53
565.692	5.48
566.033	5.53
566.375	5.84
566.716	5.46
567.058	5.71
567.399	5.41
567.741	5.66
568.082	5.65
568.423	5.55
568.764	5.67
569.105	5.7
569.447	5.72
569.788	5.93
570.129	5.79
570.47	5.69
570.811	5.8
571.151	6.12
571.492	5.86
571.833	5.68
572.174	5.86
572.514	5.88
572.855	5.89
573.195	6.09
573.536	5.94
573.876	5.81
574.217	5.88
574.557	5.89
574.898	6.15
575.238	6.07
575.578	6.15
575.918	5.94
576.258	6.17
576.598	6.08
576.938	6.08
577.278	6.18
577.618	6.12
577.958	6.39
578.298	6.2
578.638	6.11
578.977	6.3
579.317	6.44
579.657	6.54
579.996	6.17
580.336	6.41
580.675	6.47
581.014	6.46
581.354	6.51
581.693	6.7
582.032	6.58
582.372	6.7
582.711	6.73
583.05	6.66
583.389	6.6
583.728	6.65
584.067	6.81
584.406	6.68
584.745	6.73
585.083	6.78
585.422	6.77
585.761	6.81
586.1	6.74
586.438	6.74
586.777	6.57
587.115	6.91
587.454	6.98
587.792	6.98
588.13	7.08
588.469	7.09
588.807	6.78
589.145	6.96
589.483	7.07
589.821	6.98
590.159	7.01
590.497	6.87
590.835	6.75
591.173	7.21
591.511	7.18
591.849	6.96
592.187	6.97
592.524	7.47
592.862	7.38
593.2	7.36
593.537	7.36
593.875	7.41
594.212	7.55
594.55	7.3
594.887	7.49
595.224	7.27
595.561	7.34
595.899	7.22
596.236	7.2
596.573	7.44
596.91	7.44
597.247	7.43
597.584	7.38
597.921	7.45
598.258	7.41
598.594	7.39
598.931	7.48
599.268	7.61
599.604	7.53
599.941	7.68
600.277	7.87
600.614	7.57
600.95	7.74
601.287	7.8
601.623	7.57
601.959	7.85
602.296	7.84
602.632	7.83
602.968	7.58
603.304	7.88
603.64	7.71
603.976	7.78
604.312	7.99
604.648	7.97
604.984	7.8
605.319	8.04
605.655	8.04
605.991	8
606.326	7.99
606.662	8.13
606.998	8.17
607.333	8.02
607.668	8.12
608.004	8.23
608.339	7.96
608.674	8.2
609.01	8.42
609.345	8.46
609.68	8.41
610.015	8.34
610.35	8.43
610.685	7.98
611.02	8.35
611.355	8.33
611.689	8.33
612.024	8.35
612.359	8.51
612.694	8.72
613.028	8.56
613.363	9.05
613.697	8.51
614.032	8.55
614.366	8.75
614.7	8.65
615.035	8.95
615.369	9.2
615.703	8.62
616.037	8.78
616.371	8.93
616.705	8.82
617.039	8.82
617.373	8.96
617.707	8.99
618.041	8.98
618.375	9.19
618.709	8.85
619.042	8.94
619.376	9.27
619.71	9.18
620.043	9.05
620.377	9.11
620.71	9.39
621.043	9.4
621.377	9.05
621.71	9.49
622.043	8.88
622.376	8.92
622.709	9.45
623.043	9.11
623.376	9.39
623.709	9.47
624.041	9.54
624.374	9.51
624.707	9.59
625.04	9.78
625.373	9.6
625.705	9.62
626.038	9.41
626.37	9.33
626.703	9.58
627.035	10.01
627.368	9.71
627.7	9.78
628.032	9.54
628.365	9.56
628.697	9.45
629.029	9.67
629.361	9.69
629.693	9.96
630.025	9.99
630.357	10.18
630.689	9.87
631.021	9.65
631.353	10.19
631.684	10.14
632.016	10.24
632.348	9.87
632.679	10.27
633.011	10.35
633.342	9.99
633.674	10.13
634.005	10.48
634.336	10.32
634.668	10.14
634.999	9.84
635.33	10.12
635.661	10.43
635.992	10.39
636.323	10.57
636.654	10.48
636.985	10.45
637.316	10.35
637.647	10.69
637.977	10.29
638.308	10.73
638.639	10.24
638.969	10.57
639.3	10.47
639.63	10.63
639.961	10.99
640.291	10.62
640.622	10.68
640.952	10.61
641.282	11.17
641.612	10.71
641.943	10.66
642.273	11.16
642.603	10.84
642.933	11.08
643.263	10.81
643.592	10.72
643.922	11.01
644.252	11.49
644.582	11.09
644.911	11.08
645.241	11.18
645.571	11.63
645.9	11.07
646.23	11.28
646.559	10.89
646.888	11.37
647.218	11.23
647.547	11.3
647.876	11.2
648.205	11.34
648.534	11.02
648.863	11.21
649.192	11.69
649.521	11.22
649.85	11.34
650.179	11.52
650.508	11.42
650.837	12.16
651.165	11.83
651.494	11.35
651.822	11.45
652.151	11.44
652.479	11.51
652.808	11.64
653.136	11.79
653.465	12.36
653.793	11.86
654.121	11.72
654.449	11.39
654.777	11.35
655.105	11.77
655.433	12.17
655.761	12.14
656.089	12.52
656.417	11.89
656.745	11.59
657.073	11.67
657.4	12.26
657.728	11.89
658.056	12.4
658.383	12.09
658.711	11.75
659.038	12.12
659.365	11.63
659.693	12.42
660.02	12.26
660.347	12.55
660.674	12.37
661.001	12.46
661.329	12.06
661.656	12.49
661.982	12.14
662.309	12.77
662.636	12.31
662.963	12.49
663.29	12.72
663.616	12.5
663.943	12.92
664.27	12.49
664.596	13.32
664.923	12.27
665.249	12.98
665.576	13.35
665.902	12.41
666.228	13.4
666.554	12.7
666.881	13.13
667.207	12.95
667.533	12.46
667.859	12.41
668.185	13.37
668.511	12.73
668.837	13.17
669.162	12.74
669.488	12.98
669.814	13.2
670.139	13.05
670.465	13.67
670.791	12.73
671.116	13.15
671.442	13.09
671.767	12.98
672.092	12.43
672.418	13.6
672.743	13.54
673.068	12.8
673.393	12.66
673.718	13.89
674.043	14.08
674.368	14.26
674.693	13.14
675.018	13.19
675.343	13.31
675.667	13.85
675.992	13.55
676.317	13.79
676.641	13.54
676.966	14.11
677.29	13.86
677.615	14.19
677.939	14.66
678.264	13.62
678.588	13.43
678.912	13.74
679.236	13.25
679.56	13.66
679.885	14.22
680.209	14.03
680.532	13.33
680.856	14.28
681.18	13.79
681.504	13.94
681.828	14.6
682.152	14.55
682.475	14.13
682.799	14.3
683.122	13.89
683.446	14.09
683.769	14.03
684.093	14.44
684.416	14.72
684.739	14.78
685.062	14.39
685.386	14.31
685.709	14.53
686.032	14.26
686.355	14.87
686.678	14.41
687.001	14.76
687.324	14.95
687.646	15.11
687.969	14.4
688.292	14.19
688.614	15.08
