Data from 97278_crown_Reflection__2__73.txt Node

Date: Fri Sep 23 20:14:58 CDT 2022
User: ToomeyLab
Spectrometer: FLMS14357
Trigger mode: 0
Integration Time (sec): 1.000000E-2
Scans to average: 100
Electric dark correction enabled: true
Nonlinearity correction enabled: false
Boxcar width: 0
XAxis mode: Wavelengths
Number of Pixels in Spectrum: 2048
>>>>>Begin Spectral Data<<<<<
189.047	225.88
189.435	225.88
189.823	225.88
190.211	18.52
190.599	-673.38
190.987	312.76
191.375	155.35
191.763	57.35
192.151	-404.11
192.538	42.9
192.926	257.29
193.314	9.49
193.702	155.96
194.089	172.45
194.477	149.59
194.864	-175.7
195.252	61.61
195.639	75.47
196.027	73.7
196.414	266.1
196.801	-116.03
197.189	127.08
197.576	26.74
197.963	65.4
198.351	39.29
198.738	-47.32
199.125	-17.44
199.512	17.68
199.899	-21.65
200.286	11.93
200.673	81.14
201.06	24.27
201.447	26.85
201.833	7.29
202.22	-28.24
202.607	12.23
202.994	21.72
203.38	-58.53
203.767	-41.96
204.154	28.84
204.54	65.45
204.927	31.91
205.313	43.39
205.699	-28.43
206.086	-20.41
206.472	25.45
206.858	1.15
207.245	8.51
207.631	25.62
208.017	26.83
208.403	-9.79
208.789	21.11
209.175	13.31
209.561	-1.13
209.947	-11.3
210.333	-23.98
210.719	-16.75
211.105	0.23
211.491	29.88
211.876	-0.88
212.262	-1.82
212.648	-5.17
213.034	-16.23
213.419	-43.69
213.805	2.74
214.19	13.05
214.576	-7.82
214.961	31.76
215.346	-31.86
215.732	9.69
216.117	26.55
216.502	-10.94
216.888	17.97
217.273	16.39
217.658	-9.97
218.043	22.51
218.428	3.77
218.813	11.91
219.198	-13.88
219.583	-0.27
219.968	7.51
220.353	-8.3
220.738	18.01
221.122	-5.96
221.507	18.12
221.892	12.33
222.276	-3.79
222.661	-4.6
223.046	-0.11
223.43	9.07
223.815	11.72
224.199	1.14
224.583	8.92
224.968	6.36
225.352	-4.01
225.736	5.88
226.121	14.28
226.505	4.42
226.889	10.31
227.273	6.54
227.657	0.72
228.041	7.5
228.425	6.56
228.809	5.72
229.193	6.11
229.577	10.17
229.961	10.51
230.344	8.66
230.728	7.63
231.112	8.09
231.495	8.11
231.879	4.84
232.263	9.03
232.646	8.1
233.03	7.08
233.413	8.2
233.797	7.5
234.18	9.28
234.563	8.13
234.946	8.1
235.33	7.73
235.713	8.93
236.096	6.53
236.479	7.99
236.862	6.96
237.245	9.49
237.628	9.23
238.011	8.46
238.394	8.24
238.777	9.44
239.16	8.24
239.543	9.01
239.925	5.98
240.308	8.66
240.691	9.31
241.073	8.03
241.456	7.62
241.838	8.92
242.221	6.93
242.603	8.92
242.986	6.77
243.368	7.3
243.75	7.68
244.133	7.61
244.515	7.87
244.897	8.11
245.279	8.31
245.661	8.77
246.043	8.21
246.425	7.99
246.807	6.74
247.189	7.85
247.571	7.85
247.953	7.68
248.335	8.37
248.717	8.19
249.098	7.67
249.48	7.47
249.862	7.83
250.243	8.32
250.625	7.96
251.006	7.95
251.388	7.57
251.769	7.46
252.151	6.23
252.532	8.06
252.913	7.44
253.295	8.36
253.676	8.08
254.057	7.81
254.438	7.63
254.819	8.19
255.2	7.55
255.581	8.45
255.962	6.84
256.343	8.22
256.724	6.53
257.105	8.59
257.486	6.75
257.867	6.51
258.247	8
258.628	6.79
259.009	6.81
259.389	7.69
259.77	6.65
260.15	7.46
260.531	8.09
260.911	7.56
261.292	7.75
261.672	7.3
262.052	6.98
262.432	6.84
262.813	7.42
263.193	7.32
263.573	7.75
263.953	6.39
264.333	7.39
264.713	7.9
265.093	7.36
265.473	7.39
265.853	6.63
266.233	6.77
266.612	6.91
266.992	6.63
267.372	6.96
267.752	7.53
268.131	7.22
268.511	6.93
268.89	7.11
269.27	6.85
269.649	6.69
270.029	7.18
270.408	6.98
270.787	6.69
271.167	6.48
271.546	6.82
271.925	6.83
272.304	6.83
272.683	7.01
273.062	6.78
273.441	6.97
273.82	6.79
274.199	6.94
274.578	6.62
274.957	6.9
275.336	6.63
275.715	6.73
276.093	7.79
276.472	7.04
276.851	6.71
277.229	6.69
277.608	6.52
277.986	6.47
278.365	6.88
278.743	7.36
279.122	6.33
279.5	6.58
279.878	6.52
280.257	6.94
280.635	6.28
281.013	6.67
281.391	6.52
281.769	6.87
282.147	6.75
282.525	6.87
282.903	6.51
283.281	6.59
283.659	6.24
284.037	6.65
284.415	6.4
284.792	5.94
285.17	6.69
285.548	6.16
285.925	6.9
286.303	6.76
286.68	6.58
287.058	6.48
287.435	6.44
287.813	6.66
288.19	6.16
288.567	6.56
288.945	6.26
289.322	6.25
289.699	6.65
290.076	6.49
290.453	6.13
290.83	6.38
291.207	6.01
291.584	6.44
291.961	6.47
292.338	6.27
292.715	6.09
293.092	5.52
293.469	6.19
293.845	6.25
294.222	6.39
294.599	6.06
294.975	6.04
295.352	6.04
295.728	5.94
296.105	6.3
296.481	6.31
296.858	6.01
297.234	6.51
297.61	5.69
297.986	6.24
298.363	6.37
298.739	6.13
299.115	5.68
299.491	5.93
299.867	5.82
300.243	6.18
300.619	6.3
300.995	6.17
301.371	5.87
301.746	6.48
302.122	5.71
302.498	5.95
302.874	5.66
303.249	6.24
303.625	5.43
304	5.99
304.376	5.68
304.751	5.43
305.127	5.92
305.502	5.83
305.878	6.17
306.253	5.92
306.628	5.48
307.003	5.55
307.378	6.33
307.754	5.88
308.129	5.49
308.504	5.48
308.879	5.83
309.254	5.87
309.629	6.22
310.003	6.01
310.378	5.59
310.753	5.72
311.128	5.87
311.502	5.92
311.877	5.56
312.252	5.52
312.626	5.58
313.001	5.74
313.375	5.74
313.75	5.9
314.124	5.6
314.498	5.83
314.873	6.31
315.247	5.62
315.621	6.08
315.995	6.42
316.369	5.86
316.743	5.1
317.117	4.81
317.491	5.09
317.865	5.63
318.239	5.99
318.613	5.4
318.987	5.38
319.361	5.39
319.734	5.69
320.108	5.37
320.482	5.52
320.855	5.63
321.229	5.89
321.602	5.18
321.976	5.99
322.349	5.53
322.723	5.92
323.096	5.24
323.469	4.96
323.843	5.06
324.216	6
324.589	5.67
324.962	5.25
325.335	5.27
325.708	5.62
326.081	5.34
326.454	5.56
326.827	5.36
327.2	5.23
327.573	5.83
327.945	5.55
328.318	5.49
328.691	5.44
329.063	5.54
329.436	5.69
329.809	6.24
330.181	5.1
330.553	5.19
330.926	5.89
331.298	5.75
331.671	5.86
332.043	6.19
332.415	5.78
332.787	5.4
333.159	5.28
333.532	5.45
333.904	5.11
334.276	5.33
334.648	5.65
335.02	5.75
335.391	6.04
335.763	5.14
336.135	5.35
336.507	6.04
336.879	5.41
337.25	6.35
337.622	5.13
337.993	5.43
338.365	5.92
338.736	6.07
339.108	5.99
339.479	5.53
339.851	5.81
340.222	5.93
340.593	5.03
340.964	5.84
341.336	5.58
341.707	6.02
342.078	5.57
342.449	5.59
342.82	5.76
343.191	5.38
343.562	5.66
343.933	6.12
344.303	5.55
344.674	5.71
345.045	5.74
345.416	5.66
345.786	5.71
346.157	5.33
346.527	5.26
346.898	5.71
347.268	5.83
347.639	5.47
348.009	5.14
348.38	5.27
348.75	5.54
349.12	5.64
349.49	5.44
349.861	5.95
350.231	5.3
350.601	5.52
350.971	5.62
351.341	5.32
351.711	5.73
352.081	5.53
352.45	5.46
352.82	5.23
353.19	5.86
353.56	5.69
353.929	5.59
354.299	5.48
354.669	5.96
355.038	5.88
355.408	5.3
355.777	5.49
356.147	5.43
356.516	6.09
356.885	5.62
357.254	5.67
357.624	5.8
357.993	5.8
358.362	5.6
358.731	5.57
359.1	5.93
359.469	5.38
359.838	5.62
360.207	5.68
360.576	5.84
360.945	5.62
361.314	5.44
361.682	5.77
362.051	5.79
362.42	5.95
362.788	5.8
363.157	6.02
363.525	6.16
363.894	5.87
364.262	5.61
364.631	5.67
364.999	5.62
365.367	5.74
365.735	5.67
366.104	5.88
366.472	5.98
366.84	5.66
367.208	5.96
367.576	6.21
367.944	5.68
368.312	5.9
368.68	5.79
369.048	5.79
369.416	5.92
369.783	5.6
370.151	5.7
370.519	5.81
370.886	6.02
371.254	6.03
371.621	5.79
371.989	5.61
372.356	5.96
372.724	5.88
373.091	5.98
373.458	5.77
373.826	6.01
374.193	6.22
374.56	5.76
374.927	6.12
375.294	6.08
375.661	5.96
376.028	5.63
376.395	5.93
376.762	5.76
377.129	5.76
377.496	6.24
377.863	6.18
378.229	6.32
378.596	5.92
378.963	6.08
379.329	6.46
379.696	6.03
380.062	5.96
380.429	5.71
380.795	5.62
381.161	5.81
381.528	6.22
381.894	6.1
382.26	6.03
382.626	6.06
382.993	6.11
383.359	5.94
383.725	6.23
384.091	5.97
384.457	6.34
384.823	5.74
385.188	6.31
385.554	6.33
385.92	6.24
386.286	6.09
386.651	6.07
387.017	6.56
387.383	6.04
387.748	6.22
388.114	6.15
388.479	6.22
388.845	6.07
389.21	5.83
389.575	5.97
389.94	6.05
390.306	5.74
390.671	6.02
391.036	6.2
391.401	6.26
391.766	6.12
392.131	6.34
392.496	6.08
392.861	6.34
393.226	5.99
393.591	6.04
393.956	6.31
394.32	6.13
394.685	6.16
395.05	6.3
395.414	6.41
395.779	6.31
396.143	6.41
396.508	6.34
396.872	6.15
397.236	6.54
397.601	5.95
397.965	6.38
398.329	6.59
398.694	6.26
399.058	6.26
399.422	6.6
399.786	6.48
400.15	6.29
400.514	6.19
400.878	6.59
401.242	6.32
401.605	6.5
401.969	6.56
402.333	6.1
402.697	5.94
403.06	6.33
403.424	6.34
403.787	6.51
404.151	6.56
404.514	6.41
404.878	6.41
405.241	6.38
405.604	6.38
405.968	6.28
406.331	6.49
406.694	6.63
407.057	6.41
407.42	6.46
407.783	6.31
408.146	6.39
408.509	6.26
408.872	6.37
409.235	6.57
409.598	6.6
409.961	6.49
410.323	6.31
410.686	6.55
411.049	6.46
411.411	6.61
411.774	6.37
412.136	6.37
412.499	6.47
412.861	6.24
413.223	6.53
413.586	6.58
413.948	6.39
414.31	6.42
414.672	6.48
415.035	6.19
415.397	6.58
415.759	6.5
416.121	6.68
416.483	6.49
416.845	6.29
417.206	6.64
417.568	6.51
417.93	6.8
418.292	6.69
418.653	6.73
419.015	6.64
419.377	6.42
419.738	6.65
420.1	6.5
420.461	6.59
420.822	6.54
421.184	6.59
421.545	6.52
421.906	6.54
422.267	6.51
422.629	6.52
422.99	6.53
423.351	6.4
423.712	6.45
424.073	6.4
424.434	6.56
424.795	6.56
425.155	6.58
425.516	6.64
425.877	6.65
426.238	6.41
426.598	6.45
426.959	6.44
427.32	6.61
427.68	6.45
428.041	6.63
428.401	6.58
428.761	6.51
429.122	6.43
429.482	6.62
429.842	6.74
430.202	6.7
430.563	6.67
430.923	6.68
431.283	6.86
431.643	6.69
432.003	6.54
432.363	6.69
432.722	6.81
433.082	6.54
433.442	6.68
433.802	6.67
434.161	6.79
434.521	6.69
434.881	6.59
435.24	6.69
435.6	6.52
435.959	6.54
436.319	6.53
436.678	6.82
437.037	6.79
437.396	6.7
437.756	6.77
438.115	6.75
438.474	6.64
438.833	6.86
439.192	6.81
439.551	6.67
439.91	6.8
440.269	6.76
440.628	6.69
440.987	6.7
441.345	6.73
441.704	6.73
442.063	6.92
442.421	6.66
442.78	6.66
443.138	6.66
443.497	6.78
443.855	6.57
444.214	6.91
444.572	6.65
444.93	6.66
445.288	6.79
445.647	6.93
446.005	6.86
446.363	6.76
446.721	6.73
447.079	6.81
447.437	6.79
447.795	6.8
448.153	6.53
448.51	6.62
448.868	6.77
449.226	6.72
449.584	6.73
449.941	6.73
450.299	6.85
450.656	6.79
451.014	6.88
451.371	6.69
451.729	6.72
452.086	6.77
452.443	6.7
452.801	6.72
453.158	6.88
453.515	6.89
453.872	6.81
454.229	6.9
454.586	6.76
454.943	6.97
455.3	6.84
455.657	6.76
456.014	7.06
456.371	6.75
456.727	6.86
457.084	6.83
457.441	7.03
457.797	6.78
458.154	6.82
458.51	6.91
458.867	7.07
459.223	6.97
459.58	6.86
459.936	6.74
460.292	6.82
460.648	6.94
461.005	6.98
461.361	6.85
461.717	6.89
462.073	6.83
462.429	6.67
462.785	6.78
463.141	6.7
463.496	6.79
463.852	6.89
464.208	6.94
464.564	6.93
464.919	7
465.275	6.81
465.631	6.75
465.986	6.74
466.342	7.04
466.697	6.99
467.052	7.01
467.408	6.86
467.763	7.02
468.118	6.87
468.473	6.96
468.829	6.93
469.184	6.95
469.539	6.81
469.894	6.78
470.249	6.89
470.603	6.93
470.958	6.96
471.313	6.95
471.668	6.86
472.023	6.88
472.377	6.89
472.732	6.8
473.086	6.88
473.441	6.99
473.795	7.08
474.15	7.05
474.504	6.99
474.859	6.98
475.213	7.09
475.567	6.74
475.921	6.99
476.275	6.68
476.63	6.89
476.984	7.11
477.338	6.8
477.692	6.88
478.045	6.88
478.399	7.19
478.753	7.05
479.107	6.84
479.461	7
479.814	6.91
480.168	6.93
480.521	6.86
480.875	6.92
481.228	7.02
481.582	7.12
481.935	6.93
482.289	7
482.642	6.94
482.995	7.08
483.348	6.8
483.701	6.93
484.055	6.93
484.408	6.85
484.761	6.9
485.114	6.84
485.466	6.8
485.819	6.67
486.172	6.59
486.525	6.53
486.878	6.53
487.23	6.54
487.583	6.66
487.936	6.8
488.288	6.84
488.641	6.83
488.993	6.88
489.345	6.81
489.698	6.7
490.05	6.73
490.402	6.63
490.754	6.69
491.107	6.68
491.459	6.73
491.811	6.79
492.163	6.94
492.515	6.95
492.866	6.9
493.218	6.81
493.57	6.82
493.922	6.81
494.274	6.76
494.625	6.73
494.977	6.82
495.328	6.96
495.68	6.92
496.031	6.96
496.383	7.18
496.734	7.1
497.086	7.09
497.437	7.06
497.788	7.12
498.139	7.11
498.49	7.02
498.842	6.95
499.193	7.04
499.544	6.99
499.894	6.97
500.245	7.08
500.596	7.03
500.947	6.83
501.298	7.03
501.648	7.34
501.999	7.08
502.35	7
502.7	6.99
503.051	7.05
503.401	6.92
503.752	6.87
504.102	7.17
504.452	7.02
504.803	7.03
505.153	7.08
505.503	6.88
505.853	7.14
506.203	7.07
506.553	6.99
506.903	7.08
507.253	7.03
507.603	7.02
507.953	7.11
508.303	7.2
508.652	7.03
509.002	7.16
509.352	7.16
509.701	7.16
510.051	7.04
510.4	7.09
510.75	7.14
511.099	7.13
511.449	7.05
511.798	7.15
512.147	7.04
512.496	7.06
512.846	7.05
513.195	7.07
513.544	7.14
513.893	7.04
514.242	7.09
514.591	7.05
514.939	7.09
515.288	7.04
515.637	7.09
515.986	7.01
516.334	6.99
516.683	7.15
517.032	7.12
517.38	7.38
517.729	7.07
518.077	7.15
518.426	7.15
518.774	7.15
519.122	7.2
519.47	7.2
519.819	7.08
520.167	7.15
520.515	7.09
520.863	7.13
521.211	6.97
521.559	7.11
521.907	7.11
522.255	7.03
522.602	7.06
522.95	7.01
523.298	7.15
523.645	7.05
523.993	7.09
524.341	7.21
524.688	7.15
525.036	7.22
525.383	7.1
525.73	7.26
526.078	7.23
526.425	7.25
526.772	7.14
527.119	7.13
527.466	7.1
527.814	7.07
528.161	7.13
528.508	7.11
528.854	7.11
529.201	7.05
529.548	7.18
529.895	7.1
530.242	7
530.588	6.99
530.935	6.93
531.282	6.86
531.628	6.77
531.975	6.88
532.321	6.9
532.667	6.97
533.014	7.02
533.36	7.1
533.706	7.11
534.052	7.15
534.399	7.11
534.745	7.14
535.091	7.09
535.437	7.14
535.783	7.01
536.129	6.9
536.474	7.06
536.82	6.97
537.166	7.12
537.512	7.08
537.857	7.26
538.203	7.22
538.549	7.18
538.894	7.19
539.239	7.17
539.585	7.17
539.93	7.12
540.276	7.26
540.621	7.2
540.966	7.23
541.311	7.29
541.656	7.17
542.001	7.33
542.346	7.27
542.691	7.34
543.036	7.2
543.381	7.12
543.726	7.16
544.071	7.03
544.415	7.06
544.76	7.03
545.105	7.16
545.449	7.12
545.794	7.17
546.138	7.14
546.483	7.25
546.827	7.44
547.171	7.32
547.516	7.34
547.86	7.33
548.204	7.29
548.548	7.27
548.892	7.22
549.236	7.27
549.58	7.19
549.924	7.34
550.268	7.4
550.612	7.31
550.956	7.28
551.3	7.18
551.643	7.29
551.987	7.43
552.33	7.33
552.674	7.37
553.017	7.33
553.361	7.32
553.704	7.38
554.048	7.33
554.391	7.4
554.734	7.53
555.077	7.42
555.42	7.31
555.764	7.22
556.107	7.47
556.45	7.43
556.793	7.33
557.135	7.47
557.478	7.57
557.821	7.5
558.164	7.22
558.507	7.19
558.849	7.66
559.192	7.62
559.534	7.42
559.877	7.43
560.219	7.29
560.562	7.63
560.904	7.53
561.246	7.19
561.589	7.5
561.931	7.57
562.273	7.59
562.615	7.45
562.957	7.44
563.299	7.4
563.641	7.54
563.983	7.46
564.325	7.5
564.667	7.52
565.008	7.3
565.35	7.6
565.692	7.51
566.033	7.47
566.375	7.58
566.716	7.35
567.058	7.62
567.399	7.42
567.741	7.58
568.082	7.4
568.423	7.3
568.764	7.4
569.105	7.52
569.447	7.37
569.788	7.4
570.129	7.36
570.47	7.48
570.811	7.54
571.151	7.81
571.492	7.42
571.833	7.39
572.174	7.36
572.514	7.48
572.855	7.38
573.195	7.39
573.536	7.58
573.876	7.31
574.217	7.47
574.557	7.41
574.898	7.4
575.238	7.24
575.578	7.45
575.918	7.41
576.258	7.49
576.598	7.45
576.938	7.59
577.278	7.46
577.618	7.44
577.958	7.51
578.298	7.46
578.638	7.3
578.977	7.54
579.317	7.59
579.657	7.64
579.996	7.27
580.336	7.43
580.675	7.51
581.014	7.58
581.354	7.6
581.693	7.64
582.032	7.55
582.372	7.6
582.711	7.54
583.05	7.63
583.389	7.56
583.728	7.59
584.067	7.6
584.406	7.34
584.745	7.53
585.083	7.39
585.422	7.59
585.761	7.53
586.1	7.41
586.438	7.61
586.777	7.46
587.115	7.5
587.454	7.43
587.792	7.69
588.13	7.59
588.469	7.34
588.807	7.39
589.145	7.42
589.483	7.61
589.821	7.4
590.159	7.6
590.497	7.61
590.835	7.46
591.173	7.57
591.511	7.65
591.849	7.42
592.187	7.48
592.524	7.63
592.862	7.68
593.2	7.49
593.537	7.53
593.875	7.42
594.212	7.64
594.55	7.58
594.887	7.58
595.224	7.29
595.561	7.6
595.899	7.29
596.236	7.41
596.573	7.73
596.91	7.63
597.247	7.72
597.584	7.56
597.921	7.4
598.258	7.32
598.594	7.61
598.931	7.63
599.268	7.35
599.604	7.43
599.941	7.47
600.277	7.4
600.614	7.33
600.95	7.31
601.287	7.49
601.623	7.3
601.959	7.34
602.296	7.49
602.632	7.59
602.968	7.51
603.304	7.35
603.64	7.42
603.976	7.46
604.312	7.56
604.648	7.57
604.984	7.58
605.319	7.58
605.655	7.47
605.991	7.47
606.326	7.54
606.662	7.56
606.998	7.64
607.333	7.41
607.668	7.3
608.004	7.28
608.339	7.44
608.674	7.34
609.01	7.36
609.345	7.63
609.68	7.4
610.015	7.5
610.35	7.51
610.685	7.36
611.02	7.64
611.355	7.48
611.689	7.53
612.024	7.61
612.359	7.42
612.694	7.44
613.028	7.47
613.363	7.65
613.697	7.58
614.032	7.47
614.366	7.56
614.7	7.21
615.035	7.93
615.369	7.82
615.703	7.39
616.037	7.83
616.371	7.58
616.705	7.69
617.039	7.63
617.373	7.58
617.707	7.82
618.041	7.66
618.375	7.68
618.709	7.43
619.042	7.73
619.376	7.69
619.71	7.68
620.043	7.6
620.377	7.55
620.71	7.66
621.043	7.45
621.377	7.47
621.71	7.89
622.043	7.28
622.376	7.19
622.709	7.29
623.043	7.44
623.376	7.68
623.709	7.55
624.041	7.37
624.374	7.54
624.707	7.32
625.04	7.9
625.373	7.68
625.705	7.61
626.038	7.67
626.37	7.29
626.703	7.51
627.035	7.64
627.368	7.68
627.7	7.82
628.032	7.58
628.365	7.35
628.697	7.51
629.029	7.88
629.361	7.8
629.693	7.56
630.025	7.69
630.357	7.69
630.689	7.52
631.021	7.51
631.353	7.75
631.684	7.81
632.016	8.07
632.348	7.55
632.679	7.46
633.011	7.86
633.342	7.56
633.674	7.6
634.005	7.35
634.336	7.95
634.668	7.93
634.999	7.88
635.33	7.79
635.661	7.74
635.992	7.96
636.323	7.83
636.654	7.53
636.985	7.48
637.316	7.58
637.647	7.81
637.977	7.6
638.308	7.65
638.639	7.52
638.969	7.51
639.3	7.32
639.63	7.69
639.961	7.52
640.291	7.64
640.622	7.66
640.952	7.13
641.282	7.94
641.612	7.96
641.943	7.43
642.273	7.76
642.603	8.11
642.933	7.74
643.263	7.32
643.592	7.79
643.922	7.93
644.252	8.04
644.582	7.77
644.911	7.35
645.241	7.72
645.571	8.01
645.9	7.74
646.23	7.85
646.559	6.95
646.888	7.77
647.218	8.09
647.547	7.41
647.876	7.62
648.205	7.74
648.534	8.01
648.863	7.72
649.192	8.11
649.521	7.78
649.85	7.45
650.179	7.45
650.508	7.34
650.837	8.06
651.165	7.88
651.494	7.83
651.822	7.36
652.151	7.58
652.479	7.65
652.808	7.96
653.136	7.84
653.465	7.54
653.793	7.67
654.121	7.45
654.449	7.78
654.777	7.67
655.105	7.84
655.433	7.33
655.761	7.9
656.089	7.85
656.417	7.61
656.745	8.04
657.073	6.92
657.4	8.25
657.728	7.87
658.056	8.25
658.383	7.78
658.711	7.68
659.038	7.72
659.365	7.39
659.693	8.05
660.02	8.14
660.347	7.81
660.674	7.64
661.001	8.02
661.329	7.67
661.656	8.13
661.982	7.44
662.309	8.15
662.636	8.03
662.963	7.45
663.29	8.01
663.616	7.64
663.943	8.1
664.27	7.75
664.596	7.71
664.923	8.11
665.249	8
665.576	7.82
665.902	7.27
666.228	8.29
666.554	7.53
666.881	7.38
667.207	7.89
667.533	7.99
667.859	7.92
668.185	8.3
668.511	7.54
668.837	8.41
669.162	7.87
669.488	7.69
669.814	7.54
670.139	7.83
670.465	8.37
670.791	7.83
671.116	7.61
671.442	7.99
671.767	7.56
672.092	7.43
672.418	8.22
672.743	8.24
673.068	7.19
673.393	7.49
673.718	7.4
674.043	8.81
674.368	8.51
674.693	7.61
675.018	8.09
675.343	8.42
675.667	7.88
675.992	8.26
676.317	8.06
676.641	8.11
676.966	8.66
677.29	7.92
677.615	8.28
677.939	8.05
678.264	7.6
678.588	8
678.912	7.76
679.236	7.79
679.56	7.7
679.885	7.9
680.209	8.15
680.532	7.5
680.856	8.18
681.18	8.47
681.504	8.79
681.828	8.29
682.152	8.92
682.475	7.4
682.799	8.2
683.122	7.83
683.446	8.07
683.769	7.72
684.093	8.27
684.416	8.16
684.739	8.35
685.062	7.54
685.386	7.95
685.709	7.86
686.032	8.2
686.355	7.81
686.678	8.17
687.001	7.77
687.324	8.61
687.646	8.33
687.969	8.32
688.292	7.86
688.614	8.66
688.937	8.52
689.26	8.12
689.582	7.63
689.904	8.39
690.227	7.63
690.549	7.72
690.871	9.04
691.194	7.59
691.516	7.64
691.838	8.02
692.16	7.87
