Data from 97278_chest_Reflection__3__64.txt Node

Date: Fri Sep 23 20:12:10 CDT 2022
User: ToomeyLab
Spectrometer: FLMS14357
Trigger mode: 0
Integration Time (sec): 1.000000E-2
Scans to average: 100
Electric dark correction enabled: true
Nonlinearity correction enabled: false
Boxcar width: 0
XAxis mode: Wavelengths
Number of Pixels in Spectrum: 2048
>>>>>Begin Spectral Data<<<<<
189.047	-21
189.435	-21
189.823	-21
190.211	120.24
190.599	-895.45
190.987	-185.86
191.375	178.73
191.763	101.13
192.151	198.05
192.538	-401.61
192.926	273.32
193.314	913.59
193.702	-3.35
194.089	47.93
194.477	223.63
194.864	-42.11
195.252	256.8
195.639	14.26
196.027	38.07
196.414	512.44
196.801	615.55
197.189	-204.55
197.576	347.02
197.963	-11.93
198.351	33.57
198.738	-37.96
199.125	66.82
199.512	-4.82
199.899	1.04
200.286	3.91
200.673	20.13
201.06	20.63
201.447	49.64
201.833	26.55
202.22	-0.47
202.607	32.65
202.994	43.76
203.38	-22.59
203.767	18.71
204.154	59.58
204.54	31.77
204.927	34.29
205.313	61.31
205.699	-40.3
206.086	-5.33
206.472	21.45
206.858	23.06
207.245	6.97
207.631	19.92
208.017	6.89
208.403	54.01
208.789	32.02
209.175	17.7
209.561	32.95
209.947	32.52
210.333	-3.23
210.719	20.78
211.105	15.36
211.491	31.84
211.876	14.04
212.262	16.1
212.648	-0.95
213.034	-71.63
213.419	-40.16
213.805	37.91
214.19	-13.21
214.576	5.72
214.961	6.89
215.346	-10.35
215.732	3.52
216.117	9.62
216.502	14.35
216.888	9.26
217.273	23.79
217.658	13.66
218.043	25.97
218.428	10.46
218.813	23.91
219.198	-0.98
219.583	22.06
219.968	16.79
220.353	28.68
220.738	24.98
221.122	9.47
221.507	22.9
221.892	1.87
222.276	-5.18
222.661	-3.37
223.046	14.04
223.43	-12.33
223.815	-0.06
224.199	-4.28
224.583	5.69
224.968	1.64
225.352	5.62
225.736	-2.26
226.121	11.99
226.505	4.11
226.889	10.81
227.273	5.31
227.657	1.91
228.041	3.63
228.425	7.76
228.809	5.12
229.193	6.99
229.577	5.32
229.961	6.02
230.344	4.31
230.728	4.84
231.112	4.37
231.495	4.01
231.879	3.29
232.263	5.68
232.646	5.31
233.03	5.79
233.413	6.1
233.797	2.54
234.18	6.86
234.563	4.87
234.946	4.53
235.33	3.73
235.713	6.4
236.096	2.12
236.479	3.97
236.862	4.59
237.245	5.9
237.628	4.5
238.011	5.01
238.394	4.82
238.777	3.76
239.16	5.04
239.543	4.15
239.925	4.31
240.308	5.75
240.691	4.85
241.073	3.18
241.456	4.51
241.838	6.18
242.221	4.39
242.603	4.85
242.986	3.19
243.368	4.05
243.75	4.17
244.133	4.16
244.515	3.79
244.897	4.06
245.279	4.75
245.661	4.3
246.043	4.78
246.425	4.73
246.807	3.42
247.189	4.3
247.571	4.79
247.953	4.46
248.335	4.34
248.717	4.02
249.098	4.1
249.48	4.03
249.862	4.33
250.243	4.42
250.625	4.23
251.006	4.75
251.388	4.33
251.769	4.6
252.151	3.41
252.532	3.5
252.913	4.95
253.295	4.75
253.676	3.78
254.057	4.33
254.438	3.96
254.819	4.78
255.2	4.47
255.581	6.11
255.962	4.27
256.343	5.52
256.724	3.77
257.105	4.7
257.486	3.81
257.867	4.92
258.247	5.3
258.628	3.35
259.009	3.21
259.389	4.2
259.77	3.31
260.15	4
260.531	4.09
260.911	4.04
261.292	3.81
261.672	3.68
262.052	3.86
262.432	3.67
262.813	3.71
263.193	4.29
263.573	4.14
263.953	3.99
264.333	4.17
264.713	3.99
265.093	4.82
265.473	4.22
265.853	2.81
266.233	3.69
266.612	4.06
266.992	4.87
267.372	3.72
267.752	4.28
268.131	4.43
268.511	3.91
268.89	3.75
269.27	3.85
269.649	3.86
270.029	3.85
270.408	4.2
270.787	3.45
271.167	3.26
271.546	4.07
271.925	3.53
272.304	3.7
272.683	3.94
273.062	4.05
273.441	4.01
273.82	3.99
274.199	3.55
274.578	3.55
274.957	3.6
275.336	4.42
275.715	3.84
276.093	4.34
276.472	4.65
276.851	3.88
277.229	4.07
277.608	3.98
277.986	3.58
278.365	3.42
278.743	4.53
279.122	3.82
279.5	3.61
279.878	3.41
280.257	3.48
280.635	3.78
281.013	3.51
281.391	3.93
281.769	3.6
282.147	3.67
282.525	3.58
282.903	3.26
283.281	3.96
283.659	4.03
284.037	3.73
284.415	3.25
284.792	3.69
285.17	3.78
285.548	3.45
285.925	3.77
286.303	4.18
286.68	3.83
287.058	3.57
287.435	3.84
287.813	4.11
288.19	3.36
288.567	3.78
288.945	3.74
289.322	4
289.699	3.86
290.076	3.88
290.453	3.73
290.83	4.07
291.207	3.99
291.584	3.77
291.961	3.95
292.338	4.06
292.715	3.6
293.092	3.89
293.469	4.23
293.845	3.99
294.222	4.01
294.599	3.44
294.975	4.02
295.352	4.04
295.728	3.71
296.105	3.78
296.481	3.43
296.858	4.07
297.234	3.92
297.61	3.56
297.986	4
298.363	3.94
298.739	4.22
299.115	3.78
299.491	3.66
299.867	3.71
300.243	4.13
300.619	4.13
300.995	4.55
301.371	4.12
301.746	4.54
302.122	3.72
302.498	4.16
302.874	3.66
303.249	3.83
303.625	3.83
304	4.05
304.376	3.75
304.751	3.98
305.127	4
305.502	4.66
305.878	3.99
306.253	4.22
306.628	3.62
307.003	3.73
307.378	4.36
307.754	4.38
308.129	4.08
308.504	4.12
308.879	4.71
309.254	4.05
309.629	4.66
310.003	4.26
310.378	3.92
310.753	3.99
311.128	4.31
311.502	4.3
311.877	3.96
312.252	4.1
312.626	4.08
313.001	4.07
313.375	4.18
313.75	3.93
314.124	3.93
314.498	4.12
314.873	4.64
315.247	4.28
315.621	4.43
315.995	4.44
316.369	4.57
316.743	4.18
317.117	4.03
317.491	3.86
317.865	4.59
318.239	4.78
318.613	3.92
318.987	3.73
319.361	4.13
319.734	4.64
320.108	4.38
320.482	4.63
320.855	4.42
321.229	4.39
321.602	4.43
321.976	4.64
322.349	4.51
322.723	4.61
323.096	4.8
323.469	4.44
323.843	3.65
324.216	4.91
324.589	4.07
324.962	4.6
325.335	4.27
325.708	4.24
326.081	4.06
326.454	4.82
326.827	4.79
327.2	3.97
327.573	4.67
327.945	4.96
328.318	4.23
328.691	4.48
329.063	4.59
329.436	4.37
329.809	5.1
330.181	4.54
330.553	3.93
330.926	4.42
331.298	5.02
331.671	5
332.043	5.36
332.415	4.46
332.787	4.02
333.159	4.29
333.532	4.35
333.904	4.54
334.276	4.05
334.648	4.52
335.02	4.75
335.391	4.81
335.763	4.46
336.135	4.64
336.507	4.76
336.879	4.75
337.25	4.75
337.622	4.59
337.993	4.57
338.365	4.39
338.736	4.66
339.108	4.97
339.479	4.18
339.851	5.2
340.222	4.92
340.593	4.41
340.964	4.34
341.336	4.34
341.707	4.99
342.078	4.29
342.449	4.57
342.82	4.31
343.191	4.55
343.562	4.56
343.933	5.09
344.303	4.39
344.674	4.86
345.045	4.81
345.416	4.54
345.786	5.03
346.157	4.36
346.527	4.41
346.898	4.67
347.268	4.53
347.639	4.27
348.009	4.51
348.38	4.57
348.75	4.55
349.12	4.68
349.49	5
349.861	4.62
350.231	4.6
350.601	4.92
350.971	4.45
351.341	4.62
351.711	4.75
352.081	4.56
352.45	4.29
352.82	4.56
353.19	4.88
353.56	4.77
353.929	4.36
354.299	4.94
354.669	5.03
355.038	5.09
355.408	4.14
355.777	4.63
356.147	4.3
356.516	4.63
356.885	4.21
357.254	4.73
357.624	4.57
357.993	4.66
358.362	4.49
358.731	4.87
359.1	4.52
359.469	4.38
359.838	4.46
360.207	4.93
360.576	5
360.945	4.4
361.314	4.34
361.682	4.53
362.051	4.63
362.42	4.98
362.788	4.57
363.157	4.6
363.525	4.95
363.894	4.61
364.262	4.3
364.631	4.67
364.999	4.67
365.367	4.87
365.735	5.11
366.104	4.95
366.472	4.58
366.84	4.98
367.208	4.75
367.576	4.74
367.944	4.76
368.312	4.94
368.68	5.09
369.048	4.59
369.416	4.76
369.783	4.63
370.151	4.97
370.519	4.57
370.886	4.85
371.254	5.19
371.621	5.27
371.989	4.81
372.356	5.22
372.724	4.91
373.091	4.64
373.458	4.77
373.826	4.92
374.193	4.81
374.56	4.93
374.927	4.99
375.294	5.15
375.661	4.62
376.028	4.58
376.395	4.72
376.762	4.46
377.129	4.69
377.496	5.14
377.863	4.92
378.229	4.69
378.596	4.91
378.963	5.01
379.329	5.18
379.696	4.74
380.062	4.81
380.429	4.58
380.795	4.67
381.161	4.86
381.528	5.08
381.894	4.88
382.26	4.79
382.626	4.75
382.993	5.21
383.359	5.03
383.725	5.05
384.091	5.23
384.457	4.96
384.823	4.66
385.188	5.1
385.554	5.01
385.92	5.26
386.286	5.04
386.651	4.78
387.017	5.13
387.383	4.91
387.748	5.04
388.114	5.01
388.479	4.78
388.845	4.84
389.21	4.66
389.575	5.06
389.94	4.75
390.306	5.12
390.671	5.09
391.036	4.79
391.401	5.04
391.766	5.15
392.131	5.08
392.496	4.96
392.861	5.05
393.226	5.01
393.591	5
393.956	5.02
394.32	5.24
394.685	4.88
395.05	5.08
395.414	5.07
395.779	5.04
396.143	4.9
396.508	4.99
396.872	4.97
397.236	5.06
397.601	4.98
397.965	5.05
398.329	5.16
398.694	5.19
399.058	5.13
399.422	5.28
399.786	5.27
400.15	5.06
400.514	4.83
400.878	5.13
401.242	4.96
401.605	5.27
401.969	5.29
402.333	5.04
402.697	4.84
403.06	5.14
403.424	4.99
403.787	5.21
404.151	5.22
404.514	4.98
404.878	4.87
405.241	5.14
405.604	5
405.968	5.02
406.331	4.88
406.694	5.08
407.057	5.14
407.42	5.03
407.783	5.05
408.146	4.99
408.509	4.99
408.872	5.1
409.235	5.34
409.598	5.38
409.961	5.07
410.323	5.1
410.686	5
411.049	5.14
411.411	5.09
411.774	4.96
412.136	5.03
412.499	5.05
412.861	5.02
413.223	5.19
413.586	5.07
413.948	5.09
414.31	5.12
414.672	5.26
415.035	5.36
415.397	5.28
415.759	5.38
416.121	5.35
416.483	5.26
416.845	5.07
417.206	5.18
417.568	5.29
417.93	5.25
418.292	5.38
418.653	5.13
419.015	5.17
419.377	5.15
419.738	5.11
420.1	5.18
420.461	5.2
420.822	5.13
421.184	5.21
421.545	5.14
421.906	5.29
422.267	5.1
422.629	5.11
422.99	5.01
423.351	5.16
423.712	5.09
424.073	5.1
424.434	5.2
424.795	5.29
425.155	5.14
425.516	5.23
425.877	5.11
426.238	5.15
426.598	5.18
426.959	5.19
427.32	5.27
427.68	5.24
428.041	5.23
428.401	5.4
428.761	5.31
429.122	5.28
429.482	5.54
429.842	5.5
430.202	5.6
430.563	5.24
430.923	5.35
431.283	5.54
431.643	5.42
432.003	5.18
432.363	5.53
432.722	5.55
433.082	5.22
433.442	5.33
433.802	5.35
434.161	5.43
434.521	5.46
434.881	5.26
435.24	5.39
435.6	5.38
435.959	5.44
436.319	5.36
436.678	5.32
437.037	5.57
437.396	5.68
437.756	5.55
438.115	5.52
438.474	5.41
438.833	5.55
439.192	5.54
439.551	5.53
439.91	5.49
440.269	5.53
440.628	5.37
440.987	5.33
441.345	5.39
441.704	5.52
442.063	5.42
442.421	5.36
442.78	5.45
443.138	5.49
443.497	5.59
443.855	5.45
444.214	5.63
444.572	5.6
444.93	5.46
445.288	5.62
445.647	5.73
446.005	5.66
446.363	5.55
446.721	5.43
447.079	5.5
447.437	5.57
447.795	5.55
448.153	5.41
448.51	5.38
448.868	5.49
449.226	5.58
449.584	5.41
449.941	5.65
450.299	5.62
450.656	5.49
451.014	5.59
451.371	5.61
451.729	5.51
452.086	5.68
452.443	5.68
452.801	5.68
453.158	5.55
453.515	5.63
453.872	5.64
454.229	5.86
454.586	5.73
454.943	5.85
455.3	5.75
455.657	5.78
456.014	5.7
456.371	5.63
456.727	5.71
457.084	5.8
457.441	5.89
457.797	5.71
458.154	5.87
458.51	5.74
458.867	5.94
459.223	5.73
459.58	5.86
459.936	5.88
460.292	5.68
460.648	5.87
461.005	5.72
461.361	5.68
461.717	5.59
462.073	5.7
462.429	5.59
462.785	5.74
463.141	5.9
463.496	5.83
463.852	5.87
464.208	5.74
464.564	5.89
464.919	5.93
465.275	5.88
465.631	5.72
465.986	5.84
466.342	5.88
466.697	5.64
467.052	5.9
467.408	5.98
467.763	5.94
468.118	5.86
468.473	5.93
468.829	5.96
469.184	6.01
469.539	5.95
469.894	5.93
470.249	6.08
470.603	5.97
470.958	5.99
471.313	6.02
471.668	5.94
472.023	6.1
472.377	5.99
472.732	6.09
473.086	6.01
473.441	6.13
473.795	6.13
474.15	6.05
474.504	6.1
474.859	6.07
475.213	6.13
475.567	5.91
475.921	6.16
476.275	6
476.63	6.03
476.984	6.2
477.338	6.02
477.692	6.08
478.045	6.01
478.399	6.06
478.753	6.08
479.107	6.14
479.461	6.18
479.814	6.05
480.168	5.99
480.521	5.98
480.875	6.11
481.228	6.31
481.582	5.99
481.935	6.07
482.289	6.02
482.642	6.07
482.995	6.16
483.348	5.92
483.701	6.02
484.055	6.02
484.408	6
484.761	5.84
485.114	5.75
485.466	5.71
485.819	5.66
486.172	5.76
486.525	5.87
486.878	5.87
487.23	5.94
487.583	6.01
487.936	6.03
488.288	6.04
488.641	5.88
488.993	5.92
489.345	5.88
489.698	5.83
490.05	5.94
490.402	5.93
490.754	6.04
491.107	6.06
491.459	6.08
491.811	6.12
492.163	6.29
492.515	6.19
492.866	5.98
493.218	5.99
493.57	5.97
493.922	6.07
494.274	6.19
494.625	6.22
494.977	6.2
495.328	6.4
495.68	6.42
496.031	6.29
496.383	6.41
496.734	6.48
497.086	6.47
497.437	6.49
497.788	6.49
498.139	6.43
498.49	6.34
498.842	6.37
499.193	6.43
499.544	6.33
499.894	6.5
500.245	6.46
500.596	6.45
500.947	6.47
501.298	6.52
501.648	6.76
501.999	6.65
502.35	6.6
502.7	6.59
503.051	6.56
503.401	6.51
503.752	6.45
504.102	6.61
504.452	6.5
504.803	6.6
505.153	6.65
505.503	6.55
505.853	6.69
506.203	6.58
506.553	6.72
506.903	6.64
507.253	6.75
507.603	6.64
507.953	6.58
508.303	6.72
508.652	6.52
509.002	6.75
509.352	6.83
509.701	6.71
510.051	6.79
510.4	6.78
510.75	6.69
511.099	6.71
511.449	6.79
511.798	6.79
512.147	6.73
512.496	6.72
512.846	6.78
513.195	6.67
513.544	6.9
513.893	6.79
514.242	6.84
514.591	6.74
514.939	6.81
515.288	6.79
515.637	7.04
515.986	6.97
516.334	6.77
516.683	7.04
517.032	7.03
517.38	7.02
517.729	7.02
518.077	6.92
518.426	7.04
518.774	7.04
519.122	6.88
519.47	6.92
519.819	7.01
520.167	6.89
520.515	6.92
520.863	6.97
521.211	6.91
521.559	6.98
521.907	6.97
522.255	7.17
522.602	6.98
522.95	7.15
523.298	7.19
523.645	7.16
523.993	7.2
524.341	7.27
524.688	7.19
525.036	7.33
525.383	7.13
525.73	7.32
526.078	7.24
526.425	7.27
526.772	7.16
527.119	7.07
527.466	7.03
527.814	7.07
528.161	7.13
528.508	7.2
528.854	7.26
529.201	7.14
529.548	7.18
529.895	7.03
530.242	6.92
530.588	6.89
530.935	7
531.282	7.05
531.628	7.09
531.975	7.17
532.321	7.26
532.667	7.4
533.014	7.32
533.36	7.43
533.706	7.39
534.052	7.43
534.399	7.34
534.745	7.28
535.091	7.26
535.437	7.35
535.783	7.46
536.129	7.49
536.474	7.46
536.82	7.54
537.166	7.54
537.512	7.57
537.857	7.64
538.203	7.54
538.549	7.51
538.894	7.66
539.239	7.6
539.585	7.65
539.93	7.68
540.276	7.82
540.621	7.82
540.966	7.84
541.311	8.01
541.656	7.82
542.001	7.91
542.346	7.8
542.691	7.64
543.036	7.6
543.381	7.67
543.726	7.68
544.071	7.73
544.415	7.84
544.76	7.83
545.105	7.86
545.449	7.96
545.794	8.01
546.138	8.09
546.483	8
546.827	8.21
547.171	8.19
547.516	8.23
547.86	8.15
548.204	8.32
548.548	8.07
548.892	8.12
549.236	8.22
549.58	8.29
549.924	8.49
550.268	8.6
550.612	8.45
550.956	8.58
551.3	8.5
551.643	8.3
551.987	8.49
552.33	8.56
552.674	8.58
553.017	8.61
553.361	8.54
553.704	8.63
554.048	8.61
554.391	8.64
554.734	8.69
555.077	8.58
555.42	8.58
555.764	8.63
556.107	8.74
556.45	8.87
556.793	8.91
557.135	8.91
557.478	8.84
557.821	8.97
558.164	8.88
558.507	8.84
558.849	9.27
559.192	9.03
559.534	9.14
559.877	9.14
560.219	9.22
560.562	9.2
560.904	9.16
561.246	9.01
561.589	9.15
561.931	9.25
562.273	9.26
562.615	9.24
562.957	9
563.299	9.32
563.641	9.26
563.983	9.16
564.325	9.61
564.667	9.42
565.008	9.45
565.35	9.53
565.692	9.36
566.033	9.35
566.375	9.5
566.716	9.5
567.058	9.64
567.399	9.3
567.741	9.65
568.082	9.5
568.423	9.44
568.764	9.65
569.105	9.67
569.447	9.63
569.788	9.63
570.129	9.72
570.47	9.86
570.811	9.96
571.151	10.06
571.492	9.79
571.833	9.98
572.174	9.87
572.514	10
572.855	9.84
573.195	9.91
573.536	10.11
573.876	9.92
574.217	10.13
574.557	10
574.898	10.18
575.238	10.21
575.578	10.06
575.918	10.15
576.258	10.18
576.598	10.14
576.938	10.43
577.278	10.37
577.618	10.35
577.958	10.51
578.298	10.47
578.638	10.28
578.977	10.55
579.317	10.54
579.657	10.75
579.996	10.7
580.336	10.94
580.675	10.67
581.014	10.75
581.354	10.94
581.693	10.58
582.032	11.05
582.372	11.16
582.711	10.95
583.05	11.06
583.389	10.92
583.728	11.22
584.067	10.92
584.406	10.85
584.745	11.3
585.083	11.26
585.422	11.06
585.761	11.09
586.1	11.16
586.438	11.26
586.777	10.94
587.115	11.39
587.454	11.59
587.792	11.27
588.13	11.39
588.469	11.37
588.807	11.63
589.145	11.53
589.483	11.48
589.821	11.63
590.159	11.42
590.497	11.58
590.835	11.66
591.173	11.66
591.511	11.77
591.849	11.71
592.187	11.6
592.524	11.78
592.862	12.02
593.2	11.9
593.537	11.83
593.875	11.88
594.212	12.09
594.55	12.21
594.887	12.02
595.224	11.94
595.561	12.14
595.899	12
596.236	11.95
596.573	12.31
596.91	12.32
597.247	12.7
597.584	12.58
597.921	12.12
598.258	12.23
598.594	12.28
598.931	12.57
599.268	12.28
599.604	12.37
599.941	12.62
600.277	12.44
600.614	12.61
600.95	12.34
601.287	13
601.623	12.83
601.959	12.71
602.296	12.74
602.632	12.69
602.968	12.82
603.304	12.83
603.64	12.9
603.976	13.16
604.312	12.98
604.648	13.21
604.984	13.15
605.319	13.39
605.655	12.94
605.991	13.06
606.326	13.26
606.662	13.16
606.998	13.26
607.333	13.17
607.668	12.95
608.004	13.29
608.339	13.16
608.674	13.42
609.01	13.45
609.345	13.61
609.68	13.41
610.015	13.9
610.35	13.51
610.685	13.57
611.02	13.85
611.355	13.72
611.689	13.55
612.024	13.53
612.359	13.72
612.694	13.94
613.028	13.98
613.363	14.08
613.697	14.04
614.032	14.12
614.366	14.21
614.7	14.04
615.035	14.38
615.369	14.07
615.703	14.17
616.037	14.08
616.371	14.04
616.705	14.52
617.039	14.56
617.373	14.54
617.707	14.87
618.041	14.7
618.375	14.89
618.709	14.57
619.042	14.91
619.376	14.71
619.71	14.51
620.043	14.71
620.377	14.43
620.71	14.77
621.043	14.74
621.377	14.96
621.71	15.12
622.043	14.66
622.376	14.66
622.709	15.25
623.043	14.85
623.376	15.33
623.709	14.87
624.041	15.15
624.374	15.32
624.707	14.91
625.04	15.68
625.373	15.49
625.705	15.51
626.038	15.35
626.37	15.54
626.703	15.28
627.035	15.61
627.368	15.42
627.7	15.69
628.032	15.33
628.365	15.4
628.697	15.51
629.029	15.45
629.361	15.87
629.693	15.73
630.025	16
630.357	16
630.689	15.95
631.021	15.77
631.353	16.13
631.684	16.01
632.016	16.06
632.348	16.27
632.679	16.12
633.011	16.57
633.342	16.16
633.674	16.13
634.005	16.04
634.336	16.58
634.668	16.3
634.999	16.57
635.33	16.54
635.661	16.58
635.992	16.7
636.323	16.87
636.654	16.87
636.985	16.62
637.316	16.66
637.647	17.13
637.977	16.68
638.308	16.78
638.639	16.78
638.969	17.1
639.3	16.85
639.63	16.83
639.961	17.22
640.291	17.04
640.622	17.23
640.952	17.08
641.282	17.16
641.612	17.42
641.943	17.59
642.273	17.58
642.603	17.93
642.933	17.6
643.263	17.11
643.592	17.82
643.922	17.89
644.252	17.83
644.582	17.92
644.911	17.95
645.241	17.63
645.571	18.43
645.9	17.88
646.23	17.71
646.559	18.07
646.888	17.74
647.218	17.73
647.547	18.24
647.876	18.01
648.205	18.18
648.534	17.64
648.863	18.59
649.192	18.41
649.521	17.72
649.85	18.26
650.179	17.62
650.508	18.11
650.837	18.68
651.165	18.87
651.494	18.29
651.822	18.25
652.151	18.22
652.479	18.52
652.808	18.82
653.136	18.52
653.465	18.23
653.793	18.18
654.121	18.66
654.449	18.44
654.777	18.9
655.105	19
655.433	18.95
655.761	18.91
656.089	18.88
656.417	19.03
656.745	19.15
657.073	18.88
657.4	19.04
657.728	19.26
658.056	20.02
658.383	19.14
658.711	19.42
659.038	19.67
659.365	18.91
659.693	19.46
660.02	19.61
660.347	19.49
660.674	19
661.001	19.65
661.329	19.43
661.656	19.75
661.982	19.56
662.309	19.55
662.636	19.7
662.963	19.87
663.29	19.76
663.616	19.65
663.943	19.66
664.27	19.49
664.596	19.85
664.923	20.39
665.249	20.06
665.576	20.39
665.902	19.7
666.228	20.72
666.554	20.15
666.881	20.64
667.207	20.7
667.533	20.42
667.859	20.47
668.185	20.02
668.511	19.7
668.837	20.96
669.162	20.28
669.488	20.51
669.814	20.8
670.139	20.4
670.465	20.44
670.791	20.46
671.116	20.5
671.442	20.95
671.767	21.09
672.092	21.29
672.418	21.44
672.743	20.89
673.068	20.42
673.393	20.69
673.718	21.34
674.043	21.64
674.368	21.93
674.693	21.18
675.018	22.05
675.343	21.79
675.667	21.79
675.992	21.15
676.317	21.48
676.641	21.56
676.966	22.21
677.29	21.4
677.615	22
677.939	21.87
678.264	21.02
678.588	21.38
678.912	21.21
679.236	20.99
679.56	21.67
679.885	22.16
680.209	21.93
680.532	22.14
680.856	21.88
681.18	21.89
681.504	22.05
681.828	22.05
682.152	22.52
682.475	21.76
682.799	22.27
683.122	21.89
683.446	22.08
683.769	22.18
684.093	22.35
684.416	22.64
684.739	22.9
685.062	22.67
685.386	22.92
