Data from 97278_chest_Reflection__1__62.txt Node

Date: Fri Sep 23 20:11:47 CDT 2022
User: ToomeyLab
Spectrometer: FLMS14357
Trigger mode: 0
Integration Time (sec): 1.000000E-2
Scans to average: 100
Electric dark correction enabled: true
Nonlinearity correction enabled: false
Boxcar width: 0
XAxis mode: Wavelengths
Number of Pixels in Spectrum: 2048
>>>>>Begin Spectral Data<<<<<
189.047	-69.31
189.435	-69.31
189.823	-69.31
190.211	-96.84
190.599	-51.62
190.987	-217.76
191.375	46.38
191.763	74.55
192.151	-152.49
192.538	-144.68
192.926	128.21
193.314	555.77
193.702	200.26
194.089	56.61
194.477	182.61
194.864	-99.68
195.252	421.6
195.639	45.24
196.027	57.18
196.414	405.98
196.801	260.41
197.189	-724.01
197.576	153.43
197.963	-156.39
198.351	5.34
198.738	-77.75
199.125	-11.23
199.512	13.88
199.899	16.59
200.286	-22.41
200.673	9.64
201.06	21.39
201.447	23.83
201.833	23.5
202.22	30.65
202.607	-15.67
202.994	-11.89
203.38	8.72
203.767	-20.29
204.154	-2.99
204.54	37.98
204.927	39.25
205.313	3.83
205.699	-29.07
206.086	-33.31
206.472	14.78
206.858	40.58
207.245	17.1
207.631	9.34
208.017	6
208.403	-29.7
208.789	4.6
209.175	-6.03
209.561	26.46
209.947	19.67
210.333	-2.53
210.719	-6.97
211.105	34.91
211.491	10.04
211.876	11.03
212.262	-10.5
212.648	-3.13
213.034	17.95
213.419	-22.51
213.805	22.77
214.19	-30.44
214.576	-10.08
214.961	10.1
215.346	-46.31
215.732	-3.12
216.117	-14.44
216.502	-4.09
216.888	26.22
217.273	-36.21
217.658	-37.42
218.043	12.09
218.428	-5.22
218.813	-5.57
219.198	-19.88
219.583	13.58
219.968	0.22
220.353	1.31
220.738	8.36
221.122	-2.57
221.507	17.98
221.892	0.54
222.276	-30.93
222.661	2.53
223.046	9.72
223.43	-3.77
223.815	0.7
224.199	-1.88
224.583	18.73
224.968	-1.38
225.352	-4.78
225.736	-7.63
226.121	12.28
226.505	1.46
226.889	4.16
227.273	6.48
227.657	3.42
228.041	2.37
228.425	5.85
228.809	0.97
229.193	2.75
229.577	2.71
229.961	4.01
230.344	3.37
230.728	3.3
231.112	2.8
231.495	2.92
231.879	0.14
232.263	2.15
232.646	2.47
233.03	3.59
233.413	3.94
233.797	3.91
234.18	6.82
234.563	1.31
234.946	4.64
235.33	1.73
235.713	4.31
236.096	0.11
236.479	2.99
236.862	2.8
237.245	2.75
237.628	4.42
238.011	4.58
238.394	3.59
238.777	2.07
239.16	2.18
239.543	3.83
239.925	3.27
240.308	2.95
240.691	4.36
241.073	2.5
241.456	2.33
241.838	3.94
242.221	3.13
242.603	3.83
242.986	1.8
243.368	3.13
243.75	3
244.133	3.55
244.515	3.07
244.897	3.54
245.279	3.51
245.661	3.31
246.043	5.05
246.425	3.18
246.807	3.17
247.189	3.87
247.571	3.02
247.953	3.08
248.335	3.34
248.717	3.29
249.098	3.07
249.48	3.23
249.862	3.19
250.243	3.42
250.625	3.22
251.006	3.5
251.388	2.58
251.769	3.72
252.151	1.34
252.532	2.52
252.913	3.88
253.295	3.56
253.676	3.36
254.057	3.22
254.438	2.83
254.819	3.47
255.2	3.57
255.581	3.27
255.962	2.61
256.343	3.77
256.724	2.84
257.105	4.38
257.486	4.29
257.867	2.88
258.247	3.79
258.628	2.47
259.009	2.97
259.389	2.71
259.77	1.36
260.15	2.71
260.531	3.32
260.911	3.06
261.292	2.93
261.672	2.99
262.052	2.97
262.432	3.01
262.813	3.5
263.193	2.65
263.573	3.27
263.953	2.79
264.333	2.65
264.713	3.54
265.093	3.15
265.473	3.88
265.853	2.27
266.233	2.33
266.612	2.87
266.992	3.32
267.372	3.07
267.752	3.12
268.131	3.68
268.511	2.45
268.89	2.99
269.27	3.22
269.649	2.83
270.029	3
270.408	2.83
270.787	2.5
271.167	3.15
271.546	2.85
271.925	2.64
272.304	2.27
272.683	2.89
273.062	3.02
273.441	3.06
273.82	2.85
274.199	2.95
274.578	2.93
274.957	2.91
275.336	3.13
275.715	2.95
276.093	3.3
276.472	3.71
276.851	2.95
277.229	3.65
277.608	2.73
277.986	3.1
278.365	3.11
278.743	3.53
279.122	2.51
279.5	2.76
279.878	2.3
280.257	3
280.635	3.03
281.013	2.73
281.391	2.61
281.769	2.86
282.147	2.75
282.525	2.83
282.903	2.41
283.281	3.11
283.659	2.85
284.037	2.74
284.415	2.57
284.792	2.95
285.17	2.65
285.548	2.87
285.925	2.67
286.303	3.44
286.68	2.7
287.058	2.76
287.435	2.81
287.813	2.81
288.19	2.9
288.567	3.06
288.945	3
289.322	2.83
289.699	3.25
290.076	2.9
290.453	3.1
290.83	3.06
291.207	3.01
291.584	3.37
291.961	2.93
292.338	2.95
292.715	2.83
293.092	2.77
293.469	3.09
293.845	3.38
294.222	2.9
294.599	3.09
294.975	2.82
295.352	3.3
295.728	3.04
296.105	2.52
296.481	2.72
296.858	3.21
297.234	3.24
297.61	2.57
297.986	2.59
298.363	3.25
298.739	2.93
299.115	2.93
299.491	3.03
299.867	2.66
300.243	2.87
300.619	2.98
300.995	3.62
301.371	2.56
301.746	3.69
302.122	2.91
302.498	3.21
302.874	2.93
303.249	2.97
303.625	2.65
304	2.94
304.376	2.81
304.751	3.03
305.127	3.27
305.502	3.14
305.878	2.9
306.253	3.33
306.628	3
307.003	2.82
307.378	3.21
307.754	3.15
308.129	2.75
308.504	3
308.879	3.43
309.254	2.67
309.629	3.23
310.003	3.39
310.378	3.04
310.753	3.17
311.128	2.61
311.502	2.84
311.877	3.23
312.252	3.15
312.626	3.51
313.001	3.5
313.375	3.14
313.75	2.91
314.124	3.07
314.498	3.26
314.873	3.22
315.247	3.3
315.621	2.63
315.995	3.48
316.369	3.16
316.743	3.26
317.117	2.59
317.491	2.74
317.865	3.32
318.239	3.53
318.613	3
318.987	3.19
319.361	2.77
319.734	3.3
320.108	3
320.482	3.54
320.855	2.74
321.229	3.29
321.602	3.18
321.976	3.29
322.349	2.78
322.723	3.34
323.096	3.48
323.469	2.93
323.843	2.86
324.216	3.85
324.589	3.48
324.962	3.44
325.335	2.79
325.708	3.17
326.081	3.3
326.454	3.71
326.827	2.8
327.2	2.71
327.573	3.59
327.945	3.22
328.318	2.52
328.691	3.13
329.063	3.12
329.436	3.07
329.809	3.71
330.181	3.05
330.553	2.72
330.926	3.47
331.298	3.37
331.671	3.4
332.043	2.95
332.415	3.21
332.787	2.49
333.159	3.39
333.532	3.19
333.904	2.79
334.276	2.75
334.648	2.78
335.02	3.36
335.391	3.37
335.763	3.66
336.135	3.58
336.507	3.3
336.879	3.59
337.25	3.44
337.622	3.16
337.993	3.27
338.365	3.11
338.736	3.77
339.108	4.01
339.479	2.93
339.851	3.35
340.222	3.52
340.593	2.95
340.964	3.61
341.336	3.15
341.707	3.81
342.078	3.18
342.449	3.22
342.82	3.11
343.191	3.29
343.562	3.1
343.933	3.72
344.303	3.13
344.674	3.49
345.045	3.7
345.416	3.2
345.786	3.53
346.157	2.86
346.527	3.24
346.898	3.26
347.268	3.38
347.639	3.18
348.009	3.28
348.38	3.12
348.75	3.35
349.12	3.68
349.49	2.96
349.861	3.7
350.231	3.16
350.601	2.73
350.971	3.39
351.341	3.08
351.711	3.12
352.081	3.31
352.45	2.88
352.82	3.01
353.19	3.53
353.56	3.27
353.929	3.06
354.299	3.44
354.669	3.34
355.038	3.97
355.408	2.71
355.777	3.15
356.147	3.05
356.516	3.37
356.885	3.13
357.254	3.39
357.624	2.98
357.993	3.39
358.362	3.13
358.731	3.4
359.1	3.36
359.469	2.96
359.838	3.11
360.207	3.61
360.576	3.47
360.945	3.26
361.314	3.24
361.682	3.01
362.051	3.25
362.42	3.24
362.788	3.34
363.157	3.43
363.525	3.61
363.894	3.36
364.262	3.03
364.631	3.34
364.999	3.6
365.367	3.27
365.735	3.39
366.104	3.63
366.472	3.15
366.84	3.3
367.208	3.01
367.576	3.49
367.944	3.17
368.312	3.65
368.68	3.24
369.048	3.38
369.416	3.11
369.783	3.09
370.151	3.58
370.519	3.24
370.886	3.36
371.254	3.56
371.621	3.49
371.989	3.48
372.356	3.64
372.724	3.12
373.091	3.25
373.458	3.52
373.826	3.35
374.193	3.61
374.56	3.57
374.927	3.2
375.294	3.64
375.661	3.4
376.028	3.75
376.395	3.74
376.762	3.47
377.129	3.62
377.496	3.71
377.863	3.54
378.229	3.41
378.596	3.34
378.963	3.55
379.329	3.49
379.696	3.45
380.062	3.25
380.429	3.25
380.795	2.94
381.161	3.35
381.528	3.72
381.894	3.63
382.26	3.33
382.626	3.22
382.993	3.36
383.359	3.7
383.725	3.73
384.091	3.61
384.457	3.56
384.823	3.44
385.188	3.71
385.554	3.74
385.92	3.76
386.286	3.57
386.651	3.44
387.017	3.72
387.383	3.68
387.748	3.42
388.114	3.63
388.479	3.63
388.845	3.58
389.21	3.41
389.575	3.37
389.94	3.34
390.306	3.14
390.671	3.38
391.036	3.33
391.401	3.65
391.766	3.57
392.131	3.5
392.496	3.83
392.861	3.58
393.226	3.66
393.591	3.43
393.956	3.75
394.32	3.54
394.685	3.56
395.05	3.68
395.414	3.6
395.779	3.57
396.143	3.3
396.508	3.72
396.872	3.62
397.236	3.81
397.601	3.39
397.965	3.9
398.329	3.78
398.694	3.59
399.058	3.6
399.422	3.78
399.786	3.94
400.15	3.5
400.514	3.48
400.878	3.4
401.242	3.48
401.605	3.82
401.969	3.64
402.333	3.25
402.697	3.48
403.06	3.52
403.424	3.48
403.787	3.74
404.151	3.67
404.514	3.46
404.878	3.35
405.241	3.66
405.604	3.55
405.968	3.5
406.331	3.61
406.694	3.76
407.057	3.6
407.42	3.75
407.783	3.78
408.146	3.63
408.509	3.83
408.872	3.59
409.235	3.84
409.598	3.83
409.961	3.49
410.323	3.39
410.686	3.7
411.049	3.64
411.411	3.74
411.774	3.62
412.136	3.71
412.499	3.67
412.861	3.65
413.223	3.55
413.586	3.68
413.948	3.66
414.31	3.51
414.672	3.9
415.035	3.5
415.397	3.92
415.759	3.84
416.121	3.69
416.483	3.59
416.845	3.53
417.206	3.47
417.568	3.81
417.93	3.55
418.292	3.72
418.653	3.8
419.015	3.67
419.377	3.49
419.738	3.56
420.1	3.49
420.461	3.52
420.822	3.65
421.184	3.7
421.545	3.7
421.906	3.64
422.267	3.57
422.629	3.63
422.99	3.56
423.351	3.53
423.712	3.56
424.073	3.58
424.434	3.6
424.795	3.66
425.155	3.66
425.516	3.63
425.877	3.64
426.238	3.75
426.598	3.72
426.959	3.67
427.32	3.84
427.68	3.77
428.041	3.83
428.401	3.75
428.761	3.92
429.122	3.87
429.482	3.83
429.842	4.06
430.202	3.99
430.563	3.83
430.923	4.06
431.283	3.88
431.643	3.78
432.003	3.62
432.363	4.05
432.722	3.83
433.082	3.65
433.442	3.8
433.802	3.8
434.161	3.76
434.521	3.83
434.881	3.61
435.24	3.78
435.6	3.83
435.959	3.85
436.319	3.82
436.678	3.82
437.037	3.93
437.396	4.01
437.756	3.96
438.115	3.7
438.474	3.83
438.833	3.96
439.192	3.89
439.551	3.83
439.91	3.92
440.269	4
440.628	3.81
440.987	3.81
441.345	3.84
441.704	3.88
442.063	4.02
442.421	3.81
442.78	3.8
443.138	3.75
443.497	3.94
443.855	3.86
444.214	4.05
444.572	4.05
444.93	3.9
445.288	3.98
445.647	3.94
446.005	3.95
446.363	3.93
446.721	3.79
447.079	3.88
447.437	3.84
447.795	3.88
448.153	3.79
448.51	3.87
448.868	3.83
449.226	4.01
449.584	3.86
449.941	3.95
450.299	3.91
450.656	3.94
451.014	4.09
451.371	3.95
451.729	3.76
452.086	4.08
452.443	3.86
452.801	4.03
453.158	4.2
453.515	4.01
453.872	3.94
454.229	4.04
454.586	3.95
454.943	4.15
455.3	4.05
455.657	3.94
456.014	4.22
456.371	3.98
456.727	4.14
457.084	4.1
457.441	4.19
457.797	3.92
458.154	4.13
458.51	4.04
458.867	4.15
459.223	4.11
459.58	4.06
459.936	4.13
460.292	4.01
460.648	4.12
461.005	3.95
461.361	3.89
461.717	4.06
462.073	3.97
462.429	4.04
462.785	4.08
463.141	4.05
463.496	4.16
463.852	4.15
464.208	4
464.564	4.23
464.919	4.15
465.275	4.28
465.631	4.05
465.986	3.91
466.342	4.12
466.697	4.24
467.052	4.15
467.408	4.21
467.763	4.18
468.118	4.22
468.473	4.26
468.829	4.15
469.184	4.17
469.539	4.09
469.894	4.1
470.249	4.12
470.603	4.25
470.958	4.24
471.313	4.32
471.668	4.22
472.023	4.38
472.377	4.41
472.732	4.25
473.086	4.33
473.441	4.2
473.795	4.37
474.15	4.23
474.504	4.29
474.859	4.19
475.213	4.36
475.567	4.27
475.921	4.37
476.275	4.09
476.63	4.2
476.984	4.41
477.338	4.19
477.692	4.3
478.045	4.12
478.399	4.28
478.753	4.35
479.107	4.19
479.461	4.32
479.814	4.24
480.168	4.3
480.521	4.27
480.875	4.27
481.228	4.34
481.582	4.36
481.935	4.36
482.289	4.26
482.642	4.12
482.995	4.32
483.348	4.08
483.701	4.28
484.055	4.24
484.408	4.1
484.761	4.16
485.114	3.99
485.466	3.9
485.819	3.93
486.172	4.02
486.525	4.14
486.878	4.11
487.23	4.2
487.583	4.23
487.936	4.24
488.288	4.24
488.641	4.12
488.993	4.11
489.345	4.12
489.698	4.07
490.05	4.17
490.402	4.17
490.754	4.26
491.107	4.27
491.459	4.21
491.811	4.31
492.163	4.42
492.515	4.28
492.866	4.2
493.218	4.05
493.57	4.13
493.922	4.22
494.274	4.3
494.625	4.38
494.977	4.38
495.328	4.42
495.68	4.54
496.031	4.4
496.383	4.54
496.734	4.4
497.086	4.51
497.437	4.63
497.788	4.62
498.139	4.6
498.49	4.38
498.842	4.43
499.193	4.46
499.544	4.58
499.894	4.4
500.245	4.56
500.596	4.5
500.947	4.43
501.298	4.51
501.648	4.78
501.999	4.64
502.35	4.8
502.7	4.71
503.051	4.49
503.401	4.55
503.752	4.55
504.102	4.61
504.452	4.61
504.803	4.65
505.153	4.7
505.503	4.54
505.853	4.75
506.203	4.66
506.553	4.65
506.903	4.59
507.253	4.66
507.603	4.73
507.953	4.67
508.303	4.68
508.652	4.61
509.002	4.7
509.352	4.78
509.701	4.62
510.051	4.6
510.4	4.74
510.75	4.61
511.099	4.65
511.449	4.64
511.798	4.75
512.147	4.66
512.496	4.73
512.846	4.68
513.195	4.68
513.544	4.84
513.893	4.6
514.242	4.72
514.591	4.72
514.939	4.76
515.288	4.73
515.637	4.85
515.986	4.84
516.334	4.84
516.683	4.85
517.032	4.77
517.38	4.97
517.729	4.85
518.077	4.71
518.426	4.83
518.774	4.86
519.122	4.71
519.47	4.78
519.819	4.81
520.167	4.69
520.515	4.74
520.863	4.8
521.211	4.78
521.559	4.84
521.907	4.83
522.255	4.92
522.602	4.92
522.95	5.01
523.298	4.96
523.645	4.95
523.993	5.05
524.341	4.97
524.688	5.02
525.036	5.06
525.383	4.89
525.73	5.02
526.078	4.9
526.425	5.04
526.772	4.96
527.119	4.83
527.466	4.76
527.814	4.95
528.161	5.01
528.508	5.01
528.854	5.05
529.201	5
529.548	4.96
529.895	4.87
530.242	4.75
530.588	4.76
530.935	4.86
531.282	4.92
531.628	4.94
531.975	5.04
532.321	5.04
532.667	5.07
533.014	5.13
533.36	5.16
533.706	5.08
534.052	5.13
534.399	5.1
534.745	5.09
535.091	4.99
535.437	5.01
535.783	5.14
536.129	5.13
536.474	5.23
536.82	5.16
537.166	5.26
537.512	5.21
537.857	5.26
538.203	5.24
538.549	5.1
538.894	5.24
539.239	5.37
539.585	5.37
539.93	5.49
540.276	5.45
540.621	5.42
540.966	5.36
541.311	5.48
541.656	5.33
542.001	5.39
542.346	5.31
542.691	5.26
543.036	5.18
543.381	5.27
543.726	5.29
544.071	5.43
544.415	5.43
544.76	5.37
545.105	5.53
545.449	5.52
545.794	5.54
546.138	5.54
546.483	5.55
546.827	5.67
547.171	5.65
547.516	5.71
547.86	5.67
548.204	5.71
548.548	5.58
548.892	5.64
549.236	5.65
549.58	5.73
549.924	5.82
550.268	5.96
550.612	5.89
550.956	5.93
551.3	5.91
551.643	5.81
551.987	5.96
552.33	5.81
552.674	5.96
553.017	5.97
553.361	5.99
553.704	5.88
554.048	5.9
554.391	5.85
554.734	5.89
555.077	5.9
555.42	5.95
555.764	6.03
556.107	6.04
556.45	6.16
556.793	6.09
557.135	6.18
557.478	6.23
557.821	6.09
558.164	6.27
558.507	6.13
558.849	6.41
559.192	6.28
559.534	6.26
559.877	6.3
560.219	6.31
560.562	6.54
560.904	6.32
561.246	6.33
561.589	6.4
561.931	6.44
562.273	6.56
562.615	6.29
562.957	6.43
563.299	6.36
563.641	6.54
563.983	6.37
564.325	6.43
564.667	6.57
565.008	6.54
565.35	6.6
565.692	6.45
566.033	6.5
566.375	6.68
566.716	6.7
567.058	6.74
567.399	6.41
567.741	6.69
568.082	6.71
568.423	6.53
568.764	6.71
569.105	6.65
569.447	6.65
569.788	6.98
570.129	6.84
570.47	6.91
570.811	6.85
571.151	7.06
571.492	6.79
571.833	6.83
572.174	6.86
572.514	6.99
572.855	6.95
573.195	7.02
573.536	7.04
573.876	6.72
574.217	6.94
574.557	6.88
574.898	6.98
575.238	7.06
575.578	7.09
575.918	6.95
576.258	7.06
576.598	7.19
576.938	7.29
577.278	7.25
577.618	7.16
577.958	7.2
578.298	7.23
578.638	7.26
578.977	7.4
579.317	7.5
579.657	7.3
579.996	7.32
580.336	7.35
580.675	7.32
581.014	7.43
581.354	7.69
581.693	7.62
582.032	7.54
582.372	7.57
582.711	7.84
583.05	7.81
583.389	7.76
583.728	7.66
584.067	7.66
584.406	7.42
584.745	7.74
585.083	7.57
585.422	7.94
585.761	7.63
586.1	7.68
586.438	7.77
586.777	8.01
587.115	7.67
587.454	7.9
587.792	8.05
588.13	8.04
588.469	8.05
588.807	7.95
589.145	8.08
589.483	8.07
589.821	8.25
590.159	8.16
590.497	8.01
590.835	7.85
591.173	8.4
591.511	8.32
591.849	8.14
592.187	8.25
592.524	8.59
592.862	8.6
593.2	8.44
593.537	8.4
593.875	8.45
594.212	8.45
594.55	8.4
594.887	8.53
595.224	8.31
595.561	8.31
595.899	8.5
596.236	8.33
596.573	8.76
596.91	8.53
597.247	8.7
597.584	8.73
597.921	8.73
598.258	8.54
598.594	8.56
598.931	8.56
599.268	8.69
599.604	8.76
599.941	8.89
600.277	8.96
600.614	8.93
600.95	8.79
601.287	8.91
601.623	8.77
601.959	8.62
602.296	8.93
602.632	9
602.968	8.97
603.304	8.95
603.64	8.92
603.976	9.22
604.312	9.28
604.648	9.06
604.984	8.95
605.319	9.16
605.655	9.14
605.991	9.1
606.326	9.2
606.662	9.39
606.998	9.49
607.333	9.25
607.668	9.27
608.004	9.47
608.339	9.33
608.674	9.62
609.01	9.42
609.345	9.55
609.68	9.34
610.015	9.72
610.35	9.69
610.685	9.3
611.02	9.41
611.355	9.64
611.689	9.59
612.024	9.68
612.359	9.65
612.694	10
613.028	9.85
613.363	10.1
613.697	9.85
614.032	9.82
614.366	10.09
614.7	10.12
615.035	10.57
615.369	10.1
615.703	9.98
616.037	10.26
616.371	10.09
616.705	9.94
617.039	10.08
617.373	10.43
617.707	10.64
618.041	10.19
618.375	10.32
618.709	10.08
619.042	10.06
619.376	10.61
619.71	10.63
620.043	10.53
620.377	10.44
620.71	10.2
621.043	10.42
621.377	10
621.71	10.78
622.043	10.47
622.376	10.38
622.709	10.7
623.043	10.54
623.376	10.66
623.709	10.66
624.041	11.21
624.374	10.84
624.707	10.88
625.04	11.13
625.373	10.94
625.705	11.05
626.038	10.93
626.37	10.81
626.703	11.18
627.035	10.98
627.368	11.24
627.7	10.84
628.032	10.64
628.365	10.93
628.697	11.08
629.029	11.18
629.361	11.33
629.693	10.93
630.025	11.3
630.357	11.48
630.689	11.27
631.021	11.11
631.353	11.54
631.684	11.38
632.016	11.59
632.348	11.33
632.679	11.54
633.011	11.63
633.342	11.5
633.674	11.63
634.005	11.6
634.336	11.54
634.668	12.02
634.999	11.85
635.33	11.54
635.661	11.79
635.992	11.96
636.323	12.14
636.654	12.04
636.985	11.98
637.316	12.29
637.647	11.89
637.977	11.82
638.308	11.92
638.639	11.63
638.969	12.08
639.3	11.66
639.63	11.79
639.961	12.09
640.291	12.17
640.622	12.3
640.952	12.21
641.282	12.5
641.612	12.45
641.943	12.27
642.273	12.65
642.603	12.22
642.933	12.45
643.263	12.14
643.592	12.51
643.922	11.94
644.252	12.83
644.582	12.82
644.911	12.33
645.241	12.67
645.571	12.9
645.9	12.62
646.23	13.18
646.559	12.73
646.888	12.83
647.218	12.81
647.547	12.98
647.876	12.37
648.205	12.54
648.534	12.94
648.863	12.9
649.192	13.25
649.521	12.99
649.85	12.84
650.179	12.75
650.508	13.06
650.837	13.06
651.165	13.2
651.494	12.96
651.822	13.24
652.151	12.93
652.479	13.48
652.808	13.15
653.136	13.22
653.465	13.38
653.793	13.6
654.121	13.31
654.449	13.49
654.777	13.11
655.105	13.32
655.433	13.55
655.761	13.8
656.089	14.02
656.417	13.84
656.745	13.58
657.073	12.84
657.4	14.27
657.728	13.79
658.056	14.17
658.383	14.31
658.711	13.46
659.038	14.16
659.365	13.77
659.693	13.67
660.02	13.92
660.347	14.13
660.674	13.7
661.001	14.27
661.329	13.72
661.656	13.87
661.982	13.7
662.309	14.3
662.636	14.39
662.963	14.21
663.29	14.3
663.616	14.2
663.943	14.02
664.27	14.12
664.596	14.59
664.923	14.36
665.249	14.49
665.576	14.65
665.902	14.42
666.228	14.77
666.554	14.4
666.881	14.17
667.207	14.21
667.533	14.65
667.859	14.31
668.185	14.46
668.511	13.84
668.837	15.21
669.162	14.56
669.488	14.3
669.814	15.16
670.139	14.7
670.465	15.15
670.791	14.52
671.116	14.56
671.442	15.08
671.767	14.18
672.092	14.36
672.418	16.1
672.743	14.85
673.068	14.87
673.393	14.98
673.718	14.54
674.043	15.65
674.368	14.83
674.693	15.31
675.018	15.43
675.343	16.04
675.667	15.79
675.992	15.45
676.317	15.54
676.641	15.69
676.966	15.65
677.29	15.39
677.615	15.86
677.939	15.29
678.264	15.49
678.588	15.26
678.912	15.84
679.236	15.43
679.56	14.65
679.885	15.3
680.209	15.97
680.532	15.08
680.856	15.69
681.18	16.05
681.504	16.24
681.828	15.71
682.152	16.25
682.475	15.99
682.799	16.29
683.122	16.22
683.446	16.29
683.769	15.63
684.093	15.97
684.416	16.23
684.739	16.39
685.062	16.07
685.386	16.23
685.709	16.71
686.032	16.22
686.355	16.73
686.678	16.28
687.001	16.19
687.324	16.68
687.646	16.86
