Data from 0388_crown_Reflection__4__85.txt Node

Date: Fri Dec 15 16:58:46 CST 2023
User: ToomeyLab
Spectrometer: FLMS14357
Trigger mode: 0
Integration Time (sec): 1.000000E-2
Scans to average: 100
Electric dark correction enabled: true
Nonlinearity correction enabled: false
Boxcar width: 0
XAxis mode: Wavelengths
Number of Pixels in Spectrum: 2048
>>>>>Begin Spectral Data<<<<<
189.047	20.99
189.435	20.99
189.823	20.99
190.211	33.87
190.599	-189.2
190.987	114.39
191.375	101.99
191.763	-26.62
192.151	1579996543823800
192.538	109.32
192.926	6.97
193.314	310.46
193.702	83.51
194.089	1122.32
194.477	6.56
194.864	172.43
195.252	120.88
195.639	96.31
196.027	1.46
196.414	86.62
196.801	158.84
197.189	93.56
197.576	-269.87
197.963	36.67
198.351	-46.56
198.738	32.57
199.125	11.71
199.512	11.85
199.899	58.09
200.286	25.96
200.673	-11.83
201.06	22.16
201.447	-31.84
201.833	-44.46
202.22	19.02
202.607	25.88
202.994	-8.77
203.38	8.04
203.767	16.73
204.154	34.03
204.54	4.2
204.927	-34.96
205.313	-5.79
205.699	15.3
206.086	44.83
206.472	9.42
206.858	18.47
207.245	-23.72
207.631	39.88
208.017	14.08
208.403	-20.61
208.789	27.67
209.175	-0.77
209.561	-20.06
209.947	5.64
210.333	-42.98
210.719	24.34
211.105	29.96
211.491	33.83
211.876	37.58
212.262	34.09
212.648	22.62
213.034	1.39
213.419	-7.23
213.805	-28.26
214.19	10.96
214.576	3.32
214.961	2.54
215.346	-47.92
215.732	-19.19
216.117	26.84
216.502	-19.16
216.888	44.29
217.273	48.79
217.658	10.8
218.043	13.34
218.428	-32.44
218.813	-3.42
219.198	-12.62
219.583	-2.53
219.968	-2.41
220.353	1.49
220.738	1.37
221.122	-10.54
221.507	8.71
221.892	-20.25
222.276	-20.19
222.661	5.64
223.046	7.23
223.43	8.94
223.815	11.29
224.199	-14.3
224.583	4.34
224.968	3.4
225.352	10.85
225.736	-7.98
226.121	2.43
226.505	5.72
226.889	10.18
227.273	-2.34
227.657	6.24
228.041	-0.87
228.425	2.32
228.809	6.72
229.193	8.28
229.577	3.15
229.961	5.41
230.344	3.66
230.728	3.58
231.112	4.08
231.495	3.59
231.879	2.28
232.263	5.03
232.646	5.46
233.03	3.32
233.413	2.87
233.797	3.53
234.18	2.66
234.563	4.58
234.946	2.32
235.33	5.58
235.713	5.8
236.096	2.8
236.479	3.54
236.862	3.6
237.245	4.72
237.628	2.29
238.011	6.57
238.394	6.04
238.777	4.18
239.16	1.43
239.543	3.75
239.925	5.09
240.308	5.42
240.691	5.58
241.073	6.19
241.456	5.47
241.838	3.11
242.221	3.88
242.603	3.91
242.986	4.51
243.368	4.04
243.75	3.98
244.133	3.39
244.515	3.95
244.897	3.96
245.279	4.22
245.661	2.95
246.043	2.87
246.425	2.48
246.807	4.6
247.189	4.58
247.571	3.86
247.953	4.28
248.335	3.07
248.717	3.34
249.098	3.33
249.48	3.7
249.862	3.43
250.243	3.35
250.625	3.56
251.006	4.12
251.388	2.88
251.769	4.31
252.151	3.58
252.532	3.89
252.913	1.93
253.295	2.77
253.676	3.46
254.057	3.21
254.438	3.11
254.819	3.56
255.2	3.34
255.581	4.04
255.962	1.91
256.343	3.47
256.724	3.35
257.105	4.1
257.486	3.33
257.867	3.47
258.247	3.31
258.628	2.65
259.009	3.63
259.389	3.83
259.77	2.9
260.15	2.38
260.531	2.75
260.911	3.8
261.292	3.18
261.672	3.44
262.052	3.38
262.432	3.6
262.813	3.57
263.193	3.29
263.573	2.62
263.953	3.42
264.333	4.1
264.713	3.03
265.093	3.45
265.473	3.99
265.853	2.77
266.233	3.24
266.612	1.49
266.992	2.17
267.372	3.08
267.752	2.91
268.131	3.34
268.511	3.65
268.89	3.84
269.27	3.25
269.649	3.01
270.029	3.36
270.408	4.44
270.787	3.93
271.167	3.6
271.546	3.65
271.925	2.77
272.304	2.75
272.683	3.93
273.062	2.67
273.441	3.2
273.82	2.92
274.199	2.8
274.578	3.07
274.957	2.98
275.336	3.22
275.715	2.61
276.093	3.05
276.472	3.6
276.851	2.36
277.229	2.99
277.608	2.86
277.986	2.99
278.365	3.08
278.743	3.26
279.122	2.75
279.5	3.06
279.878	3.83
280.257	2.94
280.635	2.89
281.013	2.56
281.391	3.24
281.769	2.79
282.147	2.76
282.525	3.59
282.903	2.64
283.281	3.51
283.659	3.3
284.037	2.56
284.415	3.14
284.792	3.21
285.17	2.19
285.548	1.97
285.925	3.16
286.303	3.25
286.68	2.8
287.058	3.09
287.435	2.84
287.813	2.86
288.19	2.92
288.567	2.85
288.945	3.34
289.322	3.07
289.699	3.12
290.076	3
290.453	2.8
290.83	3.13
291.207	2.87
291.584	3.12
291.961	2.98
292.338	2.79
292.715	3.16
293.092	2.78
293.469	2.84
293.845	3.05
294.222	2.71
294.599	3.13
294.975	2.57
295.352	3.22
295.728	2.76
296.105	2.83
296.481	3.2
296.858	3.15
297.234	2.39
297.61	2.79
297.986	2.64
298.363	3.25
298.739	2.89
299.115	2.57
299.491	2.83
299.867	3.03
300.243	2.71
300.619	2.27
300.995	2.7
301.371	3.1
301.746	2.52
302.122	3.6
302.498	2.94
302.874	2.81
303.249	2.85
303.625	2.8
304	3.3
304.376	2.59
304.751	2.26
305.127	3.51
305.502	2.44
305.878	2.35
306.253	2.29
306.628	3.08
307.003	2.7
307.378	3.28
307.754	2.34
308.129	2.64
308.504	2.7
308.879	2.86
309.254	3.3
309.629	3.23
310.003	2.7
310.378	3.39
310.753	2.85
311.128	2.73
311.502	3.05
311.877	3.34
312.252	2.23
312.626	2.53
313.001	2.69
313.375	3.06
313.75	2.53
314.124	2.67
314.498	2.42
314.873	2.64
315.247	2.78
315.621	2.84
315.995	1.86
316.369	2.84
316.743	2.09
317.117	2.86
317.491	3.07
317.865	2.55
318.239	2.55
318.613	2.54
318.987	3.44
319.361	2.2
319.734	2.93
320.108	3.03
320.482	2.79
320.855	3.06
321.229	3.14
321.602	2.44
321.976	3.14
322.349	2.53
322.723	2.79
323.096	2.53
323.469	1.81
323.843	3.23
324.216	2.82
324.589	2.04
324.962	2.69
325.335	2.46
325.708	2.46
326.081	2.66
326.454	2.72
326.827	2.54
327.2	2.93
327.573	2.89
327.945	2.89
328.318	2.67
328.691	2.37
329.063	2.56
329.436	2.57
329.809	2.78
330.181	2.45
330.553	2.53
330.926	2.54
331.298	3.21
331.671	2.22
332.043	3.04
332.415	2.78
332.787	3.19
333.159	3.46
333.532	3.12
333.904	2.28
334.276	2.32
334.648	2.81
335.02	2.62
335.391	2.7
335.763	2.24
336.135	2.98
336.507	2.71
336.879	2.6
337.25	2.49
337.622	2.46
337.993	2.85
338.365	2.83
338.736	3.07
339.108	3.26
339.479	2.99
339.851	3.07
340.222	2.24
340.593	2.6
340.964	2.43
341.336	3.27
341.707	2.64
342.078	3.3
342.449	3.35
342.82	2.6
343.191	2.91
343.562	2.9
343.933	2.84
344.303	2.75
344.674	3.01
345.045	2.77
345.416	3.27
345.786	2.45
346.157	3
346.527	2.19
346.898	2.29
347.268	2.92
347.639	3.19
348.009	3.01
348.38	2.52
348.75	2.41
349.12	2.8
349.49	2.91
349.861	2.62
350.231	2.63
350.601	2.88
350.971	2.81
351.341	2.39
351.711	2.73
352.081	3.23
352.45	2.56
352.82	2.89
353.19	2.53
353.56	2.33
353.929	3.2
354.299	2.78
354.669	2.43
355.038	3.17
355.408	3.14
355.777	2.78
356.147	2.9
356.516	2.82
356.885	2.69
357.254	2.4
357.624	3.26
357.993	2.64
358.362	2.67
358.731	2.5
359.1	2.52
359.469	2.94
359.838	3.12
360.207	2.56
360.576	2.72
360.945	2.9
361.314	3.23
361.682	2.29
362.051	2.55
362.42	2.88
362.788	2.61
363.157	2.82
363.525	2.92
363.894	2.8
364.262	2.87
364.631	2.89
364.999	2.72
365.367	2.49
365.735	3.25
366.104	3.19
366.472	3.16
366.84	2.64
367.208	2.73
367.576	2.81
367.944	3.37
368.312	2.99
368.68	2.66
369.048	2.84
369.416	2.82
369.783	2.6
370.151	2.9
370.519	3.34
370.886	3.23
371.254	2.86
371.621	3.18
371.989	2.99
372.356	2.71
372.724	2.98
373.091	2.84
373.458	2.88
373.826	2.95
374.193	2.59
374.56	3.16
374.927	2.9
375.294	3.09
375.661	2.93
376.028	2.97
376.395	3.02
376.762	3.06
377.129	3.13
377.496	2.76
377.863	2.9
378.229	2.36
378.596	2.84
378.963	2.97
379.329	2.88
379.696	3.09
380.062	3.03
380.429	3.08
380.795	2.76
381.161	3.08
381.528	2.81
381.894	2.67
382.26	2.88
382.626	2.97
382.993	2.8
383.359	3.45
383.725	2.93
384.091	2.99
384.457	2.9
384.823	3.04
385.188	3.03
385.554	2.93
385.92	3.3
386.286	3.08
386.651	3.13
387.017	3.2
387.383	3.17
387.748	2.57
388.114	3.12
388.479	3.27
388.845	3.23
389.21	3.4
389.575	3.08
389.94	3.25
390.306	3.14
390.671	3.25
391.036	2.86
391.401	2.79
391.766	3.05
392.131	2.92
392.496	3.1
392.861	2.97
393.226	3.32
393.591	3.09
393.956	3.02
394.32	2.89
394.685	3.14
395.05	3.03
395.414	3.2
395.779	2.78
396.143	3.09
396.508	3.01
396.872	3.1
397.236	3.13
397.601	2.63
397.965	3.11
398.329	3.09
398.694	3.35
399.058	3.19
399.422	2.85
399.786	3.44
400.15	3.15
400.514	2.92
400.878	3.21
401.242	3.2
401.605	3.1
401.969	3.03
402.333	3.27
402.697	3.07
403.06	3.26
403.424	3.27
403.787	3.01
404.151	3.33
404.514	3.1
404.878	3.3
405.241	3.22
405.604	3.2
405.968	3.2
406.331	3.07
406.694	3.27
407.057	3.16
407.42	3.25
407.783	3
408.146	3.01
408.509	3.11
408.872	3.15
409.235	2.97
409.598	3.56
409.961	3.35
410.323	3.1
410.686	3.2
411.049	2.95
411.411	3.11
411.774	3.27
412.136	2.94
412.499	2.98
412.861	3.15
413.223	3.16
413.586	3.23
413.948	3.23
414.31	3.21
414.672	3.05
415.035	2.96
415.397	3.23
415.759	3
416.121	3.36
416.483	3
416.845	3.25
417.206	3.2
417.568	3.33
417.93	3.14
418.292	3.15
418.653	3.13
419.015	3.4
419.377	3.23
419.738	3.13
420.1	3.07
420.461	3.29
420.822	3.23
421.184	3.18
421.545	3.04
421.906	3.01
422.267	2.94
422.629	3.06
422.99	3.08
423.351	3.06
423.712	3.13
424.073	3.14
424.434	3.08
424.795	3.16
425.155	3.23
425.516	3.12
425.877	3.12
426.238	3.1
426.598	3.18
426.959	3.14
427.32	3.11
427.68	3.07
428.041	3
428.401	3.3
428.761	3.16
429.122	3.31
429.482	3.12
429.842	3.35
430.202	3.25
430.563	3.32
430.923	3.22
431.283	3.25
431.643	3.05
432.003	3.12
432.363	3.28
432.722	3.15
433.082	3.17
433.442	3.19
433.802	3.03
434.161	3.14
434.521	3.38
434.881	3.28
435.24	3.1
435.6	3.21
435.959	3.12
436.319	3.21
436.678	3.17
437.037	3.17
437.396	3.27
437.756	3.36
438.115	3.12
438.474	3.31
438.833	3.1
439.192	3.09
439.551	3.39
439.91	3.23
440.269	3.15
440.628	3.26
440.987	3.2
441.345	3.13
441.704	3.2
442.063	3.16
442.421	3.1
442.78	3.02
443.138	3.22
443.497	3.19
443.855	3.11
444.214	3.34
444.572	3.49
444.93	3.19
445.288	3.2
445.647	3.23
446.005	3.16
446.363	3.2
446.721	3.3
447.079	3.11
447.437	3.21
447.795	3.16
448.153	3.14
448.51	3.2
448.868	3.1
449.226	3.16
449.584	3.25
449.941	3.17
450.299	3.29
450.656	3.25
451.014	3.23
451.371	3.14
451.729	3.27
452.086	3.44
452.443	3.11
452.801	3.43
453.158	3.35
453.515	3.17
453.872	3.39
454.229	3.25
454.586	3.21
454.943	3.41
455.3	3.39
455.657	3.23
456.014	3.23
456.371	3.18
456.727	3.17
457.084	3.4
457.441	3.17
457.797	3.42
458.154	3.41
458.51	3.3
458.867	3.41
459.223	3.2
459.58	3.23
459.936	3.55
460.292	3.37
460.648	3.2
461.005	3.16
461.361	3.24
461.717	3.19
462.073	3.11
462.429	3.14
462.785	3.3
463.141	3.36
463.496	3.27
463.852	3.39
464.208	3.35
464.564	3.43
464.919	3.34
465.275	3.44
465.631	3.58
465.986	3.27
466.342	3.23
466.697	3.28
467.052	3.17
467.408	3.4
467.763	3.35
468.118	3.28
468.473	3.19
468.829	3.36
469.184	3.14
469.539	3.32
469.894	3.18
470.249	3.4
470.603	3.58
470.958	3.39
471.313	3.35
471.668	3.47
472.023	3.29
472.377	3.3
472.732	3.36
473.086	3.4
473.441	3.14
473.795	3.4
474.15	3.24
474.504	3.25
474.859	3.37
475.213	3.16
475.567	3.39
475.921	3.42
476.275	3.49
476.63	3.48
476.984	3.45
477.338	3.38
477.692	3.18
478.045	3.29
478.399	3.33
478.753	3.44
479.107	3.45
479.461	3.32
479.814	3.24
480.168	3.23
480.521	3.29
480.875	3.29
481.228	3.3
481.582	3.31
481.935	3.36
482.289	3.31
482.642	3.26
482.995	3.32
483.348	3.24
483.701	3.23
484.055	3.33
484.408	3.26
484.761	3.13
485.114	3.08
485.466	2.95
485.819	2.93
486.172	3.03
486.525	3.15
486.878	3.23
487.23	3.21
487.583	3.24
487.936	3.25
488.288	3.17
488.641	3.17
488.993	3.09
489.345	3.08
489.698	3.11
490.05	3.12
490.402	3.22
490.754	3.23
491.107	3.31
491.459	3.31
491.811	3.28
492.163	3.29
492.515	3.27
492.866	3.25
493.218	3.14
493.57	3.13
493.922	3.09
494.274	3.29
494.625	3.28
494.977	3.36
495.328	3.4
495.68	3.37
496.031	3.47
496.383	3.28
496.734	3.48
497.086	3.48
497.437	3.26
497.788	3.28
498.139	3.31
498.49	3.44
498.842	3.28
499.193	3.34
499.544	3.32
499.894	3.37
500.245	3.36
500.596	3.29
500.947	3.39
501.298	3.28
501.648	3.33
501.999	3.43
502.35	3.38
502.7	3.41
503.051	3.14
503.401	3.23
503.752	3.44
504.102	3.33
504.452	3.31
504.803	3.35
505.153	3.23
505.503	3.39
505.853	3.34
506.203	3.3
506.553	3.31
506.903	3.3
507.253	3.27
507.603	3.3
507.953	3.33
508.303	3.47
508.652	3.24
509.002	3.37
509.352	3.36
509.701	3.34
510.051	3.3
510.4	3.29
510.75	3.35
511.099	3.38
511.449	3.22
511.798	3.4
512.147	3.29
512.496	3.33
512.846	3.32
513.195	3.4
513.544	3.3
513.893	3.31
514.242	3.25
514.591	3.45
514.939	3.37
515.288	3.26
515.637	3.46
515.986	3.31
516.334	3.35
516.683	3.41
517.032	3.26
517.38	3.3
517.729	3.41
518.077	3.3
518.426	3.45
518.774	3.34
519.122	3.23
519.47	3.27
519.819	3.18
520.167	3.28
520.515	3.23
520.863	3.34
521.211	3.33
521.559	3.39
521.907	3.27
522.255	3.4
522.602	3.41
522.95	3.39
523.298	3.35
523.645	3.38
523.993	3.32
524.341	3.37
524.688	3.44
525.036	3.33
525.383	3.36
525.73	3.42
526.078	3.36
526.425	3.28
526.772	3.35
527.119	3.24
527.466	3.13
527.814	3.18
528.161	3.23
528.508	3.3
528.854	3.23
529.201	3.25
529.548	3.2
529.895	3.12
530.242	3.02
530.588	3.01
530.935	3.1
531.282	3.21
531.628	3.17
531.975	3.3
532.321	3.31
532.667	3.35
533.014	3.33
533.36	3.3
533.706	3.3
534.052	3.31
534.399	3.29
534.745	3.1
535.091	3.13
535.437	3.22
535.783	3.25
536.129	3.34
536.474	3.34
536.82	3.39
537.166	3.33
537.512	3.26
537.857	3.26
538.203	3.24
538.549	3.19
538.894	3.19
539.239	3.35
539.585	3.34
539.93	3.38
540.276	3.39
540.621	3.43
540.966	3.39
541.311	3.22
541.656	3.28
542.001	3.19
542.346	3.37
542.691	3.19
543.036	3.11
543.381	3.03
543.726	3.11
544.071	3.27
544.415	3.33
544.76	3.2
545.105	3.28
545.449	3.31
545.794	3.42
546.138	3.25
546.483	3.36
546.827	3.44
547.171	3.36
547.516	3.4
547.86	3.16
548.204	3.25
548.548	3.27
548.892	3.38
549.236	3.24
549.58	3.22
549.924	3.34
550.268	3.47
550.612	3.36
550.956	3.53
551.3	3.31
551.643	3.46
551.987	3.45
552.33	3.33
552.674	3.31
553.017	3.26
553.361	3.24
553.704	3.44
554.048	3.34
554.391	3.23
554.734	3.22
555.077	3.47
555.42	3.27
555.764	3.21
556.107	3.22
556.45	3.27
556.793	3.4
557.135	3.44
557.478	3.51
557.821	3.54
558.164	3.36
558.507	3.35
558.849	3.39
559.192	3.4
559.534	3.45
559.877	3.39
560.219	3.44
560.562	3.61
560.904	3.47
561.246	3.45
561.589	3.35
561.931	3.39
562.273	3.12
562.615	3.59
562.957	3.29
563.299	3.22
563.641	3.25
563.983	3.44
564.325	3.29
564.667	3.31
565.008	3.34
565.35	3.33
565.692	3.29
566.033	3.27
566.375	3.43
566.716	3.54
567.058	3.33
567.399	3.4
567.741	3.22
568.082	3.35
568.423	3.3
568.764	3.31
569.105	3.38
569.447	3.36
569.788	3.41
570.129	3.43
570.47	3.47
570.811	3.46
571.151	3.47
571.492	3.39
571.833	3.39
572.174	3.44
572.514	3.55
572.855	3.38
573.195	3.29
573.536	3.35
573.876	3.04
574.217	3.16
574.557	3.45
574.898	3.47
575.238	3.5
575.578	3.22
575.918	3.57
576.258	3.36
576.598	3.4
576.938	3.35
577.278	3.39
577.618	3.43
577.958	3.35
578.298	3.28
578.638	3.27
578.977	3.25
579.317	3.46
579.657	3.22
579.996	3.34
580.336	3.25
580.675	3.28
581.014	3.35
581.354	3.59
581.693	3.45
582.032	3.31
582.372	3.38
582.711	3.36
583.05	3.25
583.389	3.32
583.728	3.23
584.067	3.53
584.406	3.39
584.745	3.3
585.083	3.41
585.422	3.47
585.761	3.46
586.1	3.48
586.438	3.35
586.777	3.54
587.115	3.51
587.454	3.22
587.792	3.34
588.13	3.62
588.469	3.08
588.807	3.27
589.145	3.21
589.483	3.24
589.821	3.22
590.159	3.25
590.497	3.52
590.835	3.7
591.173	3.29
591.511	3.42
591.849	3.41
592.187	3.39
592.524	3.29
592.862	3.48
593.2	3.36
593.537	3.6
593.875	3.26
594.212	3.12
594.55	3.52
594.887	3.56
595.224	3.12
595.561	3.37
595.899	3.35
596.236	3.27
596.573	3.41
596.91	2.82
597.247	2.87
597.584	3.42
597.921	3.31
598.258	3.07
598.594	3.3
598.931	3.11
599.268	3.3
599.604	3.17
599.941	3.29
600.277	3.43
600.614	3.32
600.95	3.15
601.287	3.46
601.623	3.56
601.959	3.3
602.296	3.61
602.632	3.47
602.968	3.38
603.304	3.4
603.64	3.17
603.976	3.31
604.312	3.27
604.648	3.17
604.984	3.37
605.319	3.27
605.655	3.13
605.991	3.34
606.326	3.35
606.662	3.25
606.998	3.09
607.333	3.26
607.668	3.46
608.004	3.28
608.339	3.73
608.674	3.41
609.01	3.36
609.345	3.21
609.68	3.44
610.015	3.05
610.35	3.44
610.685	3.28
611.02	3.53
611.355	3.32
611.689	3.2
612.024	3.37
612.359	3.25
612.694	3.25
613.028	2.87
613.363	3.56
613.697	3.61
614.032	3.47
614.366	3.19
614.7	3.56
615.035	3.51
615.369	3.27
615.703	3.3
616.037	3.3
616.371	3.33
616.705	3.43
617.039	3.2
617.373	3.21
617.707	3.21
618.041	3.34
618.375	3.61
618.709	3.53
619.042	2.75
619.376	3.61
619.71	3.36
620.043	3.31
620.377	3.29
620.71	3.08
621.043	3.2
621.377	3.14
621.71	3.6
622.043	3.09
622.376	3
622.709	3.07
623.043	3.21
623.376	3.32
623.709	3
624.041	3.86
624.374	3.33
624.707	3.38
625.04	3.86
625.373	2.68
625.705	3.19
626.038	3.29
626.37	3.17
626.703	3.36
627.035	3.4
627.368	3.6
627.7	3.33
628.032	3.32
628.365	3.73
628.697	3.53
629.029	3.21
629.361	3.28
629.693	3.34
630.025	3.07
630.357	3.48
630.689	3.51
631.021	3.18
631.353	3.29
631.684	3.11
632.016	3.13
632.348	3.46
632.679	3.41
633.011	3.4
633.342	3.74
633.674	3.14
634.005	3.67
634.336	3.19
634.668	3.6
634.999	3.1
635.33	3.4
635.661	3.53
635.992	3.36
636.323	3.26
636.654	3.35
636.985	3.39
637.316	3.25
637.647	2.83
637.977	3.78
638.308	3.34
638.639	2.96
638.969	3.11
639.3	3.35
639.63	3.01
639.961	3.47
640.291	3.28
640.622	3.6
640.952	3.12
641.282	3.86
641.612	3.36
641.943	3.28
642.273	3.7
642.603	3.66
642.933	3.57
643.263	3.46
643.592	3.1
643.922	3.3
644.252	3.08
644.582	3.47
644.911	3.18
645.241	3.42
645.571	3.31
645.9	3.12
646.23	3.45
646.559	3.32
646.888	3.04
647.218	3.13
647.547	3.8
647.876	2.87
648.205	3.38
648.534	3.41
648.863	3.43
649.192	3.38
649.521	2.95
649.85	3.29
650.179	3.34
650.508	3.14
650.837	3.18
651.165	3.17
651.494	3.71
651.822	3.43
652.151	3.29
652.479	3.97
652.808	3.3
653.136	3.41
653.465	2.8
653.793	3.05
654.121	3.25
654.449	3.3
654.777	3.56
655.105	3.09
655.433	2.85
655.761	3.24
656.089	3.84
656.417	3.78
656.745	2.94
657.073	2.94
657.4	4.24
657.728	3.7
658.056	3.27
658.383	3.49
658.711	3.53
659.038	3.57
659.365	3.46
659.693	3.25
660.02	3.4
660.347	3.07
660.674	3.39
661.001	3.21
661.329	2.72
661.656	3.37
661.982	3.67
662.309	3.02
662.636	3.2
662.963	3.4
663.29	3.63
663.616	3.23
663.943	2.76
664.27	3.26
664.596	3.53
664.923	3.58
665.249	2.77
665.576	3.16
665.902	3.87
666.228	3.8
666.554	3.31
666.881	3.46
667.207	3.61
667.533	3.43
667.859	3.54
668.185	3.21
668.511	2.75
668.837	2.84
669.162	2.94
669.488	3.32
669.814	3.46
670.139	3.7
670.465	3.3
670.791	3.55
671.116	3.85
671.442	3.31
671.767	3.68
672.092	3.46
672.418	3.68
672.743	3.6
673.068	3.19
673.393	3.08
673.718	3.39
674.043	2.95
674.368	3.24
674.693	4.29
675.018	3.83
675.343	3.5
675.667	2.49
675.992	4.23
676.317	3.88
676.641	4
676.966	3.31
677.29	3.47
677.615	3.73
677.939	4.12
678.264	3.93
678.588	2.8
678.912	3.17
679.236	3.7
679.56	3.3
679.885	3.8
680.209	3.27
680.532	3.38
680.856	4.39
681.18	3.4
681.504	3.49
681.828	4.02
682.152	3.14
682.475	3.42
682.799	3.5
683.122	3.79
683.446	3.01
683.769	4.43
684.093	3.38
684.416	4.45
684.739	3.47
685.062	3.39
685.386	3.65
685.709	2.95
686.032	3.47
686.355	3.75
686.678	3.2
687.001	3.4
687.324	3.71
687.646	2.82
687.969	2.83
688.292	3.16
688.614	3.7
688.937	4.04
689.26	3.48
689.582	4.14
689.904	3.91
690.227	3.18
690.549	3.61
690.871	4.32
691.194	3.28
691.516	3.87
691.838	3.39
692.16	2.95
692.482	3.85
692.804	3.52
693.126	3.17
