Data from 0388_crown_Reflection__3__84.txt Node

Date: Fri Dec 15 16:58:38 CST 2023
User: ToomeyLab
Spectrometer: FLMS14357
Trigger mode: 0
Integration Time (sec): 1.000000E-2
Scans to average: 100
Electric dark correction enabled: true
Nonlinearity correction enabled: false
Boxcar width: 0
XAxis mode: Wavelengths
Number of Pixels in Spectrum: 2048
>>>>>Begin Spectral Data<<<<<
189.047	10.98
189.435	10.98
189.823	10.98
190.211	122.89
190.599	-22.38
190.987	100.81
191.375	140.03
191.763	-69.01
192.151	877994345759200
192.538	93.28
192.926	31.93
193.314	189.38
193.702	-115.84
194.089	-121.13
194.477	93.13
194.864	349.63
195.252	81.76
195.639	126.6
196.027	-154.79
196.414	63.47
196.801	-22.72
197.189	112.36
197.576	-67.34
197.963	-22.04
198.351	-23.79
198.738	-34.9
199.125	18.32
199.512	-62.25
199.899	44.67
200.286	35.36
200.673	28.19
201.06	6.62
201.447	-46.65
201.833	-20.67
202.22	8.45
202.607	8.4
202.994	12.61
203.38	11.36
203.767	39.48
204.154	25.89
204.54	35
204.927	-15.62
205.313	-55.69
205.699	51.05
206.086	16.33
206.472	-2.09
206.858	48.68
207.245	17.93
207.631	-0.9
208.017	24.16
208.403	-52.46
208.789	31.13
209.175	28.27
209.561	16.83
209.947	-1.2
210.333	-29.01
210.719	34.96
211.105	54.47
211.491	6.12
211.876	-2.99
212.262	1.98
212.648	-12.12
213.034	18.07
213.419	-9.77
213.805	4.33
214.19	-3.39
214.576	27.21
214.961	-17.49
215.346	10.07
215.732	-4.4
216.117	23.62
216.502	-22.94
216.888	6.6
217.273	6.88
217.658	-4.87
218.043	32.08
218.428	-5.56
218.813	-45.26
219.198	-24.24
219.583	-0.42
219.968	8.78
220.353	7.66
220.738	9.61
221.122	9.33
221.507	-12.81
221.892	-44
222.276	5.9
222.661	-3.27
223.046	7.04
223.43	6.64
223.815	6.46
224.199	-13.67
224.583	2.97
224.968	6.02
225.352	13.46
225.736	8.21
226.121	-12.12
226.505	1.89
226.889	-0.07
227.273	0.15
227.657	11.57
228.041	1.51
228.425	2.97
228.809	5.39
229.193	3.81
229.577	4.34
229.961	3.23
230.344	2.98
230.728	3.86
231.112	4.31
231.495	2.55
231.879	2.64
232.263	5.74
232.646	3.42
233.03	3.33
233.413	3.03
233.797	3.73
234.18	3.8
234.563	2.6
234.946	1.85
235.33	3.76
235.713	3.01
236.096	2.69
236.479	3.5
236.862	2.67
237.245	3.66
237.628	1.88
238.011	3.59
238.394	4.81
238.777	4.19
239.16	2.27
239.543	4.04
239.925	5.17
240.308	4.5
240.691	4.79
241.073	2.38
241.456	2.18
241.838	3.11
242.221	2.39
242.603	4.23
242.986	3.74
243.368	4.05
243.75	3.44
244.133	3.51
244.515	3.94
244.897	4.1
245.279	4.49
245.661	3.73
246.043	2.35
246.425	2.78
246.807	4.69
247.189	5.02
247.571	4.4
247.953	4.38
248.335	3.54
248.717	3.77
249.098	3.55
249.48	3.79
249.862	3.94
250.243	3.66
250.625	3.93
251.006	4.73
251.388	3.05
251.769	4.78
252.151	5.6
252.532	3.63
252.913	3.6
253.295	3.17
253.676	3.49
254.057	4.14
254.438	3.09
254.819	3.72
255.2	3.08
255.581	4.24
255.962	3.01
256.343	3.87
256.724	2.16
257.105	3.6
257.486	5.12
257.867	4.76
258.247	3.29
258.628	2.75
259.009	3.32
259.389	4.11
259.77	2.96
260.15	2.74
260.531	2.93
260.911	3.76
261.292	3.98
261.672	3.93
262.052	3.69
262.432	3.88
262.813	3.53
263.193	3.73
263.573	3.53
263.953	3.16
264.333	3.74
264.713	3.75
265.093	3.47
265.473	3.99
265.853	2.2
266.233	3.69
266.612	2.71
266.992	2.93
267.372	4.16
267.752	3.1
268.131	3.48
268.511	4.36
268.89	3.79
269.27	3.09
269.649	2.83
270.029	3.53
270.408	3.86
270.787	3.26
271.167	4.22
271.546	4.52
271.925	2.75
272.304	3.79
272.683	3.91
273.062	3.46
273.441	3.36
273.82	3.33
274.199	3.56
274.578	3.41
274.957	3.28
275.336	3.48
275.715	3.39
276.093	3.77
276.472	3.52
276.851	2.84
277.229	3.01
277.608	2.82
277.986	3.43
278.365	3.7
278.743	3.57
279.122	3.76
279.5	3.61
279.878	3.76
280.257	3.74
280.635	3.15
281.013	3.29
281.391	3.54
281.769	3.85
282.147	3.91
282.525	3.45
282.903	3.49
283.281	3.57
283.659	3.32
284.037	3.81
284.415	3.37
284.792	3.55
285.17	2.77
285.548	3.3
285.925	3.5
286.303	3.66
286.68	2.95
287.058	3.29
287.435	3.13
287.813	3.59
288.19	3.47
288.567	3.16
288.945	3.7
289.322	3.3
289.699	2.98
290.076	2.85
290.453	3.58
290.83	3
291.207	3.24
291.584	3.6
291.961	3.48
292.338	3.55
292.715	3.48
293.092	3.3
293.469	3.29
293.845	3.85
294.222	3.09
294.599	3.64
294.975	3.45
295.352	3.66
295.728	3.73
296.105	3.37
296.481	3.85
296.858	3.54
297.234	3.43
297.61	3.53
297.986	3.4
298.363	3.91
298.739	3.8
299.115	3.4
299.491	3.69
299.867	3.64
300.243	3.77
300.619	3.31
300.995	3.66
301.371	3.9
301.746	3.3
302.122	4.09
302.498	4.2
302.874	3.87
303.249	3.66
303.625	4.28
304	4.49
304.376	3.21
304.751	3.55
305.127	4.34
305.502	3.53
305.878	3.25
306.253	3.6
306.628	4.16
307.003	3.64
307.378	4.16
307.754	4.07
308.129	2.82
308.504	3.25
308.879	4
309.254	4.42
309.629	3.88
310.003	3.89
310.378	4.29
310.753	4.04
311.128	3.2
311.502	3.67
311.877	4.18
312.252	2.98
312.626	3.74
313.001	3.25
313.375	4.3
313.75	3.83
314.124	3.8
314.498	3.55
314.873	3.55
315.247	3.55
315.621	4.04
315.995	3.33
316.369	4.18
316.743	3.84
317.117	4.16
317.491	4.09
317.865	3.97
318.239	3.85
318.613	4.43
318.987	3.81
319.361	3.02
319.734	4.14
320.108	4.25
320.482	4.38
320.855	4.48
321.229	3.37
321.602	3.76
321.976	4.15
322.349	3.9
322.723	3.39
323.096	4.55
323.469	3.44
323.843	3.5
324.216	4.39
324.589	3.59
324.962	3.99
325.335	3.54
325.708	3.73
326.081	3.66
326.454	3.92
326.827	4.01
327.2	3.91
327.573	3.38
327.945	3.64
328.318	3.64
328.691	3.31
329.063	3.82
329.436	3.48
329.809	4.04
330.181	3.48
330.553	4.11
330.926	3.82
331.298	3.88
331.671	3.9
332.043	3.85
332.415	4.19
332.787	4.15
333.159	4.32
333.532	4.1
333.904	4.29
334.276	3.13
334.648	4.02
335.02	3.58
335.391	3.3
335.763	3.6
336.135	3.87
336.507	4.73
336.879	3.4
337.25	3.93
337.622	3.48
337.993	3.82
338.365	3.85
338.736	4.43
339.108	3.49
339.479	3.66
339.851	3.6
340.222	3.71
340.593	3.87
340.964	3.58
341.336	4.43
341.707	3.28
342.078	4.27
342.449	3.63
342.82	3.63
343.191	3.97
343.562	3.64
343.933	4.06
344.303	4.07
344.674	3.95
345.045	4.11
345.416	4.35
345.786	3.49
346.157	3.83
346.527	3.45
346.898	3.8
347.268	4.03
347.639	3.71
348.009	4.26
348.38	3.49
348.75	4.11
349.12	3.84
349.49	4.13
349.861	4.08
350.231	3.5
350.601	4.31
350.971	3.78
351.341	3.83
351.711	3.82
352.081	4.03
352.45	3.28
352.82	3.87
353.19	3.82
353.56	3.57
353.929	4.05
354.299	3.69
354.669	3.66
355.038	3.77
355.408	3.86
355.777	3.97
356.147	3.5
356.516	3.66
356.885	3.69
357.254	3.86
357.624	3.97
357.993	3.9
358.362	3.6
358.731	3.53
359.1	3.72
359.469	3.97
359.838	3.93
360.207	3.48
360.576	3.96
360.945	3.64
361.314	4.17
361.682	3.62
362.051	3.76
362.42	3.92
362.788	3.82
363.157	3.7
363.525	3.85
363.894	3.65
364.262	3.79
364.631	3.72
364.999	3.56
365.367	3.38
365.735	4.26
366.104	3.87
366.472	4
366.84	4.01
367.208	3.7
367.576	3.95
367.944	4.16
368.312	3.73
368.68	3.51
369.048	4.2
369.416	3.93
369.783	3.64
370.151	3.79
370.519	3.89
370.886	4.08
371.254	3.91
371.621	4.14
371.989	4.07
372.356	3.87
372.724	3.85
373.091	3.75
373.458	3.7
373.826	3.85
374.193	3.77
374.56	4.22
374.927	4.14
375.294	4.19
375.661	3.91
376.028	3.81
376.395	3.78
376.762	3.99
377.129	3.91
377.496	3.99
377.863	4.14
378.229	3.56
378.596	3.98
378.963	3.49
379.329	3.92
379.696	3.95
380.062	3.88
380.429	3.81
380.795	3.65
381.161	3.84
381.528	3.98
381.894	3.88
382.26	3.71
382.626	4.15
382.993	3.66
383.359	3.99
383.725	3.85
384.091	3.77
384.457	4.11
384.823	3.92
385.188	4.12
385.554	3.83
385.92	4.07
386.286	4.19
386.651	4.19
387.017	4.11
387.383	3.79
387.748	3.97
388.114	4.03
388.479	3.71
388.845	4.07
389.21	3.81
389.575	4.13
389.94	4.17
390.306	3.99
390.671	4.19
391.036	3.55
391.401	3.71
391.766	3.71
392.131	3.94
392.496	4.22
392.861	4.01
393.226	4.16
393.591	4.06
393.956	3.71
394.32	4.19
394.685	3.86
395.05	3.84
395.414	3.9
395.779	3.84
396.143	3.94
396.508	4.13
396.872	4.04
397.236	4
397.601	3.75
397.965	4.05
398.329	3.93
398.694	3.97
399.058	4.15
399.422	4.07
399.786	4.18
400.15	4.15
400.514	3.83
400.878	3.96
401.242	4.37
401.605	3.98
401.969	4.21
402.333	4.24
402.697	4.09
403.06	4.08
403.424	4.13
403.787	3.99
404.151	4.23
404.514	4.03
404.878	3.94
405.241	4.29
405.604	4.14
405.968	4.12
406.331	4.03
406.694	4.33
407.057	4.11
407.42	4.19
407.783	4.03
408.146	4.02
408.509	3.84
408.872	3.89
409.235	4.11
409.598	4.36
409.961	4.21
410.323	4.1
410.686	4.05
411.049	4.09
411.411	4.01
411.774	3.98
412.136	4.08
412.499	4.08
412.861	4.08
413.223	4.29
413.586	4.27
413.948	4.29
414.31	4.28
414.672	4.1
415.035	4.04
415.397	4.5
415.759	3.85
416.121	4.34
416.483	4.17
416.845	4.36
417.206	4.12
417.568	4.22
417.93	4.17
418.292	4.08
418.653	4.24
419.015	4.22
419.377	4.06
419.738	4.23
420.1	4.16
420.461	4.16
420.822	4.17
421.184	4
421.545	4.14
421.906	4.02
422.267	4.09
422.629	4.02
422.99	4.14
423.351	4.04
423.712	4.09
424.073	4.16
424.434	4.24
424.795	4.13
425.155	4.11
425.516	4.13
425.877	4.06
426.238	4.03
426.598	4.14
426.959	4.2
427.32	4.03
427.68	4.02
428.041	4.23
428.401	4.19
428.761	4.19
429.122	4.3
429.482	4.14
429.842	4.41
430.202	4.29
430.563	4.31
430.923	4.23
431.283	4.47
431.643	4.21
432.003	4.13
432.363	4.37
432.722	4.13
433.082	4.44
433.442	4.25
433.802	4.04
434.161	4.27
434.521	4.39
434.881	4.26
435.24	4.18
435.6	4.31
435.959	4.21
436.319	4.14
436.678	4.29
437.037	4.16
437.396	4.39
437.756	4.4
438.115	4.21
438.474	4.4
438.833	4.23
439.192	4.16
439.551	4.43
439.91	4.4
440.269	4.4
440.628	4.29
440.987	4.21
441.345	4.22
441.704	4.38
442.063	4.24
442.421	4.29
442.78	4.19
443.138	4.28
443.497	4.36
443.855	4.27
444.214	4.29
444.572	4.33
444.93	4.41
445.288	4.4
445.647	4.5
446.005	4.38
446.363	4.34
446.721	4.45
447.079	4.19
447.437	4.23
447.795	4.3
448.153	4.27
448.51	4.37
448.868	4.39
449.226	4.32
449.584	4.28
449.941	4.49
450.299	4.41
450.656	4.34
451.014	4.43
451.371	4.3
451.729	4.23
452.086	4.46
452.443	4.36
452.801	4.48
453.158	4.39
453.515	4.4
453.872	4.48
454.229	4.35
454.586	4.31
454.943	4.37
455.3	4.54
455.657	4.33
456.014	4.47
456.371	4.34
456.727	4.39
457.084	4.72
457.441	4.4
457.797	4.48
458.154	4.59
458.51	4.42
458.867	4.6
459.223	4.64
459.58	4.55
459.936	4.52
460.292	4.54
460.648	4.39
461.005	4.49
461.361	4.52
461.717	4.47
462.073	4.38
462.429	4.48
462.785	4.46
463.141	4.43
463.496	4.6
463.852	4.52
464.208	4.58
464.564	4.61
464.919	4.45
465.275	4.62
465.631	4.79
465.986	4.62
466.342	4.59
466.697	4.4
467.052	4.47
467.408	4.71
467.763	4.55
468.118	4.58
468.473	4.51
468.829	4.68
469.184	4.58
469.539	4.55
469.894	4.43
470.249	4.71
470.603	4.52
470.958	4.57
471.313	4.73
471.668	4.68
472.023	4.57
472.377	4.48
472.732	4.56
473.086	4.55
473.441	4.57
473.795	4.69
474.15	4.67
474.504	4.59
474.859	4.68
475.213	4.49
475.567	4.56
475.921	4.56
476.275	4.65
476.63	4.72
476.984	4.77
477.338	4.72
477.692	4.51
478.045	4.62
478.399	4.63
478.753	4.75
479.107	4.57
479.461	4.64
479.814	4.73
480.168	4.64
480.521	4.67
480.875	4.66
481.228	4.62
481.582	4.55
481.935	4.62
482.289	4.72
482.642	4.6
482.995	4.68
483.348	4.64
483.701	4.65
484.055	4.65
484.408	4.64
484.761	4.56
485.114	4.49
485.466	4.36
485.819	4.36
486.172	4.41
486.525	4.47
486.878	4.52
487.23	4.59
487.583	4.67
487.936	4.67
488.288	4.62
488.641	4.6
488.993	4.49
489.345	4.44
489.698	4.46
490.05	4.43
490.402	4.55
490.754	4.54
491.107	4.68
491.459	4.69
491.811	4.7
492.163	4.73
492.515	4.73
492.866	4.67
493.218	4.63
493.57	4.55
493.922	4.56
494.274	4.64
494.625	4.73
494.977	4.72
495.328	4.83
495.68	4.82
496.031	4.9
496.383	4.82
496.734	5.01
497.086	4.89
497.437	4.81
497.788	4.63
498.139	4.75
498.49	4.88
498.842	4.75
499.193	4.81
499.544	4.8
499.894	4.81
500.245	4.86
500.596	4.73
500.947	4.87
501.298	4.96
501.648	4.95
501.999	5.11
502.35	4.86
502.7	4.87
503.051	4.72
503.401	4.86
503.752	5.13
504.102	4.83
504.452	4.9
504.803	4.91
505.153	4.79
505.503	4.93
505.853	4.77
506.203	4.95
506.553	4.9
506.903	4.88
507.253	4.97
507.603	4.86
507.953	4.96
508.303	5.11
508.652	4.77
509.002	4.97
509.352	5.02
509.701	4.88
510.051	5
510.4	5.03
510.75	4.9
511.099	5.01
511.449	4.99
511.798	5.01
512.147	4.98
512.496	4.99
512.846	4.98
513.195	5.02
513.544	4.91
513.893	5.06
514.242	4.9
514.591	5.13
514.939	4.9
515.288	4.97
515.637	5.09
515.986	4.99
516.334	5.07
516.683	5.1
517.032	5.02
517.38	4.99
517.729	5.2
518.077	4.98
518.426	5.13
518.774	5.1
519.122	4.94
519.47	4.96
519.819	4.82
520.167	4.99
520.515	4.96
520.863	4.95
521.211	5.06
521.559	4.99
521.907	4.93
522.255	4.96
522.602	5.05
522.95	5.01
523.298	4.99
523.645	5.13
523.993	5.03
524.341	5.18
524.688	5.02
525.036	4.95
525.383	5.07
525.73	5.19
526.078	5.15
526.425	5.01
526.772	5
527.119	4.95
527.466	4.92
527.814	5.02
528.161	5.03
528.508	5.17
528.854	5.02
529.201	5.02
529.548	4.87
529.895	4.9
530.242	4.87
530.588	4.84
530.935	4.82
531.282	4.87
531.628	4.91
531.975	5.03
532.321	5.01
532.667	5.08
533.014	5.08
533.36	5.08
533.706	5.09
534.052	5.14
534.399	5.03
534.745	4.96
535.091	4.97
535.437	5
535.783	4.95
536.129	5.06
536.474	5.17
536.82	5.1
537.166	5.11
537.512	5.32
537.857	5.18
538.203	5.2
538.549	5.05
538.894	5.13
539.239	5.11
539.585	5.11
539.93	5.2
540.276	5.25
540.621	5.36
540.966	5.28
541.311	5.02
541.656	5.09
542.001	5.23
542.346	5.19
542.691	5.14
543.036	5.01
543.381	4.97
543.726	5.03
544.071	5.12
544.415	5.17
544.76	5.18
545.105	5.21
545.449	5.24
545.794	5.21
546.138	5.27
546.483	5.27
546.827	5.29
547.171	5.15
547.516	5.43
547.86	5.36
548.204	5.25
548.548	5.2
548.892	5.37
549.236	5.23
549.58	5.16
549.924	5.36
550.268	5.44
550.612	5.39
550.956	5.54
551.3	5.4
551.643	5.36
551.987	5.56
552.33	5.38
552.674	5.38
553.017	5.36
553.361	5.39
553.704	5.65
554.048	5.35
554.391	5.44
554.734	5.31
555.077	5.41
555.42	5.28
555.764	5.34
556.107	5.41
556.45	5.28
556.793	5.44
557.135	5.59
557.478	5.5
557.821	5.55
558.164	5.34
558.507	5.46
558.849	5.49
559.192	5.5
559.534	5.43
559.877	5.64
560.219	5.42
560.562	5.88
560.904	5.64
561.246	5.55
561.589	5.55
561.931	5.65
562.273	5.55
562.615	5.66
562.957	5.69
563.299	5.36
563.641	5.38
563.983	5.73
564.325	5.34
564.667	5.45
565.008	5.53
565.35	5.31
565.692	5.38
566.033	5.62
566.375	5.71
566.716	5.63
567.058	5.58
567.399	5.59
567.741	5.41
568.082	5.54
568.423	5.46
568.764	5.57
569.105	5.57
569.447	5.63
569.788	5.59
570.129	5.61
570.47	5.48
570.811	5.7
571.151	5.66
571.492	5.71
571.833	5.64
572.174	5.64
572.514	5.57
572.855	5.62
573.195	5.62
573.536	5.53
573.876	5.44
574.217	5.58
574.557	5.69
574.898	5.8
575.238	5.72
575.578	5.47
575.918	5.76
576.258	5.64
576.598	5.72
576.938	5.52
577.278	5.68
577.618	5.67
577.958	5.6
578.298	5.67
578.638	5.61
578.977	5.68
579.317	5.48
579.657	5.67
579.996	5.7
580.336	5.76
580.675	5.67
581.014	5.78
581.354	5.73
581.693	5.9
582.032	5.93
582.372	5.73
582.711	5.55
583.05	5.57
583.389	5.7
583.728	5.54
584.067	6.07
584.406	5.65
584.745	5.59
585.083	5.92
585.422	5.85
585.761	6.16
586.1	5.71
586.438	5.7
586.777	5.88
587.115	5.9
587.454	5.74
587.792	5.74
588.13	5.82
588.469	5.71
588.807	5.81
589.145	5.91
589.483	5.76
589.821	5.74
590.159	5.64
590.497	6.11
590.835	6.12
591.173	5.91
591.511	5.97
591.849	5.84
592.187	6.07
592.524	5.88
592.862	5.82
593.2	5.99
593.537	5.92
593.875	5.72
594.212	5.64
594.55	5.95
594.887	5.89
595.224	5.99
595.561	5.92
595.899	5.94
596.236	5.95
596.573	6.04
596.91	5.44
597.247	6.11
597.584	5.96
597.921	5.72
598.258	5.89
598.594	5.81
598.931	5.6
599.268	5.93
599.604	5.75
599.941	6
600.277	5.79
600.614	5.87
600.95	5.69
601.287	5.8
601.623	5.81
601.959	5.96
602.296	5.94
602.632	5.67
602.968	6.03
603.304	6.22
603.64	5.93
603.976	6.12
604.312	5.64
604.648	5.73
604.984	6.1
605.319	6.03
605.655	5.94
605.991	5.83
606.326	6.1
606.662	5.94
606.998	5.9
607.333	6.05
607.668	5.93
608.004	5.91
608.339	6.39
608.674	6.32
609.01	6
609.345	5.81
609.68	6.07
610.015	5.8
610.35	5.96
610.685	6.06
611.02	5.97
611.355	6.08
611.689	6
612.024	6.21
612.359	6.06
612.694	6.09
613.028	5.99
613.363	6.19
613.697	6.21
614.032	6.48
614.366	6.19
614.7	6.09
615.035	6.21
615.369	6.23
615.703	6.2
616.037	5.88
616.371	5.94
616.705	6.25
617.039	6.57
617.373	6.11
617.707	5.74
618.041	6.24
618.375	6.25
618.709	6.43
619.042	6.04
619.376	6.74
619.71	6.39
620.043	6.24
620.377	6.2
620.71	6.19
621.043	6.14
621.377	6.33
621.71	6.35
622.043	6.25
622.376	6.12
622.709	6.32
623.043	6.32
623.376	6.41
623.709	6.25
624.041	6.45
624.374	6.39
624.707	6.17
625.04	6.28
625.373	5.84
625.705	6.21
626.038	6.5
626.37	6.09
626.703	6
627.035	6.47
627.368	6.78
627.7	6.11
628.032	6.3
628.365	6.63
628.697	6.39
629.029	5.96
629.361	6.27
629.693	6.47
630.025	6.13
630.357	6.62
630.689	6.57
631.021	6.16
631.353	6.63
631.684	6.23
632.016	5.98
632.348	6.44
632.679	6.47
633.011	6.43
633.342	6.29
633.674	6.46
634.005	6.68
634.336	6.08
634.668	6.72
634.999	6.28
635.33	6.78
635.661	6.86
635.992	6.44
636.323	6.34
636.654	6.7
636.985	6.42
637.316	6.31
637.647	6.22
637.977	6.61
638.308	6.74
638.639	5.51
638.969	6.63
639.3	6.34
639.63	5.94
639.961	6.6
640.291	6.57
640.622	6.93
640.952	6.24
641.282	6.76
641.612	6.43
641.943	6.42
642.273	6.74
642.603	6.59
642.933	6.36
643.263	6.27
643.592	6.62
643.922	6.37
644.252	6.45
644.582	6.72
644.911	6.76
645.241	6.52
645.571	6.39
645.9	6.27
646.23	6.36
646.559	6.46
646.888	6.13
647.218	6.53
647.547	6.82
647.876	6.06
648.205	6.92
648.534	6.85
648.863	6.36
649.192	6.41
649.521	6.64
649.85	6.47
650.179	6.54
650.508	6.28
650.837	6.62
651.165	6.47
651.494	6.98
651.822	6.58
652.151	6.44
652.479	6.84
652.808	6.57
653.136	6.68
653.465	5.99
653.793	5.97
654.121	6.49
654.449	6.89
654.777	6.69
655.105	6.87
655.433	6.19
655.761	6.85
656.089	6.85
656.417	6.93
656.745	6.52
657.073	6.63
657.4	7.71
657.728	7.06
658.056	6.99
658.383	6.66
658.711	6.84
659.038	7.4
659.365	6.76
659.693	6.36
660.02	6.83
660.347	6.88
660.674	6.29
661.001	7.1
661.329	6.17
661.656	6.97
661.982	7.04
662.309	6.53
662.636	6.49
662.963	6.88
663.29	6.75
663.616	6.83
663.943	6.32
664.27	6.75
664.596	6.96
664.923	6.74
665.249	6.8
665.576	7.32
665.902	7.14
666.228	7.21
666.554	7.29
666.881	6.75
667.207	7.09
667.533	6.99
667.859	7.22
668.185	7
668.511	6.53
668.837	6.45
669.162	7.21
669.488	6.86
669.814	6.89
670.139	6.99
670.465	7.18
670.791	7.4
671.116	7.49
671.442	7.18
671.767	7.43
672.092	7.17
672.418	6.92
672.743	7.48
673.068	6.31
673.393	7.03
673.718	7.27
674.043	7.15
674.368	7.11
674.693	7.68
675.018	6.69
675.343	7.17
675.667	6.85
675.992	7.65
676.317	7.63
676.641	7.72
676.966	7.53
677.29	7.18
677.615	7.44
677.939	7.7
678.264	7.73
678.588	7.37
678.912	7.91
679.236	8.35
679.56	6.77
679.885	7.48
680.209	7.52
680.532	7.19
680.856	7.65
681.18	7.14
681.504	7.06
681.828	7.58
682.152	7.15
682.475	7.13
682.799	7.51
683.122	7.32
683.446	7.13
683.769	7.77
684.093	7.22
684.416	8.08
684.739	7.44
685.062	7.16
685.386	7.75
685.709	7.12
686.032	7.18
686.355	8.05
686.678	7.39
687.001	7.95
687.324	7.69
687.646	6.52
687.969	7.03
688.292	7.4
688.614	7.4
688.937	7.75
689.26	6.95
689.582	7.46
689.904	6.93
690.227	7.42
690.549	7.81
690.871	8.23
691.194	6.91
691.516	7.11
691.838	7.54
692.16	7.41
692.482	7.16
