Data from 0388_forehead_Reflection__3__89.txt Node

Date: Fri Dec 15 16:59:38 CST 2023
User: ToomeyLab
Spectrometer: FLMS14357
Trigger mode: 0
Integration Time (sec): 1.000000E-2
Scans to average: 100
Electric dark correction enabled: true
Nonlinearity correction enabled: false
Boxcar width: 0
XAxis mode: Wavelengths
Number of Pixels in Spectrum: 2048
>>>>>Begin Spectral Data<<<<<
189.047	-1.54
189.435	-1.54
189.823	-1.54
190.211	128.11
190.599	-288.88
190.987	122.22
191.375	204.2
191.763	-34.33
192.151	-131748311681600
192.538	156.81
192.926	17.16
193.314	171.71
193.702	-54.09
194.089	948.21
194.477	139.35
194.864	2075.74
195.252	129.18
195.639	123.8
196.027	-12.74
196.414	142.47
196.801	-2.44
197.189	24.2
197.576	48.66
197.963	-26.6
198.351	31.56
198.738	10.81
199.125	44.85
199.512	23.3
199.899	40.03
200.286	17.3
200.673	22.18
201.06	-2.2
201.447	5.5
201.833	39.62
202.22	39.69
202.607	66.58
202.994	-2.95
203.38	24.38
203.767	35.27
204.154	19.31
204.54	34.35
204.927	8.37
205.313	4.9
205.699	38.8
206.086	41.95
206.472	37.72
206.858	53.73
207.245	-21.18
207.631	35.33
208.017	3.74
208.403	15.39
208.789	42.07
209.175	4.02
209.561	22.01
209.947	11.17
210.333	-4.28
210.719	37.83
211.105	40.26
211.491	-27.75
211.876	22.56
212.262	15.04
212.648	-0.39
213.034	40.25
213.419	31.5
213.805	7.81
214.19	11.51
214.576	40.73
214.961	-3.32
215.346	-56.74
215.732	2.65
216.117	17.02
216.502	-8.38
216.888	31.57
217.273	38.45
217.658	5.34
218.043	39.44
218.428	-2.7
218.813	-12.74
219.198	-9.89
219.583	19.83
219.968	12.98
220.353	0.96
220.738	14.64
221.122	29.08
221.507	-31.76
221.892	-29.68
222.276	-1.68
222.661	0.5
223.046	8.06
223.43	11.6
223.815	11.88
224.199	-6.26
224.583	2.79
224.968	-1.12
225.352	15.43
225.736	-8.54
226.121	-12.83
226.505	11.54
226.889	10.7
227.273	0.26
227.657	9.85
228.041	3.41
228.425	3.7
228.809	6.45
229.193	0.75
229.577	2.39
229.961	2.89
230.344	3.42
230.728	1.73
231.112	2.54
231.495	3.48
231.879	1.81
232.263	4.73
232.646	3.83
233.03	2.77
233.413	3.53
233.797	4.16
234.18	4.4
234.563	1.89
234.946	3.76
235.33	3.98
235.713	2.68
236.096	1.04
236.479	3.52
236.862	2.66
237.245	3.16
237.628	2.87
238.011	2.61
238.394	3.54
238.777	1.68
239.16	1.48
239.543	3.18
239.925	4.42
240.308	3.25
240.691	6.17
241.073	5.39
241.456	3.7
241.838	2.79
242.221	2.67
242.603	3.62
242.986	3.09
243.368	2.85
243.75	3.44
244.133	2.65
244.515	3.18
244.897	3.25
245.279	3.05
245.661	2.43
246.043	1.26
246.425	1.02
246.807	3.8
247.189	3.45
247.571	2.93
247.953	3.67
248.335	2.51
248.717	2.74
249.098	2.68
249.48	2.73
249.862	2.68
250.243	2.56
250.625	2.78
251.006	2.71
251.388	1.94
251.769	3.67
252.151	4.19
252.532	1.63
252.913	2.79
253.295	2.62
253.676	2.48
254.057	2.98
254.438	3.38
254.819	2
255.2	2.92
255.581	4.2
255.962	3.94
256.343	3.27
256.724	2.85
257.105	2.24
257.486	3.03
257.867	3.81
258.247	2.86
258.628	2.65
259.009	3.19
259.389	3.21
259.77	2.9
260.15	1.85
260.531	2.37
260.911	3.36
261.292	2.76
261.672	3.02
262.052	2.8
262.432	3.24
262.813	2.72
263.193	2.36
263.573	2.13
263.953	3.53
264.333	3.48
264.713	3.26
265.093	2.54
265.473	2.71
265.853	2.52
266.233	2.69
266.612	1.33
266.992	1.18
267.372	2.84
267.752	2.96
268.131	2.96
268.511	3.62
268.89	2.83
269.27	2.93
269.649	2.89
270.029	2.22
270.408	3.44
270.787	3.36
271.167	4.09
271.546	3.4
271.925	2.18
272.304	2.28
272.683	2.95
273.062	2.12
273.441	3.12
273.82	2.78
274.199	3.26
274.578	2.87
274.957	3.01
275.336	2.8
275.715	3.04
276.093	3.04
276.472	3.15
276.851	2.8
277.229	2.25
277.608	2.72
277.986	3.25
278.365	2.58
278.743	2.72
279.122	2.5
279.5	2.87
279.878	3.67
280.257	2.53
280.635	2.76
281.013	2.57
281.391	3.02
281.769	2.94
282.147	2.6
282.525	3.46
282.903	2.75
283.281	3.53
283.659	3.01
284.037	2.96
284.415	2.93
284.792	3.13
285.17	2.59
285.548	2.53
285.925	2.77
286.303	3.06
286.68	2.86
287.058	3.43
287.435	3.14
287.813	2.9
288.19	2.94
288.567	2.86
288.945	3.19
289.322	2.99
289.699	3.02
290.076	2.43
290.453	2.86
290.83	2.52
291.207	2.99
291.584	2.57
291.961	3.44
292.338	3.08
292.715	3.33
293.092	3.18
293.469	3.1
293.845	3.12
294.222	3.05
294.599	3
294.975	2.74
295.352	3.46
295.728	3.22
296.105	3.15
296.481	3.58
296.858	3.4
297.234	3.25
297.61	3.37
297.986	3.63
298.363	3.25
298.739	3.24
299.115	3.21
299.491	3.29
299.867	3.15
300.243	3.28
300.619	3.05
300.995	3.55
301.371	3.95
301.746	3.46
302.122	4.01
302.498	3.14
302.874	3.85
303.249	3.75
303.625	4.03
304	3.79
304.376	3.72
304.751	3.53
305.127	4.11
305.502	3.56
305.878	3.58
306.253	3.77
306.628	4.24
307.003	4.2
307.378	4.18
307.754	4.35
308.129	3.42
308.504	3.81
308.879	3.66
309.254	4.61
309.629	4.74
310.003	4.32
310.378	4.51
310.753	4.6
311.128	4.48
311.502	3.9
311.877	4.4
312.252	3.75
312.626	3.88
313.001	4.32
313.375	4.19
313.75	4.06
314.124	4.43
314.498	4.37
314.873	4.28
315.247	4.23
315.621	4.1
315.995	4.16
316.369	4.33
316.743	3.99
317.117	4.6
317.491	4.32
317.865	4.49
318.239	4.36
318.613	4.41
318.987	5.12
319.361	4.53
319.734	4.88
320.108	5.11
320.482	4.65
320.855	5.34
321.229	5.01
321.602	4.78
321.976	4.65
322.349	5.18
322.723	4.53
323.096	4.85
323.469	4.32
323.843	4.69
324.216	5.25
324.589	5.02
324.962	4.82
325.335	5.08
325.708	4.9
326.081	5.02
326.454	4.75
326.827	5
327.2	5.48
327.573	4.98
327.945	5.03
328.318	5.21
328.691	4.85
329.063	5
329.436	5.19
329.809	5.69
330.181	5.24
330.553	5.14
330.926	4.92
331.298	5.59
331.671	4.57
332.043	5.59
332.415	5.8
332.787	5.38
333.159	6.16
333.532	6.08
333.904	5.64
334.276	5.79
334.648	5.1
335.02	5.6
335.391	5.8
335.763	5.69
336.135	5.39
336.507	5.55
336.879	5.29
337.25	5.7
337.622	5.92
337.993	5.32
338.365	5.79
338.736	6.27
339.108	6.12
339.479	5.88
339.851	5.96
340.222	5.66
340.593	5.9
340.964	5.58
341.336	6.46
341.707	5.39
342.078	6.06
342.449	6.27
342.82	5.68
343.191	6.07
343.562	6.08
343.933	6.02
344.303	6.01
344.674	5.44
345.045	5.51
345.416	6.19
345.786	5.3
346.157	5.95
346.527	5.61
346.898	5.82
347.268	6.44
347.639	5.97
348.009	6.41
348.38	6.12
348.75	6.23
349.12	6.24
349.49	6.42
349.861	6.07
350.231	5.9
350.601	6.51
350.971	6.06
351.341	6.29
351.711	6.63
352.081	6.34
352.45	5.63
352.82	6.28
353.19	6.07
353.56	5.88
353.929	6.49
354.299	6.3
354.669	5.98
355.038	6.67
355.408	6.4
355.777	6.17
356.147	6.35
356.516	6.53
356.885	6.59
357.254	6.67
357.624	6.84
357.993	6.65
358.362	6.34
358.731	6.16
359.1	6.61
359.469	6.59
359.838	6.55
360.207	6.68
360.576	6.67
360.945	6.78
361.314	7.17
361.682	6.58
362.051	6.64
362.42	7.18
362.788	6.57
363.157	6.9
363.525	6.97
363.894	6.98
364.262	7.05
364.631	6.75
364.999	7.07
365.367	6.54
365.735	7.46
366.104	7.1
366.472	7.07
366.84	6.68
367.208	6.95
367.576	7.28
367.944	7.53
368.312	7
368.68	6.82
369.048	7.15
369.416	7.1
369.783	7.07
370.151	7.32
370.519	7.25
370.886	7.49
371.254	7.05
371.621	7.49
371.989	7.59
372.356	6.92
372.724	7.2
373.091	7.16
373.458	7.32
373.826	7.62
374.193	7.69
374.56	7.65
374.927	7.59
375.294	7.51
375.661	7.4
376.028	7.41
376.395	7.29
376.762	7.67
377.129	7.61
377.496	7.59
377.863	7.63
378.229	7.39
378.596	8.1
378.963	7.79
379.329	7.42
379.696	7.9
380.062	8.04
380.429	7.74
380.795	7.44
381.161	8.05
381.528	8.33
381.894	8.2
382.26	7.76
382.626	8.09
382.993	7.92
383.359	8.38
383.725	7.89
384.091	8.23
384.457	8.4
384.823	8.09
385.188	8.19
385.554	8.01
385.92	8.28
386.286	8.58
386.651	8.46
387.017	8.7
387.383	8.26
387.748	8.09
388.114	8.33
388.479	8.38
388.845	8.62
389.21	8.5
389.575	8.5
389.94	8.46
390.306	8.38
390.671	9.09
391.036	8.32
391.401	8.04
391.766	8.51
392.131	8.72
392.496	8.56
392.861	8.41
393.226	8.54
393.591	8.57
393.956	8.44
394.32	8.56
394.685	8.69
395.05	8.78
395.414	8.91
395.779	8.62
396.143	8.71
396.508	8.74
396.872	8.81
397.236	9.02
397.601	8.5
397.965	9.2
398.329	8.82
398.694	8.96
399.058	8.74
399.422	8.77
399.786	8.99
400.15	8.82
400.514	9.21
400.878	9.02
401.242	9.36
401.605	9.15
401.969	9.12
402.333	9.01
402.697	9.3
403.06	9.33
403.424	9.32
403.787	9.36
404.151	9.53
404.514	9.39
404.878	9.1
405.241	9.49
405.604	9.31
405.968	9.15
406.331	9.24
406.694	9.49
407.057	9.51
407.42	9.36
407.783	9.32
408.146	9.55
408.509	9.45
408.872	9.17
409.235	9.43
409.598	9.62
409.961	9.37
410.323	9.7
410.686	9.46
411.049	9.45
411.411	9.38
411.774	9.52
412.136	9.45
412.499	9.55
412.861	10.06
413.223	9.69
413.586	9.72
413.948	9.73
414.31	9.95
414.672	9.58
415.035	9.78
415.397	10.16
415.759	9.68
416.121	9.83
416.483	9.92
416.845	9.9
417.206	9.97
417.568	9.96
417.93	9.76
418.292	9.92
418.653	9.77
419.015	9.86
419.377	9.82
419.738	10.1
420.1	9.82
420.461	9.98
420.822	10.03
421.184	9.82
421.545	9.88
421.906	9.94
422.267	9.97
422.629	9.9
422.99	9.92
423.351	9.92
423.712	9.99
424.073	10.06
424.434	10.17
424.795	10.11
425.155	10.05
425.516	10.1
425.877	9.91
426.238	10.01
426.598	10.15
426.959	10.26
427.32	10.17
427.68	10.3
428.041	10.38
428.401	10.54
428.761	10.52
429.122	10.73
429.482	10.52
429.842	10.71
430.202	10.56
430.563	10.67
430.923	10.36
431.283	10.69
431.643	10.68
432.003	10.49
432.363	10.73
432.722	10.57
433.082	10.72
433.442	10.61
433.802	10.64
434.161	10.59
434.521	10.83
434.881	10.85
435.24	10.65
435.6	10.76
435.959	10.86
436.319	10.9
436.678	10.9
437.037	10.87
437.396	11.03
437.756	10.99
438.115	10.97
438.474	11.07
438.833	10.79
439.192	10.94
439.551	11.25
439.91	11.03
440.269	10.91
440.628	11
440.987	11.08
441.345	10.89
441.704	11.03
442.063	11.1
442.421	11.08
442.78	11.08
443.138	11.01
443.497	11.23
443.855	11.14
444.214	11.32
444.572	11.48
444.93	11.37
445.288	11.44
445.647	11.41
446.005	11.19
446.363	11.44
446.721	11.43
447.079	11.03
447.437	11.12
447.795	11.14
448.153	11.18
448.51	11.26
448.868	11.32
449.226	11.32
449.584	11.42
449.941	11.62
450.299	11.62
450.656	11.6
451.014	11.8
451.371	11.8
451.729	11.63
452.086	12
452.443	11.88
452.801	11.87
453.158	11.93
453.515	11.58
453.872	11.79
454.229	11.64
454.586	11.82
454.943	11.83
455.3	11.86
455.657	12
456.014	11.97
456.371	12.07
456.727	11.85
457.084	12.11
457.441	12.11
457.797	12.15
458.154	12.07
458.51	12.13
458.867	12.35
459.223	12.17
459.58	11.99
459.936	12.18
460.292	12.24
460.648	12.13
461.005	11.97
461.361	11.97
461.717	11.89
462.073	11.92
462.429	12.2
462.785	12.34
463.141	12.4
463.496	12.4
463.852	12.49
464.208	12.51
464.564	12.52
464.919	12.49
465.275	12.43
465.631	12.81
465.986	12.45
466.342	12.21
466.697	12.33
467.052	12.52
467.408	12.69
467.763	12.52
468.118	12.69
468.473	12.55
468.829	12.54
469.184	12.63
469.539	12.82
469.894	12.73
470.249	12.84
470.603	12.86
470.958	12.95
471.313	12.81
471.668	12.79
472.023	12.66
472.377	12.8
472.732	12.83
473.086	13.02
473.441	12.99
473.795	12.99
474.15	12.99
474.504	12.84
474.859	12.97
475.213	12.87
475.567	13
475.921	13.05
476.275	13.11
476.63	13.15
476.984	13.23
477.338	13.22
477.692	13.07
478.045	13.08
478.399	13.02
478.753	13.14
479.107	13.24
479.461	13.08
479.814	13.08
480.168	13.12
480.521	13.1
480.875	13.37
481.228	13.35
481.582	13.27
481.935	13.31
482.289	13.3
482.642	13.26
482.995	13.17
483.348	13.23
483.701	13.2
484.055	13.31
484.408	13.21
484.761	12.96
485.114	12.65
485.466	12.32
485.819	12.37
486.172	12.68
486.525	13.01
486.878	13.18
487.23	13.4
487.583	13.5
487.936	13.46
488.288	13.27
488.641	13.08
488.993	12.92
489.345	12.88
489.698	13
490.05	13.04
490.402	13.32
490.754	13.49
491.107	13.62
491.459	13.71
491.811	13.71
492.163	13.7
492.515	13.64
492.866	13.49
493.218	13.22
493.57	13.13
493.922	13.31
494.274	13.72
494.625	13.86
494.977	14.03
495.328	14.18
495.68	14.25
496.031	14.33
496.383	14.19
496.734	14.24
497.086	14.28
497.437	14.35
497.788	14.12
498.139	14.13
498.49	14.14
498.842	13.93
499.193	14.01
499.544	14.31
499.894	14.28
500.245	14.28
500.596	14.37
500.947	14.53
501.298	14.33
501.648	14.54
501.999	14.65
502.35	14.48
502.7	14.69
503.051	14.45
503.401	14.5
503.752	14.87
504.102	14.71
504.452	14.54
504.803	14.44
505.153	14.64
505.503	14.61
505.853	14.69
506.203	14.45
506.553	14.72
506.903	14.77
507.253	14.88
507.603	14.87
507.953	14.81
508.303	14.88
508.652	14.66
509.002	14.91
509.352	14.83
509.701	14.81
510.051	14.88
510.4	14.77
510.75	14.82
511.099	15.05
511.449	14.86
511.798	14.94
512.147	15.02
512.496	15.04
512.846	15.09
513.195	15.22
513.544	15.2
513.893	15.08
514.242	15.07
514.591	15.35
514.939	15.19
515.288	15.19
515.637	15.31
515.986	15.3
516.334	15.34
516.683	15.47
517.032	15.51
517.38	15.46
517.729	15.5
518.077	15.32
518.426	15.39
518.774	15.34
519.122	15.29
519.47	15.14
519.819	15.23
520.167	15.18
520.515	15.2
520.863	15.22
521.211	15.44
521.559	15.53
521.907	15.51
522.255	15.64
522.602	15.77
522.95	15.6
523.298	15.75
523.645	15.71
523.993	15.74
524.341	16.02
524.688	15.85
525.036	15.88
525.383	15.88
525.73	15.9
526.078	15.76
526.425	15.79
526.772	15.7
527.119	15.58
527.466	15.39
527.814	15.59
528.161	15.69
528.508	15.8
528.854	15.71
529.201	15.61
529.548	15.49
529.895	15.3
530.242	14.99
530.588	14.95
530.935	15.31
531.282	15.52
531.628	15.78
531.975	15.88
532.321	16.01
532.667	16.13
533.014	16.19
533.36	16.15
533.706	16.17
534.052	16.15
534.399	15.86
534.745	15.71
535.091	15.61
535.437	15.75
535.783	15.93
536.129	16.16
536.474	16.33
536.82	16.48
537.166	16.58
537.512	16.48
537.857	16.37
538.203	16.21
538.549	16.21
538.894	16.26
539.239	16.38
539.585	16.52
539.93	16.66
540.276	16.87
540.621	16.75
540.966	16.76
541.311	16.88
541.656	16.7
542.001	16.73
542.346	16.71
542.691	16.22
543.036	16.01
543.381	15.94
543.726	16.26
544.071	16.56
544.415	16.76
544.76	16.74
545.105	16.65
545.449	16.72
545.794	16.93
546.138	16.93
546.483	17.16
546.827	17.17
547.171	17.25
547.516	17.16
547.86	17.02
548.204	17.03
548.548	16.94
548.892	17.15
549.236	17.13
549.58	17.3
549.924	17.41
550.268	17.56
550.612	17.54
550.956	17.8
551.3	17.55
551.643	17.79
551.987	17.72
552.33	17.63
552.674	17.68
553.017	17.68
553.361	17.49
553.704	17.74
554.048	17.5
554.391	17.59
554.734	17.54
555.077	17.62
555.42	17.73
555.764	17.71
556.107	17.86
556.45	17.77
556.793	18.01
557.135	18.09
557.478	18.26
557.821	18.06
558.164	17.96
558.507	18.03
558.849	18.16
559.192	18.28
559.534	17.88
559.877	18.3
560.219	18.19
560.562	18.16
560.904	18.3
561.246	18.47
561.589	18.32
561.931	18.34
562.273	18.12
562.615	18.5
562.957	18.3
563.299	17.94
563.641	18.26
563.983	18.5
564.325	18.22
564.667	18.43
565.008	18.36
565.35	18.35
565.692	18.34
566.033	18.44
566.375	18.52
566.716	18.75
567.058	18.34
567.399	18.41
567.741	18.37
568.082	18.38
568.423	18.49
568.764	18.66
569.105	18.67
569.447	18.79
569.788	18.85
570.129	18.67
570.47	18.83
570.811	18.86
571.151	18.89
571.492	18.85
571.833	18.89
572.174	18.91
572.514	18.89
572.855	19.05
573.195	18.88
573.536	18.76
573.876	18.64
574.217	18.7
574.557	18.99
574.898	19.07
575.238	19.05
575.578	19.03
575.918	19.47
576.258	19.31
576.598	19.13
576.938	19.18
577.278	19.08
577.618	19.01
577.958	19.11
578.298	19.17
578.638	19.28
578.977	19.26
579.317	19.4
579.657	19.37
579.996	19.62
580.336	19.49
580.675	19.59
581.014	19.68
581.354	19.43
581.693	19.81
582.032	19.5
582.372	19.57
582.711	19.48
583.05	19.53
583.389	19.68
583.728	19.5
584.067	19.71
584.406	19.83
584.745	19.73
585.083	19.98
585.422	19.91
585.761	20.01
586.1	19.94
586.438	19.96
586.777	19.81
587.115	20.43
587.454	20.12
587.792	19.83
588.13	20.29
588.469	19.99
588.807	20.05
589.145	20.09
589.483	20.08
589.821	20.08
590.159	20.03
590.497	20.27
590.835	20.55
591.173	20.32
591.511	20.32
591.849	20.12
592.187	20.36
592.524	20.41
592.862	20.01
593.2	20.37
593.537	20.36
593.875	20.24
594.212	20.28
594.55	20.5
594.887	20.4
595.224	20.43
595.561	20.31
595.899	20.49
596.236	20.33
596.573	20.38
596.91	20.28
597.247	20.54
597.584	20.78
597.921	20.74
598.258	20.25
598.594	20.46
598.931	20.25
599.268	20.45
599.604	20.62
599.941	20.89
600.277	20.95
600.614	20.71
600.95	20.73
601.287	21.14
601.623	20.89
601.959	20.84
602.296	20.95
602.632	21
602.968	20.95
603.304	20.92
603.64	20.73
603.976	21.08
604.312	20.79
604.648	20.57
604.984	20.98
605.319	20.81
605.655	20.81
605.991	21.01
606.326	20.93
606.662	20.86
606.998	20.57
607.333	20.97
607.668	21.33
608.004	21.31
608.339	21.69
608.674	21.44
609.01	21.01
609.345	21.03
609.68	21.76
610.015	21.49
610.35	21.08
610.685	21.06
611.02	21.3
611.355	21.3
611.689	21.44
612.024	21.25
612.359	21.41
612.694	21.52
613.028	21.48
613.363	21.76
613.697	21.87
614.032	21.74
614.366	21.54
614.7	21.94
615.035	21.68
615.369	21.74
615.703	21.74
616.037	22.02
616.371	21.57
616.705	21.67
617.039	22.03
617.373	21.72
617.707	21.66
618.041	21.89
618.375	22.09
618.709	22.2
619.042	21.8
619.376	22.01
619.71	22.06
620.043	21.82
620.377	21.89
620.71	21.83
621.043	21.96
621.377	22.31
621.71	22.11
622.043	21.95
622.376	21.94
622.709	22.37
623.043	21.65
623.376	21.99
623.709	22.47
624.041	22.53
624.374	22.07
624.707	21.97
625.04	22.72
625.373	21.8
625.705	22.05
626.038	22.09
626.37	22
626.703	22.32
627.035	22.39
627.368	22.5
627.7	22.43
628.032	22.19
628.365	22.53
628.697	22.17
629.029	22.15
629.361	22.71
629.693	22.17
630.025	22.48
630.357	22.99
630.689	22.68
631.021	22.4
631.353	22.98
631.684	22.4
632.016	22.58
632.348	22.71
632.679	22.6
633.011	22.68
633.342	23.04
633.674	23.18
634.005	23.18
634.336	22.9
634.668	23.5
634.999	22.13
635.33	22.87
635.661	22.98
635.992	22.75
636.323	23.09
636.654	23.22
636.985	22.9
637.316	23.05
637.647	23.1
637.977	23.42
638.308	23.03
638.639	22.81
638.969	22.96
639.3	22.79
639.63	22.7
639.961	23.28
640.291	23.19
640.622	23.4
640.952	23.08
641.282	23.67
641.612	22.95
641.943	22.86
642.273	23.19
642.603	23.27
642.933	23.79
643.263	23.58
643.592	23.27
643.922	23.03
644.252	22.93
644.582	23.3
644.911	23.19
645.241	23.47
645.571	23.6
645.9	23.48
646.23	23.52
646.559	24.21
646.888	23.16
647.218	23.74
647.547	23.89
647.876	23.36
648.205	23.68
648.534	23.44
648.863	23.32
649.192	23.64
649.521	23.45
649.85	23.19
650.179	23.79
650.508	23.74
650.837	23.44
651.165	23.91
651.494	23.47
651.822	23.75
652.151	23.65
652.479	23.82
652.808	24.09
653.136	23.79
653.465	23.78
653.793	23.5
654.121	23.66
654.449	23.47
654.777	24.16
655.105	23.96
655.433	23.8
655.761	24.25
656.089	24.2
656.417	24.2
656.745	23.56
657.073	23.63
657.4	24.49
657.728	23.94
658.056	24.11
658.383	24.32
658.711	24.36
659.038	24.57
659.365	24.35
659.693	24.41
660.02	24.38
660.347	24.15
660.674	24.28
661.001	24.19
661.329	23.48
661.656	24.11
661.982	24.34
662.309	24.41
662.636	24.01
662.963	24.63
663.29	24.83
663.616	24.79
663.943	23.94
664.27	24.66
664.596	24.48
664.923	25.35
665.249	24.89
665.576	24.62
665.902	24.92
666.228	23.93
666.554	24.81
666.881	24.89
667.207	24.59
667.533	25.06
667.859	25.41
668.185	24.66
668.511	24.46
668.837	24.27
669.162	24.92
669.488	24.34
669.814	25.1
670.139	24.59
670.465	25.45
670.791	24.67
671.116	25.26
671.442	25.09
671.767	25.12
672.092	25.47
672.418	25.57
672.743	25.2
673.068	24.61
673.393	24.8
673.718	24.93
674.043	24.77
674.368	25.17
674.693	25.92
675.018	24.89
675.343	25.05
675.667	25.12
