Data from 0388_chest_Reflection__3__79.txt Node

Date: Fri Dec 15 16:57:27 CST 2023
User: ToomeyLab
Spectrometer: FLMS14357
Trigger mode: 0
Integration Time (sec): 1.000000E-2
Scans to average: 100
Electric dark correction enabled: true
Nonlinearity correction enabled: false
Boxcar width: 0
XAxis mode: Wavelengths
Number of Pixels in Spectrum: 2048
>>>>>Begin Spectral Data<<<<<
189.047	34.16
189.435	34.16
189.823	34.16
190.211	212.29
190.599	-61.95
190.987	111.05
191.375	82.97
191.763	-46.69
192.151	-187462771845700
192.538	111.98
192.926	35.6
193.314	141.83
193.702	137.5
194.089	-520.24
194.477	-58.95
194.864	1125
195.252	83.96
195.639	135.71
196.027	-238.45
196.414	61.27
196.801	10.87
197.189	32
197.576	-274.7
197.963	-12.53
198.351	-2.21
198.738	3.85
199.125	12.78
199.512	15.76
199.899	-18.47
200.286	19.92
200.673	30.48
201.06	-10.8
201.447	-29.96
201.833	38.61
202.22	30.18
202.607	35.81
202.994	12.98
203.38	2.32
203.767	14.17
204.154	40.93
204.54	44.91
204.927	7.69
205.313	11.41
205.699	31.44
206.086	34.59
206.472	23.23
206.858	25.48
207.245	-27.77
207.631	11.68
208.017	16.73
208.403	-26.23
208.789	53.47
209.175	-0.78
209.561	16.68
209.947	55.98
210.333	-2.17
210.719	14.19
211.105	31.72
211.491	29.62
211.876	12.07
212.262	17.54
212.648	-4.61
213.034	21.9
213.419	0.15
213.805	24.04
214.19	10.12
214.576	24.78
214.961	11.65
215.346	-31.68
215.732	-30.19
216.117	37.23
216.502	1.81
216.888	49.76
217.273	27.1
217.658	13.58
218.043	23.41
218.428	12
218.813	-4.61
219.198	-17.78
219.583	14.07
219.968	14.81
220.353	0.51
220.738	22.84
221.122	16.46
221.507	-8.91
221.892	-16.69
222.276	1.97
222.661	8.36
223.046	23.56
223.43	9.59
223.815	8.81
224.199	-15.75
224.583	-5.66
224.968	8.59
225.352	5.89
225.736	-0.76
226.121	-6.28
226.505	7.43
226.889	6.48
227.273	-1.03
227.657	5.17
228.041	2.63
228.425	-0.83
228.809	5.6
229.193	2.79
229.577	1.98
229.961	2.52
230.344	2.33
230.728	2.12
231.112	2.52
231.495	2.16
231.879	1.49
232.263	1.31
232.646	3.11
233.03	2.43
233.413	3.46
233.797	3.87
234.18	1.82
234.563	3.93
234.946	2.13
235.33	4.13
235.713	2.65
236.096	3.69
236.479	2.7
236.862	2.05
237.245	4.54
237.628	1.12
238.011	4.34
238.394	2.52
238.777	1.27
239.16	2.54
239.543	1.97
239.925	2.67
240.308	3.42
240.691	3.64
241.073	4.27
241.456	1.84
241.838	2.62
242.221	2.16
242.603	2.69
242.986	2.18
243.368	2.78
243.75	2.88
244.133	2.34
244.515	2.82
244.897	2.88
245.279	2.51
245.661	1.57
246.043	0.54
246.425	1.68
246.807	3.75
247.189	2.4
247.571	2.77
247.953	2.43
248.335	2.16
248.717	2.41
249.098	2.22
249.48	2.49
249.862	2.44
250.243	2.44
250.625	2.55
251.006	2.85
251.388	1.94
251.769	4.12
252.151	3.84
252.532	2.28
252.913	1.48
253.295	2.67
253.676	2.33
254.057	3.13
254.438	1.98
254.819	2.38
255.2	1.19
255.581	2.67
255.962	2.23
256.343	3.03
256.724	2.05
257.105	2.62
257.486	2.26
257.867	3.16
258.247	3.64
258.628	1.88
259.009	2.12
259.389	2.31
259.77	2.7
260.15	1.8
260.531	1.98
260.911	2.73
261.292	2.25
261.672	2.8
262.052	2.3
262.432	2.74
262.813	2.71
263.193	2.37
263.573	1.87
263.953	1.73
264.333	2.2
264.713	2.39
265.093	2.46
265.473	2.74
265.853	1.68
266.233	2.78
266.612	1.01
266.992	0.97
267.372	2.02
267.752	2.36
268.131	2.02
268.511	2.7
268.89	2.68
269.27	2.22
269.649	1.97
270.029	2.26
270.408	3.37
270.787	2.54
271.167	3.12
271.546	3.09
271.925	2.47
272.304	2.82
272.683	2.62
273.062	2.42
273.441	2.89
273.82	1.62
274.199	2.32
274.578	2.62
274.957	2.4
275.336	2.62
275.715	2.24
276.093	2.53
276.472	2.39
276.851	2.58
277.229	2.54
277.608	1.61
277.986	2.42
278.365	2.58
278.743	2.17
279.122	2.22
279.5	2.38
279.878	2.44
280.257	2.29
280.635	2.69
281.013	2.54
281.391	3.11
281.769	2.56
282.147	3.06
282.525	2.61
282.903	2.51
283.281	2.55
283.659	3.15
284.037	2.75
284.415	2.69
284.792	3.07
285.17	1.91
285.548	1.9
285.925	2.39
286.303	2.15
286.68	1.96
287.058	2.11
287.435	1.92
287.813	2.36
288.19	2.91
288.567	2.55
288.945	2.64
289.322	2.26
289.699	2.89
290.076	2.31
290.453	2.63
290.83	2.22
291.207	2.17
291.584	2.68
291.961	2.8
292.338	2.73
292.715	2.5
293.092	2.74
293.469	2.29
293.845	2.64
294.222	1.68
294.599	2.39
294.975	2
295.352	2.57
295.728	2.06
296.105	2.35
296.481	2.83
296.858	2.56
297.234	2.51
297.61	2.79
297.986	2.58
298.363	2.75
298.739	2.48
299.115	2.19
299.491	2.16
299.867	2.17
300.243	2.54
300.619	2.52
300.995	2.3
301.371	2.88
301.746	2.64
302.122	2.87
302.498	2.52
302.874	2.7
303.249	2.76
303.625	2.96
304	2.69
304.376	2.85
304.751	1.84
305.127	3.64
305.502	2.13
305.878	2.5
306.253	3.08
306.628	3.13
307.003	2.36
307.378	3.37
307.754	2.73
308.129	2.06
308.504	2.46
308.879	2.05
309.254	3.24
309.629	3.33
310.003	2.74
310.378	3.37
310.753	2.66
311.128	2.73
311.502	2.68
311.877	2.95
312.252	2.42
312.626	2.64
313.001	2.3
313.375	2.67
313.75	2.23
314.124	2.63
314.498	2.7
314.873	2.2
315.247	2.05
315.621	3.19
315.995	2.44
316.369	2.59
316.743	2.67
317.117	2.93
317.491	3.01
317.865	2.69
318.239	2.64
318.613	2.73
318.987	2.68
319.361	1.91
319.734	3.63
320.108	3.14
320.482	2.9
320.855	3.06
321.229	2.37
321.602	2.43
321.976	3.14
322.349	2.95
322.723	2.43
323.096	3.03
323.469	2.13
323.843	2.95
324.216	2.95
324.589	2.62
324.962	2.9
325.335	2.9
325.708	2.45
326.081	2.81
326.454	3.09
326.827	2.31
327.2	2.98
327.573	3.09
327.945	3.21
328.318	2.98
328.691	2.68
329.063	2.79
329.436	2.85
329.809	3.01
330.181	3.18
330.553	2.06
330.926	3.38
331.298	2.68
331.671	2.75
332.043	3.42
332.415	2.62
332.787	2.76
333.159	3.14
333.532	2.89
333.904	2.85
334.276	2.64
334.648	2.83
335.02	3.22
335.391	2.6
335.763	2.85
336.135	2.97
336.507	2.99
336.879	3.09
337.25	2.83
337.622	3.01
337.993	3.06
338.365	2.83
338.736	3.19
339.108	2.88
339.479	2.62
339.851	3.06
340.222	2.79
340.593	2.29
340.964	2.44
341.336	3.42
341.707	2.61
342.078	3.17
342.449	3.1
342.82	3.01
343.191	2.96
343.562	2.93
343.933	2.96
344.303	2.87
344.674	2.74
345.045	2.98
345.416	3.28
345.786	2.38
346.157	2.79
346.527	2.55
346.898	2.63
347.268	3.16
347.639	2.74
348.009	3.2
348.38	2.39
348.75	2.82
349.12	2.78
349.49	3.43
349.861	2.85
350.231	3.2
350.601	2.62
350.971	2.78
351.341	2.67
351.711	2.74
352.081	3.21
352.45	2.9
352.82	3.44
353.19	2.9
353.56	2.7
353.929	3.41
354.299	2.59
354.669	3.18
355.038	3.38
355.408	2.87
355.777	2.96
356.147	2.95
356.516	3.11
356.885	2.92
357.254	2.77
357.624	3.62
357.993	2.7
358.362	2.56
358.731	2.5
359.1	2.87
359.469	3.1
359.838	3.22
360.207	2.63
360.576	2.83
360.945	2.95
361.314	3.47
361.682	2.55
362.051	2.9
362.42	2.83
362.788	2.82
363.157	2.86
363.525	2.94
363.894	3.12
364.262	2.84
364.631	2.75
364.999	3.2
365.367	2.6
365.735	3.35
366.104	3.07
366.472	3.07
366.84	2.79
367.208	2.95
367.576	2.91
367.944	3.1
368.312	3.04
368.68	2.38
369.048	2.94
369.416	2.97
369.783	2.78
370.151	2.83
370.519	3.19
370.886	3.39
371.254	2.84
371.621	2.96
371.989	3.07
372.356	2.58
372.724	3.26
373.091	2.66
373.458	3.29
373.826	2.91
374.193	2.76
374.56	2.94
374.927	3.29
375.294	2.81
375.661	3.06
376.028	2.64
376.395	2.94
376.762	3.05
377.129	3.13
377.496	2.71
377.863	2.94
378.229	2.52
378.596	3.1
378.963	2.95
379.329	2.97
379.696	3.16
380.062	3.08
380.429	2.95
380.795	2.71
381.161	3.18
381.528	3.28
381.894	2.78
382.26	2.85
382.626	2.86
382.993	2.64
383.359	3.72
383.725	2.69
384.091	3.13
384.457	3.39
384.823	2.83
385.188	3.03
385.554	2.97
385.92	3.37
386.286	3.01
386.651	3.27
387.017	3.22
387.383	3.2
387.748	2.86
388.114	3.31
388.479	3.08
388.845	3.36
389.21	3.14
389.575	3.18
389.94	2.93
390.306	3.29
390.671	3.11
391.036	2.81
391.401	2.76
391.766	2.87
392.131	3.24
392.496	3.26
392.861	3.05
393.226	3.42
393.591	3.06
393.956	3.18
394.32	3.09
394.685	2.93
395.05	2.71
395.414	3.21
395.779	2.95
396.143	3.36
396.508	3.07
396.872	3.21
397.236	3.23
397.601	3.07
397.965	3.13
398.329	3.25
398.694	2.95
399.058	2.98
399.422	2.64
399.786	3.14
400.15	3.1
400.514	3.13
400.878	3.15
401.242	3.5
401.605	3.24
401.969	3.24
402.333	3.21
402.697	2.85
403.06	3.06
403.424	3.29
403.787	3
404.151	3.32
404.514	3.26
404.878	2.9
405.241	3.19
405.604	3.01
405.968	3.31
406.331	3.05
406.694	3.3
407.057	3.1
407.42	3.25
407.783	3.11
408.146	3.02
408.509	3
408.872	3.08
409.235	3.35
409.598	3.41
409.961	3.35
410.323	3.26
410.686	3.24
411.049	2.74
411.411	3.19
411.774	3.07
412.136	3.15
412.499	3.04
412.861	3.18
413.223	3.22
413.586	3.12
413.948	3.18
414.31	3.31
414.672	3.21
415.035	3.27
415.397	3.41
415.759	2.9
416.121	3.41
416.483	3
416.845	3.13
417.206	3.25
417.568	3.18
417.93	2.86
418.292	3.05
418.653	3.17
419.015	3.27
419.377	3.14
419.738	3.19
420.1	3.07
420.461	3.19
420.822	3.1
421.184	3.12
421.545	3.2
421.906	3.04
422.267	3.11
422.629	3.11
422.99	3.06
423.351	3.09
423.712	3.23
424.073	3.14
424.434	3.14
424.795	3.05
425.155	3.11
425.516	3.07
425.877	3.09
426.238	3.12
426.598	3.11
426.959	3.05
427.32	3.02
427.68	3.08
428.041	3.1
428.401	3.19
428.761	3.11
429.122	3.31
429.482	3.09
429.842	3.28
430.202	3.34
430.563	3.19
430.923	3.11
431.283	3.3
431.643	3.13
432.003	3.27
432.363	3.31
432.722	3.22
433.082	3.46
433.442	3.13
433.802	3.03
434.161	3.26
434.521	3.44
434.881	3.35
435.24	3.3
435.6	3.29
435.959	3.11
436.319	3.16
436.678	3.44
437.037	3.3
437.396	3.36
437.756	3.26
438.115	3.38
438.474	3.35
438.833	3.21
439.192	3.29
439.551	3.36
439.91	3.24
440.269	3.11
440.628	3.39
440.987	3.27
441.345	3.11
441.704	3.17
442.063	3.21
442.421	3.2
442.78	3.2
443.138	3.21
443.497	3.18
443.855	3.21
444.214	3.18
444.572	3.24
444.93	3.26
445.288	3.25
445.647	3.45
446.005	3.18
446.363	3.22
446.721	3.35
447.079	3.12
447.437	3.18
447.795	3.25
448.153	3.11
448.51	3.23
448.868	3.24
449.226	3.35
449.584	3.24
449.941	3.37
450.299	3.33
450.656	3.32
451.014	3.32
451.371	3.35
451.729	3.28
452.086	3.52
452.443	3.36
452.801	3.57
453.158	3.32
453.515	3.24
453.872	3.4
454.229	3.09
454.586	3.27
454.943	3.42
455.3	3.47
455.657	3.27
456.014	3.33
456.371	3.51
456.727	3.39
457.084	3.62
457.441	3.23
457.797	3.54
458.154	3.51
458.51	3.29
458.867	3.5
459.223	3.45
459.58	3.34
459.936	3.37
460.292	3.38
460.648	3.27
461.005	3.28
461.361	3.35
461.717	3.32
462.073	3.2
462.429	3.34
462.785	3.43
463.141	3.35
463.496	3.4
463.852	3.47
464.208	3.32
464.564	3.47
464.919	3.45
465.275	3.56
465.631	3.56
465.986	3.4
466.342	3.3
466.697	3.42
467.052	3.38
467.408	3.51
467.763	3.4
468.118	3.35
468.473	3.42
468.829	3.5
469.184	3.3
469.539	3.42
469.894	3.31
470.249	3.64
470.603	3.61
470.958	3.48
471.313	3.54
471.668	3.61
472.023	3.56
472.377	3.41
472.732	3.69
473.086	3.6
473.441	3.36
473.795	3.68
474.15	3.59
474.504	3.5
474.859	3.6
475.213	3.42
475.567	3.41
475.921	3.55
476.275	3.49
476.63	3.59
476.984	3.65
477.338	3.66
477.692	3.39
478.045	3.38
478.399	3.41
478.753	3.55
479.107	3.6
479.461	3.57
479.814	3.58
480.168	3.51
480.521	3.55
480.875	3.62
481.228	3.54
481.582	3.57
481.935	3.51
482.289	3.43
482.642	3.59
482.995	3.44
483.348	3.48
483.701	3.48
484.055	3.52
484.408	3.49
484.761	3.42
485.114	3.36
485.466	3.22
485.819	3.25
486.172	3.29
486.525	3.36
486.878	3.43
487.23	3.49
487.583	3.49
487.936	3.49
488.288	3.45
488.641	3.53
488.993	3.33
489.345	3.35
489.698	3.4
490.05	3.35
490.402	3.44
490.754	3.44
491.107	3.54
491.459	3.58
491.811	3.6
492.163	3.6
492.515	3.51
492.866	3.61
493.218	3.46
493.57	3.41
493.922	3.41
494.274	3.56
494.625	3.69
494.977	3.63
495.328	3.71
495.68	3.64
496.031	3.75
496.383	3.63
496.734	3.74
497.086	3.78
497.437	3.6
497.788	3.69
498.139	3.53
498.49	3.75
498.842	3.51
499.193	3.57
499.544	3.64
499.894	3.67
500.245	3.66
500.596	3.55
500.947	3.84
501.298	3.63
501.648	3.76
501.999	3.86
502.35	3.81
502.7	3.76
503.051	3.58
503.401	3.71
503.752	3.87
504.102	3.72
504.452	3.79
504.803	3.75
505.153	3.61
505.503	3.69
505.853	3.86
506.203	3.83
506.553	3.78
506.903	3.71
507.253	3.82
507.603	3.71
507.953	3.96
508.303	3.95
508.652	3.76
509.002	3.88
509.352	3.91
509.701	3.74
510.051	3.9
510.4	3.85
510.75	3.75
511.099	3.9
511.449	3.68
511.798	3.85
512.147	3.71
512.496	3.86
512.846	3.98
513.195	3.82
513.544	3.82
513.893	3.86
514.242	3.83
514.591	4.04
514.939	3.96
515.288	3.81
515.637	3.99
515.986	3.85
516.334	3.93
516.683	4.05
517.032	4.07
517.38	3.98
517.729	3.98
518.077	3.9
518.426	4
518.774	4
519.122	3.94
519.47	3.93
519.819	3.76
520.167	3.9
520.515	3.87
520.863	3.95
521.211	3.96
521.559	3.97
521.907	3.9
522.255	4
522.602	3.99
522.95	4.03
523.298	4.03
523.645	4
523.993	4.03
524.341	4.12
524.688	4.17
525.036	4.01
525.383	4.05
525.73	4.14
526.078	3.98
526.425	4.09
526.772	4.1
527.119	3.98
527.466	3.96
527.814	4.01
528.161	4
528.508	4.03
528.854	3.99
529.201	3.95
529.548	4.01
529.895	3.91
530.242	3.78
530.588	3.81
530.935	3.86
531.282	3.95
531.628	4.04
531.975	4.1
532.321	4.1
532.667	4.2
533.014	4.23
533.36	4.2
533.706	4.19
534.052	4.05
534.399	4.04
534.745	4.02
535.091	3.99
535.437	4.08
535.783	4.1
536.129	4.19
536.474	4.22
536.82	4.25
537.166	4.28
537.512	4.3
537.857	4.23
538.203	4.24
538.549	4.11
538.894	4.21
539.239	4.27
539.585	4.21
539.93	4.29
540.276	4.4
540.621	4.4
540.966	4.41
541.311	4.27
541.656	4.22
542.001	4.36
542.346	4.41
542.691	4.28
543.036	4.11
543.381	4.08
543.726	4.15
544.071	4.3
544.415	4.39
544.76	4.36
545.105	4.29
545.449	4.36
545.794	4.47
546.138	4.43
546.483	4.59
546.827	4.47
547.171	4.46
547.516	4.59
547.86	4.45
548.204	4.4
548.548	4.43
548.892	4.53
549.236	4.52
549.58	4.48
549.924	4.58
550.268	4.69
550.612	4.79
550.956	4.78
551.3	4.59
551.643	4.73
551.987	4.79
552.33	4.88
552.674	4.71
553.017	4.64
553.361	4.65
553.704	4.74
554.048	4.74
554.391	4.74
554.734	4.7
555.077	4.9
555.42	4.65
555.764	4.78
556.107	4.66
556.45	4.62
556.793	4.74
557.135	4.91
557.478	5.03
557.821	5.03
558.164	4.94
558.507	4.82
558.849	4.81
559.192	5.07
559.534	4.95
559.877	4.87
560.219	5.04
560.562	5.23
560.904	4.9
561.246	5
561.589	4.97
561.931	4.93
562.273	4.92
562.615	5.14
562.957	5.13
563.299	4.83
563.641	5.1
563.983	5.13
564.325	5.01
564.667	5.07
565.008	5.12
565.35	5.19
565.692	4.88
566.033	5.2
566.375	5.06
566.716	5.29
567.058	4.9
567.399	5.17
567.741	5.06
568.082	5.03
568.423	5.14
568.764	5.16
569.105	5.24
569.447	5.23
569.788	5.17
570.129	5.43
570.47	5.23
570.811	5.43
571.151	5.32
571.492	5.49
571.833	5.38
572.174	5.3
572.514	5.47
572.855	5.35
573.195	5.37
573.536	5.38
573.876	5.28
574.217	5.38
574.557	5.49
574.898	5.46
575.238	5.59
575.578	5.4
575.918	5.55
576.258	5.54
576.598	5.51
576.938	5.57
577.278	5.41
577.618	5.61
577.958	5.58
578.298	5.55
578.638	5.5
578.977	5.52
579.317	5.63
579.657	5.72
579.996	5.66
580.336	5.71
580.675	5.71
581.014	5.79
581.354	5.71
581.693	5.91
582.032	5.52
582.372	5.56
582.711	5.93
583.05	5.93
583.389	6.05
583.728	5.69
584.067	6.01
584.406	5.84
584.745	5.84
585.083	6.01
585.422	6.07
585.761	6.11
586.1	5.79
586.438	6.22
586.777	6.22
587.115	6.11
587.454	6.01
587.792	5.84
588.13	6.39
588.469	6.05
588.807	6.14
589.145	5.85
589.483	6.12
589.821	6.28
590.159	6.13
590.497	6.17
590.835	6.49
591.173	6.16
591.511	6.25
591.849	6.25
592.187	6.19
592.524	6.13
592.862	6.06
593.2	6.68
593.537	6.26
593.875	6.18
594.212	6.35
594.55	6.32
594.887	6.59
595.224	6.48
595.561	6.26
595.899	6.4
596.236	6.32
596.573	6.57
596.91	6.07
597.247	6.27
597.584	6.63
597.921	6.55
598.258	6.27
598.594	6.43
598.931	6.38
599.268	6.4
599.604	6.48
599.941	6.58
600.277	6.51
600.614	6.56
600.95	6.59
601.287	6.92
601.623	6.48
601.959	6.54
602.296	6.58
602.632	6.51
602.968	6.88
603.304	6.98
603.64	6.85
603.976	6.93
604.312	6.85
604.648	6.74
604.984	6.9
605.319	6.96
605.655	6.83
605.991	6.89
606.326	6.75
606.662	6.9
606.998	6.64
607.333	6.88
607.668	7.02
608.004	7.25
608.339	7.35
608.674	7.13
609.01	6.97
609.345	6.79
609.68	7.17
610.015	6.99
610.35	7.04
610.685	7.01
611.02	7.24
611.355	7.15
611.689	7.08
612.024	7.23
612.359	7.01
612.694	7.29
613.028	7.18
613.363	7.5
613.697	7.55
614.032	7.46
614.366	7.41
614.7	7.61
615.035	7.37
615.369	7.37
615.703	7.47
616.037	7.53
616.371	7.21
616.705	7.61
617.039	7.72
617.373	7.4
617.707	7.47
618.041	7.36
618.375	7.67
618.709	7.44
619.042	7.79
619.376	7.7
619.71	8.02
620.043	7.64
620.377	7.81
620.71	8.02
621.043	7.67
621.377	7.67
621.71	7.94
622.043	7.75
622.376	7.77
622.709	7.82
623.043	7.89
623.376	7.97
623.709	7.78
624.041	8.29
624.374	7.99
624.707	7.92
625.04	8.62
625.373	7.65
625.705	8.1
626.038	8.08
626.37	8.36
626.703	8.1
627.035	8.3
627.368	8.55
627.7	8.42
628.032	8.08
628.365	8.55
628.697	8.32
629.029	8.05
629.361	8.11
629.693	8.09
630.025	7.96
630.357	8.71
630.689	8.49
631.021	8.15
631.353	8.51
631.684	8.25
632.016	8.12
632.348	8.52
632.679	8.78
633.011	8.85
633.342	8.97
633.674	8.26
634.005	8.8
634.336	8.55
634.668	8.96
634.999	8.48
635.33	8.65
635.661	8.77
635.992	8.67
636.323	8.97
636.654	8.77
636.985	8.42
637.316	8.91
637.647	8.41
637.977	8.87
638.308	9.03
638.639	8.58
638.969	8.9
639.3	8.62
639.63	8.99
639.961	9.23
640.291	8.77
640.622	9.15
640.952	8.67
641.282	9.52
641.612	8.99
641.943	9.07
642.273	9.08
642.603	9.13
642.933	9.32
643.263	8.85
643.592	8.83
643.922	9.35
644.252	9.39
644.582	9.28
644.911	8.67
645.241	9.27
645.571	9.28
645.9	8.98
646.23	9.46
646.559	9.44
646.888	9
647.218	9.45
647.547	9.48
647.876	9.3
648.205	9.27
648.534	9.49
648.863	9.22
649.192	9.56
649.521	9.44
649.85	8.86
650.179	9.88
650.508	8.77
650.837	9.07
651.165	9.59
651.494	9.81
651.822	9.51
652.151	9.3
652.479	9.66
652.808	9.67
653.136	9.37
653.465	9.57
653.793	9.3
654.121	9.47
654.449	10.07
654.777	9.83
655.105	10.29
655.433	9.52
655.761	10.23
656.089	9.82
656.417	9.84
656.745	9.54
657.073	9.8
657.4	10.79
657.728	10.03
658.056	10.23
658.383	10.05
658.711	10.47
659.038	10.23
659.365	10.51
659.693	10.13
660.02	10.27
660.347	10.02
660.674	10.28
661.001	10.45
661.329	9.49
661.656	10.08
661.982	10.26
662.309	10.12
662.636	10.36
662.963	10.67
663.29	10.7
663.616	10.63
663.943	10.28
664.27	10.33
664.596	10.66
664.923	10.84
665.249	10.65
665.576	10.79
665.902	11.26
666.228	10.94
666.554	11.07
666.881	10.32
667.207	11.21
667.533	10.62
667.859	11.24
668.185	11
668.511	10.5
668.837	10.45
669.162	11.01
669.488	10.09
669.814	10.51
670.139	10.98
670.465	11.33
670.791	11.03
671.116	11.44
671.442	10.34
671.767	11.09
672.092	11.24
672.418	11.57
672.743	11.88
673.068	11.05
673.393	11.22
673.718	10.87
674.043	10.92
674.368	11.04
674.693	11.94
675.018	11.38
675.343	11.25
675.667	11.01
675.992	11.73
676.317	11.85
676.641	11.71
676.966	11.07
677.29	10.92
677.615	11.33
677.939	12.12
678.264	11.73
678.588	11.67
678.912	10.91
679.236	12.32
679.56	10.52
679.885	12.06
680.209	11.45
680.532	11.38
680.856	12.31
681.18	11.02
681.504	11.4
681.828	11.95
682.152	11.29
682.475	11.77
682.799	11.63
683.122	11.74
683.446	11.49
683.769	12.23
684.093	11.7
684.416	12.27
684.739	12.17
685.062	11.54
685.386	12.88
685.709	11.81
686.032	11.75
686.355	12.59
686.678	11.85
687.001	11.77
687.324	13.06
687.646	11.94
687.969	11.85
688.292	11.94
688.614	11.94
688.937	12.29
689.26	11.82
689.582	13.15
689.904	12.19
690.227	12.84
