Data from 0388_chest_Reflection__2__78.txt Node

Date: Fri Dec 15 16:57:16 CST 2023
User: ToomeyLab
Spectrometer: FLMS14357
Trigger mode: 0
Integration Time (sec): 1.000000E-2
Scans to average: 100
Electric dark correction enabled: true
Nonlinearity correction enabled: false
Boxcar width: 0
XAxis mode: Wavelengths
Number of Pixels in Spectrum: 2048
>>>>>Begin Spectral Data<<<<<
189.047	-63.27
189.435	-63.27
189.823	-63.27
190.211	124.76
190.599	-46.92
190.987	60.74
191.375	161.91
191.763	-68.68
192.151	-792783994920200
192.538	137.74
192.926	12.84
193.314	152.44
193.702	38.4
194.089	-75.3
194.477	-8.87
194.864	493.01
195.252	60.52
195.639	56.66
196.027	-97.59
196.414	123.93
196.801	90.09
197.189	76.64
197.576	-209.75
197.963	15.34
198.351	28.35
198.738	-27.6
199.125	41.49
199.512	15.89
199.899	45.35
200.286	46.91
200.673	17.78
201.06	24.29
201.447	-14.34
201.833	3.17
202.22	5.27
202.607	65.55
202.994	4.11
203.38	-13.37
203.767	6.96
204.154	31.14
204.54	38.51
204.927	-29.55
205.313	-13.55
205.699	35.81
206.086	49.91
206.472	6.89
206.858	23.52
207.245	9
207.631	4.49
208.017	37.77
208.403	7.15
208.789	48.37
209.175	9.36
209.561	-29.35
209.947	45.99
210.333	0.71
210.719	24.02
211.105	10.08
211.491	-15.83
211.876	26.48
212.262	21.73
212.648	16.04
213.034	10.67
213.419	-22.2
213.805	7.59
214.19	-7.5
214.576	3.7
214.961	15.41
215.346	-15.19
215.732	11.09
216.117	26.53
216.502	-25.24
216.888	31.56
217.273	31.83
217.658	-6.57
218.043	8.92
218.428	-45.57
218.813	-23.54
219.198	-40.68
219.583	6.97
219.968	-2.58
220.353	-22.89
220.738	12.28
221.122	13.23
221.507	0.15
221.892	-29.69
222.276	-15.01
222.661	7.14
223.046	8.63
223.43	22.87
223.815	8.07
224.199	-2.62
224.583	4.44
224.968	16.57
225.352	20.96
225.736	2.53
226.121	-5.78
226.505	7.27
226.889	13.54
227.273	0.34
227.657	14.68
228.041	7.97
228.425	3.33
228.809	10.4
229.193	3.97
229.577	4.06
229.961	5.97
230.344	5.44
230.728	5.71
231.112	5.55
231.495	5.38
231.879	4.08
232.263	4.62
232.646	6.95
233.03	4.49
233.413	4.95
233.797	5.22
234.18	4.52
234.563	8.26
234.946	5.31
235.33	6.99
235.713	5.99
236.096	5.25
236.479	4.81
236.862	3.83
237.245	8.77
237.628	3.96
238.011	6.43
238.394	6.78
238.777	4.95
239.16	3.25
239.543	4.21
239.925	7.4
240.308	4.25
240.691	6.35
241.073	6.06
241.456	6.84
241.838	5.46
242.221	5.93
242.603	5.52
242.986	5.3
243.368	5.17
243.75	5.49
244.133	4.7
244.515	5.1
244.897	5.48
245.279	5.47
245.661	4.6
246.043	4.84
246.425	3.86
246.807	6.64
247.189	5.94
247.571	5.43
247.953	6.16
248.335	4.78
248.717	5.15
249.098	5.02
249.48	4.99
249.862	5.08
250.243	5.06
250.625	4.97
251.006	5.37
251.388	3.54
251.769	4.97
252.151	4.84
252.532	5.13
252.913	3.79
253.295	4.5
253.676	4.55
254.057	5.31
254.438	5.36
254.819	4.31
255.2	4.32
255.581	4.33
255.962	5.1
256.343	4.91
256.724	4.61
257.105	5.58
257.486	3.74
257.867	5.81
258.247	5.11
258.628	5.18
259.009	4.89
259.389	4.75
259.77	5.41
260.15	3.8
260.531	4.02
260.911	5.03
261.292	4.5
261.672	4.72
262.052	4.44
262.432	4.71
262.813	4.66
263.193	4.33
263.573	4.34
263.953	4.5
264.333	5.37
264.713	4.89
265.093	3.95
265.473	5.77
265.853	2.07
266.233	4.75
266.612	3.33
266.992	4.32
267.372	5.27
267.752	4.49
268.131	3.81
268.511	4.98
268.89	5.14
269.27	4.37
269.649	3.97
270.029	4.25
270.408	5.24
270.787	4.93
271.167	5.38
271.546	4.63
271.925	4.05
272.304	4.43
272.683	4.79
273.062	4.51
273.441	4.88
273.82	4.08
274.199	4.54
274.578	4.85
274.957	4.83
275.336	4.25
275.715	4.18
276.093	4.39
276.472	4.4
276.851	4.39
277.229	3.83
277.608	3.79
277.986	4.3
278.365	4.73
278.743	4.49
279.122	4.06
279.5	3.54
279.878	5.29
280.257	4.9
280.635	4.01
281.013	4.02
281.391	4.75
281.769	4.87
282.147	4.49
282.525	4.51
282.903	4.39
283.281	5.1
283.659	4.39
284.037	4.75
284.415	4.31
284.792	4.78
285.17	3.89
285.548	3.95
285.925	4.54
286.303	4.76
286.68	3.9
287.058	4.3
287.435	4.16
287.813	4.09
288.19	4.38
288.567	4.34
288.945	4.7
289.322	4.34
289.699	4.52
290.076	4.42
290.453	4.41
290.83	4.2
291.207	4.07
291.584	4.4
291.961	4.64
292.338	4.43
292.715	5.36
293.092	4.22
293.469	3.92
293.845	4.5
294.222	4.09
294.599	4.52
294.975	4.08
295.352	5.14
295.728	4.05
296.105	4.47
296.481	5.18
296.858	4.8
297.234	3.84
297.61	4.56
297.986	4.17
298.363	4.82
298.739	4.79
299.115	4.53
299.491	4.45
299.867	4.4
300.243	4.72
300.619	4.08
300.995	4.37
301.371	4.41
301.746	4.28
302.122	4.46
302.498	4.67
302.874	4.84
303.249	4.66
303.625	4.56
304	4.9
304.376	5.18
304.751	4.27
305.127	5.47
305.502	4.08
305.878	4.24
306.253	4.37
306.628	5.18
307.003	4.86
307.378	5.12
307.754	4.69
308.129	3.75
308.504	4.91
308.879	4.36
309.254	5.27
309.629	5.03
310.003	4.74
310.378	4.79
310.753	5.06
311.128	4.47
311.502	4.78
311.877	5.34
312.252	4.54
312.626	4.67
313.001	4.82
313.375	5.15
313.75	4.59
314.124	4.76
314.498	4.33
314.873	4.51
315.247	4.83
315.621	4.35
315.995	3.76
316.369	4.2
316.743	4.59
317.117	4.51
317.491	4.19
317.865	4.51
318.239	4.56
318.613	4.8
318.987	4.64
319.361	4.19
319.734	5.06
320.108	5.08
320.482	4.71
320.855	5.3
321.229	5.32
321.602	4.49
321.976	4.95
322.349	4.55
322.723	4.92
323.096	5.31
323.469	4.77
323.843	5.22
324.216	5.61
324.589	4.27
324.962	4.92
325.335	4.67
325.708	4.82
326.081	4.26
326.454	5.11
326.827	4.97
327.2	4.85
327.573	4.87
327.945	4.51
328.318	4.46
328.691	4.44
329.063	4.98
329.436	4.05
329.809	5.02
330.181	4.63
330.553	4.66
330.926	5.46
331.298	4.88
331.671	4.58
332.043	5.29
332.415	5.17
332.787	5.62
333.159	5.55
333.532	4.95
333.904	4.91
334.276	4.68
334.648	4.99
335.02	5.17
335.391	4.4
335.763	4.52
336.135	5.14
336.507	5.48
336.879	4.73
337.25	4.6
337.622	4.86
337.993	5.07
338.365	4.96
338.736	4.41
339.108	4.97
339.479	4.62
339.851	5.01
340.222	4.82
340.593	4.97
340.964	4.47
341.336	5.51
341.707	4.57
342.078	5.28
342.449	5.2
342.82	4.42
343.191	4.69
343.562	4.82
343.933	4.97
344.303	4.95
344.674	5.09
345.045	5.07
345.416	5.11
345.786	4.75
346.157	4.76
346.527	4.09
346.898	4.78
347.268	5.14
347.639	5.06
348.009	4.83
348.38	4.5
348.75	4.63
349.12	4.96
349.49	5.32
349.861	4.57
350.231	4.47
350.601	4.99
350.971	4.73
351.341	5.29
351.711	4.8
352.081	4.93
352.45	5.13
352.82	5.35
353.19	4.43
353.56	4.65
353.929	4.71
354.299	4.85
354.669	4.25
355.038	5.22
355.408	4.78
355.777	5.21
356.147	4.68
356.516	4.87
356.885	5.17
357.254	4.69
357.624	5.02
357.993	5.01
358.362	4.43
358.731	4.78
359.1	4.77
359.469	5.11
359.838	4.9
360.207	4.52
360.576	4.9
360.945	4.68
361.314	5.02
361.682	4.33
362.051	4.79
362.42	5.1
362.788	4.74
363.157	4.88
363.525	5.06
363.894	4.86
364.262	5.03
364.631	4.64
364.999	5.16
365.367	4.82
365.735	5.33
366.104	5.09
366.472	5.05
366.84	4.65
367.208	5.01
367.576	5.25
367.944	4.99
368.312	4.94
368.68	4.94
369.048	5.12
369.416	5.12
369.783	4.97
370.151	5.19
370.519	5.69
370.886	5.03
371.254	4.33
371.621	4.93
371.989	5.2
372.356	4.48
372.724	5.01
373.091	4.73
373.458	4.73
373.826	4.61
374.193	4.85
374.56	5.01
374.927	5.37
375.294	4.8
375.661	4.96
376.028	4.84
376.395	5.04
376.762	5.11
377.129	5
377.496	4.89
377.863	4.89
378.229	4.54
378.596	5.15
378.963	4.88
379.329	4.79
379.696	4.74
380.062	5.01
380.429	5.12
380.795	4.87
381.161	5.11
381.528	5.1
381.894	4.86
382.26	4.94
382.626	5.19
382.993	4.77
383.359	5.4
383.725	4.79
384.091	5.13
384.457	5.52
384.823	4.96
385.188	4.85
385.554	4.81
385.92	5.26
386.286	5.03
386.651	5.29
387.017	5.34
387.383	4.96
387.748	5.11
388.114	5.16
388.479	5.23
388.845	5.23
389.21	5.37
389.575	5.14
389.94	5.09
390.306	5.25
390.671	5.22
391.036	4.55
391.401	5.02
391.766	5.21
392.131	4.85
392.496	5.13
392.861	4.88
393.226	5.23
393.591	5.31
393.956	5.07
394.32	5.11
394.685	4.88
395.05	4.76
395.414	5.14
395.779	5.06
396.143	5.27
396.508	5.18
396.872	5.36
397.236	5.33
397.601	5.01
397.965	5.25
398.329	5.09
398.694	4.97
399.058	5.04
399.422	5.07
399.786	5.38
400.15	5.05
400.514	5.21
400.878	5.15
401.242	5.42
401.605	5.04
401.969	5.31
402.333	5.09
402.697	5.26
403.06	5.27
403.424	5.07
403.787	5.16
404.151	5.28
404.514	5.23
404.878	5.05
405.241	5.41
405.604	5.21
405.968	5.21
406.331	5.34
406.694	5.47
407.057	5.14
407.42	5.35
407.783	5
408.146	5.42
408.509	5.23
408.872	5.03
409.235	5.39
409.598	5.44
409.961	5.11
410.323	5.4
410.686	5.06
411.049	5.07
411.411	4.97
411.774	5.27
412.136	5.19
412.499	5.06
412.861	5.26
413.223	5.24
413.586	5.24
413.948	5.4
414.31	5.37
414.672	5.33
415.035	4.95
415.397	5.54
415.759	5.07
416.121	5.29
416.483	5.4
416.845	5.21
417.206	5.16
417.568	5.27
417.93	5.25
418.292	5.27
418.653	5.13
419.015	5.25
419.377	5.27
419.738	5.21
420.1	5.3
420.461	5.3
420.822	5.24
421.184	5.08
421.545	5.38
421.906	5.2
422.267	5.15
422.629	5.2
422.99	5.15
423.351	5.2
423.712	5.07
424.073	5.17
424.434	5.2
424.795	5.12
425.155	5.27
425.516	5.1
425.877	5.3
426.238	5.22
426.598	5.31
426.959	5.16
427.32	5.13
427.68	5.14
428.041	5.21
428.401	5.46
428.761	5.3
429.122	5.48
429.482	5.19
429.842	5.43
430.202	5.47
430.563	5.38
430.923	5.22
431.283	5.49
431.643	5.19
432.003	5.49
432.363	5.37
432.722	5.21
433.082	5.31
433.442	5.25
433.802	5.31
434.161	5.3
434.521	5.48
434.881	5.5
435.24	5.19
435.6	5.28
435.959	5.34
436.319	5.39
436.678	5.3
437.037	5.42
437.396	5.52
437.756	5.4
438.115	5.15
438.474	5.51
438.833	5.22
439.192	5.44
439.551	5.46
439.91	5.47
440.269	5.47
440.628	5.33
440.987	5.4
441.345	5.29
441.704	5.31
442.063	5.41
442.421	5.23
442.78	5.21
443.138	5.37
443.497	5.2
443.855	5.36
444.214	5.27
444.572	5.5
444.93	5.44
445.288	5.55
445.647	5.55
446.005	5.42
446.363	5.51
446.721	5.4
447.079	5.3
447.437	5.42
447.795	5.44
448.153	5.26
448.51	5.35
448.868	5.29
449.226	5.25
449.584	5.26
449.941	5.49
450.299	5.42
450.656	5.31
451.014	5.49
451.371	5.35
451.729	5.29
452.086	5.57
452.443	5.38
452.801	5.56
453.158	5.51
453.515	5.3
453.872	5.71
454.229	5.23
454.586	5.36
454.943	5.5
455.3	5.63
455.657	5.39
456.014	5.56
456.371	5.5
456.727	5.41
457.084	5.75
457.441	5.48
457.797	5.49
458.154	5.61
458.51	5.67
458.867	5.59
459.223	5.7
459.58	5.67
459.936	5.68
460.292	5.75
460.648	5.62
461.005	5.51
461.361	5.58
461.717	5.63
462.073	5.44
462.429	5.35
462.785	5.46
463.141	5.44
463.496	5.56
463.852	5.76
464.208	5.54
464.564	5.75
464.919	5.46
465.275	5.84
465.631	5.77
465.986	5.68
466.342	5.57
466.697	5.56
467.052	5.65
467.408	5.71
467.763	5.67
468.118	5.69
468.473	5.5
468.829	5.76
469.184	5.73
469.539	5.65
469.894	5.36
470.249	5.86
470.603	5.67
470.958	5.87
471.313	5.86
471.668	5.68
472.023	5.73
472.377	5.61
472.732	5.54
473.086	5.69
473.441	5.49
473.795	5.77
474.15	5.69
474.504	5.69
474.859	5.83
475.213	5.53
475.567	5.65
475.921	5.51
476.275	5.72
476.63	5.77
476.984	5.8
477.338	5.87
477.692	5.66
478.045	5.73
478.399	5.73
478.753	5.83
479.107	5.67
479.461	5.85
479.814	5.82
480.168	5.81
480.521	5.6
480.875	5.71
481.228	5.79
481.582	5.8
481.935	5.88
482.289	5.73
482.642	5.8
482.995	5.68
483.348	5.71
483.701	5.78
484.055	5.8
484.408	5.68
484.761	5.66
485.114	5.66
485.466	5.5
485.819	5.46
486.172	5.42
486.525	5.42
486.878	5.48
487.23	5.51
487.583	5.6
487.936	5.67
488.288	5.67
488.641	5.78
488.993	5.62
489.345	5.55
489.698	5.59
490.05	5.5
490.402	5.59
490.754	5.62
491.107	5.65
491.459	5.77
491.811	5.83
492.163	5.78
492.515	5.66
492.866	5.8
493.218	5.81
493.57	5.71
493.922	5.65
494.274	5.69
494.625	5.66
494.977	5.78
495.328	5.87
495.68	5.89
496.031	5.95
496.383	5.9
496.734	6.02
497.086	6
497.437	6
497.788	5.95
498.139	5.94
498.49	6.01
498.842	5.81
499.193	6.01
499.544	5.99
499.894	5.89
500.245	6.04
500.596	5.9
500.947	6
501.298	5.9
501.648	6
501.999	6.18
502.35	6.06
502.7	6.04
503.051	5.99
503.401	5.99
503.752	6.12
504.102	6.02
504.452	6.26
504.803	6.05
505.153	6.01
505.503	6.15
505.853	6.12
506.203	5.94
506.553	6.07
506.903	6.11
507.253	5.99
507.603	6.1
507.953	6.25
508.303	6.33
508.652	6.14
509.002	6.12
509.352	6.39
509.701	6.11
510.051	6.09
510.4	6.14
510.75	6.12
511.099	6.18
511.449	6.25
511.798	6.2
512.147	6.14
512.496	6.2
512.846	6.33
513.195	6.22
513.544	6.26
513.893	6.22
514.242	6.15
514.591	6.49
514.939	6.22
515.288	6.12
515.637	6.39
515.986	6.32
516.334	6.33
516.683	6.48
517.032	6.29
517.38	6.42
517.729	6.37
518.077	6.29
518.426	6.33
518.774	6.4
519.122	6.25
519.47	6.3
519.819	6.1
520.167	6.36
520.515	6.35
520.863	6.38
521.211	6.39
521.559	6.37
521.907	6.25
522.255	6.38
522.602	6.39
522.95	6.43
523.298	6.42
523.645	6.53
523.993	6.42
524.341	6.49
524.688	6.55
525.036	6.54
525.383	6.59
525.73	6.63
526.078	6.49
526.425	6.56
526.772	6.68
527.119	6.54
527.466	6.41
527.814	6.52
528.161	6.48
528.508	6.56
528.854	6.45
529.201	6.44
529.548	6.44
529.895	6.44
530.242	6.4
530.588	6.34
530.935	6.4
531.282	6.36
531.628	6.42
531.975	6.47
532.321	6.51
532.667	6.57
533.014	6.62
533.36	6.69
533.706	6.66
534.052	6.75
534.399	6.6
534.745	6.65
535.091	6.64
535.437	6.67
535.783	6.64
536.129	6.67
536.474	6.73
536.82	6.76
537.166	6.84
537.512	6.76
537.857	6.9
538.203	6.83
538.549	6.88
538.894	6.84
539.239	6.93
539.585	6.84
539.93	6.91
540.276	7.07
540.621	7.12
540.966	6.98
541.311	6.88
541.656	6.87
542.001	7.01
542.346	7.2
542.691	7.05
543.036	6.85
543.381	6.91
543.726	6.92
544.071	6.95
544.415	6.93
544.76	6.99
545.105	7.09
545.449	7.2
545.794	7.13
546.138	7.13
546.483	7.23
546.827	7.37
547.171	7.14
547.516	7.4
547.86	7.26
548.204	7.28
548.548	7.14
548.892	7.36
549.236	7.28
549.58	7.39
549.924	7.33
550.268	7.44
550.612	7.71
550.956	7.63
551.3	7.32
551.643	7.62
551.987	7.6
552.33	7.57
552.674	7.59
553.017	7.64
553.361	7.46
553.704	7.88
554.048	7.61
554.391	7.67
554.734	7.63
555.077	7.7
555.42	7.64
555.764	7.52
556.107	7.54
556.45	7.58
556.793	7.71
557.135	7.86
557.478	8.05
557.821	7.8
558.164	7.73
558.507	7.92
558.849	7.86
559.192	7.96
559.534	7.83
559.877	8.08
560.219	7.94
560.562	8.16
560.904	8
561.246	8.06
561.589	8.2
561.931	8.07
562.273	8.1
562.615	8.19
562.957	8.12
563.299	8.07
563.641	7.96
563.983	8.26
564.325	8.15
564.667	8.17
565.008	8.29
565.35	8.26
565.692	8.13
566.033	8.25
566.375	8.57
566.716	8.58
567.058	8.24
567.399	8.32
567.741	8.39
568.082	8.44
568.423	8.41
568.764	8.42
569.105	8.61
569.447	8.52
569.788	8.46
570.129	8.52
570.47	8.5
570.811	8.63
571.151	8.7
571.492	8.69
571.833	8.61
572.174	8.61
572.514	8.87
572.855	8.64
573.195	8.67
573.536	8.68
573.876	8.53
574.217	8.57
574.557	8.8
574.898	8.91
575.238	8.82
575.578	8.77
575.918	9.04
576.258	9.04
576.598	9.11
576.938	8.87
577.278	8.93
577.618	9
577.958	9.1
578.298	9.1
578.638	9.09
578.977	9.21
579.317	9.13
579.657	9.02
579.996	9.13
580.336	9.18
580.675	9.06
581.014	8.98
581.354	9.28
581.693	9.33
582.032	9.4
582.372	9.34
582.711	9.56
583.05	9.17
583.389	9.53
583.728	9.6
584.067	9.61
584.406	9.5
584.745	9.47
585.083	9.62
585.422	9.82
585.761	9.94
586.1	9.94
586.438	9.64
586.777	9.82
587.115	9.78
587.454	9.85
587.792	9.76
588.13	9.94
588.469	9.73
588.807	10.12
589.145	9.77
589.483	9.93
589.821	9.93
590.159	9.97
590.497	10.36
590.835	10.34
591.173	10.17
591.511	10.24
591.849	10.01
592.187	9.77
592.524	9.96
592.862	10.12
593.2	10.21
593.537	10.19
593.875	10.03
594.212	10.37
594.55	10.34
594.887	10.52
595.224	10.39
595.561	10.27
595.899	10.51
596.236	10.42
596.573	10.42
596.91	10.33
597.247	10.16
597.584	10.7
597.921	10.57
598.258	10.67
598.594	10.6
598.931	10.48
599.268	10.73
599.604	10.45
599.941	10.52
600.277	10.74
600.614	10.75
600.95	10.53
601.287	10.77
601.623	10.79
601.959	10.72
602.296	10.95
602.632	10.71
602.968	10.98
603.304	10.93
603.64	11.02
603.976	11.23
604.312	11.05
604.648	11.08
604.984	11.13
605.319	11.32
605.655	11.17
605.991	11.27
606.326	11.16
606.662	11.06
606.998	11.07
607.333	11.25
607.668	11.23
608.004	11.29
608.339	11.59
608.674	11.43
609.01	11.32
609.345	11.46
609.68	11.58
610.015	11.41
610.35	11.5
610.685	11.54
611.02	11.65
611.355	11.58
611.689	11.74
612.024	11.51
612.359	11.67
612.694	11.71
613.028	11.57
613.363	12.04
613.697	12.12
614.032	12.05
614.366	11.69
614.7	11.69
615.035	12.07
615.369	12.03
615.703	12.17
616.037	12.27
616.371	11.95
616.705	12.24
617.039	12.42
617.373	12.2
617.707	11.87
618.041	12.13
618.375	12.21
618.709	12.07
619.042	12.03
619.376	12.3
619.71	12.43
620.043	12.29
620.377	12.22
620.71	12.87
621.043	12.32
621.377	12.94
621.71	12.37
622.043	12.48
622.376	12.54
622.709	12.63
623.043	12.94
623.376	12.8
623.709	12.7
624.041	13.19
624.374	12.96
624.707	12.79
625.04	13.11
625.373	12.74
625.705	12.56
626.038	12.85
626.37	12.83
626.703	13.02
627.035	12.78
627.368	13.51
627.7	13.15
628.032	13.03
628.365	13.45
628.697	13.11
629.029	12.9
629.361	13.21
629.693	13.35
630.025	12.95
630.357	13.6
630.689	13.48
631.021	13.26
631.353	13.46
631.684	13.17
632.016	13.29
632.348	13.42
632.679	13.87
633.011	13.82
633.342	13.89
633.674	13.5
634.005	13.82
634.336	13.85
634.668	14.08
634.999	13.12
635.33	13.78
635.661	14.13
635.992	13.83
636.323	13.99
636.654	14.22
636.985	14.15
637.316	14.08
637.647	13.77
637.977	14.2
638.308	13.99
638.639	13.71
638.969	14.16
639.3	13.89
639.63	13.77
639.961	14.38
640.291	14.85
640.622	14.59
640.952	14.14
641.282	14.88
641.612	14.19
641.943	14.08
642.273	14.66
642.603	14.58
642.933	14.89
643.263	14.52
643.592	14.4
643.922	14.59
644.252	14.39
644.582	14.87
644.911	14.63
645.241	14.82
645.571	14.46
645.9	14.14
646.23	14.52
646.559	15.06
646.888	14.54
647.218	14.81
647.547	15.36
647.876	14.87
648.205	14.62
648.534	14.25
648.863	14.85
649.192	15.14
649.521	15.07
649.85	14.95
650.179	15.13
650.508	15.12
650.837	14.91
651.165	15.44
651.494	15.06
651.822	15.1
652.151	15.24
652.479	15.49
652.808	15.19
653.136	15.51
653.465	14.86
653.793	15.23
654.121	15.14
654.449	15.52
654.777	15.68
655.105	15.64
655.433	15.35
655.761	15.45
656.089	15.9
656.417	15.62
656.745	15.85
657.073	15.57
657.4	16.21
657.728	15.95
658.056	15.24
658.383	15.81
658.711	15.93
659.038	16.41
659.365	15.78
659.693	15.86
660.02	15.84
660.347	16.13
660.674	15.96
661.001	16.09
661.329	15.69
661.656	16.37
661.982	16.17
662.309	15.94
662.636	15.82
662.963	16.46
663.29	16.6
663.616	16.19
663.943	15.56
664.27	16.49
664.596	16.2
664.923	16.78
665.249	16.7
665.576	16.33
665.902	16.9
666.228	16.04
666.554	16.79
666.881	16.22
667.207	17.01
667.533	16.39
667.859	16.72
668.185	17.01
668.511	16.3
668.837	16.38
669.162	16.53
669.488	16.13
669.814	17.67
670.139	16.59
670.465	17.47
670.791	17.48
671.116	17.83
671.442	17.03
671.767	17.39
672.092	17.3
672.418	17.25
672.743	17.52
673.068	16.53
673.393	17.07
673.718	17.36
674.043	16.87
674.368	17.26
674.693	17.83
675.018	16.94
675.343	17.5
675.667	17.26
675.992	17.81
676.317	17.71
676.641	18.14
676.966	17.5
677.29	17.32
677.615	18.42
677.939	18.03
678.264	18.05
678.588	18.39
678.912	17.87
679.236	18.19
679.56	17.04
679.885	18.1
680.209	17.59
680.532	18.07
680.856	18.36
681.18	18.2
681.504	18.12
681.828	18.58
682.152	17.62
682.475	18.28
682.799	17.51
683.122	18.03
683.446	17.82
683.769	18.68
684.093	18.21
684.416	18.95
684.739	18.15
685.062	18.17
685.386	19.09
685.709	17.74
