Data from 0388_forehead_Reflection__4__90.txt Node

Date: Fri Dec 15 16:59:48 CST 2023
User: ToomeyLab
Spectrometer: FLMS14357
Trigger mode: 0
Integration Time (sec): 1.000000E-2
Scans to average: 100
Electric dark correction enabled: true
Nonlinearity correction enabled: false
Boxcar width: 0
XAxis mode: Wavelengths
Number of Pixels in Spectrum: 2048
>>>>>Begin Spectral Data<<<<<
189.047	59.29
189.435	59.29
189.823	59.29
190.211	44.3
190.599	-50.14
190.987	-13.23
191.375	74.3
191.763	-64.65
192.151	-124865937191000
192.538	160.17
192.926	10.66
193.314	282.17
193.702	57.58
194.089	1165.77
194.477	-145.45
194.864	1483.46
195.252	78.36
195.639	52.6
196.027	-121.4
196.414	62.81
196.801	69.91
197.189	109.62
197.576	43.08
197.963	8.2
198.351	9.06
198.738	3.08
199.125	36.02
199.512	71.87
199.899	23.72
200.286	34.32
200.673	64.67
201.06	43.92
201.447	19.69
201.833	53.53
202.22	35.76
202.607	12.78
202.994	11.11
203.38	29.38
203.767	67.85
204.154	30.23
204.54	38.45
204.927	-27.44
205.313	5.71
205.699	6.93
206.086	57.84
206.472	48.38
206.858	65.9
207.245	-28.46
207.631	41.46
208.017	11.88
208.403	34.71
208.789	16.42
209.175	27.74
209.561	15
209.947	50.66
210.333	-2.18
210.719	24.42
211.105	81.08
211.491	-16.61
211.876	12.42
212.262	32.15
212.648	28.25
213.034	34.46
213.419	-3.61
213.805	35.28
214.19	43.97
214.576	12.07
214.961	-10.4
215.346	-32.63
215.732	20.58
216.117	49.62
216.502	9.06
216.888	48.78
217.273	40.71
217.658	37.99
218.043	52.3
218.428	-14.38
218.813	3.15
219.198	-7.19
219.583	20.37
219.968	25.08
220.353	7.72
220.738	25.54
221.122	19.58
221.507	16.27
221.892	-1.11
222.276	2.98
222.661	10.68
223.046	16.39
223.43	26.03
223.815	21.85
224.199	6.4
224.583	6.87
224.968	8.81
225.352	24.11
225.736	3.01
226.121	-7.11
226.505	11.86
226.889	7.79
227.273	8.23
227.657	15.71
228.041	5.12
228.425	1.95
228.809	5.03
229.193	6.38
229.577	4.56
229.961	5.42
230.344	4.22
230.728	3.27
231.112	3.44
231.495	3.71
231.879	2.48
232.263	5.54
232.646	4.64
233.03	5.05
233.413	1.68
233.797	4.87
234.18	4.16
234.563	3.96
234.946	2.35
235.33	3.94
235.713	5.09
236.096	3.86
236.479	5.18
236.862	2.63
237.245	3.86
237.628	3.12
238.011	5.61
238.394	7.11
238.777	5.48
239.16	2.09
239.543	4.32
239.925	6.77
240.308	4.58
240.691	5
241.073	7.19
241.456	3.21
241.838	4.17
242.221	2.95
242.603	4.76
242.986	3.72
243.368	3.34
243.75	4.25
244.133	3.38
244.515	3.41
244.897	3.62
245.279	4.15
245.661	3.36
246.043	2.7
246.425	3.66
246.807	6.06
247.189	4.66
247.571	4.61
247.953	4.28
248.335	3.64
248.717	3.58
249.098	3.29
249.48	3.32
249.862	3.63
250.243	3.55
250.625	3.76
251.006	3.93
251.388	2.85
251.769	3.52
252.151	4.82
252.532	4.34
252.913	4
253.295	4.12
253.676	4.02
254.057	4.42
254.438	4.34
254.819	3.25
255.2	3.38
255.581	3.84
255.962	3.93
256.343	3.65
256.724	2.36
257.105	4.23
257.486	3.56
257.867	5.03
258.247	4.78
258.628	3.95
259.009	2.92
259.389	3.9
259.77	3.27
260.15	3.53
260.531	3.15
260.911	4.12
261.292	3.42
261.672	3.67
262.052	3.48
262.432	3.62
262.813	3.44
263.193	3.56
263.573	3.67
263.953	3.31
264.333	3.57
264.713	4.51
265.093	3.95
265.473	4.39
265.853	3.48
266.233	3.49
266.612	2.04
266.992	2.5
267.372	4.59
267.752	3.91
268.131	3.73
268.511	4.27
268.89	4.45
269.27	3.86
269.649	3.7
270.029	3
270.408	4.27
270.787	4.18
271.167	3.92
271.546	4.23
271.925	3.88
272.304	4.03
272.683	4.35
273.062	3.32
273.441	3.78
273.82	3.14
274.199	3.59
274.578	3.76
274.957	3.67
275.336	3.64
275.715	3.11
276.093	2.96
276.472	4.06
276.851	3.74
277.229	3.8
277.608	3.01
277.986	2.98
278.365	3.73
278.743	3.52
279.122	4.35
279.5	3.41
279.878	3.98
280.257	3.58
280.635	2.67
281.013	3.29
281.391	4.11
281.769	4.52
282.147	4.4
282.525	4.33
282.903	3.69
283.281	4.04
283.659	3.92
284.037	3.58
284.415	3.63
284.792	3.74
285.17	3.39
285.548	3.2
285.925	3.69
286.303	4.09
286.68	3.49
287.058	3.61
287.435	3.79
287.813	3.85
288.19	3.96
288.567	3.87
288.945	3.85
289.322	3.78
289.699	3.44
290.076	3.84
290.453	3.96
290.83	3.54
291.207	4.01
291.584	4
291.961	4.14
292.338	3.64
292.715	4.35
293.092	3.99
293.469	3.56
293.845	4.25
294.222	3.67
294.599	3.5
294.975	3.64
295.352	4.3
295.728	3.68
296.105	3.92
296.481	4.36
296.858	4.3
297.234	3.91
297.61	4.25
297.986	4.05
298.363	4
298.739	4.19
299.115	3.86
299.491	3.9
299.867	4.23
300.243	4.14
300.619	4.12
300.995	4.2
301.371	4.5
301.746	4.26
302.122	4.74
302.498	4.36
302.874	4.8
303.249	4.74
303.625	4.29
304	4.9
304.376	5.08
304.751	3.87
305.127	5.06
305.502	4.8
305.878	3.73
306.253	4.71
306.628	4.91
307.003	4.57
307.378	4.97
307.754	5.07
308.129	4.23
308.504	5.32
308.879	4.54
309.254	5.92
309.629	5.89
310.003	5.23
310.378	6.04
310.753	5.38
311.128	5.52
311.502	5.43
311.877	5.56
312.252	4.96
312.626	5.29
313.001	5.32
313.375	5.41
313.75	5.07
314.124	5.72
314.498	5.6
314.873	5.6
315.247	5.19
315.621	5.5
315.995	5.04
316.369	5.48
316.743	5.3
317.117	6.22
317.491	5.87
317.865	5.7
318.239	5.71
318.613	6.06
318.987	6.37
319.361	5.97
319.734	7.23
320.108	6.64
320.482	6.07
320.855	6.4
321.229	5.83
321.602	5.87
321.976	6.88
322.349	6.24
322.723	6.08
323.096	6.31
323.469	6.27
323.843	6.15
324.216	6.82
324.589	6.7
324.962	6.54
325.335	6.22
325.708	6.97
326.081	6.77
326.454	6.56
326.827	6.48
327.2	6.89
327.573	6.97
327.945	6.9
328.318	6.67
328.691	6.38
329.063	6.74
329.436	6.61
329.809	7.45
330.181	7.27
330.553	7.06
330.926	7.11
331.298	7.7
331.671	7.27
332.043	8.17
332.415	7.46
332.787	7.58
333.159	7.71
333.532	8.15
333.904	7.7
334.276	7.59
334.648	7.18
335.02	7.54
335.391	7.34
335.763	7.68
336.135	7.13
336.507	8.61
336.879	7.47
337.25	7.45
337.622	7.7
337.993	8.21
338.365	8.02
338.736	7.7
339.108	8.59
339.479	7.81
339.851	7.92
340.222	8.23
340.593	8.13
340.964	8.12
341.336	8.86
341.707	7.98
342.078	8.83
342.449	8.45
342.82	8.34
343.191	8.73
343.562	8.52
343.933	8.62
344.303	8.39
344.674	8.59
345.045	8.17
345.416	8.51
345.786	8.64
346.157	9.18
346.527	8.18
346.898	8.39
347.268	8.84
347.639	8.85
348.009	8.92
348.38	8.19
348.75	8.79
349.12	8.54
349.49	9.47
349.861	8.99
350.231	8.95
350.601	9.46
350.971	9
351.341	9.12
351.711	9.27
352.081	9.27
352.45	8.98
352.82	9.44
353.19	8.92
353.56	9.19
353.929	9.57
354.299	9.39
354.669	9.23
355.038	10.13
355.408	9.02
355.777	9.64
356.147	9.89
356.516	10.02
356.885	9.65
357.254	9.66
357.624	10.18
357.993	9.83
358.362	9.25
358.731	9.64
359.1	9.88
359.469	9.97
359.838	10.01
360.207	10.02
360.576	10.01
360.945	9.91
361.314	10.58
361.682	10.44
362.051	9.87
362.42	10.25
362.788	10.27
363.157	10.45
363.525	10.57
363.894	10.57
364.262	10.38
364.631	10.48
364.999	10.66
365.367	10.18
365.735	11.33
366.104	10.61
366.472	10.85
366.84	10.33
367.208	10.7
367.576	10.96
367.944	11.09
368.312	11.22
368.68	11
369.048	11.51
369.416	10.87
369.783	10.95
370.151	11.49
370.519	11.19
370.886	11.49
371.254	10.7
371.621	11.44
371.989	11.42
372.356	11.18
372.724	11.44
373.091	11.17
373.458	11.32
373.826	11.74
374.193	11.37
374.56	11.51
374.927	12.07
375.294	11.65
375.661	11.53
376.028	11.78
376.395	11.64
376.762	11.92
377.129	11.83
377.496	11.89
377.863	12.29
378.229	11.8
378.596	12.19
378.963	12.28
379.329	12.15
379.696	12.3
380.062	12.36
380.429	12.43
380.795	12.4
381.161	12.41
381.528	12.52
381.894	12.46
382.26	12.43
382.626	12.73
382.993	12.31
383.359	12.63
383.725	12.37
384.091	13.03
384.457	13.41
384.823	12.74
385.188	13.09
385.554	12.89
385.92	12.97
386.286	13.01
386.651	13.11
387.017	13.47
387.383	13.18
387.748	13.07
388.114	13.33
388.479	13.09
388.845	13.54
389.21	13.61
389.575	13.38
389.94	13.49
390.306	13.56
390.671	13.84
391.036	13.11
391.401	13.36
391.766	13.75
392.131	13.63
392.496	13.67
392.861	13.83
393.226	13.91
393.591	13.8
393.956	13.54
394.32	13.66
394.685	13.65
395.05	13.78
395.414	14.37
395.779	13.94
396.143	13.85
396.508	14.29
396.872	14.03
397.236	14.19
397.601	14.01
397.965	14.09
398.329	14.21
398.694	14.31
399.058	14.27
399.422	14.08
399.786	14.56
400.15	14.58
400.514	14.63
400.878	14.59
401.242	14.87
401.605	14.74
401.969	15.15
402.333	14.67
402.697	14.82
403.06	14.64
403.424	15.01
403.787	14.72
404.151	15.01
404.514	15.04
404.878	14.98
405.241	15.23
405.604	15.08
405.968	15.19
406.331	15.01
406.694	15.06
407.057	14.98
407.42	15.31
407.783	15.16
408.146	15.25
408.509	15.31
408.872	15.33
409.235	15.41
409.598	15.71
409.961	15.41
410.323	15.53
410.686	15.46
411.049	15.55
411.411	15.74
411.774	15.89
412.136	15.64
412.499	15.68
412.861	15.62
413.223	15.6
413.586	15.82
413.948	15.79
414.31	15.9
414.672	15.72
415.035	15.96
415.397	16.3
415.759	16.2
416.121	16.36
416.483	16.28
416.845	16.14
417.206	16.17
417.568	16.31
417.93	15.93
418.292	16.03
418.653	16.18
419.015	16.45
419.377	16.46
419.738	16.51
420.1	16.19
420.461	16.33
420.822	16.34
421.184	16.27
421.545	16.34
421.906	16.29
422.267	16.44
422.629	16.5
422.99	16.39
423.351	16.19
423.712	16.3
424.073	16.49
424.434	16.38
424.795	16.66
425.155	16.73
425.516	16.63
425.877	16.68
426.238	16.58
426.598	16.79
426.959	16.69
427.32	16.69
427.68	16.79
428.041	17.01
428.401	17.2
428.761	16.99
429.122	17.16
429.482	17.08
429.842	17.24
430.202	17.19
430.563	17.39
430.923	17.24
431.283	17.56
431.643	17.43
432.003	17.37
432.363	17.8
432.722	17.56
433.082	17.84
433.442	17.81
433.802	17.9
434.161	17.77
434.521	17.89
434.881	17.87
435.24	17.8
435.6	17.82
435.959	17.76
436.319	17.73
436.678	17.89
437.037	18
437.396	18.13
437.756	18.01
438.115	17.91
438.474	18.35
438.833	18.25
439.192	18.18
439.551	18.24
439.91	18.24
440.269	18.35
440.628	18.4
440.987	18.43
441.345	18.29
441.704	18.33
442.063	18.34
442.421	18.35
442.78	18.41
443.138	18.22
443.497	18.38
443.855	18.38
444.214	18.71
444.572	18.61
444.93	18.75
445.288	18.91
445.647	18.82
446.005	18.71
446.363	18.82
446.721	19.09
447.079	18.7
447.437	18.83
447.795	18.77
448.153	18.71
448.51	18.79
448.868	18.68
449.226	18.66
449.584	18.66
449.941	18.93
450.299	18.96
450.656	19.08
451.014	19
451.371	19.18
451.729	19.23
452.086	19.42
452.443	19.09
452.801	19.45
453.158	19.64
453.515	19.39
453.872	19.66
454.229	19.41
454.586	19.45
454.943	19.59
455.3	19.39
455.657	19.64
456.014	19.69
456.371	19.87
456.727	19.8
457.084	19.9
457.441	19.89
457.797	19.81
458.154	20.14
458.51	20.19
458.867	20.02
459.223	20.06
459.58	19.9
459.936	20.16
460.292	20.28
460.648	20.14
461.005	20.24
461.361	20.17
461.717	20.02
462.073	19.79
462.429	19.78
462.785	19.74
463.141	20.07
463.496	20.19
463.852	20.32
464.208	20.36
464.564	20.54
464.919	20.55
465.275	20.63
465.631	20.68
465.986	20.63
466.342	20.52
466.697	20.68
467.052	20.74
467.408	20.81
467.763	20.67
468.118	20.83
468.473	20.72
468.829	20.87
469.184	20.75
469.539	21.03
469.894	20.81
470.249	21
470.603	21
470.958	21.29
471.313	21.19
471.668	21.22
472.023	21.2
472.377	21.15
472.732	21.28
473.086	21.14
473.441	21.44
473.795	21.32
474.15	21.32
474.504	21.41
474.859	21.47
475.213	21.32
475.567	21.33
475.921	21.36
476.275	21.51
476.63	21.67
476.984	21.94
477.338	21.65
477.692	21.54
478.045	21.75
478.399	21.74
478.753	21.74
479.107	21.8
479.461	21.72
479.814	21.72
480.168	21.97
480.521	21.68
480.875	21.71
481.228	21.9
481.582	21.86
481.935	21.84
482.289	21.94
482.642	22.04
482.995	21.87
483.348	22.05
483.701	22.01
484.055	21.86
484.408	21.89
484.761	21.85
485.114	21.71
485.466	21.53
485.819	21.47
486.172	21.08
486.525	20.92
486.878	20.87
487.23	21.08
487.583	21.33
487.936	21.62
488.288	21.81
488.641	22
488.993	21.73
489.345	21.76
489.698	21.62
490.05	21.53
490.402	21.54
490.754	21.47
491.107	21.71
491.459	21.76
491.811	22.24
492.163	22.3
492.515	22.44
492.866	22.55
493.218	22.48
493.57	22.26
493.922	22.02
494.274	21.93
494.625	22.03
494.977	22.19
495.328	22.4
495.68	22.73
496.031	22.93
496.383	23.01
496.734	23.23
497.086	23.32
497.437	23.31
497.788	23.14
498.139	23.16
498.49	23.36
498.842	23.13
499.193	23.12
499.544	23.16
499.894	23.2
500.245	23.29
500.596	23.17
500.947	23.27
501.298	23.47
501.648	23.49
501.999	23.53
502.35	23.45
502.7	23.67
503.051	23.56
503.401	23.73
503.752	24.01
504.102	23.7
504.452	23.82
504.803	23.7
505.153	23.93
505.503	23.96
505.853	23.94
506.203	23.99
506.553	23.9
506.903	23.82
507.253	23.84
507.603	23.86
507.953	23.94
508.303	24.1
508.652	24.19
509.002	24.18
509.352	24.33
509.701	24.08
510.051	24.22
510.4	24.18
510.75	24.1
511.099	24.15
511.449	24.05
511.798	24.26
512.147	24.1
512.496	24.19
512.846	24.32
513.195	24.41
513.544	24.36
513.893	24.37
514.242	24.31
514.591	24.5
514.939	24.36
515.288	24.3
515.637	24.5
515.986	24.68
516.334	24.54
516.683	24.8
517.032	24.79
517.38	24.55
517.729	24.85
518.077	24.71
518.426	24.87
518.774	25.04
519.122	24.91
519.47	24.82
519.819	24.67
520.167	24.8
520.515	24.71
520.863	24.69
521.211	24.67
521.559	24.71
521.907	24.6
522.255	24.79
522.602	24.98
522.95	24.87
523.298	24.94
523.645	25.3
523.993	25.02
524.341	25.42
524.688	25.29
525.036	25.35
525.383	25.41
525.73	25.36
526.078	25.38
526.425	25.08
526.772	25.43
527.119	25.33
527.466	25.24
527.814	25.1
528.161	25.22
528.508	25.02
528.854	25.08
529.201	25.13
529.548	25.18
529.895	25.24
530.242	25.07
530.588	25.02
530.935	24.84
531.282	24.6
531.628	24.47
531.975	24.66
532.321	24.8
532.667	25.04
533.014	25.26
533.36	25.37
533.706	25.51
534.052	25.65
534.399	25.53
534.745	25.48
535.091	25.55
535.437	25.4
535.783	25.17
536.129	25.14
536.474	25.27
536.82	25.43
537.166	25.57
537.512	25.85
537.857	25.97
538.203	26.04
538.549	26.01
538.894	25.82
539.239	25.94
539.585	25.71
539.93	26.07
540.276	26.21
540.621	26.22
540.966	26.24
541.311	26.22
541.656	26.46
542.001	26.51
542.346	26.55
542.691	26.32
543.036	26.19
543.381	25.97
543.726	25.82
544.071	25.74
544.415	25.75
544.76	25.86
545.105	26.02
545.449	26.18
545.794	26.32
546.138	26.32
546.483	26.47
546.827	26.63
547.171	26.7
547.516	26.89
547.86	26.6
548.204	26.83
548.548	26.79
548.892	26.94
549.236	26.81
549.58	26.72
549.924	26.81
550.268	26.99
550.612	27.19
550.956	27.26
551.3	27.12
551.643	27.39
551.987	27.44
552.33	27.41
552.674	27.46
553.017	27.52
553.361	27.66
553.704	27.97
554.048	27.46
554.391	27.56
554.734	27.57
555.077	27.57
555.42	27.58
555.764	27.46
556.107	27.47
556.45	27.72
556.793	27.92
557.135	27.84
557.478	27.93
557.821	28.11
558.164	27.79
558.507	28.02
558.849	27.99
559.192	28.03
559.534	27.96
559.877	28.49
560.219	28.13
560.562	28.09
560.904	28.13
561.246	28.13
561.589	28.23
561.931	28.2
562.273	28.22
562.615	28.34
562.957	28.09
563.299	28.11
563.641	28.26
563.983	28.4
564.325	28.1
564.667	28.48
565.008	28.35
565.35	28.34
565.692	28.43
566.033	28.65
566.375	28.62
566.716	28.74
567.058	28.67
567.399	28.47
567.741	28.56
568.082	28.55
568.423	28.59
568.764	28.63
569.105	28.3
569.447	28.69
569.788	28.55
570.129	28.69
570.47	28.72
570.811	28.89
571.151	28.95
571.492	29.03
571.833	28.9
572.174	28.88
572.514	28.78
572.855	28.94
573.195	29.08
573.536	29.03
573.876	28.93
574.217	28.98
574.557	28.92
574.898	28.89
575.238	28.77
575.578	28.84
575.918	29.03
576.258	29.08
576.598	29.24
576.938	29.23
577.278	28.84
577.618	29.13
577.958	28.94
578.298	28.93
578.638	29.09
578.977	29.26
579.317	29.44
579.657	29.42
579.996	29.34
580.336	29.55
580.675	29.45
581.014	29.33
581.354	29.43
581.693	29.68
582.032	29.8
582.372	29.79
582.711	29.8
583.05	29.56
583.389	29.79
583.728	29.57
584.067	30.08
584.406	30.12
584.745	29.7
585.083	29.78
585.422	30.12
585.761	30.1
586.1	29.94
586.438	30.11
586.777	30.03
587.115	30.12
587.454	30
587.792	30.04
588.13	30.14
588.469	30.13
588.807	30.12
589.145	30.12
589.483	30.19
589.821	30.32
590.159	30.19
590.497	30.35
590.835	30.33
591.173	29.99
591.511	30.42
591.849	30.22
592.187	30.26
592.524	30.26
592.862	30.1
593.2	30.46
593.537	30.57
593.875	30.15
594.212	30.28
594.55	30.7
594.887	30.66
595.224	30.51
595.561	30.35
595.899	30.64
596.236	30.8
596.573	30.31
596.91	30.23
597.247	30.48
597.584	30.77
597.921	30.76
598.258	30.37
598.594	30.63
598.931	30.65
599.268	30.58
599.604	30.52
599.941	30.47
600.277	30.68
600.614	30.48
600.95	30.43
601.287	30.52
601.623	30.73
601.959	30.66
602.296	31.1
602.632	31.03
602.968	30.94
603.304	31.14
603.64	30.95
603.976	30.88
604.312	30.96
604.648	30.87
604.984	31
605.319	31.05
605.655	31.11
605.991	30.91
606.326	30.83
606.662	31.06
606.998	30.85
607.333	31.04
607.668	30.95
608.004	31.07
608.339	31.36
608.674	31.13
609.01	31.34
609.345	31.02
609.68	31.46
610.015	31.14
610.35	31.39
610.685	31.48
611.02	31.65
611.355	31.79
611.689	31.59
612.024	31.19
612.359	31.35
612.694	31.3
613.028	31.49
613.363	31.35
613.697	31.82
614.032	31.65
614.366	31.64
614.7	31.83
615.035	31.46
615.369	31.75
615.703	31.67
616.037	31.9
616.371	31.72
616.705	31.7
617.039	31.69
617.373	32.23
617.707	31.78
618.041	31.98
618.375	31.98
618.709	31.93
619.042	31.98
619.376	32.24
619.71	32.11
620.043	31.98
620.377	32.22
620.71	32.06
621.043	32.42
621.377	32.42
621.71	32.1
622.043	31.94
622.376	32.2
622.709	32.29
623.043	31.71
623.376	32.6
623.709	32.38
624.041	32.55
624.374	32.33
624.707	32.28
625.04	32.62
625.373	32.1
625.705	32.19
626.038	32.3
626.37	32.3
626.703	32.6
627.035	32.52
627.368	32.73
627.7	32.41
628.032	32.09
628.365	32.89
628.697	32.52
629.029	32.47
629.361	32.36
629.693	32.5
630.025	32.25
630.357	32.58
630.689	32.23
631.021	32.55
631.353	33.05
631.684	32.94
632.016	32.41
632.348	32.21
632.679	32.98
633.011	32.71
633.342	32.85
633.674	32.57
634.005	33.21
634.336	33.2
634.668	33.11
634.999	33.11
635.33	33.35
635.661	32.71
635.992	32.99
636.323	33.33
636.654	33.35
636.985	33.07
637.316	32.96
637.647	33.32
637.977	33.17
638.308	33.12
638.639	32.49
638.969	33.19
639.3	32.78
639.63	32.97
639.961	33.3
640.291	32.96
640.622	33.1
640.952	32.96
641.282	33.4
641.612	33.51
641.943	33.37
642.273	33.21
642.603	33.81
642.933	33.28
643.263	33.26
643.592	33.74
643.922	33.49
644.252	33.29
644.582	33.59
644.911	32.93
645.241	33.44
645.571	34.01
645.9	32.81
646.23	33.53
646.559	34.14
646.888	33.28
647.218	33.01
647.547	34.02
647.876	33.85
648.205	33.73
648.534	33.7
648.863	33.52
649.192	33.55
649.521	33.48
649.85	33.66
650.179	33.44
650.508	33.56
650.837	33.89
651.165	34.02
651.494	33.69
651.822	34.37
652.151	33.85
652.479	33.47
652.808	33.52
653.136	34.07
653.465	34
653.793	33.52
654.121	33.71
654.449	34.17
654.777	33.8
655.105	33.57
655.433	33.68
655.761	34.28
656.089	34.33
656.417	33.87
656.745	33.81
657.073	34.17
657.4	34.31
657.728	34.05
658.056	33.98
658.383	34.17
658.711	34.21
659.038	34.45
659.365	34.12
659.693	34.55
660.02	34.21
660.347	33.97
660.674	34.14
661.001	34.54
661.329	34
661.656	34.17
661.982	34.04
662.309	34.09
662.636	33.44
662.963	33.88
663.29	33.95
663.616	34.03
663.943	34.09
664.27	34.74
664.596	34.5
664.923	34.13
665.249	34.29
665.576	34.25
665.902	34.95
666.228	34.28
666.554	34.12
666.881	34.27
667.207	34.49
667.533	34.61
667.859	34.72
668.185	34.52
668.511	34.25
668.837	34.21
669.162	34.72
669.488	34.08
669.814	34.95
670.139	34.58
670.465	35.49
670.791	34.36
671.116	35.23
671.442	34.25
671.767	35.31
