Data from 0388_chest_Reflection__4__80.txt Node

Date: Fri Dec 15 16:57:36 CST 2023
User: ToomeyLab
Spectrometer: FLMS14357
Trigger mode: 0
Integration Time (sec): 1.000000E-2
Scans to average: 100
Electric dark correction enabled: true
Nonlinearity correction enabled: false
Boxcar width: 0
XAxis mode: Wavelengths
Number of Pixels in Spectrum: 2048
>>>>>Begin Spectral Data<<<<<
189.047	60.41
189.435	60.41
189.823	60.41
190.211	42.2
190.599	12.96
190.987	92.15
191.375	268.43
191.763	-28.24
192.151	547312638080400
192.538	173.03
192.926	21.88
193.314	101.52
193.702	118.61
194.089	-425.6
194.477	-48.92
194.864	-503.68
195.252	122.38
195.639	82.51
196.027	-119.38
196.414	69.93
196.801	169.31
197.189	92.78
197.576	-449.55
197.963	11.98
198.351	-2.75
198.738	-22.55
199.125	17.23
199.512	-12.85
199.899	31.99
200.286	46.52
200.673	25.85
201.06	-20.12
201.447	-9.25
201.833	-53.45
202.22	24.47
202.607	37.06
202.994	-11.3
203.38	33.97
203.767	10.88
204.154	4.2
204.54	19.9
204.927	-9.55
205.313	19.57
205.699	53.93
206.086	33.51
206.472	29.35
206.858	38.45
207.245	53.82
207.631	50.13
208.017	9.08
208.403	-1.69
208.789	47.75
209.175	40.86
209.561	-7.38
209.947	-0.93
210.333	-4.06
210.719	17.04
211.105	47.14
211.491	-32.37
211.876	25.55
212.262	17.99
212.648	30.16
213.034	17.47
213.419	24.65
213.805	8.19
214.19	-18.25
214.576	9.46
214.961	-25.31
215.346	11.78
215.732	-5.85
216.117	26.84
216.502	-21.39
216.888	8.1
217.273	44.49
217.658	13.59
218.043	20.47
218.428	10.3
218.813	-22.61
219.198	-52.52
219.583	17.83
219.968	1.28
220.353	-9.78
220.738	7.55
221.122	11.49
221.507	-0.39
221.892	-2.41
222.276	-8.89
222.661	2.92
223.046	27.43
223.43	25.57
223.815	19.46
224.199	-5.3
224.583	-2.71
224.968	9.86
225.352	14.81
225.736	8.55
226.121	1.71
226.505	9.37
226.889	1.14
227.273	-2.05
227.657	11.26
228.041	2.94
228.425	0.86
228.809	8.17
229.193	7.97
229.577	4.25
229.961	4.48
230.344	4.43
230.728	4.55
231.112	5.31
231.495	4.8
231.879	5
232.263	6.62
232.646	5.17
233.03	3.6
233.413	4.59
233.797	5.7
234.18	3.46
234.563	6.57
234.946	4.4
235.33	6.88
235.713	4.88
236.096	5.86
236.479	5.81
236.862	3.43
237.245	7.04
237.628	4.37
238.011	4.17
238.394	7.58
238.777	5.81
239.16	3.73
239.543	7.71
239.925	6.92
240.308	4.57
240.691	4.54
241.073	5.52
241.456	4.98
241.838	5.35
242.221	4.41
242.603	4.78
242.986	4.67
243.368	5.66
243.75	4.62
244.133	4.37
244.515	4.95
244.897	4.82
245.279	5.21
245.661	4.45
246.043	5.03
246.425	4.17
246.807	6.52
247.189	5.94
247.571	5.48
247.953	4.89
248.335	4.8
248.717	4.99
249.098	4.51
249.48	4.76
249.862	4.69
250.243	4.7
250.625	4.45
251.006	5.14
251.388	3.97
251.769	5.7
252.151	6.19
252.532	5.33
252.913	4.56
253.295	4.54
253.676	4.97
254.057	4.76
254.438	4.83
254.819	4.73
255.2	4.1
255.581	4.54
255.962	3.56
256.343	4.6
256.724	4.3
257.105	5.71
257.486	5.08
257.867	4.22
258.247	5.48
258.628	4.05
259.009	4.28
259.389	4.74
259.77	4.57
260.15	4.1
260.531	3.85
260.911	5.15
261.292	4.66
261.672	4.69
262.052	4.46
262.432	4.75
262.813	4.41
263.193	4.8
263.573	4.36
263.953	3.67
264.333	5.76
264.713	4.71
265.093	4.17
265.473	5.29
265.853	3.34
266.233	4.12
266.612	3.75
266.992	3.48
267.372	4.84
267.752	4.65
268.131	4.66
268.511	4.75
268.89	4.77
269.27	3.61
269.649	3.74
270.029	4.38
270.408	4.94
270.787	4.75
271.167	4.83
271.546	4.63
271.925	4
272.304	3.97
272.683	5.09
273.062	4.56
273.441	4.75
273.82	3.89
274.199	4.4
274.578	4.4
274.957	4.4
275.336	4.42
275.715	4.09
276.093	3.83
276.472	4.82
276.851	4.32
277.229	4.16
277.608	3.72
277.986	4.17
278.365	5.03
278.743	4.01
279.122	4.72
279.5	4.72
279.878	4.37
280.257	4.15
280.635	4.13
281.013	4.3
281.391	4.33
281.769	4.34
282.147	4.3
282.525	4.98
282.903	4.02
283.281	4.05
283.659	4.61
284.037	4.38
284.415	4.9
284.792	4.57
285.17	3.79
285.548	4.13
285.925	4.51
286.303	4.04
286.68	4.04
287.058	4.27
287.435	3.83
287.813	4.16
288.19	4.32
288.567	4.31
288.945	4.77
289.322	4.79
289.699	4.31
290.076	4.63
290.453	4.3
290.83	4.15
291.207	3.81
291.584	4.45
291.961	4.71
292.338	4.38
292.715	4.71
293.092	4.09
293.469	4.19
293.845	4.76
294.222	3.82
294.599	4.26
294.975	4.32
295.352	4.84
295.728	4.01
296.105	4.09
296.481	4.38
296.858	4.09
297.234	4.46
297.61	4.01
297.986	4.1
298.363	4.55
298.739	4.69
299.115	4.31
299.491	4.15
299.867	4.4
300.243	4.83
300.619	4.2
300.995	4.55
301.371	4.47
301.746	4
302.122	4.88
302.498	4.52
302.874	4.32
303.249	4.05
303.625	4.49
304	4.65
304.376	4.15
304.751	4.21
305.127	5.42
305.502	4.12
305.878	4.21
306.253	4.62
306.628	5.38
307.003	4.35
307.378	4.74
307.754	4.55
308.129	4.07
308.504	4.21
308.879	4.04
309.254	5.31
309.629	5.54
310.003	4.32
310.378	4.88
310.753	4.84
311.128	4.38
311.502	4.17
311.877	4.74
312.252	3.79
312.626	3.86
313.001	4.16
313.375	4.72
313.75	3.98
314.124	4.4
314.498	4.35
314.873	4.72
315.247	4.39
315.621	4.54
315.995	4.22
316.369	4.57
316.743	4.54
317.117	4.68
317.491	4.1
317.865	4.33
318.239	4.34
318.613	4.84
318.987	4.68
319.361	4.22
319.734	4.84
320.108	4.74
320.482	4.1
320.855	4.61
321.229	3.97
321.602	4.34
321.976	4.68
322.349	4.37
322.723	4.09
323.096	4.93
323.469	3.58
323.843	4.32
324.216	5.08
324.589	4.66
324.962	4.94
325.335	4.35
325.708	4.34
326.081	4.02
326.454	4.15
326.827	4.21
327.2	4.19
327.573	4.51
327.945	4.02
328.318	3.98
328.691	4.3
329.063	4.52
329.436	4.05
329.809	5.44
330.181	4.28
330.553	4.41
330.926	4.89
331.298	4.12
331.671	3.79
332.043	4.87
332.415	4.55
332.787	3.94
333.159	4.99
333.532	4.47
333.904	4.54
334.276	3.75
334.648	4.6
335.02	4.62
335.391	4.68
335.763	4.25
336.135	4.83
336.507	4.89
336.879	4.17
337.25	4.4
337.622	4.57
337.993	4
338.365	4.52
338.736	4.68
339.108	4.66
339.479	3.73
339.851	4.34
340.222	4.61
340.593	4.54
340.964	4.23
341.336	4.88
341.707	3.94
342.078	4.59
342.449	4.45
342.82	4.17
343.191	4.59
343.562	4.12
343.933	4.35
344.303	4.43
344.674	4.25
345.045	4.49
345.416	5.24
345.786	4.36
346.157	4.66
346.527	3.94
346.898	4.4
347.268	4.84
347.639	4.18
348.009	4.62
348.38	4.32
348.75	4.49
349.12	4.58
349.49	4.84
349.861	4.45
350.231	4.4
350.601	4.65
350.971	4.55
351.341	4.8
351.711	4.81
352.081	4.82
352.45	4.24
352.82	4.52
353.19	4.47
353.56	4.21
353.929	4.43
354.299	4.41
354.669	4.26
355.038	4.7
355.408	4.12
355.777	4.41
356.147	4.6
356.516	4.69
356.885	4.7
357.254	4.33
357.624	4.79
357.993	4.67
358.362	4.39
358.731	4.34
359.1	5.01
359.469	4.57
359.838	4.66
360.207	4.27
360.576	4.25
360.945	4.48
361.314	4.83
361.682	4.36
362.051	4.26
362.42	4.77
362.788	4.42
363.157	4.61
363.525	4.7
363.894	4.53
364.262	4.74
364.631	4.47
364.999	4.66
365.367	4.27
365.735	5.19
366.104	4.57
366.472	4.9
366.84	4.17
367.208	4.5
367.576	4.58
367.944	4.59
368.312	4.35
368.68	4.4
369.048	4.5
369.416	4.25
369.783	4.52
370.151	4.41
370.519	4.9
370.886	5
371.254	4.12
371.621	4.68
371.989	4.61
372.356	4.17
372.724	4.41
373.091	4.51
373.458	4.69
373.826	4.43
374.193	4.26
374.56	4.71
374.927	4.69
375.294	4.48
375.661	4.41
376.028	4.4
376.395	4.46
376.762	4.4
377.129	4.47
377.496	4.59
377.863	4.79
378.229	3.93
378.596	4.46
378.963	4.39
379.329	4.41
379.696	4.71
380.062	4.58
380.429	4.49
380.795	4.68
381.161	4.47
381.528	4.67
381.894	4.86
382.26	4.48
382.626	4.79
382.993	4.53
383.359	4.6
383.725	4.39
384.091	4.57
384.457	4.71
384.823	4.57
385.188	4.77
385.554	4.52
385.92	4.88
386.286	4.7
386.651	4.76
387.017	4.85
387.383	4.64
387.748	4.33
388.114	4.7
388.479	4.51
388.845	4.82
389.21	4.71
389.575	4.61
389.94	4.66
390.306	4.57
390.671	4.88
391.036	4.34
391.401	4.36
391.766	4.68
392.131	4.67
392.496	4.66
392.861	4.54
393.226	4.81
393.591	4.8
393.956	4.54
394.32	4.4
394.685	4.39
395.05	4.32
395.414	4.79
395.779	4.36
396.143	4.77
396.508	4.69
396.872	4.69
397.236	4.67
397.601	4.48
397.965	4.66
398.329	4.68
398.694	4.67
399.058	4.73
399.422	4.51
399.786	4.84
400.15	4.53
400.514	4.77
400.878	4.82
401.242	4.9
401.605	4.68
401.969	4.79
402.333	4.87
402.697	4.57
403.06	4.57
403.424	4.5
403.787	4.4
404.151	5.02
404.514	4.74
404.878	4.66
405.241	4.76
405.604	4.78
405.968	4.64
406.331	4.65
406.694	4.71
407.057	4.72
407.42	4.84
407.783	4.54
408.146	4.74
408.509	4.67
408.872	4.66
409.235	4.53
409.598	4.8
409.961	4.68
410.323	4.83
410.686	4.56
411.049	4.84
411.411	4.61
411.774	4.64
412.136	4.73
412.499	4.61
412.861	4.73
413.223	4.77
413.586	4.83
413.948	4.65
414.31	4.67
414.672	4.54
415.035	4.58
415.397	4.86
415.759	4.82
416.121	4.82
416.483	4.52
416.845	4.73
417.206	4.82
417.568	4.59
417.93	4.56
418.292	4.56
418.653	4.77
419.015	4.81
419.377	4.73
419.738	4.81
420.1	4.73
420.461	4.72
420.822	4.85
421.184	4.58
421.545	4.75
421.906	4.56
422.267	4.78
422.629	4.68
422.99	4.6
423.351	4.52
423.712	4.68
424.073	4.73
424.434	4.66
424.795	4.79
425.155	4.7
425.516	4.6
425.877	4.62
426.238	4.57
426.598	4.74
426.959	4.67
427.32	4.75
427.68	4.74
428.041	4.55
428.401	4.73
428.761	4.74
429.122	4.66
429.482	4.58
429.842	4.76
430.202	4.6
430.563	4.87
430.923	4.57
431.283	4.92
431.643	4.78
432.003	4.61
432.363	4.84
432.722	4.77
433.082	5.01
433.442	4.86
433.802	4.93
434.161	4.96
434.521	5
434.881	4.79
435.24	4.75
435.6	4.89
435.959	4.74
436.319	4.74
436.678	4.87
437.037	4.91
437.396	4.94
437.756	4.85
438.115	4.76
438.474	4.89
438.833	4.72
439.192	4.67
439.551	4.94
439.91	4.94
440.269	4.89
440.628	4.7
440.987	4.88
441.345	4.7
441.704	4.73
442.063	4.72
442.421	4.75
442.78	4.78
443.138	4.7
443.497	4.78
443.855	4.81
444.214	4.84
444.572	4.93
444.93	4.77
445.288	4.78
445.647	4.88
446.005	5.02
446.363	4.86
446.721	5.04
447.079	4.7
447.437	4.93
447.795	4.72
448.153	4.83
448.51	4.78
448.868	4.86
449.226	4.74
449.584	4.76
449.941	4.83
450.299	4.85
450.656	4.91
451.014	4.87
451.371	4.8
451.729	4.92
452.086	5.03
452.443	4.8
452.801	5.03
453.158	5.01
453.515	4.74
453.872	5.14
454.229	4.88
454.586	4.93
454.943	4.88
455.3	4.79
455.657	4.75
456.014	4.95
456.371	4.84
456.727	5.01
457.084	5
457.441	4.79
457.797	4.96
458.154	5.13
458.51	4.95
458.867	4.93
459.223	5.01
459.58	5.04
459.936	5.08
460.292	4.89
460.648	4.9
461.005	4.8
461.361	4.95
461.717	4.94
462.073	4.88
462.429	4.87
462.785	4.87
463.141	4.82
463.496	5.01
463.852	5.03
464.208	4.86
464.564	5.03
464.919	4.93
465.275	4.94
465.631	5.38
465.986	4.97
466.342	4.99
466.697	4.9
467.052	5.08
467.408	5.18
467.763	5.05
468.118	5.01
468.473	4.93
468.829	5.02
469.184	4.97
469.539	5.05
469.894	4.83
470.249	5.12
470.603	5.07
470.958	5.21
471.313	5.18
471.668	5.05
472.023	5.1
472.377	5.17
472.732	5.15
473.086	5.03
473.441	4.85
473.795	5.29
474.15	5.23
474.504	4.9
474.859	5.23
475.213	4.99
475.567	5.12
475.921	4.98
476.275	4.88
476.63	5.2
476.984	5.15
477.338	4.99
477.692	5.03
478.045	5.09
478.399	4.99
478.753	5.33
479.107	5.06
479.461	5.17
479.814	5.05
480.168	5.27
480.521	5.04
480.875	5.05
481.228	5.14
481.582	5.04
481.935	5.21
482.289	5.19
482.642	5.01
482.995	4.96
483.348	5.05
483.701	5.15
484.055	5.08
484.408	5.06
484.761	4.99
485.114	4.94
485.466	4.86
485.819	4.83
486.172	4.84
486.525	4.81
486.878	4.82
487.23	4.88
487.583	4.97
487.936	4.97
488.288	5.02
488.641	5.05
488.993	4.92
489.345	4.95
489.698	4.97
490.05	4.88
490.402	5.01
490.754	5.01
491.107	4.98
491.459	5.12
491.811	5.12
492.163	5.12
492.515	5.01
492.866	5.1
493.218	5.08
493.57	5
493.922	4.94
494.274	5.01
494.625	5.15
494.977	5.18
495.328	5.2
495.68	5.18
496.031	5.28
496.383	5.27
496.734	5.37
497.086	5.31
497.437	5.26
497.788	5.25
498.139	5.17
498.49	5.3
498.842	5.15
499.193	5.3
499.544	5.23
499.894	5.22
500.245	5.2
500.596	5.3
500.947	5.21
501.298	5.18
501.648	5.36
501.999	5.41
502.35	5.24
502.7	5.41
503.051	5.24
503.401	5.19
503.752	5.38
504.102	5.38
504.452	5.31
504.803	5.33
505.153	5.26
505.503	5.34
505.853	5.32
506.203	5.25
506.553	5.33
506.903	5.23
507.253	5.36
507.603	5.19
507.953	5.41
508.303	5.49
508.652	5.28
509.002	5.47
509.352	5.43
509.701	5.29
510.051	5.37
510.4	5.33
510.75	5.35
511.099	5.38
511.449	5.41
511.798	5.39
512.147	5.37
512.496	5.28
512.846	5.44
513.195	5.44
513.544	5.43
513.893	5.58
514.242	5.32
514.591	5.53
514.939	5.42
515.288	5.46
515.637	5.59
515.986	5.55
516.334	5.55
516.683	5.59
517.032	5.54
517.38	5.7
517.729	5.59
518.077	5.57
518.426	5.69
518.774	5.58
519.122	5.65
519.47	5.58
519.819	5.38
520.167	5.61
520.515	5.52
520.863	5.53
521.211	5.61
521.559	5.56
521.907	5.57
522.255	5.53
522.602	5.64
522.95	5.62
523.298	5.62
523.645	5.71
523.993	5.66
524.341	5.75
524.688	5.74
525.036	5.7
525.383	5.62
525.73	5.79
526.078	5.7
526.425	5.69
526.772	5.66
527.119	5.67
527.466	5.62
527.814	5.66
528.161	5.65
528.508	5.7
528.854	5.64
529.201	5.69
529.548	5.67
529.895	5.64
530.242	5.54
530.588	5.57
530.935	5.6
531.282	5.57
531.628	5.6
531.975	5.61
532.321	5.71
532.667	5.69
533.014	5.73
533.36	5.84
533.706	5.87
534.052	5.74
534.399	5.75
534.745	5.78
535.091	5.7
535.437	5.81
535.783	5.83
536.129	5.75
536.474	5.77
536.82	5.88
537.166	5.93
537.512	5.91
537.857	5.93
538.203	5.95
538.549	5.97
538.894	5.92
539.239	5.99
539.585	5.87
539.93	5.85
540.276	6.05
540.621	6.07
540.966	6.15
541.311	6
541.656	6.06
542.001	6
542.346	6.13
542.691	6.05
543.036	6.01
543.381	5.91
543.726	5.9
544.071	5.98
544.415	6.04
544.76	6
545.105	6.02
545.449	6.1
545.794	6.16
546.138	6.11
546.483	6.24
546.827	6.25
547.171	6.21
547.516	6.3
547.86	6.15
548.204	6.14
548.548	6.18
548.892	6.37
549.236	6.26
549.58	6.17
549.924	6.33
550.268	6.4
550.612	6.52
550.956	6.67
551.3	6.4
551.643	6.64
551.987	6.63
552.33	6.56
552.674	6.64
553.017	6.59
553.361	6.54
553.704	6.79
554.048	6.53
554.391	6.59
554.734	6.51
555.077	6.61
555.42	6.51
555.764	6.48
556.107	6.52
556.45	6.61
556.793	6.56
557.135	6.74
557.478	6.84
557.821	6.67
558.164	6.7
558.507	6.75
558.849	6.84
559.192	6.75
559.534	7.03
559.877	6.96
560.219	6.84
560.562	7.1
560.904	7.01
561.246	6.8
561.589	6.71
561.931	6.97
562.273	6.85
562.615	7.07
562.957	7.01
563.299	6.84
563.641	7.12
563.983	6.94
564.325	7
564.667	6.86
565.008	7.05
565.35	6.89
565.692	7.1
566.033	7.07
566.375	7.18
566.716	7.33
567.058	7.05
567.399	7.26
567.741	7.1
568.082	7.16
568.423	7.21
568.764	7.1
569.105	7.18
569.447	7.36
569.788	7.32
570.129	7.37
570.47	7.36
570.811	7.61
571.151	7.54
571.492	7.44
571.833	7.39
572.174	7.56
572.514	7.47
572.855	7.61
573.195	7.45
573.536	7.45
573.876	7.49
574.217	7.55
574.557	7.55
574.898	7.73
575.238	7.6
575.578	7.39
575.918	7.68
576.258	7.56
576.598	7.69
576.938	7.6
577.278	7.74
577.618	7.6
577.958	7.56
578.298	7.62
578.638	7.54
578.977	7.79
579.317	7.77
579.657	7.94
579.996	7.97
580.336	7.83
580.675	7.84
581.014	8.01
581.354	7.88
581.693	8.08
582.032	8
582.372	7.82
582.711	8.13
583.05	7.63
583.389	7.96
583.728	7.94
584.067	8.08
584.406	8.23
584.745	8.2
585.083	8.37
585.422	8.5
585.761	8.26
586.1	8.19
586.438	8.07
586.777	8.39
587.115	8.59
587.454	8.15
587.792	8.08
588.13	8.74
588.469	8.22
588.807	8.5
589.145	8.25
589.483	8.53
589.821	8.56
590.159	8.64
590.497	8.74
590.835	9.01
591.173	8.68
591.511	8.61
591.849	8.64
592.187	8.58
592.524	8.72
592.862	8.77
593.2	8.8
593.537	8.7
593.875	8.7
594.212	8.71
594.55	8.91
594.887	9.11
595.224	8.94
595.561	8.96
595.899	9.01
596.236	8.81
596.573	8.87
596.91	8.5
597.247	8.97
597.584	9.3
597.921	9
598.258	9.07
598.594	9.07
598.931	8.98
599.268	9.09
599.604	8.97
599.941	9
600.277	9.24
600.614	9.31
600.95	9.18
601.287	9.32
601.623	9.12
601.959	9.29
602.296	9.16
602.632	9.23
602.968	9.53
603.304	9.41
603.64	9.28
603.976	9.55
604.312	9.42
604.648	9.52
604.984	9.42
605.319	9.71
605.655	9.46
605.991	9.54
606.326	9.64
606.662	9.64
606.998	9.56
607.333	9.5
607.668	9.53
608.004	9.95
608.339	9.94
608.674	9.91
609.01	9.78
609.345	9.54
609.68	9.9
610.015	9.74
610.35	9.86
610.685	9.85
611.02	9.96
611.355	10.09
611.689	10.03
612.024	9.98
612.359	9.96
612.694	10.08
613.028	9.81
613.363	10.29
613.697	10.27
614.032	10.47
614.366	10.24
614.7	10.35
615.035	10.55
615.369	10.22
615.703	10.49
616.037	10.55
616.371	10.19
616.705	10.41
617.039	10.49
617.373	10.29
617.707	10.34
618.041	10.4
618.375	10.47
618.709	10.94
619.042	10.44
619.376	10.83
619.71	10.73
620.043	10.63
620.377	10.62
620.71	11.01
621.043	10.72
621.377	10.8
621.71	11
622.043	10.62
622.376	10.57
622.709	11.31
623.043	11.12
623.376	11.05
623.709	10.77
624.041	11.18
624.374	11.21
624.707	10.94
625.04	11.47
625.373	10.93
625.705	10.99
626.038	10.76
626.37	10.87
626.703	10.95
627.035	10.99
627.368	11.49
627.7	11.69
628.032	11.55
628.365	11.72
628.697	11.62
629.029	11.39
629.361	11.5
629.693	11.53
630.025	11.35
630.357	11.89
630.689	11.74
631.021	11.55
631.353	11.5
631.684	11.81
632.016	11.08
632.348	11.67
632.679	11.68
633.011	11.91
633.342	11.88
633.674	12.01
634.005	12.18
634.336	11.84
634.668	12.25
634.999	11.53
635.33	12.03
635.661	12.33
635.992	11.82
636.323	12.09
636.654	12.54
636.985	12.45
637.316	12.13
637.647	11.89
637.977	12.08
638.308	12.66
638.639	11.89
638.969	12.34
639.3	12.01
639.63	11.82
639.961	12.52
640.291	11.95
640.622	12.71
640.952	12.44
641.282	13.1
641.612	12.82
641.943	12.54
642.273	12.53
642.603	12.7
642.933	12.99
643.263	12.93
643.592	13.16
643.922	12.49
644.252	12.71
644.582	12.79
644.911	12.75
645.241	12.85
645.571	12.87
645.9	12.41
646.23	12.68
646.559	13.07
646.888	12.35
647.218	13.14
647.547	13.39
647.876	12.47
648.205	13.54
648.534	12.88
648.863	12.92
649.192	13.48
649.521	13.01
649.85	12.61
650.179	13.13
650.508	12.92
650.837	13.27
651.165	13.16
651.494	13.05
651.822	13.68
652.151	13.58
652.479	13.43
652.808	12.75
653.136	13.8
653.465	13
653.793	13.37
654.121	13.35
654.449	13.65
654.777	13.64
655.105	13.35
655.433	13.56
655.761	13.57
656.089	13.48
656.417	13.67
656.745	13.49
657.073	13.38
657.4	13.96
657.728	14.05
658.056	13.71
658.383	13.94
658.711	13.97
659.038	14.67
659.365	14.51
659.693	14.05
660.02	13.97
660.347	14.08
660.674	13.58
661.001	14.35
661.329	13.83
661.656	14.2
661.982	14.21
662.309	13.85
662.636	13.88
662.963	14.4
663.29	14.49
663.616	14.73
663.943	13.86
664.27	14.57
664.596	14.23
664.923	14.38
665.249	14.32
665.576	14.46
665.902	14.93
666.228	14.85
666.554	14.91
666.881	14.84
667.207	14.8
667.533	14.47
667.859	15.16
668.185	14.85
668.511	14.36
668.837	14.05
669.162	14.67
669.488	14.31
669.814	14.69
670.139	14.86
670.465	15.45
670.791	14.72
671.116	15.59
671.442	14.8
671.767	15.29
672.092	15.15
672.418	15.18
672.743	15.53
673.068	14.79
673.393	15.37
673.718	15.12
674.043	15.57
674.368	15.21
674.693	16.09
675.018	15.62
675.343	15.44
675.667	15.48
675.992	16.05
676.317	16.16
676.641	15.29
676.966	15.88
677.29	15.53
677.615	15.66
677.939	15.82
678.264	15.75
678.588	15.84
678.912	15.82
679.236	16.28
679.56	14.98
679.885	16.01
680.209	15.86
680.532	15.41
680.856	16.21
681.18	15.81
681.504	15.82
681.828	16.42
682.152	15.41
682.475	15.81
682.799	16.2
683.122	16.09
683.446	15.91
683.769	16.18
684.093	15.75
684.416	17.27
684.739	16.42
685.062	16.04
685.386	16.38
685.709	15.75
686.032	16.17
686.355	16.4
686.678	15.8
687.001	16.93
687.324	15.87
687.646	15.71
