Data from 0388_forehead_Reflection__2__88.txt Node

Date: Fri Dec 15 16:59:30 CST 2023
User: ToomeyLab
Spectrometer: FLMS14357
Trigger mode: 0
Integration Time (sec): 1.000000E-2
Scans to average: 100
Electric dark correction enabled: true
Nonlinearity correction enabled: false
Boxcar width: 0
XAxis mode: Wavelengths
Number of Pixels in Spectrum: 2048
>>>>>Begin Spectral Data<<<<<
189.047	-72.81
189.435	-72.81
189.823	-72.81
190.211	134.67
190.599	211.95
190.987	124.5
191.375	42.03
191.763	67.33
192.151	3932785423300
192.538	121.35
192.926	21.13
193.314	192.15
193.702	2.73
194.089	834.52
194.477	124.38
194.864	622.06
195.252	83.64
195.639	54.85
196.027	94.78
196.414	87.97
196.801	171.13
197.189	89.38
197.576	-181.25
197.963	-50.17
198.351	-26.55
198.738	3.18
199.125	29.81
199.512	-40.7
199.899	7.19
200.286	6.12
200.673	16.23
201.06	9.99
201.447	-22.28
201.833	38.53
202.22	70.11
202.607	44.55
202.994	0.1
203.38	22.46
203.767	39.41
204.154	34.16
204.54	49.63
204.927	-19.35
205.313	-29.22
205.699	29.85
206.086	41.65
206.472	56.93
206.858	18.76
207.245	26.43
207.631	29.39
208.017	8.8
208.403	-1.8
208.789	31.28
209.175	61.87
209.561	18.66
209.947	47.8
210.333	28.89
210.719	58.84
211.105	40.12
211.491	6.01
211.876	41.73
212.262	21.72
212.648	8.25
213.034	21.43
213.419	10.27
213.805	30.73
214.19	-27.7
214.576	35.35
214.961	-0.53
215.346	-46.76
215.732	18.53
216.117	21.99
216.502	-18
216.888	5.67
217.273	32.6
217.658	10.15
218.043	23.17
218.428	-14.56
218.813	8.5
219.198	-3.87
219.583	16.06
219.968	15.89
220.353	-0.34
220.738	16.63
221.122	10.25
221.507	-6.91
221.892	-18.8
222.276	-18.79
222.661	14.74
223.046	14.22
223.43	26.01
223.815	10.63
224.199	-12.89
224.583	-7.02
224.968	3.14
225.352	10.33
225.736	2.53
226.121	-5.4
226.505	-2.48
226.889	15.8
227.273	-3.16
227.657	5.34
228.041	5.31
228.425	5.85
228.809	4.91
229.193	6.99
229.577	6.68
229.961	4.04
230.344	3.8
230.728	4
231.112	4.47
231.495	3.49
231.879	2.7
232.263	4.76
232.646	4.69
233.03	4.26
233.413	3.96
233.797	4
234.18	5.2
234.563	4.87
234.946	3.99
235.33	7.02
235.713	4.21
236.096	4.65
236.479	4.33
236.862	2.7
237.245	6.14
237.628	3.18
238.011	3.33
238.394	4.02
238.777	4.41
239.16	2.32
239.543	5.82
239.925	5.4
240.308	3.73
240.691	5.33
241.073	3.33
241.456	3.93
241.838	3.58
242.221	3.47
242.603	4.61
242.986	4.15
243.368	3.37
243.75	3.9
244.133	3.45
244.515	3.73
244.897	3.63
245.279	3.51
245.661	3.26
246.043	4.22
246.425	3.88
246.807	4.28
247.189	4.88
247.571	4.36
247.953	4.08
248.335	3.61
248.717	3.72
249.098	3.59
249.48	3.36
249.862	3.82
250.243	4.2
250.625	3.64
251.006	4.11
251.388	2.12
251.769	4.33
252.151	4.03
252.532	3.91
252.913	3.73
253.295	3.37
253.676	3.4
254.057	3.82
254.438	3.24
254.819	3.48
255.2	4.01
255.581	2.85
255.962	3.48
256.343	3.86
256.724	3.28
257.105	3.05
257.486	3.3
257.867	5.21
258.247	3.39
258.628	4.48
259.009	3.29
259.389	4.18
259.77	4.42
260.15	2.32
260.531	2.98
260.911	4.64
261.292	3.58
261.672	3.75
262.052	3.8
262.432	3.97
262.813	3.68
263.193	3.82
263.573	3.75
263.953	3.55
264.333	4.47
264.713	4.33
265.093	3.27
265.473	4.62
265.853	2.77
266.233	3.58
266.612	2.2
266.992	2.21
267.372	4.15
267.752	3.29
268.131	3.12
268.511	4.18
268.89	3.54
269.27	3.07
269.649	3.44
270.029	3.45
270.408	4.22
270.787	3.84
271.167	4.85
271.546	3.93
271.925	3.59
272.304	3.72
272.683	4.09
273.062	3.45
273.441	3.83
273.82	3.15
274.199	3.83
274.578	3.79
274.957	3.25
275.336	3.66
275.715	3.61
276.093	3.27
276.472	3.67
276.851	3.63
277.229	3.44
277.608	3.2
277.986	2.87
278.365	3.43
278.743	2.85
279.122	3.63
279.5	3.8
279.878	4.03
280.257	3.5
280.635	2.85
281.013	3.43
281.391	3.84
281.769	4.11
282.147	3.95
282.525	3.82
282.903	3.54
283.281	3.98
283.659	3.56
284.037	3.99
284.415	3.99
284.792	3.34
285.17	2.86
285.548	3.73
285.925	3.83
286.303	4.24
286.68	3.13
287.058	4.04
287.435	3.65
287.813	3.42
288.19	3.09
288.567	3.67
288.945	4.31
289.322	3.23
289.699	4.02
290.076	3.9
290.453	3.6
290.83	3.97
291.207	3.46
291.584	3.77
291.961	4.32
292.338	3.72
292.715	4.53
293.092	3.36
293.469	4.1
293.845	4.32
294.222	4.01
294.599	4.36
294.975	4.06
295.352	4.33
295.728	3.85
296.105	4.18
296.481	4
296.858	4.46
297.234	4.62
297.61	4.25
297.986	4.77
298.363	4.5
298.739	4.51
299.115	4.11
299.491	4.12
299.867	4.11
300.243	4.44
300.619	4.51
300.995	4.15
301.371	4.69
301.746	4.33
302.122	5.05
302.498	4.11
302.874	4.59
303.249	5.16
303.625	4.58
304	5.01
304.376	4.66
304.751	4.63
305.127	5.65
305.502	4.56
305.878	4.37
306.253	4.96
306.628	5.19
307.003	4.56
307.378	4.76
307.754	4.52
308.129	4.27
308.504	4.33
308.879	4.49
309.254	5.86
309.629	5.46
310.003	5.56
310.378	5.42
310.753	5.41
311.128	5.53
311.502	5.07
311.877	5.25
312.252	4.68
312.626	4.9
313.001	5.38
313.375	5.9
313.75	4.85
314.124	5.7
314.498	5.3
314.873	5.8
315.247	5.35
315.621	5.89
315.995	4.52
316.369	5.91
316.743	5.98
317.117	5.76
317.491	5.5
317.865	5.23
318.239	5.59
318.613	6
318.987	6.02
319.361	5.33
319.734	6.38
320.108	5.57
320.482	6.17
320.855	6.23
321.229	5.76
321.602	5.63
321.976	7.05
322.349	6.29
322.723	5.44
323.096	6.53
323.469	5.97
323.843	6.41
324.216	6.3
324.589	6.42
324.962	6.53
325.335	6.09
325.708	6.86
326.081	6.52
326.454	6.72
326.827	6.15
327.2	6.49
327.573	6.56
327.945	6.49
328.318	6.22
328.691	6.29
329.063	6.21
329.436	6.48
329.809	7.25
330.181	6.53
330.553	6.32
330.926	6.5
331.298	6.86
331.671	6.27
332.043	7.33
332.415	7.5
332.787	6.91
333.159	7.46
333.532	7.23
333.904	6.73
334.276	7.19
334.648	6.88
335.02	6.85
335.391	6.83
335.763	6.57
336.135	7.29
336.507	7.63
336.879	7.22
337.25	7.16
337.622	6.73
337.993	7.11
338.365	7.7
338.736	7.59
339.108	7.46
339.479	7.05
339.851	7.75
340.222	7.02
340.593	7.2
340.964	7.46
341.336	7.55
341.707	7.13
342.078	7.65
342.449	7.89
342.82	7.28
343.191	7.9
343.562	7.5
343.933	7.44
344.303	7.2
344.674	7.46
345.045	7.53
345.416	7.89
345.786	7.18
346.157	7.53
346.527	7.28
346.898	7.25
347.268	8.23
347.639	7.92
348.009	7.8
348.38	7.45
348.75	7.94
349.12	7.72
349.49	8.52
349.861	7.85
350.231	8.19
350.601	8.18
350.971	8.18
351.341	8.41
351.711	8.08
352.081	7.98
352.45	7.9
352.82	8.55
353.19	8.12
353.56	7.98
353.929	8
354.299	8.56
354.669	8.09
355.038	8.54
355.408	8.11
355.777	8.49
356.147	8.01
356.516	8.38
356.885	8.3
357.254	8.56
357.624	8.95
357.993	8.73
358.362	8.14
358.731	8.3
359.1	8.93
359.469	8.92
359.838	8.73
360.207	8.47
360.576	8.29
360.945	8.91
361.314	9.06
361.682	8.58
362.051	8.82
362.42	9.21
362.788	8.86
363.157	8.87
363.525	9
363.894	9.07
364.262	8.97
364.631	8.75
364.999	9.11
365.367	8.81
365.735	9.63
366.104	9.22
366.472	9.4
366.84	9.28
367.208	9.28
367.576	9.41
367.944	9.78
368.312	9.42
368.68	9.04
369.048	9.73
369.416	9.57
369.783	9.09
370.151	9.65
370.519	10.11
370.886	10.07
371.254	9.54
371.621	10.05
371.989	10.11
372.356	9.3
372.724	9.87
373.091	9.54
373.458	9.89
373.826	9.97
374.193	9.66
374.56	9.56
374.927	9.65
375.294	10.02
375.661	9.89
376.028	10.17
376.395	9.88
376.762	10.21
377.129	10.06
377.496	10.15
377.863	10.36
378.229	9.86
378.596	10.6
378.963	9.97
379.329	10.18
379.696	10.49
380.062	10.37
380.429	10
380.795	10.3
381.161	10.61
381.528	10.62
381.894	10.36
382.26	10.38
382.626	10.84
382.993	10.07
383.359	10.72
383.725	10.41
384.091	10.66
384.457	11.01
384.823	10.8
385.188	10.6
385.554	10.86
385.92	10.81
386.286	10.95
386.651	11.14
387.017	11.31
387.383	10.85
387.748	10.64
388.114	10.93
388.479	10.85
388.845	11.31
389.21	11.24
389.575	11.15
389.94	10.89
390.306	11.14
390.671	11.37
391.036	10.66
391.401	11
391.766	11.45
392.131	11.06
392.496	11.21
392.861	11.32
393.226	11.4
393.591	11.29
393.956	11.41
394.32	11.56
394.685	11.55
395.05	11.23
395.414	11.61
395.779	11.58
396.143	11.42
396.508	11.48
396.872	11.6
397.236	11.5
397.601	11.36
397.965	11.68
398.329	11.73
398.694	11.84
399.058	11.78
399.422	11.66
399.786	11.87
400.15	11.82
400.514	12.03
400.878	11.68
401.242	12.01
401.605	12.02
401.969	11.92
402.333	11.8
402.697	12.26
403.06	12.22
403.424	11.88
403.787	11.99
404.151	12.3
404.514	12.13
404.878	12.04
405.241	12.23
405.604	12.4
405.968	12.24
406.331	12.16
406.694	12.61
407.057	12.56
407.42	12.53
407.783	12.19
408.146	12.45
408.509	12.17
408.872	12.29
409.235	12.62
409.598	12.89
409.961	12.49
410.323	12.83
410.686	12.57
411.049	12.51
411.411	12.58
411.774	12.68
412.136	12.63
412.499	12.74
412.861	12.28
413.223	12.72
413.586	12.87
413.948	13
414.31	12.99
414.672	12.81
415.035	12.67
415.397	13.22
415.759	12.9
416.121	12.92
416.483	12.99
416.845	12.98
417.206	12.93
417.568	13.29
417.93	12.73
418.292	12.85
418.653	13.01
419.015	13.04
419.377	13.1
419.738	13.14
420.1	13.17
420.461	13.12
420.822	13.13
421.184	12.92
421.545	13.07
421.906	13.11
422.267	13.02
422.629	13.09
422.99	13.08
423.351	13
423.712	13.08
424.073	13.18
424.434	13.14
424.795	13.19
425.155	13.25
425.516	13.24
425.877	13.17
426.238	13.35
426.598	13.34
426.959	13.36
427.32	13.17
427.68	13.36
428.041	13.48
428.401	13.6
428.761	13.51
429.122	13.58
429.482	13.58
429.842	13.86
430.202	13.89
430.563	14.06
430.923	13.8
431.283	14
431.643	13.82
432.003	13.94
432.363	13.88
432.722	13.85
433.082	14.13
433.442	14.07
433.802	14.02
434.161	14.05
434.521	14.2
434.881	13.95
435.24	14.05
435.6	14.07
435.959	13.93
436.319	14.15
436.678	14.3
437.037	14.28
437.396	14.48
437.756	14.48
438.115	14.29
438.474	14.41
438.833	14.28
439.192	14.38
439.551	14.36
439.91	14.44
440.269	14.36
440.628	14.46
440.987	14.56
441.345	14.29
441.704	14.5
442.063	14.46
442.421	14.48
442.78	14.47
443.138	14.41
443.497	14.56
443.855	14.42
444.214	14.64
444.572	14.85
444.93	14.76
445.288	14.91
445.647	14.81
446.005	14.76
446.363	14.66
446.721	15
447.079	14.61
447.437	14.74
447.795	14.69
448.153	14.64
448.51	14.72
448.868	14.63
449.226	14.72
449.584	14.78
449.941	15
450.299	15.05
450.656	14.94
451.014	15.13
451.371	14.93
451.729	15
452.086	15.24
452.443	15.06
452.801	15.37
453.158	15.49
453.515	15.25
453.872	15.43
454.229	15.3
454.586	15.4
454.943	15.34
455.3	15.37
455.657	15.47
456.014	15.45
456.371	15.45
456.727	15.53
457.084	15.75
457.441	15.58
457.797	15.62
458.154	15.78
458.51	15.84
458.867	15.74
459.223	15.87
459.58	15.83
459.936	15.83
460.292	15.68
460.648	15.5
461.005	15.63
461.361	15.54
461.717	15.55
462.073	15.46
462.429	15.45
462.785	15.72
463.141	15.83
463.496	15.95
463.852	15.86
464.208	16.01
464.564	16.1
464.919	16.07
465.275	16.1
465.631	16.39
465.986	15.96
466.342	16
466.697	16.13
467.052	16.27
467.408	16.31
467.763	16.18
468.118	16.29
468.473	16.05
468.829	16.28
469.184	16.26
469.539	16.31
469.894	16.16
470.249	16.73
470.603	16.35
470.958	16.56
471.313	16.51
471.668	16.56
472.023	16.54
472.377	16.53
472.732	16.61
473.086	16.58
473.441	16.65
473.795	16.94
474.15	16.75
474.504	16.9
474.859	16.75
475.213	16.61
475.567	16.67
475.921	16.81
476.275	16.89
476.63	16.78
476.984	16.83
477.338	17.05
477.692	16.75
478.045	16.77
478.399	17.01
478.753	17.1
479.107	17.04
479.461	16.94
479.814	17.14
480.168	17.18
480.521	16.9
480.875	17.03
481.228	17.13
481.582	17.13
481.935	17.16
482.289	17.18
482.642	17.13
482.995	17.04
483.348	17.06
483.701	17.04
484.055	17.07
484.408	17.08
484.761	16.73
485.114	16.77
485.466	16.48
485.819	16.42
486.172	16.39
486.525	16.39
486.878	16.43
487.23	16.62
487.583	16.79
487.936	16.95
488.288	16.94
488.641	17.08
488.993	16.75
489.345	16.79
489.698	16.74
490.05	16.68
490.402	16.84
490.754	16.87
491.107	17.08
491.459	17.08
491.811	17.18
492.163	17.33
492.515	17.5
492.866	17.51
493.218	17.33
493.57	17.16
493.922	17.13
494.274	17.19
494.625	17.32
494.977	17.49
495.328	17.54
495.68	17.72
496.031	17.92
496.383	18.01
496.734	18.09
497.086	18.14
497.437	18.2
497.788	18.23
498.139	18.06
498.49	18.18
498.842	17.99
499.193	17.92
499.544	18.03
499.894	17.98
500.245	18.18
500.596	18.06
500.947	18.11
501.298	18.13
501.648	18.38
501.999	18.42
502.35	18.2
502.7	18.41
503.051	18.37
503.401	18.37
503.752	18.7
504.102	18.52
504.452	18.49
504.803	18.53
505.153	18.56
505.503	18.7
505.853	18.66
506.203	18.56
506.553	18.55
506.903	18.59
507.253	18.67
507.603	18.73
507.953	18.83
508.303	18.73
508.652	18.72
509.002	18.85
509.352	18.78
509.701	18.8
510.051	18.8
510.4	18.85
510.75	18.8
511.099	18.85
511.449	18.85
511.798	18.79
512.147	18.92
512.496	18.94
512.846	18.97
513.195	18.92
513.544	18.98
513.893	19.02
514.242	19
514.591	19.22
514.939	19.15
515.288	19.12
515.637	19.42
515.986	19.26
516.334	19.31
516.683	19.51
517.032	19.22
517.38	19.26
517.729	19.48
518.077	19.24
518.426	19.43
518.774	19.64
519.122	19.28
519.47	19.3
519.819	19.11
520.167	19.35
520.515	19.22
520.863	19.16
521.211	19.2
521.559	19.25
521.907	19.27
522.255	19.28
522.602	19.62
522.95	19.5
523.298	19.54
523.645	19.67
523.993	19.62
524.341	19.7
524.688	19.78
525.036	19.83
525.383	19.78
525.73	19.8
526.078	19.77
526.425	19.67
526.772	19.79
527.119	19.71
527.466	19.57
527.814	19.61
528.161	19.62
528.508	19.5
528.854	19.6
529.201	19.65
529.548	19.48
529.895	19.43
530.242	19.32
530.588	19.18
530.935	19.21
531.282	19.17
531.628	19.25
531.975	19.35
532.321	19.52
532.667	19.69
533.014	19.85
533.36	19.91
533.706	20
534.052	20.03
534.399	19.9
534.745	19.94
535.091	19.75
535.437	19.77
535.783	19.76
536.129	19.82
536.474	19.83
536.82	20.04
537.166	20.08
537.512	20.28
537.857	20.31
538.203	20.3
538.549	20.32
538.894	20.19
539.239	20.2
539.585	20.34
539.93	20.49
540.276	20.54
540.621	20.64
540.966	20.75
541.311	20.87
541.656	20.81
542.001	20.7
542.346	20.68
542.691	20.47
543.036	20.35
543.381	20.11
543.726	20.1
544.071	20.12
544.415	20.34
544.76	20.34
545.105	20.4
545.449	20.5
545.794	20.59
546.138	20.7
546.483	20.81
546.827	20.98
547.171	20.95
547.516	20.98
547.86	20.99
548.204	20.92
548.548	21.06
548.892	21.07
549.236	21
549.58	21.08
549.924	21.08
550.268	21.23
550.612	21.27
550.956	21.55
551.3	21.32
551.643	21.57
551.987	21.63
552.33	21.66
552.674	21.48
553.017	21.6
553.361	21.62
553.704	21.94
554.048	21.37
554.391	21.61
554.734	21.6
555.077	21.76
555.42	21.57
555.764	21.59
556.107	21.56
556.45	21.54
556.793	21.74
557.135	21.95
557.478	22.14
557.821	21.99
558.164	22
558.507	21.96
558.849	22.03
559.192	22.08
559.534	21.94
559.877	22.16
560.219	22.15
560.562	22
560.904	22.04
561.246	22.02
561.589	22.35
561.931	22.38
562.273	22.12
562.615	22.23
562.957	22.25
563.299	22.25
563.641	22.28
563.983	22.33
564.325	22.02
564.667	22.22
565.008	22.35
565.35	22.36
565.692	22.34
566.033	22.31
566.375	22.35
566.716	22.78
567.058	22.4
567.399	22.52
567.741	22.37
568.082	22.47
568.423	22.51
568.764	22.36
569.105	22.56
569.447	22.51
569.788	22.37
570.129	22.62
570.47	22.52
570.811	22.81
571.151	22.74
571.492	22.76
571.833	22.81
572.174	22.76
572.514	22.78
572.855	22.87
573.195	22.86
573.536	22.93
573.876	22.53
574.217	22.68
574.557	22.83
574.898	22.95
575.238	22.79
575.578	22.75
575.918	23.16
576.258	23.17
576.598	22.87
576.938	23.11
577.278	22.98
577.618	23.07
577.958	22.94
578.298	23.02
578.638	22.99
578.977	23.11
579.317	23.3
579.657	23.37
579.996	23.08
580.336	23.35
580.675	23.39
581.014	23.41
581.354	23.15
581.693	23.36
582.032	23.34
582.372	23.31
582.711	23.61
583.05	23.33
583.389	23.51
583.728	23.43
584.067	23.69
584.406	23.76
584.745	23.37
585.083	23.64
585.422	23.61
585.761	23.76
586.1	23.54
586.438	23.63
586.777	23.73
587.115	23.8
587.454	23.84
587.792	23.6
588.13	24.25
588.469	23.72
588.807	24.06
589.145	23.67
589.483	23.82
589.821	23.69
590.159	23.93
590.497	24.32
590.835	23.89
591.173	24.05
591.511	24.02
591.849	23.72
592.187	24.02
592.524	23.93
592.862	23.95
593.2	24.26
593.537	24.17
593.875	24.24
594.212	23.8
594.55	24.28
594.887	24.29
595.224	23.81
595.561	23.88
595.899	24.22
596.236	24.22
596.573	24.05
596.91	23.73
597.247	24.05
597.584	24.12
597.921	24.47
598.258	24.25
598.594	24.22
598.931	24.04
599.268	24.2
599.604	24.22
599.941	24.37
600.277	24.41
600.614	24.18
600.95	24.49
601.287	24.54
601.623	24.33
601.959	24.43
602.296	24.59
602.632	24.46
602.968	25
603.304	24.46
603.64	24.74
603.976	24.84
604.312	24.57
604.648	24.49
604.984	24.77
605.319	24.6
605.655	24.5
605.991	24.71
606.326	24.62
606.662	24.47
606.998	24.48
607.333	24.52
607.668	24.56
608.004	24.88
608.339	24.76
608.674	24.58
609.01	24.74
609.345	24.76
609.68	24.86
610.015	24.87
610.35	24.85
610.685	24.91
611.02	24.88
611.355	24.85
611.689	24.99
612.024	24.74
612.359	24.71
612.694	25.04
613.028	24.96
613.363	25.06
613.697	25.03
614.032	25.17
614.366	25.17
614.7	25.13
615.035	25.2
615.369	25.38
615.703	25.42
616.037	25.18
616.371	25.25
616.705	25.33
617.039	25.38
617.373	25.54
617.707	25.6
618.041	25.31
618.375	25.51
618.709	25.63
619.042	25.12
619.376	25.33
619.71	25.3
620.043	25.4
620.377	25.32
620.71	25.59
621.043	25.82
621.377	25.68
621.71	25.38
622.043	25.52
622.376	25.33
622.709	25.31
623.043	25.73
623.376	25.64
623.709	25.84
624.041	26.38
624.374	25.95
624.707	25.56
625.04	26.06
625.373	25.4
625.705	25.87
626.038	25.4
626.37	25.92
626.703	25.64
627.035	25.8
627.368	26.14
627.7	25.82
628.032	25.8
628.365	26.19
628.697	26.13
629.029	25.87
629.361	25.6
629.693	25.71
630.025	25.64
630.357	25.92
630.689	25.9
631.021	26.18
631.353	26.14
631.684	25.86
632.016	25.59
632.348	26.14
632.679	25.95
633.011	26.04
633.342	26.2
633.674	26.08
634.005	26.44
634.336	26.52
634.668	26.48
634.999	26.01
635.33	26.86
635.661	26.58
635.992	26.05
636.323	26.49
636.654	26.47
636.985	26.13
637.316	26.57
637.647	26.2
637.977	26.37
638.308	26.86
638.639	26.16
638.969	26.32
639.3	25.58
639.63	25.88
639.961	26.21
640.291	26.48
640.622	26.7
640.952	26.1
641.282	27.29
641.612	26.82
641.943	26.74
642.273	26.62
642.603	26.82
642.933	26.67
643.263	26.31
643.592	26.84
643.922	26.14
644.252	26.33
644.582	26.7
644.911	27.02
645.241	27.06
645.571	27.23
645.9	26.38
646.23	27.34
646.559	27
646.888	26.61
647.218	26.5
647.547	27.1
647.876	26.93
648.205	26.9
648.534	26.69
648.863	26.48
649.192	26.96
649.521	26.38
649.85	27.06
650.179	26.83
650.508	26.93
650.837	27
651.165	27.13
651.494	27.07
651.822	27.13
652.151	26.83
652.479	27.25
652.808	27.17
653.136	27.22
653.465	26.16
653.793	26.96
654.121	27.08
654.449	27.33
654.777	27.03
655.105	26.89
655.433	27.16
655.761	27.06
656.089	27.49
656.417	27.39
656.745	27.38
657.073	27.15
657.4	27.69
657.728	27.52
658.056	26.7
658.383	27.18
658.711	27.9
659.038	27.7
659.365	27.78
659.693	27.53
660.02	27.24
660.347	27.61
660.674	27.14
661.001	27.55
661.329	27.03
661.656	27.13
661.982	27.81
662.309	27.25
662.636	27.45
662.963	27.83
663.29	27.3
663.616	27.94
663.943	26.83
664.27	27.57
664.596	27.61
664.923	28.02
665.249	27.49
665.576	27.45
665.902	27.95
666.228	28.11
666.554	28.1
666.881	27.62
667.207	27.05
667.533	27.48
667.859	28.03
668.185	27.67
668.511	27.33
668.837	27.27
669.162	27.98
669.488	27.66
669.814	28.49
670.139	27.47
670.465	28.21
670.791	28.02
671.116	28.32
671.442	27.68
671.767	28.06
672.092	28.04
672.418	27.77
672.743	28.12
673.068	27.82
673.393	27.94
