Data from 0388_crown_Reflection__1__82.txt Node

Date: Fri Dec 15 16:58:22 CST 2023
User: ToomeyLab
Spectrometer: FLMS14357
Trigger mode: 0
Integration Time (sec): 1.000000E-2
Scans to average: 100
Electric dark correction enabled: true
Nonlinearity correction enabled: false
Boxcar width: 0
XAxis mode: Wavelengths
Number of Pixels in Spectrum: 2048
>>>>>Begin Spectral Data<<<<<
189.047	23.31
189.435	23.31
189.823	23.31
190.211	31.77
190.599	-4.04
190.987	99.5
191.375	190.09
191.763	-95.5
192.151	506018391135400
192.538	108.18
192.926	37.11
193.314	36.22
193.702	147.99
194.089	92.86
194.477	-135.19
194.864	420.59
195.252	105.51
195.639	81.58
196.027	-55.38
196.414	167.23
196.801	39.75
197.189	15.14
197.576	-129.17
197.963	3.15
198.351	-52.54
198.738	-25.38
199.125	25.24
199.512	16.28
199.899	52.66
200.286	-1.17
200.673	3.81
201.06	-24.25
201.447	-34.22
201.833	35.75
202.22	24.49
202.607	30.19
202.994	-3.4
203.38	40.22
203.767	-4.76
204.154	29.97
204.54	47.22
204.927	-8.57
205.313	8.99
205.699	42.51
206.086	19.99
206.472	16.78
206.858	35.97
207.245	-18.29
207.631	34.26
208.017	-0.59
208.403	-16.2
208.789	33.77
209.175	20.31
209.561	11.59
209.947	28.32
210.333	-36.2
210.719	15.13
211.105	51.58
211.491	-29.83
211.876	15.03
212.262	0.57
212.648	33.19
213.034	0.98
213.419	22.85
213.805	-22.45
214.19	-18.35
214.576	-10.24
214.961	13.38
215.346	-8.67
215.732	26.72
216.117	32.45
216.502	-12.67
216.888	22.61
217.273	12.35
217.658	7.65
218.043	28.28
218.428	-6.29
218.813	-13.32
219.198	-21.87
219.583	17.77
219.968	12.47
220.353	-8.64
220.738	16.26
221.122	25.19
221.507	1.83
221.892	20.52
222.276	-7.21
222.661	-7.24
223.046	13.49
223.43	11.91
223.815	7.82
224.199	-4.48
224.583	-4.43
224.968	3.1
225.352	21.98
225.736	7.36
226.121	1.99
226.505	13.58
226.889	9.01
227.273	5.75
227.657	17.37
228.041	9.27
228.425	6.75
228.809	12.53
229.193	11.55
229.577	11.26
229.961	11.98
230.344	11.22
230.728	10.32
231.112	11.88
231.495	10.73
231.879	10.22
232.263	12.86
232.646	11.37
233.03	11.34
233.413	10.2
233.797	10.65
234.18	10.42
234.563	10.54
234.946	8.61
235.33	13.27
235.713	8.65
236.096	11.45
236.479	10.98
236.862	11.9
237.245	10.77
237.628	10.51
238.011	11.38
238.394	10.59
238.777	10.47
239.16	8.61
239.543	9.45
239.925	10.06
240.308	11.41
240.691	11.19
241.073	9.61
241.456	8.71
241.838	8.55
242.221	10.59
242.603	10.04
242.986	9.43
243.368	10.52
243.75	10.68
244.133	9.24
244.515	10.32
244.897	9.78
245.279	9.11
245.661	9.12
246.043	8.71
246.425	8.47
246.807	10.04
247.189	9.66
247.571	9.86
247.953	10.17
248.335	9.6
248.717	9.68
249.098	9.24
249.48	9.06
249.862	9.02
250.243	9.48
250.625	9.16
251.006	9.18
251.388	8.53
251.769	9.26
252.151	9.26
252.532	9.31
252.913	9.54
253.295	8.53
253.676	9.21
254.057	9.88
254.438	8.61
254.819	8.33
255.2	8.44
255.581	8.04
255.962	7.63
256.343	8.07
256.724	9.08
257.105	8.75
257.486	7.13
257.867	9.25
258.247	8.67
258.628	8.01
259.009	9.09
259.389	8.42
259.77	8.4
260.15	8.44
260.531	8.21
260.911	9.03
261.292	8.63
261.672	8.94
262.052	8.6
262.432	8.28
262.813	8.02
263.193	8.49
263.573	8.18
263.953	8.89
264.333	8.84
264.713	8.65
265.093	7.85
265.473	7.8
265.853	6.95
266.233	8.51
266.612	7.27
266.992	7.11
267.372	8.37
267.752	7.7
268.131	8.24
268.511	8.71
268.89	8.17
269.27	8.11
269.649	7.82
270.029	8.01
270.408	8.93
270.787	8.2
271.167	9.06
271.546	8.4
271.925	7.39
272.304	7.61
272.683	8.12
273.062	7.93
273.441	8.19
273.82	7.47
274.199	7.98
274.578	7.75
274.957	7.95
275.336	8.16
275.715	7.59
276.093	7.32
276.472	8.02
276.851	8.03
277.229	8.08
277.608	7.69
277.986	7.52
278.365	7.78
278.743	7.02
279.122	7.29
279.5	7.29
279.878	7.62
280.257	7.26
280.635	7.02
281.013	7.41
281.391	7.11
281.769	7.72
282.147	7.77
282.525	8.13
282.903	7.34
283.281	8
283.659	7.84
284.037	7.36
284.415	7.83
284.792	7.69
285.17	6.36
285.548	6.84
285.925	7.33
286.303	7.58
286.68	7.5
287.058	7.65
287.435	7.24
287.813	7.47
288.19	7.28
288.567	7.03
288.945	7.45
289.322	7.54
289.699	7.15
290.076	7.76
290.453	6.91
290.83	7.04
291.207	6.8
291.584	7.31
291.961	7.5
292.338	7.51
292.715	7.35
293.092	6.88
293.469	6.84
293.845	7.6
294.222	6.7
294.599	7.36
294.975	6.74
295.352	7.08
295.728	6.21
296.105	6.76
296.481	7.61
296.858	6.94
297.234	6.98
297.61	6.83
297.986	7.42
298.363	7.14
298.739	7.07
299.115	6.59
299.491	6.62
299.867	6.67
300.243	6.8
300.619	6.54
300.995	6.43
301.371	7.09
301.746	6.36
302.122	7.42
302.498	6.89
302.874	6.78
303.249	7.14
303.625	7.02
304	6.99
304.376	6.81
304.751	6.85
305.127	7.74
305.502	6.33
305.878	6.47
306.253	6.97
306.628	7.02
307.003	6.47
307.378	7.13
307.754	6.68
308.129	5.86
308.504	6.72
308.879	6.57
309.254	7.08
309.629	7.02
310.003	6.44
310.378	6.63
310.753	6.86
311.128	6.99
311.502	6.67
311.877	7.03
312.252	6.37
312.626	6.46
313.001	6.63
313.375	6.75
313.75	6.48
314.124	6.69
314.498	6.28
314.873	6.14
315.247	6.21
315.621	6.41
315.995	5.49
316.369	6.46
316.743	6.07
317.117	7.21
317.491	5.85
317.865	5.87
318.239	6.57
318.613	6.5
318.987	6.34
319.361	5.8
319.734	6.73
320.108	6.32
320.482	6.1
320.855	6.41
321.229	6.67
321.602	6.32
321.976	6.68
322.349	6.29
322.723	5.55
323.096	6.44
323.469	5.83
323.843	6.18
324.216	7
324.589	6.43
324.962	6.8
325.335	6.18
325.708	6.37
326.081	6.13
326.454	6.33
326.827	5.88
327.2	6.45
327.573	6.2
327.945	6.69
328.318	6.12
328.691	5.85
329.063	6.41
329.436	5.92
329.809	6.78
330.181	6.04
330.553	6.7
330.926	6.69
331.298	6.19
331.671	5.77
332.043	6.66
332.415	6.59
332.787	6.59
333.159	7.29
333.532	6.64
333.904	6.48
334.276	6.3
334.648	6.55
335.02	6.16
335.391	6.29
335.763	6.08
336.135	6.63
336.507	7.05
336.879	6.47
337.25	6.25
337.622	6.19
337.993	6.23
338.365	6.8
338.736	6.37
339.108	6.57
339.479	6.4
339.851	6.25
340.222	6.17
340.593	6.41
340.964	6.18
341.336	6.88
341.707	6.06
342.078	6.77
342.449	6.71
342.82	6.64
343.191	6.56
343.562	6.12
343.933	6.67
344.303	6.62
344.674	6.09
345.045	6.43
345.416	7.27
345.786	6.36
346.157	7.04
346.527	6.54
346.898	6.26
347.268	6.87
347.639	6.56
348.009	6.53
348.38	6.38
348.75	6.52
349.12	6.07
349.49	6.4
349.861	6.58
350.231	6.4
350.601	6.94
350.971	6.58
351.341	6.83
351.711	6.7
352.081	7.06
352.45	6.38
352.82	6.23
353.19	6.53
353.56	6.31
353.929	6.7
354.299	6.3
354.669	6.49
355.038	6.8
355.408	6.32
355.777	6.61
356.147	6.46
356.516	6.68
356.885	6.64
357.254	6.34
357.624	6.88
357.993	6.43
358.362	6.54
358.731	6.47
359.1	6.6
359.469	6.69
359.838	6.89
360.207	6.37
360.576	6.75
360.945	6.89
361.314	7.08
361.682	6.64
362.051	6.66
362.42	6.7
362.788	6.62
363.157	6.82
363.525	6.99
363.894	6.77
364.262	6.76
364.631	6.63
364.999	6.62
365.367	6.44
365.735	7.23
366.104	6.82
366.472	7.16
366.84	6.97
367.208	6.71
367.576	6.9
367.944	7.42
368.312	6.51
368.68	6.43
369.048	7
369.416	7.02
369.783	6.56
370.151	7.03
370.519	7.28
370.886	7.23
371.254	6.96
371.621	7.24
371.989	7.15
372.356	6.76
372.724	7.15
373.091	6.83
373.458	7.05
373.826	7.16
374.193	6.92
374.56	7.34
374.927	7.04
375.294	7.22
375.661	6.96
376.028	6.68
376.395	7.09
376.762	7.04
377.129	7.2
377.496	7.04
377.863	7.39
378.229	6.63
378.596	7.39
378.963	6.87
379.329	7.04
379.696	7.06
380.062	7.26
380.429	7.1
380.795	6.79
381.161	6.76
381.528	7.22
381.894	7.26
382.26	7
382.626	7.5
382.993	6.89
383.359	7.31
383.725	7.15
384.091	7.16
384.457	7.36
384.823	6.9
385.188	7.03
385.554	7.09
385.92	7.25
386.286	7.43
386.651	7.05
387.017	7.43
387.383	7.21
387.748	6.95
388.114	7.41
388.479	7.23
388.845	7.56
389.21	7.48
389.575	7.39
389.94	7.38
390.306	7.61
390.671	7.48
391.036	7.06
391.401	7.17
391.766	7.52
392.131	7.27
392.496	7.64
392.861	7.55
393.226	7.65
393.591	7.56
393.956	7.29
394.32	7.42
394.685	7.3
395.05	7.53
395.414	7.46
395.779	7.39
396.143	7.56
396.508	7.37
396.872	7.48
397.236	7.46
397.601	7.15
397.965	7.56
398.329	7.33
398.694	7.68
399.058	7.48
399.422	7.43
399.786	7.64
400.15	7.54
400.514	7.63
400.878	7.43
401.242	7.75
401.605	7.45
401.969	7.54
402.333	7.61
402.697	7.5
403.06	7.8
403.424	7.58
403.787	7.52
404.151	7.72
404.514	7.43
404.878	7.54
405.241	7.78
405.604	7.55
405.968	7.7
406.331	7.67
406.694	7.75
407.057	7.67
407.42	7.64
407.783	7.45
408.146	7.7
408.509	7.62
408.872	7.57
409.235	7.61
409.598	7.77
409.961	7.55
410.323	7.8
410.686	7.6
411.049	7.48
411.411	7.79
411.774	7.78
412.136	7.73
412.499	7.56
412.861	7.51
413.223	7.47
413.586	7.76
413.948	7.66
414.31	7.6
414.672	7.62
415.035	7.83
415.397	8.03
415.759	7.58
416.121	8.04
416.483	7.62
416.845	7.82
417.206	7.61
417.568	7.96
417.93	7.66
418.292	7.67
418.653	7.87
419.015	7.69
419.377	7.89
419.738	7.9
420.1	7.72
420.461	7.78
420.822	7.86
421.184	7.77
421.545	7.88
421.906	7.76
422.267	7.68
422.629	7.75
422.99	7.81
423.351	7.59
423.712	7.48
424.073	7.59
424.434	7.54
424.795	7.73
425.155	7.58
425.516	7.73
425.877	7.75
426.238	7.77
426.598	7.84
426.959	7.69
427.32	7.55
427.68	7.45
428.041	7.54
428.401	7.77
428.761	7.75
429.122	7.78
429.482	7.65
429.842	7.74
430.202	7.92
430.563	7.79
430.923	7.74
431.283	7.84
431.643	7.8
432.003	7.92
432.363	7.85
432.722	7.81
433.082	7.99
433.442	7.94
433.802	7.69
434.161	7.82
434.521	8.19
434.881	8.08
435.24	7.76
435.6	7.76
435.959	7.78
436.319	7.71
436.678	7.84
437.037	7.84
437.396	7.88
437.756	7.9
438.115	7.96
438.474	7.97
438.833	7.96
439.192	7.87
439.551	8.03
439.91	7.82
440.269	7.95
440.628	7.8
440.987	7.8
441.345	7.79
441.704	7.87
442.063	7.79
442.421	7.79
442.78	7.83
443.138	7.81
443.497	7.81
443.855	7.78
444.214	7.82
444.572	7.82
444.93	7.85
445.288	7.96
445.647	8.07
446.005	7.84
446.363	8.01
446.721	7.95
447.079	7.84
447.437	7.89
447.795	7.98
448.153	7.87
448.51	7.77
448.868	7.94
449.226	7.83
449.584	7.81
449.941	7.89
450.299	7.92
450.656	7.83
451.014	7.94
451.371	7.76
451.729	7.67
452.086	8.07
452.443	7.74
452.801	7.88
453.158	8.03
453.515	7.89
453.872	8.05
454.229	7.99
454.586	7.94
454.943	8.05
455.3	8.03
455.657	7.81
456.014	7.95
456.371	7.83
456.727	8.01
457.084	8.03
457.441	8.05
457.797	8.12
458.154	7.99
458.51	8.01
458.867	7.94
459.223	8.02
459.58	8.03
459.936	8.06
460.292	8.03
460.648	8.07
461.005	7.92
461.361	7.94
461.717	8.08
462.073	7.84
462.429	7.78
462.785	7.72
463.141	7.76
463.496	7.8
463.852	7.94
464.208	7.96
464.564	7.85
464.919	7.86
465.275	7.92
465.631	8.07
465.986	8
466.342	7.89
466.697	8.03
467.052	8.01
467.408	8.25
467.763	7.92
468.118	7.82
468.473	7.92
468.829	7.91
469.184	7.95
469.539	7.99
469.894	7.91
470.249	8.02
470.603	7.99
470.958	8
471.313	8.1
471.668	8.14
472.023	7.98
472.377	7.88
472.732	7.83
473.086	8.03
473.441	7.89
473.795	8.1
474.15	8.05
474.504	7.93
474.859	8.1
475.213	7.9
475.567	7.96
475.921	7.91
476.275	7.97
476.63	8.04
476.984	8.32
477.338	8.08
477.692	7.79
478.045	7.91
478.399	8.08
478.753	8.02
479.107	7.99
479.461	8.04
479.814	7.91
480.168	8
480.521	7.91
480.875	7.99
481.228	7.95
481.582	8.04
481.935	7.81
482.289	7.97
482.642	7.96
482.995	7.92
483.348	7.84
483.701	7.96
484.055	8.03
484.408	7.91
484.761	7.85
485.114	7.92
485.466	7.85
485.819	7.79
486.172	7.59
486.525	7.41
486.878	7.31
487.23	7.42
487.583	7.48
487.936	7.64
488.288	7.69
488.641	7.89
488.993	7.78
489.345	7.71
489.698	7.69
490.05	7.51
490.402	7.6
490.754	7.5
491.107	7.57
491.459	7.58
491.811	7.64
492.163	7.7
492.515	7.78
492.866	7.95
493.218	7.92
493.57	7.89
493.922	7.68
494.274	7.6
494.625	7.53
494.977	7.58
495.328	7.71
495.68	7.78
496.031	7.94
496.383	7.79
496.734	7.99
497.086	7.97
497.437	8.03
497.788	7.85
498.139	7.83
498.49	7.96
498.842	7.88
499.193	7.78
499.544	7.77
499.894	7.75
500.245	7.85
500.596	7.76
500.947	7.84
501.298	7.67
501.648	7.89
501.999	7.96
502.35	7.73
502.7	7.88
503.051	7.68
503.401	7.79
503.752	7.91
504.102	7.87
504.452	7.89
504.803	7.78
505.153	7.91
505.503	7.95
505.853	7.91
506.203	7.82
506.553	7.79
506.903	7.72
507.253	7.8
507.603	7.77
507.953	7.9
508.303	7.99
508.652	7.77
509.002	7.73
509.352	7.9
509.701	7.9
510.051	7.83
510.4	7.76
510.75	7.79
511.099	7.84
511.449	7.79
511.798	7.77
512.147	7.8
512.496	7.73
512.846	7.81
513.195	7.81
513.544	7.69
513.893	7.96
514.242	7.77
514.591	7.84
514.939	7.64
515.288	7.72
515.637	7.84
515.986	7.72
516.334	7.82
516.683	7.88
517.032	7.77
517.38	7.79
517.729	7.81
518.077	7.74
518.426	7.82
518.774	7.96
519.122	7.81
519.47	7.71
519.819	7.73
520.167	7.78
520.515	7.81
520.863	7.77
521.211	7.63
521.559	7.69
521.907	7.59
522.255	7.62
522.602	7.72
522.95	7.6
523.298	7.7
523.645	7.6
523.993	7.66
524.341	7.76
524.688	7.82
525.036	7.76
525.383	7.83
525.73	7.85
526.078	7.75
526.425	7.62
526.772	7.78
527.119	7.82
527.466	7.75
527.814	7.65
528.161	7.57
528.508	7.6
528.854	7.52
529.201	7.57
529.548	7.56
529.895	7.65
530.242	7.59
530.588	7.56
530.935	7.47
531.282	7.34
531.628	7.2
531.975	7.26
532.321	7.37
532.667	7.42
533.014	7.47
533.36	7.55
533.706	7.59
534.052	7.63
534.399	7.53
534.745	7.63
535.091	7.59
535.437	7.57
535.783	7.45
536.129	7.37
536.474	7.38
536.82	7.44
537.166	7.37
537.512	7.41
537.857	7.58
538.203	7.65
538.549	7.55
538.894	7.54
539.239	7.54
539.585	7.41
539.93	7.32
540.276	7.56
540.621	7.63
540.966	7.52
541.311	7.4
541.656	7.52
542.001	7.62
542.346	7.73
542.691	7.62
543.036	7.61
543.381	7.5
543.726	7.33
544.071	7.32
544.415	7.34
544.76	7.38
545.105	7.34
545.449	7.41
545.794	7.39
546.138	7.38
546.483	7.47
546.827	7.62
547.171	7.47
547.516	7.66
547.86	7.55
548.204	7.58
548.548	7.39
548.892	7.61
549.236	7.46
549.58	7.57
549.924	7.29
550.268	7.46
550.612	7.51
550.956	7.73
551.3	7.5
551.643	7.77
551.987	7.51
552.33	7.53
552.674	7.61
553.017	7.62
553.361	7.45
553.704	7.76
554.048	7.36
554.391	7.49
554.734	7.61
555.077	7.62
555.42	7.5
555.764	7.27
556.107	7.3
556.45	7.29
556.793	7.53
557.135	7.38
557.478	7.64
557.821	7.65
558.164	7.39
558.507	7.46
558.849	7.24
559.192	7.63
559.534	7.38
559.877	7.55
560.219	7.44
560.562	7.65
560.904	7.42
561.246	7.49
561.589	7.47
561.931	7.4
562.273	7.42
562.615	7.63
562.957	7.38
563.299	7.25
563.641	7.31
563.983	7.45
564.325	7.22
564.667	7.25
565.008	7.35
565.35	7.22
565.692	7.07
566.033	7.3
566.375	7.48
566.716	7.48
567.058	7.34
567.399	7.37
567.741	7.35
568.082	7.36
568.423	7.4
568.764	7.37
569.105	7.42
569.447	7.49
569.788	7.11
570.129	7.36
570.47	7.09
570.811	7.37
571.151	7.31
571.492	7.37
571.833	7.09
572.174	7.35
572.514	7.46
572.855	7.36
573.195	7.43
573.536	7.29
573.876	7.11
574.217	7.2
574.557	7.24
574.898	7.26
575.238	7.49
575.578	6.94
575.918	7.37
576.258	7.35
576.598	7.26
576.938	7.24
577.278	7.2
577.618	7.07
577.958	7.19
578.298	7.13
578.638	7.1
578.977	7.19
579.317	7.34
579.657	7.19
579.996	7.16
580.336	7.15
580.675	7.32
581.014	7.38
581.354	7.23
581.693	7.35
582.032	7.07
582.372	6.88
582.711	7.24
583.05	7.18
583.389	7.24
583.728	6.85
584.067	7.19
584.406	7.36
584.745	7.1
585.083	7.21
585.422	7.31
585.761	7.2
586.1	7.37
586.438	7.32
586.777	7.25
587.115	7.28
587.454	7.26
587.792	7.18
588.13	7.39
588.469	7.23
588.807	7.19
589.145	6.96
589.483	7.13
589.821	6.86
590.159	7.09
590.497	7.27
590.835	7.3
591.173	7.06
591.511	7.25
591.849	7.25
592.187	7.1
592.524	7.24
592.862	7.07
593.2	7.11
593.537	7.17
593.875	7.03
594.212	7.09
594.55	7.05
594.887	7.36
595.224	7.17
595.561	7.03
595.899	7.13
596.236	7.2
596.573	7.22
596.91	6.75
597.247	6.92
597.584	7.52
597.921	6.89
598.258	7.07
598.594	7.05
598.931	7.14
599.268	7.22
599.604	6.87
599.941	7.05
600.277	7.02
600.614	6.86
600.95	6.85
601.287	7.18
601.623	6.75
601.959	7.01
602.296	7.15
602.632	6.94
602.968	7.15
603.304	6.65
603.64	7.03
603.976	7.25
604.312	6.73
604.648	6.83
604.984	7.26
605.319	7.13
605.655	6.9
605.991	6.9
606.326	6.84
606.662	7.01
606.998	6.73
607.333	7.12
607.668	6.87
608.004	7.2
608.339	6.95
608.674	6.88
609.01	6.86
609.345	6.86
609.68	7.08
610.015	6.79
610.35	6.91
610.685	6.85
611.02	6.87
611.355	7.1
611.689	6.89
612.024	6.89
612.359	6.77
612.694	6.97
613.028	6.66
613.363	7.14
613.697	7.07
614.032	6.95
614.366	6.67
614.7	7.04
615.035	6.88
615.369	6.75
615.703	6.93
616.037	7.02
616.371	6.52
616.705	6.68
617.039	6.95
617.373	6.88
617.707	6.84
618.041	6.66
618.375	6.86
618.709	6.76
619.042	6.59
619.376	7.02
619.71	7.17
620.043	6.82
620.377	6.8
620.71	7.04
621.043	6.88
621.377	6.72
621.71	6.77
622.043	6.89
622.376	6.46
622.709	6.62
623.043	7.03
623.376	6.72
623.709	6.58
624.041	7.25
624.374	6.85
624.707	6.82
625.04	7.07
625.373	6.51
625.705	6.82
626.038	6.88
626.37	6.74
626.703	6.98
627.035	6.88
627.368	6.97
627.7	6.77
628.032	6.54
628.365	7.06
628.697	6.62
629.029	6.7
629.361	6.8
629.693	6.8
630.025	6.72
630.357	6.87
630.689	6.74
631.021	6.61
631.353	6.47
631.684	6.59
632.016	6.81
632.348	6.66
632.679	6.73
633.011	7.11
633.342	6.91
633.674	6.64
634.005	6.78
634.336	6.73
634.668	6.97
634.999	6.55
635.33	6.9
635.661	7.01
635.992	6.76
636.323	6.84
636.654	6.91
636.985	6.75
637.316	6.34
637.647	6.57
637.977	6.54
638.308	6.93
638.639	6.77
638.969	6.69
639.3	6.4
639.63	6.29
639.961	7.01
640.291	7.01
640.622	6.68
640.952	6.25
641.282	7.33
641.612	6.99
641.943	6.75
642.273	6.69
642.603	6.76
642.933	6.68
643.263	7.06
643.592	6.26
643.922	6.24
644.252	6.97
644.582	6.51
644.911	6.28
645.241	6.68
645.571	6.63
645.9	6.68
646.23	6.52
646.559	7.09
646.888	6.4
647.218	6.1
647.547	6.98
647.876	6.63
648.205	6.37
648.534	6.57
648.863	6.18
649.192	6.49
649.521	6.84
649.85	6.64
650.179	6.87
650.508	6.56
650.837	6.47
651.165	6.09
651.494	6.83
651.822	6.46
652.151	6.42
652.479	6.83
652.808	6.45
653.136	6.66
653.465	6.09
653.793	6.33
654.121	6.71
654.449	6.58
654.777	6.6
655.105	7.01
655.433	5.98
655.761	6.6
656.089	6.53
656.417	6.73
656.745	6.31
657.073	6.75
657.4	7.16
657.728	6.82
658.056	6.43
658.383	6.51
658.711	6.65
659.038	6.74
659.365	6.47
659.693	6.42
660.02	6.54
660.347	6.6
660.674	6.55
661.001	6.76
661.329	6.12
661.656	6.47
661.982	6.56
662.309	5.91
662.636	6.38
662.963	7.05
663.29	6.91
663.616	6.72
663.943	6.17
664.27	6.41
664.596	6.84
664.923	6.37
665.249	6.41
665.576	6.49
665.902	6.86
666.228	6.43
666.554	6.38
666.881	5.95
667.207	6.44
667.533	6.39
667.859	6.64
668.185	6.48
668.511	5.81
668.837	6.01
669.162	6.39
669.488	5.86
669.814	5.95
670.139	6.41
670.465	7.33
670.791	7.06
671.116	6.98
671.442	7.12
671.767	6.4
672.092	7.17
672.418	6.38
672.743	6.84
673.068	6.97
673.393	6.56
673.718	6.12
674.043	6.3
674.368	6.56
674.693	7.38
675.018	6.74
675.343	6.89
675.667	6.14
675.992	6.54
676.317	6.53
676.641	6.59
676.966	7.26
677.29	5.64
677.615	6.83
677.939	6.27
678.264	7.23
678.588	6.47
678.912	6.68
679.236	6.89
679.56	6.18
679.885	7.06
680.209	6.78
680.532	6.54
680.856	7.13
681.18	6.07
681.504	6.07
681.828	7.49
682.152	6.72
682.475	6.59
682.799	6.73
683.122	6.59
683.446	5.93
683.769	6.85
684.093	6.39
684.416	7.18
684.739	6.46
685.062	6.82
685.386	6.7
685.709	6.42
686.032	6.36
686.355	7.23
686.678	6.5
687.001	6.25
687.324	6.84
687.646	5.86
687.969	6.15
688.292	6.41
688.614	6.9
688.937	6.85
689.26	7.04
689.582	6.47
689.904	6.83
690.227	6.64
690.549	6.46
690.871	7.62
