Data from 0388_forehead_Reflection__0__86.txt Node

Date: Fri Dec 15 16:59:10 CST 2023
User: ToomeyLab
Spectrometer: FLMS14357
Trigger mode: 0
Integration Time (sec): 1.000000E-2
Scans to average: 100
Electric dark correction enabled: true
Nonlinearity correction enabled: false
Boxcar width: 0
XAxis mode: Wavelengths
Number of Pixels in Spectrum: 2048
>>>>>Begin Spectral Data<<<<<
189.047	50.27
189.435	50.27
189.823	50.27
190.211	130.84
190.599	-191.04
190.987	36.15
191.375	-5.33
191.763	-102.02
192.151	-1133625398275500
192.538	114.83
192.926	41.49
193.314	274.88
193.702	200.47
194.089	967.56
194.477	-157.02
194.864	-71.69
195.252	43.02
195.639	100.4
196.027	-53.28
196.414	48.93
196.801	39.59
197.189	110.23
197.576	-137.13
197.963	-8.9
198.351	-6.43
198.738	6.81
199.125	34.68
199.512	-87.8
199.899	21.27
200.286	24.11
200.673	33.78
201.06	-9.81
201.447	63.59
201.833	-6.74
202.22	65.85
202.607	30.79
202.994	8.12
203.38	34.28
203.767	-1.43
204.154	36.25
204.54	44.57
204.927	-5
205.313	23.78
205.699	9.59
206.086	42.16
206.472	22.48
206.858	25.9
207.245	18.73
207.631	26.3
208.017	8.34
208.403	39.72
208.789	22
209.175	29.72
209.561	46.58
209.947	4.73
210.333	-43.05
210.719	21.01
211.105	34.7
211.491	-6.42
211.876	33.44
212.262	20.14
212.648	12.9
213.034	31.27
213.419	44.46
213.805	18.31
214.19	-1.68
214.576	-0.57
214.961	-8.03
215.346	29.81
215.732	20.2
216.117	26.97
216.502	14.71
216.888	23.83
217.273	37.75
217.658	7.9
218.043	40.1
218.428	-19.68
218.813	11.52
219.198	-13.72
219.583	15.31
219.968	13.6
220.353	-4.39
220.738	21.34
221.122	-4.63
221.507	7.81
221.892	-8.19
222.276	14.12
222.661	2.54
223.046	15.99
223.43	16.06
223.815	18.63
224.199	-3.79
224.583	13.25
224.968	16.15
225.352	22.85
225.736	10.72
226.121	-2.01
226.505	10.6
226.889	6.02
227.273	0.4
227.657	8.34
228.041	8.04
228.425	5.95
228.809	7.48
229.193	4.8
229.577	5.8
229.961	5.3
230.344	3.66
230.728	3.97
231.112	5.12
231.495	4.15
231.879	5.06
232.263	5.38
232.646	7.38
233.03	3.99
233.413	2.73
233.797	5.88
234.18	3.38
234.563	2.35
234.946	2.3
235.33	3.94
235.713	4.31
236.096	4.12
236.479	5.05
236.862	4.43
237.245	5.9
237.628	4.88
238.011	4.04
238.394	6.24
238.777	3.31
239.16	3.32
239.543	3.45
239.925	5.1
240.308	2.52
240.691	5.3
241.073	4.96
241.456	4.97
241.838	2.61
242.221	3.46
242.603	5.02
242.986	4.65
243.368	3.71
243.75	4.04
244.133	3.6
244.515	4.32
244.897	3.92
245.279	4.18
245.661	4.2
246.043	2.89
246.425	2.67
246.807	5.28
247.189	4.21
247.571	4.2
247.953	4.27
248.335	3.88
248.717	3.64
249.098	3.43
249.48	3.79
249.862	3.88
250.243	3.16
250.625	3.98
251.006	3.97
251.388	3.41
251.769	2.84
252.151	5.45
252.532	4.22
252.913	3.31
253.295	3.57
253.676	4.04
254.057	3.48
254.438	3.93
254.819	3.54
255.2	3.7
255.581	4.26
255.962	4
256.343	4.03
256.724	3.79
257.105	2.72
257.486	4.23
257.867	3.89
258.247	4.74
258.628	3.14
259.009	3.41
259.389	4.03
259.77	3.4
260.15	3.87
260.531	3.04
260.911	4.04
261.292	3.5
261.672	3.83
262.052	3.77
262.432	3.85
262.813	4
263.193	3.75
263.573	3.64
263.953	4.05
264.333	4.76
264.713	4.19
265.093	3.73
265.473	4.6
265.853	3.18
266.233	3.89
266.612	2.57
266.992	3.47
267.372	4.52
267.752	4
268.131	3.95
268.511	4.47
268.89	4.13
269.27	4.32
269.649	3.16
270.029	3.7
270.408	4.63
270.787	4.06
271.167	5.02
271.546	4.33
271.925	3.5
272.304	3.4
272.683	4.37
273.062	3.4
273.441	4.18
273.82	3.41
274.199	3.92
274.578	3.67
274.957	3.84
275.336	3.56
275.715	3.39
276.093	3.95
276.472	4.12
276.851	3.79
277.229	3.66
277.608	3.45
277.986	3.64
278.365	4.56
278.743	3.81
279.122	3.42
279.5	3.75
279.878	4.44
280.257	3.85
280.635	3.21
281.013	3.94
281.391	4.05
281.769	4.67
282.147	4.72
282.525	4.95
282.903	3.78
283.281	3.86
283.659	3.93
284.037	4.28
284.415	3.75
284.792	4.32
285.17	3.31
285.548	3.73
285.925	4.1
286.303	3.85
286.68	3.56
287.058	3.93
287.435	3.73
287.813	3.81
288.19	3.78
288.567	3.84
288.945	4.07
289.322	3.91
289.699	3.98
290.076	3.92
290.453	3.77
290.83	3.94
291.207	3.99
291.584	3.99
291.961	4
292.338	3.64
292.715	4.58
293.092	4.18
293.469	4.07
293.845	4.33
294.222	4.32
294.599	4.33
294.975	4.25
295.352	4.87
295.728	4.12
296.105	4.84
296.481	4.55
296.858	4.26
297.234	4.11
297.61	4.57
297.986	4.19
298.363	4.53
298.739	4.48
299.115	4.38
299.491	4.25
299.867	4.53
300.243	4.2
300.619	4.22
300.995	4.52
301.371	5.23
301.746	4.21
302.122	5.23
302.498	4.53
302.874	4.86
303.249	5.37
303.625	4.8
304	5.45
304.376	5
304.751	4.32
305.127	5.78
305.502	4.55
305.878	4.3
306.253	4.87
306.628	5.07
307.003	5.09
307.378	5.49
307.754	5.1
308.129	4.75
308.504	5.4
308.879	5.16
309.254	5.98
309.629	5.68
310.003	5.46
310.378	5.88
310.753	5.94
311.128	5.8
311.502	5.61
311.877	5.48
312.252	4.82
312.626	5.4
313.001	5.15
313.375	5.66
313.75	5.5
314.124	5.55
314.498	5.69
314.873	5.92
315.247	5.91
315.621	5.97
315.995	5.36
316.369	6.34
316.743	6.03
317.117	6.41
317.491	6.13
317.865	6.33
318.239	6.07
318.613	6.74
318.987	6.61
319.361	5.63
319.734	6.67
320.108	6.12
320.482	6.2
320.855	6.59
321.229	6.97
321.602	6.36
321.976	6.83
322.349	6.82
322.723	6.71
323.096	6.62
323.469	6.14
323.843	6.97
324.216	7.8
324.589	6.98
324.962	6.86
325.335	6.71
325.708	6.61
326.081	7.02
326.454	7.32
326.827	6.86
327.2	7.11
327.573	7.36
327.945	7.65
328.318	6.65
328.691	7.26
329.063	7.48
329.436	6.79
329.809	7.71
330.181	6.87
330.553	7.23
330.926	8.06
331.298	7.31
331.671	7.87
332.043	7.91
332.415	7.97
332.787	7.7
333.159	8.35
333.532	7.62
333.904	7.7
334.276	7.52
334.648	7.67
335.02	7.9
335.391	7.77
335.763	8.06
336.135	8.12
336.507	8.68
336.879	7.76
337.25	7.9
337.622	8.42
337.993	8.32
338.365	8.62
338.736	8.95
339.108	8.14
339.479	8.39
339.851	8.25
340.222	8.38
340.593	8.6
340.964	8.17
341.336	8.92
341.707	8.25
342.078	8.73
342.449	9.07
342.82	8.97
343.191	9.02
343.562	8.66
343.933	9.12
344.303	8.93
344.674	9.23
345.045	9.13
345.416	9.31
345.786	8.65
346.157	9.36
346.527	9.11
346.898	8.99
347.268	9.54
347.639	9.14
348.009	9.09
348.38	9.45
348.75	8.98
349.12	9.32
349.49	10.39
349.861	9.92
350.231	9.3
350.601	9.8
350.971	9.72
351.341	9.73
351.711	9.68
352.081	9.79
352.45	9.99
352.82	10.09
353.19	9.96
353.56	9.88
353.929	10.26
354.299	9.96
354.669	9.89
355.038	10.56
355.408	10.13
355.777	10.38
356.147	10.14
356.516	10.57
356.885	10.45
357.254	10.34
357.624	10.77
357.993	10.62
358.362	10.54
358.731	10.59
359.1	10.71
359.469	10.66
359.838	10.9
360.207	10.6
360.576	10.63
360.945	10.93
361.314	11.33
361.682	10.66
362.051	10.85
362.42	10.78
362.788	11.12
363.157	11.27
363.525	11.18
363.894	11.1
364.262	11.01
364.631	11.51
364.999	11.5
365.367	11.03
365.735	12.11
366.104	11.57
366.472	11.6
366.84	10.99
367.208	11.59
367.576	11.66
367.944	12.05
368.312	11.67
368.68	11.61
369.048	11.84
369.416	11.78
369.783	11.65
370.151	12.03
370.519	12.54
370.886	12.33
371.254	11.93
371.621	12.4
371.989	12.85
372.356	12.08
372.724	12.47
373.091	12.33
373.458	12.34
373.826	12.87
374.193	12.44
374.56	12.62
374.927	12.73
375.294	12.79
375.661	12.4
376.028	12.86
376.395	12.78
376.762	12.69
377.129	13.17
377.496	12.88
377.863	13.12
378.229	12.9
378.596	12.96
378.963	13.11
379.329	12.92
379.696	13.31
380.062	13.44
380.429	13.26
380.795	13.3
381.161	13.6
381.528	13.43
381.894	13.49
382.26	13.55
382.626	13.94
382.993	13.41
383.359	14.03
383.725	13.55
384.091	13.77
384.457	14.22
384.823	13.92
385.188	13.97
385.554	13.73
385.92	14.11
386.286	14.25
386.651	14.35
387.017	14.59
387.383	14.43
387.748	14.19
388.114	14.28
388.479	14.2
388.845	14.81
389.21	14.42
389.575	14.58
389.94	14.88
390.306	15.09
390.671	15.23
391.036	14.42
391.401	14.7
391.766	14.9
392.131	14.9
392.496	15.04
392.861	14.92
393.226	14.97
393.591	15.34
393.956	15.08
394.32	15.12
394.685	14.97
395.05	15.11
395.414	15.41
395.779	15.24
396.143	15.54
396.508	15.18
396.872	15.58
397.236	15.58
397.601	15.57
397.965	15.65
398.329	15.85
398.694	15.89
399.058	16.05
399.422	15.73
399.786	15.81
400.15	16.13
400.514	16.21
400.878	16.09
401.242	16.31
401.605	15.98
401.969	15.98
402.333	16
402.697	16.22
403.06	16.55
403.424	16.31
403.787	16.19
404.151	16.5
404.514	16.49
404.878	16.6
405.241	16.81
405.604	16.74
405.968	16.6
406.331	16.61
406.694	17.01
407.057	16.69
407.42	17.03
407.783	16.76
408.146	16.94
408.509	16.79
408.872	17.18
409.235	17.06
409.598	17.07
409.961	17.3
410.323	17.47
410.686	17.43
411.049	17.04
411.411	17.29
411.774	17.36
412.136	17.82
412.499	17.28
412.861	17.36
413.223	17.45
413.586	17.72
413.948	17.57
414.31	17.81
414.672	17.77
415.035	17.77
415.397	18.14
415.759	17.96
416.121	18.09
416.483	17.87
416.845	18.16
417.206	18.03
417.568	18.27
417.93	18.18
418.292	18.29
418.653	18.15
419.015	18.26
419.377	18.22
419.738	18.23
420.1	18.27
420.461	18.12
420.822	18.32
421.184	18.25
421.545	18.24
421.906	18.37
422.267	18.36
422.629	18.43
422.99	18.4
423.351	18.42
423.712	18.49
424.073	18.58
424.434	18.56
424.795	18.58
425.155	18.68
425.516	18.6
425.877	18.68
426.238	18.63
426.598	18.76
426.959	18.86
427.32	18.82
427.68	18.96
428.041	19.12
428.401	19.36
428.761	19.18
429.122	19.29
429.482	19.42
429.842	19.45
430.202	19.46
430.563	19.59
430.923	19.38
431.283	19.94
431.643	19.81
432.003	19.63
432.363	19.72
432.722	19.76
433.082	19.76
433.442	19.86
433.802	20.01
434.161	19.89
434.521	20.19
434.881	19.94
435.24	19.96
435.6	20.13
435.959	20.07
436.319	20.08
436.678	20.35
437.037	20.11
437.396	20.57
437.756	20.43
438.115	20.55
438.474	20.68
438.833	20.49
439.192	20.51
439.551	20.71
439.91	20.61
440.269	20.66
440.628	20.64
440.987	20.73
441.345	20.52
441.704	20.76
442.063	20.68
442.421	20.82
442.78	20.76
443.138	20.77
443.497	20.87
443.855	20.9
444.214	21.09
444.572	21.45
444.93	21.31
445.288	21.24
445.647	21.53
446.005	21.18
446.363	21.36
446.721	21.54
447.079	21.37
447.437	21.32
447.795	21.31
448.153	21.24
448.51	21.36
448.868	21.37
449.226	21.31
449.584	21.42
449.941	21.66
450.299	21.58
450.656	21.81
451.014	21.84
451.371	21.84
451.729	21.85
452.086	22.14
452.443	22.17
452.801	22.3
453.158	22.44
453.515	22.05
453.872	22.61
454.229	22.26
454.586	22.21
454.943	22.41
455.3	22.48
455.657	22.45
456.014	22.66
456.371	22.61
456.727	22.63
457.084	22.69
457.441	22.83
457.797	22.71
458.154	22.84
458.51	22.99
458.867	23.19
459.223	23
459.58	22.78
459.936	23.05
460.292	22.91
460.648	23.03
461.005	22.97
461.361	22.82
461.717	22.89
462.073	22.72
462.429	22.85
462.785	22.85
463.141	23.07
463.496	23.23
463.852	23.45
464.208	23.25
464.564	23.66
464.919	23.64
465.275	23.69
465.631	24.09
465.986	23.77
466.342	23.81
466.697	23.66
467.052	24.01
467.408	23.91
467.763	23.9
468.118	24.13
468.473	23.97
468.829	24.02
469.184	23.99
469.539	24.1
469.894	24.11
470.249	24.35
470.603	24.13
470.958	24.47
471.313	24.48
471.668	24.39
472.023	24.45
472.377	24.37
472.732	24.6
473.086	24.57
473.441	24.63
473.795	24.72
474.15	24.89
474.504	25.02
474.859	24.68
475.213	24.62
475.567	24.71
475.921	24.84
476.275	24.83
476.63	24.97
476.984	25.15
477.338	25.04
477.692	24.95
478.045	25.07
478.399	25.23
478.753	25.35
479.107	25.17
479.461	25.19
479.814	25.17
480.168	25.33
480.521	25.23
480.875	25.34
481.228	25.38
481.582	25.42
481.935	25.42
482.289	25.44
482.642	25.37
482.995	25.32
483.348	25.48
483.701	25.35
484.055	25.33
484.408	25.2
484.761	25.04
485.114	24.73
485.466	24.55
485.819	24.49
486.172	24.59
486.525	24.73
486.878	24.81
487.23	25.02
487.583	25.18
487.936	25.3
488.288	25.45
488.641	25.37
488.993	25.09
489.345	25.04
489.698	25.11
490.05	25.01
490.402	25.27
490.754	25.33
491.107	25.59
491.459	25.69
491.811	25.88
492.163	26.18
492.515	26.09
492.866	25.95
493.218	25.71
493.57	25.49
493.922	25.7
494.274	25.83
494.625	26.1
494.977	26.2
495.328	26.61
495.68	26.73
496.031	27.04
496.383	27.07
496.734	27.09
497.086	27.25
497.437	26.92
497.788	27.21
498.139	26.96
498.49	27.22
498.842	27.01
499.193	27.11
499.544	27.1
499.894	27.22
500.245	27.3
500.596	27.2
500.947	27.25
501.298	27.33
501.648	27.45
501.999	27.71
502.35	27.73
502.7	27.76
503.051	27.62
503.401	27.83
503.752	27.98
504.102	27.82
504.452	27.85
504.803	27.9
505.153	27.96
505.503	28.1
505.853	27.98
506.203	27.99
506.553	28.07
506.903	28.19
507.253	28.14
507.603	28.11
507.953	28.33
508.303	28.54
508.652	28.23
509.002	28.42
509.352	28.42
509.701	28.37
510.051	28.42
510.4	28.41
510.75	28.51
511.099	28.55
511.449	28.35
511.798	28.34
512.147	28.39
512.496	28.58
512.846	28.55
513.195	28.63
513.544	28.68
513.893	28.61
514.242	28.64
514.591	28.64
514.939	28.86
515.288	28.78
515.637	29.04
515.986	29.06
516.334	29.08
516.683	29.07
517.032	29.13
517.38	29.26
517.729	29.34
518.077	29.37
518.426	29.29
518.774	29.36
519.122	29.28
519.47	29.24
519.819	29
520.167	29.03
520.515	28.81
520.863	29.14
521.211	29.2
521.559	29.22
521.907	29.14
522.255	29.39
522.602	29.45
522.95	29.51
523.298	29.55
523.645	29.71
523.993	29.75
524.341	29.94
524.688	29.91
525.036	29.94
525.383	30.1
525.73	30.24
526.078	30
526.425	29.89
526.772	29.86
527.119	29.71
527.466	29.59
527.814	29.59
528.161	29.82
528.508	29.85
528.854	29.86
529.201	29.65
529.548	29.63
529.895	29.46
530.242	29.22
530.588	29.2
530.935	29.33
531.282	29.32
531.628	29.48
531.975	29.72
532.321	29.79
532.667	30.02
533.014	30.24
533.36	30.3
533.706	30.39
534.052	30.41
534.399	30.24
534.745	30.17
535.091	29.92
535.437	30.15
535.783	30.19
536.129	30.13
536.474	30.35
536.82	30.59
537.166	30.64
537.512	30.98
537.857	30.82
538.203	30.79
538.549	30.74
538.894	30.78
539.239	30.96
539.585	31
539.93	31.16
540.276	31.29
540.621	31.56
540.966	31.49
541.311	31.45
541.656	31.67
542.001	31.49
542.346	31.14
542.691	31.05
543.036	30.79
543.381	30.74
543.726	30.79
544.071	30.96
544.415	31.04
544.76	31.1
545.105	31.21
545.449	31.3
545.794	31.44
546.138	31.64
546.483	31.82
546.827	32
547.171	32.05
547.516	32.02
547.86	32.12
548.204	32.12
548.548	31.85
548.892	32.08
549.236	32.07
549.58	32.13
549.924	32.05
550.268	32.54
550.612	32.58
550.956	32.66
551.3	32.65
551.643	32.87
551.987	32.88
552.33	32.96
552.674	32.87
553.017	32.83
553.361	32.94
553.704	33.07
554.048	32.71
554.391	32.8
554.734	32.75
555.077	33.12
555.42	33.06
555.764	32.82
556.107	32.84
556.45	33.12
556.793	33.35
557.135	33.67
557.478	33.59
557.821	33.65
558.164	33.58
558.507	33.51
558.849	33.63
559.192	33.84
559.534	33.76
559.877	33.94
560.219	33.79
560.562	33.81
560.904	34.07
561.246	33.92
561.589	34.16
561.931	34
562.273	34.09
562.615	33.94
562.957	34.03
563.299	33.91
563.641	34.14
563.983	33.94
564.325	34.06
564.667	34.19
565.008	34.2
565.35	34.17
565.692	34.22
566.033	34.43
566.375	34.51
566.716	34.69
567.058	34.29
567.399	34.39
567.741	34.35
568.082	34.15
568.423	34.48
568.764	34.38
569.105	34.43
569.447	34.73
569.788	34.43
570.129	34.62
570.47	34.57
570.811	34.81
571.151	34.94
571.492	34.93
571.833	34.89
572.174	34.81
572.514	34.67
572.855	35.03
573.195	34.87
573.536	34.8
573.876	34.89
574.217	34.89
574.557	34.72
574.898	35.1
575.238	35.25
575.578	34.93
575.918	35.26
576.258	35.11
576.598	35.17
576.938	35.28
577.278	35.08
577.618	35.41
577.958	35.19
578.298	35.28
578.638	35.08
578.977	35.37
579.317	35.8
579.657	35.68
579.996	35.66
580.336	35.74
580.675	35.83
581.014	36.14
581.354	36.08
581.693	36.05
582.032	36.07
582.372	35.81
582.711	36.02
583.05	35.94
583.389	36.06
583.728	35.93
584.067	36.4
584.406	36.4
584.745	36.29
585.083	35.68
585.422	36.33
585.761	36.44
586.1	36.67
586.438	36.56
586.777	36.78
587.115	36.72
587.454	36.61
587.792	36.31
588.13	36.66
588.469	36.59
588.807	36.8
589.145	36.86
589.483	36.91
589.821	36.78
590.159	36.85
590.497	36.66
590.835	37.11
591.173	36.73
591.511	36.74
591.849	36.65
592.187	36.75
592.524	37.01
592.862	36.94
593.2	36.97
593.537	37.22
593.875	36.8
594.212	36.83
594.55	37.19
594.887	37.68
595.224	37.2
595.561	37.12
595.899	37.32
596.236	37.08
596.573	36.87
596.91	37.12
597.247	37.21
597.584	37.6
597.921	37.41
598.258	36.94
598.594	37.12
598.931	37.2
599.268	37.29
599.604	37.44
599.941	37.32
600.277	37.81
600.614	37.18
600.95	37.56
601.287	37.83
601.623	37.79
601.959	37.97
602.296	37.83
602.632	37.7
602.968	38.08
603.304	37.82
603.64	37.72
603.976	38
604.312	38.11
604.648	37.71
604.984	37.97
605.319	37.88
605.655	37.94
605.991	37.75
606.326	37.88
606.662	38
606.998	37.66
607.333	37.86
607.668	38.13
608.004	38.2
608.339	38.24
608.674	38.47
609.01	38.53
609.345	38.22
609.68	38.75
610.015	38.24
610.35	38.84
610.685	38.6
611.02	38.46
611.355	38.39
611.689	38.55
612.024	38.33
612.359	38.23
612.694	38.8
613.028	38.33
613.363	38.61
613.697	38.85
614.032	38.94
614.366	38.71
614.7	38.96
615.035	38.88
615.369	39.02
615.703	39.22
616.037	39.07
616.371	38.69
616.705	39.17
617.039	38.99
617.373	39.07
617.707	39.05
618.041	39.01
618.375	39.28
618.709	39.51
619.042	38.92
619.376	39.58
619.71	39.17
620.043	39.33
620.377	39.22
620.71	39.63
621.043	39.5
621.377	39.35
621.71	39.86
622.043	39.28
622.376	39.42
622.709	39.73
623.043	39.54
623.376	40.1
623.709	40.03
624.041	40.37
624.374	39.51
624.707	39.86
625.04	39.6
625.373	39.63
625.705	39.47
626.038	39.95
626.37	39.12
626.703	39.91
627.035	40.16
627.368	39.7
627.7	40.05
628.032	39.82
628.365	40.06
628.697	40.06
629.029	40.04
629.361	40.27
629.693	40.03
630.025	40
630.357	39.94
630.689	40.2
631.021	40.31
631.353	40.21
631.684	40
632.016	40.16
632.348	40.57
632.679	40.72
633.011	40.75
633.342	40.81
633.674	40.71
634.005	40.95
634.336	40.71
634.668	40.81
634.999	40.52
635.33	40.7
635.661	40.45
635.992	40.49
636.323	40.78
636.654	40.92
636.985	41.01
637.316	40.55
637.647	40.61
637.977	40.81
638.308	40.95
638.639	40.52
638.969	40.86
639.3	40.49
639.63	40.68
639.961	41.1
640.291	40.99
640.622	41.27
640.952	41.14
641.282	41.2
641.612	41.27
641.943	40.95
642.273	41.38
642.603	41.55
642.933	41.64
643.263	41.11
643.592	40.72
643.922	41.44
644.252	41.25
644.582	41.11
644.911	41.57
645.241	41.73
645.571	41.63
645.9	41.29
646.23	41.27
646.559	42.22
646.888	41.3
647.218	41.19
647.547	41.47
647.876	41.53
648.205	41.53
648.534	41.48
648.863	41.58
649.192	41.7
649.521	41.33
649.85	42.06
650.179	41.77
650.508	41.52
650.837	41.98
651.165	42.13
651.494	42.29
651.822	41.97
652.151	42.31
652.479	41.88
652.808	41.53
653.136	42.21
653.465	41.59
653.793	41.52
654.121	41.87
654.449	42.25
654.777	42.22
655.105	41.99
655.433	42.05
655.761	41.97
656.089	42.11
656.417	42.22
656.745	41.99
657.073	42.21
657.4	43.52
657.728	42.14
658.056	41.89
658.383	42.33
658.711	42.62
659.038	42.72
659.365	42.48
659.693	42.14
660.02	42.53
660.347	42.34
660.674	42.24
661.001	42.56
661.329	42.04
661.656	42.46
661.982	42.34
662.309	42.55
662.636	42.27
662.963	42.87
663.29	42.76
663.616	42.65
663.943	42.66
664.27	42.57
664.596	42.9
664.923	43.2
665.249	42.91
665.576	42.94
665.902	43.33
666.228	42.71
666.554	43.11
666.881	42.77
667.207	43.27
667.533	42.09
667.859	42.66
668.185	43.46
668.511	42.73
668.837	42.99
669.162	43.57
669.488	42.9
669.814	43.56
670.139	42.77
670.465	43.5
670.791	43.51
671.116	43.78
671.442	42.35
