Data from 0388_crown_Reflection__2__83.txt Node

Date: Fri Dec 15 16:58:30 CST 2023
User: ToomeyLab
Spectrometer: FLMS14357
Trigger mode: 0
Integration Time (sec): 1.000000E-2
Scans to average: 100
Electric dark correction enabled: true
Nonlinearity correction enabled: false
Boxcar width: 0
XAxis mode: Wavelengths
Number of Pixels in Spectrum: 2048
>>>>>Begin Spectral Data<<<<<
189.047	58.57
189.435	58.57
189.823	58.57
190.211	47.51
190.599	11.76
190.987	-8.64
191.375	200.86
191.763	-32.28
192.151	-104874277955600
192.538	111.9
192.926	60.46
193.314	266.67
193.702	21.26
194.089	533.33
194.477	144.44
194.864	1623.53
195.252	145.57
195.639	60.62
196.027	-152.53
196.414	1.52
196.801	158
197.189	13.23
197.576	125
197.963	11.19
198.351	10.53
198.738	4.75
199.125	20.86
199.512	-47.58
199.899	29.28
200.286	38.55
200.673	10.06
201.06	-7.72
201.447	-15.86
201.833	6.1
202.22	37.79
202.607	62.87
202.994	5.74
203.38	23
203.767	17.92
204.154	-11.46
204.54	19.36
204.927	-6.8
205.313	-11.06
205.699	23.54
206.086	29.46
206.472	10.1
206.858	26.16
207.245	-114.77
207.631	33.55
208.017	-1.09
208.403	14.71
208.789	6.65
209.175	29.44
209.561	-18.44
209.947	22.52
210.333	-2.06
210.719	17.92
211.105	25.38
211.491	-7.23
211.876	22.12
212.262	-6.78
212.648	26.85
213.034	29.23
213.419	-31.52
213.805	26.05
214.19	-22.09
214.576	38.01
214.961	-28.66
215.346	-11.09
215.732	40.33
216.117	24.54
216.502	-14.29
216.888	34.8
217.273	27.46
217.658	-17.78
218.043	15.59
218.428	2.08
218.813	4.31
219.198	2.95
219.583	0.15
219.968	11.46
220.353	-13.63
220.738	35.29
221.122	17.93
221.507	-28.6
221.892	-7.98
222.276	-14.71
222.661	3.06
223.046	8.93
223.43	15.83
223.815	6.04
224.199	-12.88
224.583	8.16
224.968	1.88
225.352	10.45
225.736	-6.54
226.121	-11.82
226.505	1.88
226.889	5.63
227.273	1.39
227.657	7.61
228.041	6.46
228.425	4.84
228.809	9.92
229.193	8.48
229.577	7.49
229.961	3.67
230.344	4.35
230.728	4.59
231.112	5.63
231.495	4.52
231.879	4.2
232.263	7.09
232.646	4.25
233.03	5.17
233.413	3.37
233.797	3.14
234.18	4.84
234.563	5.93
234.946	2.65
235.33	6.6
235.713	5.56
236.096	4.19
236.479	5.64
236.862	3.6
237.245	8
237.628	2.84
238.011	5.98
238.394	6.39
238.777	3.65
239.16	3.47
239.543	5.72
239.925	6.48
240.308	4.24
240.691	7.53
241.073	5.1
241.456	3.34
241.838	4.27
242.221	4.82
242.603	5.04
242.986	4.44
243.368	5.28
243.75	5.17
244.133	5.36
244.515	5.22
244.897	4.75
245.279	5.63
245.661	4.98
246.043	3.23
246.425	4.08
246.807	6.28
247.189	5.82
247.571	4.59
247.953	5.28
248.335	4.92
248.717	5.06
249.098	4.65
249.48	4.72
249.862	4.64
250.243	4.9
250.625	5.13
251.006	4.53
251.388	3.73
251.769	5.1
252.151	5.36
252.532	5.45
252.913	3.63
253.295	4.47
253.676	4.92
254.057	5.12
254.438	4.68
254.819	4.7
255.2	4.93
255.581	4.51
255.962	3.67
256.343	3.76
256.724	4.19
257.105	4.44
257.486	4.33
257.867	5.06
258.247	4.98
258.628	5.33
259.009	5.2
259.389	5.06
259.77	4.54
260.15	4.92
260.531	4.38
260.911	4.98
261.292	5.18
261.672	4.9
262.052	4.49
262.432	4.63
262.813	4.52
263.193	4.71
263.573	4.57
263.953	4.62
264.333	4.79
264.713	4.89
265.093	4.63
265.473	5.02
265.853	3.57
266.233	4.64
266.612	2.73
266.992	3.55
267.372	5.14
267.752	4.54
268.131	4.18
268.511	4.79
268.89	4.46
269.27	4.28
269.649	3.88
270.029	4.15
270.408	5.63
270.787	5.01
271.167	5.45
271.546	5.12
271.925	3.78
272.304	4.73
272.683	5.12
273.062	4.58
273.441	4.64
273.82	3.87
274.199	4.26
274.578	4.5
274.957	4.87
275.336	4.03
275.715	3.87
276.093	4.58
276.472	4.74
276.851	4.17
277.229	4.39
277.608	3.82
277.986	3.96
278.365	4.49
278.743	4.24
279.122	4.46
279.5	4.38
279.878	4.84
280.257	4.05
280.635	3.69
281.013	4.26
281.391	4.54
281.769	4.77
282.147	5.31
282.525	5.1
282.903	4.44
283.281	4.77
283.659	5.09
284.037	4.32
284.415	4.49
284.792	4.52
285.17	3.61
285.548	4.03
285.925	4.48
286.303	4.38
286.68	4.07
287.058	4.91
287.435	4.05
287.813	4.44
288.19	4.16
288.567	4.37
288.945	4.86
289.322	4.22
289.699	4.23
290.076	4.42
290.453	4.11
290.83	4.4
291.207	4.18
291.584	4.6
291.961	4.6
292.338	4.64
292.715	4.97
293.092	4.24
293.469	3.84
293.845	4.12
294.222	3.83
294.599	4.52
294.975	4.49
295.352	4.37
295.728	4.04
296.105	4.25
296.481	4.28
296.858	4.34
297.234	3.96
297.61	4.19
297.986	4.12
298.363	4.52
298.739	4.66
299.115	3.99
299.491	4.22
299.867	3.9
300.243	4.42
300.619	3.94
300.995	3.88
301.371	4.54
301.746	3.77
302.122	4.85
302.498	4.02
302.874	4.44
303.249	3.94
303.625	4.1
304	4.27
304.376	4.48
304.751	3.4
305.127	4.91
305.502	4.03
305.878	3.57
306.253	4.64
306.628	4.78
307.003	3.97
307.378	4.55
307.754	4.08
308.129	4.08
308.504	4.4
308.879	4.17
309.254	4.43
309.629	4.95
310.003	4.31
310.378	4.67
310.753	4.63
311.128	4.26
311.502	4.17
311.877	4.43
312.252	3.98
312.626	4.09
313.001	3.85
313.375	4.35
313.75	3.83
314.124	4.26
314.498	4.16
314.873	3.66
315.247	3.43
315.621	4.22
315.995	3.74
316.369	3.86
316.743	4.46
317.117	4.13
317.491	4.39
317.865	4.21
318.239	4.3
318.613	4.74
318.987	4.11
319.361	3.54
319.734	4.19
320.108	3.73
320.482	4.46
320.855	4.3
321.229	4.23
321.602	4.13
321.976	4.36
322.349	3.91
322.723	4.49
323.096	4.38
323.469	3.46
323.843	3.9
324.216	4.45
324.589	4.09
324.962	4
325.335	3.53
325.708	4.08
326.081	3.7
326.454	3.73
326.827	3.39
327.2	3.92
327.573	4.23
327.945	4.03
328.318	3.94
328.691	3.43
329.063	3.93
329.436	3.92
329.809	4.22
330.181	4
330.553	3.89
330.926	4.42
331.298	4.43
331.671	3.95
332.043	4.03
332.415	3.91
332.787	4.07
333.159	4.71
333.532	4.4
333.904	3.86
334.276	3.82
334.648	4.61
335.02	4.09
335.391	3.9
335.763	3.92
336.135	4.48
336.507	4.54
336.879	3.78
337.25	3.71
337.622	3.91
337.993	3.8
338.365	4.09
338.736	4.09
339.108	3.9
339.479	3.85
339.851	3.57
340.222	3.98
340.593	3.96
340.964	4.01
341.336	4.44
341.707	3.49
342.078	4.2
342.449	4.16
342.82	4.09
343.191	3.98
343.562	3.82
343.933	4.09
344.303	4.17
344.674	4.2
345.045	4.24
345.416	4.42
345.786	3.99
346.157	4.08
346.527	3.29
346.898	3.47
347.268	4.28
347.639	3.57
348.009	4.2
348.38	3.63
348.75	3.53
349.12	3.72
349.49	4.27
349.861	4.25
350.231	3.56
350.601	4.13
350.971	4.5
351.341	3.85
351.711	3.83
352.081	3.9
352.45	3.81
352.82	4.13
353.19	4
353.56	3.61
353.929	3.94
354.299	4
354.669	3.42
355.038	4.09
355.408	3.85
355.777	3.72
356.147	3.66
356.516	4.14
356.885	4.1
357.254	3.85
357.624	4.34
357.993	4.1
358.362	3.57
358.731	3.49
359.1	4.17
359.469	4.13
359.838	3.7
360.207	3.8
360.576	3.37
360.945	3.8
361.314	4.18
361.682	3.76
362.051	3.75
362.42	4.27
362.788	3.96
363.157	4.11
363.525	4.13
363.894	4.05
364.262	3.98
364.631	3.65
364.999	4.15
365.367	3.39
365.735	4.38
366.104	3.79
366.472	3.83
366.84	3.83
367.208	3.68
367.576	3.99
367.944	3.95
368.312	3.51
368.68	3.83
369.048	3.89
369.416	3.78
369.783	3.88
370.151	3.72
370.519	3.99
370.886	4.29
371.254	3.45
371.621	4.09
371.989	4.09
372.356	3.24
372.724	3.7
373.091	3.58
373.458	4.13
373.826	3.9
374.193	3.62
374.56	4.15
374.927	4.03
375.294	4.04
375.661	3.74
376.028	3.55
376.395	3.7
376.762	3.91
377.129	3.96
377.496	3.67
377.863	4.28
378.229	3.7
378.596	4.18
378.963	4.02
379.329	4.17
379.696	4.07
380.062	3.95
380.429	3.89
380.795	3.69
381.161	3.77
381.528	4.15
381.894	4.38
382.26	3.95
382.626	4.07
382.993	3.76
383.359	4.38
383.725	3.71
384.091	3.71
384.457	4.38
384.823	3.82
385.188	4.3
385.554	3.98
385.92	4.29
386.286	4.19
386.651	4.36
387.017	4.41
387.383	4.17
387.748	4.04
388.114	4.15
388.479	3.97
388.845	4.11
389.21	4.23
389.575	4.07
389.94	4.11
390.306	4.03
390.671	4.19
391.036	3.94
391.401	3.6
391.766	3.84
392.131	3.93
392.496	4.11
392.861	3.89
393.226	4.24
393.591	4.11
393.956	3.96
394.32	4.12
394.685	3.92
395.05	3.85
395.414	3.98
395.779	3.86
396.143	3.99
396.508	4.16
396.872	4.15
397.236	4.06
397.601	3.68
397.965	4.12
398.329	4.25
398.694	4.07
399.058	4.4
399.422	3.82
399.786	4.11
400.15	4.04
400.514	4.29
400.878	4.42
401.242	4.47
401.605	4.26
401.969	4.15
402.333	4.31
402.697	4.1
403.06	3.9
403.424	4.28
403.787	4.03
404.151	4.27
404.514	4.3
404.878	4.26
405.241	4.1
405.604	4.09
405.968	4.38
406.331	3.99
406.694	4.1
407.057	4.12
407.42	4.42
407.783	3.9
408.146	4.14
408.509	4.15
408.872	3.93
409.235	4.02
409.598	4.43
409.961	3.88
410.323	4.33
410.686	4.03
411.049	4.19
411.411	4.04
411.774	4.19
412.136	4
412.499	4.11
412.861	4.17
413.223	4.18
413.586	4.08
413.948	4.21
414.31	4.2
414.672	4.2
415.035	3.83
415.397	4.34
415.759	4.04
416.121	4.13
416.483	4.15
416.845	4.16
417.206	4.25
417.568	4.25
417.93	4.14
418.292	4.14
418.653	4.08
419.015	4.34
419.377	4.15
419.738	4.28
420.1	4.08
420.461	4.1
420.822	4.28
421.184	4.07
421.545	4.16
421.906	4.15
422.267	4.19
422.629	4.1
422.99	4.1
423.351	4.03
423.712	4.12
424.073	4.13
424.434	4.13
424.795	4.1
425.155	4.06
425.516	4.11
425.877	4.16
426.238	4.06
426.598	4.15
426.959	4.14
427.32	4.01
427.68	4.1
428.041	4.08
428.401	4.24
428.761	4.17
429.122	4.2
429.482	4.07
429.842	4.29
430.202	4.16
430.563	4.2
430.923	4.12
431.283	4.32
431.643	4.19
432.003	4.23
432.363	4.37
432.722	4.16
433.082	4.4
433.442	4.32
433.802	4.13
434.161	4.28
434.521	4.47
434.881	4.25
435.24	4.16
435.6	4.28
435.959	4.28
436.319	4.2
436.678	4.24
437.037	4.27
437.396	4.45
437.756	4.33
438.115	4.2
438.474	4.4
438.833	4.11
439.192	4.28
439.551	4.37
439.91	4.37
440.269	4.25
440.628	4.18
440.987	4.39
441.345	4.17
441.704	4.32
442.063	4.21
442.421	4.27
442.78	4.21
443.138	4.18
443.497	4.26
443.855	4.25
444.214	4.26
444.572	4.38
444.93	4.33
445.288	4.25
445.647	4.5
446.005	4.31
446.363	4.27
446.721	4.45
447.079	4.16
447.437	4.31
447.795	4.34
448.153	4.2
448.51	4.21
448.868	4.26
449.226	4.22
449.584	4.26
449.941	4.34
450.299	4.27
450.656	4.28
451.014	4.26
451.371	4.37
451.729	4.26
452.086	4.39
452.443	4.34
452.801	4.49
453.158	4.34
453.515	4.26
453.872	4.56
454.229	4.24
454.586	4.27
454.943	4.33
455.3	4.41
455.657	4.32
456.014	4.36
456.371	4.6
456.727	4.33
457.084	4.43
457.441	4.35
457.797	4.45
458.154	4.61
458.51	4.38
458.867	4.5
459.223	4.56
459.58	4.43
459.936	4.5
460.292	4.43
460.648	4.39
461.005	4.34
461.361	4.39
461.717	4.35
462.073	4.35
462.429	4.36
462.785	4.46
463.141	4.36
463.496	4.41
463.852	4.58
464.208	4.39
464.564	4.42
464.919	4.51
465.275	4.52
465.631	4.65
465.986	4.56
466.342	4.43
466.697	4.27
467.052	4.47
467.408	4.53
467.763	4.48
468.118	4.48
468.473	4.44
468.829	4.54
469.184	4.44
469.539	4.49
469.894	4.55
470.249	4.67
470.603	4.56
470.958	4.59
471.313	4.5
471.668	4.66
472.023	4.53
472.377	4.46
472.732	4.52
473.086	4.44
473.441	4.33
473.795	4.62
474.15	4.56
474.504	4.59
474.859	4.74
475.213	4.48
475.567	4.46
475.921	4.44
476.275	4.41
476.63	4.64
476.984	4.68
477.338	4.65
477.692	4.37
478.045	4.61
478.399	4.59
478.753	4.6
479.107	4.66
479.461	4.55
479.814	4.57
480.168	4.56
480.521	4.54
480.875	4.57
481.228	4.69
481.582	4.61
481.935	4.57
482.289	4.62
482.642	4.66
482.995	4.56
483.348	4.46
483.701	4.61
484.055	4.6
484.408	4.66
484.761	4.52
485.114	4.43
485.466	4.38
485.819	4.37
486.172	4.33
486.525	4.3
486.878	4.31
487.23	4.33
487.583	4.39
487.936	4.43
488.288	4.53
488.641	4.5
488.993	4.46
489.345	4.41
489.698	4.45
490.05	4.35
490.402	4.45
490.754	4.43
491.107	4.44
491.459	4.53
491.811	4.57
492.163	4.5
492.515	4.51
492.866	4.7
493.218	4.48
493.57	4.58
493.922	4.48
494.274	4.49
494.625	4.53
494.977	4.63
495.328	4.6
495.68	4.66
496.031	4.77
496.383	4.58
496.734	4.81
497.086	4.76
497.437	4.68
497.788	4.78
498.139	4.61
498.49	4.68
498.842	4.71
499.193	4.58
499.544	4.64
499.894	4.59
500.245	4.74
500.596	4.67
500.947	4.76
501.298	4.67
501.648	4.67
501.999	4.8
502.35	4.56
502.7	4.65
503.051	4.59
503.401	4.71
503.752	4.86
504.102	4.68
504.452	4.74
504.803	4.67
505.153	4.74
505.503	4.86
505.853	4.78
506.203	4.71
506.553	4.68
506.903	4.66
507.253	4.67
507.603	4.69
507.953	4.9
508.303	4.89
508.652	4.8
509.002	4.78
509.352	4.73
509.701	4.83
510.051	4.78
510.4	4.73
510.75	4.73
511.099	4.85
511.449	4.8
511.798	4.68
512.147	4.78
512.496	4.72
512.846	4.77
513.195	4.88
513.544	4.71
513.893	4.76
514.242	4.87
514.591	4.93
514.939	4.86
515.288	4.71
515.637	4.86
515.986	4.92
516.334	4.73
516.683	4.87
517.032	4.9
517.38	4.96
517.729	4.89
518.077	4.8
518.426	4.93
518.774	4.95
519.122	4.87
519.47	4.88
519.819	4.75
520.167	4.79
520.515	4.86
520.863	4.86
521.211	4.82
521.559	4.85
521.907	4.82
522.255	4.73
522.602	4.89
522.95	4.9
523.298	4.8
523.645	4.92
523.993	4.93
524.341	4.91
524.688	4.96
525.036	4.76
525.383	4.89
525.73	5.01
526.078	4.92
526.425	4.8
526.772	4.88
527.119	4.87
527.466	4.84
527.814	4.89
528.161	4.88
528.508	4.93
528.854	4.88
529.201	4.91
529.548	4.84
529.895	4.85
530.242	4.71
530.588	4.73
530.935	4.76
531.282	4.68
531.628	4.68
531.975	4.77
532.321	4.83
532.667	4.79
533.014	4.85
533.36	4.85
533.706	5.06
534.052	4.89
534.399	4.87
534.745	4.85
535.091	4.89
535.437	4.84
535.783	4.9
536.129	4.85
536.474	4.92
536.82	4.9
537.166	4.96
537.512	5.01
537.857	4.99
538.203	5.01
538.549	4.96
538.894	4.86
539.239	4.96
539.585	4.94
539.93	4.98
540.276	5.05
540.621	4.96
540.966	5.05
541.311	4.95
541.656	4.96
542.001	4.93
542.346	5.14
542.691	5.02
543.036	4.95
543.381	4.9
543.726	4.86
544.071	4.91
544.415	4.96
544.76	4.92
545.105	5.06
545.449	4.97
545.794	4.98
546.138	5
546.483	5.11
546.827	5.07
547.171	5.04
547.516	5.19
547.86	4.99
548.204	5.2
548.548	5.1
548.892	5.19
549.236	5.02
549.58	5.02
549.924	5.17
550.268	5.15
550.612	5.29
550.956	5.11
551.3	4.91
551.643	5.37
551.987	5.28
552.33	5.21
552.674	5.37
553.017	5.25
553.361	5.2
553.704	5.44
554.048	5.23
554.391	5.21
554.734	5.17
555.077	5.36
555.42	5.27
555.764	5.12
556.107	5.12
556.45	5.16
556.793	5.22
557.135	5.22
557.478	5.35
557.821	5.22
558.164	5.26
558.507	5.18
558.849	5.27
559.192	5.31
559.534	5.2
559.877	5.35
560.219	5.12
560.562	5.56
560.904	5.13
561.246	5.5
561.589	5.53
561.931	5.19
562.273	5.14
562.615	5.23
562.957	5.44
563.299	5.17
563.641	5.28
563.983	5.35
564.325	5.24
564.667	5.2
565.008	5.23
565.35	5.25
565.692	5.32
566.033	5.32
566.375	5.47
566.716	5.44
567.058	5.33
567.399	5.26
567.741	5.19
568.082	5.42
568.423	5.25
568.764	5.3
569.105	5.46
569.447	5.44
569.788	5.23
570.129	5.41
570.47	5.15
570.811	5.26
571.151	5.38
571.492	5.33
571.833	5.35
572.174	5.31
572.514	5.45
572.855	5.46
573.195	5.49
573.536	5.37
573.876	5.26
574.217	5.17
574.557	5.46
574.898	5.52
575.238	5.41
575.578	5.08
575.918	5.43
576.258	5.47
576.598	5.47
576.938	5.37
577.278	5.46
577.618	5.4
577.958	5.41
578.298	5.44
578.638	5.35
578.977	5.28
579.317	5.19
579.657	5.42
579.996	5.43
580.336	5.54
580.675	5.32
581.014	5.38
581.354	5.53
581.693	5.26
582.032	5.25
582.372	5.28
582.711	5.43
583.05	5.34
583.389	5.47
583.728	5.3
584.067	5.42
584.406	5.58
584.745	5.52
585.083	5.54
585.422	5.52
585.761	5.51
586.1	5.64
586.438	5.55
586.777	5.82
587.115	5.74
587.454	5.51
587.792	5.49
588.13	5.69
588.469	5.64
588.807	5.48
589.145	5.38
589.483	5.64
589.821	5.35
590.159	5.53
590.497	5.87
590.835	5.93
591.173	5.53
591.511	5.85
591.849	5.49
592.187	5.53
592.524	5.74
592.862	5.47
593.2	5.59
593.537	5.5
593.875	5.62
594.212	5.49
594.55	5.59
594.887	5.72
595.224	5.49
595.561	5.38
595.899	5.47
596.236	5.49
596.573	5.68
596.91	5.38
597.247	5.47
597.584	5.74
597.921	5.57
598.258	5.53
598.594	5.52
598.931	5.69
599.268	5.71
599.604	5.54
599.941	5.65
600.277	5.54
600.614	5.4
600.95	5.34
601.287	5.77
601.623	5.55
601.959	5.31
602.296	5.72
602.632	5.47
602.968	5.8
603.304	5.46
603.64	5.53
603.976	5.62
604.312	5.42
604.648	5.58
604.984	5.82
605.319	5.75
605.655	5.57
605.991	5.54
606.326	5.77
606.662	5.85
606.998	5.48
607.333	5.7
607.668	5.78
608.004	5.77
608.339	5.95
608.674	5.71
609.01	5.77
609.345	5.54
609.68	5.96
610.015	5.7
610.35	5.67
610.685	5.82
611.02	5.74
611.355	5.69
611.689	5.72
612.024	5.65
612.359	5.69
612.694	5.6
613.028	5.75
613.363	5.71
613.697	5.82
614.032	5.76
614.366	5.8
614.7	5.87
615.035	5.76
615.369	5.58
615.703	5.93
616.037	5.87
616.371	5.47
616.705	5.41
617.039	5.83
617.373	5.53
617.707	5.62
618.041	5.5
618.375	5.66
618.709	5.8
619.042	5.53
619.376	6.11
619.71	5.92
620.043	6.18
620.377	5.9
620.71	6.22
621.043	5.74
621.377	5.7
621.71	6
622.043	5.75
622.376	5.45
622.709	5.69
623.043	5.88
623.376	5.96
623.709	5.72
624.041	6.23
624.374	5.99
624.707	5.64
625.04	6.12
625.373	5.43
625.705	6.09
626.038	5.83
626.37	5.7
626.703	5.69
627.035	5.68
627.368	6.17
627.7	6.02
628.032	5.92
628.365	6.24
628.697	5.91
629.029	5.79
629.361	5.88
629.693	5.99
630.025	5.7
630.357	6.07
630.689	5.73
631.021	5.86
631.353	5.98
631.684	5.81
632.016	5.64
632.348	6.13
632.679	5.62
633.011	6.32
633.342	6.53
633.674	5.64
634.005	6.47
634.336	6.12
634.668	6.54
634.999	5.77
635.33	6.13
635.661	6.32
635.992	6.08
636.323	6.05
636.654	5.99
636.985	6.09
637.316	5.98
637.647	5.58
637.977	6.51
638.308	6.06
638.639	5.89
638.969	5.71
639.3	5.79
639.63	5.6
639.961	5.97
640.291	5.78
640.622	6.38
640.952	5.67
641.282	6.46
641.612	6.35
641.943	5.75
642.273	6.27
642.603	6.48
642.933	6.5
643.263	5.91
643.592	5.8
643.922	5.76
644.252	5.92
644.582	6.28
644.911	6.17
645.241	6.28
645.571	6.14
645.9	6.11
646.23	6.4
646.559	6.43
646.888	6.19
647.218	5.93
647.547	6.32
647.876	5.98
648.205	6.18
648.534	5.62
648.863	5.6
649.192	6.28
649.521	6.41
649.85	5.41
650.179	5.99
650.508	5.89
650.837	5.32
651.165	5.46
651.494	5.94
651.822	5.58
652.151	5.94
652.479	6.61
652.808	6.04
653.136	6.44
653.465	5.31
653.793	6
654.121	5.84
654.449	6.3
654.777	6.37
655.105	6.39
655.433	6.02
655.761	6.08
656.089	6.52
656.417	6.27
656.745	6
657.073	6.13
657.4	6.45
657.728	6.5
658.056	5.75
658.383	5.73
658.711	6.5
659.038	6.63
659.365	6.2
659.693	6.03
660.02	5.76
660.347	6.29
660.674	6.53
661.001	6.58
661.329	5.67
661.656	6.14
661.982	6.4
662.309	6.32
662.636	5.97
662.963	6.55
663.29	6.63
663.616	6.52
663.943	5.74
664.27	5.91
664.596	6.86
664.923	6.6
665.249	5.97
665.576	6.18
665.902	6.5
666.228	6.54
666.554	6.49
666.881	6.62
667.207	6.27
667.533	6.42
667.859	6.65
668.185	6.67
668.511	6.2
668.837	5.41
669.162	6.56
669.488	5.64
669.814	6.56
670.139	7.08
670.465	6.55
670.791	6.88
671.116	6.64
671.442	6.06
671.767	6.4
672.092	6.42
672.418	6.25
672.743	7.32
673.068	6.37
673.393	6.31
673.718	6.62
674.043	6.54
674.368	6.53
674.693	7.28
675.018	6.31
675.343	6.16
675.667	6.23
675.992	6.56
676.317	6.15
676.641	6.91
676.966	6.79
677.29	5.83
677.615	6.86
677.939	7.13
678.264	7.13
678.588	6.14
678.912	6.9
679.236	6.58
679.56	6.13
679.885	7.04
680.209	6.79
680.532	6.35
680.856	7.31
681.18	6.5
681.504	6.69
681.828	6.97
682.152	6.67
682.475	6.98
682.799	6.8
683.122	7.18
683.446	6.45
683.769	6.82
684.093	6.45
684.416	7.36
684.739	6.68
685.062	6.4
685.386	6.99
685.709	6.6
686.032	6.72
686.355	7.29
686.678	6.61
687.001	6.5
687.324	7.21
687.646	6.6
687.969	6.01
688.292	6.15
688.614	6.76
688.937	6.93
689.26	6.69
689.582	6.63
689.904	6.73
690.227	6.77
690.549	6.84
690.871	7.19
691.194	5.99
691.516	6.64
691.838	7.1
692.16	7.31
692.482	5.97
692.804	6.7
