Data from 0388_forehead_Reflection__1__87.txt Node

Date: Fri Dec 15 16:59:20 CST 2023
User: ToomeyLab
Spectrometer: FLMS14357
Trigger mode: 0
Integration Time (sec): 1.000000E-2
Scans to average: 100
Electric dark correction enabled: true
Nonlinearity correction enabled: false
Boxcar width: 0
XAxis mode: Wavelengths
Number of Pixels in Spectrum: 2048
>>>>>Begin Spectral Data<<<<<
189.047	-25.25
189.435	-25.25
189.823	-25.25
190.211	149.93
190.599	-189.25
190.987	53.61
191.375	-97.95
191.763	11.97
192.151	589262349262900
192.538	180.17
192.926	32.2
193.314	167.55
193.702	44.47
194.089	-216.07
194.477	69.6
194.864	1102.21
195.252	86.53
195.639	75.25
196.027	-145.33
196.414	67.28
196.801	130.31
197.189	82.35
197.576	-173.36
197.963	19.67
198.351	4.77
198.738	48.55
199.125	16.58
199.512	41.89
199.899	29.71
200.286	25.41
200.673	25.85
201.06	23.08
201.447	36.27
201.833	32.37
202.22	71.08
202.607	47.67
202.994	28.62
203.38	42.87
203.767	23.9
204.154	31.66
204.54	31.62
204.927	23.37
205.313	-35.43
205.699	42.59
206.086	37.24
206.472	19.17
206.858	53.79
207.245	58.52
207.631	16.39
208.017	20.72
208.403	16.18
208.789	38.46
209.175	40.76
209.561	1.46
209.947	6.49
210.333	-6.55
210.719	36.96
211.105	20.38
211.491	16.7
211.876	40.27
212.262	24.15
212.648	30.03
213.034	25.33
213.419	27.92
213.805	13.55
214.19	6.7
214.576	39.69
214.961	27.89
215.346	-9.63
215.732	16.04
216.117	24.75
216.502	23.48
216.888	16.9
217.273	32.34
217.658	4.4
218.043	24.18
218.428	-9.23
218.813	-2.98
219.198	-1.42
219.583	34.89
219.968	7.6
220.353	-13.11
220.738	26.85
221.122	-1.39
221.507	-1.67
221.892	-6.63
222.276	-22.87
222.661	3.26
223.046	13.72
223.43	12.46
223.815	25.42
224.199	-8.76
224.583	6.22
224.968	4.51
225.352	13.56
225.736	1.86
226.121	-9.98
226.505	12.52
226.889	13.92
227.273	3.03
227.657	3.36
228.041	0.17
228.425	2.32
228.809	6.17
229.193	6.81
229.577	2.45
229.961	2.19
230.344	2.89
230.728	2.09
231.112	2.86
231.495	2.29
231.879	2.63
232.263	1.96
232.646	3.65
233.03	3.4
233.413	1.7
233.797	4.17
234.18	4.25
234.563	4.03
234.946	4.33
235.33	2.92
235.713	3.32
236.096	2.07
236.479	3.17
236.862	2.61
237.245	6.35
237.628	3.15
238.011	3.84
238.394	6.16
238.777	5.22
239.16	2.53
239.543	0.77
239.925	4.37
240.308	4.66
240.691	3.9
241.073	5.57
241.456	3.86
241.838	2.97
242.221	3.43
242.603	3.46
242.986	2.74
243.368	2.28
243.75	3.16
244.133	2.97
244.515	2.89
244.897	2.8
245.279	2.79
245.661	1.91
246.043	1.84
246.425	0.51
246.807	3.65
247.189	1.94
247.571	3.44
247.953	2.78
248.335	2.59
248.717	2.5
249.098	2.56
249.48	2.48
249.862	2.78
250.243	2.68
250.625	2.68
251.006	2.88
251.388	1.84
251.769	2.87
252.151	4.56
252.532	3.08
252.913	2.85
253.295	2.28
253.676	2.54
254.057	2.64
254.438	2.63
254.819	2.7
255.2	1.54
255.581	4.12
255.962	4.25
256.343	3.44
256.724	2.07
257.105	3.93
257.486	2.26
257.867	3.43
258.247	3.6
258.628	2.16
259.009	3.43
259.389	3.16
259.77	3.01
260.15	1.7
260.531	1.85
260.911	3.33
261.292	2.65
261.672	2.68
262.052	2.73
262.432	2.91
262.813	2.64
263.193	2.67
263.573	2.59
263.953	2.62
264.333	3.43
264.713	3.35
265.093	3.08
265.473	3.02
265.853	2.01
266.233	3.31
266.612	1.57
266.992	2.22
267.372	2.95
267.752	2
268.131	2.99
268.511	3.32
268.89	3.2
269.27	2.63
269.649	2.52
270.029	3.1
270.408	2.84
270.787	3
271.167	3.38
271.546	3.14
271.925	2.52
272.304	2.88
272.683	2.71
273.062	2.55
273.441	2.54
273.82	1.96
274.199	2.92
274.578	2.63
274.957	2.31
275.336	2.92
275.715	2.42
276.093	2.61
276.472	3.15
276.851	2.54
277.229	2.42
277.608	2.16
277.986	2.82
278.365	3.23
278.743	2.35
279.122	2.76
279.5	3.11
279.878	3.1
280.257	2.94
280.635	1.94
281.013	2.32
281.391	3.43
281.769	2.61
282.147	2.82
282.525	3.36
282.903	2.42
283.281	3.24
283.659	2.99
284.037	2.81
284.415	2.66
284.792	2.76
285.17	2.26
285.548	2.33
285.925	2.95
286.303	2.9
286.68	2.74
287.058	2.41
287.435	2.36
287.813	2.54
288.19	2.57
288.567	2.78
288.945	3.5
289.322	3.04
289.699	2.6
290.076	2.95
290.453	2.68
290.83	2.64
291.207	2.63
291.584	3.14
291.961	2.95
292.338	2.92
292.715	3.33
293.092	3.17
293.469	3
293.845	3.57
294.222	2.92
294.599	3.3
294.975	2.73
295.352	3.11
295.728	2.51
296.105	3.09
296.481	3.54
296.858	3.07
297.234	2.96
297.61	3.05
297.986	3.38
298.363	3.38
298.739	3.24
299.115	3.15
299.491	3.19
299.867	3.31
300.243	3.45
300.619	3.19
300.995	3.02
301.371	3.63
301.746	2.86
302.122	4.01
302.498	3.28
302.874	3.16
303.249	3.71
303.625	3.31
304	3.73
304.376	3.54
304.751	3.16
305.127	4.15
305.502	3.19
305.878	2.89
306.253	3.54
306.628	4.14
307.003	3.53
307.378	4.52
307.754	3.56
308.129	3.69
308.504	4.08
308.879	4.07
309.254	4.55
309.629	4.76
310.003	3.54
310.378	4.3
310.753	4.7
311.128	4.42
311.502	4.07
311.877	4.27
312.252	4.02
312.626	4.23
313.001	3.95
313.375	4.58
313.75	3.58
314.124	4.04
314.498	4.02
314.873	3.89
315.247	3.56
315.621	4.47
315.995	3.89
316.369	4.56
316.743	4.58
317.117	4.74
317.491	4.39
317.865	5
318.239	4.27
318.613	5.21
318.987	4.95
319.361	4.38
319.734	5.42
320.108	5.01
320.482	4.61
320.855	5.45
321.229	5.17
321.602	5.04
321.976	4.91
322.349	5.36
322.723	4.38
323.096	5.36
323.469	4.58
323.843	4.87
324.216	5.48
324.589	4.7
324.962	4.98
325.335	4.96
325.708	5.19
326.081	5.33
326.454	5.14
326.827	5.08
327.2	5.33
327.573	5.33
327.945	5.15
328.318	5
328.691	4.97
329.063	5.27
329.436	5.3
329.809	5.56
330.181	5.1
330.553	5.49
330.926	6.23
331.298	5.98
331.671	5.74
332.043	6.17
332.415	6.37
332.787	6.05
333.159	6.47
333.532	6.21
333.904	5.95
334.276	6.2
334.648	5.72
335.02	6.2
335.391	6.4
335.763	5.7
336.135	6.03
336.507	6.54
336.879	5.78
337.25	5.7
337.622	5.89
337.993	6.11
338.365	6.61
338.736	5.67
339.108	6.16
339.479	6.17
339.851	6.63
340.222	6.26
340.593	6.45
340.964	6.28
341.336	7.06
341.707	6.21
342.078	6.37
342.449	6.76
342.82	6.11
343.191	6.63
343.562	6.76
343.933	7.18
344.303	6.33
344.674	6.27
345.045	6.83
345.416	6.62
345.786	6.63
346.157	6.87
346.527	6.1
346.898	6.54
347.268	7.08
347.639	6.66
348.009	6.85
348.38	6.49
348.75	6.78
349.12	7.08
349.49	7.35
349.861	7.3
350.231	7.24
350.601	7.33
350.971	7.24
351.341	6.93
351.711	7.51
352.081	7.46
352.45	6.95
352.82	7.31
353.19	7.4
353.56	7.16
353.929	7.32
354.299	7.2
354.669	6.86
355.038	7.44
355.408	7.44
355.777	7.63
356.147	7.25
356.516	7.8
356.885	7.7
357.254	7.57
357.624	7.97
357.993	7.72
358.362	7.56
358.731	7.48
359.1	7.37
359.469	8.04
359.838	7.85
360.207	7.65
360.576	8.09
360.945	7.99
361.314	8.34
361.682	7.8
362.051	7.49
362.42	7.82
362.788	7.85
363.157	8.01
363.525	8.29
363.894	8.11
364.262	8.15
364.631	8.22
364.999	8.28
365.367	8.12
365.735	8.7
366.104	8.11
366.472	8.4
366.84	8.19
367.208	8.17
367.576	9
367.944	9.03
368.312	8.51
368.68	8.31
369.048	8.53
369.416	8.88
369.783	8.62
370.151	8.88
370.519	9.2
370.886	9.28
371.254	8.82
371.621	8.91
371.989	9.28
372.356	8.69
372.724	8.84
373.091	8.94
373.458	8.99
373.826	8.65
374.193	8.92
374.56	9.19
374.927	9.44
375.294	9.36
375.661	8.85
376.028	9.46
376.395	9.22
376.762	9.54
377.129	9.34
377.496	9.78
377.863	9.7
378.229	9.32
378.596	9.42
378.963	9.41
379.329	9.44
379.696	9.51
380.062	9.59
380.429	9.73
380.795	9.61
381.161	9.94
381.528	10.09
381.894	9.55
382.26	9.92
382.626	10
382.993	9.68
383.359	10.19
383.725	9.97
384.091	9.97
384.457	10.52
384.823	9.88
385.188	10.26
385.554	10.03
385.92	10.41
386.286	10.49
386.651	10.27
387.017	10.55
387.383	10.28
387.748	10.05
388.114	10.41
388.479	10
388.845	10.56
389.21	10.56
389.575	10.24
389.94	10.63
390.306	10.6
390.671	10.93
391.036	10.29
391.401	10.3
391.766	10.53
392.131	10.86
392.496	10.96
392.861	10.7
393.226	10.74
393.591	10.97
393.956	10.69
394.32	11
394.685	10.76
395.05	10.73
395.414	11.01
395.779	10.75
396.143	10.9
396.508	11.08
396.872	11.27
397.236	11.05
397.601	11.23
397.965	11.25
398.329	11.36
398.694	11.35
399.058	11.25
399.422	10.94
399.786	11.63
400.15	11.41
400.514	11.53
400.878	11.59
401.242	11.67
401.605	11.76
401.969	11.81
402.333	11.51
402.697	11.68
403.06	11.83
403.424	11.73
403.787	11.6
404.151	11.93
404.514	11.77
404.878	11.83
405.241	11.96
405.604	11.88
405.968	12.1
406.331	11.76
406.694	11.92
407.057	11.98
407.42	12.13
407.783	11.61
408.146	12.08
408.509	12.15
408.872	12
409.235	12.37
409.598	12.43
409.961	12.28
410.323	12.35
410.686	12.4
411.049	12.45
411.411	12.24
411.774	12.46
412.136	12.57
412.499	12.56
412.861	12.42
413.223	12.37
413.586	12.57
413.948	12.68
414.31	12.78
414.672	12.47
415.035	12.56
415.397	12.92
415.759	12.67
416.121	12.9
416.483	12.67
416.845	12.56
417.206	12.9
417.568	13
417.93	12.54
418.292	12.92
418.653	12.82
419.015	12.79
419.377	12.91
419.738	12.86
420.1	12.76
420.461	12.89
420.822	12.73
421.184	12.79
421.545	12.87
421.906	12.99
422.267	12.94
422.629	12.74
422.99	12.86
423.351	13.04
423.712	12.94
424.073	13.18
424.434	13.06
424.795	13.11
425.155	13.18
425.516	13.04
425.877	13.09
426.238	13.22
426.598	13.23
426.959	13.38
427.32	13.25
427.68	13.32
428.041	13.45
428.401	13.81
428.761	13.59
429.122	13.77
429.482	13.63
429.842	13.84
430.202	13.92
430.563	13.87
430.923	13.89
431.283	13.98
431.643	13.76
432.003	13.86
432.363	14.18
432.722	13.92
433.082	14.11
433.442	13.95
433.802	14.14
434.161	14.09
434.521	14.33
434.881	14.09
435.24	14.03
435.6	14.23
435.959	14.07
436.319	14.18
436.678	14.24
437.037	14.24
437.396	14.38
437.756	14.44
438.115	14.65
438.474	14.69
438.833	14.43
439.192	14.5
439.551	14.72
439.91	14.51
440.269	14.56
440.628	14.39
440.987	14.57
441.345	14.34
441.704	14.6
442.063	14.62
442.421	14.53
442.78	14.59
443.138	14.61
443.497	14.66
443.855	14.86
444.214	14.78
444.572	15.02
444.93	15.15
445.288	15.07
445.647	15.25
446.005	14.94
446.363	14.97
446.721	14.94
447.079	14.8
447.437	14.94
447.795	14.92
448.153	14.85
448.51	14.88
448.868	14.98
449.226	15.15
449.584	15.15
449.941	15.33
450.299	15.22
450.656	15.36
451.014	15.53
451.371	15.52
451.729	15.39
452.086	15.61
452.443	15.64
452.801	15.64
453.158	15.63
453.515	15.61
453.872	15.82
454.229	15.69
454.586	15.73
454.943	15.84
455.3	16
455.657	15.82
456.014	15.95
456.371	15.93
456.727	16.02
457.084	16.11
457.441	16.12
457.797	15.92
458.154	16.16
458.51	16.11
458.867	16.14
459.223	16.38
459.58	16.33
459.936	16.33
460.292	16.15
460.648	16.18
461.005	16.13
461.361	16.13
461.717	16.01
462.073	16.11
462.429	16.16
462.785	16.27
463.141	16.42
463.496	16.33
463.852	16.71
464.208	16.54
464.564	16.77
464.919	16.69
465.275	16.79
465.631	16.88
465.986	16.7
466.342	16.76
466.697	16.68
467.052	17
467.408	17.24
467.763	16.81
468.118	17.01
468.473	16.85
468.829	16.91
469.184	16.9
469.539	17.06
469.894	17.11
470.249	17.28
470.603	17.21
470.958	17.28
471.313	16.99
471.668	17.37
472.023	17.41
472.377	17.18
472.732	17.37
473.086	17.22
473.441	17.33
473.795	17.57
474.15	17.43
474.504	17.51
474.859	17.84
475.213	17.51
475.567	17.53
475.921	17.46
476.275	17.89
476.63	17.65
476.984	18.02
477.338	18.09
477.692	17.76
478.045	17.68
478.399	17.67
478.753	17.76
479.107	17.88
479.461	17.85
479.814	17.75
480.168	18
480.521	17.71
480.875	17.86
481.228	17.79
481.582	17.98
481.935	17.92
482.289	18.24
482.642	17.99
482.995	17.91
483.348	17.89
483.701	18.04
484.055	17.98
484.408	17.78
484.761	17.61
485.114	17.34
485.466	17.08
485.819	16.98
486.172	17.16
486.525	17.37
486.878	17.51
487.23	17.65
487.583	17.89
487.936	17.92
488.288	17.96
488.641	17.82
488.993	17.62
489.345	17.55
489.698	17.6
490.05	17.57
490.402	17.83
490.754	17.98
491.107	18.18
491.459	18.31
491.811	18.34
492.163	18.55
492.515	18.46
492.866	18.32
493.218	18.07
493.57	17.9
493.922	18.12
494.274	18.35
494.625	18.51
494.977	18.71
495.328	18.94
495.68	19.1
496.031	19.23
496.383	19.01
496.734	19.33
497.086	19.3
497.437	19.43
497.788	19.36
498.139	19.18
498.49	19.19
498.842	18.97
499.193	19.15
499.544	19.25
499.894	19.37
500.245	19.34
500.596	19.37
500.947	19.5
501.298	19.49
501.648	19.57
501.999	19.79
502.35	19.6
502.7	19.75
503.051	19.64
503.401	19.85
503.752	20.02
504.102	19.69
504.452	20.01
504.803	19.95
505.153	19.97
505.503	20.01
505.853	20.03
506.203	19.98
506.553	19.99
506.903	19.85
507.253	20
507.603	20.11
507.953	20.03
508.303	20.36
508.652	20.24
509.002	20.22
509.352	20.31
509.701	20.38
510.051	20.23
510.4	20.23
510.75	20.29
511.099	20.29
511.449	20.34
511.798	20.25
512.147	20.34
512.496	20.26
512.846	20.38
513.195	20.48
513.544	20.45
513.893	20.42
514.242	20.35
514.591	20.58
514.939	20.49
515.288	20.62
515.637	20.71
515.986	20.68
516.334	20.7
516.683	20.92
517.032	20.86
517.38	20.88
517.729	20.86
518.077	20.94
518.426	20.76
518.774	20.95
519.122	20.87
519.47	20.69
519.819	20.67
520.167	20.71
520.515	20.67
520.863	20.74
521.211	20.75
521.559	20.89
521.907	20.79
522.255	21.02
522.602	21.08
522.95	21.29
523.298	21.19
523.645	21.41
523.993	21.43
524.341	21.48
524.688	21.48
525.036	21.51
525.383	21.57
525.73	21.63
526.078	21.37
526.425	21.52
526.772	21.42
527.119	21.17
527.466	21.07
527.814	21.04
528.161	21.1
528.508	21.24
528.854	21.32
529.201	21.2
529.548	21.09
529.895	20.96
530.242	20.67
530.588	20.6
530.935	20.76
531.282	20.81
531.628	20.94
531.975	21.16
532.321	21.3
532.667	21.64
533.014	21.64
533.36	21.76
533.706	21.71
534.052	21.65
534.399	21.6
534.745	21.54
535.091	21.31
535.437	21.3
535.783	21.56
536.129	21.64
536.474	21.78
536.82	21.94
537.166	22.17
537.512	22.11
537.857	22.13
538.203	21.93
538.549	21.96
538.894	22
539.239	22.08
539.585	22.21
539.93	22.51
540.276	22.42
540.621	22.52
540.966	22.67
541.311	22.65
541.656	22.73
542.001	22.67
542.346	22.57
542.691	22.24
543.036	21.89
543.381	21.84
543.726	21.96
544.071	22.09
544.415	22.29
544.76	22.37
545.105	22.45
545.449	22.49
545.794	22.75
546.138	22.7
546.483	22.84
546.827	23.04
547.171	22.97
547.516	23.05
547.86	22.94
548.204	22.95
548.548	23.02
548.892	23.05
549.236	22.98
549.58	23.25
549.924	23.12
550.268	23.32
550.612	23.48
550.956	23.88
551.3	23.53
551.643	23.82
551.987	24.11
552.33	23.9
552.674	23.76
553.017	23.94
553.361	23.76
553.704	24.09
554.048	23.86
554.391	23.92
554.734	23.66
555.077	24
555.42	23.89
555.764	23.9
556.107	23.8
556.45	23.98
556.793	24.2
557.135	24.25
557.478	24.47
557.821	24.43
558.164	24.39
558.507	24.17
558.849	24.37
559.192	24.54
559.534	24.45
559.877	24.64
560.219	24.55
560.562	24.72
560.904	24.55
561.246	24.52
561.589	24.54
561.931	24.81
562.273	24.62
562.615	24.74
562.957	24.67
563.299	24.6
563.641	24.57
563.983	24.68
564.325	24.87
564.667	24.93
565.008	24.72
565.35	24.86
565.692	25.14
566.033	24.88
566.375	25.23
566.716	25.02
567.058	24.87
567.399	25.05
567.741	24.88
568.082	24.72
568.423	25.05
568.764	24.9
569.105	25.05
569.447	25.17
569.788	25.11
570.129	25.22
570.47	25.19
570.811	25.42
571.151	25.25
571.492	25.26
571.833	25.38
572.174	25.3
572.514	25.44
572.855	25.57
573.195	25.34
573.536	25.3
573.876	25.21
574.217	25.14
574.557	25.3
574.898	25.6
575.238	25.41
575.578	25.45
575.918	25.66
576.258	25.77
576.598	25.65
576.938	25.49
577.278	25.65
577.618	25.41
577.958	25.6
578.298	25.66
578.638	25.76
578.977	25.72
579.317	25.86
579.657	25.99
579.996	26.07
580.336	25.95
580.675	26.22
581.014	26
581.354	25.77
581.693	26.49
582.032	26.08
582.372	26.26
582.711	26.46
583.05	26.07
583.389	26.32
583.728	26.17
584.067	26.58
584.406	26.55
584.745	26.22
585.083	26.37
585.422	26.61
585.761	26.33
586.1	26.65
586.438	26.88
586.777	26.72
587.115	26.87
587.454	26.77
587.792	26.75
588.13	27.18
588.469	26.74
588.807	26.87
589.145	26.51
589.483	26.77
589.821	26.89
590.159	27.04
590.497	27.26
590.835	27.06
591.173	26.62
591.511	27.2
591.849	26.89
592.187	26.74
592.524	27.21
592.862	26.91
593.2	27.27
593.537	27.3
593.875	26.94
594.212	27.14
594.55	27.25
594.887	27.34
595.224	27.15
595.561	27
595.899	27.44
596.236	27.25
596.573	27.13
596.91	27.01
597.247	27.26
597.584	27.38
597.921	27.45
598.258	27.33
598.594	27.14
598.931	27.23
599.268	27.18
599.604	27.15
599.941	27.17
600.277	27.59
600.614	27.49
600.95	27.4
601.287	27.63
601.623	27.73
601.959	27.69
602.296	27.65
602.632	27.84
602.968	27.77
603.304	27.99
603.64	27.67
603.976	27.85
604.312	27.83
604.648	27.53
604.984	27.84
605.319	27.92
605.655	27.52
605.991	27.65
606.326	27.79
606.662	27.47
606.998	27.61
607.333	27.86
607.668	27.8
608.004	27.99
608.339	28.27
608.674	28.12
609.01	28.01
609.345	27.75
609.68	28.51
610.015	28.32
610.35	27.98
610.685	28.02
611.02	28.03
611.355	28.17
611.689	27.87
612.024	28.13
612.359	27.75
612.694	28.44
613.028	28.35
613.363	28.56
613.697	28.54
614.032	28.71
614.366	28.44
614.7	28.58
615.035	28.53
615.369	28.85
615.703	28.6
616.037	28.64
616.371	28.34
616.705	28.69
617.039	28.76
617.373	28.71
617.707	28.57
618.041	28.94
618.375	29.06
618.709	28.97
619.042	28.7
619.376	28.97
619.71	29.18
620.043	29.08
620.377	29.11
620.71	29.17
621.043	29.14
621.377	29.62
621.71	29.13
622.043	28.9
622.376	28.77
622.709	28.89
623.043	29.53
623.376	29.34
623.709	29.24
624.041	29.3
624.374	29.28
624.707	29.25
625.04	29.53
625.373	29.32
625.705	29.05
626.038	29.48
626.37	29.03
626.703	28.8
627.035	29.23
627.368	29.88
627.7	29.41
628.032	29.33
628.365	29.65
628.697	29.42
629.029	29.2
629.361	29.27
629.693	29.28
630.025	29.46
630.357	29.68
630.689	29.59
631.021	30.1
631.353	29.87
631.684	30.03
632.016	29.47
632.348	29.8
632.679	29.71
633.011	30.25
633.342	30.31
633.674	29.76
634.005	30.45
634.336	29.76
634.668	30.08
634.999	29.96
635.33	30.15
635.661	29.95
635.992	29.86
636.323	30.02
636.654	29.97
636.985	29.68
637.316	30.12
637.647	29.78
637.977	30.38
638.308	30.36
638.639	30.06
638.969	30.78
639.3	29.83
639.63	29.76
639.961	30.66
640.291	30.34
640.622	30.08
640.952	30.89
641.282	30.55
641.612	30.18
641.943	30.36
642.273	30.48
642.603	30.88
642.933	30.83
643.263	30.14
643.592	30.63
643.922	30.12
644.252	30.4
644.582	30.54
644.911	30.15
645.241	30.89
645.571	30.99
645.9	30.51
646.23	30.92
646.559	31.64
646.888	31.05
647.218	30.53
647.547	30.93
647.876	30.95
648.205	30.67
648.534	30.61
648.863	30.48
649.192	31.06
649.521	31
649.85	30.77
650.179	30.7
650.508	30.44
650.837	30.17
651.165	31.21
651.494	30.67
651.822	31.34
652.151	30.83
652.479	31.2
652.808	31
653.136	31.31
653.465	30.49
653.793	30.91
654.121	31
654.449	31.35
654.777	31.21
655.105	31.28
655.433	30.73
655.761	30.91
656.089	31.86
656.417	31.25
656.745	30.43
657.073	31.35
657.4	31.76
657.728	30.94
658.056	31.15
658.383	31.53
658.711	31.83
659.038	31.93
659.365	31.75
659.693	31.4
660.02	31.05
660.347	31.34
660.674	31.54
661.001	31.84
661.329	31.06
661.656	31.33
661.982	31.68
662.309	31.33
662.636	31.29
662.963	32.26
663.29	31.42
663.616	31.85
663.943	31.27
664.27	31.64
664.596	32.01
664.923	32.04
665.249	31.63
665.576	31.45
665.902	31.69
666.228	32.16
666.554	31.84
666.881	32.22
667.207	31.71
667.533	31.72
667.859	31.74
668.185	32.16
668.511	32.03
668.837	32.01
669.162	32.68
669.488	31.47
669.814	32.64
670.139	32.22
670.465	32.9
670.791	32.18
671.116	32.79
671.442	32.4
671.767	32.19
672.092	32.55
672.418	32.74
672.743	32.22
673.068	32.07
