Data from 815643_chest_Reflection__8__12.txt Node

Date: Fri Sep 16 14:13:15 CDT 2022
User: ToomeyLab
Spectrometer: FLMS14357
Trigger mode: 0
Integration Time (sec): 1.000000E-2
Scans to average: 100
Electric dark correction enabled: true
Nonlinearity correction enabled: false
Boxcar width: 0
XAxis mode: Wavelengths
Number of Pixels in Spectrum: 2048
>>>>>Begin Spectral Data<<<<<
189.047	188.95
189.435	188.95
189.823	188.95
190.211	-9.13
190.599	-5.05
190.987	255.21
191.375	58.05
191.763	-397.15
192.151	732.58
192.538	1131.06
192.926	160.58
193.314	-19.17
193.702	-340.84
194.089	63.8
194.477	119.64
194.864	-38.59
195.252	-133.5
195.639	503.52
196.027	-701.78
196.414	31.28
196.801	-59.08
197.189	87.01
197.576	-96.4
197.963	-29.27
198.351	-11.71
198.738	5.44
199.125	-39.85
199.512	2.6
199.899	-6.54
200.286	16.68
200.673	-20.88
201.06	-17.13
201.447	11.49
201.833	21.89
202.22	-79.87
202.607	19.26
202.994	16.34
203.38	-52.94
203.767	1.5
204.154	-6.73
204.54	13.11
204.927	2.59
205.313	-37.21
205.699	-20.59
206.086	-1.77
206.472	-0.91
206.858	4.83
207.245	9
207.631	20.43
208.017	-4.24
208.403	26.53
208.789	13.93
209.175	-5.98
209.561	-4.54
209.947	-26.64
210.333	-17.31
210.719	-8.72
211.105	20.02
211.491	13.4
211.876	-41.66
212.262	-21.71
212.648	-8.34
213.034	12.88
213.419	5.47
213.805	9.13
214.19	-22.54
214.576	2.67
214.961	21.99
215.346	1.61
215.732	8.53
216.117	14.11
216.502	-5.78
216.888	-10.74
217.273	0.89
217.658	-3.43
218.043	18.41
218.428	7.14
218.813	10.13
219.198	-16.65
219.583	20.55
219.968	-20.67
220.353	-6.15
220.738	-8.87
221.122	8.43
221.507	3.23
221.892	5.02
222.276	4.29
222.661	10.14
223.046	6.07
223.43	1.27
223.815	2.61
224.199	7
224.583	-1.98
224.968	3.8
225.352	-0.59
225.736	3.83
226.121	1.52
226.505	3.12
226.889	10.57
227.273	9.62
227.657	6.44
228.041	1.18
228.425	5.93
228.809	5.02
229.193	3.77
229.577	6.33
229.961	5.33
230.344	4.97
230.728	4.61
231.112	4.14
231.495	4.7
231.879	5.06
232.263	2.49
232.646	3.85
233.03	5.02
233.413	5.07
233.797	6.95
234.18	4.19
234.563	3.56
234.946	5.91
235.33	3.17
235.713	3.84
236.096	3.26
236.479	4.99
236.862	4.25
237.245	4.65
237.628	4.12
238.011	5.55
238.394	5.95
238.777	4.12
239.16	3.1
239.543	4.29
239.925	4.32
240.308	7.23
240.691	4.67
241.073	5.26
241.456	5.13
241.838	4.32
242.221	3.81
242.603	5.29
242.986	4.22
243.368	4.92
243.75	4.94
244.133	4.73
244.515	4.4
244.897	4.95
245.279	4.77
245.661	4.56
246.043	4.63
246.425	5.25
246.807	4.59
247.189	4.8
247.571	4.42
247.953	5.07
248.335	5.01
248.717	4.58
249.098	4.68
249.48	5.07
249.862	4.71
250.243	5.01
250.625	4.47
251.006	5.2
251.388	4.46
251.769	5.26
252.151	4.23
252.532	4.07
252.913	4.34
253.295	4.84
253.676	4.94
254.057	4.24
254.438	4.22
254.819	5.47
255.2	4.24
255.581	4.38
255.962	4.6
256.343	4.4
256.724	4.12
257.105	4.31
257.486	4.24
257.867	3.95
258.247	4.22
258.628	4.93
259.009	4.69
259.389	4.82
259.77	4.09
260.15	4.78
260.531	4.53
260.911	4.07
261.292	4.64
261.672	4.4
262.052	4.48
262.432	4.05
262.813	4.64
263.193	4.45
263.573	4.36
263.953	4.51
264.333	4.53
264.713	4.69
265.093	3.91
265.473	3.88
265.853	4.03
266.233	4.05
266.612	5.73
266.992	4.11
267.372	4.79
267.752	4.15
268.131	4.25
268.511	4.26
268.89	4.18
269.27	4.31
269.649	4.28
270.029	4.37
270.408	4.27
270.787	4.45
271.167	3.82
271.546	4.56
271.925	4.2
272.304	4.22
272.683	4.23
273.062	4.04
273.441	4.16
273.82	4.02
274.199	4.35
274.578	4.62
274.957	3.98
275.336	4.74
275.715	3.69
276.093	4.3
276.472	4.44
276.851	4.82
277.229	3.96
277.608	3.77
277.986	3.88
278.365	4.07
278.743	4.46
279.122	4.17
279.5	3.41
279.878	4.35
280.257	4.38
280.635	4.17
281.013	4.48
281.391	4.47
281.769	4.05
282.147	3.8
282.525	4.3
282.903	4.33
283.281	4.37
283.659	4.06
284.037	4.38
284.415	4.06
284.792	4.47
285.17	4.48
285.548	4.63
285.925	4.42
286.303	4.02
286.68	4.05
287.058	4.36
287.435	4.15
287.813	4.17
288.19	4.11
288.567	4.33
288.945	4.55
289.322	4.17
289.699	3.94
290.076	4
290.453	4.55
290.83	4.46
291.207	4.28
291.584	3.63
291.961	4.04
292.338	3.84
292.715	3.84
293.092	4.02
293.469	4.01
293.845	3.96
294.222	3.86
294.599	4.69
294.975	3.85
295.352	3.9
295.728	4.19
296.105	3.83
296.481	4.04
296.858	4.47
297.234	4.11
297.61	3.89
297.986	3.57
298.363	4.32
298.739	4.06
299.115	4.43
299.491	4.3
299.867	3.98
300.243	4.08
300.619	4.67
300.995	4.15
301.371	4.14
301.746	3.83
302.122	4.2
302.498	4.21
302.874	3.93
303.249	4.22
303.625	3.98
304	4.14
304.376	4.11
304.751	4.42
305.127	4.54
305.502	3.85
305.878	3.81
306.253	4.04
306.628	4.12
307.003	4.04
307.378	4.47
307.754	3.91
308.129	3.8
308.504	4.36
308.879	3.96
309.254	4.44
309.629	4.39
310.003	4.02
310.378	4.01
310.753	3.99
311.128	3.99
311.502	4.18
311.877	4.11
312.252	3.68
312.626	4.16
313.001	4.03
313.375	4.02
313.75	4.08
314.124	4.35
314.498	4.17
314.873	4.05
315.247	4.25
315.621	4.76
315.995	3.7
316.369	4.31
316.743	4.65
317.117	3.81
317.491	4.03
317.865	4.33
318.239	4.26
318.613	4.03
318.987	4.19
319.361	4.41
319.734	4.11
320.108	3.68
320.482	4.18
320.855	4.01
321.229	4.72
321.602	4.35
321.976	4.42
322.349	4.27
322.723	3.86
323.096	4.08
323.469	3.85
323.843	4.12
324.216	4.35
324.589	3.86
324.962	4.06
325.335	3.94
325.708	4.01
326.081	4.12
326.454	3.57
326.827	4.2
327.2	3.75
327.573	3.99
327.945	4.06
328.318	4.07
328.691	4.17
329.063	4.13
329.436	4.06
329.809	4.48
330.181	4.19
330.553	4.02
330.926	3.77
331.298	4.46
331.671	4.76
332.043	4.33
332.415	4.42
332.787	3.91
333.159	4.33
333.532	4.23
333.904	4.22
334.276	4.43
334.648	4.34
335.02	4.53
335.391	3.7
335.763	4.21
336.135	4.16
336.507	3.71
336.879	4.14
337.25	4.25
337.622	3.91
337.993	3.62
338.365	4.04
338.736	4.31
339.108	4.32
339.479	4.6
339.851	4.83
340.222	4.04
340.593	3.8
340.964	4.16
341.336	4.36
341.707	4.13
342.078	4.18
342.449	4.29
342.82	4.44
343.191	4.35
343.562	4.32
343.933	3.99
344.303	4.19
344.674	3.68
345.045	4.44
345.416	4.54
345.786	4.15
346.157	4.19
346.527	4.05
346.898	3.98
347.268	4.32
347.639	4.09
348.009	4
348.38	4.25
348.75	4.37
349.12	4.13
349.49	4.34
349.861	4.04
350.231	3.75
350.601	4.58
350.971	3.77
351.341	4.31
351.711	4.06
352.081	4.32
352.45	4.13
352.82	4.33
353.19	4.13
353.56	4.26
353.929	3.93
354.299	4.33
354.669	4.15
355.038	3.92
355.408	4.22
355.777	4.12
356.147	4.35
356.516	4.19
356.885	3.96
357.254	3.93
357.624	4.06
357.993	4.54
358.362	3.96
358.731	4.21
359.1	4.33
359.469	4.15
359.838	4.12
360.207	4.21
360.576	4.19
360.945	4.3
361.314	4.11
361.682	4.22
362.051	4.48
362.42	4.19
362.788	4.38
363.157	4.29
363.525	4.02
363.894	4.22
364.262	4.45
364.631	4.16
364.999	4.41
365.367	3.96
365.735	4.33
366.104	4.35
366.472	4.4
366.84	4.28
367.208	4.18
367.576	4.23
367.944	4.34
368.312	4.42
368.68	4.41
369.048	4.18
369.416	4.53
369.783	4.43
370.151	4.44
370.519	4.73
370.886	3.98
371.254	4.39
371.621	4.16
371.989	4.02
372.356	4.42
372.724	4.71
373.091	4.2
373.458	4.61
373.826	4.22
374.193	4.37
374.56	4.3
374.927	4.56
375.294	4.26
375.661	3.97
376.028	4.43
376.395	4.31
376.762	4.35
377.129	3.94
377.496	4.14
377.863	4.32
378.229	4.41
378.596	4.31
378.963	4.27
379.329	4.58
379.696	4.52
380.062	4.42
380.429	4.76
380.795	4.21
381.161	4.44
381.528	4.72
381.894	4.27
382.26	4.45
382.626	4.36
382.993	4.57
383.359	4.23
383.725	4.22
384.091	4.64
384.457	4.34
384.823	4.4
385.188	4.17
385.554	4.31
385.92	4.73
386.286	4.38
386.651	4.6
387.017	4.39
387.383	4.42
387.748	4.5
388.114	4.39
388.479	4.27
388.845	4.69
389.21	4.61
389.575	4.61
389.94	4.32
390.306	4.63
390.671	4.55
391.036	4.59
391.401	4.2
391.766	4.44
392.131	4.41
392.496	4.75
392.861	4.59
393.226	4.29
393.591	4.51
393.956	4.49
394.32	4.41
394.685	4.55
395.05	4.69
395.414	4.45
395.779	4.52
396.143	4.47
396.508	4.58
396.872	4.33
397.236	4.43
397.601	4.67
397.965	4.58
398.329	4.6
398.694	4.53
399.058	4.57
399.422	4.48
399.786	4.59
400.15	4.5
400.514	4.5
400.878	4.68
401.242	4.55
401.605	4.7
401.969	4.73
402.333	4.55
402.697	4.61
403.06	4.43
403.424	4.76
403.787	4.46
404.151	4.74
404.514	4.45
404.878	4.64
405.241	4.54
405.604	4.64
405.968	4.57
406.331	4.71
406.694	4.55
407.057	4.52
407.42	4.77
407.783	4.64
408.146	4.56
408.509	4.75
408.872	4.56
409.235	4.88
409.598	4.63
409.961	4.51
410.323	4.69
410.686	4.76
411.049	4.59
411.411	4.65
411.774	4.75
412.136	4.63
412.499	4.81
412.861	4.66
413.223	4.54
413.586	4.65
413.948	4.6
414.31	4.66
414.672	4.47
415.035	4.6
415.397	4.84
415.759	4.72
416.121	4.63
416.483	4.6
416.845	4.88
417.206	4.66
417.568	4.37
417.93	4.61
418.292	4.66
418.653	4.52
419.015	4.54
419.377	4.64
419.738	4.72
420.1	4.69
420.461	4.58
420.822	4.5
421.184	4.58
421.545	4.69
421.906	4.63
422.267	4.67
422.629	4.51
422.99	4.55
423.351	4.62
423.712	4.51
424.073	4.64
424.434	4.63
424.795	4.55
425.155	4.51
425.516	4.48
425.877	4.57
426.238	4.58
426.598	4.56
426.959	4.5
427.32	4.53
427.68	4.75
428.041	4.67
428.401	4.7
428.761	4.89
429.122	4.86
429.482	4.78
429.842	4.77
430.202	4.74
430.563	4.9
430.923	4.81
431.283	4.79
431.643	4.68
432.003	4.78
432.363	4.87
432.722	4.65
433.082	4.95
433.442	4.84
433.802	4.89
434.161	4.71
434.521	4.69
434.881	4.75
435.24	4.67
435.6	4.69
435.959	4.74
436.319	4.83
436.678	4.72
437.037	4.81
437.396	4.74
437.756	4.75
438.115	4.84
438.474	4.69
438.833	4.82
439.192	4.86
439.551	4.62
439.91	4.65
440.269	4.84
440.628	4.84
440.987	4.78
441.345	4.72
441.704	4.72
442.063	4.79
442.421	4.77
442.78	4.76
443.138	4.8
443.497	4.86
443.855	4.92
444.214	4.86
444.572	4.77
444.93	4.95
445.288	4.81
445.647	4.85
446.005	4.79
446.363	4.84
446.721	4.69
447.079	4.72
447.437	4.71
447.795	4.81
448.153	4.67
448.51	4.67
448.868	4.74
449.226	4.79
449.584	4.76
449.941	4.85
450.299	4.87
450.656	4.87
451.014	4.95
451.371	4.79
451.729	4.82
452.086	4.88
452.443	4.86
452.801	4.92
453.158	4.95
453.515	4.96
453.872	4.97
454.229	4.88
454.586	4.82
454.943	4.95
455.3	4.91
455.657	5.13
456.014	4.9
456.371	4.89
456.727	4.88
457.084	5.01
457.441	4.83
457.797	4.85
458.154	5.02
458.51	4.93
458.867	4.97
459.223	4.82
459.58	4.88
459.936	5.02
460.292	4.89
460.648	4.85
461.005	4.96
461.361	4.81
461.717	4.79
462.073	4.75
462.429	4.9
462.785	4.94
463.141	5.03
463.496	5.01
463.852	5.04
464.208	5.02
464.564	4.94
464.919	5
465.275	4.87
465.631	5.02
465.986	5.01
466.342	4.93
466.697	5.06
467.052	5.04
467.408	4.86
467.763	5.09
468.118	5.02
468.473	5.04
468.829	4.92
469.184	4.94
469.539	5.01
469.894	4.95
470.249	4.87
470.603	5.08
470.958	4.98
471.313	5.1
471.668	5.05
472.023	5.21
472.377	5.05
472.732	5.17
473.086	5.12
473.441	5.12
473.795	4.97
474.15	4.99
474.504	5.17
474.859	5.05
475.213	5
475.567	5.08
475.921	5.19
476.275	5.05
476.63	5.14
476.984	5.03
477.338	5.1
477.692	5.19
478.045	5.09
478.399	5.16
478.753	5.09
479.107	5.08
479.461	5.21
479.814	5.12
480.168	5.15
480.521	5.12
480.875	5.12
481.228	5.11
481.582	5.16
481.935	5.21
482.289	5.09
482.642	4.98
482.995	5.05
483.348	5.05
483.701	5.1
484.055	5.11
484.408	5.07
484.761	4.98
485.114	4.89
485.466	4.78
485.819	4.76
486.172	4.74
486.525	4.82
486.878	4.89
487.23	4.95
487.583	5.02
487.936	5.05
488.288	5
488.641	4.97
488.993	4.86
489.345	4.91
489.698	4.92
490.05	4.91
490.402	5
490.754	4.97
491.107	5.09
491.459	5.14
491.811	5.23
492.163	5.1
492.515	5.09
492.866	4.98
493.218	5
493.57	4.93
493.922	4.9
494.274	5.01
494.625	5.13
494.977	5.13
495.328	5.07
495.68	5.22
496.031	5.2
496.383	5.27
496.734	5.33
497.086	5.33
497.437	5.27
497.788	5.25
498.139	5.2
498.49	5.33
498.842	5.21
499.193	5.27
499.544	5.3
499.894	5.27
500.245	5.29
500.596	5.13
500.947	5.39
501.298	5.25
501.648	5.31
501.999	5.29
502.35	5.36
502.7	5.32
503.051	5.33
503.401	5.35
503.752	5.29
504.102	5.3
504.452	5.39
504.803	5.27
505.153	5.46
505.503	5.42
505.853	5.46
506.203	5.35
506.553	5.32
506.903	5.26
507.253	5.37
507.603	5.32
507.953	5.41
508.303	5.47
508.652	5.44
509.002	5.39
509.352	5.3
509.701	5.38
510.051	5.33
510.4	5.27
510.75	5.39
511.099	5.4
511.449	5.28
511.798	5.4
512.147	5.44
512.496	5.44
512.846	5.45
513.195	5.43
513.544	5.43
513.893	5.48
514.242	5.5
514.591	5.46
514.939	5.54
515.288	5.46
515.637	5.54
515.986	5.48
516.334	5.51
516.683	5.56
517.032	5.53
517.38	5.67
517.729	5.6
518.077	5.67
518.426	5.63
518.774	5.46
519.122	5.57
519.47	5.6
519.819	5.5
520.167	5.44
520.515	5.44
520.863	5.45
521.211	5.49
521.559	5.45
521.907	5.43
522.255	5.7
522.602	5.6
522.95	5.57
523.298	5.62
523.645	5.56
523.993	5.7
524.341	5.72
524.688	5.62
525.036	5.81
525.383	5.63
525.73	5.68
526.078	5.71
526.425	5.63
526.772	5.67
527.119	5.67
527.466	5.57
527.814	5.65
528.161	5.64
528.508	5.65
528.854	5.62
529.201	5.63
529.548	5.54
529.895	5.5
530.242	5.42
530.588	5.39
530.935	5.42
531.282	5.48
531.628	5.53
531.975	5.6
532.321	5.6
532.667	5.69
533.014	5.69
533.36	5.67
533.706	5.83
534.052	5.72
534.399	5.64
534.745	5.61
535.091	5.55
535.437	5.62
535.783	5.68
536.129	5.69
536.474	5.75
536.82	5.88
537.166	5.87
537.512	5.88
537.857	5.8
538.203	5.88
538.549	5.84
538.894	5.81
539.239	5.8
539.585	5.83
539.93	5.91
540.276	5.97
540.621	6.16
540.966	6.01
541.311	6.06
541.656	6.07
542.001	6.03
542.346	5.9
542.691	5.82
543.036	5.75
543.381	5.77
543.726	5.81
544.071	5.82
544.415	5.84
544.76	6.01
545.105	5.89
545.449	5.97
545.794	6.03
546.138	6.22
546.483	6.11
546.827	6.11
547.171	6.16
547.516	6.07
547.86	6.17
548.204	6.09
548.548	6.2
548.892	6.11
549.236	6.14
549.58	6.24
549.924	6.21
550.268	6.27
550.612	6.29
550.956	6.21
551.3	6.42
551.643	6.27
551.987	6.44
552.33	6.43
552.674	6.35
553.017	6.56
553.361	6.35
553.704	6.55
554.048	6.48
554.391	6.36
554.734	6.41
555.077	6.52
555.42	6.61
555.764	6.54
556.107	6.6
556.45	6.59
556.793	6.7
557.135	6.73
557.478	6.56
557.821	6.61
558.164	6.75
558.507	6.69
558.849	6.61
559.192	6.67
559.534	6.42
559.877	6.6
560.219	6.78
560.562	6.78
560.904	6.78
561.246	6.65
561.589	6.71
561.931	6.85
562.273	6.81
562.615	6.77
562.957	6.72
563.299	6.8
563.641	6.91
563.983	6.93
564.325	6.67
564.667	6.8
565.008	6.9
565.35	6.75
565.692	6.97
566.033	6.98
566.375	7.13
566.716	6.97
567.058	7
567.399	7.06
567.741	6.98
568.082	6.95
568.423	6.99
568.764	7.07
569.105	7.14
569.447	7.05
569.788	7.16
570.129	7.25
570.47	7.31
570.811	7.24
571.151	7.33
571.492	7.26
571.833	7.22
572.174	7.09
572.514	7.35
572.855	7.27
573.195	7.2
573.536	7.23
573.876	7.16
574.217	7.3
574.557	7.36
574.898	7.28
575.238	7.33
575.578	7.41
575.918	7.36
576.258	7.4
576.598	7.52
576.938	7.48
577.278	7.59
577.618	7.45
577.958	7.44
578.298	7.6
578.638	7.66
578.977	7.72
579.317	7.44
579.657	7.58
579.996	7.67
580.336	7.63
580.675	7.71
581.014	7.75
581.354	7.73
581.693	7.72
582.032	7.83
582.372	7.64
582.711	7.89
583.05	7.72
583.389	7.83
583.728	8.02
584.067	8.03
584.406	8.06
584.745	7.92
585.083	8.02
585.422	7.87
585.761	7.83
586.1	7.99
586.438	8.3
586.777	8.17
587.115	8.24
587.454	8.05
587.792	8.26
588.13	8.07
588.469	8.13
588.807	8.15
589.145	8.29
589.483	8.36
589.821	8.33
590.159	8.27
590.497	8.36
590.835	8.16
591.173	8.36
591.511	8.45
591.849	8.43
592.187	8.52
592.524	8.43
592.862	8.5
593.2	8.44
593.537	8.75
593.875	8.63
594.212	8.37
594.55	8.58
594.887	8.71
595.224	8.86
595.561	8.58
595.899	8.49
596.236	8.88
596.573	8.65
596.91	8.87
597.247	8.83
597.584	8.69
597.921	8.68
598.258	8.86
598.594	8.81
598.931	8.8
599.268	8.81
599.604	8.77
599.941	8.61
600.277	8.94
600.614	8.94
600.95	9
601.287	8.99
601.623	9.34
601.959	9.02
602.296	9.23
602.632	9.04
602.968	9.06
603.304	9.42
603.64	9.25
603.976	9.06
604.312	9.42
604.648	9.27
604.984	9.13
605.319	9.37
605.655	9.06
605.991	9.24
606.326	9.28
606.662	9.13
606.998	9.45
607.333	9.37
607.668	9.31
608.004	9.56
608.339	9.34
608.674	9.37
609.01	9.54
609.345	9.63
609.68	10.06
610.015	9.81
610.35	9.82
610.685	9.84
611.02	9.67
611.355	9.63
611.689	9.7
612.024	9.76
612.359	9.54
612.694	9.88
613.028	9.95
613.363	10.22
613.697	9.95
614.032	9.96
614.366	9.96
614.7	9.98
615.035	9.86
615.369	10.46
615.703	10.25
616.037	10.17
616.371	10.28
616.705	10.27
617.039	10.14
617.373	10.13
617.707	10.2
618.041	10.09
618.375	10.36
618.709	10.39
619.042	10.35
619.376	10.24
619.71	10.62
620.043	10.77
620.377	10.55
620.71	10.26
621.043	10.5
621.377	10.72
621.71	10.47
622.043	10.69
622.376	10.78
622.709	10.94
623.043	10.76
623.376	10.62
623.709	10.92
624.041	10.67
624.374	10.83
624.707	10.96
625.04	10.91
625.373	10.97
625.705	10.8
626.038	11.01
626.37	10.84
626.703	10.98
627.035	11.24
627.368	11.19
627.7	11.05
628.032	10.91
628.365	11.13
628.697	11.42
629.029	10.86
629.361	11.18
629.693	11.17
630.025	11.12
630.357	11.27
630.689	11.37
631.021	11.44
631.353	11.14
631.684	11.42
632.016	11.25
632.348	11.61
632.679	11.63
633.011	11.4
633.342	11.53
633.674	11.68
634.005	11.72
634.336	11.97
634.668	12.07
634.999	11.46
635.33	11.64
635.661	11.98
635.992	11.76
636.323	11.85
636.654	12.14
636.985	11.67
637.316	11.7
637.647	11.83
637.977	11.86
638.308	11.84
638.639	11.8
638.969	12.22
639.3	12.31
639.63	12.14
639.961	11.64
640.291	12.35
640.622	12.37
640.952	12.43
641.282	12.51
641.612	12.33
641.943	12.3
642.273	12.35
642.603	12.36
642.933	12.35
643.263	12.3
643.592	12.78
643.922	12.5
644.252	12.52
644.582	12.39
644.911	12.84
645.241	12.6
645.571	12.39
645.9	12.73
646.23	12.72
646.559	12.81
646.888	12.63
647.218	13.13
647.547	12.86
647.876	12.94
648.205	13.12
648.534	13.04
648.863	13.09
649.192	12.77
649.521	13.5
649.85	12.99
650.179	13.05
650.508	13.05
650.837	13.13
651.165	13.22
651.494	13.18
651.822	13.37
652.151	13.29
652.479	13.16
652.808	13.1
653.136	13.37
653.465	13.12
653.793	13.48
654.121	13.42
654.449	13.48
654.777	13.33
655.105	13.14
655.433	13.55
655.761	13.4
656.089	13.35
656.417	13.71
656.745	13.24
657.073	13.49
657.4	13.9
657.728	14.08
658.056	13.84
658.383	13.86
658.711	13.45
659.038	13.94
659.365	13.97
659.693	14.15
660.02	13.51
660.347	13.82
660.674	13.76
661.001	14.1
661.329	14.05
661.656	13.86
661.982	14.21
662.309	14.39
662.636	14.06
662.963	14.23
663.29	14.18
663.616	14.24
663.943	14.14
664.27	14.34
664.596	14.13
664.923	14.23
665.249	14.52
665.576	14.29
665.902	15.05
666.228	14.12
666.554	14.39
666.881	14.58
667.207	14.4
667.533	14.71
667.859	14.97
668.185	14.8
668.511	14.63
668.837	14.76
669.162	14.53
669.488	14.65
669.814	14.88
670.139	14.57
670.465	14.85
670.791	14.93
671.116	15.23
671.442	14.91
671.767	14.52
672.092	15.06
672.418	15.08
672.743	15.27
673.068	14.65
673.393	14.87
673.718	14.93
674.043	15.47
674.368	15.4
674.693	15.5
675.018	15.86
675.343	15.4
675.667	15.42
675.992	15.35
676.317	15.11
676.641	15.67
676.966	15.55
677.29	15.59
677.615	15.28
677.939	15.66
678.264	15.49
678.588	15.52
678.912	15.31
679.236	15.7
679.56	15.37
679.885	15.66
680.209	15.84
680.532	16.04
680.856	16.05
681.18	15.73
681.504	16.05
681.828	15.64
682.152	15.63
682.475	15.92
682.799	15.9
683.122	16.1
683.446	15.74
683.769	16.14
684.093	15.97
684.416	16.35
684.739	17.04
685.062	16.81
685.386	16.55
685.709	15.98
686.032	15.55
686.355	16.17
686.678	16.5
687.001	15.92
687.324	16.35
