Data from 815643_forehead_Reflection__2__16.txt Node

Date: Fri Sep 16 14:17:32 CDT 2022
User: ToomeyLab
Spectrometer: FLMS14357
Trigger mode: 0
Integration Time (sec): 1.000000E-2
Scans to average: 100
Electric dark correction enabled: true
Nonlinearity correction enabled: false
Boxcar width: 0
XAxis mode: Wavelengths
Number of Pixels in Spectrum: 2048
>>>>>Begin Spectral Data<<<<<
189.047	56.76
189.435	56.76
189.823	56.76
190.211	-218.66
190.599	116.63
190.987	-29.15
191.375	12.78
191.763	-574.07
192.151	107.42
192.538	313
192.926	156.97
193.314	-90.2
193.702	165.63
194.089	15.64
194.477	168.76
194.864	74.17
195.252	-238.61
195.639	616.67
196.027	256.72
196.414	28.36
196.801	74.27
197.189	93
197.576	-42.51
197.963	-100.7
198.351	12.95
198.738	57.25
199.125	31.32
199.512	15.11
199.899	27.57
200.286	32.19
200.673	-9.38
201.06	10.24
201.447	25.15
201.833	23.48
202.22	-5.3
202.607	31.73
202.994	37.39
203.38	-2.31
203.767	11.6
204.154	62.1
204.54	11.25
204.927	18.47
205.313	57.06
205.699	23.54
206.086	8.2
206.472	-3.2
206.858	36.21
207.245	34.83
207.631	38.63
208.017	6.55
208.403	41.8
208.789	39.19
209.175	16.99
209.561	15.56
209.947	-0.57
210.333	12.22
210.719	23.88
211.105	35.42
211.491	22.04
211.876	11.44
212.262	10.29
212.648	31.98
213.034	14.19
213.419	26.88
213.805	22.29
214.19	1.33
214.576	5.11
214.961	26.7
215.346	-1.32
215.732	17.07
216.117	14.21
216.502	10.47
216.888	-3.43
217.273	31.73
217.658	24.24
218.043	17.44
218.428	20.4
218.813	24.63
219.198	14.74
219.583	25.31
219.968	-5.01
220.353	11.17
220.738	1.92
221.122	14.24
221.507	3.68
221.892	3.55
222.276	20.74
222.661	-0.57
223.046	11.61
223.43	14.67
223.815	9.04
224.199	6.97
224.583	2.71
224.968	11.55
225.352	10.57
225.736	16.31
226.121	-0.63
226.505	5.98
226.889	9.39
227.273	13.94
227.657	9.23
228.041	5.61
228.425	6.12
228.809	7.41
229.193	5.95
229.577	6.27
229.961	5.15
230.344	3.77
230.728	4.49
231.112	4.4
231.495	4.47
231.879	5.1
232.263	4.43
232.646	2.5
233.03	4.67
233.413	4.03
233.797	6.34
234.18	4.87
234.563	4.86
234.946	5.62
235.33	3.26
235.713	4.07
236.096	4.38
236.479	4.96
236.862	5.02
237.245	4.99
237.628	4.83
238.011	7.28
238.394	5.42
238.777	5.92
239.16	4.71
239.543	4.48
239.925	5.83
240.308	5.13
240.691	5.16
241.073	5.24
241.456	4.69
241.838	5.63
242.221	3.78
242.603	5.23
242.986	4.8
243.368	5.28
243.75	4.99
244.133	4.57
244.515	4.52
244.897	5.21
245.279	5.2
245.661	5.38
246.043	5.65
246.425	5.33
246.807	5.86
247.189	5.23
247.571	4.66
247.953	5.4
248.335	5.15
248.717	4.69
249.098	4.69
249.48	5.13
249.862	4.74
250.243	4.9
250.625	4.48
251.006	5.72
251.388	5.42
251.769	5.32
252.151	6.36
252.532	5.43
252.913	5.3
253.295	5.02
253.676	5.68
254.057	4.47
254.438	4.82
254.819	5.84
255.2	5.26
255.581	5.09
255.962	5.34
256.343	6.02
256.724	4.8
257.105	4.63
257.486	6.06
257.867	5.43
258.247	4.96
258.628	4.99
259.009	5.39
259.389	5.87
259.77	5.01
260.15	5.4
260.531	4.8
260.911	4.53
261.292	4.92
261.672	4.75
262.052	5.06
262.432	4.9
262.813	5.43
263.193	5.87
263.573	5.27
263.953	4.83
264.333	4.8
264.713	5.57
265.093	5.07
265.473	5.54
265.853	5.35
266.233	5.42
266.612	5.7
266.992	5.14
267.372	5.07
267.752	5.3
268.131	5.39
268.511	4.66
268.89	5.37
269.27	5.07
269.649	4.83
270.029	4.71
270.408	4.69
270.787	5.08
271.167	5.53
271.546	5.28
271.925	4.91
272.304	5.22
272.683	4.7
273.062	5.16
273.441	5.17
273.82	4.92
274.199	5.4
274.578	4.97
274.957	4.92
275.336	5.15
275.715	4.79
276.093	5.2
276.472	5.22
276.851	5.49
277.229	5.11
277.608	5.11
277.986	4.77
278.365	4.95
278.743	5.64
279.122	4.63
279.5	5.33
279.878	5.07
280.257	5.18
280.635	4.85
281.013	5.43
281.391	5.38
281.769	5
282.147	4.92
282.525	5.12
282.903	4.9
283.281	5.53
283.659	5.46
284.037	5.18
284.415	5.08
284.792	5.76
285.17	5.31
285.548	5.37
285.925	5.4
286.303	5.24
286.68	5.01
287.058	5.3
287.435	5.01
287.813	5.27
288.19	5.14
288.567	5.45
288.945	5.34
289.322	4.92
289.699	5.06
290.076	5.33
290.453	5.69
290.83	5.71
291.207	5.2
291.584	5.17
291.961	5.53
292.338	5.26
292.715	5.39
293.092	5.6
293.469	5.49
293.845	5.16
294.222	5.02
294.599	6.25
294.975	5.47
295.352	6.16
295.728	5.77
296.105	5.56
296.481	5.46
296.858	6.27
297.234	6.21
297.61	5.95
297.986	5.87
298.363	6.23
298.739	6.18
299.115	6.31
299.491	6.11
299.867	6.16
300.243	6.24
300.619	6.82
300.995	6.56
301.371	6.57
301.746	6.57
302.122	6.86
302.498	6.55
302.874	6.84
303.249	6.61
303.625	6.8
304	6.81
304.376	6.39
304.751	7.29
305.127	7.44
305.502	6.82
305.878	7.07
306.253	6.85
306.628	6.91
307.003	7.12
307.378	7.38
307.754	6.69
308.129	6.75
308.504	7.59
308.879	7.67
309.254	7.62
309.629	7.87
310.003	7.19
310.378	7.82
310.753	7.75
311.128	7.34
311.502	7.88
311.877	7.82
312.252	7.57
312.626	8.21
313.001	7.88
313.375	7.88
313.75	8.18
314.124	8.29
314.498	8.52
314.873	8.26
315.247	8.6
315.621	8.76
315.995	8.09
316.369	8.59
316.743	8.64
317.117	8.49
317.491	8.98
317.865	9.44
318.239	8.73
318.613	9.26
318.987	8.91
319.361	9.29
319.734	9.25
320.108	9.22
320.482	9.28
320.855	9.67
321.229	9.69
321.602	9.44
321.976	9.27
322.349	9.66
322.723	9.55
323.096	9.76
323.469	9.69
323.843	9.82
324.216	10.19
324.589	9.57
324.962	9.79
325.335	9.72
325.708	10.08
326.081	9.99
326.454	10.04
326.827	10.13
327.2	10.02
327.573	9.58
327.945	10.47
328.318	10.37
328.691	10
329.063	10.47
329.436	10.57
329.809	11.06
330.181	10.81
330.553	10.41
330.926	10.42
331.298	11.23
331.671	11.43
332.043	11.4
332.415	11.51
332.787	10.91
333.159	11.4
333.532	11.19
333.904	11.08
334.276	11.07
334.648	11.32
335.02	11.53
335.391	11.07
335.763	11.71
336.135	11.61
336.507	11.36
336.879	11.49
337.25	11.68
337.622	11.54
337.993	11.5
338.365	11.14
338.736	12.02
339.108	12.32
339.479	12.24
339.851	12.09
340.222	12.35
340.593	12.07
340.964	12.22
341.336	12.63
341.707	12.4
342.078	12.26
342.449	12.54
342.82	12.35
343.191	12.39
343.562	12.84
343.933	12.59
344.303	12.91
344.674	12.58
345.045	12.65
345.416	13.19
345.786	13.04
346.157	13.06
346.527	12.84
346.898	12.85
347.268	13.4
347.639	13.03
348.009	13.27
348.38	13.13
348.75	13.14
349.12	13.72
349.49	13.93
349.861	13.48
350.231	13.14
350.601	14.03
350.971	13.79
351.341	14.09
351.711	14.26
352.081	14.05
352.45	14.34
352.82	14.07
353.19	14.54
353.56	14.28
353.929	14.21
354.299	14.17
354.669	14.44
355.038	14.69
355.408	14.35
355.777	14.21
356.147	14.55
356.516	14.58
356.885	14.65
357.254	14.35
357.624	14.69
357.993	15.02
358.362	14.68
358.731	14.85
359.1	14.91
359.469	15.06
359.838	15.21
360.207	15.15
360.576	15.27
360.945	15.65
361.314	15.22
361.682	15.21
362.051	15.42
362.42	15.69
362.788	15.71
363.157	15.52
363.525	15.43
363.894	15.61
364.262	15.59
364.631	15.95
364.999	16.23
365.367	15.93
365.735	16.17
366.104	16.01
366.472	16.19
366.84	16.27
367.208	16.23
367.576	16.31
367.944	16.69
368.312	16.86
368.68	16.93
369.048	16.6
369.416	16.88
369.783	16.41
370.151	17.06
370.519	17.28
370.886	16.95
371.254	17.06
371.621	17.14
371.989	16.75
372.356	17.46
372.724	17.45
373.091	16.97
373.458	17.26
373.826	17.51
374.193	17.57
374.56	17.6
374.927	18.08
375.294	18.12
375.661	17.64
376.028	17.89
376.395	18.09
376.762	18.04
377.129	18.03
377.496	17.99
377.863	18.03
378.229	18.33
378.596	18.32
378.963	18.14
379.329	18.46
379.696	18.28
380.062	18.74
380.429	19.05
380.795	18.72
381.161	19.16
381.528	18.86
381.894	18.95
382.26	19.3
382.626	19.04
382.993	19.08
383.359	19.14
383.725	19.28
384.091	19.74
384.457	19.25
384.823	19.33
385.188	19.4
385.554	19.57
385.92	19.71
386.286	19.51
386.651	19.71
387.017	19.66
387.383	19.4
387.748	19.95
388.114	19.99
388.479	19.91
388.845	20.29
389.21	20.33
389.575	20.36
389.94	20.21
390.306	20.37
390.671	20.44
391.036	20.53
391.401	20.51
391.766	20.45
392.131	20.45
392.496	20.93
392.861	20.91
393.226	20.53
393.591	20.69
393.956	20.79
394.32	21
394.685	21.3
395.05	21.28
395.414	21.32
395.779	21.32
396.143	21
396.508	21.43
396.872	21.41
397.236	21.5
397.601	21.62
397.965	21.61
398.329	21.93
398.694	21.94
399.058	21.87
399.422	22.03
399.786	22.1
400.15	22.02
400.514	21.77
400.878	22.3
401.242	22.18
401.605	22.35
401.969	22.26
402.333	22.36
402.697	22.55
403.06	22.53
403.424	22.84
403.787	22.63
404.151	22.89
404.514	22.37
404.878	23.01
405.241	22.8
405.604	23.07
405.968	22.65
406.331	22.99
406.694	23.16
407.057	22.99
407.42	23.21
407.783	23.2
408.146	23.19
408.509	23.47
408.872	23.55
409.235	23.59
409.598	23.8
409.961	23.72
410.323	23.74
410.686	23.99
411.049	23.82
411.411	23.93
411.774	24.05
412.136	23.86
412.499	24.04
412.861	24.18
413.223	24.34
413.586	24.6
413.948	24.35
414.31	24.67
414.672	24.71
415.035	24.61
415.397	24.92
415.759	24.77
416.121	24.89
416.483	24.77
416.845	25.03
417.206	24.63
417.568	24.77
417.93	24.74
418.292	24.82
418.653	24.94
419.015	25.06
419.377	24.92
419.738	24.76
420.1	24.88
420.461	24.89
420.822	24.76
421.184	25.01
421.545	24.98
421.906	25.09
422.267	25.11
422.629	24.95
422.99	24.93
423.351	25.06
423.712	25.24
424.073	25.6
424.434	25.63
424.795	25.73
425.155	25.67
425.516	25.52
425.877	25.51
426.238	25.52
426.598	25.69
426.959	25.87
427.32	26.02
427.68	26.39
428.041	26.5
428.401	26.59
428.761	27.03
429.122	27.07
429.482	27.09
429.842	27.23
430.202	27.25
430.563	27.24
430.923	27.37
431.283	27.34
431.643	27.22
432.003	27.57
432.363	27.36
432.722	27.56
433.082	27.8
433.442	27.83
433.802	27.75
434.161	27.64
434.521	27.62
434.881	27.44
435.24	27.52
435.6	27.72
435.959	27.9
436.319	28.14
436.678	28.06
437.037	28.27
437.396	28.5
437.756	28.47
438.115	28.89
438.474	28.62
438.833	28.57
439.192	28.53
439.551	28.54
439.91	28.54
440.269	28.79
440.628	28.63
440.987	28.71
441.345	28.62
441.704	28.7
442.063	28.66
442.421	28.72
442.78	28.76
443.138	28.97
443.497	29.13
443.855	29.45
444.214	29.54
444.572	29.65
444.93	29.73
445.288	29.62
445.647	29.95
446.005	29.71
446.363	29.59
446.721	29.46
447.079	29.54
447.437	29.19
447.795	29.35
448.153	29.24
448.51	29.33
448.868	29.67
449.226	29.61
449.584	29.87
449.941	30.04
450.299	30.21
450.656	30.56
451.014	30.65
451.371	30.8
451.729	30.88
452.086	31.02
452.443	31.18
452.801	31.27
453.158	31.1
453.515	31.15
453.872	31.07
454.229	31.1
454.586	31.28
454.943	31.39
455.3	31.42
455.657	31.51
456.014	31.62
456.371	31.58
456.727	31.62
457.084	31.95
457.441	31.95
457.797	31.97
458.154	32.31
458.51	32.04
458.867	32.13
459.223	32.12
459.58	31.9
459.936	32.19
460.292	32.08
460.648	31.93
461.005	31.83
461.361	31.48
461.717	31.53
462.073	31.68
462.429	31.93
462.785	32.21
463.141	32.51
463.496	32.66
463.852	32.87
464.208	32.87
464.564	33.05
464.919	33.18
465.275	33.36
465.631	33.59
465.986	33.48
466.342	33.26
466.697	33.44
467.052	33.37
467.408	33.61
467.763	33.62
468.118	33.53
468.473	33.56
468.829	33.3
469.184	33.48
469.539	33.61
469.894	33.9
470.249	34.19
470.603	34.1
470.958	34.23
471.313	34.2
471.668	34.13
472.023	34.26
472.377	34.54
472.732	34.55
473.086	34.65
473.441	34.55
473.795	34.93
474.15	34.7
474.504	34.77
474.859	34.66
475.213	34.87
475.567	34.77
475.921	35.18
476.275	35.17
476.63	35.17
476.984	35.09
477.338	35.53
477.692	35.6
478.045	35.2
478.399	35.35
478.753	35.35
479.107	35.42
479.461	35.43
479.814	35.45
480.168	35.45
480.521	35.81
480.875	35.66
481.228	35.75
481.582	35.74
481.935	35.92
482.289	35.94
482.642	35.59
482.995	35.76
483.348	35.64
483.701	35.44
484.055	35.68
484.408	35.49
484.761	35.08
485.114	34.73
485.466	34.58
485.819	34.77
486.172	34.73
486.525	34.98
486.878	35.3
487.23	35.43
487.583	35.78
487.936	35.82
488.288	35.82
488.641	35.58
488.993	35.46
489.345	35.42
489.698	35.48
490.05	35.6
490.402	35.8
490.754	35.96
491.107	36.49
491.459	36.73
491.811	36.84
492.163	37.01
492.515	36.81
492.866	36.33
493.218	36.02
493.57	36.15
493.922	36.2
494.274	36.58
494.625	36.93
494.977	37.26
495.328	37.57
495.68	37.62
496.031	38.19
496.383	38.29
496.734	38.21
497.086	38.31
497.437	38.36
497.788	38.14
498.139	38
498.49	37.86
498.842	37.91
499.193	38
499.544	38.21
499.894	38.27
500.245	38.41
500.596	38.41
500.947	38.47
501.298	38.61
501.648	38.92
501.999	38.85
502.35	38.97
502.7	39.18
503.051	39.15
503.401	39.39
503.752	39.32
504.102	39.54
504.452	39.42
504.803	39.48
505.153	39.62
505.503	39.42
505.853	39.52
506.203	39.52
506.553	39.7
506.903	39.55
507.253	39.76
507.603	39.77
507.953	39.72
508.303	39.75
508.652	39.95
509.002	39.83
509.352	39.8
509.701	39.7
510.051	39.67
510.4	39.61
510.75	39.8
511.099	39.67
511.449	39.78
511.798	40.01
512.147	39.99
512.496	40.36
512.846	40.43
513.195	40.51
513.544	40.29
513.893	40.37
514.242	40.28
514.591	40.55
514.939	40.46
515.288	40.65
515.637	40.75
515.986	41.01
516.334	41.29
516.683	41.32
517.032	41.37
517.38	41.55
517.729	41.31
518.077	41.59
518.426	41.35
518.774	41.27
519.122	40.92
519.47	41.21
519.819	41.01
520.167	40.79
520.515	40.82
520.863	40.81
521.211	40.98
521.559	41.09
521.907	41.39
522.255	41.58
522.602	41.86
522.95	41.66
523.298	42.04
523.645	42.13
523.993	42.43
524.341	42.27
524.688	42.46
525.036	42.62
525.383	42.36
525.73	42.37
526.078	42.38
526.425	42.28
526.772	42.32
527.119	41.83
527.466	41.75
527.814	41.9
528.161	41.96
528.508	42.15
528.854	42.16
529.201	42.27
529.548	42.09
529.895	41.63
530.242	41.37
530.588	41.36
530.935	41.41
531.282	41.73
531.628	41.82
531.975	41.92
532.321	42.2
532.667	42.63
533.014	42.71
533.36	42.87
533.706	42.96
534.052	42.75
534.399	42.68
534.745	42.3
535.091	42.21
535.437	42.33
535.783	42.48
536.129	42.74
536.474	43.17
536.82	43.48
537.166	43.54
537.512	43.87
537.857	43.5
538.203	43.23
538.549	43.23
538.894	43.31
539.239	43.63
539.585	43.73
539.93	43.91
540.276	44.2
540.621	44.71
540.966	44.69
541.311	44.42
541.656	44.47
542.001	44.54
542.346	43.94
542.691	43.43
543.036	43.01
543.381	43.27
543.726	43.27
544.071	43.56
544.415	43.74
544.76	43.87
545.105	44.05
545.449	44.24
545.794	44.52
546.138	44.66
546.483	44.6
546.827	45.05
547.171	45.03
547.516	44.99
547.86	45.03
548.204	44.86
548.548	44.78
548.892	44.96
549.236	45.03
549.58	45.41
549.924	45.46
550.268	45.76
550.612	46.06
550.956	46.28
551.3	46.29
551.643	46.5
551.987	46.32
552.33	46.63
552.674	46.44
553.017	46.52
553.361	46.24
553.704	46.7
554.048	46.41
554.391	46.06
554.734	46.04
555.077	46.42
555.42	46.31
555.764	46.54
556.107	46.92
556.45	47.05
556.793	47.04
557.135	46.99
557.478	47.26
557.821	47.33
558.164	47.26
558.507	47.35
558.849	47.13
559.192	47.4
559.534	47.4
559.877	47.31
560.219	47.5
560.562	47.51
560.904	47.65
561.246	47.65
561.589	47.83
561.931	47.86
562.273	47.71
562.615	47.84
562.957	47.84
563.299	47.8
563.641	47.72
563.983	47.99
564.325	48.1
564.667	48.01
565.008	48.13
565.35	48.12
565.692	48.31
566.033	48.41
566.375	48.39
566.716	48.19
567.058	48.06
567.399	48.05
567.741	48.07
568.082	47.75
568.423	48.21
568.764	48.15
569.105	48.18
569.447	48.28
569.788	48.47
570.129	48.77
570.47	48.95
570.811	48.95
571.151	48.95
571.492	48.75
571.833	48.88
572.174	48.95
572.514	48.81
572.855	48.79
573.195	48.6
573.536	48.52
573.876	48.48
574.217	48.57
574.557	48.55
574.898	48.85
575.238	49.03
575.578	49.11
575.918	49.16
576.258	48.93
576.598	48.97
576.938	49.13
577.278	49.41
577.618	49.48
577.958	49.45
578.298	49.5
578.638	49.75
578.977	49.92
579.317	49.85
579.657	50.03
579.996	49.95
580.336	50.2
580.675	50.22
581.014	50.29
581.354	50.4
581.693	50.41
582.032	50.52
582.372	50.26
582.711	50.4
583.05	50.51
583.389	50.59
583.728	50.63
584.067	50.57
584.406	50.61
584.745	50.69
585.083	50.63
585.422	50.8
585.761	50.73
586.1	50.86
586.438	50.85
586.777	50.66
587.115	50.96
587.454	51.2
587.792	51.23
588.13	51.29
588.469	51.21
588.807	51.6
589.145	51.6
589.483	51.4
589.821	51.45
590.159	51.34
590.497	51.45
590.835	51.28
591.173	51.33
591.511	51.54
591.849	51.34
592.187	51.12
592.524	51.53
592.862	51.44
593.2	51.61
593.537	51.81
593.875	51.8
594.212	51.49
594.55	51.99
594.887	52.13
595.224	52.17
595.561	51.93
595.899	51.67
596.236	51.8
596.573	51.72
596.91	52.11
597.247	52.17
597.584	52
597.921	51.82
598.258	52.02
598.594	51.7
598.931	51.76
599.268	51.55
599.604	51.78
599.941	51.81
600.277	51.65
600.614	52.06
600.95	52.33
601.287	52.78
601.623	52.65
601.959	52.64
602.296	53.08
602.632	53.04
602.968	53.09
603.304	53.32
603.64	53.31
603.976	52.99
604.312	52.82
604.648	52.61
604.984	52.37
605.319	52.59
605.655	52.53
605.991	52.31
606.326	52.16
606.662	52.17
606.998	52.48
607.333	52.69
607.668	52.8
608.004	53.1
608.339	53
608.674	53.4
609.01	53.22
609.345	53.8
609.68	53.82
610.015	53.52
610.35	53.47
610.685	53.43
611.02	52.83
611.355	52.98
611.689	53.17
612.024	53.17
612.359	53.26
612.694	53.57
613.028	53.66
613.363	53.81
613.697	54.18
614.032	54.15
614.366	54.44
614.7	54.31
615.035	54.37
615.369	54.21
615.703	54.5
616.037	54.51
616.371	54.59
616.705	54.26
617.039	54.33
617.373	54.36
617.707	54.65
618.041	54.45
618.375	54.82
618.709	54.77
619.042	54.49
619.376	54.81
619.71	54.69
620.043	54.46
620.377	55.2
620.71	54.6
621.043	54.95
621.377	55.12
621.71	55.11
622.043	54.69
622.376	55.1
622.709	55.18
623.043	55.56
623.376	55.1
623.709	55.75
624.041	55.29
624.374	55.21
624.707	55.47
625.04	55.49
625.373	55.24
625.705	55.69
626.038	55.78
626.37	55.44
626.703	55.5
627.035	55.3
627.368	55.57
627.7	55.67
628.032	55.88
628.365	55.35
628.697	55.62
629.029	54.98
629.361	55.44
629.693	55.81
630.025	55.39
630.357	55.73
630.689	56.02
631.021	55.81
631.353	55.98
631.684	55.99
632.016	55.88
632.348	55.91
632.679	55.94
633.011	56.18
633.342	56.26
633.674	56.61
634.005	56.27
634.336	56.26
634.668	56.35
634.999	56.38
635.33	56.18
635.661	56.53
635.992	56.16
636.323	56.1
636.654	56.39
636.985	56.3
637.316	56.64
637.647	56.62
637.977	56.68
638.308	56.87
638.639	56.77
638.969	56.94
639.3	57.21
639.63	56.97
639.961	57.03
640.291	56.91
640.622	57.09
640.952	57.29
641.282	57
641.612	56.82
641.943	56.38
642.273	57.31
642.603	57.22
642.933	57.23
643.263	57.23
643.592	57.24
643.922	57.07
644.252	57.49
644.582	57.03
644.911	57.55
645.241	57.68
645.571	56.94
645.9	57.57
646.23	57.93
646.559	57.13
646.888	57.28
647.218	58.05
647.547	57.87
647.876	57.91
648.205	57.37
648.534	57.42
648.863	57.77
649.192	57.98
649.521	58.13
649.85	57.37
650.179	57.99
650.508	57.97
650.837	57.8
651.165	57.91
651.494	57.68
651.822	58.41
652.151	58.14
652.479	58.27
652.808	58.5
653.136	57.79
653.465	58.56
653.793	58.32
654.121	57.91
654.449	58.5
654.777	58.08
655.105	58.33
655.433	58.76
655.761	58.56
656.089	58.48
656.417	58.61
656.745	58.51
657.073	58.45
657.4	58.42
657.728	58.94
658.056	58.7
658.383	58.79
658.711	58.49
659.038	59.02
659.365	58.86
659.693	58.9
660.02	58.88
660.347	58.43
660.674	58.13
661.001	58.31
661.329	57.93
661.656	58.18
661.982	58.34
662.309	58.79
662.636	58.92
662.963	58.94
663.29	59.04
663.616	59.11
663.943	59.01
664.27	59.28
664.596	59.03
664.923	59.04
665.249	59.3
665.576	59.2
665.902	59.4
666.228	59.17
666.554	58.92
666.881	59.83
667.207	59.46
667.533	59.75
667.859	59.52
668.185	60.06
668.511	60.03
668.837	59.15
669.162	59.23
669.488	59.13
669.814	59.43
