Data from 815643_crown_Reflection__2__21.txt Node

Date: Fri Sep 16 14:19:44 CDT 2022
User: ToomeyLab
Spectrometer: FLMS14357
Trigger mode: 0
Integration Time (sec): 1.000000E-2
Scans to average: 100
Electric dark correction enabled: true
Nonlinearity correction enabled: false
Boxcar width: 0
XAxis mode: Wavelengths
Number of Pixels in Spectrum: 2048
>>>>>Begin Spectral Data<<<<<
189.047	-11.36
189.435	-11.36
189.823	-11.36
190.211	164.94
190.599	196.71
190.987	-185.99
191.375	73.14
191.763	-167.49
192.151	60
192.538	-166.96
192.926	247.56
193.314	-91.82
193.702	-35.31
194.089	50.57
194.477	-65.83
194.864	38.91
195.252	-136.15
195.639	-753.52
196.027	576.68
196.414	157.41
196.801	41.48
197.189	67.32
197.576	-47.57
197.963	-49.6
198.351	-9.91
198.738	5.47
199.125	-7.98
199.512	-10.32
199.899	4.22
200.286	20.62
200.673	-2.15
201.06	6.75
201.447	-21.48
201.833	31.03
202.22	-21.53
202.607	42.37
202.994	10.97
203.38	-41.95
203.767	-15.54
204.154	-14.08
204.54	5.2
204.927	-1.48
205.313	12.46
205.699	7.02
206.086	-11.89
206.472	-1.99
206.858	-2.75
207.245	20.31
207.631	7.45
208.017	8.44
208.403	36.93
208.789	28.66
209.175	-52.82
209.561	-19.14
209.947	-46.71
210.333	-25.64
210.719	20.36
211.105	18.75
211.491	9.26
211.876	-15.48
212.262	-21.22
212.648	0.43
213.034	-4.81
213.419	3.62
213.805	16.67
214.19	-16.47
214.576	-9.69
214.961	15.16
215.346	-11.26
215.732	-7.59
216.117	0.29
216.502	-5.7
216.888	-11.86
217.273	17.08
217.658	5.48
218.043	-15.24
218.428	2.71
218.813	10.73
219.198	-13.62
219.583	22.75
219.968	-22.06
220.353	2.31
220.738	-40.98
221.122	9.29
221.507	-26.15
221.892	6.93
222.276	0.16
222.661	8.04
223.046	1.58
223.43	6.87
223.815	8.04
224.199	-5.18
224.583	0.3
224.968	9.33
225.352	1.84
225.736	1.78
226.121	0.01
226.505	6.11
226.889	3.69
227.273	12.24
227.657	4.4
228.041	0.96
228.425	3.29
228.809	3.88
229.193	3.75
229.577	4.81
229.961	4.64
230.344	4.27
230.728	3.97
231.112	4.11
231.495	3.92
231.879	4.32
232.263	3.21
232.646	2.69
233.03	4.74
233.413	3.36
233.797	7.85
234.18	2.82
234.563	2.61
234.946	4.48
235.33	2.97
235.713	3.89
236.096	2.91
236.479	3.36
236.862	4.6
237.245	3.75
237.628	3.55
238.011	5.36
238.394	5.36
238.777	4.25
239.16	4.25
239.543	3.75
239.925	3.75
240.308	5.05
240.691	4.33
241.073	4.05
241.456	3.62
241.838	3.97
242.221	3.58
242.603	4.8
242.986	4.68
243.368	4.4
243.75	4.11
244.133	3.84
244.515	4.21
244.897	4.74
245.279	5.22
245.661	3.99
246.043	4.77
246.425	4.24
246.807	3.8
247.189	4.17
247.571	3.56
247.953	4.71
248.335	4.25
248.717	4.03
249.098	4.14
249.48	4.7
249.862	4.4
250.243	4.38
250.625	4.01
251.006	4.72
251.388	4.64
251.769	4.37
252.151	4.46
252.532	4.43
252.913	3.75
253.295	3.84
253.676	4
254.057	4.04
254.438	3.93
254.819	5.56
255.2	2.81
255.581	3.92
255.962	3.83
256.343	2.48
256.724	3.49
257.105	3.22
257.486	3.99
257.867	3.84
258.247	4.4
258.628	4.12
259.009	3.8
259.389	4.81
259.77	3.63
260.15	4.25
260.531	3.71
260.911	3.6
261.292	3.76
261.672	3.76
262.052	4.09
262.432	3.99
262.813	4.4
263.193	4.31
263.573	3.92
263.953	3.92
264.333	3.17
264.713	4.04
265.093	3.63
265.473	2.95
265.853	3.73
266.233	3.98
266.612	4.65
266.992	4.11
267.372	3.77
267.752	3.34
268.131	4.05
268.511	3.74
268.89	3.39
269.27	3.67
269.649	3.66
270.029	3.41
270.408	3.85
270.787	4.07
271.167	3.79
271.546	3.97
271.925	3.42
272.304	3.56
272.683	3.66
273.062	3.48
273.441	3.91
273.82	3.64
274.199	3.69
274.578	3.56
274.957	3.6
275.336	3.6
275.715	3.75
276.093	3.61
276.472	4.06
276.851	3.97
277.229	3.7
277.608	3.18
277.986	3.84
278.365	3.46
278.743	3.91
279.122	3.23
279.5	3.57
279.878	3.65
280.257	3.5
280.635	3.68
281.013	3.66
281.391	4.21
281.769	3.47
282.147	3.31
282.525	3.33
282.903	3.49
283.281	3.71
283.659	4.25
284.037	3.51
284.415	3.38
284.792	3.74
285.17	3.57
285.548	3.56
285.925	3.88
286.303	3.7
286.68	3.46
287.058	3.7
287.435	3.29
287.813	3.63
288.19	3.46
288.567	3.4
288.945	3.47
289.322	2.92
289.699	3.09
290.076	3.27
290.453	3.82
290.83	3.65
291.207	3.42
291.584	3.08
291.961	3.46
292.338	3.39
292.715	3.47
293.092	3.27
293.469	3.59
293.845	3.18
294.222	3.22
294.599	3.29
294.975	3.02
295.352	3.79
295.728	3.12
296.105	3.01
296.481	3.15
296.858	3.17
297.234	3.29
297.61	3.18
297.986	2.65
298.363	3.47
298.739	3.51
299.115	3.55
299.491	3.37
299.867	3.51
300.243	3.08
300.619	3.84
300.995	3.19
301.371	3.48
301.746	3.31
302.122	3.34
302.498	3.19
302.874	3.2
303.249	3.33
303.625	2.91
304	3.13
304.376	3.09
304.751	3.75
305.127	3.59
305.502	3.23
305.878	2.95
306.253	2.75
306.628	3.24
307.003	3.17
307.378	3.59
307.754	3.13
308.129	3.22
308.504	3.47
308.879	3.11
309.254	3.78
309.629	3.67
310.003	3.03
310.378	3.27
310.753	3.09
311.128	2.85
311.502	3.4
311.877	3.32
312.252	2.64
312.626	3.29
313.001	3.17
313.375	3.14
313.75	3.03
314.124	3.56
314.498	2.98
314.873	2.64
315.247	3.09
315.621	3.46
315.995	2.72
316.369	3.55
316.743	3.53
317.117	3.03
317.491	3.11
317.865	3.21
318.239	3.48
318.613	3.25
318.987	2.92
319.361	3.18
319.734	3.13
320.108	3.19
320.482	2.93
320.855	2.59
321.229	3.07
321.602	2.87
321.976	2.61
322.349	2.5
322.723	3.04
323.096	3.28
323.469	3.41
323.843	2.94
324.216	3.05
324.589	2.83
324.962	3.11
325.335	3.14
325.708	3.23
326.081	2.98
326.454	3.01
326.827	3.09
327.2	2.73
327.573	2.64
327.945	3.15
328.318	3.32
328.691	2.98
329.063	3.27
329.436	2.8
329.809	3.41
330.181	3.28
330.553	3.01
330.926	2.72
331.298	3.13
331.671	3.29
332.043	3.32
332.415	3.62
332.787	3.42
333.159	2.91
333.532	3.18
333.904	3
334.276	3.42
334.648	2.73
335.02	3.48
335.391	2.78
335.763	3.06
336.135	2.85
336.507	2.99
336.879	3.03
337.25	3.11
337.622	2.92
337.993	2.92
338.365	3.25
338.736	3.15
339.108	3.3
339.479	3.24
339.851	3.56
340.222	3.2
340.593	2.65
340.964	2.6
341.336	2.9
341.707	3.05
342.078	2.92
342.449	3.04
342.82	2.88
343.191	2.91
343.562	3.22
343.933	3.09
344.303	3.24
344.674	2.74
345.045	3.33
345.416	3.13
345.786	3.01
346.157	2.9
346.527	2.87
346.898	3.19
347.268	3.41
347.639	2.99
348.009	3.11
348.38	3.23
348.75	3.12
349.12	2.93
349.49	3.23
349.861	3.24
350.231	3.03
350.601	3.06
350.971	2.66
351.341	3.17
351.711	3.26
352.081	3.59
352.45	3.41
352.82	2.88
353.19	2.69
353.56	3.36
353.929	2.98
354.299	2.97
354.669	3.2
355.038	3.35
355.408	3.17
355.777	3.14
356.147	3.05
356.516	3.1
356.885	3.35
357.254	3.29
357.624	3.19
357.993	3.3
358.362	2.91
358.731	2.82
359.1	2.99
359.469	3.08
359.838	3.25
360.207	3.24
360.576	3.31
360.945	3.4
361.314	3.27
361.682	2.87
362.051	3.19
362.42	3.18
362.788	3.25
363.157	3.07
363.525	2.95
363.894	3.08
364.262	3.32
364.631	3.14
364.999	3.62
365.367	3.24
365.735	3.13
366.104	3.11
366.472	3.22
366.84	3.29
367.208	3.02
367.576	3.22
367.944	3.3
368.312	3.06
368.68	3.49
369.048	3.12
369.416	3.3
369.783	2.93
370.151	3.25
370.519	3.47
370.886	3.1
371.254	3.17
371.621	3.19
371.989	3.05
372.356	3.22
372.724	3.36
373.091	3.11
373.458	3.19
373.826	3.06
374.193	3.56
374.56	3.09
374.927	3.54
375.294	3.4
375.661	3.22
376.028	3.36
376.395	3.26
376.762	3.32
377.129	3.02
377.496	2.99
377.863	3.51
378.229	3.32
378.596	3.08
378.963	3.41
379.329	3.71
379.696	3.26
380.062	3.41
380.429	3.66
380.795	3.29
381.161	3.77
381.528	3.39
381.894	3.21
382.26	3.16
382.626	3
382.993	3.58
383.359	3.48
383.725	3.11
384.091	3.62
384.457	3.19
384.823	3.29
385.188	3.24
385.554	3.33
385.92	3.4
386.286	3.23
386.651	3.44
387.017	3.44
387.383	3.37
387.748	3.3
388.114	3.33
388.479	3.52
388.845	3.34
389.21	3.58
389.575	3.44
389.94	3.16
390.306	3.5
390.671	3.5
391.036	3.46
391.401	3.26
391.766	3.55
392.131	3.27
392.496	3.53
392.861	3.47
393.226	3.2
393.591	3.36
393.956	3.39
394.32	3.27
394.685	3.52
395.05	3.65
395.414	3.42
395.779	3.41
396.143	3.34
396.508	3.35
396.872	3.43
397.236	3.4
397.601	3.4
397.965	3.47
398.329	3.7
398.694	3.42
399.058	3.53
399.422	3.62
399.786	3.67
400.15	3.47
400.514	3.45
400.878	3.59
401.242	3.34
401.605	3.71
401.969	3.48
402.333	3.61
402.697	3.55
403.06	3.57
403.424	3.54
403.787	3.57
404.151	3.61
404.514	3.38
404.878	3.42
405.241	3.43
405.604	3.53
405.968	3.45
406.331	3.52
406.694	3.49
407.057	3.48
407.42	3.62
407.783	3.55
408.146	3.51
408.509	3.74
408.872	3.58
409.235	3.71
409.598	3.72
409.961	3.38
410.323	3.35
410.686	3.65
411.049	3.39
411.411	3.65
411.774	3.58
412.136	3.52
412.499	3.46
412.861	3.67
413.223	3.5
413.586	3.5
413.948	3.34
414.31	3.44
414.672	3.39
415.035	3.72
415.397	3.84
415.759	3.56
416.121	3.63
416.483	3.45
416.845	3.69
417.206	3.42
417.568	3.3
417.93	3.39
418.292	3.58
418.653	3.34
419.015	3.51
419.377	3.38
419.738	3.55
420.1	3.42
420.461	3.41
420.822	3.46
421.184	3.49
421.545	3.49
421.906	3.32
422.267	3.53
422.629	3.4
422.99	3.47
423.351	3.5
423.712	3.46
424.073	3.55
424.434	3.61
424.795	3.53
425.155	3.34
425.516	3.42
425.877	3.55
426.238	3.41
426.598	3.52
426.959	3.46
427.32	3.62
427.68	3.57
428.041	3.55
428.401	3.56
428.761	3.64
429.122	3.63
429.482	3.76
429.842	3.63
430.202	3.54
430.563	3.69
430.923	3.64
431.283	3.6
431.643	3.49
432.003	3.58
432.363	3.65
432.722	3.62
433.082	3.59
433.442	3.71
433.802	3.61
434.161	3.57
434.521	3.52
434.881	3.65
435.24	3.51
435.6	3.65
435.959	3.65
436.319	3.66
436.678	3.52
437.037	3.7
437.396	3.63
437.756	3.72
438.115	3.61
438.474	3.63
438.833	3.47
439.192	3.64
439.551	3.64
439.91	3.56
440.269	3.55
440.628	3.61
440.987	3.47
441.345	3.56
441.704	3.68
442.063	3.54
442.421	3.56
442.78	3.58
443.138	3.63
443.497	3.75
443.855	3.57
444.214	3.71
444.572	3.74
444.93	3.66
445.288	3.62
445.647	3.68
446.005	3.6
446.363	3.7
446.721	3.55
447.079	3.49
447.437	3.55
447.795	3.59
448.153	3.48
448.51	3.45
448.868	3.55
449.226	3.61
449.584	3.7
449.941	3.6
450.299	3.56
450.656	3.81
451.014	3.71
451.371	3.68
451.729	3.71
452.086	3.68
452.443	3.76
452.801	3.87
453.158	3.71
453.515	3.71
453.872	3.6
454.229	3.58
454.586	3.52
454.943	3.71
455.3	3.68
455.657	3.68
456.014	3.64
456.371	3.64
456.727	3.61
457.084	3.64
457.441	3.73
457.797	3.57
458.154	3.6
458.51	3.59
458.867	3.58
459.223	3.55
459.58	3.56
459.936	3.81
460.292	3.62
460.648	3.64
461.005	3.55
461.361	3.49
461.717	3.5
462.073	3.55
462.429	3.74
462.785	3.72
463.141	3.69
463.496	3.73
463.852	3.87
464.208	3.87
464.564	3.66
464.919	3.59
465.275	3.69
465.631	3.79
465.986	3.78
466.342	3.66
466.697	3.73
467.052	3.7
467.408	3.6
467.763	3.75
468.118	3.61
468.473	3.69
468.829	3.56
469.184	3.66
469.539	3.68
469.894	3.63
470.249	3.64
470.603	3.78
470.958	3.74
471.313	3.61
471.668	3.69
472.023	3.74
472.377	3.83
472.732	3.65
473.086	3.87
473.441	3.79
473.795	3.66
474.15	3.55
474.504	3.77
474.859	3.79
475.213	3.67
475.567	3.67
475.921	3.81
476.275	3.76
476.63	3.73
476.984	3.75
477.338	3.71
477.692	3.73
478.045	3.64
478.399	3.79
478.753	3.68
479.107	3.67
479.461	3.8
479.814	3.65
480.168	3.82
480.521	3.69
480.875	3.7
481.228	3.78
481.582	3.67
481.935	3.71
482.289	3.63
482.642	3.6
482.995	3.64
483.348	3.61
483.701	3.59
484.055	3.6
484.408	3.55
484.761	3.48
485.114	3.38
485.466	3.31
485.819	3.36
486.172	3.5
486.525	3.66
486.878	3.71
487.23	3.67
487.583	3.66
487.936	3.64
488.288	3.55
488.641	3.52
488.993	3.45
489.345	3.49
489.698	3.52
490.05	3.55
490.402	3.63
490.754	3.67
491.107	3.73
491.459	3.77
491.811	3.75
492.163	3.67
492.515	3.57
492.866	3.48
493.218	3.45
493.57	3.5
493.922	3.57
494.274	3.74
494.625	3.78
494.977	3.71
495.328	3.69
495.68	3.74
496.031	3.79
496.383	3.69
496.734	3.85
497.086	3.83
497.437	3.68
497.788	3.73
498.139	3.64
498.49	3.66
498.842	3.73
499.193	3.78
499.544	3.71
499.894	3.66
500.245	3.78
500.596	3.63
500.947	3.71
501.298	3.79
501.648	3.77
501.999	3.85
502.35	3.67
502.7	3.81
503.051	3.87
503.401	3.79
503.752	3.78
504.102	3.86
504.452	3.87
504.803	3.83
505.153	3.79
505.503	3.85
505.853	3.83
506.203	3.77
506.553	3.82
506.903	3.87
507.253	3.86
507.603	3.69
507.953	3.93
508.303	3.82
508.652	3.8
509.002	3.82
509.352	3.7
509.701	3.78
510.051	3.74
510.4	3.66
510.75	3.72
511.099	3.74
511.449	3.76
511.798	3.8
512.147	3.76
512.496	3.77
512.846	3.75
513.195	3.84
513.544	3.77
513.893	3.79
514.242	3.82
514.591	3.78
514.939	3.77
515.288	3.69
515.637	3.83
515.986	3.84
516.334	3.84
516.683	3.82
517.032	3.74
517.38	3.89
517.729	3.78
518.077	3.83
518.426	3.8
518.774	3.69
519.122	3.74
519.47	3.78
519.819	3.72
520.167	3.64
520.515	3.6
520.863	3.73
521.211	3.77
521.559	3.8
521.907	3.72
522.255	3.87
522.602	3.85
522.95	3.81
523.298	3.76
523.645	3.8
523.993	3.76
524.341	3.96
524.688	3.73
525.036	3.86
525.383	3.86
525.73	3.79
526.078	3.83
526.425	3.66
526.772	3.8
527.119	3.65
527.466	3.65
527.814	3.71
528.161	3.71
528.508	3.74
528.854	3.77
529.201	3.75
529.548	3.61
529.895	3.54
530.242	3.46
530.588	3.48
530.935	3.61
531.282	3.71
531.628	3.76
531.975	3.77
532.321	3.79
532.667	3.87
533.014	3.79
533.36	3.73
533.706	3.8
534.052	3.74
534.399	3.6
534.745	3.58
535.091	3.55
535.437	3.61
535.783	3.76
536.129	3.82
536.474	3.77
536.82	3.81
537.166	3.87
537.512	3.83
537.857	3.71
538.203	3.71
538.549	3.72
538.894	3.73
539.239	3.72
539.585	3.87
539.93	3.85
540.276	3.83
540.621	3.9
540.966	3.76
541.311	3.78
541.656	3.88
542.001	3.81
542.346	3.67
542.691	3.56
543.036	3.47
543.381	3.58
543.726	3.64
544.071	3.78
544.415	3.77
544.76	3.74
545.105	3.73
545.449	3.77
545.794	3.75
546.138	3.89
546.483	3.85
546.827	3.96
547.171	3.84
547.516	3.75
547.86	3.85
548.204	3.76
548.548	3.81
548.892	3.73
549.236	3.77
549.58	3.86
549.924	3.85
550.268	3.95
550.612	3.98
550.956	3.81
551.3	3.9
551.643	3.76
551.987	3.83
552.33	4
552.674	4.01
553.017	4.09
553.361	3.86
553.704	3.9
554.048	3.82
554.391	3.74
554.734	3.82
555.077	3.74
555.42	3.97
555.764	3.87
556.107	4.04
556.45	4.08
556.793	3.96
557.135	3.89
557.478	4.01
557.821	4.03
558.164	3.97
558.507	4.23
558.849	3.86
559.192	3.88
559.534	3.82
559.877	3.83
560.219	3.76
560.562	3.83
560.904	3.77
561.246	3.75
561.589	4.11
561.931	3.96
562.273	3.96
562.615	3.73
562.957	3.96
563.299	3.81
563.641	3.88
563.983	3.81
564.325	3.7
564.667	3.96
565.008	3.78
565.35	3.8
565.692	3.98
566.033	3.99
566.375	3.94
566.716	3.89
567.058	3.8
567.399	3.69
567.741	3.71
568.082	3.8
568.423	3.93
568.764	3.82
569.105	3.93
569.447	3.94
569.788	4.2
570.129	3.97
570.47	3.99
570.811	3.93
571.151	4.02
571.492	3.99
571.833	3.77
572.174	3.76
572.514	4.01
572.855	3.97
573.195	3.94
573.536	3.85
573.876	3.92
574.217	3.83
574.557	3.88
574.898	3.82
575.238	3.95
575.578	3.98
575.918	3.88
576.258	3.84
576.598	3.95
576.938	3.86
577.278	3.95
577.618	4
577.958	3.97
578.298	3.93
578.638	3.96
578.977	4.02
579.317	3.86
579.657	4.03
579.996	3.86
580.336	3.83
580.675	4.05
581.014	4.08
581.354	3.96
581.693	4.14
582.032	3.99
582.372	3.95
582.711	4.04
583.05	3.76
583.389	3.94
583.728	3.95
584.067	3.97
584.406	3.89
584.745	3.88
585.083	3.92
585.422	3.79
585.761	4.01
586.1	4.01
586.438	4.03
586.777	3.63
587.115	4.04
587.454	3.79
587.792	4.06
588.13	3.74
588.469	3.96
588.807	4.12
589.145	4.02
589.483	3.9
589.821	4.1
590.159	3.91
590.497	4
590.835	3.99
591.173	3.99
591.511	3.88
591.849	3.99
592.187	3.97
592.524	3.8
592.862	3.99
593.2	3.96
593.537	3.99
593.875	3.8
594.212	3.88
594.55	3.89
594.887	4.17
595.224	3.94
595.561	3.99
595.899	3.99
596.236	4.15
596.573	3.96
596.91	4.03
597.247	3.95
597.584	3.94
597.921	3.98
598.258	4.08
598.594	3.89
598.931	3.97
599.268	3.92
599.604	3.92
599.941	3.92
600.277	3.95
600.614	3.94
600.95	3.89
601.287	4.01
601.623	4.16
601.959	4.02
602.296	4.01
602.632	3.88
602.968	3.98
603.304	4.1
603.64	3.98
603.976	3.7
604.312	4.05
604.648	3.98
604.984	3.9
605.319	4.11
605.655	3.89
605.991	4
606.326	3.94
606.662	3.9
606.998	3.9
607.333	4.02
607.668	3.9
608.004	4.07
608.339	3.93
608.674	3.99
609.01	3.94
609.345	4.22
609.68	4.38
610.015	3.83
610.35	4.02
610.685	4.01
611.02	3.85
611.355	4.03
611.689	3.96
612.024	4.09
612.359	3.86
612.694	4.24
613.028	3.94
613.363	4.09
613.697	4.04
614.032	4.11
614.366	4.07
614.7	4.05
615.035	3.95
615.369	4.15
615.703	4.1
616.037	3.99
616.371	4.1
616.705	4.56
617.039	3.87
617.373	3.85
617.707	4.16
618.041	4.12
618.375	4.14
618.709	4.11
619.042	3.88
619.376	3.96
619.71	3.92
620.043	4.14
620.377	3.94
620.71	4.02
621.043	4.11
621.377	4.23
621.71	3.99
622.043	3.74
622.376	4.05
622.709	4.07
623.043	4.19
623.376	3.85
623.709	4.14
624.041	3.94
624.374	4.32
624.707	4.4
625.04	3.82
625.373	4.14
625.705	3.91
626.038	3.84
626.37	4.07
626.703	4.08
627.035	3.94
627.368	3.96
627.7	4.02
628.032	3.8
628.365	3.99
628.697	4.2
629.029	3.89
629.361	3.97
629.693	3.87
630.025	3.77
630.357	4.07
630.689	3.81
631.021	4.35
631.353	4.06
631.684	4.33
632.016	4
632.348	4.1
632.679	4.05
633.011	3.84
633.342	3.85
633.674	3.98
634.005	4.2
634.336	4.19
634.668	4.06
634.999	4.12
635.33	4.06
635.661	4.12
635.992	4.25
636.323	3.93
636.654	4.04
636.985	4.02
637.316	3.79
637.647	4.06
637.977	3.83
638.308	3.89
638.639	4.03
638.969	4.29
639.3	3.98
639.63	4.22
639.961	4
640.291	4.31
640.622	4.03
640.952	4.18
641.282	4.26
641.612	3.93
641.943	3.67
642.273	4.27
642.603	3.75
642.933	4.2
643.263	4.02
643.592	4.15
643.922	4.13
644.252	3.91
644.582	3.69
644.911	4.23
645.241	4.23
645.571	4.26
645.9	4.32
646.23	3.74
646.559	4.24
646.888	3.86
647.218	4.25
647.547	4.24
647.876	4.54
648.205	4.37
648.534	4.24
648.863	4.3
649.192	4.22
649.521	4.49
649.85	4.16
650.179	4.06
650.508	4.11
650.837	4.33
651.165	4.16
651.494	4.27
651.822	4.47
652.151	4.24
652.479	4.12
652.808	3.9
653.136	4.13
653.465	4.01
653.793	4.1
654.121	4.34
654.449	3.96
654.777	4.06
655.105	4.34
655.433	4.4
655.761	4.02
656.089	4.01
656.417	4.52
656.745	3.91
657.073	4.13
657.4	4.6
657.728	4.16
658.056	4.27
658.383	4.62
658.711	4.16
659.038	4.24
659.365	3.75
659.693	4.09
660.02	4.09
660.347	4.19
660.674	3.95
661.001	4.26
661.329	4.17
661.656	4.24
661.982	3.99
662.309	4.17
662.636	4.34
662.963	4.61
663.29	3.94
663.616	4.49
663.943	4.11
664.27	3.94
664.596	4.09
664.923	4.24
665.249	4.33
665.576	4.4
665.902	4.91
666.228	4.19
666.554	3.99
666.881	4.05
667.207	4.08
667.533	4.08
667.859	4.08
668.185	4.24
668.511	3.83
668.837	4.25
669.162	3.94
669.488	4.06
669.814	4.25
670.139	4.32
670.465	4.66
670.791	4.33
671.116	4.49
671.442	4.64
671.767	4.15
672.092	4.53
672.418	4.19
672.743	4.12
673.068	3.96
673.393	3.78
673.718	4.22
674.043	4.1
674.368	4.47
674.693	4.79
675.018	4.22
675.343	3.87
675.667	3.85
675.992	3.55
676.317	4.27
676.641	4.33
676.966	4.42
677.29	4.86
677.615	4.38
677.939	4.35
678.264	4.82
678.588	3.81
678.912	4.4
679.236	4.35
679.56	4.26
679.885	4.25
680.209	4.42
680.532	4.78
680.856	4.89
681.18	4.2
681.504	3.94
681.828	3.73
682.152	4.27
682.475	3.9
682.799	4.77
683.122	4.45
683.446	4.54
683.769	4.51
684.093	4.23
684.416	3.93
684.739	4.98
685.062	4.3
685.386	4.67
685.709	4.02
686.032	4.61
686.355	4.15
686.678	4.82
687.001	3.6
687.324	4.01
687.646	4.65
687.969	4.02
688.292	4.09
688.614	3.71
688.937	4.18
689.26	4.2
689.582	4.39
689.904	4.08
690.227	3.97
690.549	4.49
690.871	3.74
691.194	4.2
691.516	4.4
691.838	4.65
692.16	4.91
692.482	4.07
