Data from 815643_forehead_Reflection__3__17.txt Node

Date: Fri Sep 16 14:17:52 CDT 2022
User: ToomeyLab
Spectrometer: FLMS14357
Trigger mode: 0
Integration Time (sec): 1.000000E-2
Scans to average: 100
Electric dark correction enabled: true
Nonlinearity correction enabled: false
Boxcar width: 0
XAxis mode: Wavelengths
Number of Pixels in Spectrum: 2048
>>>>>Begin Spectral Data<<<<<
189.047	16.76
189.435	16.76
189.823	16.76
190.211	181.02
190.599	-101.22
190.987	-132.74
191.375	-50.34
191.763	-321.46
192.151	423.55
192.538	736.78
192.926	135.81
193.314	-12.18
193.702	-73.18
194.089	-13.97
194.477	121.03
194.864	-158.15
195.252	-229.57
195.639	439.2
196.027	252.77
196.414	85.28
196.801	95.19
197.189	24.95
197.576	15.42
197.963	-38.72
198.351	29.08
198.738	28.27
199.125	-6.29
199.512	45.56
199.899	-17.13
200.286	16.67
200.673	-4.05
201.06	10.94
201.447	13.77
201.833	32.36
202.22	-22.57
202.607	37.87
202.994	21.61
203.38	-0.15
203.767	12.6
204.154	42.5
204.54	9.53
204.927	-1.25
205.313	43.81
205.699	7.76
206.086	18.24
206.472	33.09
206.858	-7.89
207.245	14.05
207.631	21.31
208.017	13.84
208.403	44.53
208.789	35.3
209.175	-39.63
209.561	9.38
209.947	-24.87
210.333	-7.44
210.719	25.16
211.105	24.37
211.491	-4.84
211.876	-0.27
212.262	-1.41
212.648	3.02
213.034	19.48
213.419	32.77
213.805	31.86
214.19	-4.81
214.576	25.47
214.961	17.34
215.346	-1.43
215.732	13.8
216.117	19.29
216.502	1.16
216.888	-5.42
217.273	8.15
217.658	15.01
218.043	-11.44
218.428	15.93
218.813	19.61
219.198	16.59
219.583	29.85
219.968	0.21
220.353	-12
220.738	-9.28
221.122	22.15
221.507	-0.11
221.892	-0.34
222.276	7.8
222.661	3.07
223.046	3.23
223.43	6.68
223.815	2.72
224.199	-0.25
224.583	0.64
224.968	13.32
225.352	-1.08
225.736	1.1
226.121	-3.81
226.505	1.43
226.889	6.7
227.273	7.83
227.657	5.75
228.041	0.52
228.425	7.09
228.809	0.92
229.193	2.32
229.577	5.79
229.961	3.2
230.344	3.1
230.728	2.61
231.112	2.05
231.495	2.72
231.879	1.42
232.263	0.99
232.646	1.12
233.03	1.53
233.413	1.38
233.797	4.82
234.18	2.99
234.563	3.07
234.946	3.64
235.33	1.03
235.713	2.86
236.096	1.48
236.479	2.64
236.862	2.43
237.245	1.21
237.628	1.76
238.011	3.67
238.394	3.96
238.777	4.49
239.16	0.92
239.543	3.41
239.925	3.7
240.308	2.94
240.691	2.36
241.073	2.56
241.456	3.26
241.838	3.53
242.221	2.49
242.603	3.64
242.986	3.17
243.368	2.91
243.75	2.55
244.133	2.41
244.515	2.45
244.897	3.38
245.279	3.66
245.661	3.19
246.043	3.53
246.425	3.8
246.807	4.04
247.189	2.78
247.571	2.49
247.953	3.06
248.335	2.9
248.717	2.82
249.098	2.86
249.48	3.22
249.862	2.81
250.243	2.88
250.625	2.71
251.006	3.4
251.388	3.68
251.769	4.55
252.151	2.53
252.532	2.59
252.913	2.61
253.295	2.72
253.676	3.1
254.057	2.66
254.438	2.72
254.819	3.57
255.2	2.44
255.581	2.74
255.962	2.52
256.343	3.48
256.724	2.58
257.105	2.3
257.486	3.3
257.867	3.28
258.247	3.25
258.628	2.77
259.009	2.59
259.389	3.34
259.77	2.85
260.15	2.83
260.531	2.73
260.911	2.43
261.292	2.56
261.672	2.74
262.052	3.05
262.432	2.79
262.813	2.75
263.193	2.77
263.573	3.06
263.953	3.08
264.333	2.95
264.713	3.73
265.093	2.89
265.473	2.8
265.853	2.36
266.233	3
266.612	4.22
266.992	2.62
267.372	2.7
267.752	2.99
268.131	3.01
268.511	2.87
268.89	2.68
269.27	2.8
269.649	2.4
270.029	2.43
270.408	2.52
270.787	3
271.167	3.03
271.546	3.14
271.925	2.35
272.304	2.51
272.683	2.55
273.062	2.74
273.441	2.68
273.82	2.41
274.199	3.06
274.578	2.75
274.957	2.76
275.336	2.72
275.715	2.73
276.093	2.85
276.472	3.1
276.851	3.47
277.229	2.81
277.608	2.45
277.986	2.22
278.365	2.13
278.743	3.15
279.122	2.45
279.5	2.48
279.878	3.12
280.257	2.71
280.635	2.81
281.013	2.97
281.391	2.98
281.769	2.04
282.147	2.61
282.525	2.75
282.903	2.98
283.281	3.37
283.659	3.03
284.037	2.88
284.415	2.97
284.792	3.19
285.17	2.88
285.548	3.11
285.925	3.12
286.303	3.03
286.68	2.56
287.058	3.07
287.435	2.79
287.813	3.12
288.19	2.97
288.567	3.05
288.945	3.01
289.322	2.73
289.699	2.67
290.076	2.65
290.453	3.28
290.83	3.21
291.207	2.62
291.584	3.09
291.961	3.49
292.338	2.89
292.715	3.15
293.092	3.09
293.469	2.99
293.845	3.59
294.222	3.07
294.599	3.67
294.975	2.89
295.352	3.47
295.728	3.05
296.105	3.08
296.481	3.14
296.858	3.62
297.234	3.56
297.61	3.21
297.986	2.93
298.363	3.54
298.739	3.33
299.115	3.56
299.491	3.64
299.867	3.59
300.243	3.43
300.619	4.04
300.995	3.48
301.371	3.63
301.746	3.46
302.122	3.66
302.498	3.63
302.874	3.57
303.249	3.74
303.625	3.55
304	3.96
304.376	3.49
304.751	4.2
305.127	4.13
305.502	3.67
305.878	3.69
306.253	3.69
306.628	4.05
307.003	3.95
307.378	3.96
307.754	3.75
308.129	3.76
308.504	4.3
308.879	4.31
309.254	4.1
309.629	3.95
310.003	3.95
310.378	4.09
310.753	4.22
311.128	4
311.502	4.29
311.877	4.23
312.252	3.87
312.626	4.27
313.001	4.18
313.375	4.07
313.75	4.68
314.124	4.65
314.498	4.46
314.873	4.38
315.247	4.56
315.621	4.46
315.995	4.08
316.369	4.83
316.743	4.69
317.117	4.15
317.491	4.57
317.865	4.66
318.239	4.73
318.613	4.77
318.987	4.71
319.361	4.79
319.734	4.65
320.108	4.61
320.482	5.25
320.855	4.79
321.229	5.02
321.602	4.49
321.976	4.7
322.349	4.78
322.723	5.1
323.096	5.16
323.469	4.95
323.843	5.2
324.216	5.36
324.589	5.35
324.962	5.29
325.335	5.11
325.708	5.39
326.081	4.82
326.454	4.85
326.827	5.79
327.2	5.32
327.573	5.08
327.945	5.16
328.318	5.61
328.691	5.39
329.063	5.93
329.436	5.5
329.809	5.5
330.181	5.79
330.553	5.33
330.926	5.03
331.298	5.84
331.671	6.15
332.043	5.83
332.415	5.63
332.787	5.63
333.159	5.53
333.532	5.75
333.904	5.58
334.276	5.43
334.648	5.87
335.02	5.96
335.391	5.18
335.763	5.77
336.135	5.93
336.507	5.74
336.879	5.93
337.25	5.16
337.622	5.92
337.993	5.66
338.365	5.87
338.736	5.94
339.108	6.42
339.479	5.99
339.851	6.66
340.222	6.04
340.593	5.57
340.964	5.98
341.336	6.56
341.707	6.16
342.078	6.44
342.449	6.11
342.82	5.91
343.191	6.12
343.562	6.19
343.933	6.13
344.303	6.14
344.674	6.34
345.045	6.34
345.416	6.94
345.786	6.54
346.157	6.22
346.527	6.28
346.898	6.2
347.268	6.74
347.639	6.47
348.009	6.36
348.38	6.7
348.75	6.54
349.12	6.82
349.49	6.59
349.861	6.45
350.231	6.45
350.601	6.79
350.971	6.76
351.341	6.79
351.711	6.77
352.081	7.05
352.45	7.01
352.82	6.81
353.19	7.05
353.56	6.98
353.929	6.81
354.299	6.97
354.669	7.26
355.038	6.73
355.408	7.16
355.777	7.21
356.147	7.22
356.516	7.09
356.885	6.75
357.254	7.06
357.624	7.22
357.993	7.42
358.362	7.28
358.731	7.03
359.1	6.93
359.469	7.17
359.838	7.33
360.207	7.49
360.576	7.55
360.945	7.74
361.314	7.47
361.682	7.2
362.051	7.46
362.42	7.4
362.788	7.18
363.157	7.27
363.525	7.17
363.894	7.52
364.262	7.59
364.631	7.69
364.999	7.66
365.367	7.36
365.735	7.85
366.104	7.75
366.472	7.74
366.84	7.6
367.208	8
367.576	7.73
367.944	7.96
368.312	7.83
368.68	8.18
369.048	7.79
369.416	7.93
369.783	7.94
370.151	8.36
370.519	8.12
370.886	7.94
371.254	7.91
371.621	8.4
371.989	7.94
372.356	8.24
372.724	8.3
373.091	8.06
373.458	8.36
373.826	8.24
374.193	8.36
374.56	8.25
374.927	8.7
375.294	8.57
375.661	8.28
376.028	8.42
376.395	8.44
376.762	8.58
377.129	8.16
377.496	8.43
377.863	8.69
378.229	8.51
378.596	8.35
378.963	8.51
379.329	8.64
379.696	8.68
380.062	8.87
380.429	9.04
380.795	8.72
381.161	8.81
381.528	8.85
381.894	8.72
382.26	8.79
382.626	8.73
382.993	9.03
383.359	8.99
383.725	9.01
384.091	9.3
384.457	8.98
384.823	9.32
385.188	8.86
385.554	8.96
385.92	9.02
386.286	8.95
386.651	9.1
387.017	9.19
387.383	8.95
387.748	9.29
388.114	8.96
388.479	9.3
388.845	9.31
389.21	9.5
389.575	9.48
389.94	9.52
390.306	9.55
390.671	9.27
391.036	9.51
391.401	9.47
391.766	9.41
392.131	9.41
392.496	9.8
392.861	9.56
393.226	9.37
393.591	9.47
393.956	9.49
394.32	9.43
394.685	9.85
395.05	9.88
395.414	9.81
395.779	9.81
396.143	9.76
396.508	9.78
396.872	9.85
397.236	9.73
397.601	9.95
397.965	10.13
398.329	10.16
398.694	10.12
399.058	9.99
399.422	10.11
399.786	10.14
400.15	10
400.514	9.94
400.878	10.18
401.242	10.09
401.605	10.17
401.969	10.14
402.333	10.18
402.697	10.32
403.06	10.37
403.424	10.54
403.787	10.19
404.151	10.23
404.514	10.3
404.878	10.38
405.241	10.31
405.604	10.21
405.968	10.3
406.331	10.47
406.694	10.23
407.057	10.37
407.42	10.55
407.783	10.48
408.146	10.49
408.509	10.6
408.872	10.53
409.235	10.86
409.598	10.74
409.961	10.61
410.323	10.77
410.686	10.99
411.049	10.83
411.411	10.48
411.774	10.97
412.136	10.6
412.499	10.61
412.861	10.99
413.223	10.9
413.586	11.07
413.948	10.86
414.31	11.17
414.672	10.8
415.035	11.09
415.397	11.07
415.759	11.04
416.121	11.08
416.483	11.01
416.845	11.41
417.206	11.07
417.568	10.78
417.93	11.2
418.292	11.27
418.653	11.11
419.015	11.17
419.377	11.06
419.738	11.08
420.1	11.31
420.461	11.01
420.822	11.18
421.184	11.17
421.545	11.24
421.906	11.1
422.267	11.16
422.629	11.08
422.99	11.15
423.351	11.19
423.712	11.3
424.073	11.54
424.434	11.54
424.795	11.46
425.155	11.35
425.516	11.34
425.877	11.36
426.238	11.44
426.598	11.54
426.959	11.71
427.32	11.72
427.68	11.98
428.041	12.09
428.401	11.97
428.761	12.3
429.122	12.3
429.482	12.38
429.842	12.24
430.202	12.33
430.563	12.37
430.923	12.46
431.283	12.52
431.643	12.51
432.003	12.52
432.363	12.47
432.722	12.56
433.082	12.63
433.442	12.57
433.802	12.58
434.161	12.73
434.521	12.39
434.881	12.42
435.24	12.48
435.6	12.55
435.959	12.6
436.319	12.98
436.678	12.93
437.037	13.03
437.396	12.97
437.756	13.25
438.115	13.14
438.474	13.03
438.833	13.1
439.192	13.18
439.551	13.11
439.91	13.26
440.269	13.28
440.628	13.28
440.987	13.18
441.345	13.12
441.704	13.15
442.063	13.24
442.421	13.24
442.78	13.23
443.138	13.42
443.497	13.57
443.855	13.65
444.214	13.82
444.572	13.81
444.93	13.8
445.288	13.65
445.647	13.82
446.005	13.74
446.363	13.87
446.721	13.63
447.079	13.61
447.437	13.52
447.795	13.55
448.153	13.5
448.51	13.58
448.868	13.81
449.226	13.91
449.584	13.96
449.941	14.08
450.299	14.14
450.656	14.41
451.014	14.52
451.371	14.37
451.729	14.56
452.086	14.61
452.443	14.69
452.801	14.85
453.158	14.67
453.515	14.46
453.872	14.6
454.229	14.67
454.586	14.68
454.943	14.75
455.3	14.73
455.657	15.1
456.014	15.06
456.371	14.87
456.727	14.88
457.084	15.08
457.441	15.15
457.797	15.01
458.154	15.36
458.51	15.24
458.867	15.35
459.223	15.06
459.58	15.15
459.936	15.26
460.292	15.2
460.648	15.08
461.005	14.87
461.361	14.81
461.717	14.82
462.073	15.04
462.429	15.36
462.785	15.52
463.141	15.7
463.496	15.76
463.852	15.92
464.208	15.9
464.564	16
464.919	16.01
465.275	16.08
465.631	16.21
465.986	16.12
466.342	15.99
466.697	15.98
467.052	16.13
467.408	16.06
467.763	16.29
468.118	16.16
468.473	16.32
468.829	16.12
469.184	16.07
469.539	16.32
469.894	16.34
470.249	16.57
470.603	16.53
470.958	16.64
471.313	16.72
471.668	16.58
472.023	16.78
472.377	16.76
472.732	16.9
473.086	16.83
473.441	16.98
473.795	16.93
474.15	16.85
474.504	17
474.859	16.94
475.213	17.03
475.567	17.01
475.921	17.13
476.275	17.24
476.63	17.28
476.984	17.3
477.338	17.3
477.692	17.28
478.045	17.02
478.399	17.13
478.753	17.27
479.107	17.41
479.461	17.38
479.814	17.42
480.168	17.38
480.521	17.59
480.875	17.58
481.228	17.57
481.582	17.55
481.935	17.72
482.289	17.53
482.642	17.51
482.995	17.49
483.348	17.52
483.701	17.45
484.055	17.46
484.408	17.22
484.761	16.93
485.114	16.58
485.466	16.27
485.819	16.48
486.172	16.86
486.525	17.31
486.878	17.54
487.23	17.55
487.583	17.72
487.936	17.67
488.288	17.53
488.641	17.24
488.993	17.08
489.345	17.23
489.698	17.32
490.05	17.49
490.402	17.66
490.754	17.9
491.107	18.23
491.459	18.33
491.811	18.37
492.163	18.43
492.515	18.16
492.866	17.71
493.218	17.39
493.57	17.56
493.922	17.96
494.274	18.34
494.625	18.64
494.977	18.77
495.328	18.81
495.68	18.99
496.031	19.22
496.383	19.11
496.734	19.18
497.086	19.36
497.437	19.26
497.788	19.08
498.139	18.8
498.49	18.98
498.842	18.95
499.193	19.12
499.544	19.23
499.894	19.29
500.245	19.34
500.596	19.25
500.947	19.48
501.298	19.61
501.648	19.73
501.999	19.74
502.35	19.83
502.7	19.68
503.051	19.82
503.401	20.09
503.752	19.86
504.102	19.96
504.452	19.95
504.803	20.13
505.153	20.17
505.503	20.07
505.853	20.12
506.203	20.02
506.553	20.21
506.903	20.27
507.253	20.16
507.603	20.15
507.953	20.3
508.303	20.32
508.652	20.34
509.002	20.39
509.352	20.23
509.701	20.13
510.051	20.05
510.4	20.1
510.75	20.18
511.099	20.29
511.449	20.22
511.798	20.42
512.147	20.36
512.496	20.51
512.846	20.57
513.195	20.65
513.544	20.45
513.893	20.46
514.242	20.64
514.591	20.65
514.939	20.73
515.288	20.76
515.637	20.74
515.986	21.08
516.334	21.12
516.683	21.06
517.032	21.13
517.38	21.29
517.729	21.19
518.077	21.2
518.426	21.16
518.774	21.19
519.122	20.96
519.47	21
519.819	20.91
520.167	20.54
520.515	20.67
520.863	20.77
521.211	20.89
521.559	21.18
521.907	21.18
522.255	21.35
522.602	21.54
522.95	21.44
523.298	21.7
523.645	21.72
523.993	21.76
524.341	21.75
524.688	21.82
525.036	22.02
525.383	21.85
525.73	21.92
526.078	21.73
526.425	21.55
526.772	21.59
527.119	21.25
527.466	21.24
527.814	21.32
528.161	21.49
528.508	21.66
528.854	21.65
529.201	21.56
529.548	21.2
529.895	20.68
530.242	20.41
530.588	20.62
530.935	21.04
531.282	21.41
531.628	21.58
531.975	21.67
532.321	21.82
532.667	21.99
533.014	22.02
533.36	22.03
533.706	22.05
534.052	21.97
534.399	21.7
534.745	21.4
535.091	21.28
535.437	21.45
535.783	21.88
536.129	22.32
536.474	22.45
536.82	22.61
537.166	22.6
537.512	22.74
537.857	22.37
538.203	22.08
538.549	22.19
538.894	22.27
539.239	22.58
539.585	22.82
539.93	22.95
540.276	23.1
540.621	23.31
540.966	23.26
541.311	23.19
541.656	23
542.001	22.87
542.346	22.44
542.691	22.04
543.036	21.66
543.381	22.03
543.726	22.3
544.071	22.59
544.415	22.78
544.76	22.77
545.105	22.78
545.449	22.92
545.794	23.17
546.138	23.39
546.483	23.42
546.827	23.4
547.171	23.45
547.516	23.33
547.86	23.4
548.204	23.28
548.548	23.29
548.892	23.47
549.236	23.56
549.58	23.77
549.924	23.86
550.268	24.14
550.612	24.33
550.956	24.24
551.3	24.68
551.643	24.5
551.987	24.3
552.33	24.46
552.674	24.63
553.017	24.64
553.361	24.51
553.704	24.68
554.048	24.49
554.391	24.26
554.734	24.39
555.077	24.38
555.42	24.64
555.764	24.62
556.107	25.01
556.45	25.19
556.793	24.89
557.135	24.72
557.478	25.12
557.821	25.14
558.164	25.09
558.507	25.19
558.849	25.03
559.192	25.22
559.534	25.11
559.877	25.18
560.219	25.34
560.562	25.4
560.904	25.5
561.246	25.34
561.589	25.52
561.931	25.49
562.273	25.44
562.615	25.07
562.957	25.5
563.299	25.44
563.641	25.56
563.983	25.6
564.325	25.69
564.667	25.61
565.008	25.8
565.35	25.83
565.692	25.83
566.033	25.82
566.375	25.98
566.716	25.62
567.058	25.66
567.399	25.48
567.741	25.49
568.082	25.44
568.423	25.45
568.764	25.72
569.105	25.9
569.447	25.99
569.788	26.09
570.129	26.06
570.47	26.37
570.811	26.31
571.151	26.19
571.492	26.41
571.833	26.26
572.174	26.27
572.514	26.24
572.855	26.44
573.195	25.89
573.536	26.07
573.876	25.81
574.217	25.96
574.557	26.17
574.898	26.14
575.238	26.43
575.578	26.6
575.918	26.43
576.258	26.56
576.598	26.45
576.938	26.43
577.278	26.51
577.618	26.51
577.958	26.6
578.298	26.86
578.638	26.81
578.977	26.95
579.317	26.84
579.657	27.05
579.996	27.12
580.336	27.3
580.675	26.99
581.014	27.32
581.354	27.21
581.693	27.41
582.032	27.33
582.372	27.48
582.711	27.54
583.05	27.4
583.389	27.41
583.728	27.57
584.067	27.61
584.406	27.33
584.745	27.48
585.083	27.55
585.422	27.58
585.761	27.52
586.1	27.65
586.438	27.97
586.777	27.71
587.115	27.86
587.454	27.8
587.792	28.18
588.13	27.81
588.469	27.91
588.807	28.03
589.145	27.97
589.483	28.1
589.821	28.04
590.159	27.88
590.497	28.24
590.835	28.09
591.173	28.01
591.511	28.14
591.849	28.12
592.187	28.34
592.524	28.08
592.862	28.16
593.2	28.27
593.537	28.54
593.875	28.49
594.212	28.27
594.55	28.51
594.887	28.95
595.224	28.77
595.561	28.33
595.899	28.31
596.236	28.38
596.573	28.35
596.91	28.62
597.247	28.86
597.584	28.57
597.921	28.63
598.258	28.46
598.594	28.11
598.931	28.19
599.268	28.24
599.604	28.44
599.941	28.6
600.277	28.69
600.614	28.92
600.95	28.86
601.287	29.03
601.623	29.18
601.959	29.17
602.296	29.25
602.632	29.62
602.968	29.45
603.304	29.36
603.64	29.32
603.976	29.29
604.312	29.26
604.648	29.21
604.984	28.8
605.319	28.79
605.655	28.83
605.991	28.82
606.326	28.77
606.662	28.81
606.998	28.78
607.333	29.25
607.668	29.29
608.004	29.39
608.339	29.48
608.674	29.61
609.01	29.72
609.345	30.19
609.68	30.13
610.015	29.68
610.35	29.65
610.685	29.43
611.02	29.21
611.355	29.29
611.689	29.41
612.024	29.54
612.359	29.52
612.694	30.05
613.028	29.79
613.363	30.1
613.697	30.3
614.032	30.46
614.366	30.38
614.7	30.43
615.035	30.22
615.369	30.56
615.703	30.55
616.037	30.15
616.371	30.27
616.705	30.66
617.039	30.31
617.373	30.45
617.707	30.47
618.041	30.72
618.375	30.78
618.709	30.54
619.042	30.64
619.376	30.59
619.71	30.37
620.043	30.73
620.377	30.63
620.71	31.04
621.043	30.89
621.377	31.29
621.71	30.83
622.043	30.78
622.376	30.61
622.709	30.98
623.043	31.32
623.376	30.89
623.709	30.98
624.041	30.95
624.374	31.46
624.707	31.27
625.04	31.35
625.373	31.29
625.705	31.06
626.038	31.2
626.37	31.33
626.703	31.14
627.035	31.17
627.368	31.43
627.7	31.21
628.032	31.07
628.365	30.96
628.697	31.49
629.029	31.12
629.361	31.36
629.693	31.4
630.025	31.35
630.357	31.46
630.689	31.78
631.021	31.65
631.353	31.65
631.684	31.79
632.016	31.67
632.348	32.1
632.679	31.71
633.011	31.92
633.342	31.96
633.674	31.72
634.005	31.99
634.336	32.18
634.668	32.25
634.999	31.99
635.33	32.03
635.661	32.13
635.992	31.74
636.323	31.93
636.654	32.16
636.985	32
637.316	32.15
637.647	32.16
637.977	32.22
638.308	32.35
638.639	32.21
638.969	32.53
639.3	32.48
639.63	32.65
639.961	32.51
640.291	33
640.622	32.49
640.952	32.89
641.282	32.79
641.612	32.47
641.943	32.27
642.273	33.11
642.603	32.9
642.933	33.09
643.263	32.66
643.592	32.92
643.922	32.82
644.252	33.18
644.582	32.91
644.911	33.33
645.241	32.55
645.571	33.18
645.9	33.18
646.23	33.01
646.559	32.97
646.888	32.76
647.218	33.11
647.547	32.99
647.876	32.97
648.205	33.26
648.534	32.89
648.863	32.61
649.192	33.14
649.521	33.14
649.85	33.16
650.179	33.33
650.508	33.54
650.837	33.03
651.165	33.23
651.494	33.02
651.822	33.41
652.151	33.6
652.479	33.3
652.808	33.38
653.136	33.63
653.465	33.54
653.793	33.52
654.121	33.49
654.449	33.52
654.777	33.35
655.105	33.84
655.433	33.62
655.761	34.42
656.089	34.32
656.417	33.95
656.745	33.22
657.073	33.56
657.4	33.89
657.728	34.13
658.056	33.95
658.383	34.14
658.711	33.96
659.038	34.25
659.365	34.17
659.693	33.94
660.02	33.85
660.347	33.85
660.674	33.45
661.001	33.45
661.329	33.72
661.656	33.86
661.982	33.97
662.309	34.25
662.636	34.57
662.963	34.36
663.29	34.4
663.616	34.53
663.943	33.96
664.27	33.85
664.596	34.13
664.923	34.53
665.249	34.5
665.576	34.59
665.902	34.34
666.228	34.97
666.554	34.43
666.881	34.64
667.207	34.67
667.533	34.7
667.859	35.1
668.185	35.03
668.511	34.78
668.837	35.1
669.162	34.76
669.488	34.84
669.814	34.62
670.139	34.6
670.465	34.79
670.791	34.49
671.116	34.42
671.442	34.92
671.767	35
672.092	34.64
672.418	35.07
672.743	34.9
673.068	35.37
673.393	34.68
673.718	34.76
