Data from 815643_crown_Reflection__3__22.txt Node

Date: Fri Sep 16 14:20:01 CDT 2022
User: ToomeyLab
Spectrometer: FLMS14357
Trigger mode: 0
Integration Time (sec): 1.000000E-2
Scans to average: 100
Electric dark correction enabled: true
Nonlinearity correction enabled: false
Boxcar width: 0
XAxis mode: Wavelengths
Number of Pixels in Spectrum: 2048
>>>>>Begin Spectral Data<<<<<
189.047	-84.46
189.435	-84.46
189.823	-84.46
190.211	482.71
190.599	186.61
190.987	-152.44
191.375	2.04
191.763	-272.95
192.151	322.58
192.538	375.33
192.926	134.52
193.314	-151.96
193.702	339.62
194.089	-19.02
194.477	160.82
194.864	-26.36
195.252	2.36
195.639	516.43
196.027	-346.25
196.414	165.41
196.801	131.92
197.189	20.08
197.576	-122.41
197.963	-322.05
198.351	9.9
198.738	25.85
199.125	30.16
199.512	40.14
199.899	-30
200.286	-17.68
200.673	-7.49
201.06	-8.52
201.447	-45.43
201.833	28.88
202.22	-49.68
202.607	1.96
202.994	16.73
203.38	-43.1
203.767	-9.23
204.154	21.19
204.54	9.85
204.927	12.88
205.313	-38.77
205.699	-6.7
206.086	-28.88
206.472	-15.86
206.858	-41.25
207.245	18.51
207.631	-23.8
208.017	-20.68
208.403	18.63
208.789	6.85
209.175	-25.3
209.561	-11.96
209.947	-22.42
210.333	-41.19
210.719	4.36
211.105	5.55
211.491	-12.24
211.876	-39.08
212.262	-12.65
212.648	7.67
213.034	-0.51
213.419	9.81
213.805	40.51
214.19	4.38
214.576	-28.89
214.961	1.48
215.346	-14.98
215.732	-12.34
216.117	1.4
216.502	-12.06
216.888	-23.9
217.273	-1.61
217.658	-27.29
218.043	8.54
218.428	8.94
218.813	12.44
219.198	-22.87
219.583	11.51
219.968	-10.44
220.353	-0.03
220.738	-24.26
221.122	3.44
221.507	-3.58
221.892	13
222.276	-4.71
222.661	-6.2
223.046	4.3
223.43	-0.22
223.815	-0.39
224.199	-5.42
224.583	-4.95
224.968	-4.29
225.352	-8.8
225.736	4.48
226.121	-3.09
226.505	2.83
226.889	2.99
227.273	4.82
227.657	4.55
228.041	-0.06
228.425	4.5
228.809	-2.79
229.193	2.62
229.577	3.38
229.961	3.18
230.344	3.15
230.728	2.32
231.112	2.68
231.495	3.33
231.879	3.21
232.263	1.64
232.646	2.29
233.03	2.72
233.413	1.75
233.797	5.77
234.18	0.67
234.563	0.57
234.946	2.76
235.33	1.63
235.713	1.21
236.096	2.62
236.479	2.6
236.862	2.41
237.245	1.9
237.628	1.67
238.011	3.03
238.394	2.74
238.777	3.55
239.16	1.64
239.543	1.3
239.925	1.53
240.308	4.1
240.691	1.63
241.073	2.65
241.456	1.73
241.838	2.98
242.221	1.85
242.603	3.31
242.986	3.38
243.368	3.23
243.75	3.05
244.133	2.88
244.515	3.07
244.897	3.81
245.279	3.51
245.661	2.65
246.043	2.73
246.425	3.14
246.807	3.24
247.189	2.95
247.571	2.28
247.953	3.43
248.335	3.35
248.717	2.9
249.098	3.01
249.48	3.61
249.862	3.22
250.243	3.12
250.625	2.78
251.006	3.28
251.388	2.67
251.769	3.18
252.151	3.75
252.532	2.6
252.913	2.33
253.295	3.32
253.676	3.59
254.057	2.81
254.438	2.69
254.819	3.7
255.2	1.93
255.581	2.98
255.962	2.49
256.343	2.05
256.724	3.27
257.105	3.28
257.486	3.49
257.867	2.31
258.247	2.48
258.628	3.86
259.009	2.82
259.389	2.82
259.77	2.66
260.15	2.91
260.531	2.96
260.911	2.55
261.292	2.81
261.672	2.85
262.052	3.1
262.432	3.07
262.813	3.38
263.193	3.02
263.573	2.72
263.953	2.6
264.333	3.25
264.713	3.24
265.093	2.35
265.473	2.42
265.853	2.74
266.233	2.59
266.612	3.45
266.992	2.15
267.372	2.52
267.752	2.6
268.131	3.24
268.511	2.76
268.89	2.29
269.27	2.5
269.649	2.52
270.029	2.58
270.408	2.81
270.787	3.43
271.167	2.69
271.546	2.7
271.925	2.26
272.304	2.78
272.683	2.06
273.062	2.71
273.441	2.69
273.82	2.39
274.199	2.61
274.578	2.91
274.957	2.33
275.336	2.86
275.715	2.04
276.093	2.51
276.472	2.6
276.851	2.88
277.229	2.57
277.608	2.4
277.986	2.23
278.365	2.36
278.743	2.61
279.122	2.23
279.5	2.24
279.878	2.84
280.257	2.84
280.635	2.41
281.013	2.61
281.391	2.79
281.769	2.81
282.147	2.78
282.525	2.88
282.903	2.66
283.281	2.82
283.659	2.74
284.037	2.87
284.415	2.82
284.792	2.63
285.17	2.99
285.548	2.2
285.925	2.61
286.303	2.3
286.68	2.61
287.058	2.53
287.435	2.93
287.813	2.58
288.19	2.69
288.567	2.44
288.945	3.08
289.322	2.14
289.699	2.14
290.076	2.39
290.453	2.96
290.83	2.94
291.207	2.48
291.584	2.57
291.961	3.05
292.338	2.47
292.715	2.4
293.092	2.34
293.469	2.09
293.845	2.08
294.222	2.59
294.599	2.82
294.975	2.4
295.352	2.88
295.728	2.37
296.105	2.51
296.481	1.99
296.858	2.92
297.234	2.53
297.61	2.51
297.986	2.21
298.363	2.23
298.739	2.57
299.115	2.79
299.491	2.59
299.867	2.65
300.243	2.75
300.619	2.91
300.995	2.31
301.371	2.64
301.746	2.46
302.122	2.67
302.498	2.47
302.874	2.3
303.249	2.58
303.625	2.49
304	2.66
304.376	2.06
304.751	3.08
305.127	2.57
305.502	2.22
305.878	1.95
306.253	2.32
306.628	2.42
307.003	2.36
307.378	2.93
307.754	2.05
308.129	2.49
308.504	2.76
308.879	2.29
309.254	2.82
309.629	2.68
310.003	2.75
310.378	2.6
310.753	2.28
311.128	2.13
311.502	2.46
311.877	2.38
312.252	1.94
312.626	2.68
313.001	2.53
313.375	2.26
313.75	2.66
314.124	2.69
314.498	2.47
314.873	1.88
315.247	2.89
315.621	2.38
315.995	2.06
316.369	2.42
316.743	2.76
317.117	2.24
317.491	2.42
317.865	2.22
318.239	2.89
318.613	2.18
318.987	2.67
319.361	2.59
319.734	2.15
320.108	2
320.482	2.43
320.855	2.48
321.229	2.62
321.602	2.22
321.976	2.08
322.349	2.11
322.723	2.21
323.096	2.7
323.469	2.61
323.843	2.19
324.216	2.83
324.589	2.14
324.962	2.34
325.335	2.08
325.708	2.41
326.081	2.53
326.454	2.45
326.827	2.7
327.2	2.53
327.573	2.07
327.945	2.44
328.318	2.53
328.691	2.25
329.063	2.84
329.436	2.56
329.809	2.48
330.181	2.54
330.553	2.3
330.926	2.11
331.298	2.81
331.671	2.27
332.043	2.16
332.415	2.68
332.787	2.3
333.159	2.2
333.532	2.25
333.904	2.42
334.276	2.8
334.648	2.79
335.02	2.96
335.391	2.02
335.763	2.43
336.135	2.19
336.507	2.24
336.879	2.42
337.25	2.25
337.622	2.47
337.993	1.93
338.365	2.53
338.736	2.77
339.108	2.56
339.479	2.65
339.851	2.72
340.222	2.64
340.593	2.12
340.964	2.26
341.336	2.54
341.707	2.32
342.078	2.29
342.449	2.2
342.82	2.18
343.191	2.49
343.562	2.73
343.933	2.67
344.303	2.3
344.674	2.36
345.045	2.81
345.416	2.91
345.786	2.31
346.157	2.48
346.527	2.27
346.898	2.32
347.268	2.72
347.639	2.44
348.009	2.36
348.38	2.43
348.75	2.32
349.12	2.28
349.49	2.15
349.861	2.29
350.231	2.39
350.601	2.79
350.971	2
351.341	2.77
351.711	2.79
352.081	2.65
352.45	2.77
352.82	2.7
353.19	2.72
353.56	2.73
353.929	2.19
354.299	2.6
354.669	2.88
355.038	2.5
355.408	2.77
355.777	2.49
356.147	2.47
356.516	2.4
356.885	2.58
357.254	2.55
357.624	2.53
357.993	2.77
358.362	2.51
358.731	2.52
359.1	2.61
359.469	2.43
359.838	2.68
360.207	2.78
360.576	2.89
360.945	2.81
361.314	2.67
361.682	2.38
362.051	2.71
362.42	2.52
362.788	2.54
363.157	2.55
363.525	2.34
363.894	2.69
364.262	2.82
364.631	2.52
364.999	2.96
365.367	2.49
365.735	2.69
366.104	2.45
366.472	2.81
366.84	2.61
367.208	2.57
367.576	2.51
367.944	2.71
368.312	2.72
368.68	2.83
369.048	2.45
369.416	2.9
369.783	2.46
370.151	2.83
370.519	2.87
370.886	2.58
371.254	2.39
371.621	2.7
371.989	2.61
372.356	2.71
372.724	2.7
373.091	2.66
373.458	2.62
373.826	2.55
374.193	2.79
374.56	2.47
374.927	2.75
375.294	2.63
375.661	2.46
376.028	2.6
376.395	2.71
376.762	2.88
377.129	2.45
377.496	2.6
377.863	2.78
378.229	2.85
378.596	2.53
378.963	2.7
379.329	2.65
379.696	2.89
380.062	2.75
380.429	2.9
380.795	2.94
381.161	2.98
381.528	2.96
381.894	2.85
382.26	3
382.626	3.02
382.993	2.98
383.359	2.96
383.725	2.61
384.091	3
384.457	2.48
384.823	2.89
385.188	2.59
385.554	2.84
385.92	2.96
386.286	2.64
386.651	2.9
387.017	2.61
387.383	2.48
387.748	2.83
388.114	2.66
388.479	2.95
388.845	2.83
389.21	2.99
389.575	2.8
389.94	2.63
390.306	2.93
390.671	2.95
391.036	2.87
391.401	2.68
391.766	2.75
392.131	2.82
392.496	3.06
392.861	2.91
393.226	2.76
393.591	2.83
393.956	2.71
394.32	2.73
394.685	3.03
395.05	3.05
395.414	2.72
395.779	2.8
396.143	2.79
396.508	2.91
396.872	2.82
397.236	2.86
397.601	2.91
397.965	3.08
398.329	3.16
398.694	2.84
399.058	2.83
399.422	2.97
399.786	2.98
400.15	2.83
400.514	2.6
400.878	2.95
401.242	2.83
401.605	2.97
401.969	2.66
402.333	3.02
402.697	2.93
403.06	2.96
403.424	2.9
403.787	2.95
404.151	2.92
404.514	2.68
404.878	2.9
405.241	2.92
405.604	2.92
405.968	2.99
406.331	3.05
406.694	2.92
407.057	2.96
407.42	3.1
407.783	3.01
408.146	2.78
408.509	3.07
408.872	2.82
409.235	2.97
409.598	3.08
409.961	2.72
410.323	2.91
410.686	3.01
411.049	2.92
411.411	3.06
411.774	2.97
412.136	2.91
412.499	2.95
412.861	2.92
413.223	2.86
413.586	3.05
413.948	2.71
414.31	3.06
414.672	2.81
415.035	3.06
415.397	3.22
415.759	2.92
416.121	2.87
416.483	2.78
416.845	3.01
417.206	2.75
417.568	2.78
417.93	2.88
418.292	2.93
418.653	3.02
419.015	3
419.377	2.95
419.738	2.93
420.1	2.98
420.461	2.92
420.822	2.81
421.184	2.85
421.545	2.99
421.906	2.83
422.267	3
422.629	2.77
422.99	2.86
423.351	2.83
423.712	2.85
424.073	2.99
424.434	2.98
424.795	2.86
425.155	2.84
425.516	2.83
425.877	2.91
426.238	2.86
426.598	2.85
426.959	2.87
427.32	2.95
427.68	3.04
428.041	3.04
428.401	2.91
428.761	3.15
429.122	3.03
429.482	3.05
429.842	3.04
430.202	2.96
430.563	3.03
430.923	3.1
431.283	3.08
431.643	2.92
432.003	2.83
432.363	3.06
432.722	2.95
433.082	3.07
433.442	3.04
433.802	2.88
434.161	2.95
434.521	2.95
434.881	3.02
435.24	2.92
435.6	3.02
435.959	3
436.319	3.06
436.678	3.04
437.037	2.94
437.396	2.81
437.756	3.07
438.115	3.08
438.474	2.94
438.833	3.09
439.192	3.02
439.551	2.78
439.91	2.87
440.269	2.99
440.628	3.07
440.987	3
441.345	2.91
441.704	3.03
442.063	2.97
442.421	3.01
442.78	3
443.138	3.07
443.497	3.06
443.855	3.07
444.214	3.11
444.572	3.03
444.93	3.1
445.288	2.98
445.647	3.02
446.005	2.87
446.363	3
446.721	2.99
447.079	2.99
447.437	2.91
447.795	2.97
448.153	2.85
448.51	2.89
448.868	2.98
449.226	2.94
449.584	2.96
449.941	2.97
450.299	2.91
450.656	2.97
451.014	3.13
451.371	2.97
451.729	2.99
452.086	3.05
452.443	3.08
452.801	3.13
453.158	3.01
453.515	2.95
453.872	2.94
454.229	2.93
454.586	3.05
454.943	3.18
455.3	3.06
455.657	3.21
456.014	3.09
456.371	3.03
456.727	2.99
457.084	3.1
457.441	3.04
457.797	2.97
458.154	3.09
458.51	3.01
458.867	3.12
459.223	3.04
459.58	2.85
459.936	3.14
460.292	2.94
460.648	2.97
461.005	2.89
461.361	2.89
461.717	2.98
462.073	2.95
462.429	3.04
462.785	3.07
463.141	3.02
463.496	3.11
463.852	3.23
464.208	3.17
464.564	3.12
464.919	3.03
465.275	3.02
465.631	3.08
465.986	3.03
466.342	3.17
466.697	2.96
467.052	3.12
467.408	3.01
467.763	3.21
468.118	3.11
468.473	3.2
468.829	3.02
469.184	3.03
469.539	3.11
469.894	2.89
470.249	3.14
470.603	3.22
470.958	3.11
471.313	3.19
471.668	2.99
472.023	3.11
472.377	3.07
472.732	3.14
473.086	3.04
473.441	3.15
473.795	3.02
474.15	2.91
474.504	3.05
474.859	3.1
475.213	3.07
475.567	2.93
475.921	3.24
476.275	3.12
476.63	3.14
476.984	3.01
477.338	3.14
477.692	3.16
478.045	2.89
478.399	3.11
478.753	3.06
479.107	3.07
479.461	3.16
479.814	3.12
480.168	3.07
480.521	3.23
480.875	3.09
481.228	3.09
481.582	3.08
481.935	3.12
482.289	3.05
482.642	3.1
482.995	2.96
483.348	3.04
483.701	3.06
484.055	3.03
484.408	2.99
484.761	2.92
485.114	2.8
485.466	2.75
485.819	2.78
486.172	2.89
486.525	3.03
486.878	3.12
487.23	3.05
487.583	3.04
487.936	3.05
488.288	2.96
488.641	2.94
488.993	2.87
489.345	2.88
489.698	2.92
490.05	2.95
490.402	3.04
490.754	3.04
491.107	3.12
491.459	3.12
491.811	3.11
492.163	3.08
492.515	3.04
492.866	2.94
493.218	2.84
493.57	2.89
493.922	2.97
494.274	3.11
494.625	3.16
494.977	3.12
495.328	3.08
495.68	3.13
496.031	3.17
496.383	3.21
496.734	3.26
497.086	3.19
497.437	2.99
497.788	2.99
498.139	2.95
498.49	3.12
498.842	3.07
499.193	3.14
499.544	3.09
499.894	3.08
500.245	3.22
500.596	3.03
500.947	3.11
501.298	3.17
501.648	3.15
501.999	3.28
502.35	3.14
502.7	3.11
503.051	3.14
503.401	3.14
503.752	3.1
504.102	3.26
504.452	3.1
504.803	3.17
505.153	3.18
505.503	3.19
505.853	3.13
506.203	3.12
506.553	3
506.903	3.21
507.253	3.21
507.603	3.1
507.953	3.15
508.303	3.24
508.652	3.12
509.002	3.22
509.352	3.17
509.701	3.15
510.051	3.11
510.4	3.06
510.75	3.11
511.099	3.06
511.449	3.03
511.798	3.14
512.147	3.14
512.496	3.11
512.846	3.13
513.195	3.16
513.544	3.11
513.893	3.15
514.242	3.22
514.591	3.14
514.939	3.08
515.288	3.24
515.637	3.22
515.986	3.12
516.334	3.18
516.683	3.13
517.032	3.22
517.38	3.13
517.729	3.17
518.077	3.25
518.426	3.13
518.774	2.99
519.122	3.15
519.47	3.17
519.819	3.1
520.167	3.05
520.515	3.03
520.863	3.05
521.211	3.1
521.559	3.17
521.907	3.09
522.255	3.23
522.602	3.19
522.95	3.18
523.298	3.23
523.645	3.19
523.993	3.22
524.341	3.14
524.688	3.08
525.036	3.26
525.383	3.03
525.73	3.14
526.078	3.08
526.425	3.07
526.772	3.05
527.119	3.15
527.466	3.05
527.814	3.07
528.161	3.11
528.508	3.17
528.854	3.14
529.201	3.12
529.548	2.96
529.895	2.95
530.242	2.87
530.588	2.86
530.935	2.94
531.282	3.08
531.628	3.11
531.975	3.1
532.321	3.15
532.667	3.17
533.014	3.14
533.36	3.16
533.706	3.11
534.052	3.09
534.399	2.99
534.745	2.93
535.091	2.93
535.437	2.98
535.783	3.1
536.129	3.17
536.474	3.17
536.82	3.14
537.166	3.2
537.512	3.22
537.857	3.08
538.203	3.07
538.549	3.12
538.894	3.11
539.239	3.05
539.585	3.2
539.93	3.16
540.276	3.18
540.621	3.29
540.966	3.15
541.311	3.11
541.656	3.1
542.001	3.22
542.346	3.05
542.691	2.94
543.036	2.9
543.381	2.96
543.726	3
544.071	3.11
544.415	3.11
544.76	3.14
545.105	3.05
545.449	3.09
545.794	3.11
546.138	3.26
546.483	3.18
546.827	3.21
547.171	3.19
547.516	3.17
547.86	3.19
548.204	3.18
548.548	3.21
548.892	3.08
549.236	3.11
549.58	3.12
549.924	3.13
550.268	3.26
550.612	3.16
550.956	3.05
551.3	3.17
551.643	3.22
551.987	3.22
552.33	3.3
552.674	3.25
553.017	3.37
553.361	3.19
553.704	3.28
554.048	3.25
554.391	3.09
554.734	3.11
555.077	3.17
555.42	3.2
555.764	3.26
556.107	3.3
556.45	3.31
556.793	3.34
557.135	3.21
557.478	3.22
557.821	3.3
558.164	3.25
558.507	3.34
558.849	3.15
559.192	3.16
559.534	3.06
559.877	3.11
560.219	3.19
560.562	3.2
560.904	3.21
561.246	3.24
561.589	3.24
561.931	3.23
562.273	3.16
562.615	2.9
562.957	3.25
563.299	3.18
563.641	3.33
563.983	3.29
564.325	3.07
564.667	3.27
565.008	3.16
565.35	3.16
565.692	3.11
566.033	3.08
566.375	3.26
566.716	3.13
567.058	3.15
567.399	3.09
567.741	3.16
568.082	3.09
568.423	3.15
568.764	3.13
569.105	3.26
569.447	3.17
569.788	3.26
570.129	3.39
570.47	3.34
570.811	3.1
571.151	3.27
571.492	3.27
571.833	3.22
572.174	3.13
572.514	3.32
572.855	3.27
573.195	3.12
573.536	3.16
573.876	2.97
574.217	3.14
574.557	3.33
574.898	3.18
575.238	3.28
575.578	3.32
575.918	3.14
576.258	3.35
576.598	3.27
576.938	3.13
577.278	3.19
577.618	3.22
577.958	3.16
578.298	3.35
578.638	3.24
578.977	3.39
579.317	3.09
579.657	3.28
579.996	3.29
580.336	3.28
580.675	3.23
581.014	3.18
581.354	3.39
581.693	3.29
582.032	3.34
582.372	3.34
582.711	3.14
583.05	3.3
583.389	3.34
583.728	3.26
584.067	3.32
584.406	3.17
584.745	3.4
585.083	3.03
585.422	3.19
585.761	2.96
586.1	2.99
586.438	3.21
586.777	3.2
587.115	3.41
587.454	3.04
587.792	3.32
588.13	3.08
588.469	3.17
588.807	3.35
589.145	3.58
589.483	3.22
589.821	3.51
590.159	3.22
590.497	3.38
590.835	3.3
591.173	2.98
591.511	3.15
591.849	3.39
592.187	3.27
592.524	3.12
592.862	3.13
593.2	3.15
593.537	3.36
593.875	3.43
594.212	3.12
594.55	3.4
594.887	3.32
595.224	3.31
595.561	3.38
595.899	3.28
596.236	3.31
596.573	3.21
596.91	3.25
597.247	3.4
597.584	3.2
597.921	3.26
598.258	3.34
598.594	3.26
598.931	3.18
599.268	3.1
599.604	3.28
599.941	3.21
600.277	3.45
600.614	3.11
600.95	3.08
601.287	3.17
601.623	3.47
601.959	3.28
602.296	3.26
602.632	3.22
602.968	3.28
603.304	3.19
603.64	3.37
603.976	3.11
604.312	3.47
604.648	3.32
604.984	3.17
605.319	3.38
605.655	3.18
605.991	3.26
606.326	3.21
606.662	3.26
606.998	3.19
607.333	3.29
607.668	3.19
608.004	3.36
608.339	3.44
608.674	3.28
609.01	3.3
609.345	3.37
609.68	3.69
610.015	3.15
610.35	3.24
610.685	3.32
611.02	3.22
611.355	3.26
611.689	3.31
612.024	3.24
612.359	3.24
612.694	3.33
613.028	3.39
613.363	3.51
613.697	3.39
614.032	3.45
614.366	3.31
614.7	3
615.035	3.21
615.369	3.27
615.703	3.29
616.037	3.24
616.371	3.29
616.705	3.49
617.039	3.15
617.373	3.11
617.707	3.13
618.041	3.34
618.375	3.43
618.709	3.43
619.042	3.09
619.376	3.33
619.71	3.35
620.043	3.46
620.377	3.21
620.71	3.32
621.043	3.2
621.377	3.65
621.71	3.32
622.043	3.33
622.376	3.01
622.709	3.48
623.043	3.5
623.376	3.03
623.709	3.42
624.041	3.24
624.374	3.64
624.707	3.64
625.04	3.1
625.373	3.52
625.705	3.09
626.038	3.02
626.37	3.44
626.703	2.98
627.035	3.27
627.368	3.55
627.7	3.29
628.032	3.25
628.365	3.35
628.697	3.3
629.029	3.27
629.361	3.45
629.693	3.35
630.025	3.2
630.357	3.26
630.689	3.23
631.021	3.48
631.353	3.32
631.684	3.38
632.016	3.26
632.348	3.38
632.679	3.47
633.011	3.42
633.342	3.13
633.674	3.49
634.005	3.32
634.336	3.46
634.668	3.35
634.999	3.28
635.33	3.27
635.661	3.56
635.992	3.25
636.323	3.1
636.654	3.33
636.985	3.6
637.316	3.2
637.647	3.34
637.977	3.32
638.308	3.35
638.639	3.44
638.969	3.43
639.3	3.47
639.63	3.21
639.961	3.13
640.291	3.67
640.622	3.4
640.952	3.61
641.282	3.62
641.612	3.4
641.943	3.03
642.273	3.44
642.603	3.28
642.933	3.54
643.263	3.1
643.592	3.82
643.922	3.33
644.252	3.26
644.582	3.63
644.911	3.51
645.241	2.88
645.571	3.41
645.9	3.36
646.23	3.61
646.559	3.26
646.888	2.91
647.218	3.35
647.547	3.35
647.876	3.22
648.205	3.64
648.534	3.52
648.863	3.43
649.192	3.36
649.521	3.43
649.85	3.31
650.179	2.97
650.508	3.92
650.837	3.68
651.165	3.26
651.494	3.83
651.822	3.46
652.151	3.28
652.479	3.25
652.808	3.26
653.136	3.67
653.465	3.27
653.793	3.51
654.121	3.64
654.449	3.64
654.777	3.29
655.105	3.54
655.433	3.57
655.761	3.27
656.089	3.22
656.417	3.8
656.745	3.89
657.073	3.46
657.4	3.67
657.728	3.62
658.056	3.49
658.383	3.81
658.711	3.27
659.038	3.72
659.365	3.13
659.693	3.49
660.02	3.2
660.347	3.57
660.674	3.43
661.001	3.51
661.329	3.63
661.656	3.51
661.982	3.22
662.309	3.55
662.636	3.52
662.963	3.73
663.29	3.33
663.616	3.49
663.943	3.38
664.27	3.75
664.596	3.14
664.923	3.58
665.249	3.85
665.576	3.65
665.902	3.55
666.228	3.24
666.554	3.3
666.881	3.29
667.207	3.34
667.533	3.57
667.859	4.03
668.185	3.64
668.511	3.59
668.837	3.16
669.162	3.37
669.488	3.21
669.814	3.55
670.139	3.12
670.465	3.67
670.791	3.29
671.116	3.6
671.442	3.61
671.767	3.05
672.092	3.1
672.418	3.48
672.743	3.44
673.068	3
673.393	3.24
673.718	3.91
674.043	3.54
674.368	3.46
674.693	3.85
675.018	3.89
675.343	3.42
675.667	3.46
675.992	3.3
676.317	3.12
676.641	3.1
676.966	2.77
677.29	4.03
677.615	3.57
677.939	4.14
678.264	3.61
678.588	2.89
678.912	3.42
679.236	3.92
679.56	3.76
679.885	3.27
680.209	3.66
680.532	3.54
680.856	3.8
681.18	3.45
681.504	3.69
681.828	3.65
682.152	3.13
682.475	3.56
682.799	3.71
683.122	3.81
683.446	3.75
683.769	3.79
684.093	3.59
684.416	3.34
684.739	4.27
685.062	3.79
685.386	4.06
685.709	2.98
686.032	3.65
686.355	2.59
686.678	3.45
687.001	3.54
687.324	3.17
687.646	2.83
687.969	3.63
688.292	3.07
688.614	2.77
688.937	3.52
689.26	3.88
689.582	3.25
689.904	3.41
690.227	4.1
690.549	3.81
690.871	3.75
691.194	3.71
691.516	3.3
691.838	4.34
692.16	3.38
