Data from 815643_crown_Reflection__4__23.txt Node

Date: Fri Sep 16 14:20:30 CDT 2022
User: ToomeyLab
Spectrometer: FLMS14357
Trigger mode: 0
Integration Time (sec): 1.000000E-2
Scans to average: 100
Electric dark correction enabled: true
Nonlinearity correction enabled: false
Boxcar width: 0
XAxis mode: Wavelengths
Number of Pixels in Spectrum: 2048
>>>>>Begin Spectral Data<<<<<
189.047	-62.06
189.435	-62.06
189.823	-62.06
190.211	-187.8
190.599	174.55
190.987	-219.71
191.375	-32.95
191.763	-2.61
192.151	-63.55
192.538	-501.54
192.926	42.4
193.314	32.28
193.702	-244.34
194.089	70.9
194.477	-56.22
194.864	-20.02
195.252	-538.61
195.639	132.63
196.027	576.48
196.414	44.79
196.801	98.01
197.189	38.68
197.576	7.64
197.963	-182.67
198.351	-8.17
198.738	26.62
199.125	5.93
199.512	29.08
199.899	38.61
200.286	-12.62
200.673	-0.29
201.06	6.43
201.447	40.81
201.833	38.41
202.22	-53.49
202.607	24.39
202.994	17.17
203.38	27.32
203.767	5.31
204.154	6
204.54	51.74
204.927	-7.1
205.313	-6.3
205.699	-0.64
206.086	-3.98
206.472	28.9
206.858	-21.22
207.245	24.32
207.631	5.89
208.017	-9.4
208.403	19.66
208.789	25.57
209.175	3.89
209.561	3.06
209.947	-42.31
210.333	-48.65
210.719	13.94
211.105	7.78
211.491	4.71
211.876	-6.86
212.262	-16.48
212.648	8.61
213.034	5.61
213.419	6.92
213.805	29.19
214.19	-3
214.576	8.96
214.961	-5.67
215.346	-2.82
215.732	15.65
216.117	5.64
216.502	4.52
216.888	-31.46
217.273	3.68
217.658	-1.93
218.043	-8.34
218.428	23.27
218.813	22.66
219.198	5.55
219.583	15.41
219.968	-6.7
220.353	3.64
220.738	-16.56
221.122	-1.39
221.507	-17.38
221.892	6.33
222.276	12.94
222.661	5
223.046	0.84
223.43	8.14
223.815	5.5
224.199	-7.83
224.583	-5.54
224.968	13.58
225.352	-2.13
225.736	7.73
226.121	-1.09
226.505	7.39
226.889	4.6
227.273	10.32
227.657	4.88
228.041	6.43
228.425	6.2
228.809	4.98
229.193	5.25
229.577	8.97
229.961	6.79
230.344	5.1
230.728	5.37
231.112	4.81
231.495	5.8
231.879	5.28
232.263	4.46
232.646	3.11
233.03	4.89
233.413	4.17
233.797	7.66
234.18	4.17
234.563	4.97
234.946	5.23
235.33	3.17
235.713	4.32
236.096	5.05
236.479	5.49
236.862	5.44
237.245	4.45
237.628	4.91
238.011	6.68
238.394	6.4
238.777	4.54
239.16	4.76
239.543	3.71
239.925	6.17
240.308	7.68
240.691	5.84
241.073	5.65
241.456	4.2
241.838	5.51
242.221	5.51
242.603	5.26
242.986	5.35
243.368	6.36
243.75	5.34
244.133	5.28
244.515	5.23
244.897	5.53
245.279	5.93
245.661	5.08
246.043	5.43
246.425	4.39
246.807	4.86
247.189	5.88
247.571	5.13
247.953	5.63
248.335	5.28
248.717	5.02
249.098	5.13
249.48	5.45
249.862	5.37
250.243	5.42
250.625	5.18
251.006	5.79
251.388	5.35
251.769	5.49
252.151	5.69
252.532	4.25
252.913	5.04
253.295	5.19
253.676	5.24
254.057	5.18
254.438	5.69
254.819	5.94
255.2	5.36
255.581	5.84
255.962	5.25
256.343	5.02
256.724	5.05
257.105	4.81
257.486	5.24
257.867	4.45
258.247	4.5
258.628	5.03
259.009	5.03
259.389	4.89
259.77	4.25
260.15	4.84
260.531	4.84
260.911	4.53
261.292	4.47
261.672	4.74
262.052	5
262.432	4.88
262.813	5.17
263.193	5.06
263.573	4.31
263.953	4.74
264.333	4.24
264.713	4.63
265.093	5.04
265.473	4.73
265.853	4.28
266.233	4.79
266.612	5.61
266.992	4.68
267.372	4.16
267.752	4.29
268.131	4.75
268.511	4.7
268.89	4.42
269.27	4.57
269.649	4.67
270.029	4.76
270.408	4.98
270.787	5.1
271.167	4.49
271.546	4.87
271.925	4.26
272.304	4.37
272.683	4.72
273.062	4.52
273.441	4.58
273.82	4.35
274.199	4.86
274.578	4.74
274.957	4.56
275.336	4.87
275.715	4.78
276.093	4.85
276.472	4.88
276.851	4.88
277.229	4.28
277.608	4.07
277.986	4.58
278.365	4.39
278.743	4.67
279.122	3.92
279.5	4.21
279.878	4.47
280.257	4.01
280.635	4.69
281.013	4.77
281.391	4.6
281.769	4.18
282.147	4.2
282.525	3.86
282.903	4.26
283.281	4.89
283.659	4.73
284.037	4.69
284.415	4.53
284.792	4.94
285.17	4.76
285.548	4.75
285.925	4.66
286.303	4.47
286.68	4.47
287.058	4.55
287.435	4.54
287.813	4.26
288.19	4.3
288.567	4.38
288.945	4.66
289.322	4
289.699	3.93
290.076	4.3
290.453	5.04
290.83	4.47
291.207	4.03
291.584	4.08
291.961	4.78
292.338	4.17
292.715	3.9
293.092	4.4
293.469	4.17
293.845	4.36
294.222	4.29
294.599	4.11
294.975	3.86
295.352	4.57
295.728	4.5
296.105	3.6
296.481	4.18
296.858	4.2
297.234	4.14
297.61	4.15
297.986	3.73
298.363	4.56
298.739	4.11
299.115	4.35
299.491	4.11
299.867	4.31
300.243	4.22
300.619	4.84
300.995	3.87
301.371	4.12
301.746	3.98
302.122	4.11
302.498	4.34
302.874	4.39
303.249	4.38
303.625	4.16
304	4.21
304.376	3.91
304.751	4.36
305.127	3.97
305.502	3.73
305.878	3.75
306.253	4.23
306.628	4.33
307.003	3.98
307.378	4.38
307.754	3.36
308.129	3.64
308.504	4.34
308.879	3.73
309.254	4.08
309.629	4.22
310.003	3.78
310.378	4.15
310.753	4.17
311.128	3.64
311.502	4.02
311.877	4.26
312.252	3.64
312.626	4.03
313.001	4
313.375	3.83
313.75	3.82
314.124	4.37
314.498	4.16
314.873	3.89
315.247	4.08
315.621	4.05
315.995	3.75
316.369	4.08
316.743	4.31
317.117	3.81
317.491	3.94
317.865	4
318.239	3.76
318.613	3.83
318.987	3.75
319.361	3.96
319.734	3.86
320.108	3.77
320.482	4.11
320.855	4.21
321.229	4.1
321.602	3.82
321.976	3.72
322.349	4.02
322.723	4.02
323.096	3.72
323.469	3.72
323.843	4.01
324.216	4.45
324.589	3.76
324.962	3.8
325.335	4.02
325.708	4.06
326.081	4.2
326.454	3.95
326.827	4.01
327.2	3.8
327.573	3.44
327.945	3.9
328.318	4.22
328.691	3.8
329.063	4.12
329.436	3.62
329.809	4.05
330.181	4
330.553	3.99
330.926	3.61
331.298	4.25
331.671	3.82
332.043	4.25
332.415	4.1
332.787	3.66
333.159	3.92
333.532	3.88
333.904	3.94
334.276	3.74
334.648	4.06
335.02	4.31
335.391	3.59
335.763	4.02
336.135	3.92
336.507	3.42
336.879	3.54
337.25	3.62
337.622	3.74
337.993	3.67
338.365	3.83
338.736	3.98
339.108	3.99
339.479	4.4
339.851	4.18
340.222	3.81
340.593	3.47
340.964	3.55
341.336	4.22
341.707	3.94
342.078	4.2
342.449	3.95
342.82	3.99
343.191	3.94
343.562	4.12
343.933	3.82
344.303	4.09
344.674	3.78
345.045	3.91
345.416	4.18
345.786	3.79
346.157	4.07
346.527	4.02
346.898	3.79
347.268	4.09
347.639	3.77
348.009	3.95
348.38	4.03
348.75	3.7
349.12	3.72
349.49	3.84
349.861	3.94
350.231	3.92
350.601	4.03
350.971	3.61
351.341	4.04
351.711	4.04
352.081	4.37
352.45	3.8
352.82	3.88
353.19	3.92
353.56	4.02
353.929	4.01
354.299	4.07
354.669	3.85
355.038	4.14
355.408	3.92
355.777	4.07
356.147	4.05
356.516	3.9
356.885	3.97
357.254	3.72
357.624	3.74
357.993	3.96
358.362	4.13
358.731	3.75
359.1	4.1
359.469	3.91
359.838	4.06
360.207	4.21
360.576	4.18
360.945	4.24
361.314	4.18
361.682	4.11
362.051	3.98
362.42	4.27
362.788	4.13
363.157	4.16
363.525	3.77
363.894	4.07
364.262	4.24
364.631	4.05
364.999	4.26
365.367	3.93
365.735	4.25
366.104	4.21
366.472	4.19
366.84	3.98
367.208	4.12
367.576	4.15
367.944	4.21
368.312	4.04
368.68	4.25
369.048	4.13
369.416	4.36
369.783	4.03
370.151	4.26
370.519	4.57
370.886	4.12
371.254	4.01
371.621	4.39
371.989	3.94
372.356	4.4
372.724	4.32
373.091	4.09
373.458	4.08
373.826	4.04
374.193	4.29
374.56	4.26
374.927	4.44
375.294	4.39
375.661	4.09
376.028	4.15
376.395	4.09
376.762	4.31
377.129	4.07
377.496	3.93
377.863	4.53
378.229	4.55
378.596	3.85
378.963	4.29
379.329	4.36
379.696	4.51
380.062	4.68
380.429	4.32
380.795	4.33
381.161	4.36
381.528	4.3
381.894	4.22
382.26	4.42
382.626	4.37
382.993	4.44
383.359	4.32
383.725	4.08
384.091	4.38
384.457	4.17
384.823	4.32
385.188	4.19
385.554	4.48
385.92	4.53
386.286	4.04
386.651	4.58
387.017	4.47
387.383	4.28
387.748	4.54
388.114	4.11
388.479	4.48
388.845	4.54
389.21	4.56
389.575	4.42
389.94	4.3
390.306	4.64
390.671	4.52
391.036	4.38
391.401	4.49
391.766	4.48
392.131	4.42
392.496	4.59
392.861	4.42
393.226	4.19
393.591	4.34
393.956	4.42
394.32	4.42
394.685	4.51
395.05	4.6
395.414	4.4
395.779	4.56
396.143	4.23
396.508	4.48
396.872	4.56
397.236	4.41
397.601	4.48
397.965	4.51
398.329	4.7
398.694	4.47
399.058	4.52
399.422	4.48
399.786	4.63
400.15	4.3
400.514	4.16
400.878	4.43
401.242	4.39
401.605	4.44
401.969	4.58
402.333	4.63
402.697	4.8
403.06	4.64
403.424	4.53
403.787	4.58
404.151	4.73
404.514	4.25
404.878	4.62
405.241	4.46
405.604	4.64
405.968	4.6
406.331	4.56
406.694	4.38
407.057	4.61
407.42	4.69
407.783	4.64
408.146	4.4
408.509	4.73
408.872	4.63
409.235	4.73
409.598	4.78
409.961	4.75
410.323	4.59
410.686	4.78
411.049	4.47
411.411	4.68
411.774	4.58
412.136	4.38
412.499	4.56
412.861	4.79
413.223	4.75
413.586	4.54
413.948	4.42
414.31	4.82
414.672	4.59
415.035	4.75
415.397	4.76
415.759	4.69
416.121	4.7
416.483	4.44
416.845	4.61
417.206	4.53
417.568	4.43
417.93	4.54
418.292	4.49
418.653	4.57
419.015	4.49
419.377	4.48
419.738	4.54
420.1	4.64
420.461	4.59
420.822	4.43
421.184	4.48
421.545	4.55
421.906	4.53
422.267	4.49
422.629	4.39
422.99	4.44
423.351	4.49
423.712	4.43
424.073	4.58
424.434	4.54
424.795	4.46
425.155	4.46
425.516	4.44
425.877	4.56
426.238	4.39
426.598	4.45
426.959	4.55
427.32	4.58
427.68	4.6
428.041	4.65
428.401	4.61
428.761	4.72
429.122	4.86
429.482	4.78
429.842	4.71
430.202	4.73
430.563	4.7
430.923	4.61
431.283	4.61
431.643	4.63
432.003	4.79
432.363	4.78
432.722	4.78
433.082	4.83
433.442	4.71
433.802	4.71
434.161	4.6
434.521	4.54
434.881	4.67
435.24	4.58
435.6	4.67
435.959	4.65
436.319	4.7
436.678	4.64
437.037	4.78
437.396	4.77
437.756	4.78
438.115	4.62
438.474	4.65
438.833	4.74
439.192	4.62
439.551	4.61
439.91	4.7
440.269	4.72
440.628	4.71
440.987	4.64
441.345	4.59
441.704	4.61
442.063	4.6
442.421	4.6
442.78	4.63
443.138	4.61
443.497	4.71
443.855	4.75
444.214	4.79
444.572	4.87
444.93	4.75
445.288	4.6
445.647	4.83
446.005	4.59
446.363	4.75
446.721	4.68
447.079	4.63
447.437	4.57
447.795	4.56
448.153	4.5
448.51	4.46
448.868	4.57
449.226	4.65
449.584	4.66
449.941	4.68
450.299	4.68
450.656	4.8
451.014	4.76
451.371	4.64
451.729	4.73
452.086	4.8
452.443	4.87
452.801	4.89
453.158	4.87
453.515	4.69
453.872	4.63
454.229	4.72
454.586	4.67
454.943	4.73
455.3	4.73
455.657	4.85
456.014	4.69
456.371	4.61
456.727	4.63
457.084	4.89
457.441	4.79
457.797	4.65
458.154	4.72
458.51	4.75
458.867	4.66
459.223	4.77
459.58	4.65
459.936	4.85
460.292	4.66
460.648	4.7
461.005	4.51
461.361	4.59
461.717	4.57
462.073	4.64
462.429	4.74
462.785	4.68
463.141	4.77
463.496	4.82
463.852	4.95
464.208	4.94
464.564	4.82
464.919	4.75
465.275	4.59
465.631	4.76
465.986	4.81
466.342	4.83
466.697	4.97
467.052	4.85
467.408	4.83
467.763	4.93
468.118	4.78
468.473	4.89
468.829	4.75
469.184	4.72
469.539	4.74
469.894	4.8
470.249	4.67
470.603	4.93
470.958	4.84
471.313	4.82
471.668	4.83
472.023	4.81
472.377	4.8
472.732	4.81
473.086	4.84
473.441	4.95
473.795	4.65
474.15	4.7
474.504	4.85
474.859	4.93
475.213	4.78
475.567	4.74
475.921	4.82
476.275	4.84
476.63	4.92
476.984	4.75
477.338	4.88
477.692	4.98
478.045	4.65
478.399	4.84
478.753	4.83
479.107	4.73
479.461	4.88
479.814	4.77
480.168	4.81
480.521	4.86
480.875	4.8
481.228	4.76
481.582	4.83
481.935	4.93
482.289	4.78
482.642	4.69
482.995	4.71
483.348	4.68
483.701	4.66
484.055	4.71
484.408	4.63
484.761	4.48
485.114	4.43
485.466	4.32
485.819	4.35
486.172	4.46
486.525	4.59
486.878	4.68
487.23	4.69
487.583	4.71
487.936	4.73
488.288	4.57
488.641	4.58
488.993	4.47
489.345	4.51
489.698	4.51
490.05	4.59
490.402	4.64
490.754	4.63
491.107	4.79
491.459	4.74
491.811	4.76
492.163	4.73
492.515	4.72
492.866	4.46
493.218	4.42
493.57	4.51
493.922	4.62
494.274	4.79
494.625	4.81
494.977	4.8
495.328	4.76
495.68	4.86
496.031	4.96
496.383	4.79
496.734	4.78
497.086	4.93
497.437	4.83
497.788	4.74
498.139	4.75
498.49	4.81
498.842	4.66
499.193	4.79
499.544	4.82
499.894	4.84
500.245	4.93
500.596	4.72
500.947	4.88
501.298	4.8
501.648	4.84
501.999	4.91
502.35	4.86
502.7	4.74
503.051	4.84
503.401	4.91
503.752	4.79
504.102	4.87
504.452	4.91
504.803	4.98
505.153	4.89
505.503	4.93
505.853	4.84
506.203	4.86
506.553	4.83
506.903	4.88
507.253	4.88
507.603	4.81
507.953	4.88
508.303	4.91
508.652	4.88
509.002	4.79
509.352	4.79
509.701	4.95
510.051	4.77
510.4	4.71
510.75	4.73
511.099	4.81
511.449	4.76
511.798	4.88
512.147	4.82
512.496	4.84
512.846	4.83
513.195	4.89
513.544	4.83
513.893	4.79
514.242	4.92
514.591	4.88
514.939	4.89
515.288	4.88
515.637	4.98
515.986	4.91
516.334	4.97
516.683	4.97
517.032	4.92
517.38	4.93
517.729	4.91
518.077	4.99
518.426	4.89
518.774	4.77
519.122	4.88
519.47	4.93
519.819	4.73
520.167	4.78
520.515	4.74
520.863	4.79
521.211	4.77
521.559	4.78
521.907	4.79
522.255	4.87
522.602	4.94
522.95	4.86
523.298	4.87
523.645	4.83
523.993	4.85
524.341	4.85
524.688	4.85
525.036	4.96
525.383	4.8
525.73	4.79
526.078	4.82
526.425	4.72
526.772	4.84
527.119	4.8
527.466	4.71
527.814	4.71
528.161	4.82
528.508	4.81
528.854	4.8
529.201	4.74
529.548	4.65
529.895	4.56
530.242	4.45
530.588	4.49
530.935	4.56
531.282	4.69
531.628	4.7
531.975	4.72
532.321	4.77
532.667	4.89
533.014	4.85
533.36	4.77
533.706	4.83
534.052	4.71
534.399	4.61
534.745	4.6
535.091	4.57
535.437	4.64
535.783	4.71
536.129	4.77
536.474	4.87
536.82	4.87
537.166	4.8
537.512	4.9
537.857	4.71
538.203	4.66
538.549	4.75
538.894	4.73
539.239	4.81
539.585	4.82
539.93	4.86
540.276	4.88
540.621	5.01
540.966	4.94
541.311	4.86
541.656	4.96
542.001	4.75
542.346	4.72
542.691	4.6
543.036	4.48
543.381	4.64
543.726	4.65
544.071	4.78
544.415	4.77
544.76	4.8
545.105	4.74
545.449	4.74
545.794	4.82
546.138	4.89
546.483	4.8
546.827	4.9
547.171	4.88
547.516	4.77
547.86	4.83
548.204	4.77
548.548	4.76
548.892	4.85
549.236	4.79
549.58	4.82
549.924	4.87
550.268	5.04
550.612	5.06
550.956	4.85
551.3	5.1
551.643	4.9
551.987	4.95
552.33	5.08
552.674	5.03
553.017	5.1
553.361	4.88
553.704	5.03
554.048	4.77
554.391	5.01
554.734	4.86
555.077	4.82
555.42	4.87
555.764	4.91
556.107	4.99
556.45	5.13
556.793	5.05
557.135	4.96
557.478	5
557.821	5.06
558.164	4.93
558.507	5.07
558.849	4.95
559.192	4.98
559.534	4.83
559.877	4.83
560.219	4.83
560.562	4.82
560.904	4.94
561.246	4.95
561.589	4.88
561.931	4.96
562.273	4.96
562.615	4.82
562.957	4.98
563.299	4.82
563.641	4.97
563.983	4.87
564.325	4.97
564.667	5
565.008	4.88
565.35	4.83
565.692	4.98
566.033	4.87
566.375	4.9
566.716	4.92
567.058	4.79
567.399	4.87
567.741	4.71
568.082	4.79
568.423	4.81
568.764	4.87
569.105	5.07
569.447	4.93
569.788	4.79
570.129	5
570.47	5.07
570.811	4.98
571.151	5.05
571.492	5.07
571.833	4.96
572.174	4.85
572.514	5.03
572.855	4.88
573.195	4.88
573.536	4.79
573.876	4.82
574.217	4.91
574.557	4.92
574.898	4.82
575.238	4.98
575.578	5.02
575.918	4.82
576.258	4.99
576.598	5
576.938	4.88
577.278	4.99
577.618	4.98
577.958	4.9
578.298	5.04
578.638	5.01
578.977	4.99
579.317	4.96
579.657	5.1
579.996	5.01
580.336	4.97
580.675	5.06
581.014	4.98
581.354	5.04
581.693	5
582.032	4.94
582.372	5.06
582.711	5.07
583.05	4.89
583.389	5
583.728	5.05
584.067	5.1
584.406	5.14
584.745	5.07
585.083	4.89
585.422	5.01
585.761	4.86
586.1	4.83
586.438	4.98
586.777	4.75
587.115	5.22
587.454	4.74
587.792	5
588.13	4.93
588.469	4.98
588.807	4.95
589.145	5.14
589.483	5.15
589.821	5.13
590.159	5.09
590.497	5.06
590.835	5.07
591.173	4.78
591.511	5.13
591.849	4.9
592.187	5.09
592.524	5.1
592.862	4.86
593.2	4.88
593.537	4.98
593.875	5.05
594.212	4.95
594.55	5.05
594.887	5.09
595.224	5.08
595.561	4.88
595.899	5.09
596.236	5.04
596.573	4.93
596.91	5
597.247	5
597.584	4.83
597.921	5.06
598.258	5.09
598.594	4.98
598.931	5.05
599.268	4.94
599.604	4.91
599.941	4.88
600.277	5.17
600.614	4.93
600.95	5.02
601.287	5.15
601.623	5.29
601.959	4.98
602.296	5.01
602.632	4.98
602.968	5.07
603.304	5.16
603.64	5.11
603.976	4.94
604.312	5.32
604.648	5.03
604.984	4.96
605.319	5.06
605.655	4.69
605.991	4.91
606.326	4.88
606.662	4.82
606.998	4.89
607.333	4.93
607.668	4.89
608.004	5.03
608.339	4.82
608.674	5.09
609.01	5.17
609.345	5.18
609.68	5.41
610.015	4.87
610.35	4.86
610.685	5.03
611.02	4.94
611.355	5.08
611.689	4.93
612.024	4.87
612.359	5.01
612.694	5.13
613.028	4.92
613.363	4.98
613.697	5.05
614.032	5.1
614.366	5.06
614.7	5.05
615.035	5.03
615.369	5.1
615.703	5.21
616.037	4.83
616.371	5.11
616.705	5.41
617.039	4.85
617.373	4.79
617.707	5.1
618.041	5.15
618.375	5.34
618.709	5.22
619.042	5.18
619.376	5.01
619.71	5.24
620.043	5.27
620.377	4.71
620.71	4.87
621.043	5.04
621.377	5.45
621.71	4.72
622.043	5.03
622.376	4.98
622.709	5.24
623.043	5.07
623.376	5.05
623.709	5.04
624.041	5.25
624.374	5.19
624.707	5.18
625.04	5.09
625.373	5.34
625.705	5.08
626.038	5.02
626.37	5.13
626.703	5.04
627.035	5.13
627.368	5.18
627.7	5.16
628.032	5.25
628.365	5.08
628.697	5.35
629.029	5.05
629.361	5.05
629.693	5.02
630.025	5.19
630.357	5.19
630.689	5.04
631.021	5.22
631.353	5.27
631.684	5.24
632.016	5.29
632.348	5.03
632.679	5.19
633.011	5.05
633.342	5.09
633.674	5.33
634.005	5.28
634.336	5.22
634.668	5.5
634.999	5.22
635.33	5.17
635.661	5.56
635.992	5.15
636.323	4.9
636.654	5.13
636.985	5.12
637.316	4.99
637.647	5.17
637.977	5.12
638.308	5.16
638.639	5
638.969	5.56
639.3	5.06
639.63	5.15
639.961	5.21
640.291	5.65
640.622	5.36
640.952	5.3
641.282	5.21
641.612	5.35
641.943	4.9
642.273	5.28
642.603	4.91
642.933	5.35
643.263	4.65
643.592	5.47
643.922	5.37
644.252	5
644.582	5.21
644.911	5.5
645.241	5.04
645.571	5.32
645.9	5.53
646.23	5.24
646.559	5.06
646.888	4.79
647.218	5.56
647.547	5.19
647.876	5.17
648.205	5.37
648.534	5.57
648.863	5.43
649.192	5.1
649.521	5.6
649.85	5.34
650.179	5.16
650.508	5.49
650.837	5.22
651.165	5.06
651.494	5.24
651.822	5.21
652.151	5.8
652.479	5.27
652.808	5.09
653.136	5.22
653.465	5.19
653.793	5.17
654.121	5.37
654.449	5.24
654.777	5.22
655.105	5.38
655.433	5.45
655.761	5.14
656.089	5.29
656.417	5.64
656.745	5.05
657.073	5.64
657.4	5.33
657.728	5.46
658.056	5.44
658.383	5.69
658.711	5.16
659.038	5.37
659.365	4.96
659.693	5.28
660.02	5.51
660.347	5.37
660.674	5.2
661.001	5.48
661.329	5.57
661.656	5.23
661.982	5.04
662.309	5.48
662.636	5.12
662.963	5.6
663.29	5.22
663.616	5.71
663.943	5.2
664.27	5.32
664.596	4.95
664.923	5.46
665.249	5.3
665.576	5.28
665.902	5.89
666.228	5.33
666.554	5.36
666.881	5.25
667.207	5.2
667.533	5.28
667.859	5.82
668.185	5.76
668.511	5.41
668.837	5.58
669.162	5.29
669.488	5.26
669.814	5.69
670.139	5.56
670.465	5.61
670.791	5.33
671.116	5.75
671.442	5.74
671.767	5.26
672.092	5.37
672.418	5.87
672.743	5.54
673.068	5.22
673.393	4.91
673.718	5.53
674.043	6.04
674.368	5.9
674.693	5.52
675.018	5.56
675.343	5.63
675.667	5.42
675.992	5.48
676.317	5
676.641	5.13
676.966	5.47
677.29	6.81
677.615	5.35
677.939	6.02
678.264	5.89
678.588	5.77
678.912	5.51
679.236	5.87
679.56	5.56
679.885	5.58
680.209	5.76
680.532	5.33
680.856	6.23
681.18	5.4
681.504	5.68
681.828	5.44
682.152	5.38
682.475	5.27
682.799	5.39
683.122	5.51
683.446	5.61
683.769	5.74
684.093	5.88
684.416	5.81
684.739	5.96
685.062	5.8
685.386	5.43
685.709	5.99
686.032	5.36
686.355	5.28
686.678	6.23
687.001	4.73
687.324	5.62
687.646	5.66
687.969	5.25
688.292	5.8
688.614	5.41
688.937	5.64
689.26	5.83
689.582	5.23
689.904	5.6
690.227	5.54
690.549	5.99
690.871	5.38
691.194	5.82
691.516	5.91
691.838	5.97
692.16	5.67
692.482	6.02
692.804	5.9
693.126	5.9
