Data from 815643_forehead_Reflection__4__18.txt Node

Date: Fri Sep 16 14:18:06 CDT 2022
User: ToomeyLab
Spectrometer: FLMS14357
Trigger mode: 0
Integration Time (sec): 1.000000E-2
Scans to average: 100
Electric dark correction enabled: true
Nonlinearity correction enabled: false
Boxcar width: 0
XAxis mode: Wavelengths
Number of Pixels in Spectrum: 2048
>>>>>Begin Spectral Data<<<<<
189.047	68.19
189.435	68.19
189.823	68.19
190.211	262.76
190.599	60.95
190.987	266.61
191.375	66.49
191.763	-596.9
192.151	-220.32
192.538	825.77
192.926	77.68
193.314	46.76
193.702	158.09
194.089	155.76
194.477	105.25
194.864	62.54
195.252	-72.79
195.639	1012.91
196.027	-326.68
196.414	-23.96
196.801	121.64
197.189	96.63
197.576	47.13
197.963	-148.46
198.351	31.06
198.738	26.36
199.125	30.59
199.512	22.49
199.899	38.07
200.286	14.27
200.673	16.04
201.06	5.03
201.447	-2.63
201.833	42.53
202.22	-9.99
202.607	36.25
202.994	39.06
203.38	-20.61
203.767	6.27
204.154	9.03
204.54	15.4
204.927	27.08
205.313	23.15
205.699	34.29
206.086	-6.52
206.472	44.56
206.858	-11.63
207.245	47.6
207.631	16.17
208.017	32.92
208.403	49.69
208.789	49.06
209.175	-35.96
209.561	8.75
209.947	-11.81
210.333	-22.35
210.719	30.27
211.105	17.82
211.491	16.57
211.876	-11.98
212.262	8.62
212.648	41.96
213.034	14.56
213.419	22.09
213.805	25.71
214.19	15.01
214.576	21.53
214.961	59.57
215.346	3.35
215.732	9.81
216.117	43.74
216.502	13.36
216.888	12.68
217.273	11.61
217.658	19.23
218.043	0.95
218.428	15.46
218.813	27.37
219.198	12.54
219.583	24.99
219.968	1.46
220.353	7.22
220.738	3.73
221.122	11.55
221.507	2.21
221.892	21.89
222.276	9.22
222.661	7.64
223.046	10.09
223.43	7.95
223.815	8.92
224.199	11.41
224.583	3.85
224.968	4.58
225.352	3.44
225.736	7.23
226.121	5.01
226.505	10.35
226.889	8.65
227.273	9.17
227.657	5.25
228.041	3.04
228.425	5.84
228.809	3.52
229.193	4.77
229.577	6.63
229.961	4.75
230.344	3.78
230.728	3.19
231.112	3.38
231.495	2.83
231.879	4.07
232.263	3.99
232.646	1.46
233.03	4.01
233.413	2.8
233.797	6.02
234.18	3.42
234.563	2.9
234.946	4.81
235.33	2.98
235.713	3.75
236.096	4.43
236.479	3.22
236.862	2.97
237.245	3.21
237.628	3.28
238.011	5.3
238.394	5.07
238.777	3.68
239.16	3.04
239.543	5.14
239.925	5.58
240.308	5.22
240.691	3.73
241.073	3.4
241.456	4.06
241.838	4.61
242.221	3.67
242.603	4.24
242.986	3.86
243.368	4.3
243.75	3.73
244.133	3.64
244.515	3.99
244.897	4.31
245.279	4.97
245.661	4.36
246.043	5.26
246.425	4.61
246.807	5.04
247.189	4.55
247.571	4.23
247.953	4.45
248.335	4.45
248.717	3.96
249.098	3.77
249.48	4.31
249.862	3.87
250.243	4.11
250.625	4.08
251.006	4.36
251.388	4.7
251.769	5.62
252.151	5.13
252.532	4.41
252.913	4.87
253.295	4.46
253.676	4.53
254.057	3.93
254.438	3.81
254.819	4.7
255.2	3.74
255.581	5.07
255.962	4.12
256.343	4.7
256.724	5.44
257.105	3.96
257.486	4.49
257.867	4.82
258.247	3.72
258.628	4.91
259.009	4.93
259.389	5.2
259.77	3.85
260.15	4.44
260.531	4.08
260.911	3.77
261.292	3.95
261.672	3.98
262.052	4.18
262.432	4.13
262.813	4.35
263.193	4.55
263.573	4.21
263.953	3.74
264.333	4.5
264.713	4.14
265.093	4.39
265.473	4.31
265.853	4.03
266.233	5.19
266.612	5.47
266.992	4.45
267.372	4.12
267.752	4.22
268.131	4.54
268.511	4.28
268.89	4.19
269.27	4.25
269.649	4.1
270.029	4.51
270.408	4.07
270.787	4.57
271.167	4.33
271.546	4.57
271.925	4.33
272.304	4.49
272.683	3.6
273.062	4.12
273.441	4.2
273.82	4.13
274.199	4.05
274.578	4.18
274.957	4.29
275.336	4.43
275.715	3.87
276.093	4.47
276.472	4.87
276.851	4.47
277.229	4.31
277.608	4.05
277.986	3.96
278.365	4.6
278.743	4.18
279.122	3.64
279.5	4.14
279.878	4.06
280.257	4.29
280.635	4.16
281.013	4.49
281.391	4.42
281.769	4.46
282.147	4.15
282.525	4.75
282.903	4.33
283.281	4.7
283.659	4.34
284.037	4.51
284.415	4.33
284.792	4.75
285.17	4.75
285.548	4.4
285.925	4.68
286.303	4.22
286.68	4.17
287.058	4.53
287.435	4.53
287.813	4.36
288.19	4.34
288.567	4.43
288.945	4.64
289.322	4.38
289.699	4.68
290.076	4.21
290.453	4.78
290.83	4.59
291.207	4.46
291.584	4.2
291.961	4.79
292.338	4.39
292.715	4.69
293.092	4.66
293.469	4.49
293.845	4.79
294.222	4.93
294.599	5.33
294.975	5.04
295.352	4.96
295.728	4.98
296.105	4.68
296.481	4.8
296.858	5.4
297.234	5.22
297.61	5.09
297.986	4.82
298.363	5.36
298.739	5.07
299.115	5.26
299.491	5.28
299.867	5.24
300.243	5.63
300.619	5.78
300.995	5.37
301.371	5.61
301.746	5.45
302.122	5.74
302.498	5.34
302.874	5.51
303.249	5.5
303.625	5.59
304	5.93
304.376	5.67
304.751	6.33
305.127	6.29
305.502	5.79
305.878	5.58
306.253	5.96
306.628	5.99
307.003	6.29
307.378	6.72
307.754	5.77
308.129	6.2
308.504	7.02
308.879	6.3
309.254	6.77
309.629	6.58
310.003	6.05
310.378	6.36
310.753	6.34
311.128	6.4
311.502	6.84
311.877	6.97
312.252	6.31
312.626	6.59
313.001	6.56
313.375	6.75
313.75	6.72
314.124	7.2
314.498	7.05
314.873	6.54
315.247	7.51
315.621	7.39
315.995	6.97
316.369	7.48
316.743	6.93
317.117	7.02
317.491	7.31
317.865	7.55
318.239	7.69
318.613	7.77
318.987	7.33
319.361	7.38
319.734	7.98
320.108	7.44
320.482	7.86
320.855	7.81
321.229	7.88
321.602	7.92
321.976	8.14
322.349	8.05
322.723	8.03
323.096	8.14
323.469	8.36
323.843	8.41
324.216	8.66
324.589	8.09
324.962	8.3
325.335	8.35
325.708	8.41
326.081	7.93
326.454	8.43
326.827	8.84
327.2	8.27
327.573	8.3
327.945	8.97
328.318	8.84
328.691	8.64
329.063	9.19
329.436	8.98
329.809	9.14
330.181	9.14
330.553	8.92
330.926	9.05
331.298	9.83
331.671	9.43
332.043	9.47
332.415	9.46
332.787	9.62
333.159	9.34
333.532	9.45
333.904	9.38
334.276	9.69
334.648	9.93
335.02	9.87
335.391	9.49
335.763	9.69
336.135	9.92
336.507	9.4
336.879	9.66
337.25	9.49
337.622	9.57
337.993	9.95
338.365	9.97
338.736	10.28
339.108	10.37
339.479	10.51
339.851	10.73
340.222	10.42
340.593	10.34
340.964	9.98
341.336	10.79
341.707	10.68
342.078	10.72
342.449	10.01
342.82	10.43
343.191	10.45
343.562	11.25
343.933	10.65
344.303	10.82
344.674	10.62
345.045	11.01
345.416	11.24
345.786	10.97
346.157	10.94
346.527	11.06
346.898	11.33
347.268	11.4
347.639	10.94
348.009	11.26
348.38	11.54
348.75	11.47
349.12	11.39
349.49	11.24
349.861	11.67
350.231	11.36
350.601	11.68
350.971	11.39
351.341	11.58
351.711	11.63
352.081	11.96
352.45	12.18
352.82	11.95
353.19	11.88
353.56	12.21
353.929	11.95
354.299	12
354.669	12.27
355.038	12.24
355.408	12.12
355.777	12.39
356.147	12.4
356.516	12.16
356.885	12.37
357.254	12.21
357.624	12.61
357.993	12.46
358.362	12.58
358.731	12.33
359.1	12.46
359.469	12.78
359.838	12.6
360.207	12.73
360.576	13.18
360.945	12.92
361.314	13.16
361.682	12.83
362.051	13.07
362.42	12.95
362.788	13.26
363.157	13.11
363.525	13.07
363.894	13.24
364.262	13.36
364.631	13.28
364.999	13.52
365.367	13.5
365.735	13.66
366.104	13.56
366.472	14.15
366.84	13.68
367.208	13.92
367.576	13.82
367.944	14.15
368.312	13.99
368.68	14.17
369.048	13.89
369.416	14.19
369.783	14.09
370.151	14.44
370.519	14.54
370.886	14.28
371.254	14.44
371.621	14.55
371.989	14.37
372.356	14.58
372.724	14.65
373.091	14.55
373.458	14.69
373.826	14.68
374.193	15.17
374.56	14.75
374.927	14.97
375.294	15.27
375.661	15.07
376.028	15.12
376.395	15.19
376.762	15.35
377.129	14.94
377.496	15.09
377.863	15.42
378.229	15.51
378.596	15.17
378.963	15.36
379.329	15.49
379.696	15.57
380.062	15.72
380.429	15.87
380.795	15.82
381.161	16.14
381.528	16.03
381.894	15.72
382.26	16
382.626	15.98
382.993	16.17
383.359	16.2
383.725	16.18
384.091	16.51
384.457	16.23
384.823	16.29
385.188	16.42
385.554	16.53
385.92	16.55
386.286	16.36
386.651	16.63
387.017	16.69
387.383	16.55
387.748	16.82
388.114	16.75
388.479	16.87
388.845	16.72
389.21	17.06
389.575	17.29
389.94	17.05
390.306	17.21
390.671	17.24
391.036	17.44
391.401	16.98
391.766	17.33
392.131	17.18
392.496	17.46
392.861	17.26
393.226	17.13
393.591	17.51
393.956	17.51
394.32	17.39
394.685	17.96
395.05	17.81
395.414	17.72
395.779	17.74
396.143	17.8
396.508	17.83
396.872	18.01
397.236	18.21
397.601	18.33
397.965	18.41
398.329	18.38
398.694	18.2
399.058	18.36
399.422	18.48
399.786	18.63
400.15	18.51
400.514	18.14
400.878	18.54
401.242	18.8
401.605	18.83
401.969	18.68
402.333	19.09
402.697	19.09
403.06	18.98
403.424	19
403.787	19.18
404.151	18.98
404.514	18.86
404.878	19.09
405.241	18.96
405.604	19.25
405.968	19.24
406.331	19.16
406.694	19.33
407.057	19.19
407.42	19.48
407.783	19.4
408.146	19.46
408.509	19.94
408.872	19.83
409.235	19.92
409.598	19.78
409.961	20.08
410.323	19.86
410.686	20.35
411.049	20.2
411.411	19.97
411.774	20.15
412.136	20.14
412.499	20.2
412.861	20.31
413.223	20.15
413.586	20.63
413.948	20.23
414.31	20.83
414.672	20.48
415.035	20.86
415.397	20.96
415.759	20.65
416.121	20.58
416.483	20.83
416.845	20.84
417.206	20.75
417.568	20.79
417.93	20.77
418.292	20.9
418.653	20.93
419.015	20.99
419.377	20.69
419.738	20.76
420.1	20.79
420.461	20.81
420.822	20.74
421.184	20.88
421.545	20.99
421.906	20.88
422.267	20.84
422.629	20.84
422.99	20.84
423.351	20.97
423.712	21.07
424.073	21.43
424.434	21.52
424.795	21.37
425.155	21.24
425.516	21.25
425.877	21.32
426.238	21.41
426.598	21.65
426.959	21.68
427.32	22.02
427.68	22.28
428.041	22.4
428.401	22.41
428.761	22.81
429.122	22.85
429.482	22.62
429.842	22.71
430.202	22.99
430.563	22.98
430.923	22.96
431.283	22.99
431.643	23.11
432.003	22.96
432.363	23.19
432.722	23.14
433.082	23.26
433.442	23.23
433.802	23.21
434.161	23.05
434.521	23.08
434.881	22.86
435.24	23.02
435.6	23.16
435.959	23.44
436.319	23.78
436.678	23.58
437.037	23.9
437.396	23.83
437.756	23.97
438.115	23.9
438.474	24.05
438.833	23.89
439.192	23.97
439.551	24.11
439.91	24.02
440.269	24.18
440.628	24.03
440.987	23.98
441.345	23.92
441.704	24.06
442.063	24.01
442.421	24.1
442.78	24.1
443.138	24.32
443.497	24.6
443.855	24.82
444.214	24.76
444.572	24.99
444.93	24.91
445.288	25.02
445.647	25.06
446.005	24.84
446.363	24.87
446.721	24.69
447.079	24.52
447.437	24.42
447.795	24.49
448.153	24.49
448.51	24.56
448.868	24.89
449.226	25.12
449.584	25.32
449.941	25.56
450.299	25.63
450.656	25.83
451.014	25.91
451.371	25.98
451.729	26.14
452.086	26.15
452.443	26.24
452.801	26.44
453.158	26.37
453.515	26.37
453.872	26.21
454.229	26.17
454.586	26.24
454.943	26.36
455.3	26.52
455.657	26.73
456.014	26.56
456.371	26.45
456.727	26.83
457.084	27.01
457.441	26.9
457.797	26.82
458.154	27.25
458.51	27.11
458.867	27.06
459.223	27.15
459.58	26.97
459.936	27.17
460.292	27.03
460.648	26.86
461.005	26.72
461.361	26.31
461.717	26.43
462.073	26.87
462.429	27.2
462.785	27.33
463.141	27.56
463.496	27.68
463.852	27.92
464.208	28.03
464.564	28.15
464.919	27.92
465.275	28.29
465.631	28.13
465.986	28.3
466.342	28.09
466.697	28.31
467.052	28.42
467.408	28.48
467.763	28.44
468.118	28.23
468.473	28.46
468.829	28.29
469.184	28.4
469.539	28.54
469.894	28.48
470.249	28.74
470.603	29.01
470.958	28.91
471.313	28.82
471.668	28.95
472.023	29.12
472.377	29.22
472.732	29.36
473.086	29.13
473.441	29.09
473.795	29.38
474.15	29.32
474.504	29.35
474.859	29.41
475.213	29.56
475.567	29.52
475.921	29.84
476.275	29.96
476.63	29.94
476.984	29.72
477.338	29.86
477.692	30.14
478.045	29.73
478.399	29.89
478.753	30.03
479.107	29.99
479.461	30.03
479.814	30.14
480.168	30.13
480.521	30.13
480.875	30.21
481.228	30.35
481.582	30.16
481.935	30.39
482.289	30.4
482.642	30.21
482.995	30.2
483.348	30.11
483.701	30.22
484.055	29.94
484.408	29.8
484.761	29.43
485.114	28.97
485.466	28.66
485.819	28.99
486.172	29.42
486.525	29.83
486.878	30.12
487.23	30.28
487.583	30.45
487.936	30.49
488.288	30.16
488.641	29.85
488.993	29.71
489.345	29.81
489.698	30.05
490.05	30.16
490.402	30.5
490.754	30.73
491.107	31.09
491.459	31.33
491.811	31.32
492.163	31.41
492.515	31.09
492.866	30.62
493.218	30.16
493.57	30.4
493.922	30.76
494.274	31.2
494.625	31.67
494.977	31.82
495.328	31.98
495.68	32.12
496.031	32.55
496.383	32.43
496.734	32.68
497.086	32.51
497.437	32.64
497.788	32.38
498.139	32.14
498.49	32.14
498.842	32.13
499.193	32.23
499.544	32.58
499.894	32.56
500.245	32.6
500.596	32.74
500.947	32.84
501.298	33.09
501.648	33.22
501.999	33.2
502.35	33.38
502.7	33.33
503.051	33.46
503.401	33.59
503.752	33.64
504.102	33.63
504.452	33.74
504.803	33.64
505.153	33.66
505.503	33.58
505.853	33.74
506.203	33.71
506.553	33.89
506.903	33.83
507.253	33.99
507.603	33.92
507.953	34.01
508.303	34.15
508.652	34.07
509.002	34.15
509.352	33.98
509.701	33.85
510.051	33.88
510.4	33.75
510.75	33.93
511.099	34.01
511.449	34.13
511.798	34.15
512.147	34.22
512.496	34.32
512.846	34.52
513.195	34.53
513.544	34.49
513.893	34.42
514.242	34.45
514.591	34.59
514.939	34.75
515.288	34.88
515.637	34.93
515.986	35.18
516.334	35.34
516.683	35.42
517.032	35.57
517.38	35.53
517.729	35.45
518.077	35.45
518.426	35.22
518.774	35.09
519.122	35.1
519.47	35.11
519.819	34.81
520.167	34.68
520.515	34.76
520.863	34.93
521.211	34.93
521.559	35.15
521.907	35.35
522.255	35.68
522.602	35.91
522.95	35.85
523.298	36.15
523.645	36.12
523.993	36.3
524.341	36.24
524.688	36.23
525.036	36.37
525.383	36.23
525.73	36.31
526.078	36.14
526.425	36.14
526.772	36.04
527.119	35.47
527.466	35.46
527.814	35.8
528.161	35.89
528.508	36.16
528.854	36.13
529.201	36.04
529.548	35.76
529.895	35.1
530.242	34.75
530.588	35.06
530.935	35.4
531.282	35.81
531.628	36
531.975	36.22
532.321	36.41
532.667	36.62
533.014	36.66
533.36	36.67
533.706	36.93
534.052	36.64
534.399	36.39
534.745	35.93
535.091	35.81
535.437	36.1
535.783	36.54
536.129	36.94
536.474	37.21
536.82	37.39
537.166	37.53
537.512	37.6
537.857	37.24
538.203	36.88
538.549	36.99
538.894	37.09
539.239	37.49
539.585	37.86
539.93	38.01
540.276	38.22
540.621	38.41
540.966	38.29
541.311	38.23
541.656	38.23
542.001	38.02
542.346	37.72
542.691	36.87
543.036	36.45
543.381	36.76
543.726	37.24
544.071	37.58
544.415	37.74
544.76	37.67
545.105	37.97
545.449	38.05
545.794	38.4
546.138	38.69
546.483	38.64
546.827	38.82
547.171	38.53
547.516	38.68
547.86	38.65
548.204	38.52
548.548	38.53
548.892	38.64
549.236	38.81
549.58	39.09
549.924	39.36
550.268	39.85
550.612	39.81
550.956	39.83
551.3	40.17
551.643	40.07
551.987	40.12
552.33	40.31
552.674	40.21
553.017	40.32
553.361	40.11
553.704	40.56
554.048	40.09
554.391	39.59
554.734	39.82
555.077	40.12
555.42	40.25
555.764	40.33
556.107	40.71
556.45	40.89
556.793	40.71
557.135	41.02
557.478	40.93
557.821	40.88
558.164	40.96
558.507	41.01
558.849	40.88
559.192	40.87
559.534	41.06
559.877	41.02
560.219	41.15
560.562	41.19
560.904	41.21
561.246	41.32
561.589	41.59
561.931	41.35
562.273	41.25
562.615	41.34
562.957	41.47
563.299	41.45
563.641	41.34
563.983	41.47
564.325	41.36
564.667	41.68
565.008	41.97
565.35	41.65
565.692	41.88
566.033	42.2
566.375	41.87
566.716	41.88
567.058	41.68
567.399	41.57
567.741	41.48
568.082	41.42
568.423	41.49
568.764	41.81
569.105	41.89
569.447	42.15
569.788	42.17
570.129	42.35
570.47	42.49
570.811	42.42
571.151	42.25
571.492	42.38
571.833	42.34
572.174	42.38
572.514	42.52
572.855	42.25
573.195	42.09
573.536	42.21
573.876	41.97
574.217	42
574.557	42.4
574.898	42.49
575.238	42.72
575.578	42.76
575.918	42.64
576.258	42.87
576.598	42.68
576.938	42.8
577.278	42.84
577.618	42.76
577.958	43.06
578.298	43.27
578.638	43.22
578.977	43.11
579.317	43.29
579.657	43.47
579.996	43.62
580.336	43.66
580.675	43.66
581.014	43.94
581.354	43.94
581.693	43.92
582.032	43.92
582.372	43.89
582.711	43.97
583.05	44.06
583.389	44.01
583.728	44.03
584.067	44.06
584.406	44.13
584.745	44.3
585.083	44.39
585.422	44.12
585.761	44.17
586.1	44.35
586.438	44.56
586.777	44.48
587.115	44.64
587.454	44.56
587.792	44.53
588.13	44.63
588.469	44.62
588.807	44.9
589.145	45.14
589.483	44.95
589.821	44.84
590.159	44.53
590.497	44.57
590.835	44.72
591.173	44.72
591.511	44.98
591.849	44.69
592.187	45.04
592.524	45.05
592.862	44.83
593.2	44.95
593.537	45.3
593.875	45.15
594.212	45.16
594.55	45.57
594.887	45.52
595.224	45.54
595.561	45.08
595.899	45.09
596.236	45.36
596.573	45.53
596.91	45.6
597.247	45.75
597.584	45.44
597.921	45.21
598.258	45.24
598.594	45.05
598.931	45.04
599.268	45.03
599.604	45.36
599.941	45.32
600.277	45.68
600.614	46.19
600.95	46.07
601.287	46.44
601.623	46.42
601.959	46.27
602.296	46.68
602.632	46.57
602.968	46.48
603.304	46.38
603.64	46.51
603.976	46.64
604.312	46.36
604.648	46.22
604.984	45.79
605.319	46.15
605.655	46.03
605.991	45.84
606.326	45.5
606.662	45.67
606.998	46.06
607.333	46.27
607.668	46.59
608.004	46.8
608.339	46.82
608.674	47.11
609.01	47.24
609.345	47.43
609.68	47.35
610.015	47.31
610.35	47.06
610.685	46.76
611.02	46.38
611.355	46.52
611.689	46.68
612.024	46.91
612.359	46.87
612.694	47.04
613.028	47.03
613.363	47.57
613.697	47.64
614.032	47.62
614.366	47.76
614.7	47.67
615.035	47.64
615.369	48.07
615.703	48.05
616.037	48.28
616.371	48.25
616.705	48.3
617.039	47.77
617.373	48.17
617.707	47.98
618.041	48.11
618.375	48.12
618.709	48.36
619.042	48.01
619.376	48.43
619.71	48.2
620.043	48.52
620.377	48.46
620.71	48.39
621.043	48.41
621.377	48.65
621.71	48.54
622.043	48.19
622.376	48.51
622.709	48.68
623.043	48.76
623.376	48.51
623.709	49.08
624.041	48.72
624.374	48.43
624.707	48.65
625.04	48.93
625.373	48.59
625.705	49.19
626.038	49.22
626.37	49.05
626.703	48.86
627.035	49.01
627.368	49.02
627.7	48.91
628.032	48.93
628.365	48.73
628.697	48.58
629.029	48.34
629.361	49
629.693	49.09
630.025	49.18
630.357	49.14
630.689	49.28
631.021	49.65
631.353	49.61
631.684	49.55
632.016	49.44
632.348	49.48
632.679	49.84
633.011	49.84
633.342	49.87
633.674	49.88
634.005	49.87
634.336	49.83
634.668	49.54
634.999	49.94
635.33	49.71
635.661	49.89
635.992	49.43
636.323	49.91
636.654	49.7
636.985	49.9
637.316	49.68
637.647	50.02
637.977	50.31
638.308	50.42
638.639	50.37
638.969	50.15
639.3	50.5
639.63	50.3
639.961	50.01
640.291	50.7
640.622	50.55
640.952	50.61
641.282	50.59
641.612	50.51
641.943	50.16
642.273	51.08
642.603	50.24
642.933	51.25
643.263	50.94
643.592	50.82
643.922	50.69
644.252	51.11
644.582	51.14
644.911	50.83
645.241	50.98
645.571	50.59
645.9	51.24
646.23	51.42
646.559	50.66
646.888	51.05
647.218	51.57
647.547	51.38
647.876	51.19
648.205	51.09
648.534	50.92
648.863	50.96
649.192	51.02
649.521	51.31
649.85	51.1
650.179	51.08
650.508	51.39
650.837	51.3
651.165	51.47
651.494	51.48
651.822	51.41
652.151	51.52
652.479	51.85
652.808	51.32
653.136	51.32
653.465	51.71
653.793	51.62
654.121	51.43
654.449	51.71
654.777	51.67
655.105	51.76
655.433	52.13
655.761	52.3
656.089	52.14
656.417	51.88
656.745	51.55
657.073	52.22
657.4	52.05
657.728	52.47
658.056	52.28
658.383	52.45
658.711	51.92
659.038	52.4
659.365	52.04
659.693	52.44
660.02	52.62
660.347	51.67
660.674	51.89
661.001	51.13
661.329	51.27
661.656	51.83
661.982	51.89
662.309	52.85
662.636	52.25
662.963	52.09
663.29	52.17
663.616	52.71
663.943	52.43
664.27	52.68
664.596	52.26
664.923	52.8
665.249	52.17
665.576	52.8
665.902	52.86
666.228	52.07
666.554	52.74
666.881	52.53
667.207	52.98
667.533	52.72
667.859	53.05
668.185	52.81
668.511	52.9
668.837	52.6
669.162	53
669.488	53.06
669.814	53.03
