Data from 815643_chest_Reflection__9__13.txt Node

Date: Fri Sep 16 14:13:41 CDT 2022
User: ToomeyLab
Spectrometer: FLMS14357
Trigger mode: 0
Integration Time (sec): 1.000000E-2
Scans to average: 100
Electric dark correction enabled: true
Nonlinearity correction enabled: false
Boxcar width: 0
XAxis mode: Wavelengths
Number of Pixels in Spectrum: 2048
>>>>>Begin Spectral Data<<<<<
189.047	-38.61
189.435	-38.61
189.823	-38.61
190.211	-256.22
190.599	153.24
190.987	30.62
191.375	-70.14
191.763	-44.17
192.151	463.23
192.538	-81.94
192.926	251.68
193.314	62.35
193.702	-173.05
194.089	153.92
194.477	174
194.864	13.47
195.252	-196.07
195.639	538.03
196.027	-106.72
196.414	63.11
196.801	-26.87
197.189	75.48
197.576	-1.76
197.963	-43.81
198.351	-4.95
198.738	11.89
199.125	-14.81
199.512	11.23
199.899	-34.8
200.286	5.82
200.673	-12.98
201.06	24.91
201.447	11.23
201.833	30.37
202.22	-42.56
202.607	47.56
202.994	14.86
203.38	-19.36
203.767	-30.8
204.154	52.39
204.54	37.02
204.927	30.42
205.313	10.15
205.699	10.16
206.086	-11.37
206.472	5.63
206.858	4.57
207.245	2.99
207.631	14.94
208.017	-16.03
208.403	19.51
208.789	23.77
209.175	-21.77
209.561	4.67
209.947	-40.65
210.333	-10.54
210.719	16.75
211.105	12.55
211.491	10.36
211.876	-47.47
212.262	-11.73
212.648	5.11
213.034	27.2
213.419	2.08
213.805	13.91
214.19	13.04
214.576	-9.23
214.961	7.85
215.346	-30.92
215.732	18.9
216.117	3.85
216.502	11.41
216.888	-29.09
217.273	14.86
217.658	14.89
218.043	-1.79
218.428	13.72
218.813	13.71
219.198	-3.29
219.583	10.26
219.968	-19.02
220.353	7.91
220.738	-12.67
221.122	3.48
221.507	-7.43
221.892	0.98
222.276	11.92
222.661	-0.47
223.046	5.89
223.43	7.64
223.815	3.95
224.199	2.11
224.583	-2.38
224.968	10.14
225.352	-0.66
225.736	-0.11
226.121	-4.83
226.505	5.43
226.889	3.06
227.273	10.17
227.657	2.45
228.041	1.04
228.425	4.08
228.809	3.27
229.193	2.31
229.577	5.58
229.961	4.72
230.344	3.69
230.728	3.63
231.112	3.03
231.495	3.33
231.879	3.7
232.263	3.18
232.646	1.75
233.03	4.25
233.413	3.45
233.797	5.73
234.18	2.79
234.563	1.75
234.946	2.94
235.33	2.57
235.713	3.44
236.096	4.18
236.479	4.11
236.862	3.89
237.245	1.53
237.628	1.02
238.011	4.97
238.394	4.52
238.777	3.2
239.16	2.98
239.543	3.45
239.925	4.33
240.308	4.28
240.691	2.54
241.073	3.95
241.456	2.85
241.838	4
242.221	2.8
242.603	4.22
242.986	4.25
243.368	4.04
243.75	3.97
244.133	3.85
244.515	3.65
244.897	4.16
245.279	4.49
245.661	3.26
246.043	3.4
246.425	3.36
246.807	3.79
247.189	3.61
247.571	3.51
247.953	3.94
248.335	3.86
248.717	3.42
249.098	3.57
249.48	3.97
249.862	3.56
250.243	3.58
250.625	3.42
251.006	4.03
251.388	3.68
251.769	3.89
252.151	3.27
252.532	3.88
252.913	3.76
253.295	3.49
253.676	3.87
254.057	3.42
254.438	3.31
254.819	4.07
255.2	3.63
255.581	3.76
255.962	3.37
256.343	3.51
256.724	3.76
257.105	3.31
257.486	4.04
257.867	3.87
258.247	3.38
258.628	3.52
259.009	3.62
259.389	3.88
259.77	3.12
260.15	3.75
260.531	3.41
260.911	3.28
261.292	3.34
261.672	3.51
262.052	3.63
262.432	3.62
262.813	3.51
263.193	3.36
263.573	3.24
263.953	3.71
264.333	3.4
264.713	3.49
265.093	2.93
265.473	3.4
265.853	3.03
266.233	3.84
266.612	4.43
266.992	3.3
267.372	3.55
267.752	2.96
268.131	3.42
268.511	3.25
268.89	3.1
269.27	3.42
269.649	3.72
270.029	3.11
270.408	3.48
270.787	3.94
271.167	3.13
271.546	4.11
271.925	3.4
272.304	3.57
272.683	3.19
273.062	3.35
273.441	3.33
273.82	3.09
274.199	3.49
274.578	3.5
274.957	3.52
275.336	3.15
275.715	3.21
276.093	3.24
276.472	3.67
276.851	3.84
277.229	2.91
277.608	3.02
277.986	3.4
278.365	3.05
278.743	3.33
279.122	3.19
279.5	3.6
279.878	3.75
280.257	3.29
280.635	3.53
281.013	3.18
281.391	3.29
281.769	2.83
282.147	3.28
282.525	3.59
282.903	3.26
283.281	3.88
283.659	3.52
284.037	3.55
284.415	3.46
284.792	3.56
285.17	3.35
285.548	3.42
285.925	3.33
286.303	3.68
286.68	3.02
287.058	3.41
287.435	3.44
287.813	3.39
288.19	3.15
288.567	3.42
288.945	3.36
289.322	3.08
289.699	3.25
290.076	3.2
290.453	3.75
290.83	3.36
291.207	3.38
291.584	3.23
291.961	3.37
292.338	3.46
292.715	3.13
293.092	3.09
293.469	3.6
293.845	3.46
294.222	3.08
294.599	3.65
294.975	3.18
295.352	3.77
295.728	3.47
296.105	3.33
296.481	3.42
296.858	3.58
297.234	3.45
297.61	3.38
297.986	2.97
298.363	3.81
298.739	3.43
299.115	3.7
299.491	3.63
299.867	3.41
300.243	3.48
300.619	4.2
300.995	3.45
301.371	3.57
301.746	3.42
302.122	3.51
302.498	3.2
302.874	3.85
303.249	3.63
303.625	3.5
304	3.89
304.376	2.96
304.751	3.72
305.127	3.83
305.502	3.23
305.878	3.46
306.253	3.65
306.628	3.55
307.003	3.33
307.378	3.79
307.754	3.51
308.129	3.37
308.504	3.83
308.879	3.95
309.254	3.83
309.629	4.11
310.003	3.66
310.378	3.74
310.753	3.71
311.128	3.62
311.502	3.92
311.877	3.55
312.252	3.25
312.626	3.39
313.001	3.85
313.375	3.29
313.75	3.65
314.124	3.89
314.498	3.65
314.873	3.28
315.247	3.66
315.621	3.49
315.995	3.38
316.369	3.53
316.743	4.15
317.117	3.36
317.491	3.93
317.865	3.61
318.239	4.22
318.613	3.66
318.987	3.28
319.361	3.87
319.734	3.36
320.108	3.42
320.482	3.46
320.855	3.78
321.229	4.29
321.602	3.4
321.976	3.93
322.349	3.67
322.723	3.87
323.096	3.73
323.469	4.11
323.843	3.97
324.216	4.06
324.589	3.72
324.962	3.62
325.335	3.48
325.708	3.59
326.081	3.58
326.454	3.73
326.827	3.96
327.2	4.04
327.573	3.26
327.945	3.68
328.318	3.85
328.691	4.06
329.063	4.2
329.436	3.54
329.809	4.16
330.181	3.89
330.553	3.8
330.926	3.45
331.298	3.8
331.671	3.87
332.043	3.85
332.415	4.13
332.787	3.8
333.159	3.8
333.532	3.95
333.904	3.7
334.276	4.06
334.648	3.81
335.02	4.31
335.391	3.55
335.763	3.72
336.135	3.69
336.507	3.39
336.879	3.74
337.25	3.5
337.622	3.68
337.993	3.54
338.365	3.88
338.736	3.93
339.108	4.19
339.479	3.91
339.851	4.6
340.222	4.12
340.593	3.53
340.964	3.58
341.336	4
341.707	3.91
342.078	3.69
342.449	3.92
342.82	3.6
343.191	3.75
343.562	3.81
343.933	4.04
344.303	3.82
344.674	3.85
345.045	3.86
345.416	4.01
345.786	3.78
346.157	3.71
346.527	3.91
346.898	3.79
347.268	4.01
347.639	3.86
348.009	3.7
348.38	4.03
348.75	3.77
349.12	3.97
349.49	3.8
349.861	3.75
350.231	3.85
350.601	4.01
350.971	3.49
351.341	3.99
351.711	4.02
352.081	4.17
352.45	4.07
352.82	4.1
353.19	3.86
353.56	4.18
353.929	3.73
354.299	3.99
354.669	3.94
355.038	3.83
355.408	3.72
355.777	3.99
356.147	3.8
356.516	4.01
356.885	3.54
357.254	4.25
357.624	3.89
357.993	3.98
358.362	3.63
358.731	3.83
359.1	3.98
359.469	4.19
359.838	3.9
360.207	4.01
360.576	4.38
360.945	4.21
361.314	4.23
361.682	3.88
362.051	3.93
362.42	4.13
362.788	4.05
363.157	3.9
363.525	3.72
363.894	3.99
364.262	4.14
364.631	4.02
364.999	4.12
365.367	3.83
365.735	4.05
366.104	4.14
366.472	4.37
366.84	3.92
367.208	3.91
367.576	3.91
367.944	4.11
368.312	4.13
368.68	4.21
369.048	3.73
369.416	4.38
369.783	3.92
370.151	4.01
370.519	4.12
370.886	3.98
371.254	3.92
371.621	4.3
371.989	3.71
372.356	4.28
372.724	4.11
373.091	4.06
373.458	4.13
373.826	3.92
374.193	4.1
374.56	3.97
374.927	4.36
375.294	4.09
375.661	4.08
376.028	3.99
376.395	4.09
376.762	4.09
377.129	3.94
377.496	3.93
377.863	4.21
378.229	4.19
378.596	4.1
378.963	4.25
379.329	4.45
379.696	4.16
380.062	4.32
380.429	4.29
380.795	4.16
381.161	4.3
381.528	4.43
381.894	4.04
382.26	4.24
382.626	4.14
382.993	4.38
383.359	4.19
383.725	4.37
384.091	4.56
384.457	4.04
384.823	4.31
385.188	4.06
385.554	4.23
385.92	4.26
386.286	3.98
386.651	4.51
387.017	4.18
387.383	4.18
387.748	4.39
388.114	4.12
388.479	4.12
388.845	4.13
389.21	4.32
389.575	4.6
389.94	4.33
390.306	4.49
390.671	4.05
391.036	4.38
391.401	3.88
391.766	4.15
392.131	4.18
392.496	4.26
392.861	4.3
393.226	4.17
393.591	4.26
393.956	4.13
394.32	4.24
394.685	4.47
395.05	4.52
395.414	4.2
395.779	4.32
396.143	4.07
396.508	4.42
396.872	4.28
397.236	4.32
397.601	4.26
397.965	4.47
398.329	4.46
398.694	4.3
399.058	4.46
399.422	4.33
399.786	4.25
400.15	4.17
400.514	4.05
400.878	4.46
401.242	4.39
401.605	4.43
401.969	4.2
402.333	4.42
402.697	4.61
403.06	4.39
403.424	4.4
403.787	4.58
404.151	4.5
404.514	4.48
404.878	4.41
405.241	4.46
405.604	4.31
405.968	4.29
406.331	4.43
406.694	4.26
407.057	4.33
407.42	4.54
407.783	4.39
408.146	4.33
408.509	4.6
408.872	4.53
409.235	4.48
409.598	4.64
409.961	4.26
410.323	4.47
410.686	4.56
411.049	4.39
411.411	4.32
411.774	4.42
412.136	4.27
412.499	4.6
412.861	4.52
413.223	4.45
413.586	4.31
413.948	4.4
414.31	4.62
414.672	4.16
415.035	4.38
415.397	4.68
415.759	4.56
416.121	4.49
416.483	4.34
416.845	4.63
417.206	4.31
417.568	4.41
417.93	4.39
418.292	4.35
418.653	4.41
419.015	4.4
419.377	4.47
419.738	4.36
420.1	4.36
420.461	4.3
420.822	4.3
421.184	4.43
421.545	4.32
421.906	4.39
422.267	4.32
422.629	4.32
422.99	4.33
423.351	4.36
423.712	4.39
424.073	4.41
424.434	4.52
424.795	4.35
425.155	4.32
425.516	4.38
425.877	4.38
426.238	4.33
426.598	4.3
426.959	4.42
427.32	4.44
427.68	4.56
428.041	4.59
428.401	4.44
428.761	4.58
429.122	4.67
429.482	4.66
429.842	4.6
430.202	4.53
430.563	4.77
430.923	4.62
431.283	4.56
431.643	4.59
432.003	4.59
432.363	4.57
432.722	4.58
433.082	4.55
433.442	4.55
433.802	4.48
434.161	4.66
434.521	4.5
434.881	4.58
435.24	4.53
435.6	4.54
435.959	4.59
436.319	4.59
436.678	4.5
437.037	4.66
437.396	4.63
437.756	4.76
438.115	4.59
438.474	4.58
438.833	4.64
439.192	4.69
439.551	4.67
439.91	4.58
440.269	4.62
440.628	4.64
440.987	4.58
441.345	4.64
441.704	4.57
442.063	4.57
442.421	4.46
442.78	4.6
443.138	4.7
443.497	4.67
443.855	4.69
444.214	4.68
444.572	4.76
444.93	4.78
445.288	4.69
445.647	4.72
446.005	4.74
446.363	4.75
446.721	4.62
447.079	4.68
447.437	4.53
447.795	4.52
448.153	4.44
448.51	4.49
448.868	4.58
449.226	4.56
449.584	4.62
449.941	4.82
450.299	4.57
450.656	4.71
451.014	4.73
451.371	4.67
451.729	4.87
452.086	4.68
452.443	4.81
452.801	4.92
453.158	4.86
453.515	4.85
453.872	4.75
454.229	4.63
454.586	4.75
454.943	4.89
455.3	4.8
455.657	4.8
456.014	4.84
456.371	4.81
456.727	4.74
457.084	4.87
457.441	4.79
457.797	4.8
458.154	4.8
458.51	4.76
458.867	4.86
459.223	4.8
459.58	4.72
459.936	4.89
460.292	4.81
460.648	4.75
461.005	4.75
461.361	4.7
461.717	4.62
462.073	4.69
462.429	4.8
462.785	4.77
463.141	4.95
463.496	4.95
463.852	5.02
464.208	5.04
464.564	4.95
464.919	4.96
465.275	4.85
465.631	5.11
465.986	4.91
466.342	4.92
466.697	5
467.052	4.92
467.408	4.91
467.763	5.12
468.118	4.79
468.473	4.98
468.829	4.86
469.184	4.84
469.539	4.86
469.894	4.97
470.249	4.91
470.603	5.04
470.958	5
471.313	4.94
471.668	4.89
472.023	5.04
472.377	5
472.732	5.03
473.086	5.1
473.441	4.94
473.795	5.05
474.15	4.94
474.504	4.89
474.859	5.1
475.213	5.09
475.567	4.97
475.921	4.99
476.275	5.12
476.63	5.08
476.984	5.05
477.338	5.14
477.692	5.14
478.045	4.97
478.399	5.08
478.753	5.04
479.107	4.98
479.461	5.08
479.814	5.07
480.168	5.05
480.521	5.09
480.875	5.18
481.228	5.08
481.582	5.04
481.935	5.12
482.289	4.99
482.642	5.03
482.995	5
483.348	4.97
483.701	4.99
484.055	5.01
484.408	4.93
484.761	4.84
485.114	4.73
485.466	4.6
485.819	4.62
486.172	4.75
486.525	4.87
486.878	4.92
487.23	4.98
487.583	5.01
487.936	4.97
488.288	4.93
488.641	4.85
488.993	4.77
489.345	4.8
489.698	4.84
490.05	4.87
490.402	5
490.754	5.01
491.107	5.08
491.459	5.1
491.811	5.1
492.163	5.04
492.515	5.01
492.866	4.88
493.218	4.84
493.57	4.86
493.922	4.98
494.274	5.11
494.625	5.2
494.977	5.12
495.328	5.14
495.68	5.23
496.031	5.23
496.383	5.32
496.734	5.4
497.086	5.36
497.437	5.29
497.788	5.26
498.139	5.25
498.49	5.21
498.842	5.21
499.193	5.25
499.544	5.39
499.894	5.23
500.245	5.32
500.596	5.14
500.947	5.33
501.298	5.2
501.648	5.31
501.999	5.39
502.35	5.39
502.7	5.36
503.051	5.37
503.401	5.35
503.752	5.27
504.102	5.4
504.452	5.37
504.803	5.35
505.153	5.39
505.503	5.51
505.853	5.39
506.203	5.43
506.553	5.35
506.903	5.34
507.253	5.44
507.603	5.34
507.953	5.45
508.303	5.52
508.652	5.44
509.002	5.49
509.352	5.37
509.701	5.51
510.051	5.35
510.4	5.31
510.75	5.37
511.099	5.4
511.449	5.36
511.798	5.42
512.147	5.46
512.496	5.53
512.846	5.46
513.195	5.55
513.544	5.47
513.893	5.44
514.242	5.61
514.591	5.55
514.939	5.49
515.288	5.58
515.637	5.51
515.986	5.59
516.334	5.67
516.683	5.68
517.032	5.65
517.38	5.71
517.729	5.69
518.077	5.67
518.426	5.58
518.774	5.51
519.122	5.57
519.47	5.65
519.819	5.54
520.167	5.49
520.515	5.49
520.863	5.53
521.211	5.53
521.559	5.55
521.907	5.61
522.255	5.69
522.602	5.71
522.95	5.65
523.298	5.68
523.645	5.75
523.993	5.83
524.341	5.77
524.688	5.78
525.036	5.81
525.383	5.72
525.73	5.78
526.078	5.86
526.425	5.67
526.772	5.65
527.119	5.7
527.466	5.63
527.814	5.59
528.161	5.61
528.508	5.69
528.854	5.75
529.201	5.78
529.548	5.6
529.895	5.49
530.242	5.4
530.588	5.39
530.935	5.53
531.282	5.62
531.628	5.73
531.975	5.66
532.321	5.79
532.667	5.91
533.014	5.83
533.36	5.88
533.706	5.96
534.052	5.79
534.399	5.67
534.745	5.69
535.091	5.63
535.437	5.71
535.783	5.83
536.129	5.85
536.474	5.93
536.82	5.98
537.166	6.02
537.512	6.08
537.857	5.95
538.203	5.9
538.549	5.92
538.894	5.95
539.239	6.08
539.585	6.07
539.93	6.12
540.276	6.15
540.621	6.21
540.966	6.16
541.311	6.14
541.656	6.16
542.001	6.13
542.346	6.04
542.691	5.86
543.036	5.73
543.381	5.85
543.726	5.94
544.071	6.05
544.415	6.08
544.76	6.06
545.105	6.1
545.449	6.1
545.794	6.2
546.138	6.36
546.483	6.21
546.827	6.29
547.171	6.31
547.516	6.39
547.86	6.28
548.204	6.35
548.548	6.32
548.892	6.25
549.236	6.23
549.58	6.43
549.924	6.47
550.268	6.57
550.612	6.54
550.956	6.54
551.3	6.69
551.643	6.65
551.987	6.62
552.33	6.64
552.674	6.62
553.017	6.78
553.361	6.68
553.704	6.76
554.048	6.66
554.391	6.48
554.734	6.55
555.077	6.66
555.42	6.64
555.764	6.68
556.107	6.76
556.45	6.9
556.793	6.91
557.135	6.86
557.478	6.88
557.821	6.91
558.164	6.82
558.507	7.08
558.849	6.92
559.192	6.75
559.534	6.71
559.877	6.81
560.219	7.06
560.562	7.03
560.904	7.03
561.246	6.9
561.589	6.93
561.931	6.94
562.273	7.01
562.615	6.87
562.957	7.04
563.299	6.97
563.641	6.92
563.983	7.12
564.325	6.91
564.667	7.39
565.008	7.12
565.35	7.09
565.692	7.18
566.033	7.18
566.375	7.14
566.716	7.19
567.058	7.22
567.399	7.07
567.741	7.18
568.082	7.16
568.423	7.3
568.764	7.26
569.105	7.26
569.447	7.34
569.788	7.38
570.129	7.38
570.47	7.51
570.811	7.45
571.151	7.62
571.492	7.59
571.833	7.35
572.174	7.42
572.514	7.39
572.855	7.41
573.195	7.54
573.536	7.45
573.876	7.38
574.217	7.44
574.557	7.62
574.898	7.51
575.238	7.64
575.578	7.71
575.918	7.58
576.258	7.82
576.598	7.63
576.938	7.73
577.278	7.73
577.618	7.68
577.958	7.66
578.298	8.01
578.638	7.79
578.977	8
579.317	7.72
579.657	7.89
579.996	7.96
580.336	8.02
580.675	8.01
581.014	8.09
581.354	7.99
581.693	7.93
582.032	8.11
582.372	7.91
582.711	8.09
583.05	8.02
583.389	8.12
583.728	8.18
584.067	8.25
584.406	8.16
584.745	8.14
585.083	8.15
585.422	8.23
585.761	8.03
586.1	8.24
586.438	8.5
586.777	8.23
587.115	8.39
587.454	8.1
587.792	8.67
588.13	8.22
588.469	8.36
588.807	8.65
589.145	8.68
589.483	8.56
589.821	8.66
590.159	8.58
590.497	8.52
590.835	8.69
591.173	8.49
591.511	8.65
591.849	8.48
592.187	8.67
592.524	8.4
592.862	8.59
593.2	8.62
593.537	8.91
593.875	8.85
594.212	8.8
594.55	8.97
594.887	9
595.224	8.85
595.561	8.85
595.899	8.8
596.236	9.06
596.573	8.78
596.91	9.01
597.247	8.96
597.584	9.01
597.921	9.14
598.258	9.15
598.594	8.98
598.931	9.01
599.268	8.91
599.604	9.09
599.941	8.98
600.277	9.12
600.614	9.12
600.95	9.21
601.287	9.29
601.623	9.28
601.959	9.19
602.296	9.4
602.632	9.42
602.968	9.41
603.304	9.23
603.64	9.44
603.976	9.39
604.312	9.73
604.648	9.58
604.984	9.2
605.319	9.45
605.655	9.33
605.991	9.42
606.326	9.4
606.662	9.43
606.998	9.45
607.333	9.63
607.668	9.48
608.004	9.66
608.339	9.63
608.674	9.77
609.01	9.83
609.345	9.77
609.68	10.13
610.015	9.97
610.35	9.8
610.685	9.88
611.02	9.75
611.355	9.9
611.689	10.03
612.024	9.87
612.359	9.87
612.694	9.95
613.028	9.99
613.363	10.26
613.697	10.16
614.032	10.57
614.366	10.35
614.7	10.11
615.035	9.92
615.369	10.16
615.703	10.14
616.037	10.34
616.371	10.71
616.705	10.73
617.039	10.51
617.373	10.39
617.707	10.59
618.041	10.43
618.375	10.76
618.709	10.41
619.042	10.68
619.376	10.67
619.71	10.54
620.043	10.64
620.377	10.31
620.71	10.65
621.043	10.7
621.377	10.82
621.71	10.55
622.043	10.82
622.376	10.62
622.709	11.28
623.043	10.96
623.376	10.56
623.709	11.35
624.041	10.95
624.374	10.97
624.707	11.17
625.04	10.65
625.373	10.97
625.705	11.12
626.038	11.28
626.37	11.19
626.703	10.98
627.035	11.12
627.368	11.44
627.7	10.88
628.032	11.12
628.365	11.23
628.697	11.31
629.029	11
629.361	11.24
629.693	11.1
630.025	11.24
630.357	11.57
630.689	11.67
631.021	11.51
631.353	11.53
631.684	11.64
632.016	11.43
632.348	11.52
632.679	11.81
633.011	11.66
633.342	11.4
633.674	11.63
634.005	11.58
634.336	11.85
634.668	11.92
634.999	11.73
635.33	11.77
635.661	12.07
635.992	11.9
636.323	11.85
636.654	12.05
636.985	12.05
637.316	11.83
637.647	12.06
637.977	12
638.308	11.89
638.639	12
638.969	12.38
639.3	11.99
639.63	12.13
639.961	12.11
640.291	12.39
640.622	12.41
640.952	12.41
641.282	12.85
641.612	12.15
641.943	12.08
642.273	12.41
642.603	12.24
642.933	12.77
643.263	11.97
643.592	12.62
643.922	12.9
644.252	12.21
644.582	12.48
644.911	12.88
645.241	12.4
645.571	12.56
645.9	12.87
646.23	12.67
646.559	12.81
646.888	12.92
647.218	13.31
647.547	12.94
647.876	12.74
648.205	12.7
648.534	13.35
648.863	12.81
649.192	12.92
649.521	12.91
649.85	12.84
650.179	13.04
650.508	12.85
650.837	13.13
651.165	13.15
651.494	13.13
651.822	13.36
652.151	13.39
652.479	13.44
652.808	13.07
653.136	13.37
653.465	13.13
653.793	13.32
654.121	13.42
654.449	13.34
654.777	13.86
655.105	13.29
655.433	14
655.761	13.88
656.089	13.56
656.417	13.76
656.745	13.22
657.073	13.59
657.4	14.11
657.728	13.62
658.056	13.68
658.383	13.99
658.711	13.43
659.038	13.69
659.365	13.84
659.693	13.72
660.02	14.07
660.347	13.81
660.674	13.67
661.001	13.66
661.329	13.94
661.656	13.86
661.982	13.76
662.309	14.32
662.636	14.34
662.963	14.39
663.29	14.02
663.616	14.29
663.943	14.13
664.27	14.46
664.596	14.36
664.923	14.62
665.249	14.28
665.576	14.42
665.902	14.67
666.228	14.17
666.554	14.51
666.881	14.52
667.207	14.4
667.533	14.68
667.859	15.23
668.185	14.92
668.511	14.74
668.837	14.56
669.162	14.51
669.488	14.83
669.814	14.87
670.139	14.56
670.465	15.55
670.791	14.57
671.116	15.07
671.442	14.94
671.767	14.84
672.092	14.72
672.418	15.06
672.743	14.68
673.068	14.81
673.393	14.81
673.718	15.34
674.043	15.03
674.368	15.32
674.693	15.86
675.018	15.26
675.343	15.41
675.667	15.26
675.992	15.38
676.317	15.19
676.641	15.67
676.966	15.11
677.29	15.77
677.615	15.58
677.939	16.16
678.264	15.97
678.588	14.88
678.912	14.82
679.236	15.81
679.56	15.29
679.885	15.95
680.209	15.64
680.532	15.81
680.856	15.73
681.18	15.75
681.504	15.87
681.828	15.52
682.152	15.63
682.475	15.31
682.799	15.94
683.122	16.03
683.446	15.67
683.769	15.8
684.093	15.88
684.416	16.02
684.739	16.44
685.062	15.55
685.386	16.25
685.709	15.92
686.032	15.97
686.355	16.46
686.678	16.63
687.001	16.47
