Data from 815643_crown_Reflection__0__19.txt Node

Date: Fri Sep 16 14:19:15 CDT 2022
User: ToomeyLab
Spectrometer: FLMS14357
Trigger mode: 0
Integration Time (sec): 1.000000E-2
Scans to average: 100
Electric dark correction enabled: true
Nonlinearity correction enabled: false
Boxcar width: 0
XAxis mode: Wavelengths
Number of Pixels in Spectrum: 2048
>>>>>Begin Spectral Data<<<<<
189.047	107.25
189.435	107.25
189.823	107.25
190.211	167.21
190.599	9.03
190.987	298.05
191.375	-26.46
191.763	-70.72
192.151	-297.42
192.538	223.35
192.926	67.07
193.314	-74.45
193.702	-428.3
194.089	27.13
194.477	-14.39
194.864	-76.9
195.252	-517.68
195.639	945.07
196.027	-250.99
196.414	91.07
196.801	72.81
197.189	80.72
197.576	-93.33
197.963	-9.6
198.351	18.67
198.738	7.97
199.125	-12.36
199.512	-32.5
199.899	26.6
200.286	17.34
200.673	-17.53
201.06	5.43
201.447	21.19
201.833	11.53
202.22	-35.08
202.607	30.57
202.994	5.02
203.38	-38.71
203.767	-1.42
204.154	26.78
204.54	-8.5
204.927	-3.69
205.313	17.88
205.699	5.92
206.086	-21.84
206.472	-7.3
206.858	-4.4
207.245	18.52
207.631	18.83
208.017	10.58
208.403	24.28
208.789	10.23
209.175	-35.69
209.561	18.33
209.947	-58.93
210.333	-29.91
210.719	3.51
211.105	12.44
211.491	-16.62
211.876	-41.85
212.262	-9.45
212.648	-8.38
213.034	14.15
213.419	19.76
213.805	11.92
214.19	5.7
214.576	-2.07
214.961	17.38
215.346	-18.53
215.732	10.59
216.117	5.83
216.502	-4.46
216.888	-22
217.273	-6.66
217.658	-16.38
218.043	0.81
218.428	4.32
218.813	6.85
219.198	-13.07
219.583	12.36
219.968	-18.01
220.353	1.79
220.738	-22.41
221.122	16.56
221.507	-12.41
221.892	0.41
222.276	3.69
222.661	-2.06
223.046	2.58
223.43	1.82
223.815	5.54
224.199	-7.47
224.583	-9.69
224.968	-3.2
225.352	-1.12
225.736	4.28
226.121	-1.85
226.505	2.01
226.889	7.31
227.273	8.96
227.657	6.37
228.041	3.6
228.425	3.39
228.809	3.56
229.193	2.83
229.577	5
229.961	4.15
230.344	3.79
230.728	3.86
231.112	4.45
231.495	4.04
231.879	3.81
232.263	3.22
232.646	2.53
233.03	3.79
233.413	3.11
233.797	4.64
234.18	4.3
234.563	3.01
234.946	2.71
235.33	2.37
235.713	3.27
236.096	2.85
236.479	4.14
236.862	3.81
237.245	3.06
237.628	3.59
238.011	4.05
238.394	4.02
238.777	3.02
239.16	2.21
239.543	3.91
239.925	5.37
240.308	5.91
240.691	3.81
241.073	3.16
241.456	3.06
241.838	3.77
242.221	3.62
242.603	4.77
242.986	3.29
243.368	3.48
243.75	3.95
244.133	3.98
244.515	3.99
244.897	4.16
245.279	4.32
245.661	3.12
246.043	4.21
246.425	3.87
246.807	3.62
247.189	4.18
247.571	3.56
247.953	4.03
248.335	3.93
248.717	3.6
249.098	3.8
249.48	4.22
249.862	3.72
250.243	3.72
250.625	3.33
251.006	3.86
251.388	4.11
251.769	3.72
252.151	4.2
252.532	3.07
252.913	3.37
253.295	3.6
253.676	3.69
254.057	3.19
254.438	3.62
254.819	4.3
255.2	3.04
255.581	3.35
255.962	3.01
256.343	3.8
256.724	4.22
257.105	4.23
257.486	3.87
257.867	2.54
258.247	2.92
258.628	3.8
259.009	3.21
259.389	3.67
259.77	2.93
260.15	3.56
260.531	3.09
260.911	3.17
261.292	3.18
261.672	3.46
262.052	3.57
262.432	3.48
262.813	3.98
263.193	3.55
263.573	3.35
263.953	3.2
264.333	3.3
264.713	3.53
265.093	2.9
265.473	3.41
265.853	3.24
266.233	3.06
266.612	4
266.992	2.79
267.372	2.71
267.752	2.97
268.131	3.14
268.511	3.39
268.89	2.92
269.27	3.01
269.649	3.1
270.029	3.01
270.408	2.99
270.787	3.96
271.167	2.88
271.546	3.25
271.925	3.24
272.304	3.12
272.683	2.99
273.062	3.01
273.441	3.24
273.82	2.68
274.199	3.35
274.578	3.42
274.957	3.33
275.336	3.36
275.715	3.08
276.093	3.27
276.472	3.46
276.851	3.18
277.229	2.83
277.608	3.1
277.986	2.77
278.365	3.1
278.743	3.47
279.122	2.71
279.5	2.87
279.878	3.44
280.257	3.12
280.635	2.97
281.013	3.41
281.391	3.45
281.769	2.88
282.147	3.35
282.525	3.08
282.903	2.93
283.281	3.65
283.659	3.3
284.037	3.29
284.415	2.89
284.792	3.73
285.17	3.13
285.548	2.99
285.925	3.3
286.303	3.01
286.68	2.87
287.058	3.24
287.435	3.08
287.813	3.09
288.19	2.87
288.567	3.28
288.945	3.18
289.322	2.7
289.699	2.56
290.076	2.76
290.453	3.71
290.83	3.15
291.207	3.07
291.584	2.69
291.961	2.96
292.338	2.82
292.715	2.73
293.092	2.88
293.469	2.77
293.845	3.27
294.222	2.69
294.599	2.86
294.975	2.5
295.352	3.22
295.728	2.73
296.105	2.53
296.481	2.65
296.858	3.15
297.234	2.98
297.61	2.63
297.986	2.27
298.363	2.96
298.739	2.81
299.115	3.02
299.491	3.17
299.867	2.91
300.243	2.93
300.619	3.09
300.995	2.83
301.371	2.89
301.746	2.67
302.122	2.36
302.498	2.64
302.874	2.7
303.249	2.53
303.625	2.61
304	3.13
304.376	2.8
304.751	3.25
305.127	3.16
305.502	2.88
305.878	2.33
306.253	2.79
306.628	3.01
307.003	2.93
307.378	3.2
307.754	2.63
308.129	2.77
308.504	2.9
308.879	2.49
309.254	2.73
309.629	3.02
310.003	2.82
310.378	2.63
310.753	2.69
311.128	2.39
311.502	3.05
311.877	3.19
312.252	2.41
312.626	3.2
313.001	2.87
313.375	2.76
313.75	3.12
314.124	3.31
314.498	2.98
314.873	2.49
315.247	3.13
315.621	2.59
315.995	2.64
316.369	2.89
316.743	3.16
317.117	2.79
317.491	2.87
317.865	3
318.239	2.5
318.613	2.84
318.987	2.97
319.361	2.96
319.734	3.35
320.108	2.86
320.482	2.4
320.855	2.93
321.229	3.09
321.602	2.66
321.976	2.59
322.349	2.58
322.723	2.37
323.096	2.81
323.469	2.76
323.843	2.7
324.216	2.7
324.589	2.73
324.962	2.49
325.335	2.61
325.708	2.69
326.081	2.73
326.454	2.55
326.827	3.04
327.2	2.61
327.573	2.75
327.945	3.21
328.318	3.28
328.691	2.66
329.063	3.37
329.436	2.7
329.809	2.65
330.181	2.64
330.553	2.64
330.926	2.35
331.298	2.92
331.671	2.83
332.043	2.81
332.415	2.98
332.787	2.59
333.159	2.82
333.532	2.7
333.904	2.99
334.276	2.97
334.648	2.9
335.02	3.04
335.391	2.56
335.763	3.11
336.135	2.66
336.507	2.81
336.879	2.84
337.25	2.75
337.622	2.76
337.993	2.56
338.365	2.82
338.736	3.13
339.108	2.97
339.479	2.95
339.851	3.43
340.222	3.09
340.593	2.32
340.964	2.62
341.336	2.9
341.707	3.07
342.078	3.17
342.449	3.14
342.82	2.97
343.191	2.78
343.562	3.21
343.933	2.86
344.303	2.91
344.674	2.63
345.045	2.97
345.416	3.31
345.786	2.84
346.157	2.64
346.527	3.17
346.898	2.69
347.268	3
347.639	2.69
348.009	2.79
348.38	3.22
348.75	3.08
349.12	2.82
349.49	2.9
349.861	2.63
350.231	2.67
350.601	3.09
350.971	2.67
351.341	2.94
351.711	3.04
352.081	2.98
352.45	3.06
352.82	2.77
353.19	2.86
353.56	3.03
353.929	3.01
354.299	2.86
354.669	3.14
355.038	3.03
355.408	3.45
355.777	2.95
356.147	2.96
356.516	2.99
356.885	2.75
357.254	2.97
357.624	2.98
357.993	3.3
358.362	3.12
358.731	2.65
359.1	2.99
359.469	3.02
359.838	3.12
360.207	3.12
360.576	3.36
360.945	3.13
361.314	3.02
361.682	2.71
362.051	3.27
362.42	2.94
362.788	2.98
363.157	3.08
363.525	2.95
363.894	3.11
364.262	3.03
364.631	3.04
364.999	3.4
365.367	2.69
365.735	3.01
366.104	3.01
366.472	3.16
366.84	2.86
367.208	3.05
367.576	2.94
367.944	3.29
368.312	3.14
368.68	3.4
369.048	2.83
369.416	3.38
369.783	3.35
370.151	3.13
370.519	3.38
370.886	2.93
371.254	2.96
371.621	3.2
371.989	2.83
372.356	3.2
372.724	3.28
373.091	2.89
373.458	3.1
373.826	3.02
374.193	3.14
374.56	3.13
374.927	3.23
375.294	3.38
375.661	3.21
376.028	3.22
376.395	3.18
376.762	3.48
377.129	2.83
377.496	3.08
377.863	3.23
378.229	3.15
378.596	2.9
378.963	3.16
379.329	3.36
379.696	3.26
380.062	3.53
380.429	3.26
380.795	3.17
381.161	3.32
381.528	3.59
381.894	2.92
382.26	3.03
382.626	3.13
382.993	3.36
383.359	3.02
383.725	3.05
384.091	3.75
384.457	3.16
384.823	3.43
385.188	3.04
385.554	3.2
385.92	3.33
386.286	3.11
386.651	3.42
387.017	3.23
387.383	3.22
387.748	3.33
388.114	3.25
388.479	3.13
388.845	2.99
389.21	3.35
389.575	3.54
389.94	3.38
390.306	3.52
390.671	3.48
391.036	3.14
391.401	3.14
391.766	3.27
392.131	3.23
392.496	3.56
392.861	3.31
393.226	3.28
393.591	3.23
393.956	3.36
394.32	3.11
394.685	3.53
395.05	3.61
395.414	3.22
395.779	3.4
396.143	3.31
396.508	3.38
396.872	3.31
397.236	3.26
397.601	3.38
397.965	3.39
398.329	3.66
398.694	3.49
399.058	3.54
399.422	3.37
399.786	3.49
400.15	3.24
400.514	3.05
400.878	3.41
401.242	3.18
401.605	3.51
401.969	3.34
402.333	3.39
402.697	3.63
403.06	3.31
403.424	3.46
403.787	3.42
404.151	3.25
404.514	3.42
404.878	3.29
405.241	3.5
405.604	3.35
405.968	3.3
406.331	3.42
406.694	3.35
407.057	3.35
407.42	3.6
407.783	3.44
408.146	3.3
408.509	3.67
408.872	3.54
409.235	3.4
409.598	3.7
409.961	3.09
410.323	3.39
410.686	3.61
411.049	3.35
411.411	3.47
411.774	3.5
412.136	3.33
412.499	3.41
412.861	3.56
413.223	3.46
413.586	3.35
413.948	3.26
414.31	3.4
414.672	3.49
415.035	3.7
415.397	3.51
415.759	3.44
416.121	3.35
416.483	3.42
416.845	3.5
417.206	3.35
417.568	3.16
417.93	3.19
418.292	3.41
418.653	3.28
419.015	3.44
419.377	3.37
419.738	3.37
420.1	3.39
420.461	3.3
420.822	3.22
421.184	3.35
421.545	3.34
421.906	3.29
422.267	3.37
422.629	3.34
422.99	3.28
423.351	3.36
423.712	3.3
424.073	3.43
424.434	3.49
424.795	3.32
425.155	3.31
425.516	3.29
425.877	3.37
426.238	3.32
426.598	3.35
426.959	3.42
427.32	3.32
427.68	3.44
428.041	3.43
428.401	3.41
428.761	3.53
429.122	3.55
429.482	3.65
429.842	3.41
430.202	3.44
430.563	3.53
430.923	3.39
431.283	3.55
431.643	3.39
432.003	3.48
432.363	3.4
432.722	3.41
433.082	3.37
433.442	3.57
433.802	3.3
434.161	3.45
434.521	3.39
434.881	3.52
435.24	3.41
435.6	3.41
435.959	3.34
436.319	3.53
436.678	3.43
437.037	3.48
437.396	3.4
437.756	3.59
438.115	3.54
438.474	3.36
438.833	3.52
439.192	3.53
439.551	3.33
439.91	3.42
440.269	3.44
440.628	3.51
440.987	3.39
441.345	3.33
441.704	3.39
442.063	3.42
442.421	3.39
442.78	3.41
443.138	3.41
443.497	3.57
443.855	3.46
444.214	3.55
444.572	3.5
444.93	3.47
445.288	3.41
445.647	3.45
446.005	3.4
446.363	3.43
446.721	3.34
447.079	3.34
447.437	3.41
447.795	3.35
448.153	3.34
448.51	3.26
448.868	3.42
449.226	3.39
449.584	3.42
449.941	3.45
450.299	3.38
450.656	3.51
451.014	3.51
451.371	3.52
451.729	3.49
452.086	3.45
452.443	3.63
452.801	3.62
453.158	3.49
453.515	3.33
453.872	3.55
454.229	3.45
454.586	3.43
454.943	3.61
455.3	3.52
455.657	3.71
456.014	3.5
456.371	3.49
456.727	3.48
457.084	3.57
457.441	3.49
457.797	3.48
458.154	3.45
458.51	3.4
458.867	3.47
459.223	3.3
459.58	3.27
459.936	3.54
460.292	3.41
460.648	3.4
461.005	3.38
461.361	3.27
461.717	3.32
462.073	3.32
462.429	3.47
462.785	3.44
463.141	3.44
463.496	3.64
463.852	3.66
464.208	3.52
464.564	3.45
464.919	3.49
465.275	3.36
465.631	3.55
465.986	3.55
466.342	3.49
466.697	3.44
467.052	3.52
467.408	3.36
467.763	3.59
468.118	3.56
468.473	3.6
468.829	3.42
469.184	3.36
469.539	3.37
469.894	3.4
470.249	3.45
470.603	3.59
470.958	3.56
471.313	3.41
471.668	3.45
472.023	3.52
472.377	3.46
472.732	3.39
473.086	3.56
473.441	3.5
473.795	3.36
474.15	3.43
474.504	3.54
474.859	3.48
475.213	3.5
475.567	3.38
475.921	3.69
476.275	3.47
476.63	3.58
476.984	3.43
477.338	3.53
477.692	3.59
478.045	3.35
478.399	3.44
478.753	3.56
479.107	3.35
479.461	3.58
479.814	3.46
480.168	3.49
480.521	3.48
480.875	3.4
481.228	3.59
481.582	3.43
481.935	3.58
482.289	3.38
482.642	3.38
482.995	3.34
483.348	3.42
483.701	3.47
484.055	3.41
484.408	3.38
484.761	3.24
485.114	3.18
485.466	3.08
485.819	3.12
486.172	3.25
486.525	3.36
486.878	3.46
487.23	3.35
487.583	3.39
487.936	3.39
488.288	3.29
488.641	3.3
488.993	3.18
489.345	3.23
489.698	3.27
490.05	3.33
490.402	3.36
490.754	3.41
491.107	3.43
491.459	3.52
491.811	3.47
492.163	3.47
492.515	3.37
492.866	3.21
493.218	3.16
493.57	3.23
493.922	3.36
494.274	3.5
494.625	3.49
494.977	3.43
495.328	3.51
495.68	3.43
496.031	3.64
496.383	3.54
496.734	3.59
497.086	3.54
497.437	3.4
497.788	3.41
498.139	3.32
498.49	3.52
498.842	3.38
499.193	3.53
499.544	3.5
499.894	3.52
500.245	3.56
500.596	3.38
500.947	3.51
501.298	3.49
501.648	3.52
501.999	3.56
502.35	3.54
502.7	3.47
503.051	3.48
503.401	3.58
503.752	3.44
504.102	3.51
504.452	3.47
504.803	3.56
505.153	3.55
505.503	3.48
505.853	3.46
506.203	3.49
506.553	3.46
506.903	3.48
507.253	3.48
507.603	3.38
507.953	3.48
508.303	3.54
508.652	3.48
509.002	3.56
509.352	3.35
509.701	3.47
510.051	3.44
510.4	3.43
510.75	3.44
511.099	3.4
511.449	3.4
511.798	3.44
512.147	3.45
512.496	3.44
512.846	3.45
513.195	3.45
513.544	3.47
513.893	3.42
514.242	3.56
514.591	3.46
514.939	3.44
515.288	3.47
515.637	3.42
515.986	3.55
516.334	3.56
516.683	3.43
517.032	3.4
517.38	3.52
517.729	3.57
518.077	3.5
518.426	3.4
518.774	3.27
519.122	3.41
519.47	3.5
519.819	3.38
520.167	3.34
520.515	3.27
520.863	3.38
521.211	3.42
521.559	3.42
521.907	3.45
522.255	3.49
522.602	3.46
522.95	3.44
523.298	3.52
523.645	3.4
523.993	3.47
524.341	3.54
524.688	3.43
525.036	3.61
525.383	3.44
525.73	3.44
526.078	3.41
526.425	3.42
526.772	3.32
527.119	3.35
527.466	3.31
527.814	3.3
528.161	3.37
528.508	3.48
528.854	3.46
529.201	3.38
529.548	3.2
529.895	3.2
530.242	3.08
530.588	3.09
530.935	3.25
531.282	3.33
531.628	3.35
531.975	3.38
532.321	3.44
532.667	3.45
533.014	3.39
533.36	3.34
533.706	3.37
534.052	3.29
534.399	3.22
534.745	3.2
535.091	3.14
535.437	3.28
535.783	3.31
536.129	3.4
536.474	3.5
536.82	3.38
537.166	3.39
537.512	3.42
537.857	3.3
538.203	3.27
538.549	3.34
538.894	3.32
539.239	3.37
539.585	3.44
539.93	3.43
540.276	3.38
540.621	3.52
540.966	3.52
541.311	3.35
541.656	3.49
542.001	3.46
542.346	3.23
542.691	3.12
543.036	3.06
543.381	3.2
543.726	3.23
544.071	3.31
544.415	3.36
544.76	3.31
545.105	3.26
545.449	3.34
545.794	3.37
546.138	3.46
546.483	3.43
546.827	3.39
547.171	3.37
547.516	3.36
547.86	3.39
548.204	3.27
548.548	3.38
548.892	3.31
549.236	3.31
549.58	3.43
549.924	3.37
550.268	3.49
550.612	3.39
550.956	3.38
551.3	3.54
551.643	3.45
551.987	3.4
552.33	3.61
552.674	3.41
553.017	3.62
553.361	3.49
553.704	3.4
554.048	3.41
554.391	3.31
554.734	3.36
555.077	3.43
555.42	3.47
555.764	3.44
556.107	3.48
556.45	3.6
556.793	3.47
557.135	3.52
557.478	3.33
557.821	3.55
558.164	3.42
558.507	3.61
558.849	3.55
559.192	3.36
559.534	3.23
559.877	3.45
560.219	3.49
560.562	3.31
560.904	3.52
561.246	3.43
561.589	3.38
561.931	3.42
562.273	3.38
562.615	3.37
562.957	3.32
563.299	3.41
563.641	3.37
563.983	3.35
564.325	3.26
564.667	3.37
565.008	3.38
565.35	3.47
565.692	3.45
566.033	3.45
566.375	3.48
566.716	3.31
567.058	3.26
567.399	3.32
567.741	3.34
568.082	3.37
568.423	3.34
568.764	3.37
569.105	3.45
569.447	3.41
569.788	3.32
570.129	3.54
570.47	3.48
570.811	3.44
571.151	3.54
571.492	3.38
571.833	3.34
572.174	3.16
572.514	3.27
572.855	3.38
573.195	3.41
573.536	3.5
573.876	3.2
574.217	3.32
574.557	3.45
574.898	3.4
575.238	3.53
575.578	3.59
575.918	3.31
576.258	3.2
576.598	3.37
576.938	3.41
577.278	3.44
577.618	3.34
577.958	3.36
578.298	3.51
578.638	3.35
578.977	3.44
579.317	3.21
579.657	3.51
579.996	3.49
580.336	3.36
580.675	3.44
581.014	3.34
581.354	3.46
581.693	3.31
582.032	3.49
582.372	3.4
582.711	3.4
583.05	3.27
583.389	3.49
583.728	3.61
584.067	3.62
584.406	3.37
584.745	3.39
585.083	3.32
585.422	3.42
585.761	3.22
586.1	3.13
586.438	3.68
586.777	3.48
587.115	3.46
587.454	3.3
587.792	3.43
588.13	3.22
588.469	3.45
588.807	3.39
589.145	3.52
589.483	3.36
589.821	3.5
590.159	3.41
590.497	3.53
590.835	3.59
591.173	3.26
591.511	3.47
591.849	3.36
592.187	3.57
592.524	3.39
592.862	3.44
593.2	3.42
593.537	3.44
593.875	3.48
594.212	3.23
594.55	3.52
594.887	3.46
595.224	3.45
595.561	3.64
595.899	3.59
596.236	3.65
596.573	3.39
596.91	3.42
597.247	3.52
597.584	3.38
597.921	3.35
598.258	3.36
598.594	3.36
598.931	3.39
599.268	3.28
599.604	3.31
599.941	3.42
600.277	3.46
600.614	3.36
600.95	3.51
601.287	3.39
601.623	3.46
601.959	3.41
602.296	3.4
602.632	3.19
602.968	3.46
603.304	3.47
603.64	3.44
603.976	3.28
604.312	3.61
604.648	3.39
604.984	3.18
605.319	3.55
605.655	3.18
605.991	3.37
606.326	3.32
606.662	3.17
606.998	3.45
607.333	3.38
607.668	3.37
608.004	3.5
608.339	3.43
608.674	3.34
609.01	3.33
609.345	3.37
609.68	3.77
610.015	3.43
610.35	3.37
610.685	3.36
611.02	3.29
611.355	3.36
611.689	3.33
612.024	3.27
612.359	3.36
612.694	3.46
613.028	3.37
613.363	3.29
613.697	3.6
614.032	3.38
614.366	3.44
614.7	3.28
615.035	3.18
615.369	3.59
615.703	3.58
616.037	3.24
616.371	3.46
616.705	3.68
617.039	3.35
617.373	3.01
617.707	3.34
618.041	3.44
618.375	3.5
618.709	3.46
619.042	3.24
619.376	3.2
619.71	3.26
620.043	3.56
620.377	3.23
620.71	3.31
621.043	3.69
621.377	3.8
621.71	3.29
622.043	3.49
622.376	3.38
622.709	3.63
623.043	3.27
623.376	3.24
623.709	3.53
624.041	3.35
624.374	3.25
624.707	3.52
625.04	3.46
625.373	3.51
625.705	3.18
626.038	3.04
626.37	3.55
626.703	3.21
627.035	3.4
627.368	3.55
627.7	3.21
628.032	3.41
628.365	3.47
628.697	3.85
629.029	3.49
629.361	3.36
629.693	3.29
630.025	3.38
630.357	3.53
630.689	3.5
631.021	3.66
631.353	3.23
631.684	3.36
632.016	3.28
632.348	3.07
632.679	3.57
633.011	3.31
633.342	3.13
633.674	3.42
634.005	3.48
634.336	3.33
634.668	3.48
634.999	3.16
635.33	3.23
635.661	3.74
635.992	3.38
636.323	3.51
636.654	3.56
636.985	3.58
637.316	3.05
637.647	3.72
637.977	3.52
638.308	3.42
638.639	3.39
638.969	3.31
639.3	3.38
639.63	3.32
639.961	3.48
640.291	3.65
640.622	3.71
640.952	3.33
641.282	3.47
641.612	3.2
641.943	3.04
642.273	3.46
642.603	3.34
642.933	3.57
643.263	3.28
643.592	3.77
643.922	3.94
644.252	3.25
644.582	3.52
644.911	3.73
645.241	3.57
645.571	3.73
645.9	3.68
646.23	3.35
646.559	3.3
646.888	3.24
647.218	3.5
647.547	3.43
647.876	3.59
648.205	3.75
648.534	3.47
648.863	3.58
649.192	3.41
649.521	3.55
649.85	3.47
650.179	3.39
650.508	3.54
650.837	3.59
651.165	3.5
651.494	3.55
651.822	3.57
652.151	3.53
652.479	3.4
652.808	3.14
653.136	3.5
653.465	3.42
653.793	3.61
654.121	4.1
654.449	3.27
654.777	3.54
655.105	3.49
655.433	4.08
655.761	3.52
656.089	3.02
656.417	3.63
656.745	2.9
657.073	3.65
657.4	3.91
657.728	3.8
658.056	3.45
658.383	3.31
658.711	3.26
659.038	3.89
659.365	3.47
659.693	3.26
660.02	3.54
660.347	3.4
660.674	3.34
661.001	3.1
661.329	3.53
661.656	3.66
661.982	3.44
662.309	3.58
662.636	3.67
662.963	3.55
663.29	3.3
663.616	3.5
663.943	3.57
664.27	3.87
664.596	3.62
664.923	3.24
665.249	3.75
665.576	4.01
665.902	3.54
666.228	3.91
666.554	3.53
666.881	3.27
667.207	3.39
667.533	3.48
667.859	3.58
668.185	3.66
668.511	3.6
668.837	3.71
669.162	3.37
669.488	3.28
669.814	3.81
670.139	3.34
670.465	4.05
670.791	3.42
671.116	3.6
671.442	3.82
671.767	3.61
672.092	3.68
672.418	3.94
672.743	3.48
673.068	3.45
673.393	3.06
673.718	3.55
674.043	3.23
674.368	3.61
674.693	3.71
675.018	3.44
675.343	3.99
675.667	3.49
675.992	3.25
676.317	2.49
676.641	3.58
676.966	3.63
677.29	3.94
677.615	3.96
677.939	4.02
678.264	3.89
678.588	3.2
678.912	3.26
679.236	3.72
679.56	3.52
679.885	3.63
680.209	3.84
680.532	3.65
680.856	3.44
681.18	3.68
681.504	3.45
681.828	3.11
682.152	3.35
682.475	3.44
682.799	3.43
683.122	3.52
683.446	3.21
683.769	3.3
684.093	3.95
684.416	3.53
684.739	3.95
685.062	3.9
685.386	3.69
685.709	3.42
686.032	3.89
686.355	3.38
686.678	4.34
687.001	3.51
687.324	2.87
687.646	3.49
687.969	3.65
688.292	4.06
688.614	2.91
688.937	3.87
689.26	3.81
689.582	3.4
689.904	3.57
690.227	3.54
690.549	3.2
690.871	3.21
691.194	3.14
691.516	3.66
691.838	3.54
692.16	3.62
692.482	3.67
