Data from 815643_forehead_Reflection__0__14.txt Node

Date: Fri Sep 16 14:17:03 CDT 2022
User: ToomeyLab
Spectrometer: FLMS14357
Trigger mode: 0
Integration Time (sec): 1.000000E-2
Scans to average: 100
Electric dark correction enabled: true
Nonlinearity correction enabled: false
Boxcar width: 0
XAxis mode: Wavelengths
Number of Pixels in Spectrum: 2048
>>>>>Begin Spectral Data<<<<<
189.047	-11.18
189.435	-11.18
189.823	-11.18
190.211	133.04
190.599	91.87
190.987	-891.37
191.375	8.19
191.763	160.67
192.151	464.19
192.538	528.41
192.926	190.47
193.314	-140.46
193.702	-396.9
194.089	72.37
194.477	-125.49
194.864	22.08
195.252	116.4
195.639	-161.27
196.027	-236.96
196.414	111.13
196.801	24.61
197.189	80.11
197.576	-2.31
197.963	-17.55
198.351	33.94
198.738	31.84
199.125	3.49
199.512	18.01
199.899	42.89
200.286	30.04
200.673	0.77
201.06	7.34
201.447	-15.21
201.833	30.14
202.22	-26.48
202.607	45.87
202.994	24.73
203.38	-21.29
203.767	-2.28
204.154	52.75
204.54	18.82
204.927	2.06
205.313	-1.61
205.699	26
206.086	13.36
206.472	18.49
206.858	0.01
207.245	37.69
207.631	15.08
208.017	5.1
208.403	30.46
208.789	30.79
209.175	-50.59
209.561	-2.21
209.947	-7.01
210.333	11.16
210.719	3.97
211.105	20.91
211.491	2.83
211.876	13.28
212.262	-12.68
212.648	13.28
213.034	20.99
213.419	15.05
213.805	32.5
214.19	15.58
214.576	-6.74
214.961	23.91
215.346	25.44
215.732	4.76
216.117	-0.59
216.502	18.41
216.888	8.86
217.273	14.22
217.658	6.47
218.043	7.11
218.428	11.49
218.813	32.3
219.198	4.09
219.583	19.17
219.968	10.69
220.353	16.89
220.738	-10.84
221.122	26.97
221.507	6.17
221.892	25.45
222.276	14.36
222.661	6.76
223.046	12.88
223.43	8.49
223.815	-7.83
224.199	-3.11
224.583	-1.18
224.968	8.56
225.352	2.37
225.736	0.82
226.121	-1.63
226.505	3.43
226.889	4.76
227.273	7.83
227.657	4.24
228.041	2.06
228.425	6
228.809	4.24
229.193	4.07
229.577	3.73
229.961	2.4
230.344	2.85
230.728	2.38
231.112	2
231.495	3.42
231.879	2.47
232.263	2.06
232.646	1.02
233.03	2.78
233.413	1.73
233.797	4.74
234.18	-1.26
234.563	0.87
234.946	3.11
235.33	1.78
235.713	2.37
236.096	1.5
236.479	3.39
236.862	2.47
237.245	1.12
237.628	2.19
238.011	4.1
238.394	3.88
238.777	3.9
239.16	2.39
239.543	3.61
239.925	3.51
240.308	4.7
240.691	1.42
241.073	3.27
241.456	2.17
241.838	2.93
242.221	1.85
242.603	3.23
242.986	2.73
243.368	2.68
243.75	2.49
244.133	2.93
244.515	2.53
244.897	2.95
245.279	3.03
245.661	2.18
246.043	3.8
246.425	3.59
246.807	3.61
247.189	3.02
247.571	2.46
247.953	3.03
248.335	3.03
248.717	2.61
249.098	2.57
249.48	3.01
249.862	2.66
250.243	2.82
250.625	2.75
251.006	3.06
251.388	3.17
251.769	3.18
252.151	3.14
252.532	2.45
252.913	2.88
253.295	3.17
253.676	3.28
254.057	2.35
254.438	3.1
254.819	3.69
255.2	1.52
255.581	3.37
255.962	2.69
256.343	2.67
256.724	2.89
257.105	2.25
257.486	2.94
257.867	2.99
258.247	3.11
258.628	3.66
259.009	2.49
259.389	3.23
259.77	2.12
260.15	2.99
260.531	2.75
260.911	2.42
261.292	2.52
261.672	2.6
262.052	2.87
262.432	2.95
262.813	2.94
263.193	2.82
263.573	2.44
263.953	2.82
264.333	2.57
264.713	2.77
265.093	2.77
265.473	2.49
265.853	2.53
266.233	2.8
266.612	3.65
266.992	2.9
267.372	2.82
267.752	2.51
268.131	2.53
268.511	2.84
268.89	2.83
269.27	2.72
269.649	2.45
270.029	2.39
270.408	2.8
270.787	3.31
271.167	2.81
271.546	3.12
271.925	1.95
272.304	2.78
272.683	2.78
273.062	2.79
273.441	3.1
273.82	2.36
274.199	3.02
274.578	2.71
274.957	2.57
275.336	3.21
275.715	2.55
276.093	2.91
276.472	2.99
276.851	2.97
277.229	2.72
277.608	2.25
277.986	2.07
278.365	2.94
278.743	2.85
279.122	2.45
279.5	2.71
279.878	3.29
280.257	2.84
280.635	2.62
281.013	2.89
281.391	2.61
281.769	2.47
282.147	2.43
282.525	2.96
282.903	3.06
283.281	3.25
283.659	2.74
284.037	2.61
284.415	2.79
284.792	2.86
285.17	3.32
285.548	2.78
285.925	3.26
286.303	2.73
286.68	2.36
287.058	2.78
287.435	2.82
287.813	3.01
288.19	2.66
288.567	2.68
288.945	3.31
289.322	2.81
289.699	2.63
290.076	2.81
290.453	3.48
290.83	3.25
291.207	2.7
291.584	2.81
291.961	3.03
292.338	2.92
292.715	2.9
293.092	2.97
293.469	3.42
293.845	3.26
294.222	2.94
294.599	3.71
294.975	2.92
295.352	3.33
295.728	3.06
296.105	3.01
296.481	3.07
296.858	3.71
297.234	3.14
297.61	3.26
297.986	2.92
298.363	3.54
298.739	3.3
299.115	3.58
299.491	3.27
299.867	3.51
300.243	3.4
300.619	3.98
300.995	3.33
301.371	3.71
301.746	3.31
302.122	3.1
302.498	3.61
302.874	3.15
303.249	3.44
303.625	3.46
304	3.75
304.376	3.49
304.751	4.01
305.127	3.69
305.502	3.3
305.878	3.06
306.253	3.81
306.628	3.94
307.003	3.77
307.378	3.94
307.754	3.42
308.129	3.34
308.504	4.1
308.879	3.62
309.254	4.25
309.629	4.32
310.003	4.05
310.378	3.9
310.753	3.87
311.128	3.99
311.502	4.25
311.877	3.87
312.252	3.53
312.626	4.54
313.001	3.69
313.375	4.29
313.75	4.32
314.124	4.4
314.498	4.43
314.873	4.25
315.247	4.44
315.621	4.63
315.995	4.51
316.369	4.32
316.743	4.49
317.117	4.05
317.491	4.46
317.865	4.68
318.239	4.27
318.613	4.8
318.987	4.86
319.361	4.54
319.734	4.54
320.108	4.76
320.482	4.36
320.855	4.77
321.229	5.24
321.602	4.46
321.976	4.11
322.349	4.63
322.723	5.18
323.096	4.87
323.469	4.91
323.843	5.11
324.216	4.88
324.589	5.02
324.962	5.03
325.335	5.11
325.708	4.8
326.081	5.08
326.454	5.34
326.827	5.46
327.2	4.92
327.573	4.97
327.945	4.91
328.318	5.28
328.691	5.4
329.063	5.48
329.436	5.12
329.809	5.81
330.181	5.42
330.553	5.66
330.926	5.03
331.298	5.64
331.671	5.87
332.043	5.85
332.415	5.9
332.787	5.4
333.159	5.79
333.532	5.97
333.904	5.55
334.276	5.74
334.648	4.97
335.02	6.09
335.391	5.22
335.763	5.85
336.135	5.58
336.507	5.34
336.879	5.94
337.25	5.46
337.622	5.73
337.993	5.71
338.365	6.02
338.736	5.61
339.108	6.25
339.479	5.89
339.851	6.37
340.222	6.09
340.593	5.6
340.964	6.12
341.336	6.13
341.707	6.27
342.078	5.81
342.449	5.85
342.82	6.22
343.191	6.04
343.562	6.4
343.933	6.18
344.303	6.57
344.674	6.2
345.045	6.32
345.416	6.45
345.786	6.29
346.157	6.28
346.527	6.29
346.898	6.11
347.268	6.24
347.639	6.31
348.009	6.15
348.38	6.75
348.75	6.47
349.12	6.49
349.49	6.49
349.861	6.39
350.231	6.54
350.601	7.09
350.971	6.46
351.341	6.83
351.711	7.17
352.081	7.21
352.45	6.93
352.82	6.92
353.19	6.75
353.56	6.82
353.929	6.84
354.299	6.96
354.669	6.81
355.038	6.9
355.408	7.02
355.777	6.9
356.147	7.07
356.516	6.96
356.885	7.03
357.254	6.93
357.624	7.14
357.993	7.37
358.362	7.12
358.731	6.97
359.1	7.01
359.469	7.15
359.838	7.29
360.207	7.33
360.576	7.44
360.945	7.63
361.314	7.52
361.682	7.17
362.051	7.43
362.42	7.38
362.788	7.26
363.157	7.1
363.525	7.08
363.894	7.43
364.262	7.61
364.631	7.39
364.999	7.76
365.367	7.34
365.735	7.74
366.104	7.6
366.472	7.79
366.84	7.64
367.208	7.54
367.576	7.64
367.944	7.62
368.312	7.92
368.68	8.05
369.048	7.76
369.416	7.85
369.783	7.86
370.151	8.09
370.519	8.15
370.886	8.04
371.254	8.08
371.621	8.04
371.989	8.23
372.356	8.45
372.724	8.36
373.091	8.04
373.458	8.16
373.826	8.24
374.193	8.42
374.56	8.37
374.927	8.67
375.294	8.49
375.661	8.36
376.028	8.62
376.395	8.41
376.762	8.65
377.129	8.22
377.496	8.38
377.863	8.73
378.229	8.61
378.596	8.48
378.963	8.48
379.329	8.81
379.696	8.89
380.062	8.86
380.429	9.03
380.795	8.84
381.161	8.93
381.528	9.24
381.894	9.02
382.26	8.8
382.626	8.76
382.993	9.23
383.359	9.2
383.725	8.74
384.091	9.38
384.457	9.03
384.823	9.23
385.188	9.03
385.554	9.12
385.92	9.36
386.286	9.2
386.651	9.27
387.017	9.41
387.383	9.1
387.748	9.15
388.114	9.26
388.479	9.25
388.845	9.4
389.21	9.67
389.575	9.7
389.94	9.52
390.306	9.83
390.671	9.78
391.036	9.36
391.401	9.5
391.766	9.45
392.131	9.32
392.496	9.71
392.861	9.66
393.226	9.64
393.591	9.85
393.956	9.66
394.32	9.57
394.685	9.87
395.05	9.97
395.414	9.64
395.779	10
396.143	9.95
396.508	9.76
396.872	9.88
397.236	9.82
397.601	10.22
397.965	10.06
398.329	10.45
398.694	10.03
399.058	10.23
399.422	10.37
399.786	10.28
400.15	9.92
400.514	9.89
400.878	10.47
401.242	10.45
401.605	10.49
401.969	10.44
402.333	10.41
402.697	10.47
403.06	10.5
403.424	10.63
403.787	10.45
404.151	10.68
404.514	10.49
404.878	10.52
405.241	10.48
405.604	10.46
405.968	10.62
406.331	10.72
406.694	10.47
407.057	10.62
407.42	10.93
407.783	10.67
408.146	10.76
408.509	11.12
408.872	10.98
409.235	11.12
409.598	11.1
409.961	10.98
410.323	11.15
410.686	11.17
411.049	11.11
411.411	11.07
411.774	11.03
412.136	10.94
412.499	11.05
412.861	11.34
413.223	11.21
413.586	11.45
413.948	11.07
414.31	11.51
414.672	11.16
415.035	11.67
415.397	11.72
415.759	11.47
416.121	11.48
416.483	11.33
416.845	11.56
417.206	11.41
417.568	11.32
417.93	11.33
418.292	11.45
418.653	11.42
419.015	11.45
419.377	11.33
419.738	11.38
420.1	11.32
420.461	11.48
420.822	11.38
421.184	11.48
421.545	11.51
421.906	11.48
422.267	11.48
422.629	11.32
422.99	11.37
423.351	11.54
423.712	11.66
424.073	11.82
424.434	11.89
424.795	11.86
425.155	11.75
425.516	11.57
425.877	11.83
426.238	11.72
426.598	11.87
426.959	11.95
427.32	12.19
427.68	12.59
428.041	12.44
428.401	12.45
428.761	12.71
429.122	12.66
429.482	12.63
429.842	12.69
430.202	12.95
430.563	12.79
430.923	12.8
431.283	12.71
431.643	12.97
432.003	12.83
432.363	13.17
432.722	12.87
433.082	12.98
433.442	13.03
433.802	12.85
434.161	12.94
434.521	12.9
434.881	12.83
435.24	12.86
435.6	12.94
435.959	13.16
436.319	13.19
436.678	13.2
437.037	13.34
437.396	13.39
437.756	13.5
438.115	13.6
438.474	13.52
438.833	13.42
439.192	13.53
439.551	13.53
439.91	13.45
440.269	13.49
440.628	13.66
440.987	13.4
441.345	13.4
441.704	13.49
442.063	13.51
442.421	13.49
442.78	13.56
443.138	13.75
443.497	13.98
443.855	13.94
444.214	14.03
444.572	14.16
444.93	14.17
445.288	13.98
445.647	14.07
446.005	13.98
446.363	13.98
446.721	13.72
447.079	13.87
447.437	13.76
447.795	13.91
448.153	13.78
448.51	13.8
448.868	14.05
449.226	14.12
449.584	14.31
449.941	14.44
450.299	14.48
450.656	14.72
451.014	14.75
451.371	14.82
451.729	14.78
452.086	14.92
452.443	15
452.801	14.96
453.158	14.84
453.515	14.78
453.872	14.79
454.229	14.84
454.586	14.89
454.943	15.07
455.3	15.24
455.657	15.25
456.014	15.14
456.371	15.19
456.727	15.35
457.084	15.36
457.441	15.5
457.797	15.26
458.154	15.51
458.51	15.42
458.867	15.49
459.223	15.41
459.58	15.21
459.936	15.39
460.292	15.36
460.648	15.2
461.005	15.14
461.361	14.99
461.717	15.05
462.073	15.38
462.429	15.58
462.785	15.74
463.141	15.89
463.496	15.99
463.852	16.17
464.208	16.14
464.564	16.2
464.919	16.2
465.275	16.12
465.631	16.27
465.986	16.24
466.342	16.07
466.697	16.39
467.052	16.42
467.408	16.42
467.763	16.63
468.118	16.41
468.473	16.37
468.829	16.3
469.184	16.47
469.539	16.6
469.894	16.52
470.249	16.65
470.603	16.81
470.958	16.92
471.313	16.96
471.668	16.75
472.023	16.94
472.377	17.04
472.732	17.08
473.086	17.09
473.441	17.01
473.795	17.16
474.15	17.1
474.504	17.13
474.859	17.01
475.213	17.33
475.567	17.23
475.921	17.41
476.275	17.49
476.63	17.44
476.984	17.48
477.338	17.53
477.692	17.56
478.045	17.27
478.399	17.53
478.753	17.51
479.107	17.54
479.461	17.57
479.814	17.62
480.168	17.66
480.521	17.73
480.875	17.64
481.228	17.78
481.582	17.68
481.935	17.91
482.289	17.79
482.642	17.58
482.995	17.67
483.348	17.5
483.701	17.49
484.055	17.39
484.408	17.11
484.761	16.82
485.114	16.34
485.466	16.14
485.819	16.38
486.172	16.95
486.525	17.47
486.878	17.7
487.23	17.73
487.583	17.8
487.936	17.71
488.288	17.46
488.641	17.13
488.993	17.03
489.345	17.16
489.698	17.36
490.05	17.54
490.402	17.88
490.754	18.1
491.107	18.42
491.459	18.55
491.811	18.46
492.163	18.43
492.515	18.07
492.866	17.51
493.218	17.25
493.57	17.57
493.922	18.06
494.274	18.47
494.625	18.78
494.977	18.92
495.328	19.1
495.68	19.12
496.031	19.22
496.383	19.35
496.734	19.33
497.086	19.41
497.437	19.29
497.788	19.07
498.139	18.96
498.49	18.87
498.842	18.9
499.193	19.21
499.544	19.34
499.894	19.27
500.245	19.38
500.596	19.29
500.947	19.52
501.298	19.64
501.648	19.76
501.999	19.73
502.35	19.84
502.7	19.88
503.051	20
503.401	19.99
503.752	19.98
504.102	20.11
504.452	20.04
504.803	20.13
505.153	20.05
505.503	20.12
505.853	20.21
506.203	20.12
506.553	20.21
506.903	20.17
507.253	20.32
507.603	20.26
507.953	20.36
508.303	20.5
508.652	20.36
509.002	20.49
509.352	20.24
509.701	20
510.051	19.97
510.4	20.12
510.75	20.21
511.099	20.18
511.449	20.19
511.798	20.33
512.147	20.46
512.496	20.55
512.846	20.62
513.195	20.59
513.544	20.52
513.893	20.65
514.242	20.72
514.591	20.75
514.939	20.88
515.288	20.81
515.637	20.99
515.986	21.13
516.334	21.32
516.683	21.25
517.032	21.25
517.38	21.47
517.729	21.37
518.077	21.29
518.426	21.34
518.774	20.98
519.122	21.14
519.47	20.96
519.819	20.8
520.167	20.57
520.515	20.6
520.863	20.89
521.211	21.17
521.559	21.27
521.907	21.34
522.255	21.61
522.602	21.66
522.95	21.68
523.298	21.76
523.645	21.85
523.993	21.92
524.341	21.91
524.688	21.94
525.036	21.9
525.383	21.8
525.73	22
526.078	21.84
526.425	21.8
526.772	21.47
527.119	21.22
527.466	21.27
527.814	21.41
528.161	21.6
528.508	21.77
528.854	21.71
529.201	21.58
529.548	21.13
529.895	20.72
530.242	20.33
530.588	20.52
530.935	21.11
531.282	21.66
531.628	21.81
531.975	21.89
532.321	22.07
532.667	22.23
533.014	22.31
533.36	22.21
533.706	22.17
534.052	22.08
534.399	21.76
534.745	21.4
535.091	21.28
535.437	21.62
535.783	22.05
536.129	22.42
536.474	22.66
536.82	22.78
537.166	22.75
537.512	22.77
537.857	22.43
538.203	22.19
538.549	22.22
538.894	22.52
539.239	22.96
539.585	23.01
539.93	23.13
540.276	23.28
540.621	23.56
540.966	23.37
541.311	23.31
541.656	23.1
542.001	23.09
542.346	22.56
542.691	21.96
543.036	21.66
543.381	21.98
543.726	22.5
544.071	22.94
544.415	23.11
544.76	23.05
545.105	23.05
545.449	23.2
545.794	23.53
546.138	23.85
546.483	23.72
546.827	23.72
547.171	23.67
547.516	23.56
547.86	23.61
548.204	23.48
548.548	23.45
548.892	23.51
549.236	23.84
549.58	24.15
549.924	24.32
550.268	24.44
550.612	24.61
550.956	24.65
551.3	24.78
551.643	24.75
551.987	24.76
552.33	24.83
552.674	24.77
553.017	24.82
553.361	24.8
553.704	24.91
554.048	24.58
554.391	24.31
554.734	24.66
555.077	24.77
555.42	24.94
555.764	24.88
556.107	25.24
556.45	25.25
556.793	25.13
557.135	25.36
557.478	25.53
557.821	25.38
558.164	25.34
558.507	25.69
558.849	25.52
559.192	25.56
559.534	25.51
559.877	25.64
560.219	25.46
560.562	25.68
560.904	25.91
561.246	25.65
561.589	25.85
561.931	25.64
562.273	25.78
562.615	25.63
562.957	25.75
563.299	25.77
563.641	25.76
563.983	25.95
564.325	25.95
564.667	25.94
565.008	26.14
565.35	26.08
565.692	26.25
566.033	26.24
566.375	26.17
566.716	25.96
567.058	26.06
567.399	25.97
567.741	25.82
568.082	25.66
568.423	25.76
568.764	26.09
569.105	26.37
569.447	26.36
569.788	26.55
570.129	26.58
570.47	26.63
570.811	26.59
571.151	26.42
571.492	26.6
571.833	26.73
572.174	26.59
572.514	26.5
572.855	26.63
573.195	26.29
573.536	26.24
573.876	26.26
574.217	26.33
574.557	26.58
574.898	26.74
575.238	26.73
575.578	26.82
575.918	26.79
576.258	26.83
576.598	26.66
576.938	26.54
577.278	26.96
577.618	27.1
577.958	27.07
578.298	27.42
578.638	27.27
578.977	27.28
579.317	27.23
579.657	27.59
579.996	27.51
580.336	27.68
580.675	27.78
581.014	27.79
581.354	27.88
581.693	27.89
582.032	27.69
582.372	27.84
582.711	27.94
583.05	27.94
583.389	27.78
583.728	28.13
584.067	28.08
584.406	28.27
584.745	27.93
585.083	28
585.422	28.17
585.761	28.17
586.1	27.98
586.438	28.31
586.777	28.43
587.115	28.22
587.454	28.31
587.792	28.52
588.13	28.54
588.469	28.4
588.807	28.6
589.145	28.75
589.483	28.54
589.821	28.71
590.159	28.41
590.497	28.38
590.835	28.74
591.173	28.37
591.511	28.58
591.849	28.74
592.187	28.68
592.524	28.96
592.862	28.62
593.2	28.75
593.537	29.17
593.875	29
594.212	29.03
594.55	29.16
594.887	29.33
595.224	29.08
595.561	28.82
595.899	29.19
596.236	28.92
596.573	29.23
596.91	29.27
597.247	29.07
597.584	29.13
597.921	28.82
598.258	28.88
598.594	28.55
598.931	28.74
599.268	28.76
599.604	29.03
599.941	29.35
600.277	29.24
600.614	29.7
600.95	29.63
601.287	29.64
601.623	30.03
601.959	29.62
602.296	29.78
602.632	29.77
602.968	29.82
603.304	30
603.64	30.22
603.976	29.75
604.312	30.05
604.648	29.31
604.984	29.08
605.319	29.4
605.655	29.38
605.991	29.71
606.326	29.26
606.662	29.15
606.998	29.52
607.333	29.8
607.668	30.08
608.004	30.19
608.339	30.26
608.674	30.16
609.01	30.46
609.345	30.81
609.68	30.85
610.015	30.44
610.35	30.23
610.685	29.94
611.02	29.72
611.355	29.67
611.689	30.08
612.024	30.3
612.359	30.21
612.694	30.73
613.028	30.63
613.363	30.87
613.697	30.86
614.032	31.1
614.366	31.09
614.7	30.88
615.035	30.71
615.369	31.23
615.703	31.16
616.037	30.94
616.371	31.24
616.705	31.16
617.039	31.02
617.373	31.18
617.707	31.36
618.041	31.08
618.375	31.44
618.709	31.49
619.042	31.22
619.376	31.17
619.71	31.31
620.043	31.12
620.377	31.53
620.71	31.33
621.043	31.49
621.377	31.43
621.71	31.91
622.043	31.4
622.376	31.44
622.709	31.75
623.043	31.76
623.376	31.5
623.709	31.99
624.041	31.44
624.374	32.05
624.707	31.95
625.04	31.91
625.373	31.94
625.705	31.59
626.038	31.98
626.37	32.05
626.703	31.7
627.035	31.84
627.368	32.1
627.7	31.62
628.032	31.76
628.365	31.97
628.697	32.03
629.029	31.56
629.361	32.04
629.693	32.11
630.025	32
630.357	32.16
630.689	32.18
631.021	32.48
631.353	32.38
631.684	32.69
632.016	32.6
632.348	32.73
632.679	32.62
633.011	32.56
633.342	32.77
633.674	32.67
634.005	32.65
634.336	32.55
634.668	32.82
634.999	32.76
635.33	32.49
635.661	32.82
635.992	32.67
636.323	32.48
636.654	32.67
636.985	32.8
637.316	32.6
637.647	32.82
637.977	32.86
638.308	33.07
638.639	32.79
638.969	33.39
639.3	33.06
639.63	33.46
639.961	32.84
640.291	33.6
640.622	33.42
640.952	33.32
641.282	33.15
641.612	33.69
641.943	33.05
642.273	33.37
642.603	33.26
642.933	33.69
643.263	33.43
643.592	34.07
643.922	33.33
644.252	33.61
644.582	33.63
644.911	33.72
645.241	33.94
645.571	33.37
645.9	33.84
646.23	33.75
646.559	33.52
646.888	33.52
647.218	33.54
647.547	33.85
647.876	33.94
648.205	33.95
648.534	33.73
648.863	34.05
649.192	34.11
649.521	34.28
649.85	34.33
650.179	34.47
650.508	34.58
650.837	34.04
651.165	33.84
651.494	34.1
651.822	34.13
652.151	34.33
652.479	34.11
652.808	34.32
653.136	34.33
653.465	34.37
653.793	34.25
654.121	34.25
654.449	34.43
654.777	34.32
655.105	34.45
655.433	34.61
655.761	34.49
656.089	34.91
656.417	34.98
656.745	34.22
657.073	34.47
657.4	34.96
657.728	35.11
658.056	35.07
658.383	34.67
658.711	34.43
659.038	34.83
659.365	34.81
659.693	34.65
660.02	34.38
660.347	34.26
660.674	34.13
661.001	33.97
661.329	34.38
661.656	34.64
661.982	34.61
662.309	35.23
662.636	35.2
662.963	35.12
663.29	35.06
663.616	35.54
663.943	35.27
664.27	35.46
664.596	34.49
664.923	35.25
665.249	34.85
665.576	35.3
665.902	35.45
666.228	35.73
666.554	35.75
666.881	35.12
667.207	35.52
667.533	35.28
667.859	34.94
668.185	35.64
668.511	35.52
668.837	35.55
669.162	34.9
669.488	35.62
669.814	35.31
670.139	35.56
670.465	35.75
670.791	35.2
671.116	35.59
671.442	35.7
671.767	35.2
672.092	35.48
672.418	36.14
672.743	35.24
673.068	35.73
673.393	35.56
673.718	35.7
