Data from 815643_chest_Reflection__6__10.txt Node

Date: Fri Sep 16 14:12:44 CDT 2022
User: ToomeyLab
Spectrometer: FLMS14357
Trigger mode: 0
Integration Time (sec): 1.000000E-2
Scans to average: 100
Electric dark correction enabled: true
Nonlinearity correction enabled: false
Boxcar width: 0
XAxis mode: Wavelengths
Number of Pixels in Spectrum: 2048
>>>>>Begin Spectral Data<<<<<
189.047	-3.59
189.435	-3.59
189.823	-3.59
190.211	13.65
190.599	75.19
190.987	-160.1
191.375	-114.02
191.763	-302.61
192.151	539.68
192.538	9.03
192.926	94.52
193.314	191.57
193.702	188.81
194.089	95.61
194.477	255.85
194.864	2.59
195.252	-368.66
195.639	1545.31
196.027	10.87
196.414	32.95
196.801	87.33
197.189	-0.61
197.576	39.53
197.963	-117.55
198.351	-8.42
198.738	28.81
199.125	-17.33
199.512	-32.85
199.899	31.78
200.286	13.06
200.673	-5.2
201.06	19.35
201.447	-11.85
201.833	28.02
202.22	-51.37
202.607	11.62
202.994	-13.86
203.38	-45.88
203.767	-13.59
204.154	14.44
204.54	28.39
204.927	11.9
205.313	26.62
205.699	12.88
206.086	-6.01
206.472	28.82
206.858	-0.14
207.245	-3.88
207.631	9.91
208.017	-5.23
208.403	20.48
208.789	27.01
209.175	-45.12
209.561	-35.29
209.947	-34.09
210.333	-12.73
210.719	-5.31
211.105	1.39
211.491	-18.95
211.876	-25.68
212.262	0.35
212.648	8.15
213.034	17.68
213.419	24.76
213.805	30.23
214.19	11.97
214.576	1.99
214.961	10.47
215.346	-24.32
215.732	12.47
216.117	0.38
216.502	-2.9
216.888	-13
217.273	14.24
217.658	14.37
218.043	-6.1
218.428	3.74
218.813	9.35
219.198	-8.39
219.583	19.18
219.968	-13.07
220.353	14.74
220.738	-17.16
221.122	15.52
221.507	-9.81
221.892	13.84
222.276	4.41
222.661	-2.96
223.046	9.76
223.43	-1.05
223.815	5.89
224.199	-2.28
224.583	-6.9
224.968	5.73
225.352	-0.3
225.736	6.09
226.121	-2.72
226.505	3.36
226.889	3.8
227.273	6.87
227.657	3.7
228.041	-0.69
228.425	2.41
228.809	0.06
229.193	0.94
229.577	2.3
229.961	3.6
230.344	1.83
230.728	1.42
231.112	1.22
231.495	1.31
231.879	2.79
232.263	2.35
232.646	-0.74
233.03	1.68
233.413	0.62
233.797	3.23
234.18	1.34
234.563	1.07
234.946	2.93
235.33	-0.81
235.713	2.26
236.096	0.26
236.479	1.79
236.862	1.2
237.245	1.36
237.628	-0.12
238.011	3.33
238.394	2.32
238.777	0.6
239.16	0.92
239.543	2.97
239.925	1.94
240.308	3.1
240.691	1.96
241.073	1.13
241.456	0.97
241.838	1.42
242.221	1.08
242.603	2.4
242.986	1.75
243.368	2.28
243.75	2.11
244.133	1.72
244.515	1.73
244.897	2.15
245.279	2.38
245.661	1.03
246.043	2.05
246.425	2.55
246.807	2.39
247.189	2.27
247.571	1.52
247.953	2.31
248.335	2.37
248.717	1.82
249.098	1.88
249.48	2.29
249.862	1.73
250.243	2.18
250.625	2.06
251.006	2.17
251.388	1.95
251.769	2.02
252.151	1.16
252.532	1.35
252.913	1.16
253.295	2.17
253.676	2.3
254.057	1.5
254.438	1.57
254.819	2.96
255.2	1.21
255.581	2.02
255.962	1.62
256.343	2.09
256.724	2.28
257.105	2.4
257.486	1.35
257.867	1.36
258.247	2.05
258.628	1.68
259.009	0.93
259.389	1.77
259.77	1.81
260.15	1.83
260.531	1.95
260.911	1.5
261.292	1.68
261.672	1.75
262.052	1.89
262.432	1.53
262.813	1.73
263.193	1.67
263.573	2.14
263.953	1.58
264.333	1.44
264.713	1.95
265.093	1.74
265.473	1.69
265.853	1.87
266.233	1.37
266.612	2.75
266.992	1.66
267.372	1.61
267.752	1.7
268.131	1.66
268.511	1.69
268.89	1.42
269.27	1.56
269.649	1.9
270.029	1.61
270.408	1.89
270.787	2.58
271.167	2.16
271.546	2.05
271.925	1.59
272.304	1.91
272.683	1.45
273.062	1.86
273.441	1.66
273.82	1.38
274.199	2.15
274.578	2.03
274.957	1.88
275.336	2.05
275.715	1.5
276.093	1.57
276.472	1.79
276.851	2.22
277.229	1.52
277.608	1.74
277.986	1.35
278.365	1.59
278.743	1.6
279.122	1.29
279.5	1.63
279.878	1.92
280.257	1.22
280.635	1.95
281.013	1.61
281.391	1.98
281.769	1.93
282.147	1.76
282.525	1.96
282.903	1.89
283.281	1.63
283.659	1.62
284.037	1.98
284.415	1.75
284.792	2
285.17	2.39
285.548	1.69
285.925	2.12
286.303	1.7
286.68	1.71
287.058	2.04
287.435	1.54
287.813	1.69
288.19	1.65
288.567	1.76
288.945	1.78
289.322	1.47
289.699	1.87
290.076	1.64
290.453	2.26
290.83	2.05
291.207	1.83
291.584	1.64
291.961	2.05
292.338	1.44
292.715	1.65
293.092	1.85
293.469	1.43
293.845	1.75
294.222	1.15
294.599	2.07
294.975	1.37
295.352	2.56
295.728	1.82
296.105	1.5
296.481	1.29
296.858	1.97
297.234	1.56
297.61	1.84
297.986	1.53
298.363	2.09
298.739	1.69
299.115	2.29
299.491	2.07
299.867	1.92
300.243	1.99
300.619	2.52
300.995	1.98
301.371	2.16
301.746	1.93
302.122	2.03
302.498	1.99
302.874	2.33
303.249	1.99
303.625	1.8
304	2.16
304.376	1.53
304.751	2.39
305.127	2
305.502	1.81
305.878	1.52
306.253	1.58
306.628	2.09
307.003	2.2
307.378	1.95
307.754	1.61
308.129	1.86
308.504	2.01
308.879	1.82
309.254	2.11
309.629	2.19
310.003	1.87
310.378	2.13
310.753	1.84
311.128	1.84
311.502	2.21
311.877	1.87
312.252	1.61
312.626	2.22
313.001	2.15
313.375	2.35
313.75	2.09
314.124	2.45
314.498	2.02
314.873	2
315.247	2.48
315.621	2.26
315.995	1.45
316.369	2.27
316.743	1.94
317.117	1.87
317.491	2.13
317.865	1.88
318.239	2.27
318.613	2.12
318.987	1.47
319.361	2.22
319.734	1.94
320.108	2.53
320.482	2.11
320.855	2.25
321.229	2.09
321.602	2.28
321.976	1.74
322.349	2.65
322.723	2.3
323.096	2.48
323.469	1.9
323.843	2.49
324.216	2.7
324.589	2.28
324.962	2.48
325.335	2.02
325.708	2.16
326.081	1.84
326.454	2.04
326.827	2.43
327.2	2.08
327.573	1.8
327.945	2.29
328.318	2.09
328.691	2.06
329.063	2.27
329.436	2.07
329.809	2.42
330.181	2.2
330.553	1.94
330.926	2.12
331.298	2.78
331.671	2.76
332.043	2.54
332.415	2.34
332.787	2.11
333.159	2.24
333.532	1.76
333.904	2.3
334.276	2
334.648	2.38
335.02	2.67
335.391	2.03
335.763	2.22
336.135	2.71
336.507	2
336.879	2.29
337.25	2.15
337.622	2.01
337.993	2.02
338.365	2.32
338.736	2.08
339.108	1.97
339.479	2.43
339.851	2.9
340.222	2.28
340.593	2.02
340.964	1.9
341.336	2.4
341.707	2.37
342.078	2.56
342.449	2.34
342.82	2.31
343.191	2.4
343.562	2.49
343.933	2.07
344.303	2.59
344.674	2.4
345.045	2.58
345.416	2.57
345.786	2.6
346.157	2.2
346.527	2.08
346.898	2.36
347.268	2.33
347.639	2.3
348.009	2.26
348.38	2.41
348.75	2.08
349.12	2.47
349.49	2.39
349.861	2.47
350.231	1.86
350.601	2.44
350.971	2.25
351.341	2.28
351.711	2.46
352.081	2.64
352.45	2.68
352.82	2.3
353.19	2.12
353.56	2.47
353.929	2.3
354.299	2.17
354.669	2.54
355.038	2.53
355.408	2.54
355.777	2.27
356.147	2.41
356.516	2.26
356.885	2.37
357.254	2.44
357.624	2.44
357.993	2.54
358.362	2.22
358.731	2.21
359.1	2.28
359.469	2.28
359.838	2.39
360.207	2.55
360.576	2.54
360.945	2.54
361.314	2.56
361.682	2.1
362.051	2.45
362.42	2.52
362.788	2.5
363.157	2.35
363.525	2.24
363.894	2.51
364.262	2.65
364.631	2.36
364.999	2.64
365.367	2.19
365.735	2.55
366.104	2.3
366.472	2.51
366.84	2.47
367.208	2.23
367.576	2.44
367.944	2.38
368.312	2.17
368.68	2.5
369.048	2.3
369.416	2.47
369.783	2.54
370.151	2.51
370.519	2.84
370.886	2.48
371.254	2.38
371.621	2.74
371.989	2.25
372.356	2.46
372.724	2.6
373.091	2.27
373.458	2.5
373.826	2.34
374.193	2.52
374.56	2.42
374.927	2.56
375.294	2.38
375.661	2.58
376.028	2.83
376.395	2.42
376.762	2.76
377.129	2.35
377.496	2.49
377.863	2.66
378.229	2.66
378.596	2.53
378.963	2.69
379.329	2.78
379.696	2.7
380.062	2.72
380.429	2.5
380.795	2.43
381.161	2.51
381.528	2.97
381.894	2.52
382.26	2.78
382.626	2.56
382.993	2.51
383.359	2.66
383.725	2.63
384.091	2.94
384.457	2.55
384.823	2.66
385.188	2.37
385.554	2.66
385.92	2.71
386.286	2.52
386.651	2.62
387.017	2.82
387.383	2.45
387.748	2.73
388.114	2.48
388.479	2.68
388.845	2.58
389.21	2.7
389.575	2.68
389.94	2.83
390.306	2.6
390.671	2.6
391.036	2.56
391.401	2.45
391.766	2.63
392.131	2.63
392.496	2.75
392.861	2.76
393.226	2.5
393.591	2.67
393.956	2.46
394.32	2.35
394.685	2.85
395.05	2.89
395.414	2.63
395.779	2.67
396.143	2.51
396.508	2.63
396.872	2.67
397.236	2.47
397.601	2.74
397.965	2.78
398.329	2.8
398.694	2.66
399.058	2.87
399.422	2.66
399.786	2.73
400.15	2.62
400.514	2.51
400.878	2.78
401.242	2.55
401.605	2.61
401.969	2.59
402.333	2.76
402.697	2.65
403.06	2.8
403.424	2.77
403.787	2.78
404.151	2.59
404.514	2.77
404.878	2.68
405.241	2.61
405.604	2.84
405.968	2.71
406.331	2.63
406.694	2.75
407.057	2.77
407.42	2.73
407.783	2.68
408.146	2.57
408.509	3
408.872	2.65
409.235	2.72
409.598	2.94
409.961	2.7
410.323	2.81
410.686	3
411.049	2.79
411.411	2.78
411.774	2.77
412.136	2.76
412.499	2.55
412.861	2.74
413.223	2.65
413.586	2.61
413.948	2.71
414.31	2.94
414.672	2.78
415.035	2.89
415.397	3.05
415.759	2.6
416.121	2.81
416.483	2.62
416.845	2.84
417.206	2.74
417.568	2.49
417.93	2.59
418.292	2.94
418.653	2.73
419.015	2.78
419.377	2.73
419.738	2.75
420.1	2.83
420.461	2.81
420.822	2.67
421.184	2.7
421.545	2.73
421.906	2.63
422.267	2.77
422.629	2.74
422.99	2.72
423.351	2.78
423.712	2.65
424.073	2.77
424.434	2.83
424.795	2.69
425.155	2.69
425.516	2.67
425.877	2.81
426.238	2.7
426.598	2.75
426.959	2.77
427.32	2.7
427.68	2.77
428.041	2.79
428.401	2.78
428.761	2.94
429.122	2.91
429.482	2.85
429.842	2.85
430.202	2.87
430.563	2.89
430.923	2.85
431.283	2.87
431.643	2.92
432.003	2.93
432.363	2.86
432.722	2.82
433.082	2.93
433.442	2.88
433.802	2.83
434.161	2.92
434.521	2.78
434.881	2.8
435.24	2.79
435.6	2.8
435.959	2.85
436.319	2.82
436.678	2.83
437.037	2.85
437.396	2.77
437.756	2.93
438.115	2.88
438.474	2.82
438.833	2.92
439.192	2.93
439.551	2.84
439.91	2.82
440.269	2.83
440.628	3.02
440.987	2.88
441.345	2.79
441.704	2.87
442.063	2.8
442.421	2.83
442.78	2.9
443.138	2.94
443.497	2.94
443.855	2.88
444.214	2.92
444.572	2.9
444.93	2.99
445.288	2.94
445.647	2.95
446.005	2.94
446.363	2.98
446.721	2.96
447.079	2.91
447.437	2.79
447.795	2.92
448.153	2.86
448.51	2.87
448.868	3.01
449.226	2.87
449.584	2.78
449.941	2.89
450.299	2.87
450.656	2.94
451.014	2.96
451.371	3.1
451.729	2.9
452.086	2.89
452.443	3.11
452.801	3.16
453.158	2.94
453.515	3.02
453.872	2.93
454.229	2.87
454.586	2.89
454.943	3.04
455.3	2.92
455.657	3.07
456.014	3.04
456.371	3.05
456.727	2.99
457.084	3.06
457.441	3.07
457.797	2.93
458.154	3.02
458.51	2.92
458.867	2.98
459.223	2.99
459.58	3.04
459.936	3.14
460.292	2.95
460.648	3.01
461.005	2.97
461.361	2.93
461.717	2.9
462.073	2.91
462.429	2.98
462.785	2.96
463.141	3.1
463.496	3.19
463.852	3.15
464.208	3.26
464.564	3.09
464.919	3.12
465.275	2.97
465.631	3.18
465.986	3.18
466.342	3.08
466.697	3.08
467.052	3.17
467.408	2.97
467.763	3.28
468.118	3.15
468.473	3.16
468.829	3.05
469.184	3.01
469.539	3.09
469.894	3.05
470.249	3.02
470.603	3.21
470.958	3.16
471.313	3.18
471.668	3.2
472.023	3.16
472.377	3.17
472.732	3.18
473.086	3.19
473.441	3.15
473.795	3.09
474.15	3.12
474.504	3.22
474.859	3.2
475.213	3.08
475.567	3.06
475.921	3.25
476.275	3.15
476.63	3.12
476.984	3.19
477.338	3.16
477.692	3.2
478.045	3.13
478.399	3.26
478.753	3.16
479.107	3.16
479.461	3.14
479.814	3.17
480.168	3.16
480.521	3.2
480.875	3.28
481.228	3.12
481.582	3.05
481.935	3.19
482.289	3.07
482.642	3.1
482.995	3.12
483.348	3.1
483.701	3.06
484.055	3.11
484.408	3.11
484.761	3.04
485.114	3.03
485.466	2.91
485.819	2.89
486.172	2.95
486.525	2.99
486.878	3.05
487.23	3.04
487.583	3.11
487.936	3.13
488.288	3.14
488.641	3.11
488.993	3.03
489.345	3.02
489.698	3
490.05	3.03
490.402	3.11
490.754	3.13
491.107	3.19
491.459	3.18
491.811	3.18
492.163	3.2
492.515	3.19
492.866	3.11
493.218	2.99
493.57	3.08
493.922	3.09
494.274	3.16
494.625	3.22
494.977	3.19
495.328	3.17
495.68	3.25
496.031	3.36
496.383	3.38
496.734	3.31
497.086	3.29
497.437	3.27
497.788	3.22
498.139	3.17
498.49	3.24
498.842	3.23
499.193	3.27
499.544	3.35
499.894	3.28
500.245	3.38
500.596	3.25
500.947	3.32
501.298	3.28
501.648	3.38
501.999	3.4
502.35	3.41
502.7	3.37
503.051	3.43
503.401	3.45
503.752	3.3
504.102	3.46
504.452	3.45
504.803	3.38
505.153	3.49
505.503	3.44
505.853	3.34
506.203	3.37
506.553	3.42
506.903	3.48
507.253	3.42
507.603	3.32
507.953	3.45
508.303	3.51
508.652	3.45
509.002	3.5
509.352	3.41
509.701	3.53
510.051	3.38
510.4	3.36
510.75	3.38
511.099	3.38
511.449	3.3
511.798	3.48
512.147	3.48
512.496	3.46
512.846	3.41
513.195	3.46
513.544	3.47
513.893	3.45
514.242	3.5
514.591	3.44
514.939	3.46
515.288	3.53
515.637	3.46
515.986	3.5
516.334	3.65
516.683	3.58
517.032	3.57
517.38	3.59
517.729	3.56
518.077	3.66
518.426	3.55
518.774	3.45
519.122	3.5
519.47	3.6
519.819	3.51
520.167	3.39
520.515	3.4
520.863	3.48
521.211	3.49
521.559	3.49
521.907	3.5
522.255	3.61
522.602	3.58
522.95	3.59
523.298	3.59
523.645	3.53
523.993	3.69
524.341	3.63
524.688	3.57
525.036	3.75
525.383	3.69
525.73	3.67
526.078	3.67
526.425	3.61
526.772	3.67
527.119	3.56
527.466	3.57
527.814	3.58
528.161	3.61
528.508	3.56
528.854	3.64
529.201	3.56
529.548	3.55
529.895	3.49
530.242	3.42
530.588	3.39
530.935	3.43
531.282	3.51
531.628	3.55
531.975	3.52
532.321	3.58
532.667	3.72
533.014	3.69
533.36	3.65
533.706	3.77
534.052	3.63
534.399	3.65
534.745	3.58
535.091	3.59
535.437	3.59
535.783	3.65
536.129	3.68
536.474	3.72
536.82	3.81
537.166	3.85
537.512	3.87
537.857	3.72
538.203	3.76
538.549	3.78
538.894	3.82
539.239	3.79
539.585	3.87
539.93	3.81
540.276	3.9
540.621	4.04
540.966	3.85
541.311	3.89
541.656	3.88
542.001	3.82
542.346	3.82
542.691	3.72
543.036	3.65
543.381	3.74
543.726	3.74
544.071	3.8
544.415	3.85
544.76	3.84
545.105	3.82
545.449	3.89
545.794	3.91
546.138	4
546.483	3.96
546.827	3.99
547.171	4.06
547.516	3.99
547.86	3.95
548.204	3.96
548.548	4.03
548.892	3.94
549.236	3.91
549.58	3.94
549.924	4.01
550.268	4.03
550.612	4.13
550.956	3.99
551.3	4.27
551.643	4.13
551.987	4.07
552.33	4.25
552.674	4.16
553.017	4.26
553.361	4.15
553.704	4.25
554.048	4.19
554.391	4.2
554.734	4.17
555.077	4.22
555.42	4.26
555.764	4.21
556.107	4.32
556.45	4.46
556.793	4.22
557.135	4.26
557.478	4.43
557.821	4.32
558.164	4.25
558.507	4.49
558.849	4.22
559.192	4.43
559.534	4.12
559.877	4.43
560.219	4.4
560.562	4.38
560.904	4.48
561.246	4.29
561.589	4.48
561.931	4.45
562.273	4.52
562.615	4.33
562.957	4.3
563.299	4.51
563.641	4.46
563.983	4.57
564.325	4.32
564.667	4.54
565.008	4.47
565.35	4.53
565.692	4.47
566.033	4.31
566.375	4.55
566.716	4.49
567.058	4.51
567.399	4.52
567.741	4.47
568.082	4.57
568.423	4.57
568.764	4.63
569.105	4.64
569.447	4.62
569.788	4.7
570.129	4.77
570.47	4.91
570.811	4.75
571.151	4.91
571.492	4.95
571.833	4.74
572.174	4.72
572.514	4.8
572.855	4.62
573.195	4.73
573.536	4.72
573.876	4.58
574.217	4.75
574.557	4.8
574.898	4.73
575.238	4.92
575.578	4.85
575.918	4.79
576.258	4.85
576.598	4.98
576.938	4.81
577.278	4.87
577.618	5.01
577.958	4.94
578.298	4.96
578.638	5.02
578.977	5.12
579.317	4.96
579.657	5.19
579.996	5.06
580.336	5.03
580.675	5.24
581.014	5.08
581.354	5.05
581.693	5.18
582.032	5.17
582.372	5.16
582.711	5.33
583.05	4.98
583.389	5.2
583.728	5.13
584.067	5.38
584.406	5.2
584.745	5.32
585.083	5.23
585.422	5.3
585.761	5.15
586.1	5.33
586.438	5.34
586.777	5.29
587.115	5.26
587.454	5.32
587.792	5.27
588.13	5.28
588.469	5.14
588.807	5.63
589.145	5.52
589.483	5.66
589.821	5.65
590.159	5.58
590.497	5.55
590.835	5.54
591.173	5.29
591.511	5.54
591.849	5.64
592.187	5.5
592.524	5.39
592.862	5.5
593.2	5.58
593.537	5.79
593.875	5.64
594.212	5.6
594.55	5.84
594.887	5.78
595.224	5.83
595.561	5.58
595.899	5.75
596.236	5.8
596.573	5.71
596.91	5.81
597.247	5.87
597.584	5.58
597.921	5.9
598.258	5.89
598.594	5.81
598.931	5.85
599.268	5.73
599.604	5.72
599.941	5.64
600.277	5.93
600.614	5.91
600.95	5.97
601.287	5.87
601.623	6.14
601.959	5.77
602.296	5.87
602.632	6.08
602.968	6.14
603.304	5.88
603.64	6.06
603.976	6.1
604.312	6.2
604.648	5.93
604.984	5.9
605.319	6.05
605.655	6
605.991	6.1
606.326	6.04
606.662	5.95
606.998	6.14
607.333	6.28
607.668	6.1
608.004	6.2
608.339	6.09
608.674	6.33
609.01	6.28
609.345	6.39
609.68	6.68
610.015	6.4
610.35	6.4
610.685	6.3
611.02	6.32
611.355	6.32
611.689	6.3
612.024	6.34
612.359	6.25
612.694	6.35
613.028	6.46
613.363	6.5
613.697	6.4
614.032	6.61
614.366	6.69
614.7	6.61
615.035	6.4
615.369	6.66
615.703	6.75
616.037	6.64
616.371	6.82
616.705	6.8
617.039	6.52
617.373	6.56
617.707	6.49
618.041	6.87
618.375	6.87
618.709	6.9
619.042	6.65
619.376	6.73
619.71	6.91
620.043	7.12
620.377	6.78
620.71	6.82
621.043	7.29
621.377	7.13
621.71	6.89
622.043	7.11
622.376	6.82
622.709	7.16
623.043	7.21
623.376	6.96
623.709	6.99
624.041	6.79
624.374	7.26
624.707	7.23
625.04	7.02
625.373	7.3
625.705	6.88
626.038	7.26
626.37	7.32
626.703	7.22
627.035	7.43
627.368	7.21
627.7	7.1
628.032	7.14
628.365	7.12
628.697	7.49
629.029	7.02
629.361	7.31
629.693	7.47
630.025	7.24
630.357	7.37
630.689	7.3
631.021	7.38
631.353	7.34
631.684	7.56
632.016	7.37
632.348	7.51
632.679	7.43
633.011	7.34
633.342	7.32
633.674	7.69
634.005	7.64
634.336	7.6
634.668	7.72
634.999	7.55
635.33	7.43
635.661	7.82
635.992	7.61
636.323	7.63
636.654	7.86
636.985	7.87
637.316	7.56
637.647	7.95
637.977	7.78
638.308	7.67
638.639	8.07
638.969	8.1
639.3	7.88
639.63	8.13
639.961	7.74
640.291	8.26
640.622	8.12
640.952	8.2
641.282	8.05
641.612	8.06
641.943	7.62
642.273	8.13
642.603	8.09
642.933	8.46
643.263	7.81
643.592	8.3
643.922	7.97
644.252	7.8
644.582	7.91
644.911	7.99
645.241	8.46
645.571	7.75
645.9	8.38
646.23	8.33
646.559	8.36
646.888	8.2
647.218	8.29
647.547	8.22
647.876	8.43
648.205	8.57
648.534	8.13
648.863	8.67
649.192	8.39
649.521	8.4
649.85	8.11
650.179	7.98
650.508	8.93
650.837	8.26
651.165	8.36
651.494	8.86
651.822	8.57
652.151	8.7
652.479	8.84
652.808	8.43
653.136	8.67
653.465	8.66
653.793	8.62
654.121	8.62
654.449	8.7
654.777	8.59
655.105	8.75
655.433	8.84
655.761	8.45
656.089	9.05
656.417	8.84
656.745	8.57
657.073	8.92
657.4	9.18
657.728	9.47
658.056	9.03
658.383	9.28
658.711	8.88
659.038	9.12
659.365	8.97
659.693	8.79
660.02	8.92
660.347	8.98
660.674	8.74
661.001	9.16
661.329	9.16
661.656	9.18
661.982	9.17
662.309	9.33
662.636	9.14
662.963	9.66
663.29	9.39
663.616	9.63
663.943	9.31
664.27	9.24
664.596	9.24
664.923	9.66
665.249	9.26
665.576	9.16
665.902	9.19
666.228	9.11
666.554	9.38
666.881	9.29
667.207	9.55
667.533	9.73
667.859	9.88
668.185	9.84
668.511	9.33
668.837	9.52
669.162	9.52
669.488	9.37
669.814	10.01
670.139	9.96
670.465	9.77
670.791	9.3
671.116	9.82
671.442	9.81
671.767	9.82
672.092	9.46
672.418	9.7
672.743	9.38
673.068	9.73
673.393	9.21
673.718	9.62
674.043	10.14
674.368	10.01
674.693	10.33
675.018	9.54
675.343	10.53
675.667	9.68
675.992	9.77
676.317	10.18
676.641	9.98
676.966	10.34
677.29	10.65
677.615	10.52
677.939	10.65
678.264	10.78
678.588	10.13
678.912	9.6
679.236	10.49
679.56	10.03
679.885	10.29
680.209	10.42
680.532	10.78
680.856	10.24
681.18	10.17
681.504	10.22
681.828	10.32
682.152	9.83
682.475	10.56
682.799	10.82
683.122	10.6
683.446	10.17
683.769	10.31
684.093	10.59
684.416	10.46
684.739	11.09
685.062	10.55
685.386	10.47
685.709	10.47
686.032	10.39
686.355	10.56
686.678	11.05
687.001	10.66
687.324	10.45
687.646	10.48
687.969	11.2
688.292	10.64
688.614	10.49
688.937	10.76
689.26	10.74
689.582	10.69
689.904	10.35
690.227	10.9
690.549	10.63
690.871	10.72
691.194	11.05
691.516	11.29
