Data from 23-2_forehead_Reflection__1__11.txt Node

Date: Thu Feb 29 21:57:03 CST 2024
User: ToomeyLab
Spectrometer: FLMS14357
Trigger mode: 0
Integration Time (sec): 1.000000E-2
Scans to average: 100
Electric dark correction enabled: true
Nonlinearity correction enabled: false
Boxcar width: 0
XAxis mode: Wavelengths
Number of Pixels in Spectrum: 2048
>>>>>Begin Spectral Data<<<<<
189.047	26.6
189.435	26.6
189.823	26.6
190.211	-49.1
190.599	44.43
190.987	-124.24
191.375	-206.8
191.763	2367.02
192.151	-1.07
192.538	401.38
192.926	257.55
193.314	-35.16
193.702	246.57
194.089	357.44
194.477	-792.3
194.864	-501.76
195.252	-47.46
195.639	-159.91
196.027	1194.44
196.414	22.83
196.801	-26.1
197.189	25.98
197.576	-49.21
197.963	318.19
198.351	-44.7
198.738	-34.17
199.125	30.07
199.512	5.12
199.899	0.48
200.286	-31.22
200.673	19.29
201.06	17.58
201.447	10.65
201.833	55.7
202.22	15.43
202.607	-53.84
202.994	-18.71
203.38	68.33
203.767	10.18
204.154	60.82
204.54	24.19
204.927	53.59
205.313	25.91
205.699	-86.42
206.086	36.92
206.472	83.84
206.858	31.18
207.245	19.07
207.631	36.9
208.017	25.67
208.403	4.05
208.789	6.07
209.175	-9.82
209.561	52.54
209.947	5.48
210.333	32.82
210.719	59.87
211.105	26.76
211.491	32.34
211.876	24.05
212.262	41.08
212.648	10.03
213.034	14.85
213.419	21.98
213.805	5.76
214.19	-13.93
214.576	3.21
214.961	26.47
215.346	7.57
215.732	12.44
216.117	6.37
216.502	36.47
216.888	7.43
217.273	6.16
217.658	23.36
218.043	32.86
218.428	33.88
218.813	16.58
219.198	11.22
219.583	37.34
219.968	21.25
220.353	2.35
220.738	16.4
221.122	-0.61
221.507	8.34
221.892	21.81
222.276	16.24
222.661	18.44
223.046	7.22
223.43	-9.63
223.815	8.92
224.199	-0.89
224.583	5.65
224.968	-3.75
225.352	9.83
225.736	13.54
226.121	0.92
226.505	13.25
226.889	12.76
227.273	8.8
227.657	-5.11
228.041	8.69
228.425	3.53
228.809	8.1
229.193	2.09
229.577	5.33
229.961	1.02
230.344	3.33
230.728	3.57
231.112	4.86
231.495	3.5
231.879	3.58
232.263	2.86
232.646	5.12
233.03	3.4
233.413	2.92
233.797	1.45
234.18	1.03
234.563	1.38
234.946	3.24
235.33	5.36
235.713	2.7
236.096	3.95
236.479	7.02
236.862	4.59
237.245	3.48
237.628	3.97
238.011	4.52
238.394	1.07
238.777	5.29
239.16	2.04
239.543	3.3
239.925	5.63
240.308	5.61
240.691	6.58
241.073	3.8
241.456	4.37
241.838	3.3
242.221	4.28
242.603	5.05
242.986	4.38
243.368	3.74
243.75	3.99
244.133	3.36
244.515	3.95
244.897	4.1
245.279	4.77
245.661	4.06
246.043	3.53
246.425	4.95
246.807	4.62
247.189	4.22
247.571	4.41
247.953	3.92
248.335	3.9
248.717	3.9
249.098	4.16
249.48	3.96
249.862	3.9
250.243	3.61
250.625	4
251.006	4.29
251.388	3.95
251.769	4.02
252.151	6.14
252.532	3.81
252.913	3.53
253.295	3.96
253.676	4.4
254.057	4.41
254.438	4.77
254.819	5.59
255.2	4.18
255.581	3.79
255.962	4.83
256.343	3.75
256.724	4.41
257.105	5.97
257.486	5.31
257.867	4.7
258.247	5.09
258.628	4.23
259.009	3.92
259.389	3.34
259.77	4.85
260.15	5.47
260.531	4.44
260.911	4.36
261.292	4.13
261.672	4.4
262.052	4.36
262.432	4.39
262.813	4.14
263.193	4.62
263.573	4.87
263.953	4.58
264.333	3.62
264.713	4.16
265.093	4.68
265.473	4.7
265.853	5.06
266.233	4.49
266.612	4.51
266.992	3.64
267.372	4.05
267.752	3.57
268.131	4.36
268.511	4.63
268.89	4.33
269.27	4.45
269.649	4.5
270.029	3.98
270.408	3.86
270.787	4.21
271.167	3.88
271.546	4.95
271.925	4.36
272.304	4.86
272.683	4.41
273.062	3.93
273.441	4.45
273.82	4.34
274.199	4.33
274.578	4
274.957	4.45
275.336	4.84
275.715	4.36
276.093	4.79
276.472	4.27
276.851	4.32
277.229	4.12
277.608	4.61
277.986	4.28
278.365	4.39
278.743	4.22
279.122	4.1
279.5	4.45
279.878	3.61
280.257	4.64
280.635	4.16
281.013	5.12
281.391	4.19
281.769	4.37
282.147	4.34
282.525	4.33
282.903	4.4
283.281	3.88
283.659	4.57
284.037	3.96
284.415	4.08
284.792	3.7
285.17	3.98
285.548	4.28
285.925	4.29
286.303	4.17
286.68	3.54
287.058	4.46
287.435	4.02
287.813	4.11
288.19	4.32
288.567	4.17
288.945	4.81
289.322	4.84
289.699	4.67
290.076	4.84
290.453	3.88
290.83	4.2
291.207	4.12
291.584	4.43
291.961	4.74
292.338	5.01
292.715	4.86
293.092	4.93
293.469	4.99
293.845	4.49
294.222	4.93
294.599	4.65
294.975	4.96
295.352	5.53
295.728	5.66
296.105	5.44
296.481	5.05
296.858	5.5
297.234	5.29
297.61	5.23
297.986	5.8
298.363	5.73
298.739	5.45
299.115	5.65
299.491	5.36
299.867	5.68
300.243	5.91
300.619	5.85
300.995	6.35
301.371	6.21
301.746	5.61
302.122	6.99
302.498	6.14
302.874	6.21
303.249	6.27
303.625	6.68
304	6.77
304.376	7.03
304.751	6.7
305.127	6.77
305.502	6.48
305.878	7.08
306.253	6.41
306.628	6.87
307.003	7.51
307.378	7.95
307.754	7.82
308.129	7.76
308.504	8.09
308.879	7.45
309.254	7.41
309.629	7.74
310.003	7.77
310.378	7.62
310.753	7.71
311.128	8.04
311.502	8.25
311.877	8.15
312.252	8.63
312.626	8.45
313.001	8.5
313.375	8.95
313.75	8.66
314.124	8.83
314.498	9.21
314.873	8.6
315.247	8.96
315.621	10.13
315.995	9.45
316.369	9.89
316.743	9.37
317.117	9.1
317.491	9.08
317.865	9.86
318.239	9.92
318.613	9.83
318.987	10.99
319.361	9.89
319.734	10.47
320.108	10.64
320.482	10.42
320.855	11.17
321.229	10.81
321.602	10.37
321.976	10.42
322.349	11.27
322.723	10.85
323.096	10.73
323.469	10.6
323.843	10.35
324.216	11.25
324.589	10.63
324.962	11.19
325.335	11.1
325.708	11.75
326.081	11.06
326.454	11.21
326.827	11.74
327.2	11.74
327.573	11.78
327.945	12.21
328.318	11.41
328.691	12.17
329.063	11.97
329.436	12.25
329.809	12.16
330.181	12.8
330.553	12.82
330.926	12.25
331.298	12.16
331.671	12.53
332.043	12.37
332.415	12.69
332.787	12.23
333.159	12.73
333.532	12.75
333.904	12.64
334.276	12.84
334.648	12.42
335.02	12.8
335.391	12.73
335.763	12.13
336.135	12.08
336.507	12.26
336.879	13.22
337.25	13.52
337.622	12.98
337.993	13.09
338.365	12.9
338.736	13.18
339.108	13.58
339.479	13.76
339.851	12.94
340.222	13.34
340.593	13.58
340.964	13.67
341.336	13.59
341.707	13.41
342.078	13.85
342.449	14.05
342.82	13.96
343.191	13.89
343.562	14.37
343.933	13.85
344.303	13.96
344.674	13.93
345.045	14.25
345.416	14.48
345.786	14.43
346.157	14.51
346.527	14.45
346.898	14.59
347.268	14.63
347.639	14.55
348.009	14.12
348.38	14.36
348.75	14.54
349.12	14.87
349.49	14.52
349.861	14.86
350.231	14.96
350.601	15.15
350.971	14.92
351.341	15.29
351.711	15.24
352.081	14.53
352.45	15.34
352.82	14.9
353.19	15.36
353.56	15.27
353.929	15.29
354.299	15.31
354.669	15.12
355.038	15.39
355.408	15.57
355.777	15.7
356.147	15.27
356.516	15.89
356.885	15.53
357.254	15.82
357.624	15.84
357.993	16.08
358.362	15.89
358.731	16.09
359.1	16.21
359.469	16.29
359.838	15.77
360.207	15.88
360.576	16.13
360.945	15.73
361.314	16.28
361.682	15.69
362.051	16.34
362.42	16.55
362.788	16.15
363.157	16.1
363.525	16.07
363.894	16.48
364.262	16.42
364.631	16.53
364.999	16.23
365.367	16.71
365.735	16.84
366.104	16.79
366.472	16.3
366.84	17.34
367.208	16.96
367.576	16.85
367.944	16.82
368.312	17.27
368.68	17.22
369.048	17.24
369.416	17.5
369.783	17.25
370.151	17.6
370.519	16.87
370.886	17.17
371.254	17.74
371.621	17.92
371.989	17.8
372.356	17.55
372.724	17.77
373.091	17.6
373.458	17.64
373.826	17.72
374.193	17.97
374.56	18.16
374.927	17.87
375.294	17.75
375.661	17.91
376.028	17.88
376.395	17.74
376.762	18.47
377.129	17.79
377.496	18.18
377.863	18.15
378.229	18.11
378.596	18.01
378.963	18.07
379.329	18.39
379.696	17.98
380.062	18.4
380.429	18.52
380.795	18.42
381.161	18.23
381.528	18.67
381.894	18.71
382.26	18.37
382.626	18.81
382.993	18.51
383.359	18.48
383.725	18.77
384.091	18.88
384.457	18.46
384.823	18.92
385.188	19.18
385.554	18.97
385.92	18.93
386.286	18.56
386.651	18.96
387.017	19.05
387.383	19.29
387.748	19.09
388.114	19.2
388.479	19.39
388.845	18.94
389.21	19.3
389.575	19.4
389.94	19.42
390.306	19.14
390.671	19.35
391.036	19.81
391.401	19.52
391.766	19.15
392.131	19.49
392.496	19.33
392.861	19.44
393.226	19.58
393.591	19.59
393.956	19.74
394.32	20.09
394.685	19.68
395.05	19.61
395.414	20.17
395.779	19.62
396.143	20.09
396.508	19.67
396.872	19.9
397.236	19.86
397.601	19.68
397.965	20.2
398.329	19.97
398.694	20.07
399.058	20.18
399.422	20.13
399.786	20.07
400.15	20.14
400.514	20.17
400.878	20.17
401.242	19.98
401.605	20.26
401.969	20.4
402.333	20.5
402.697	20.27
403.06	20.68
403.424	20.71
403.787	20.5
404.151	20.49
404.514	20.54
404.878	20.42
405.241	20.61
405.604	20.43
405.968	20.45
406.331	20.43
406.694	20.42
407.057	20.45
407.42	20.79
407.783	20.73
408.146	20.85
408.509	20.98
408.872	20.86
409.235	21.02
409.598	20.7
409.961	20.79
410.323	21.13
410.686	20.87
411.049	20.77
411.411	21.03
411.774	20.95
412.136	21
412.499	21.14
412.861	20.96
413.223	20.98
413.586	20.99
413.948	21.03
414.31	21.31
414.672	21.23
415.035	21.61
415.397	21.49
415.759	21.45
416.121	21.67
416.483	21.72
416.845	21.3
417.206	21.41
417.568	21.24
417.93	21.69
418.292	21.44
418.653	21.55
419.015	21.6
419.377	21.45
419.738	21.38
420.1	21.42
420.461	21.58
420.822	21.46
421.184	21.58
421.545	21.6
421.906	21.69
422.267	21.56
422.629	21.66
422.99	21.5
423.351	21.77
423.712	21.61
424.073	21.69
424.434	21.95
424.795	21.94
425.155	22
425.516	22.08
425.877	21.78
426.238	21.82
426.598	21.99
426.959	22.16
427.32	22.4
427.68	22.31
428.041	22.41
428.401	22.67
428.761	22.98
429.122	22.85
429.482	22.79
429.842	23.04
430.202	22.86
430.563	22.91
430.923	23.03
431.283	23.11
431.643	23.12
432.003	23.34
432.363	23.11
432.722	23.23
433.082	23.22
433.442	23.13
433.802	23.31
434.161	23.47
434.521	23.21
434.881	23.03
435.24	23.25
435.6	23.1
435.959	23.32
436.319	23.42
436.678	23.61
437.037	23.41
437.396	23.58
437.756	23.58
438.115	23.67
438.474	23.71
438.833	23.94
439.192	23.87
439.551	23.99
439.91	23.86
440.269	23.83
440.628	23.89
440.987	23.63
441.345	23.7
441.704	23.69
442.063	23.93
442.421	23.93
442.78	23.82
443.138	24.04
443.497	24.06
443.855	24.27
444.214	24.34
444.572	24.29
444.93	24.48
445.288	24.45
445.647	24.48
446.005	24.41
446.363	24.34
446.721	24.13
447.079	24.11
447.437	24.16
447.795	24.11
448.153	24.12
448.51	24.23
448.868	24.33
449.226	24.44
449.584	24.53
449.941	24.56
450.299	24.66
450.656	24.83
451.014	24.93
451.371	25.17
451.729	25.08
452.086	25.04
452.443	25.1
452.801	25.25
453.158	25.31
453.515	25.26
453.872	25.3
454.229	25.09
454.586	25.13
454.943	25.25
455.3	25.6
455.657	25.54
456.014	25.36
456.371	25.52
456.727	25.47
457.084	25.54
457.441	25.72
457.797	25.67
458.154	25.82
458.51	25.74
458.867	25.95
459.223	25.74
459.58	25.58
459.936	25.59
460.292	25.65
460.648	25.53
461.005	25.43
461.361	25.2
461.717	25.22
462.073	25.46
462.429	25.77
462.785	25.69
463.141	26.17
463.496	25.89
463.852	26.26
464.208	26.33
464.564	26.31
464.919	26.44
465.275	26.58
465.631	26.34
465.986	26.42
466.342	26.24
466.697	26.35
467.052	26.16
467.408	26.38
467.763	26.6
468.118	26.62
468.473	26.54
468.829	26.44
469.184	26.75
469.539	26.8
469.894	26.78
470.249	26.78
470.603	26.95
470.958	27
471.313	26.65
471.668	26.76
472.023	26.87
472.377	26.65
472.732	26.9
473.086	26.94
473.441	27.01
473.795	27.08
474.15	26.75
474.504	26.96
474.859	26.9
475.213	27.19
475.567	27.39
475.921	27.38
476.275	27.37
476.63	27.15
476.984	27.3
477.338	27.36
477.692	27.32
478.045	27.28
478.399	27.13
478.753	27.29
479.107	27.44
479.461	27.36
479.814	27.08
480.168	27.37
480.521	27.21
480.875	27.37
481.228	27.48
481.582	27.68
481.935	27.73
482.289	27.51
482.642	27.38
482.995	27.39
483.348	27.41
483.701	27.32
484.055	27.24
484.408	27.13
484.761	26.79
485.114	26.46
485.466	26.05
485.819	26.34
486.172	26.6
486.525	27.09
486.878	27.27
487.23	27.31
487.583	27.31
487.936	27.47
488.288	27.28
488.641	26.98
488.993	26.89
489.345	26.9
489.698	26.96
490.05	27.08
490.402	27.4
490.754	27.52
491.107	27.79
491.459	27.93
491.811	27.98
492.163	28.05
492.515	27.84
492.866	27.44
493.218	27.15
493.57	27.15
493.922	27.6
494.274	27.79
494.625	28.12
494.977	28.3
495.328	28.64
495.68	28.63
496.031	28.79
496.383	28.72
496.734	28.57
497.086	28.74
497.437	28.91
497.788	28.56
498.139	28.65
498.49	28.54
498.842	28.56
499.193	28.79
499.544	28.86
499.894	28.7
500.245	28.92
500.596	28.93
500.947	28.92
501.298	29.09
501.648	29.24
501.999	29.25
502.35	29.29
502.7	29.42
503.051	29.1
503.401	29.39
503.752	29.41
504.102	29.3
504.452	29.3
504.803	29.28
505.153	29.32
505.503	29.42
505.853	29.3
506.203	29.34
506.553	29.43
506.903	29.43
507.253	29.61
507.603	29.53
507.953	29.68
508.303	29.77
508.652	29.59
509.002	29.57
509.352	29.6
509.701	29.59
510.051	29.49
510.4	29.64
510.75	29.48
511.099	29.52
511.449	29.58
511.798	29.71
512.147	29.79
512.496	29.92
512.846	29.74
513.195	29.82
513.544	29.99
513.893	29.61
514.242	29.73
514.591	29.79
514.939	29.8
515.288	29.97
515.637	30.04
515.986	30.24
516.334	30.07
516.683	30.29
517.032	30.45
517.38	30.22
517.729	30.08
518.077	30.29
518.426	30.21
518.774	30.21
519.122	30.2
519.47	30.07
519.819	29.76
520.167	29.5
520.515	29.65
520.863	29.85
521.211	30.05
521.559	30.25
521.907	30.23
522.255	30.4
522.602	30.33
522.95	30.48
523.298	30.59
523.645	30.62
523.993	30.65
524.341	30.72
524.688	30.82
525.036	30.76
525.383	30.9
525.73	30.75
526.078	30.96
526.425	30.74
526.772	30.66
527.119	30.28
527.466	30.34
527.814	30.36
528.161	30.45
528.508	30.55
528.854	30.47
529.201	30.48
529.548	30.24
529.895	29.75
530.242	29.34
530.588	29.57
530.935	29.95
531.282	30.23
531.628	30.45
531.975	30.64
532.321	30.67
532.667	30.83
533.014	30.95
533.36	30.91
533.706	30.99
534.052	30.84
534.399	30.82
534.745	30.26
535.091	30.04
535.437	30.48
535.783	30.77
536.129	31.08
536.474	31.21
536.82	31.19
537.166	31.27
537.512	31.29
537.857	31.28
538.203	31.05
538.549	30.82
538.894	31.12
539.239	31.29
539.585	31.49
539.93	31.73
540.276	31.69
540.621	31.89
540.966	31.87
541.311	31.8
541.656	31.67
542.001	31.56
542.346	31.33
542.691	30.74
543.036	30.56
543.381	30.75
543.726	31.01
544.071	31.38
544.415	31.52
544.76	31.41
545.105	31.48
545.449	31.6
545.794	31.87
546.138	32.07
546.483	32.04
546.827	32.06
547.171	32.19
547.516	32.12
547.86	32.07
548.204	32.09
548.548	31.7
548.892	31.9
549.236	32.23
549.58	32.43
549.924	32.62
550.268	32.65
550.612	32.76
550.956	32.82
551.3	32.87
551.643	32.66
551.987	32.82
552.33	32.79
552.674	33.08
553.017	32.85
553.361	32.67
553.704	32.78
554.048	32.74
554.391	32.82
554.734	32.8
555.077	33.02
555.42	32.96
555.764	33.18
556.107	33.21
556.45	33.27
556.793	33.26
557.135	33.32
557.478	33.35
557.821	33.56
558.164	33.29
558.507	33.47
558.849	33.51
559.192	33.37
559.534	33.42
559.877	33.42
560.219	33.6
560.562	33.45
560.904	33.68
561.246	33.41
561.589	33.59
561.931	33.55
562.273	33.74
562.615	33.58
562.957	33.47
563.299	33.71
563.641	33.41
563.983	33.65
564.325	33.45
564.667	33.92
565.008	33.83
565.35	33.96
565.692	34.05
566.033	33.84
566.375	33.68
566.716	33.67
567.058	33.97
567.399	33.98
567.741	33.69
568.082	33.51
568.423	33.72
568.764	33.91
569.105	34.01
569.447	33.94
569.788	34.09
570.129	34.02
570.47	33.98
570.811	33.96
571.151	34.11
571.492	34.19
571.833	34.25
572.174	34.29
572.514	33.86
572.855	34.18
573.195	34.22
573.536	33.99
573.876	33.9
574.217	34.02
574.557	34.18
574.898	34.29
575.238	34.14
575.578	34.3
575.918	34.25
576.258	34.23
576.598	34.28
576.938	34.25
577.278	34.42
577.618	34.47
577.958	34.86
578.298	34.45
578.638	34.79
578.977	34.63
579.317	35.06
579.657	34.78
579.996	34.86
580.336	34.93
580.675	34.91
581.014	34.97
581.354	35.13
581.693	35.13
582.032	34.91
582.372	35.37
582.711	35.41
583.05	35.02
583.389	35.6
583.728	35.32
584.067	35.23
584.406	35.22
584.745	35.29
585.083	35.09
585.422	35.29
585.761	35.44
586.1	35.29
586.438	35.47
586.777	35.49
587.115	35.39
587.454	35.2
587.792	35.66
588.13	35.8
588.469	35.54
588.807	35.46
589.145	35.62
589.483	35.78
589.821	35.61
590.159	35.48
590.497	35.4
590.835	35.59
591.173	35.4
591.511	35.26
591.849	35.33
592.187	35.47
592.524	36.15
592.862	35.71
593.2	35.75
593.537	35.72
593.875	36.16
594.212	35.92
594.55	36.16
594.887	36.29
595.224	35.83
595.561	35.72
595.899	36.1
596.236	35.76
596.573	35.87
596.91	36.08
597.247	36.03
597.584	36.13
597.921	35.77
598.258	35.88
598.594	35.63
598.931	35.53
599.268	35.45
599.604	35.79
599.941	36.01
600.277	36.24
600.614	36.22
600.95	36.43
601.287	36.37
601.623	36.56
601.959	36.38
602.296	36.28
602.632	36.55
602.968	36.29
603.304	36.35
603.64	36.36
603.976	36.28
604.312	36.66
604.648	36.4
604.984	36.14
605.319	36.11
605.655	36.09
605.991	36.07
606.326	35.98
606.662	35.9
606.998	36.32
607.333	36.41
607.668	36.48
608.004	36.77
608.339	36.51
608.674	36.49
609.01	36.73
609.345	37.11
609.68	36.82
610.015	36.84
610.35	36.59
610.685	36.63
611.02	36.6
611.355	36.34
611.689	36.53
612.024	36.55
612.359	36.97
612.694	36.77
613.028	36.69
613.363	37.26
613.697	37.25
614.032	37.28
614.366	37.22
614.7	37.15
615.035	37.28
615.369	37.42
615.703	37.35
616.037	37.4
616.371	37.35
616.705	37.51
617.039	37.34
617.373	37.31
617.707	37.7
618.041	37.34
618.375	37.84
618.709	37.57
619.042	37.12
619.376	37.49
619.71	37.55
620.043	37.55
620.377	37.74
620.71	37.26
621.043	37.4
621.377	37.66
621.71	37.79
622.043	38.06
622.376	37.8
622.709	38.06
623.043	37.71
623.376	38
623.709	37.63
624.041	37.56
624.374	37.71
624.707	37.59
625.04	37.64
625.373	37.45
625.705	38.08
626.038	38.14
626.37	37.03
626.703	37.79
627.035	37.79
627.368	37.68
627.7	37.79
628.032	37.34
628.365	37.62
628.697	37.76
629.029	37.91
629.361	37.72
629.693	37.65
630.025	37.8
630.357	38.19
630.689	37.89
631.021	38.2
631.353	38.21
631.684	37.76
632.016	38.09
632.348	38.23
632.679	37.98
633.011	38.42
633.342	37.97
633.674	38.05
634.005	38.3
634.336	38.28
634.668	38.15
634.999	37.96
635.33	38.58
635.661	37.88
635.992	37.89
636.323	38.4
636.654	38.26
636.985	38.32
637.316	38.12
637.647	38.41
637.977	38.2
638.308	38.06
638.639	38.55
638.969	38.45
639.3	38.52
639.63	38.99
639.961	38.83
640.291	38.45
640.622	38.82
640.952	38.24
641.282	38.28
641.612	38.4
641.943	38.67
642.273	38.94
642.603	38.62
642.933	38.74
643.263	38.77
643.592	38.93
643.922	38.91
644.252	38.41
644.582	38.68
644.911	38.99
645.241	38.83
645.571	39.23
645.9	39.01
646.23	39.44
646.559	38.81
646.888	39.04
647.218	38.87
647.547	39.08
647.876	38.87
648.205	38.5
648.534	38.63
648.863	39.29
649.192	39.39
649.521	39.17
649.85	39.03
650.179	38.91
650.508	39.2
650.837	38.64
651.165	39.4
651.494	39.37
651.822	38.41
652.151	39.13
652.479	39.32
652.808	39.23
653.136	38.87
653.465	38.54
653.793	39.11
654.121	39.22
654.449	39.67
654.777	39.33
655.105	39.47
655.433	39.12
655.761	39.97
656.089	39.51
656.417	38.99
656.745	39.18
657.073	39.43
657.4	39.35
657.728	40.03
658.056	39.21
658.383	39.5
658.711	39.27
659.038	40.07
659.365	39.69
659.693	39.42
660.02	39.74
660.347	39.61
660.674	39.42
661.001	39.08
661.329	39.11
661.656	39.82
661.982	39.44
662.309	40.63
662.636	39.94
662.963	39.37
663.29	39.64
663.616	40.31
663.943	40.19
664.27	40.15
664.596	39.95
664.923	39.55
665.249	40.04
665.576	40.26
665.902	39.93
666.228	39.78
666.554	39.36
666.881	40.16
667.207	40.53
667.533	40.64
667.859	39.98
668.185	40.53
668.511	39.51
668.837	40.05
669.162	39.75
