Data from 23-2_crown_Reflection__4__09.txt Node

Date: Thu Feb 29 21:55:51 CST 2024
User: ToomeyLab
Spectrometer: FLMS14357
Trigger mode: 0
Integration Time (sec): 1.000000E-2
Scans to average: 100
Electric dark correction enabled: true
Nonlinearity correction enabled: false
Boxcar width: 0
XAxis mode: Wavelengths
Number of Pixels in Spectrum: 2048
>>>>>Begin Spectral Data<<<<<
189.047	77.21
189.435	77.21
189.823	77.21
190.211	-57.23
190.599	59.12
190.987	169.78
191.375	1.07
191.763	229.79
192.151	149.28
192.538	-28.79
192.926	64.71
193.314	118.92
193.702	91.49
194.089	-42.79
194.477	-323.93
194.864	-428.24
195.252	3.6
195.639	90.61
196.027	1841.98
196.414	56.37
196.801	2.66
197.189	39.29
197.576	239.84
197.963	210.49
198.351	-58.09
198.738	-30.43
199.125	15.72
199.512	-40.24
199.899	40.63
200.286	-20.3
200.673	25.61
201.06	24.14
201.447	25.57
201.833	43.47
202.22	-26.83
202.607	-28.44
202.994	-95.97
203.38	-61.05
203.767	47.28
204.154	15.21
204.54	6.79
204.927	31.01
205.313	30.14
205.699	-51.37
206.086	-14.26
206.472	58.91
206.858	12.77
207.245	49.94
207.631	7.84
208.017	14.83
208.403	-45.6
208.789	25.04
209.175	-37.13
209.561	2.19
209.947	18.16
210.333	-4.53
210.719	39.46
211.105	18.45
211.491	7.46
211.876	12.28
212.262	38.36
212.648	-22.17
213.034	6.51
213.419	13.27
213.805	-16.98
214.19	17.29
214.576	14.09
214.961	13.62
215.346	36.57
215.732	6.31
216.117	-22.47
216.502	37.55
216.888	-41.96
217.273	13.55
217.658	23.48
218.043	15.07
218.428	20.68
218.813	-6.8
219.198	15
219.583	8.36
219.968	8.39
220.353	-8.87
220.738	10.73
221.122	3.15
221.507	13.88
221.892	16.28
222.276	14.58
222.661	0.13
223.046	8.6
223.43	-4.96
223.815	4.78
224.199	-0.51
224.583	3.18
224.968	6.27
225.352	8.8
225.736	6.71
226.121	4.31
226.505	14.35
226.889	9.81
227.273	4.03
227.657	1.77
228.041	6.38
228.425	7.38
228.809	10.78
229.193	5.37
229.577	5.77
229.961	5.36
230.344	6.68
230.728	6.24
231.112	6.71
231.495	5.44
231.879	5.89
232.263	3.03
232.646	6.24
233.03	5.99
233.413	5.52
233.797	4.73
234.18	2.43
234.563	2.34
234.946	5.27
235.33	5.64
235.713	5.01
236.096	6.52
236.479	6.71
236.862	7.42
237.245	4.8
237.628	6.34
238.011	7.42
238.394	5.43
238.777	5.78
239.16	6.36
239.543	6.69
239.925	5.79
240.308	7.06
240.691	7.39
241.073	6.05
241.456	6.24
241.838	7.47
242.221	6.45
242.603	5.65
242.986	7.05
243.368	5.52
243.75	6.43
244.133	5.42
244.515	5.79
244.897	6.32
245.279	6.78
245.661	5.51
246.043	5.33
246.425	6.68
246.807	6.48
247.189	6.41
247.571	5.63
247.953	5.77
248.335	5.57
248.717	6.05
249.098	5.87
249.48	5.82
249.862	6.24
250.243	5.9
250.625	5.85
251.006	6.62
251.388	6.32
251.769	6.34
252.151	6.09
252.532	4.96
252.913	5.52
253.295	6.47
253.676	6.01
254.057	5.69
254.438	6.44
254.819	6.37
255.2	5.34
255.581	5.51
255.962	7.11
256.343	6.15
256.724	5.56
257.105	6.64
257.486	5.12
257.867	6.42
258.247	5.23
258.628	4.91
259.009	5.84
259.389	4.97
259.77	6.2
260.15	5.96
260.531	5.91
260.911	5.39
261.292	5.63
261.672	5.72
262.052	5.66
262.432	5.24
262.813	4.98
263.193	5.35
263.573	5.63
263.953	5.76
264.333	5.15
264.713	5.35
265.093	5.52
265.473	5.69
265.853	6.01
266.233	3.9
266.612	5.39
266.992	5.25
267.372	4.21
267.752	5.13
268.131	5.74
268.511	5.33
268.89	5.66
269.27	5
269.649	5.07
270.029	5.29
270.408	5.01
270.787	5.17
271.167	4.6
271.546	5.67
271.925	5.07
272.304	5.15
272.683	5.66
273.062	4.86
273.441	5.33
273.82	4.66
274.199	5.33
274.578	4.72
274.957	5.26
275.336	5.37
275.715	5.38
276.093	4.75
276.472	6.04
276.851	4.98
277.229	5.42
277.608	5.25
277.986	4.82
278.365	5.39
278.743	4.59
279.122	4.88
279.5	4.96
279.878	4.34
280.257	5.29
280.635	4.53
281.013	5.77
281.391	4.89
281.769	5.47
282.147	4.61
282.525	5.17
282.903	4.78
283.281	5.39
283.659	4.87
284.037	4.85
284.415	4.3
284.792	4.64
285.17	4.52
285.548	4.76
285.925	4.82
286.303	4.94
286.68	4.3
287.058	4.98
287.435	4.84
287.813	4.98
288.19	4.74
288.567	5
288.945	5.31
289.322	4.98
289.699	5.16
290.076	5.56
290.453	4.67
290.83	4.68
291.207	4.8
291.584	4.87
291.961	4.8
292.338	5.1
292.715	4.98
293.092	4.69
293.469	5.95
293.845	4.49
294.222	4.95
294.599	4.84
294.975	4.8
295.352	5.14
295.728	5.29
296.105	5.08
296.481	4.77
296.858	5.33
297.234	4.46
297.61	5.15
297.986	5.13
298.363	5.08
298.739	5.27
299.115	5.18
299.491	4.79
299.867	5.25
300.243	5
300.619	4.78
300.995	5.25
301.371	5.18
301.746	4.91
302.122	5.81
302.498	5.27
302.874	5.24
303.249	4.82
303.625	5.13
304	5.38
304.376	5.08
304.751	5.19
305.127	5.07
305.502	5
305.878	5.44
306.253	4.71
306.628	5.04
307.003	4.82
307.378	5.04
307.754	5.78
308.129	4.98
308.504	5.22
308.879	4.88
309.254	4.9
309.629	4.96
310.003	4.93
310.378	4.87
310.753	4.58
311.128	5.11
311.502	4.88
311.877	5.06
312.252	4.98
312.626	5.35
313.001	4.89
313.375	5.05
313.75	5.11
314.124	5.24
314.498	4.95
314.873	5.08
315.247	4.62
315.621	5.57
315.995	5.15
316.369	5.64
316.743	4.99
317.117	5.19
317.491	4.19
317.865	4.99
318.239	5.86
318.613	5.08
318.987	5.41
319.361	4.65
319.734	5.48
320.108	5.32
320.482	4.97
320.855	4.6
321.229	5.57
321.602	5.59
321.976	5.34
322.349	4.83
322.723	5.15
323.096	5.36
323.469	4.56
323.843	4.52
324.216	5.52
324.589	4.73
324.962	4.62
325.335	4.57
325.708	5.71
326.081	4.49
326.454	5.05
326.827	5.33
327.2	5.2
327.573	4.58
327.945	5.43
328.318	4.97
328.691	5.3
329.063	4.75
329.436	4.6
329.809	5.46
330.181	5.78
330.553	5.1
330.926	4.63
331.298	5.1
331.671	5.18
332.043	4.67
332.415	5.11
332.787	4.54
333.159	4.97
333.532	4.75
333.904	5
334.276	5.37
334.648	5.01
335.02	4.7
335.391	4.55
335.763	4.53
336.135	4.5
336.507	4.64
336.879	5.36
337.25	5.27
337.622	4.79
337.993	5.05
338.365	4.56
338.736	4.97
339.108	5.12
339.479	5.22
339.851	4.76
340.222	5.65
340.593	5.01
340.964	5.32
341.336	4.81
341.707	5.28
342.078	4.83
342.449	5.76
342.82	5.16
343.191	4.76
343.562	4.85
343.933	4.82
344.303	5.14
344.674	4.93
345.045	5.04
345.416	5.49
345.786	4.97
346.157	4.87
346.527	4.94
346.898	5.28
347.268	5.17
347.639	5.23
348.009	5.09
348.38	5.07
348.75	5.43
349.12	5.12
349.49	5.09
349.861	5.17
350.231	5.27
350.601	5.18
350.971	5.22
351.341	5.28
351.711	5.36
352.081	5.63
352.45	5.27
352.82	4.61
353.19	5.34
353.56	5.37
353.929	5.38
354.299	4.66
354.669	5.13
355.038	4.83
355.408	5.34
355.777	5.41
356.147	4.69
356.516	5.29
356.885	5.12
357.254	5.14
357.624	5.1
357.993	5.39
358.362	5.5
358.731	5.24
359.1	5.44
359.469	5.13
359.838	5.21
360.207	5.15
360.576	5.12
360.945	4.82
361.314	5.09
361.682	5.12
362.051	5.34
362.42	5.33
362.788	4.98
363.157	5.12
363.525	5
363.894	5.26
364.262	4.98
364.631	5.19
364.999	4.69
365.367	4.93
365.735	5.27
366.104	5.14
366.472	4.77
366.84	5.21
367.208	5.06
367.576	5.14
367.944	5.28
368.312	5.29
368.68	5.25
369.048	4.93
369.416	5.24
369.783	5.36
370.151	5.66
370.519	5.34
370.886	5.41
371.254	5.36
371.621	5.2
371.989	5.29
372.356	5.07
372.724	5.16
373.091	5.07
373.458	5.25
373.826	5.48
374.193	5.11
374.56	5.42
374.927	5.62
375.294	4.81
375.661	5.43
376.028	5.41
376.395	5.2
376.762	5.84
377.129	5.11
377.496	5.32
377.863	5.18
378.229	5.19
378.596	5.16
378.963	5.46
379.329	5.35
379.696	5.31
380.062	5.41
380.429	5.59
380.795	5.53
381.161	5.48
381.528	5.05
381.894	5.25
382.26	5.48
382.626	5.3
382.993	5.23
383.359	5.49
383.725	5.35
384.091	5.71
384.457	5.11
384.823	5.38
385.188	5.26
385.554	5.43
385.92	5.61
386.286	5.3
386.651	5.35
387.017	5.35
387.383	5.42
387.748	5.26
388.114	5.42
388.479	5.68
388.845	5.63
389.21	5.26
389.575	5.38
389.94	5.38
390.306	5.54
390.671	5.34
391.036	5.41
391.401	5.37
391.766	5.36
392.131	5.29
392.496	5.36
392.861	5.57
393.226	5.5
393.591	5.61
393.956	5.46
394.32	5.51
394.685	5.58
395.05	5.34
395.414	5.48
395.779	5.27
396.143	5.73
396.508	5.46
396.872	5.58
397.236	5.34
397.601	5.42
397.965	5.77
398.329	5.28
398.694	5.31
399.058	5.48
399.422	5.52
399.786	5.46
400.15	5.51
400.514	5.29
400.878	5.32
401.242	5.42
401.605	5.4
401.969	5.53
402.333	5.49
402.697	5.26
403.06	5.64
403.424	5.54
403.787	5.31
404.151	5.54
404.514	5.45
404.878	5.29
405.241	5.66
405.604	5.28
405.968	5.31
406.331	5.36
406.694	5.42
407.057	5.56
407.42	5.52
407.783	5.52
408.146	5.58
408.509	5.46
408.872	5.75
409.235	5.52
409.598	5.56
409.961	5.34
410.323	5.78
410.686	5.56
411.049	5.37
411.411	5.75
411.774	5.45
412.136	5.42
412.499	5.28
412.861	5.48
413.223	5.37
413.586	5.62
413.948	5.39
414.31	5.43
414.672	5.36
415.035	5.74
415.397	5.53
415.759	5.5
416.121	5.87
416.483	5.47
416.845	5.48
417.206	5.58
417.568	5.41
417.93	5.48
418.292	5.52
418.653	5.33
419.015	5.52
419.377	5.56
419.738	5.33
420.1	5.43
420.461	5.48
420.822	5.39
421.184	5.36
421.545	5.42
421.906	5.35
422.267	5.45
422.629	5.49
422.99	5.41
423.351	5.42
423.712	5.42
424.073	5.24
424.434	5.5
424.795	5.45
425.155	5.46
425.516	5.37
425.877	5.35
426.238	5.29
426.598	5.48
426.959	5.38
427.32	5.51
427.68	5.4
428.041	5.37
428.401	5.5
428.761	5.62
429.122	5.43
429.482	5.52
429.842	5.83
430.202	5.42
430.563	5.66
430.923	5.56
431.283	5.75
431.643	5.48
432.003	5.84
432.363	5.5
432.722	5.59
433.082	5.33
433.442	5.68
433.802	5.55
434.161	5.6
434.521	5.38
434.881	5.49
435.24	5.68
435.6	5.43
435.959	5.57
436.319	5.6
436.678	5.48
437.037	5.43
437.396	5.52
437.756	5.66
438.115	5.55
438.474	5.5
438.833	5.69
439.192	5.54
439.551	5.53
439.91	5.5
440.269	5.45
440.628	5.58
440.987	5.42
441.345	5.5
441.704	5.43
442.063	5.58
442.421	5.55
442.78	5.49
443.138	5.46
443.497	5.43
443.855	5.59
444.214	5.68
444.572	5.64
444.93	5.52
445.288	5.47
445.647	5.42
446.005	5.62
446.363	5.45
446.721	5.38
447.079	5.38
447.437	5.47
447.795	5.48
448.153	5.52
448.51	5.49
448.868	5.35
449.226	5.44
449.584	5.44
449.941	5.52
450.299	5.62
450.656	5.46
451.014	5.55
451.371	5.51
451.729	5.75
452.086	5.65
452.443	5.53
452.801	5.65
453.158	5.77
453.515	5.57
453.872	5.63
454.229	5.58
454.586	5.38
454.943	5.56
455.3	5.7
455.657	5.65
456.014	5.67
456.371	5.55
456.727	5.7
457.084	5.58
457.441	5.73
457.797	5.63
458.154	5.65
458.51	5.71
458.867	5.78
459.223	5.69
459.58	5.49
459.936	5.67
460.292	5.42
460.648	5.49
461.005	5.48
461.361	5.44
461.717	5.42
462.073	5.49
462.429	5.63
462.785	5.53
463.141	5.6
463.496	5.57
463.852	5.7
464.208	5.52
464.564	5.66
464.919	5.74
465.275	5.77
465.631	5.58
465.986	5.9
466.342	5.63
466.697	5.61
467.052	5.56
467.408	5.68
467.763	5.7
468.118	5.58
468.473	5.79
468.829	5.64
469.184	5.61
469.539	5.8
469.894	5.58
470.249	5.49
470.603	5.58
470.958	5.85
471.313	5.62
471.668	5.96
472.023	5.66
472.377	5.53
472.732	5.81
473.086	5.7
473.441	5.68
473.795	5.72
474.15	5.44
474.504	5.72
474.859	5.67
475.213	5.63
475.567	5.64
475.921	5.82
476.275	5.63
476.63	5.72
476.984	5.82
477.338	5.62
477.692	5.55
478.045	5.67
478.399	5.57
478.753	5.58
479.107	5.61
479.461	5.64
479.814	5.72
480.168	5.69
480.521	5.68
480.875	5.8
481.228	5.76
481.582	5.77
481.935	5.67
482.289	5.69
482.642	5.63
482.995	5.59
483.348	5.56
483.701	5.76
484.055	5.57
484.408	5.58
484.761	5.51
485.114	5.34
485.466	5.25
485.819	5.23
486.172	5.29
486.525	5.39
486.878	5.43
487.23	5.45
487.583	5.53
487.936	5.51
488.288	5.42
488.641	5.34
488.993	5.4
489.345	5.35
489.698	5.35
490.05	5.39
490.402	5.46
490.754	5.52
491.107	5.53
491.459	5.54
491.811	5.62
492.163	5.56
492.515	5.57
492.866	5.5
493.218	5.41
493.57	5.38
493.922	5.47
494.274	5.47
494.625	5.59
494.977	5.65
495.328	5.72
495.68	5.63
496.031	5.64
496.383	5.54
496.734	5.73
497.086	5.55
497.437	5.78
497.788	5.69
498.139	5.75
498.49	5.69
498.842	5.65
499.193	5.7
499.544	5.67
499.894	5.63
500.245	5.69
500.596	5.67
500.947	5.57
501.298	5.74
501.648	5.68
501.999	5.74
502.35	5.88
502.7	5.8
503.051	5.68
503.401	5.69
503.752	5.64
504.102	5.79
504.452	5.93
504.803	5.66
505.153	5.7
505.503	5.72
505.853	5.85
506.203	5.81
506.553	5.84
506.903	5.6
507.253	5.85
507.603	5.7
507.953	5.74
508.303	5.86
508.652	5.88
509.002	5.82
509.352	5.77
509.701	5.8
510.051	5.75
510.4	5.84
510.75	5.71
511.099	5.63
511.449	5.68
511.798	5.7
512.147	5.7
512.496	5.72
512.846	5.54
513.195	5.64
513.544	5.83
513.893	5.64
514.242	5.69
514.591	5.69
514.939	5.69
515.288	5.84
515.637	5.76
515.986	5.84
516.334	5.72
516.683	5.79
517.032	5.92
517.38	5.81
517.729	5.78
518.077	5.9
518.426	5.73
518.774	5.74
519.122	5.77
519.47	5.79
519.819	5.68
520.167	5.6
520.515	5.56
520.863	5.58
521.211	5.72
521.559	5.79
521.907	5.7
522.255	5.77
522.602	5.75
522.95	5.7
523.298	5.73
523.645	5.87
523.993	5.79
524.341	5.81
524.688	5.81
525.036	5.91
525.383	5.7
525.73	5.79
526.078	5.84
526.425	5.76
526.772	5.7
527.119	5.67
527.466	5.72
527.814	5.61
528.161	5.71
528.508	5.73
528.854	5.69
529.201	5.62
529.548	5.53
529.895	5.45
530.242	5.36
530.588	5.39
530.935	5.46
531.282	5.46
531.628	5.52
531.975	5.61
532.321	5.6
532.667	5.76
533.014	5.74
533.36	5.65
533.706	5.82
534.052	5.72
534.399	5.72
534.745	5.62
535.091	5.48
535.437	5.58
535.783	5.55
536.129	5.72
536.474	5.72
536.82	5.66
537.166	5.73
537.512	5.78
537.857	5.86
538.203	5.74
538.549	5.67
538.894	5.75
539.239	5.73
539.585	5.65
539.93	5.75
540.276	5.8
540.621	5.75
540.966	5.88
541.311	5.75
541.656	5.94
542.001	5.81
542.346	5.74
542.691	5.58
543.036	5.52
543.381	5.51
543.726	5.54
544.071	5.6
544.415	5.7
544.76	5.62
545.105	5.67
545.449	5.71
545.794	5.7
546.138	5.79
546.483	5.68
546.827	5.89
547.171	5.79
547.516	5.8
547.86	5.89
548.204	5.67
548.548	5.67
548.892	5.73
549.236	5.85
549.58	5.9
549.924	5.9
550.268	5.85
550.612	5.96
550.956	5.85
551.3	5.97
551.643	5.93
551.987	5.79
552.33	5.88
552.674	6
553.017	6.01
553.361	5.91
553.704	5.92
554.048	5.81
554.391	5.89
554.734	5.82
555.077	5.78
555.42	5.92
555.764	5.78
556.107	6.05
556.45	5.84
556.793	5.84
557.135	5.82
557.478	5.88
557.821	5.81
558.164	6.05
558.507	5.82
558.849	6.04
559.192	5.73
559.534	5.91
559.877	5.94
560.219	6.03
560.562	5.76
560.904	5.9
561.246	5.88
561.589	6.05
561.931	5.89
562.273	6.21
562.615	5.9
562.957	6.06
563.299	5.81
563.641	5.85
563.983	5.9
564.325	5.77
564.667	6.04
565.008	5.99
565.35	5.97
565.692	5.88
566.033	5.82
566.375	5.77
566.716	5.81
567.058	6.04
567.399	5.99
567.741	5.98
568.082	6.03
568.423	5.92
568.764	5.74
569.105	5.83
569.447	5.96
569.788	6
570.129	5.85
570.47	6.02
570.811	5.81
571.151	5.98
571.492	5.86
571.833	5.92
572.174	5.89
572.514	5.88
572.855	5.95
573.195	6.05
573.536	5.97
573.876	5.87
574.217	5.83
574.557	5.74
574.898	6.02
575.238	5.92
575.578	6.05
575.918	5.85
576.258	5.89
576.598	5.85
576.938	5.98
577.278	5.86
577.618	5.88
577.958	5.92
578.298	5.96
578.638	5.91
578.977	5.71
579.317	6.13
579.657	6.12
579.996	6.15
580.336	6.04
580.675	6.07
581.014	5.98
581.354	5.92
581.693	5.99
582.032	6.05
582.372	6.12
582.711	6.23
583.05	6.12
583.389	6.1
583.728	5.73
584.067	6.05
584.406	6.01
584.745	5.89
585.083	5.6
585.422	6.1
585.761	5.94
586.1	6
586.438	6.04
586.777	6.18
587.115	5.89
587.454	5.85
587.792	5.99
588.13	6.1
588.469	5.83
588.807	5.91
589.145	6.13
589.483	5.92
589.821	5.83
590.159	5.9
590.497	5.92
590.835	5.99
591.173	5.99
591.511	5.82
591.849	5.8
592.187	5.8
592.524	5.92
592.862	5.91
593.2	6.1
593.537	5.83
593.875	6.11
594.212	5.93
594.55	6.15
594.887	6.29
595.224	6.08
595.561	6.16
595.899	6.12
596.236	5.7
596.573	6.1
596.91	6.14
597.247	6.11
597.584	5.92
597.921	5.65
598.258	6.08
598.594	5.85
598.931	5.92
599.268	5.76
599.604	5.89
599.941	5.82
600.277	6.17
600.614	6.18
600.95	6.28
601.287	6.25
601.623	6.15
601.959	6.19
602.296	5.84
602.632	6
602.968	5.87
603.304	6.14
603.64	6.27
603.976	6.22
604.312	6.14
604.648	5.87
604.984	5.78
605.319	6.21
605.655	5.98
605.991	5.77
606.326	6.07
606.662	5.94
606.998	5.9
607.333	5.92
607.668	6.08
608.004	5.94
608.339	5.99
608.674	5.95
609.01	5.96
609.345	6.3
609.68	5.98
610.015	5.85
610.35	6.03
610.685	6.22
611.02	5.95
611.355	5.89
611.689	6.01
612.024	5.87
612.359	6.08
612.694	6.06
613.028	5.83
613.363	6.16
613.697	5.96
614.032	6.07
614.366	6.44
614.7	6
615.035	5.87
615.369	6.14
615.703	6.34
616.037	6.02
616.371	5.97
616.705	5.99
617.039	5.91
617.373	6.06
617.707	5.95
618.041	5.81
618.375	6.52
618.709	5.88
619.042	6.3
619.376	5.69
619.71	5.88
620.043	6.05
620.377	6.65
620.71	5.76
621.043	6.11
621.377	6.04
621.71	6.53
622.043	6.14
622.376	6.34
622.709	6.31
623.043	6.29
623.376	6.05
623.709	5.94
624.041	5.98
624.374	6.27
624.707	6.19
625.04	6.17
625.373	6.09
625.705	5.8
626.038	6.47
626.37	5.86
626.703	6.3
627.035	6.14
627.368	5.99
627.7	6.32
628.032	6.22
628.365	6.19
628.697	5.83
629.029	6.28
629.361	6.1
629.693	5.94
630.025	6.11
630.357	6.13
630.689	5.99
631.021	6.48
631.353	6.35
631.684	6.1
632.016	6.18
632.348	6.36
632.679	6.02
633.011	6.69
633.342	5.78
633.674	5.94
634.005	6.08
634.336	6.28
634.668	6.26
634.999	6.24
635.33	6.07
635.661	6
635.992	5.8
636.323	5.96
636.654	6.01
636.985	6.38
637.316	6.11
637.647	6.2
637.977	6.03
638.308	6.39
638.639	6.26
638.969	6.26
639.3	6.38
639.63	6.1
639.961	6.56
640.291	5.9
640.622	5.91
640.952	5.77
641.282	6.45
641.612	6.19
641.943	6.57
642.273	6.5
642.603	6.14
642.933	6.22
643.263	6.34
643.592	6.41
643.922	6.33
644.252	6.23
644.582	6.37
644.911	6.51
645.241	5.93
645.571	6.19
645.9	5.67
646.23	6.31
646.559	6.14
646.888	6.36
647.218	6.15
647.547	6.3
647.876	6.13
648.205	5.66
648.534	6.09
648.863	6.5
649.192	6.71
649.521	6.66
649.85	6.03
650.179	5.9
650.508	6.55
650.837	6.39
651.165	6.15
651.494	6.46
651.822	5.78
652.151	6.02
652.479	6.49
652.808	5.83
653.136	5.98
653.465	5.98
653.793	6.02
654.121	6.14
654.449	6.35
654.777	6.38
655.105	6.29
655.433	6.19
655.761	6.25
656.089	6.19
656.417	6.15
656.745	6.32
657.073	5.97
657.4	6.84
657.728	6.58
658.056	5.85
658.383	6.35
658.711	6.45
659.038	5.53
659.365	6.02
659.693	5.97
660.02	6.28
660.347	6.14
660.674	6.1
661.001	5.83
661.329	6.26
661.656	6.02
661.982	6.7
662.309	6.31
662.636	6.24
662.963	6.09
663.29	6.52
663.616	6.53
663.943	6.17
664.27	6.08
664.596	6.13
664.923	5.78
665.249	6.15
665.576	6.47
665.902	6.07
666.228	7.02
666.554	6.11
666.881	6.69
667.207	6.31
667.533	6.21
667.859	5.93
668.185	6.07
668.511	6.41
668.837	6.33
669.162	5.7
669.488	5.66
669.814	6.36
670.139	5.96
670.465	6.14
670.791	6.28
671.116	6.05
671.442	6.14
671.767	5.51
672.092	6.56
672.418	5.84
672.743	6.02
673.068	6.44
673.393	6.46
673.718	6.3
674.043	6.55
674.368	7.01
674.693	6.71
675.018	6.94
675.343	6.63
675.667	5.88
675.992	6.36
676.317	6.36
676.641	5.88
676.966	6.18
677.29	6.64
677.615	6.55
677.939	6.64
678.264	6.96
678.588	6.95
678.912	6.16
679.236	5.88
679.56	6.48
679.885	6.82
680.209	6.8
680.532	7.1
680.856	6.58
681.18	6.41
681.504	6.36
681.828	5.69
682.152	6.42
682.475	6.85
682.799	6.2
683.122	6.68
683.446	6.54
683.769	6.56
684.093	7.04
684.416	6.98
684.739	6.56
685.062	6.06
685.386	6.57
685.709	6.18
686.032	7.06
686.355	6.81
686.678	6.97
687.001	6.41
687.324	6.5
687.646	6.65
687.969	6.52
688.292	6.9
688.614	5.75
688.937	6.66
689.26	6.87
689.582	6.29
689.904	7.03
690.227	6.7
690.549	6.12
690.871	6.12
691.194	5.98
691.516	5.97
691.838	6.73
692.16	6.92
692.482	6.05
692.804	6.54
