Data from 23-2_forehead_Reflection__0__10.txt Node

Date: Thu Feb 29 21:56:52 CST 2024
User: ToomeyLab
Spectrometer: FLMS14357
Trigger mode: 0
Integration Time (sec): 1.000000E-2
Scans to average: 100
Electric dark correction enabled: true
Nonlinearity correction enabled: false
Boxcar width: 0
XAxis mode: Wavelengths
Number of Pixels in Spectrum: 2048
>>>>>Begin Spectral Data<<<<<
189.047	40.44
189.435	40.44
189.823	40.44
190.211	-147.23
190.599	-170.92
190.987	116.62
191.375	-534.8
191.763	-3347.87
192.151	302.58
192.538	124.31
192.926	233.82
193.314	36.03
193.702	390.44
194.089	153.72
194.477	-260.49
194.864	-482.16
195.252	145.97
195.639	118.3
196.027	-2729.01
196.414	58.14
196.801	5.16
197.189	22.26
197.576	-59.71
197.963	383.5
198.351	1.39
198.738	17.54
199.125	-17.44
199.512	171.86
199.899	38.69
200.286	18.3
200.673	34.26
201.06	-1.13
201.447	1.97
201.833	72.81
202.22	9.64
202.607	-11.43
202.994	-67.4
203.38	-77.93
203.767	-0.38
204.154	38.6
204.54	51.08
204.927	15.4
205.313	49.66
205.699	-33.99
206.086	23.48
206.472	43.1
206.858	-6.58
207.245	18.12
207.631	42.3
208.017	37.7
208.403	30.02
208.789	22.2
209.175	5.87
209.561	45.39
209.947	59.45
210.333	40.83
210.719	31.67
211.105	26.73
211.491	11.39
211.876	45.09
212.262	43.02
212.648	5.09
213.034	6.53
213.419	13.54
213.805	27.4
214.19	20.02
214.576	16.07
214.961	16.6
215.346	13.2
215.732	23.53
216.117	-33.72
216.502	26.29
216.888	-7.87
217.273	15.79
217.658	17.21
218.043	24.96
218.428	26.07
218.813	15.9
219.198	24.53
219.583	3.09
219.968	16
220.353	5.61
220.738	28.72
221.122	0.13
221.507	24.51
221.892	26.77
222.276	10.47
222.661	13.52
223.046	1.82
223.43	7
223.815	1.49
224.199	16.68
224.583	10.08
224.968	5.28
225.352	12.94
225.736	3.82
226.121	10.48
226.505	13.74
226.889	10.34
227.273	11.04
227.657	1.59
228.041	7.55
228.425	8.25
228.809	9.78
229.193	4.36
229.577	6.25
229.961	5.08
230.344	5.16
230.728	5.07
231.112	6.94
231.495	5.41
231.879	7.11
232.263	4.39
232.646	8.83
233.03	7
233.413	5.63
233.797	7.4
234.18	6.65
234.563	3.37
234.946	4.34
235.33	7.5
235.713	5.58
236.096	6.82
236.479	8.28
236.862	7.47
237.245	5.24
237.628	5.1
238.011	7.15
238.394	5.8
238.777	5.65
239.16	6.56
239.543	8.02
239.925	6.76
240.308	6.97
240.691	7.46
241.073	7.21
241.456	7.26
241.838	9.26
242.221	7.53
242.603	6.84
242.986	7.49
243.368	6.14
243.75	7.59
244.133	6.61
244.515	6.44
244.897	7.03
245.279	7.15
245.661	6.36
246.043	6.33
246.425	8.61
246.807	8.89
247.189	6.55
247.571	7.06
247.953	7.52
248.335	6.99
248.717	6.89
249.098	6.8
249.48	7.24
249.862	6.98
250.243	6.86
250.625	7.05
251.006	7.01
251.388	8.03
251.769	7.97
252.151	8.97
252.532	7.02
252.913	6.92
253.295	7.42
253.676	7.11
254.057	7.35
254.438	7.97
254.819	7.61
255.2	7.45
255.581	7.4
255.962	7.91
256.343	7.83
256.724	8.41
257.105	7.7
257.486	8.26
257.867	8.48
258.247	8.08
258.628	7.23
259.009	7.53
259.389	7.19
259.77	8.41
260.15	8.09
260.531	7.45
260.911	7.44
261.292	7.31
261.672	7.44
262.052	7.01
262.432	7.26
262.813	7.41
263.193	7.68
263.573	7.32
263.953	7.3
264.333	6.86
264.713	7.45
265.093	7.42
265.473	7.42
265.853	8.11
266.233	6.77
266.612	6.9
266.992	6.78
267.372	5.93
267.752	7.25
268.131	7.35
268.511	7.35
268.89	7.34
269.27	7.21
269.649	7.12
270.029	6.9
270.408	7.13
270.787	7.48
271.167	6.81
271.546	7.81
271.925	7.44
272.304	6.93
272.683	7.59
273.062	6.37
273.441	6.69
273.82	7.4
274.199	7.02
274.578	6.71
274.957	7.04
275.336	7.03
275.715	7.27
276.093	7.04
276.472	7.58
276.851	7.26
277.229	6.97
277.608	6.91
277.986	6.15
278.365	7.21
278.743	6.7
279.122	6.74
279.5	6.56
279.878	5.92
280.257	7.01
280.635	7.15
281.013	6.83
281.391	6.56
281.769	7
282.147	6.84
282.525	6.76
282.903	6.7
283.281	6.29
283.659	6.96
284.037	7.4
284.415	6.37
284.792	6.85
285.17	6.33
285.548	7.41
285.925	6.68
286.303	6.91
286.68	6.51
287.058	7
287.435	6.9
287.813	6.9
288.19	6.63
288.567	6.99
288.945	6.94
289.322	7.7
289.699	7.41
290.076	7.6
290.453	7.22
290.83	7.49
291.207	7.19
291.584	7.38
291.961	7.32
292.338	8.09
292.715	7.72
293.092	7.88
293.469	8.18
293.845	7.74
294.222	8.36
294.599	7.96
294.975	8.14
295.352	8.79
295.728	8.46
296.105	8.44
296.481	8.04
296.858	9.09
297.234	8.33
297.61	9.01
297.986	8.63
298.363	8.72
298.739	8.31
299.115	9.13
299.491	8.94
299.867	8.85
300.243	9.12
300.619	9.08
300.995	9.54
301.371	9.79
301.746	9.24
302.122	9.87
302.498	9.08
302.874	10.16
303.249	9.26
303.625	9.68
304	9.83
304.376	9.94
304.751	10.01
305.127	9.86
305.502	10.15
305.878	10.59
306.253	9.24
306.628	10.52
307.003	10.46
307.378	10.74
307.754	11.52
308.129	10.42
308.504	10.84
308.879	10.81
309.254	10.36
309.629	10.76
310.003	11.25
310.378	11.22
310.753	11.2
311.128	11.57
311.502	11.37
311.877	11.55
312.252	11.58
312.626	11.82
313.001	11.53
313.375	11.92
313.75	12.13
314.124	11.92
314.498	12.77
314.873	11.98
315.247	11.69
315.621	13.33
315.995	12.86
316.369	12.91
316.743	13.03
317.117	12.86
317.491	12.52
317.865	12.72
318.239	12.88
318.613	13.13
318.987	13.76
319.361	13.12
319.734	13.77
320.108	13.7
320.482	13.92
320.855	12.87
321.229	14.02
321.602	13.79
321.976	13.86
322.349	13.55
322.723	14.3
323.096	13.8
323.469	14.01
323.843	14.2
324.216	14.1
324.589	13.72
324.962	14.08
325.335	14.3
325.708	14.47
326.081	14.06
326.454	14.5
326.827	14.29
327.2	14.95
327.573	14.84
327.945	15.29
328.318	14.43
328.691	14.55
329.063	14.36
329.436	15.14
329.809	14.52
330.181	15.13
330.553	14.84
330.926	14.94
331.298	15.09
331.671	15.32
332.043	15.69
332.415	15.4
332.787	15.27
333.159	15.73
333.532	15.66
333.904	15.86
334.276	15.58
334.648	15.51
335.02	15.46
335.391	15.55
335.763	15.54
336.135	14.72
336.507	15.13
336.879	15.5
337.25	16.07
337.622	15.78
337.993	16
338.365	16
338.736	16.52
339.108	16.29
339.479	16.44
339.851	16.39
340.222	16.84
340.593	16.15
340.964	16.2
341.336	16.33
341.707	16.35
342.078	16.2
342.449	16.83
342.82	17.05
343.191	16.5
343.562	16.49
343.933	16.35
344.303	16.36
344.674	16.49
345.045	16.31
345.416	17.01
345.786	17.09
346.157	17.06
346.527	16.48
346.898	17.36
347.268	16.92
347.639	17
348.009	16.89
348.38	17.35
348.75	17.37
349.12	17.17
349.49	17.24
349.861	17.23
350.231	17.21
350.601	17.46
350.971	17
351.341	17.85
351.711	17.81
352.081	17.48
352.45	17.55
352.82	17.2
353.19	17.75
353.56	17.82
353.929	17.85
354.299	17.79
354.669	17.81
355.038	17.62
355.408	18
355.777	18.41
356.147	17.9
356.516	18.22
356.885	18.44
357.254	17.93
357.624	17.56
357.993	18.22
358.362	17.94
358.731	18.21
359.1	18.47
359.469	18.56
359.838	18.1
360.207	18.3
360.576	18.54
360.945	18.09
361.314	18.65
361.682	18.43
362.051	18.8
362.42	18.69
362.788	18.75
363.157	18.28
363.525	18.32
363.894	18.39
364.262	18.31
364.631	18.8
364.999	18.26
365.367	18.89
365.735	19.02
366.104	19.17
366.472	18.57
366.84	19.24
367.208	19.05
367.576	18.73
367.944	19.03
368.312	19.26
368.68	19.4
369.048	19.18
369.416	19.51
369.783	19.62
370.151	19.55
370.519	19.57
370.886	19.52
371.254	19.81
371.621	19.65
371.989	19.21
372.356	19.51
372.724	19.91
373.091	19.45
373.458	19.71
373.826	19.78
374.193	19.85
374.56	20.16
374.927	20.35
375.294	19.76
375.661	19.97
376.028	20.37
376.395	19.89
376.762	20.3
377.129	20.07
377.496	20.28
377.863	20.18
378.229	20.01
378.596	19.88
378.963	19.85
379.329	20.17
379.696	20.07
380.062	20.09
380.429	20.39
380.795	20.48
381.161	20.43
381.528	20.66
381.894	20.47
382.26	20.61
382.626	20.68
382.993	20.72
383.359	20.41
383.725	20.87
384.091	20.94
384.457	20.71
384.823	20.73
385.188	20.68
385.554	20.85
385.92	20.93
386.286	20.57
386.651	20.83
387.017	20.83
387.383	20.84
387.748	20.9
388.114	21.02
388.479	20.92
388.845	21.26
389.21	21.14
389.575	21.18
389.94	21.14
390.306	21.17
390.671	21.38
391.036	21.52
391.401	21.35
391.766	20.88
392.131	21.43
392.496	21.09
392.861	21.03
393.226	21.67
393.591	21.6
393.956	21.36
394.32	21.42
394.685	21.72
395.05	21.59
395.414	21.5
395.779	21.22
396.143	21.74
396.508	21.39
396.872	21.71
397.236	21.81
397.601	21.73
397.965	21.65
398.329	21.63
398.694	21.64
399.058	21.95
399.422	21.83
399.786	21.85
400.15	21.45
400.514	21.45
400.878	21.7
401.242	21.54
401.605	21.84
401.969	21.93
402.333	21.83
402.697	21.84
403.06	21.98
403.424	22.09
403.787	22.07
404.151	22.06
404.514	22.26
404.878	21.87
405.241	22.23
405.604	21.98
405.968	22.1
406.331	22.02
406.694	22.19
407.057	22.21
407.42	22.35
407.783	22.03
408.146	22.24
408.509	22.38
408.872	22.37
409.235	22.32
409.598	22.32
409.961	22.32
410.323	22.4
410.686	22.24
411.049	22.32
411.411	22.22
411.774	22.66
412.136	22.37
412.499	22.51
412.861	22.4
413.223	22.6
413.586	22.48
413.948	22.66
414.31	22.78
414.672	22.63
415.035	23.12
415.397	22.61
415.759	23
416.121	23
416.483	22.9
416.845	22.87
417.206	23.04
417.568	22.8
417.93	22.66
418.292	22.96
418.653	23.06
419.015	22.88
419.377	22.63
419.738	22.72
420.1	22.79
420.461	22.95
420.822	22.98
421.184	22.81
421.545	22.94
421.906	23.02
422.267	22.93
422.629	22.9
422.99	22.94
423.351	22.87
423.712	22.9
424.073	23.12
424.434	23.27
424.795	23.52
425.155	23.43
425.516	23.02
425.877	23.19
426.238	23.27
426.598	23.35
426.959	23.49
427.32	23.7
427.68	23.74
428.041	23.86
428.401	23.97
428.761	24.26
429.122	24.23
429.482	24.43
429.842	24.56
430.202	24.3
430.563	24.42
430.923	24.61
431.283	24.51
431.643	24.57
432.003	24.89
432.363	24.71
432.722	24.82
433.082	24.65
433.442	24.82
433.802	24.98
434.161	25.21
434.521	24.82
434.881	24.64
435.24	24.83
435.6	24.58
435.959	24.85
436.319	24.87
436.678	24.88
437.037	25.19
437.396	25.11
437.756	25.18
438.115	25.32
438.474	25.35
438.833	25.32
439.192	25.37
439.551	25.33
439.91	25.5
440.269	25.4
440.628	25.37
440.987	25.2
441.345	25.3
441.704	25.21
442.063	25.29
442.421	25.43
442.78	25.3
443.138	25.54
443.497	25.41
443.855	25.81
444.214	26.02
444.572	25.97
444.93	25.84
445.288	25.78
445.647	25.76
446.005	25.86
446.363	25.69
446.721	25.67
447.079	25.78
447.437	25.75
447.795	25.67
448.153	25.62
448.51	25.57
448.868	25.85
449.226	25.91
449.584	25.93
449.941	26.28
450.299	26.32
450.656	26.45
451.014	26.41
451.371	26.58
451.729	26.67
452.086	26.72
452.443	26.65
452.801	26.84
453.158	26.97
453.515	26.82
453.872	26.76
454.229	26.76
454.586	26.54
454.943	26.73
455.3	26.92
455.657	26.8
456.014	27.04
456.371	27.03
456.727	27.19
457.084	26.86
457.441	26.99
457.797	27.21
458.154	27.45
458.51	27.49
458.867	27.63
459.223	27.33
459.58	27.1
459.936	27.31
460.292	27.17
460.648	27.21
461.005	27
461.361	26.85
461.717	26.79
462.073	27.07
462.429	27.17
462.785	27.39
463.141	27.56
463.496	27.48
463.852	27.71
464.208	27.64
464.564	27.82
464.919	28.18
465.275	28.19
465.631	27.95
465.986	28.04
466.342	27.85
466.697	28.04
467.052	27.79
467.408	28.16
467.763	28.24
468.118	28.06
468.473	28.17
468.829	28.08
469.184	28.11
469.539	28.09
469.894	28.03
470.249	28.34
470.603	28.34
470.958	28.36
471.313	28.29
471.668	28.37
472.023	28.4
472.377	28.52
472.732	28.54
473.086	28.47
473.441	28.52
473.795	28.66
474.15	28.1
474.504	28.99
474.859	28.7
475.213	28.66
475.567	28.88
475.921	28.89
476.275	28.87
476.63	28.84
476.984	29.04
477.338	29.17
477.692	29.03
478.045	28.99
478.399	28.76
478.753	28.87
479.107	28.73
479.461	28.9
479.814	28.73
480.168	28.81
480.521	28.93
480.875	29.14
481.228	29.15
481.582	29.18
481.935	29.25
482.289	29.23
482.642	29.06
482.995	28.97
483.348	29.01
483.701	28.91
484.055	28.88
484.408	28.8
484.761	28.64
485.114	28.19
485.466	27.86
485.819	27.97
486.172	28.18
486.525	28.45
486.878	28.63
487.23	28.75
487.583	29.01
487.936	28.99
488.288	28.79
488.641	28.59
488.993	28.66
489.345	28.61
489.698	28.54
490.05	28.72
490.402	28.86
490.754	29.13
491.107	29.32
491.459	29.61
491.811	29.69
492.163	29.69
492.515	29.54
492.866	29.07
493.218	28.98
493.57	28.9
493.922	29.19
494.274	29.48
494.625	29.69
494.977	29.83
495.328	30.09
495.68	30.31
496.031	30.41
496.383	30.32
496.734	30.49
497.086	30.29
497.437	30.44
497.788	30.31
498.139	30.28
498.49	30.46
498.842	30.31
499.193	30.43
499.544	30.4
499.894	30.33
500.245	30.66
500.596	30.54
500.947	30.72
501.298	30.74
501.648	30.99
501.999	30.74
502.35	31.01
502.7	31.08
503.051	30.96
503.401	31
503.752	30.98
504.102	31.16
504.452	31.1
504.803	31.17
505.153	31.17
505.503	31.14
505.853	31.09
506.203	31.11
506.553	31.07
506.903	31.03
507.253	31.24
507.603	31.37
507.953	31.1
508.303	31.37
508.652	31.34
509.002	31.39
509.352	31.27
509.701	31.42
510.051	31.03
510.4	31.38
510.75	31.33
511.099	31.33
511.449	31.33
511.798	31.39
512.147	31.41
512.496	31.51
512.846	31.51
513.195	31.54
513.544	31.64
513.893	31.43
514.242	31.6
514.591	31.55
514.939	31.69
515.288	31.7
515.637	31.91
515.986	31.94
516.334	31.85
516.683	32.13
517.032	32.09
517.38	31.91
517.729	32.01
518.077	32.12
518.426	31.98
518.774	31.96
519.122	31.85
519.47	31.64
519.819	31.71
520.167	31.53
520.515	31.49
520.863	31.55
521.211	31.7
521.559	31.92
521.907	31.86
522.255	32.16
522.602	32.1
522.95	32.4
523.298	32.33
523.645	32.42
523.993	32.48
524.341	32.55
524.688	32.66
525.036	32.38
525.383	32.5
525.73	32.66
526.078	32.72
526.425	32.49
526.772	32.5
527.119	32.15
527.466	31.97
527.814	32.16
528.161	32.31
528.508	32.4
528.854	32.48
529.201	32.27
529.548	31.95
529.895	31.65
530.242	31.37
530.588	31.54
530.935	31.71
531.282	31.86
531.628	32.06
531.975	32.32
532.321	32.45
532.667	32.52
533.014	32.79
533.36	32.74
533.706	32.71
534.052	32.76
534.399	32.64
534.745	32.32
535.091	32.14
535.437	32.39
535.783	32.55
536.129	32.76
536.474	33.05
536.82	33.19
537.166	33.16
537.512	33.18
537.857	33.15
538.203	32.94
538.549	32.79
538.894	32.99
539.239	33.23
539.585	33.3
539.93	33.56
540.276	33.7
540.621	33.7
540.966	33.88
541.311	33.7
541.656	33.81
542.001	33.63
542.346	33.23
542.691	32.9
543.036	32.67
543.381	32.69
543.726	32.98
544.071	33.1
544.415	33.39
544.76	33.46
545.105	33.4
545.449	33.54
545.794	33.76
546.138	33.93
546.483	33.96
546.827	33.95
547.171	34.3
547.516	34.04
547.86	34.07
548.204	34
548.548	33.64
548.892	33.91
549.236	33.95
549.58	34.24
549.924	34.51
550.268	34.44
550.612	34.78
550.956	34.77
551.3	34.69
551.643	34.71
551.987	35.13
552.33	34.92
552.674	34.9
553.017	34.87
553.361	34.71
553.704	35.15
554.048	34.9
554.391	34.72
554.734	34.72
555.077	34.96
555.42	34.97
555.764	35.04
556.107	35.24
556.45	35.29
556.793	35.34
557.135	35.02
557.478	35.34
557.821	35.37
558.164	35.38
558.507	35.54
558.849	35.51
559.192	35.45
559.534	35.53
559.877	35.42
560.219	35.59
560.562	35.5
560.904	35.63
561.246	35.64
561.589	35.44
561.931	35.45
562.273	35.6
562.615	35.56
562.957	35.66
563.299	35.64
563.641	35.73
563.983	35.63
564.325	35.64
564.667	35.93
565.008	35.83
565.35	36.06
565.692	36.1
566.033	35.97
566.375	35.79
566.716	35.7
567.058	36.11
567.399	36.02
567.741	35.5
568.082	35.75
568.423	35.86
568.764	36.02
569.105	35.9
569.447	36.16
569.788	36.21
570.129	36.06
570.47	36.37
570.811	36.11
571.151	36.13
571.492	36.31
571.833	36.38
572.174	36.14
572.514	36.32
572.855	36.43
573.195	36.35
573.536	35.99
573.876	36.36
574.217	36.11
574.557	36.07
574.898	36.58
575.238	36.32
575.578	36.4
575.918	36.39
576.258	36.45
576.598	36.53
576.938	36.51
577.278	36.26
577.618	36.46
577.958	36.88
578.298	36.72
578.638	36.67
578.977	37.04
579.317	37.01
579.657	36.71
579.996	36.85
580.336	37.07
580.675	37.08
581.014	37.22
581.354	37.24
581.693	37.32
582.032	37.24
582.372	37.5
582.711	37.45
583.05	37.46
583.389	37.54
583.728	37.23
584.067	37.73
584.406	37.8
584.745	37.34
585.083	37.55
585.422	37.5
585.761	37.87
586.1	37.59
586.438	37.91
586.777	37.52
587.115	37.33
587.454	37.55
587.792	37.99
588.13	37.95
588.469	37.59
588.807	37.92
589.145	37.72
589.483	37.89
589.821	37.86
590.159	37.76
590.497	37.86
590.835	37.77
591.173	37.71
591.511	37.98
591.849	37.9
592.187	37.79
592.524	38.16
592.862	38.22
593.2	38.22
593.537	38.11
593.875	38.09
594.212	38.41
594.55	38.32
594.887	38.58
595.224	38.32
595.561	38.27
595.899	38.6
596.236	38.46
596.573	38.26
596.91	38.54
597.247	38.49
597.584	38.39
597.921	37.97
598.258	37.95
598.594	38.11
598.931	38.28
599.268	38.01
599.604	38.57
599.941	38.23
600.277	38.5
600.614	38.49
600.95	38.82
601.287	39.17
601.623	39
601.959	39.06
602.296	38.8
602.632	38.66
602.968	38.64
603.304	38.97
603.64	39.11
603.976	38.85
604.312	39.09
604.648	39.04
604.984	38.72
605.319	38.75
605.655	38.59
605.991	38.56
606.326	38.46
606.662	38.44
606.998	38.62
607.333	39.02
607.668	39.06
608.004	39.05
608.339	39.15
608.674	39.45
609.01	39.09
609.345	39.43
609.68	39.4
610.015	39.66
610.35	39.52
610.685	39.23
611.02	39.12
611.355	39.02
611.689	38.83
612.024	39.23
612.359	39.48
612.694	39.51
613.028	39.28
613.363	39.69
613.697	39.6
614.032	39.77
614.366	39.93
614.7	39.82
615.035	40.33
615.369	39.53
615.703	39.71
616.037	39.97
616.371	39.92
616.705	39.98
617.039	40.18
617.373	40.32
617.707	40.18
618.041	39.87
618.375	40.07
618.709	40.07
619.042	39.96
619.376	39.9
619.71	39.93
620.043	40.09
620.377	40.54
620.71	40.24
621.043	40.26
621.377	40.3
621.71	40.23
622.043	40.26
622.376	40.35
622.709	40.88
623.043	40.54
623.376	40.83
623.709	40.53
624.041	40.44
624.374	40.53
624.707	40.29
625.04	40.23
625.373	40.48
625.705	40.08
626.038	40.78
626.37	40.57
626.703	40.61
627.035	40.62
627.368	40.37
627.7	40.6
628.032	40.52
628.365	40.82
628.697	40.52
629.029	40.39
629.361	40.76
629.693	40.01
630.025	40.82
630.357	40.93
630.689	40.4
631.021	41.25
631.353	40.45
631.684	40.93
632.016	41.21
632.348	41.15
632.679	41.26
633.011	41.09
633.342	40.3
633.674	41.02
634.005	41.39
634.336	40.68
634.668	41.27
634.999	41.42
635.33	41.41
635.661	40.87
635.992	40.77
636.323	41.08
636.654	41.36
636.985	41.29
637.316	41.38
637.647	41.75
637.977	41.49
638.308	41.55
638.639	41.36
638.969	41.7
639.3	41.06
639.63	41.97
639.961	42.16
640.291	41.8
640.622	41.92
640.952	41.3
641.282	41.44
641.612	41.26
641.943	41.69
642.273	41.72
642.603	41.58
642.933	42.16
643.263	41.73
643.592	41.98
643.922	41.36
644.252	41.84
644.582	42.38
644.911	41.75
645.241	41.96
645.571	41.77
645.9	41.98
646.23	42.01
646.559	41.87
646.888	42.36
647.218	42.41
647.547	42.27
647.876	42.12
648.205	42.02
648.534	42.35
648.863	42.35
649.192	42.08
649.521	42.34
649.85	42.32
650.179	41.92
650.508	42.84
650.837	42.11
651.165	42.19
651.494	42.86
651.822	42.01
652.151	42.16
652.479	42.17
652.808	42.11
653.136	42
653.465	42.01
653.793	42.36
654.121	42.81
654.449	42.78
654.777	42.98
655.105	42.13
655.433	42.47
655.761	42.62
656.089	42.42
656.417	42.45
656.745	42.42
657.073	42.14
657.4	42.82
657.728	42.88
658.056	42.71
658.383	42.77
658.711	42.56
659.038	43.25
659.365	42.78
659.693	42.68
660.02	42.67
660.347	42.79
660.674	42.22
661.001	42.25
661.329	42.73
661.656	43.1
661.982	42.52
662.309	43.57
662.636	43.02
662.963	43.01
663.29	43.45
663.616	43.23
663.943	42.87
664.27	43.01
664.596	43.28
664.923	43.27
665.249	43.28
665.576	43.28
665.902	43.4
666.228	43.83
666.554	43.09
666.881	43.7
667.207	43.88
667.533	43.57
667.859	43.73
668.185	43.26
668.511	43.23
668.837	43.17
