Data from 23-2_forehead_Reflection__3__13.txt Node

Date: Thu Feb 29 21:57:22 CST 2024
User: ToomeyLab
Spectrometer: FLMS14357
Trigger mode: 0
Integration Time (sec): 1.000000E-2
Scans to average: 100
Electric dark correction enabled: true
Nonlinearity correction enabled: false
Boxcar width: 0
XAxis mode: Wavelengths
Number of Pixels in Spectrum: 2048
>>>>>Begin Spectral Data<<<<<
189.047	47.58
189.435	47.58
189.823	47.58
190.211	22.92
190.599	-158.54
190.987	-41.15
191.375	-185.07
191.763	8855.32
192.151	46.87
192.538	85.27
192.926	65.02
193.314	-1.01
193.702	319.78
194.089	953.49
194.477	-360
194.864	-557.65
195.252	-66.88
195.639	57.02
196.027	-1365.43
196.414	44.4
196.801	45.75
197.189	100.13
197.576	144.9
197.963	223.69
198.351	-21.46
198.738	71.26
199.125	13.92
199.512	39.6
199.899	15.39
200.286	3.43
200.673	46.99
201.06	9.29
201.447	39.73
201.833	68.13
202.22	19.15
202.607	-0.13
202.994	35.84
203.38	5.07
203.767	32.35
204.154	46.83
204.54	53.45
204.927	4.91
205.313	43.84
205.699	44.65
206.086	43.72
206.472	55.77
206.858	38.58
207.245	32.73
207.631	30.95
208.017	39.8
208.403	-24.43
208.789	26.94
209.175	-12.39
209.561	21.68
209.947	6.45
210.333	29.59
210.719	40.67
211.105	-0.15
211.491	32.46
211.876	25.23
212.262	55.41
212.648	24.71
213.034	40.1
213.419	17.5
213.805	5.61
214.19	17.31
214.576	5.26
214.961	16.32
215.346	24.65
215.732	55.03
216.117	-9.7
216.502	17.25
216.888	-14.65
217.273	10.08
217.658	15.04
218.043	12.51
218.428	34.07
218.813	20.82
219.198	30.05
219.583	-8.95
219.968	25.64
220.353	7.74
220.738	27.36
221.122	-10.27
221.507	12.38
221.892	20.04
222.276	22.59
222.661	12.56
223.046	12.02
223.43	-7.96
223.815	4.11
224.199	16.39
224.583	13.56
224.968	10.74
225.352	10.29
225.736	4.47
226.121	1.74
226.505	19.37
226.889	11.27
227.273	5.03
227.657	-2.42
228.041	6.45
228.425	11.55
228.809	11.57
229.193	4.62
229.577	5.2
229.961	3.16
230.344	3.22
230.728	5.64
231.112	4.86
231.495	4.62
231.879	4.78
232.263	3.45
232.646	5.28
233.03	5.9
233.413	3.96
233.797	2.68
234.18	6.32
234.563	0.71
234.946	5.09
235.33	5.3
235.713	3.57
236.096	5.38
236.479	6.71
236.862	3.97
237.245	3.28
237.628	4.58
238.011	4.88
238.394	3.83
238.777	5.59
239.16	7.05
239.543	2.93
239.925	5.51
240.308	7.47
240.691	7.76
241.073	5.87
241.456	5.14
241.838	5.22
242.221	4.66
242.603	5.4
242.986	5.21
243.368	5.32
243.75	4.9
244.133	4.51
244.515	4.58
244.897	5.78
245.279	5.33
245.661	5
246.043	4.76
246.425	6.19
246.807	6.63
247.189	5.4
247.571	5.74
247.953	4.77
248.335	4.74
248.717	5.03
249.098	5.08
249.48	5.18
249.862	5.61
250.243	5.34
250.625	5.37
251.006	6.19
251.388	5.46
251.769	5.45
252.151	6.85
252.532	5
252.913	5.22
253.295	5.42
253.676	5.34
254.057	5.35
254.438	6.31
254.819	5.86
255.2	4.98
255.581	5.21
255.962	7.07
256.343	7.44
256.724	5.71
257.105	6.38
257.486	5.89
257.867	6.17
258.247	7.19
258.628	5.04
259.009	5.84
259.389	5.3
259.77	6.19
260.15	6.4
260.531	5.84
260.911	5.36
261.292	4.96
261.672	5.42
262.052	5.19
262.432	5.21
262.813	4.99
263.193	5.17
263.573	4.86
263.953	5.49
264.333	5.64
264.713	5.99
265.093	6.02
265.473	5.98
265.853	5.45
266.233	5.16
266.612	5.48
266.992	6.21
267.372	4.81
267.752	4.51
268.131	5.76
268.511	5.78
268.89	5.54
269.27	5.46
269.649	5.98
270.029	5.17
270.408	5.45
270.787	5.22
271.167	4.83
271.546	5.76
271.925	5.07
272.304	5.13
272.683	5.58
273.062	5.14
273.441	5.03
273.82	4.99
274.199	5.58
274.578	5.33
274.957	5.08
275.336	5.48
275.715	5.32
276.093	5.51
276.472	6
276.851	5.2
277.229	5.2
277.608	5
277.986	5.15
278.365	5.26
278.743	4.84
279.122	4.79
279.5	5.08
279.878	4.12
280.257	5.65
280.635	4.65
281.013	5.09
281.391	4.76
281.769	4.89
282.147	5.33
282.525	5.3
282.903	4.64
283.281	5.17
283.659	5.28
284.037	5.26
284.415	4.78
284.792	5.09
285.17	4.93
285.548	5.12
285.925	5.2
286.303	5.12
286.68	4.96
287.058	5.05
287.435	4.97
287.813	5.15
288.19	4.97
288.567	5.43
288.945	4.94
289.322	5.71
289.699	5.33
290.076	5.59
290.453	5.4
290.83	5.32
291.207	5.55
291.584	5.45
291.961	5.68
292.338	5.98
292.715	5.6
293.092	5.49
293.469	5.87
293.845	5.55
294.222	5.88
294.599	5.35
294.975	5.67
295.352	6.21
295.728	6.64
296.105	6.13
296.481	5.65
296.858	6.52
297.234	5.73
297.61	5.87
297.986	6.34
298.363	6.45
298.739	6.28
299.115	6.48
299.491	6.4
299.867	6.7
300.243	6.7
300.619	6.68
300.995	6.72
301.371	6.69
301.746	6.48
302.122	7.52
302.498	6.74
302.874	6.77
303.249	6.18
303.625	7.24
304	7.12
304.376	7.53
304.751	7.2
305.127	7.82
305.502	7.42
305.878	8.02
306.253	6.95
306.628	7.14
307.003	8.02
307.378	7.92
307.754	8.73
308.129	8.24
308.504	8.83
308.879	8.19
309.254	8.38
309.629	8.79
310.003	8.6
310.378	7.95
310.753	8.34
311.128	8.67
311.502	8.59
311.877	8.55
312.252	8.75
312.626	9.17
313.001	8.98
313.375	9.01
313.75	8.58
314.124	9.15
314.498	9.58
314.873	8.79
315.247	9.11
315.621	10.23
315.995	10.05
316.369	10.12
316.743	9.74
317.117	10.23
317.491	10.08
317.865	10.3
318.239	10.01
318.613	10.9
318.987	10.64
319.361	10.28
319.734	10.63
320.108	10.91
320.482	10.61
320.855	10.6
321.229	11.18
321.602	10.88
321.976	11.28
322.349	10.3
322.723	10.91
323.096	11.51
323.469	11.21
323.843	10.55
324.216	11.46
324.589	11.01
324.962	11.19
325.335	11.33
325.708	11.68
326.081	11.31
326.454	11.64
326.827	11.97
327.2	12.45
327.573	11.59
327.945	12.05
328.318	11.74
328.691	11.97
329.063	11.99
329.436	12.31
329.809	12.19
330.181	12.69
330.553	13.07
330.926	12.48
331.298	12.41
331.671	12.35
332.043	12.57
332.415	12.32
332.787	12.24
333.159	12.78
333.532	12.75
333.904	12.5
334.276	13.12
334.648	13.27
335.02	13.1
335.391	12.94
335.763	12.85
336.135	12.19
336.507	12.73
336.879	13.45
337.25	12.93
337.622	13
337.993	13.65
338.365	13.32
338.736	13.38
339.108	12.93
339.479	13.55
339.851	13.54
340.222	13.63
340.593	13.1
340.964	13.81
341.336	13.6
341.707	13.48
342.078	13.08
342.449	13.81
342.82	14.22
343.191	14.02
343.562	13.79
343.933	13.85
344.303	14.49
344.674	14.14
345.045	14.37
345.416	14.36
345.786	13.95
346.157	13.83
346.527	13.98
346.898	14.25
347.268	14.08
347.639	14.2
348.009	14.13
348.38	14.59
348.75	14.7
349.12	14.82
349.49	14.54
349.861	14.52
350.231	14.55
350.601	14.84
350.971	14.88
351.341	15.19
351.711	14.95
352.081	14.89
352.45	14.75
352.82	14.73
353.19	15.28
353.56	15.18
353.929	15.36
354.299	15.23
354.669	14.73
355.038	15.13
355.408	15.31
355.777	15.36
356.147	15.18
356.516	15.46
356.885	15.38
357.254	15.37
357.624	14.81
357.993	15.59
358.362	15.62
358.731	15.93
359.1	15.82
359.469	15.69
359.838	15.77
360.207	15.5
360.576	16.18
360.945	15.74
361.314	15.86
361.682	15.41
362.051	16.08
362.42	16.08
362.788	16.06
363.157	15.81
363.525	15.77
363.894	15.88
364.262	15.83
364.631	16.25
364.999	15.78
365.367	15.89
365.735	16.02
366.104	16.22
366.472	16.04
366.84	16.35
367.208	16.14
367.576	16.73
367.944	16.66
368.312	16.28
368.68	16.55
369.048	16.66
369.416	16.83
369.783	16.68
370.151	17.14
370.519	16.84
370.886	16.69
371.254	17.04
371.621	16.98
371.989	16.72
372.356	16.84
372.724	17.1
373.091	16.99
373.458	17.34
373.826	17.07
374.193	17.34
374.56	17.06
374.927	17.3
375.294	17
375.661	17.45
376.028	17.62
376.395	17.53
376.762	17.5
377.129	17.38
377.496	17.6
377.863	17.6
378.229	17.8
378.596	17.57
378.963	17.62
379.329	17.9
379.696	17.44
380.062	17.92
380.429	17.79
380.795	18.11
381.161	17.9
381.528	17.94
381.894	17.51
382.26	17.87
382.626	17.75
382.993	17.9
383.359	18.05
383.725	18.17
384.091	18.17
384.457	18.16
384.823	17.94
385.188	18.03
385.554	18
385.92	18.44
386.286	17.97
386.651	18.14
387.017	18.29
387.383	18.39
387.748	18.26
388.114	18.39
388.479	18.44
388.845	18.1
389.21	18.34
389.575	18.77
389.94	18.52
390.306	18.26
390.671	18.17
391.036	18.59
391.401	18.79
391.766	18.86
392.131	18.55
392.496	18.69
392.861	18.87
393.226	18.74
393.591	18.82
393.956	18.78
394.32	18.95
394.685	18.99
395.05	19.04
395.414	19.02
395.779	18.79
396.143	18.92
396.508	19.02
396.872	19.03
397.236	19.08
397.601	19.24
397.965	18.88
398.329	19.11
398.694	18.87
399.058	19.35
399.422	19.18
399.786	19.13
400.15	19.04
400.514	19.05
400.878	19.18
401.242	19.04
401.605	19.2
401.969	19.3
402.333	19.2
402.697	19.32
403.06	19.47
403.424	19.43
403.787	19.25
404.151	19.49
404.514	19.54
404.878	19.35
405.241	19.37
405.604	19.24
405.968	19.3
406.331	19.35
406.694	19.61
407.057	19.56
407.42	19.72
407.783	19.59
408.146	19.55
408.509	19.65
408.872	19.71
409.235	19.81
409.598	19.69
409.961	19.72
410.323	19.99
410.686	19.62
411.049	19.63
411.411	19.64
411.774	19.69
412.136	19.72
412.499	19.75
412.861	19.68
413.223	19.69
413.586	19.75
413.948	20.11
414.31	20.06
414.672	19.79
415.035	20.34
415.397	19.84
415.759	20.15
416.121	20.4
416.483	20.26
416.845	20.02
417.206	20.13
417.568	20.25
417.93	20.07
418.292	20.48
418.653	20.17
419.015	20.22
419.377	20.35
419.738	20.07
420.1	20.26
420.461	20.32
420.822	20.46
421.184	20.43
421.545	20.46
421.906	20.32
422.267	20.29
422.629	20.54
422.99	20.48
423.351	20.51
423.712	20.35
424.073	20.54
424.434	20.61
424.795	20.8
425.155	20.67
425.516	20.63
425.877	20.59
426.238	20.69
426.598	20.75
426.959	20.95
427.32	21.13
427.68	21.12
428.041	21.16
428.401	21.27
428.761	21.45
429.122	21.62
429.482	21.46
429.842	21.61
430.202	21.46
430.563	21.7
430.923	21.94
431.283	21.83
431.643	21.91
432.003	22.31
432.363	22.03
432.722	21.96
433.082	21.92
433.442	22.18
433.802	22.24
434.161	22.38
434.521	22.01
434.881	22.25
435.24	22.21
435.6	22.08
435.959	22.38
436.319	22.15
436.678	22.32
437.037	22.25
437.396	22.24
437.756	22.73
438.115	22.53
438.474	22.39
438.833	22.87
439.192	22.61
439.551	22.61
439.91	22.78
440.269	22.57
440.628	22.81
440.987	22.64
441.345	22.66
441.704	22.56
442.063	22.75
442.421	22.7
442.78	22.74
443.138	22.69
443.497	22.88
443.855	23.17
444.214	23.27
444.572	23.31
444.93	22.93
445.288	23.18
445.647	23.15
446.005	23.35
446.363	23.14
446.721	23.14
447.079	23.13
447.437	23.16
447.795	23.05
448.153	23.14
448.51	23.18
448.868	22.99
449.226	23.36
449.584	23.37
449.941	23.42
450.299	23.49
450.656	23.7
451.014	23.56
451.371	23.78
451.729	23.85
452.086	23.98
452.443	23.9
452.801	24.13
453.158	24.02
453.515	24.03
453.872	24.13
454.229	24.01
454.586	24.04
454.943	24.23
455.3	24.4
455.657	24.34
456.014	24.46
456.371	24.31
456.727	24.39
457.084	24.34
457.441	24.51
457.797	24.41
458.154	24.56
458.51	24.66
458.867	24.74
459.223	24.66
459.58	24.72
459.936	24.59
460.292	24.55
460.648	24.39
461.005	24.25
461.361	24.2
461.717	24.18
462.073	24.38
462.429	24.7
462.785	24.7
463.141	24.9
463.496	24.89
463.852	25.02
464.208	25.22
464.564	25.29
464.919	25.41
465.275	25.27
465.631	25.03
465.986	25.38
466.342	25.03
466.697	25.25
467.052	25.35
467.408	25.4
467.763	25.58
468.118	25.46
468.473	25.5
468.829	25.47
469.184	25.51
469.539	25.64
469.894	25.73
470.249	25.6
470.603	25.67
470.958	25.86
471.313	25.93
471.668	25.8
472.023	25.82
472.377	25.78
472.732	26.11
473.086	25.74
473.441	25.9
473.795	26.06
474.15	25.71
474.504	26
474.859	26.04
475.213	26.12
475.567	26.32
475.921	26.14
476.275	26.28
476.63	26.24
476.984	26.31
477.338	26.19
477.692	26.26
478.045	26.21
478.399	26.34
478.753	26.29
479.107	26.32
479.461	26.19
479.814	26.26
480.168	26.17
480.521	26.32
480.875	26.33
481.228	26.39
481.582	26.56
481.935	26.5
482.289	26.42
482.642	26.37
482.995	26.34
483.348	26.4
483.701	26.29
484.055	26.04
484.408	26.08
484.761	25.84
485.114	25.53
485.466	25.24
485.819	25.53
486.172	25.67
486.525	25.93
486.878	26.1
487.23	26.18
487.583	26.22
487.936	26.33
488.288	26.19
488.641	26.18
488.993	26.03
489.345	25.98
489.698	26
490.05	26.23
490.402	26.45
490.754	26.41
491.107	26.68
491.459	26.77
491.811	26.8
492.163	26.95
492.515	26.71
492.866	26.49
493.218	26.33
493.57	26.26
493.922	26.59
494.274	26.81
494.625	27.05
494.977	27.28
495.328	27.4
495.68	27.53
496.031	27.63
496.383	27.64
496.734	27.67
497.086	27.74
497.437	27.77
497.788	27.61
498.139	27.72
498.49	27.65
498.842	27.56
499.193	27.81
499.544	27.7
499.894	27.85
500.245	28.03
500.596	28.08
500.947	27.85
501.298	27.99
501.648	28.17
501.999	28.24
502.35	28.39
502.7	28.29
503.051	28.27
503.401	28.19
503.752	28.45
504.102	28.43
504.452	28.28
504.803	28.29
505.153	28.38
505.503	28.53
505.853	28.52
506.203	28.36
506.553	28.62
506.903	28.56
507.253	28.66
507.603	28.66
507.953	28.66
508.303	28.67
508.652	28.62
509.002	28.95
509.352	28.65
509.701	28.56
510.051	28.76
510.4	28.84
510.75	28.89
511.099	28.71
511.449	28.75
511.798	28.84
512.147	28.84
512.496	28.93
512.846	28.77
513.195	28.65
513.544	28.93
513.893	28.81
514.242	28.98
514.591	29.08
514.939	29.08
515.288	29.09
515.637	29.19
515.986	29.27
516.334	29.13
516.683	29.26
517.032	29.57
517.38	29.39
517.729	29.17
518.077	29.25
518.426	29.37
518.774	29.22
519.122	29.27
519.47	29.12
519.819	29.01
520.167	28.92
520.515	29.03
520.863	29.09
521.211	29.16
521.559	29.41
521.907	29.45
522.255	29.6
522.602	29.69
522.95	29.68
523.298	29.61
523.645	29.69
523.993	29.78
524.341	29.79
524.688	29.93
525.036	30.08
525.383	29.88
525.73	30
526.078	30.05
526.425	29.82
526.772	29.66
527.119	29.49
527.466	29.38
527.814	29.51
528.161	29.56
528.508	29.59
528.854	29.75
529.201	29.51
529.548	29.34
529.895	28.98
530.242	28.81
530.588	29.1
530.935	29.24
531.282	29.38
531.628	29.55
531.975	29.75
532.321	29.83
532.667	29.98
533.014	30.1
533.36	30.04
533.706	30.18
534.052	30.01
534.399	29.9
534.745	29.63
535.091	29.54
535.437	29.86
535.783	30.01
536.129	30.29
536.474	30.35
536.82	30.49
537.166	30.57
537.512	30.72
537.857	30.59
538.203	30.36
538.549	30.18
538.894	30.35
539.239	30.53
539.585	30.83
539.93	30.81
540.276	30.93
540.621	30.83
540.966	30.98
541.311	31.2
541.656	31
542.001	30.9
542.346	30.61
542.691	30.19
543.036	30.15
543.381	30.19
543.726	30.57
544.071	30.71
544.415	30.67
544.76	30.74
545.105	30.88
545.449	30.99
545.794	31.11
546.138	31.34
546.483	31.34
546.827	31.29
547.171	31.6
547.516	31.36
547.86	31.4
548.204	31.3
548.548	31.17
548.892	31.45
549.236	31.49
549.58	31.68
549.924	31.78
550.268	32.01
550.612	32.09
550.956	32
551.3	32.24
551.643	32.24
551.987	32.01
552.33	31.89
552.674	32.17
553.017	32.11
553.361	32.21
553.704	32.16
554.048	31.74
554.391	32.1
554.734	32.09
555.077	32.29
555.42	32.42
555.764	32.44
556.107	32.62
556.45	32.6
556.793	32.6
557.135	32.73
557.478	32.77
557.821	32.63
558.164	32.79
558.507	32.91
558.849	32.94
559.192	32.82
559.534	32.8
559.877	32.74
560.219	32.83
560.562	32.96
560.904	33.34
561.246	33.19
561.589	33.02
561.931	32.9
562.273	33.3
562.615	33.01
562.957	33.01
563.299	33.02
563.641	32.97
563.983	33.2
564.325	33.18
564.667	33.15
565.008	33.24
565.35	33.16
565.692	33.26
566.033	33.48
566.375	33.27
566.716	33.16
567.058	33.35
567.399	33.52
567.741	33.04
568.082	33.37
568.423	33.19
568.764	33.4
569.105	33.58
569.447	33.6
569.788	33.48
570.129	33.57
570.47	33.6
570.811	33.5
571.151	33.74
571.492	33.57
571.833	33.6
572.174	33.75
572.514	33.44
572.855	33.62
573.195	33.78
573.536	33.72
573.876	33.77
574.217	33.84
574.557	33.9
574.898	33.87
575.238	33.72
575.578	33.89
575.918	33.76
576.258	33.86
576.598	34.09
576.938	34.09
577.278	33.94
577.618	33.93
577.958	34.25
578.298	34.17
578.638	34.19
578.977	34.23
579.317	34.38
579.657	34.32
579.996	34.38
580.336	34.61
580.675	34.76
581.014	34.48
581.354	34.72
581.693	34.69
582.032	34.79
582.372	34.95
582.711	34.85
583.05	34.74
583.389	35.02
583.728	34.79
584.067	34.9
584.406	35.2
584.745	35.06
585.083	34.69
585.422	35.34
585.761	34.9
586.1	34.94
586.438	35.05
586.777	35.24
587.115	35.03
587.454	34.75
587.792	35.33
588.13	35.14
588.469	35.1
588.807	35.16
589.145	35.52
589.483	35.39
589.821	35.38
590.159	35.26
590.497	35.02
590.835	35.21
591.173	35.3
591.511	35.39
591.849	35.32
592.187	35.29
592.524	35.46
592.862	35.32
593.2	35.44
593.537	35.41
593.875	35.72
594.212	35.48
594.55	35.88
594.887	35.91
595.224	35.26
595.561	35.46
595.899	35.94
596.236	35.62
596.573	36.05
596.91	35.78
597.247	35.95
597.584	35.52
597.921	35.44
598.258	35.5
598.594	35.17
598.931	35.34
599.268	35.53
599.604	35.87
599.941	35.56
600.277	35.81
600.614	35.76
600.95	35.97
601.287	35.92
601.623	36.11
601.959	36.33
602.296	36.24
602.632	36.45
602.968	36.24
603.304	36.01
603.64	36.16
603.976	36.4
604.312	36.25
604.648	36.07
604.984	35.97
605.319	36.36
605.655	36.27
605.991	35.86
606.326	35.77
606.662	35.78
606.998	36.19
607.333	36.3
607.668	36.4
608.004	36.47
608.339	36.4
608.674	36.18
609.01	36.29
609.345	36.38
609.68	36.88
610.015	36.47
610.35	36.42
610.685	36.62
611.02	36.34
611.355	36.15
611.689	36.41
612.024	36.52
612.359	36.79
612.694	36.93
613.028	36.7
613.363	36.76
613.697	37.08
614.032	36.67
614.366	37.01
614.7	36.86
615.035	36.82
615.369	37.13
615.703	37.04
616.037	37.19
616.371	36.91
616.705	37.38
617.039	37.15
617.373	37.12
617.707	37.14
618.041	37.12
618.375	37.84
618.709	37.25
619.042	37.2
619.376	37.21
619.71	37.09
620.043	36.97
620.377	37.68
620.71	37.31
621.043	37.57
621.377	37.75
621.71	37.38
622.043	37.31
622.376	37.33
622.709	37.87
623.043	37.97
623.376	37.82
623.709	37.93
624.041	37.74
624.374	37.35
624.707	37.62
625.04	37.21
625.373	37.34
625.705	37.54
626.038	37.62
626.37	37.59
626.703	38.15
627.035	37.66
627.368	37.92
627.7	38.24
628.032	37.5
628.365	37.96
628.697	37.59
629.029	37.65
629.361	37.78
629.693	37.79
630.025	38.07
630.357	37.97
630.689	37.66
631.021	38.42
631.353	37.45
631.684	37.94
632.016	38.13
632.348	37.84
632.679	38.29
633.011	38.73
633.342	37.82
633.674	38.24
634.005	38.6
634.336	38.49
634.668	38.37
634.999	38.67
635.33	38.72
635.661	38.25
635.992	37.7
636.323	38.6
636.654	38.25
636.985	38.32
637.316	38.52
637.647	38.63
637.977	38.07
638.308	38.66
638.639	38.81
638.969	39.29
639.3	38.41
639.63	38.54
639.961	39.07
640.291	38.63
640.622	38.69
640.952	38.58
641.282	38.75
641.612	38.71
641.943	38.66
642.273	38.84
642.603	38.69
642.933	38.8
643.263	39.14
643.592	39.1
643.922	39.06
644.252	39.19
644.582	39.05
644.911	38.68
645.241	39.55
645.571	39.68
645.9	39.82
646.23	39.2
646.559	38.78
646.888	39.16
647.218	39.2
647.547	38.89
647.876	38.87
648.205	39.57
648.534	39.01
648.863	39.29
649.192	39.24
649.521	39.15
649.85	39.68
650.179	38.97
650.508	39.61
650.837	39.04
651.165	39.34
651.494	39.69
651.822	39.19
652.151	39.88
652.479	39.09
652.808	38.96
653.136	39.31
653.465	38.98
653.793	39.83
654.121	39.42
654.449	39.86
654.777	39.39
655.105	39.58
655.433	39.52
655.761	40.21
656.089	39.09
656.417	39.45
656.745	39.68
657.073	39.5
657.4	39.93
657.728	39.07
658.056	39.93
658.383	39.78
658.711	39.95
659.038	39.89
659.365	39.82
659.693	39.51
660.02	39.92
660.347	40.19
660.674	39.6
661.001	39.48
661.329	39.59
661.656	40.17
661.982	39.78
662.309	40.07
662.636	40.66
662.963	39.82
663.29	40.13
663.616	40.43
663.943	39.94
664.27	40.02
664.596	40.53
664.923	40.06
665.249	40.32
665.576	40.58
665.902	40.04
666.228	40.52
666.554	40.08
666.881	40.98
667.207	40.59
667.533	41.08
667.859	40.18
668.185	40.95
668.511	40.37
668.837	40.72
669.162	40.32
