Data from 23-2_chest_Reflection__3__03.txt Node

Date: Thu Feb 29 21:52:30 CST 2024
User: ToomeyLab
Spectrometer: FLMS14357
Trigger mode: 0
Integration Time (sec): 1.000000E-2
Scans to average: 100
Electric dark correction enabled: true
Nonlinearity correction enabled: false
Boxcar width: 0
XAxis mode: Wavelengths
Number of Pixels in Spectrum: 2048
>>>>>Begin Spectral Data<<<<<
189.047	1.16
189.435	1.16
189.823	1.16
190.211	-66.37
190.599	-44.91
190.987	-49.21
191.375	113.6
191.763	1144.68
192.151	40.27
192.538	105.65
192.926	309.09
193.314	-22.63
193.702	320.66
194.089	93.95
194.477	-189.51
194.864	386.67
195.252	-15.16
195.639	117.66
196.027	-2560.49
196.414	24.99
196.801	-112.61
197.189	26.4
197.576	153.62
197.963	77.5
198.351	15.33
198.738	5.71
199.125	15.38
199.512	29.31
199.899	-5.62
200.286	7.48
200.673	14.35
201.06	4.62
201.447	-31.44
201.833	42.33
202.22	-38.46
202.607	-12.43
202.994	12.96
203.38	-28.4
203.767	23.8
204.154	56.75
204.54	49.79
204.927	19.52
205.313	55.37
205.699	-11.87
206.086	16.11
206.472	28.45
206.858	-0.79
207.245	35.71
207.631	5.65
208.017	0.81
208.403	-32.72
208.789	32.56
209.175	-27.79
209.561	4.95
209.947	-1.12
210.333	18.22
210.719	27.9
211.105	-0.97
211.491	11.54
211.876	-15.26
212.262	35.71
212.648	-25.91
213.034	-4.39
213.419	-9.54
213.805	-17.45
214.19	28.78
214.576	7.33
214.961	28.08
215.346	7
215.732	6.91
216.117	-33.6
216.502	8.92
216.888	-15.96
217.273	6.89
217.658	28.86
218.043	-1.27
218.428	-13.39
218.813	35.08
219.198	26.11
219.583	-9.03
219.968	-8.22
220.353	-0.17
220.738	1.02
221.122	16.23
221.507	18.3
221.892	6.94
222.276	27.09
222.661	11.48
223.046	7.38
223.43	-4.01
223.815	-3.74
224.199	5.03
224.583	6.89
224.968	-1.47
225.352	9.4
225.736	10.17
226.121	14.55
226.505	11.51
226.889	8.37
227.273	-2.15
227.657	-6.39
228.041	5.14
228.425	8.51
228.809	8.77
229.193	1.17
229.577	6.56
229.961	4.68
230.344	4.33
230.728	4.56
231.112	5.08
231.495	2.78
231.879	3.31
232.263	2.59
232.646	4.6
233.03	4.38
233.413	3.72
233.797	5.84
234.18	5.14
234.563	2.02
234.946	3.73
235.33	4.53
235.713	4.25
236.096	5.97
236.479	5.62
236.862	3.97
237.245	4.04
237.628	4.15
238.011	4.98
238.394	3.28
238.777	3.74
239.16	3.66
239.543	3.64
239.925	3.94
240.308	4.43
240.691	4.3
241.073	4.58
241.456	4.33
241.838	4.3
242.221	5.04
242.603	3.57
242.986	4.95
243.368	3.09
243.75	4.75
244.133	4.19
244.515	4.02
244.897	4.52
245.279	4.34
245.661	3.54
246.043	3.89
246.425	5.2
246.807	4.73
247.189	3.73
247.571	4.44
247.953	4.62
248.335	4.15
248.717	4.15
249.098	4.32
249.48	4.07
249.862	4.82
250.243	4.11
250.625	4.17
251.006	4.29
251.388	4.85
251.769	4.79
252.151	5.34
252.532	3.59
252.913	4.15
253.295	4.48
253.676	4.56
254.057	4.52
254.438	4.51
254.819	5.15
255.2	3.88
255.581	4.63
255.962	2.99
256.343	3.75
256.724	4.9
257.105	4.23
257.486	4.43
257.867	4.49
258.247	5.56
258.628	4.77
259.009	4.92
259.389	3.18
259.77	4.19
260.15	4.26
260.531	5
260.911	4.42
261.292	3.91
261.672	4.34
262.052	4.26
262.432	4.25
262.813	3.75
263.193	4.82
263.573	4.46
263.953	4
264.333	4.1
264.713	4.38
265.093	4.39
265.473	4.88
265.853	4.35
266.233	3.84
266.612	5.27
266.992	4.49
267.372	3.91
267.752	4.15
268.131	4.84
268.511	4.66
268.89	4.24
269.27	3.79
269.649	4
270.029	4.53
270.408	4.13
270.787	3.7
271.167	4.39
271.546	4.82
271.925	3.96
272.304	4.51
272.683	4.51
273.062	3.69
273.441	3.76
273.82	3.94
274.199	4.14
274.578	3.85
274.957	4.13
275.336	4.77
275.715	3.67
276.093	3.24
276.472	4.34
276.851	3.79
277.229	3.93
277.608	4.44
277.986	3.89
278.365	4.51
278.743	3.98
279.122	3.42
279.5	3.42
279.878	3.7
280.257	4.42
280.635	3.91
281.013	4.38
281.391	3.56
281.769	3.86
282.147	3.9
282.525	3.81
282.903	3.94
283.281	3.48
283.659	3.99
284.037	4.13
284.415	3.52
284.792	3.52
285.17	3.55
285.548	3.99
285.925	3.75
286.303	3.81
286.68	3.74
287.058	4.07
287.435	4.01
287.813	4.06
288.19	4.04
288.567	4.21
288.945	3.99
289.322	4.29
289.699	4.34
290.076	4.62
290.453	3.82
290.83	3.67
291.207	3.89
291.584	4
291.961	3.84
292.338	4.19
292.715	4.08
293.092	4.06
293.469	4.64
293.845	3.73
294.222	3.91
294.599	3.96
294.975	4.09
295.352	4.66
295.728	5.2
296.105	4.45
296.481	3.97
296.858	4.51
297.234	4.04
297.61	4.63
297.986	4.81
298.363	4.4
298.739	4.43
299.115	4.32
299.491	4.56
299.867	4.4
300.243	4.16
300.619	4.4
300.995	4.72
301.371	4.63
301.746	4.21
302.122	4.92
302.498	4.49
302.874	5.12
303.249	4.94
303.625	4.74
304	4.8
304.376	5.05
304.751	4
305.127	4.79
305.502	4.36
305.878	4.92
306.253	4.08
306.628	4.53
307.003	4.77
307.378	5.15
307.754	5.05
308.129	5.5
308.504	5.09
308.879	4.55
309.254	4.6
309.629	4.78
310.003	4.49
310.378	4.69
310.753	4.54
311.128	5.23
311.502	4.85
311.877	4.62
312.252	5.03
312.626	5.1
313.001	4.42
313.375	4.76
313.75	5.22
314.124	5.02
314.498	5.17
314.873	4.71
315.247	4.29
315.621	5.35
315.995	4.85
316.369	4.79
316.743	5.01
317.117	4.94
317.491	4.92
317.865	4.86
318.239	5.36
318.613	5.73
318.987	5.92
319.361	4.58
319.734	5.41
320.108	5.74
320.482	5.52
320.855	4.81
321.229	5.7
321.602	5.39
321.976	4.73
322.349	5.18
322.723	5.52
323.096	5.49
323.469	4.78
323.843	4.68
324.216	5.68
324.589	5.22
324.962	5.15
325.335	4.91
325.708	5.35
326.081	4.78
326.454	4.91
326.827	4.91
327.2	5.99
327.573	5.46
327.945	5.37
328.318	4.91
328.691	4.62
329.063	4.95
329.436	5.15
329.809	4.93
330.181	5.66
330.553	5.15
330.926	5.01
331.298	4.54
331.671	5.01
332.043	5.45
332.415	5.22
332.787	4.43
333.159	5.14
333.532	5.13
333.904	4.94
334.276	5.27
334.648	5.07
335.02	4.42
335.391	4.75
335.763	4.98
336.135	4.59
336.507	4.63
336.879	4.97
337.25	5.93
337.622	5.24
337.993	5.12
338.365	4.91
338.736	4.77
339.108	5.49
339.479	5.44
339.851	5.36
340.222	5.35
340.593	5.22
340.964	5.25
341.336	4.98
341.707	5.2
342.078	4.65
342.449	5.03
342.82	5.82
343.191	5.23
343.562	5.34
343.933	5.12
344.303	5.2
344.674	4.85
345.045	4.9
345.416	4.87
345.786	4.9
346.157	5.14
346.527	5.59
346.898	5.45
347.268	5.29
347.639	4.87
348.009	5.07
348.38	4.95
348.75	5.41
349.12	5.4
349.49	5.13
349.861	5.4
350.231	5.2
350.601	5.72
350.971	5.17
351.341	5.37
351.711	5.33
352.081	5.26
352.45	5.38
352.82	5.02
353.19	5.53
353.56	5.5
353.929	5.71
354.299	5.06
354.669	5.07
355.038	5.28
355.408	5.28
355.777	5.3
356.147	5.4
356.516	5.48
356.885	4.92
357.254	5.54
357.624	5.01
357.993	5.27
358.362	5.49
358.731	5.33
359.1	5.69
359.469	5.47
359.838	5
360.207	5.28
360.576	5.34
360.945	4.93
361.314	5.71
361.682	5.07
362.051	5.45
362.42	5.45
362.788	5.15
363.157	5.18
363.525	5.19
363.894	5.28
364.262	5.1
364.631	5.51
364.999	5.1
365.367	5.37
365.735	5.45
366.104	5.21
366.472	4.93
366.84	5.48
367.208	5.49
367.576	5.61
367.944	4.99
368.312	5.31
368.68	5.34
369.048	5.54
369.416	5.57
369.783	5.34
370.151	5.8
370.519	5.38
370.886	5.24
371.254	5.59
371.621	5.77
371.989	5.64
372.356	5.59
372.724	5.47
373.091	5.4
373.458	5.61
373.826	5.58
374.193	5.56
374.56	5.66
374.927	5.39
375.294	5.2
375.661	5.7
376.028	5.49
376.395	5.6
376.762	5.98
377.129	5.25
377.496	5.81
377.863	5.36
378.229	5.59
378.596	5.3
378.963	5.58
379.329	5.69
379.696	5.47
380.062	5.58
380.429	5.76
380.795	5.93
381.161	5.63
381.528	5.47
381.894	5.47
382.26	5.33
382.626	5.5
382.993	5.43
383.359	5.67
383.725	5.38
384.091	5.85
384.457	5.63
384.823	5.62
385.188	5.51
385.554	5.54
385.92	5.4
386.286	5.2
386.651	5.37
387.017	5.32
387.383	5.46
387.748	5.8
388.114	5.66
388.479	5.46
388.845	5.35
389.21	5.55
389.575	5.73
389.94	5.71
390.306	5.53
390.671	5.48
391.036	5.76
391.401	5.51
391.766	5.71
392.131	5.53
392.496	5.7
392.861	5.56
393.226	5.68
393.591	5.83
393.956	5.56
394.32	5.66
394.685	5.75
395.05	5.57
395.414	5.65
395.779	5.52
396.143	5.73
396.508	5.49
396.872	5.89
397.236	5.58
397.601	5.65
397.965	5.91
398.329	5.53
398.694	5.53
399.058	5.86
399.422	5.43
399.786	5.38
400.15	5.5
400.514	5.72
400.878	5.46
401.242	5.59
401.605	5.76
401.969	5.76
402.333	5.49
402.697	5.71
403.06	5.65
403.424	5.81
403.787	5.61
404.151	5.82
404.514	5.83
404.878	5.63
405.241	5.61
405.604	5.53
405.968	5.7
406.331	5.42
406.694	5.56
407.057	5.36
407.42	5.6
407.783	5.52
408.146	5.66
408.509	5.82
408.872	5.65
409.235	5.57
409.598	5.79
409.961	5.46
410.323	5.87
410.686	5.84
411.049	5.49
411.411	5.9
411.774	5.7
412.136	5.7
412.499	5.72
412.861	5.53
413.223	5.71
413.586	5.72
413.948	5.75
414.31	5.6
414.672	5.46
415.035	5.8
415.397	5.6
415.759	5.81
416.121	5.89
416.483	5.93
416.845	5.89
417.206	5.72
417.568	5.46
417.93	5.64
418.292	5.65
418.653	5.67
419.015	5.72
419.377	5.72
419.738	5.69
420.1	5.65
420.461	5.68
420.822	5.56
421.184	5.45
421.545	5.69
421.906	5.71
422.267	5.65
422.629	5.65
422.99	5.63
423.351	5.71
423.712	5.57
424.073	5.64
424.434	5.62
424.795	5.69
425.155	5.61
425.516	5.63
425.877	5.61
426.238	5.59
426.598	5.66
426.959	5.7
427.32	5.73
427.68	5.74
428.041	5.53
428.401	5.78
428.761	5.8
429.122	5.88
429.482	5.83
429.842	5.9
430.202	5.72
430.563	6
430.923	5.86
431.283	5.92
431.643	5.87
432.003	6.05
432.363	5.9
432.722	6.02
433.082	5.88
433.442	6
433.802	5.89
434.161	6.14
434.521	5.79
434.881	6.08
435.24	5.89
435.6	5.89
435.959	5.92
436.319	5.72
436.678	5.76
437.037	5.79
437.396	5.87
437.756	5.99
438.115	5.84
438.474	5.84
438.833	6.09
439.192	5.96
439.551	5.83
439.91	5.95
440.269	5.84
440.628	6.01
440.987	5.67
441.345	5.86
441.704	5.83
442.063	5.95
442.421	5.95
442.78	5.82
443.138	5.77
443.497	5.89
443.855	5.96
444.214	6.06
444.572	6.03
444.93	5.84
445.288	6.13
445.647	6.01
446.005	5.97
446.363	5.85
446.721	5.98
447.079	5.92
447.437	5.9
447.795	6
448.153	5.96
448.51	5.98
448.868	5.88
449.226	5.98
449.584	5.94
449.941	6
450.299	6.08
450.656	6.11
451.014	5.87
451.371	6.04
451.729	6.13
452.086	6.25
452.443	6.13
452.801	6.21
453.158	6.12
453.515	6.11
453.872	6.13
454.229	6.04
454.586	6.02
454.943	6.06
455.3	6.12
455.657	6.09
456.014	6.19
456.371	6.17
456.727	6.12
457.084	6.18
457.441	6.28
457.797	6.22
458.154	6.3
458.51	6.11
458.867	6.27
459.223	6.09
459.58	6.18
459.936	6.25
460.292	6.14
460.648	6.05
461.005	6.09
461.361	5.99
461.717	6.01
462.073	6.05
462.429	6.09
462.785	6.09
463.141	6.15
463.496	6.37
463.852	6.25
464.208	6.26
464.564	6.27
464.919	6.36
465.275	6.24
465.631	6.3
465.986	6.37
466.342	6.15
466.697	6.21
467.052	6.26
467.408	6.23
467.763	6.46
468.118	6.26
468.473	6.31
468.829	6.39
469.184	6.29
469.539	6.24
469.894	6.34
470.249	6.26
470.603	6.35
470.958	6.51
471.313	6.23
471.668	6.35
472.023	6.28
472.377	6.19
472.732	6.38
473.086	6.4
473.441	6.39
473.795	6.43
474.15	6.28
474.504	6.42
474.859	6.2
475.213	6.27
475.567	6.53
475.921	6.46
476.275	6.3
476.63	6.5
476.984	6.26
477.338	6.36
477.692	6.33
478.045	6.33
478.399	6.4
478.753	6.54
479.107	6.44
479.461	6.51
479.814	6.47
480.168	6.39
480.521	6.35
480.875	6.35
481.228	6.39
481.582	6.59
481.935	6.53
482.289	6.48
482.642	6.36
482.995	6.48
483.348	6.38
483.701	6.39
484.055	6.34
484.408	6.47
484.761	6.36
485.114	6.21
485.466	6.08
485.819	6.16
486.172	6.12
486.525	6.18
486.878	6.24
487.23	6.33
487.583	6.39
487.936	6.44
488.288	6.36
488.641	6.35
488.993	6.35
489.345	6.26
489.698	6.23
490.05	6.23
490.402	6.39
490.754	6.39
491.107	6.47
491.459	6.46
491.811	6.56
492.163	6.52
492.515	6.51
492.866	6.47
493.218	6.38
493.57	6.34
493.922	6.41
494.274	6.4
494.625	6.55
494.977	6.63
495.328	6.64
495.68	6.71
496.031	6.66
496.383	6.58
496.734	6.72
497.086	6.6
497.437	6.76
497.788	6.73
498.139	6.74
498.49	6.82
498.842	6.75
499.193	6.64
499.544	6.78
499.894	6.68
500.245	6.79
500.596	6.79
500.947	6.76
501.298	6.8
501.648	6.79
501.999	6.81
502.35	6.94
502.7	6.78
503.051	6.97
503.401	6.78
503.752	6.91
504.102	6.98
504.452	6.83
504.803	6.85
505.153	6.89
505.503	6.94
505.853	6.92
506.203	6.84
506.553	6.96
506.903	6.8
507.253	7.07
507.603	7.05
507.953	6.91
508.303	7
508.652	6.96
509.002	6.91
509.352	6.91
509.701	7.11
510.051	6.99
510.4	7.04
510.75	6.98
511.099	7.01
511.449	6.93
511.798	7.05
512.147	6.98
512.496	7.03
512.846	7.04
513.195	6.98
513.544	7.15
513.893	7.07
514.242	7
514.591	7.02
514.939	7.08
515.288	7.13
515.637	7.22
515.986	7.06
516.334	7.15
516.683	7.26
517.032	7.37
517.38	7.24
517.729	7.19
518.077	7.39
518.426	7.22
518.774	7.25
519.122	7.23
519.47	7.22
519.819	7.23
520.167	7.09
520.515	7.12
520.863	7.1
521.211	7.14
521.559	7.35
521.907	7.3
522.255	7.21
522.602	7.27
522.95	7.37
523.298	7.24
523.645	7.49
523.993	7.44
524.341	7.52
524.688	7.45
525.036	7.45
525.383	7.4
525.73	7.54
526.078	7.61
526.425	7.61
526.772	7.37
527.119	7.43
527.466	7.49
527.814	7.38
528.161	7.45
528.508	7.37
528.854	7.45
529.201	7.41
529.548	7.38
529.895	7.36
530.242	7.21
530.588	7.21
530.935	7.28
531.282	7.24
531.628	7.36
531.975	7.43
532.321	7.42
532.667	7.58
533.014	7.67
533.36	7.56
533.706	7.63
534.052	7.64
534.399	7.61
534.745	7.54
535.091	7.48
535.437	7.61
535.783	7.54
536.129	7.64
536.474	7.74
536.82	7.72
537.166	7.77
537.512	7.84
537.857	7.87
538.203	7.86
538.549	7.74
538.894	7.85
539.239	7.85
539.585	7.9
539.93	7.94
540.276	8.04
540.621	8.01
540.966	8.05
541.311	8.04
541.656	8.11
542.001	8.03
542.346	8.07
542.691	7.9
543.036	7.89
543.381	7.77
543.726	7.9
544.071	7.85
544.415	7.99
544.76	8.04
545.105	8
545.449	8.1
545.794	8.09
546.138	8.25
546.483	8.23
546.827	8.28
547.171	8.44
547.516	8.38
547.86	8.42
548.204	8.25
548.548	8.3
548.892	8.26
549.236	8.34
549.58	8.45
549.924	8.43
550.268	8.57
550.612	8.56
550.956	8.5
551.3	8.66
551.643	8.7
551.987	8.58
552.33	8.63
552.674	8.78
553.017	8.57
553.361	8.53
553.704	8.7
554.048	8.6
554.391	8.7
554.734	8.74
555.077	8.79
555.42	8.71
555.764	8.92
556.107	8.95
556.45	8.85
556.793	8.77
557.135	8.82
557.478	9.01
557.821	9.06
558.164	9.04
558.507	8.97
558.849	9.23
559.192	9.08
559.534	9.06
559.877	9.07
560.219	9.24
560.562	9.16
560.904	9.11
561.246	8.88
561.589	9.12
561.931	9.16
562.273	9.47
562.615	9.22
562.957	9.2
563.299	9.26
563.641	9.29
563.983	9.44
564.325	9.31
564.667	9.4
565.008	9.46
565.35	9.49
565.692	9.59
566.033	9.5
566.375	9.33
566.716	9.57
567.058	9.62
567.399	9.86
567.741	9.54
568.082	9.56
568.423	9.6
568.764	9.6
569.105	9.55
569.447	9.77
569.788	9.88
570.129	9.8
570.47	10.01
570.811	9.66
571.151	10.08
571.492	9.91
571.833	9.92
572.174	9.93
572.514	9.9
572.855	10.03
573.195	10.06
573.536	10.14
573.876	9.93
574.217	10.09
574.557	9.89
574.898	10.09
575.238	10.11
575.578	10.28
575.918	10.2
576.258	10.23
576.598	10.17
576.938	10.29
577.278	10.14
577.618	10.25
577.958	10.51
578.298	10.44
578.638	10.34
578.977	10.38
579.317	10.72
579.657	10.59
579.996	10.81
580.336	10.68
580.675	10.74
581.014	10.5
581.354	10.47
581.693	10.77
582.032	10.7
582.372	10.84
582.711	10.63
583.05	10.85
583.389	11.12
583.728	10.77
584.067	10.85
584.406	10.96
584.745	10.75
585.083	11.11
585.422	11.12
585.761	11.11
586.1	11.2
586.438	11.11
586.777	11.21
587.115	11.23
587.454	11.04
587.792	11.16
588.13	11.3
588.469	11.14
588.807	11.15
589.145	11.59
589.483	11.43
589.821	11.3
590.159	11.32
590.497	11.29
590.835	11.57
591.173	11.75
591.511	11.58
591.849	11.65
592.187	11.55
592.524	11.49
592.862	11.77
593.2	11.8
593.537	11.68
593.875	11.87
594.212	11.84
594.55	11.93
594.887	12.27
595.224	11.88
595.561	11.92
595.899	12.08
596.236	11.87
596.573	12
596.91	12.08
597.247	12.21
597.584	12.06
597.921	12.09
598.258	12.07
598.594	12.17
598.931	12.18
599.268	12.13
599.604	12.03
599.941	12.02
600.277	12.24
600.614	12.48
600.95	12.44
601.287	12.73
601.623	12.53
601.959	12.49
602.296	12.45
602.632	12.79
602.968	12.56
603.304	12.56
603.64	12.85
603.976	12.74
604.312	12.91
604.648	12.67
604.984	12.63
605.319	12.84
605.655	12.84
605.991	12.47
606.326	12.7
606.662	12.98
606.998	12.78
607.333	12.9
607.668	13.17
608.004	13.26
608.339	13.01
608.674	13
609.01	13.08
609.345	13.24
609.68	13.27
610.015	13.28
610.35	13.23
610.685	13.42
611.02	13.49
611.355	13.49
611.689	13.46
612.024	13.3
612.359	13.47
612.694	13.47
613.028	13.41
613.363	13.53
613.697	13.63
614.032	13.8
614.366	13.89
614.7	13.74
615.035	13.64
615.369	13.6
615.703	14.02
616.037	13.99
616.371	14.06
616.705	13.78
617.039	14.24
617.373	13.85
617.707	14.15
618.041	14.18
618.375	14.5
618.709	14.04
619.042	14.08
619.376	14.1
619.71	14.11
620.043	14.27
620.377	14.63
620.71	14.18
621.043	14.41
621.377	14.15
621.71	14.3
622.043	14.65
622.376	14.45
622.709	14.98
623.043	14.61
623.376	14.32
623.709	14.7
624.041	14.44
624.374	14.73
624.707	14.71
625.04	14.69
625.373	14.85
625.705	14.67
626.038	15
626.37	14.73
626.703	15.33
627.035	15.14
627.368	14.99
627.7	15.03
628.032	14.89
628.365	15.12
628.697	15.17
629.029	15.29
629.361	15.16
629.693	15.04
630.025	15.11
630.357	15.64
630.689	15.14
631.021	15.55
631.353	15.51
631.684	14.95
632.016	15.23
632.348	15.74
632.679	15.42
633.011	15.83
633.342	15.19
633.674	15.29
634.005	16.13
634.336	15.68
634.668	15.97
634.999	15.7
635.33	16.09
635.661	15.91
635.992	15.34
636.323	15.69
636.654	15.74
636.985	15.89
637.316	15.64
637.647	16.23
637.977	15.9
638.308	15.98
638.639	16.3
638.969	16.49
639.3	16.23
639.63	16.53
639.961	17.01
640.291	15.88
640.622	16.41
640.952	15.58
641.282	16.51
641.612	16.53
641.943	16.71
642.273	16.56
642.603	16.42
642.933	16.79
643.263	16.41
643.592	16.91
643.922	16.89
644.252	16.96
644.582	16.43
644.911	16.91
645.241	17.15
645.571	17.05
645.9	16.82
646.23	17.36
646.559	16.9
646.888	17.21
647.218	16.95
647.547	17.29
647.876	17.18
648.205	16.94
648.534	16.9
648.863	17.52
649.192	17.43
649.521	17.96
649.85	17.51
650.179	17.13
650.508	17.53
650.837	17.14
651.165	17.47
651.494	17.67
651.822	17.22
652.151	17.89
652.479	17.38
652.808	17.81
653.136	17.77
653.465	17.8
653.793	17.52
654.121	17.62
654.449	18.25
654.777	18.12
655.105	18.22
655.433	17.33
655.761	17.96
656.089	17.63
656.417	18.55
656.745	18.54
657.073	18
657.4	18.26
657.728	18.5
658.056	18.39
658.383	18.47
658.711	18.48
659.038	18.17
659.365	18.94
659.693	18.14
660.02	18.22
660.347	18.62
660.674	18.89
661.001	18.4
661.329	18.65
661.656	18.73
661.982	18.45
662.309	19.17
662.636	19.1
662.963	18.96
663.29	18.84
663.616	19.09
663.943	18.48
664.27	18.89
664.596	19.2
664.923	18.57
665.249	18.59
665.576	18.88
665.902	19.27
666.228	19.24
666.554	19.17
666.881	19.45
667.207	18.92
667.533	19.48
667.859	19.28
668.185	19.21
668.511	19.07
668.837	20.18
669.162	19.62
669.488	19.38
669.814	19.78
670.139	19.47
670.465	19.29
670.791	19.18
671.116	19.27
671.442	19.15
671.767	19.89
672.092	20.25
672.418	18.86
672.743	19.31
673.068	20
673.393	20.26
673.718	19.46
674.043	20.24
674.368	20.47
674.693	20.4
675.018	20.2
675.343	19.81
675.667	20.19
675.992	20.07
676.317	19.73
676.641	19.53
676.966	20.16
677.29	19.94
677.615	21.03
677.939	20.33
678.264	21.21
678.588	20.67
678.912	20.88
679.236	20.47
679.56	20.89
679.885	20.95
680.209	20.25
680.532	20.46
680.856	20.98
681.18	20.38
681.504	20.47
681.828	20.71
682.152	20.26
682.475	21.11
682.799	21.16
683.122	20.97
683.446	20.68
683.769	20.57
684.093	20.83
684.416	20.9
684.739	21.2
685.062	21.16
685.386	21.32
