Data from 23-2_crown_Reflection__3__08.txt Node

Date: Thu Feb 29 21:55:40 CST 2024
User: ToomeyLab
Spectrometer: FLMS14357
Trigger mode: 0
Integration Time (sec): 1.000000E-2
Scans to average: 100
Electric dark correction enabled: true
Nonlinearity correction enabled: false
Boxcar width: 0
XAxis mode: Wavelengths
Number of Pixels in Spectrum: 2048
>>>>>Begin Spectral Data<<<<<
189.047	95.01
189.435	95.01
189.823	95.01
190.211	-109.06
190.599	397.7
190.987	-96.69
191.375	460.8
191.763	800
192.151	222.68
192.538	84.16
192.926	69.03
193.314	17.96
193.702	284.64
194.089	1134.88
194.477	-73.44
194.864	-721.57
195.252	-61.9
195.639	115.76
196.027	-167.9
196.414	44.46
196.801	-12.07
197.189	65.77
197.576	257.68
197.963	231.47
198.351	-23.07
198.738	-124.2
199.125	-13.85
199.512	67.62
199.899	-12.81
200.286	-30.05
200.673	24.95
201.06	0.54
201.447	4.75
201.833	-21.7
202.22	-63.55
202.607	-71.24
202.994	-103.21
203.38	-71.66
203.767	-54.76
204.154	-1.31
204.54	18.77
204.927	21.29
205.313	27.46
205.699	-29.89
206.086	-18.41
206.472	15.4
206.858	1.89
207.245	19.54
207.631	1.6
208.017	4.51
208.403	-37.23
208.789	10.89
209.175	-37.72
209.561	25.03
209.947	49.28
210.333	5.4
210.719	9.47
211.105	14.86
211.491	-17.15
211.876	1.97
212.262	36.36
212.648	-29.76
213.034	8.83
213.419	13.48
213.805	0.88
214.19	-9.81
214.576	-80.66
214.961	-18.45
215.346	4.03
215.732	-9.02
216.117	-29.01
216.502	16.05
216.888	-6.66
217.273	3.04
217.658	8.07
218.043	-1.92
218.428	-3.89
218.813	14.6
219.198	-7.94
219.583	-29.03
219.968	1.97
220.353	-10.27
220.738	-2.5
221.122	-5.01
221.507	13.45
221.892	-9.63
222.276	12.54
222.661	-9.35
223.046	14.92
223.43	-18.86
223.815	-3.08
224.199	-1.42
224.583	9.77
224.968	4.43
225.352	7.25
225.736	-0.19
226.121	4.64
226.505	13.25
226.889	11.59
227.273	7.61
227.657	3.73
228.041	5.37
228.425	9
228.809	5.17
229.193	3.82
229.577	6.32
229.961	5.36
230.344	5.69
230.728	5.81
231.112	7.37
231.495	6.3
231.879	6.78
232.263	3.35
232.646	6.5
233.03	5.99
233.413	5.23
233.797	5.3
234.18	4.6
234.563	3.35
234.946	4.72
235.33	5.33
235.713	6.45
236.096	6.07
236.479	5.83
236.862	6.23
237.245	5.67
237.628	6.73
238.011	7.12
238.394	4.09
238.777	5.16
239.16	5.8
239.543	4.33
239.925	4.22
240.308	7.34
240.691	6.54
241.073	5.25
241.456	7.29
241.838	7.01
242.221	5.17
242.603	6.73
242.986	6.56
243.368	5.77
243.75	6.03
244.133	5.95
244.515	5.62
244.897	6.19
245.279	5.79
245.661	6.14
246.043	4.5
246.425	6.94
246.807	6.29
247.189	5.27
247.571	6.15
247.953	5.79
248.335	5.68
248.717	6.1
249.098	5.85
249.48	5.8
249.862	6.16
250.243	6.01
250.625	6.1
251.006	5.8
251.388	5.73
251.769	6.16
252.151	6.38
252.532	5.55
252.913	5.55
253.295	6.19
253.676	5.97
254.057	6.09
254.438	6.43
254.819	6.02
255.2	4.4
255.581	5.33
255.962	6.67
256.343	6.4
256.724	4.12
257.105	5.41
257.486	5.58
257.867	6.16
258.247	5.89
258.628	5.39
259.009	5.77
259.389	5.21
259.77	5.38
260.15	5.9
260.531	6.16
260.911	5.3
261.292	5.44
261.672	5.8
262.052	5.68
262.432	5.47
262.813	5.08
263.193	5.28
263.573	5.93
263.953	5.48
264.333	5.03
264.713	5.25
265.093	5.32
265.473	5.71
265.853	5.91
266.233	4.98
266.612	5.74
266.992	4.83
267.372	5.07
267.752	5.6
268.131	5.92
268.511	5.28
268.89	6.07
269.27	5.34
269.649	4.5
270.029	5.21
270.408	4.84
270.787	5.32
271.167	5.17
271.546	5.51
271.925	5.11
272.304	5
272.683	5.38
273.062	4.91
273.441	4.93
273.82	5.5
274.199	5.9
274.578	5.03
274.957	5.07
275.336	5.53
275.715	5.02
276.093	5.3
276.472	6.04
276.851	4.92
277.229	4.95
277.608	5.31
277.986	4.79
278.365	5.3
278.743	4.52
279.122	5.42
279.5	4.59
279.878	4.93
280.257	5.38
280.635	5.39
281.013	5.18
281.391	4.2
281.769	5.07
282.147	5.23
282.525	5.29
282.903	4.82
283.281	4.97
283.659	5.27
284.037	4.81
284.415	4.58
284.792	4.42
285.17	4.12
285.548	5.46
285.925	5.19
286.303	4.69
286.68	4.54
287.058	5.23
287.435	4.93
287.813	4.69
288.19	4.67
288.567	4.78
288.945	5
289.322	5.54
289.699	4.55
290.076	4.34
290.453	4.23
290.83	4.94
291.207	5.02
291.584	4.91
291.961	4.85
292.338	5.35
292.715	4.95
293.092	4.92
293.469	5.63
293.845	4.88
294.222	4.83
294.599	5.18
294.975	5.4
295.352	5.43
295.728	5.24
296.105	4.63
296.481	4.96
296.858	5.29
297.234	5.07
297.61	4.85
297.986	5.55
298.363	4.96
298.739	4.67
299.115	5.29
299.491	4.97
299.867	4.92
300.243	5.03
300.619	5.15
300.995	5.35
301.371	5.04
301.746	4.56
302.122	5.16
302.498	5.49
302.874	5.1
303.249	4.9
303.625	5.44
304	5.2
304.376	5.37
304.751	4.78
305.127	4.51
305.502	4.56
305.878	5.58
306.253	4.66
306.628	4.7
307.003	5.03
307.378	5.3
307.754	5.09
308.129	4.78
308.504	5.01
308.879	4.93
309.254	4.79
309.629	4.66
310.003	4.77
310.378	4.82
310.753	4.94
311.128	5.43
311.502	5.2
311.877	4.98
312.252	5.34
312.626	4.63
313.001	4.73
313.375	5.04
313.75	5.06
314.124	4.96
314.498	5.16
314.873	4.66
315.247	4.43
315.621	5.41
315.995	5.47
316.369	5.51
316.743	4.9
317.117	4.88
317.491	4.86
317.865	5.1
318.239	4.85
318.613	5.58
318.987	5.46
319.361	4.56
319.734	5.51
320.108	5.31
320.482	5.1
320.855	4.9
321.229	5.23
321.602	5.1
321.976	4.71
322.349	4.79
322.723	6.09
323.096	5.41
323.469	4.74
323.843	4.24
324.216	4.85
324.589	4.7
324.962	4.28
325.335	5.02
325.708	5.4
326.081	4.66
326.454	4.55
326.827	4.62
327.2	5.29
327.573	5.06
327.945	5.17
328.318	5.16
328.691	5.04
329.063	4.77
329.436	5.22
329.809	4.75
330.181	5.82
330.553	5.37
330.926	5.31
331.298	5.07
331.671	4.46
332.043	5.22
332.415	4.93
332.787	4.52
333.159	5.09
333.532	4.6
333.904	5.4
334.276	4.92
334.648	4.98
335.02	4.46
335.391	4.48
335.763	4.47
336.135	4.8
336.507	4.44
336.879	4.86
337.25	4.6
337.622	4.83
337.993	4.96
338.365	4.79
338.736	4.81
339.108	4.94
339.479	4.45
339.851	4.72
340.222	5.09
340.593	5.07
340.964	4.9
341.336	4.87
341.707	4.86
342.078	4.47
342.449	5.38
342.82	5.04
343.191	4.61
343.562	5.28
343.933	4.57
344.303	4.9
344.674	5.21
345.045	4.63
345.416	5.07
345.786	4.77
346.157	4.75
346.527	4.88
346.898	5.08
347.268	5.4
347.639	4.6
348.009	4.84
348.38	4.63
348.75	4.9
349.12	5.37
349.49	4.74
349.861	5.03
350.231	5.01
350.601	5.22
350.971	4.62
351.341	4.97
351.711	5.15
352.081	5.34
352.45	4.74
352.82	4.64
353.19	5.31
353.56	5.2
353.929	4.94
354.299	4.77
354.669	5.09
355.038	5.21
355.408	5.2
355.777	5.43
356.147	4.86
356.516	5
356.885	4.8
357.254	5.1
357.624	5.08
357.993	5.19
358.362	5.02
358.731	5.23
359.1	5.17
359.469	5.22
359.838	5.01
360.207	5.03
360.576	5.04
360.945	4.97
361.314	5.16
361.682	4.92
362.051	5.17
362.42	5.45
362.788	5.03
363.157	4.92
363.525	4.84
363.894	5.16
364.262	4.86
364.631	5.17
364.999	4.73
365.367	4.67
365.735	5.15
366.104	5.16
366.472	4.66
366.84	5.22
367.208	5.05
367.576	4.97
367.944	4.9
368.312	4.98
368.68	4.95
369.048	5.01
369.416	5.3
369.783	5.28
370.151	5.31
370.519	4.75
370.886	5.11
371.254	5.46
371.621	5.17
371.989	5.06
372.356	5.09
372.724	5.47
373.091	5.06
373.458	5.08
373.826	5.04
374.193	5.11
374.56	5.09
374.927	5.4
375.294	4.95
375.661	5.29
376.028	5.31
376.395	5.04
376.762	5.75
377.129	4.94
377.496	4.98
377.863	5.28
378.229	5.1
378.596	5.04
378.963	5.13
379.329	5.23
379.696	5.41
380.062	5.1
380.429	5.51
380.795	5.21
381.161	5.53
381.528	5.04
381.894	5.13
382.26	4.98
382.626	5.15
382.993	5.07
383.359	5.05
383.725	5.27
384.091	5.25
384.457	5.14
384.823	5.31
385.188	5.02
385.554	5.09
385.92	5.56
386.286	4.93
386.651	5.1
387.017	5.29
387.383	5.2
387.748	5.28
388.114	5.37
388.479	5.44
388.845	5.18
389.21	5.43
389.575	4.86
389.94	5.11
390.306	5.17
390.671	5.11
391.036	5.3
391.401	5.22
391.766	5.3
392.131	5.03
392.496	5.18
392.861	5.36
393.226	5.61
393.591	5.21
393.956	5.26
394.32	5.15
394.685	5.32
395.05	5.44
395.414	5.43
395.779	5.2
396.143	5.37
396.508	5.16
396.872	5.49
397.236	5.31
397.601	5.03
397.965	5.44
398.329	5.22
398.694	5.19
399.058	5.58
399.422	5.12
399.786	5.07
400.15	4.92
400.514	4.84
400.878	5.19
401.242	5.07
401.605	5.15
401.969	5.43
402.333	5.05
402.697	5.35
403.06	5.39
403.424	5.46
403.787	5.31
404.151	5.57
404.514	5.32
404.878	5.48
405.241	5.57
405.604	4.81
405.968	5.26
406.331	5.09
406.694	5.37
407.057	5.37
407.42	5.13
407.783	5.33
408.146	5.44
408.509	5.27
408.872	5.33
409.235	5.35
409.598	5.29
409.961	5.24
410.323	5.45
410.686	5.12
411.049	5.1
411.411	5.18
411.774	5.22
412.136	5.4
412.499	5.4
412.861	5.17
413.223	5.21
413.586	5.26
413.948	5.29
414.31	5.45
414.672	5.38
415.035	5.5
415.397	5.25
415.759	5.6
416.121	5.52
416.483	5.44
416.845	5.3
417.206	5.04
417.568	5.26
417.93	5.25
418.292	5.48
418.653	5.26
419.015	5.31
419.377	5.48
419.738	5.24
420.1	5.3
420.461	5.2
420.822	5.2
421.184	5.2
421.545	5.29
421.906	5.22
422.267	5.21
422.629	5.27
422.99	5.14
423.351	5.26
423.712	5.19
424.073	5.21
424.434	5.23
424.795	5.29
425.155	5.26
425.516	5.17
425.877	5.21
426.238	5.26
426.598	5.27
426.959	5.35
427.32	5.31
427.68	5.3
428.041	5.15
428.401	5.24
428.761	5.41
429.122	5.42
429.482	5.29
429.842	5.47
430.202	5.24
430.563	5.41
430.923	5.48
431.283	5.37
431.643	5.29
432.003	5.48
432.363	5.19
432.722	5.46
433.082	5.21
433.442	5.48
433.802	5.44
434.161	5.49
434.521	5.24
434.881	5.36
435.24	5.51
435.6	5.12
435.959	5.35
436.319	5.5
436.678	5.2
437.037	5.24
437.396	5.37
437.756	5.29
438.115	5.61
438.474	5.4
438.833	5.47
439.192	5.35
439.551	5.38
439.91	5.44
440.269	5.38
440.628	5.45
440.987	5.17
441.345	5.48
441.704	5.39
442.063	5.38
442.421	5.44
442.78	5.31
443.138	5.34
443.497	5.32
443.855	5.43
444.214	5.4
444.572	5.5
444.93	5.31
445.288	5.25
445.647	5.35
446.005	5.48
446.363	5.28
446.721	5.38
447.079	5.36
447.437	5.26
447.795	5.37
448.153	5.3
448.51	5.33
448.868	5.25
449.226	5.39
449.584	5.38
449.941	5.39
450.299	5.31
450.656	5.42
451.014	5.36
451.371	5.55
451.729	5.57
452.086	5.43
452.443	5.43
452.801	5.59
453.158	5.39
453.515	5.52
453.872	5.54
454.229	5.42
454.586	5.3
454.943	5.38
455.3	5.53
455.657	5.54
456.014	5.43
456.371	5.47
456.727	5.6
457.084	5.44
457.441	5.47
457.797	5.35
458.154	5.63
458.51	5.77
458.867	5.7
459.223	5.44
459.58	5.62
459.936	5.59
460.292	5.26
460.648	5.27
461.005	5.5
461.361	5.38
461.717	5.35
462.073	5.31
462.429	5.5
462.785	5.56
463.141	5.55
463.496	5.34
463.852	5.52
464.208	5.38
464.564	5.63
464.919	5.61
465.275	5.53
465.631	5.59
465.986	5.5
466.342	5.3
466.697	5.28
467.052	5.3
467.408	5.62
467.763	5.59
468.118	5.57
468.473	5.52
468.829	5.53
469.184	5.55
469.539	5.49
469.894	5.35
470.249	5.44
470.603	5.47
470.958	5.46
471.313	5.4
471.668	5.42
472.023	5.5
472.377	5.51
472.732	5.56
473.086	5.45
473.441	5.64
473.795	5.54
474.15	5.31
474.504	5.63
474.859	5.52
475.213	5.49
475.567	5.71
475.921	5.78
476.275	5.48
476.63	5.62
476.984	5.56
477.338	5.69
477.692	5.53
478.045	5.59
478.399	5.43
478.753	5.51
479.107	5.5
479.461	5.55
479.814	5.55
480.168	5.37
480.521	5.51
480.875	5.48
481.228	5.55
481.582	5.7
481.935	5.58
482.289	5.7
482.642	5.41
482.995	5.4
483.348	5.53
483.701	5.6
484.055	5.38
484.408	5.45
484.761	5.36
485.114	5.16
485.466	5.08
485.819	5.12
486.172	5.22
486.525	5.35
486.878	5.44
487.23	5.41
487.583	5.44
487.936	5.49
488.288	5.38
488.641	5.34
488.993	5.33
489.345	5.28
489.698	5.25
490.05	5.31
490.402	5.46
490.754	5.48
491.107	5.54
491.459	5.56
491.811	5.45
492.163	5.54
492.515	5.44
492.866	5.41
493.218	5.28
493.57	5.25
493.922	5.41
494.274	5.42
494.625	5.56
494.977	5.6
495.328	5.6
495.68	5.64
496.031	5.65
496.383	5.52
496.734	5.65
497.086	5.45
497.437	5.67
497.788	5.53
498.139	5.6
498.49	5.57
498.842	5.55
499.193	5.55
499.544	5.67
499.894	5.54
500.245	5.59
500.596	5.61
500.947	5.51
501.298	5.68
501.648	5.46
501.999	5.64
502.35	5.57
502.7	5.86
503.051	5.69
503.401	5.64
503.752	5.65
504.102	5.86
504.452	5.73
504.803	5.61
505.153	5.58
505.503	5.72
505.853	5.68
506.203	5.62
506.553	5.67
506.903	5.58
507.253	5.74
507.603	5.68
507.953	5.53
508.303	5.72
508.652	5.76
509.002	5.56
509.352	5.64
509.701	5.62
510.051	5.67
510.4	5.7
510.75	5.46
511.099	5.54
511.449	5.7
511.798	5.71
512.147	5.73
512.496	5.73
512.846	5.58
513.195	5.6
513.544	5.62
513.893	5.62
514.242	5.67
514.591	5.57
514.939	5.71
515.288	5.74
515.637	5.75
515.986	5.73
516.334	5.65
516.683	5.82
517.032	5.72
517.38	5.71
517.729	5.72
518.077	5.87
518.426	5.6
518.774	5.66
519.122	5.72
519.47	5.64
519.819	5.7
520.167	5.52
520.515	5.56
520.863	5.63
521.211	5.65
521.559	5.64
521.907	5.69
522.255	5.69
522.602	5.59
522.95	5.61
523.298	5.64
523.645	5.79
523.993	5.86
524.341	5.72
524.688	5.83
525.036	5.73
525.383	5.67
525.73	5.84
526.078	5.77
526.425	5.67
526.772	5.74
527.119	5.63
527.466	5.64
527.814	5.61
528.161	5.67
528.508	5.6
528.854	5.67
529.201	5.6
529.548	5.52
529.895	5.38
530.242	5.34
530.588	5.37
530.935	5.48
531.282	5.5
531.628	5.57
531.975	5.58
532.321	5.68
532.667	5.69
533.014	5.71
533.36	5.7
533.706	5.72
534.052	5.68
534.399	5.66
534.745	5.53
535.091	5.46
535.437	5.57
535.783	5.63
536.129	5.68
536.474	5.7
536.82	5.78
537.166	5.74
537.512	5.76
537.857	5.76
538.203	5.6
538.549	5.56
538.894	5.7
539.239	5.76
539.585	5.7
539.93	5.74
540.276	5.85
540.621	5.65
540.966	5.79
541.311	5.78
541.656	5.81
542.001	5.66
542.346	5.61
542.691	5.52
543.036	5.54
543.381	5.48
543.726	5.62
544.071	5.68
544.415	5.67
544.76	5.64
545.105	5.66
545.449	5.74
545.794	5.73
546.138	5.79
546.483	5.84
546.827	5.83
547.171	5.76
547.516	5.79
547.86	5.7
548.204	5.73
548.548	5.75
548.892	5.78
549.236	5.75
549.58	5.91
549.924	5.86
550.268	5.8
550.612	5.96
550.956	5.87
551.3	5.77
551.643	5.83
551.987	5.89
552.33	5.93
552.674	6.06
553.017	5.75
553.361	5.83
553.704	5.78
554.048	5.68
554.391	5.82
554.734	5.9
555.077	5.83
555.42	5.94
555.764	5.78
556.107	5.88
556.45	5.89
556.793	5.85
557.135	5.89
557.478	5.88
557.821	5.95
558.164	5.84
558.507	5.72
558.849	5.97
559.192	5.92
559.534	5.94
559.877	5.87
560.219	5.81
560.562	5.75
560.904	6
561.246	5.97
561.589	5.98
561.931	5.87
562.273	6.11
562.615	5.68
562.957	5.8
563.299	5.91
563.641	5.87
563.983	6.03
564.325	5.89
564.667	6.01
565.008	5.94
565.35	5.95
565.692	5.97
566.033	6.04
566.375	5.82
566.716	5.96
567.058	6
567.399	5.98
567.741	5.88
568.082	5.93
568.423	5.89
568.764	5.94
569.105	5.83
569.447	5.92
569.788	6.09
570.129	6.01
570.47	5.99
570.811	5.78
571.151	6.15
571.492	6
571.833	6.02
572.174	5.84
572.514	5.96
572.855	6.03
573.195	5.98
573.536	5.98
573.876	5.98
574.217	5.8
574.557	5.77
574.898	6.17
575.238	6
575.578	6.02
575.918	5.94
576.258	5.87
576.598	5.91
576.938	5.9
577.278	5.78
577.618	5.82
577.958	6
578.298	5.83
578.638	6
578.977	5.86
579.317	6.36
579.657	5.87
579.996	6.11
580.336	6.19
580.675	6
581.014	6.08
581.354	5.6
581.693	6.2
582.032	5.97
582.372	5.97
582.711	5.99
583.05	6.12
583.389	6.08
583.728	5.78
584.067	6.06
584.406	6
584.745	6.08
585.083	5.82
585.422	6.21
585.761	6.04
586.1	6.12
586.438	6.08
586.777	5.93
587.115	5.72
587.454	6.02
587.792	6.16
588.13	5.95
588.469	5.88
588.807	5.83
589.145	6.12
589.483	6.13
589.821	6
590.159	6.18
590.497	6.07
590.835	5.97
591.173	6.12
591.511	6.1
591.849	5.99
592.187	5.91
592.524	5.98
592.862	6.11
593.2	6.11
593.537	5.87
593.875	6.11
594.212	5.97
594.55	6.12
594.887	6.3
595.224	6.2
595.561	6.05
595.899	5.95
596.236	5.88
596.573	6.28
596.91	6.04
597.247	6.12
597.584	5.93
597.921	6
598.258	6.07
598.594	5.84
598.931	6.05
599.268	5.96
599.604	6.12
599.941	5.84
600.277	6.17
600.614	6.26
600.95	6.19
601.287	6.13
601.623	6.25
601.959	6.28
602.296	6
602.632	6.08
602.968	5.91
603.304	6.13
603.64	6.17
603.976	6.41
604.312	6.25
604.648	5.93
604.984	6.06
605.319	6.26
605.655	6
605.991	5.87
606.326	5.93
606.662	6.14
606.998	6.07
607.333	6.12
607.668	6.14
608.004	6.21
608.339	5.92
608.674	6.14
609.01	5.97
609.345	6.13
609.68	5.92
610.015	6.04
610.35	6.14
610.685	6.29
611.02	6.24
611.355	5.87
611.689	6.19
612.024	6.1
612.359	6.1
612.694	6.34
613.028	6.13
613.363	6.17
613.697	6.21
614.032	5.85
614.366	6.19
614.7	5.89
615.035	5.96
615.369	6.02
615.703	6.07
616.037	6.35
616.371	6.14
616.705	6.06
617.039	5.84
617.373	6.33
617.707	6.19
618.041	6
618.375	6.53
618.709	6.05
619.042	5.91
619.376	5.65
619.71	6.52
620.043	6.37
620.377	6.49
620.71	6.19
621.043	6.28
621.377	6.18
621.71	6.39
622.043	6.28
622.376	6.37
622.709	6.56
623.043	6.33
623.376	6.07
623.709	6.37
624.041	5.99
624.374	6.06
624.707	6.53
625.04	6.43
625.373	5.96
625.705	5.95
626.038	5.92
626.37	5.88
626.703	6.53
627.035	6.33
627.368	6.15
627.7	6.47
628.032	6.4
628.365	6.41
628.697	6.09
629.029	6.34
629.361	6
629.693	5.9
630.025	6.34
630.357	6.31
630.689	6.19
631.021	6.56
631.353	6.33
631.684	6.01
632.016	6.05
632.348	6.33
632.679	6.04
633.011	6.64
633.342	5.89
633.674	6.11
634.005	6.42
634.336	6.19
634.668	6.27
634.999	6.17
635.33	6.32
635.661	5.94
635.992	5.73
636.323	6.33
636.654	6.48
636.985	5.83
637.316	6.14
637.647	6.52
637.977	5.78
638.308	6.39
638.639	6.34
638.969	6.47
639.3	6.4
639.63	6.27
639.961	6.73
640.291	5.83
640.622	6.35
640.952	5.81
641.282	6.39
641.612	6.55
641.943	6.45
642.273	6.41
642.603	6.35
642.933	6.28
643.263	6.41
643.592	6.67
643.922	6.55
644.252	6.31
644.582	6.17
644.911	6.33
645.241	6.27
645.571	6.14
645.9	6.02
646.23	6.4
646.559	5.85
646.888	6.34
647.218	6.45
647.547	6.66
647.876	6.29
648.205	5.53
648.534	5.82
648.863	6.24
649.192	6.48
649.521	6.25
649.85	6.49
650.179	5.97
650.508	6.08
650.837	5.92
651.165	6.05
651.494	5.95
651.822	6.48
652.151	6.43
652.479	6.49
652.808	6
653.136	5.88
653.465	5.9
653.793	6.09
654.121	6.23
654.449	6.08
654.777	6.97
655.105	6.14
655.433	6.05
655.761	6.62
656.089	5.73
656.417	5.7
656.745	6.82
657.073	6.31
657.4	6.6
657.728	6.64
658.056	6.32
658.383	6.24
658.711	6.18
659.038	6.26
659.365	6.56
659.693	6.4
660.02	6.08
660.347	6.95
660.674	5.84
661.001	6.15
661.329	6.68
661.656	6.15
661.982	6.07
662.309	6.81
662.636	6.2
662.963	6.54
663.29	6.51
663.616	6.51
663.943	6.42
664.27	6.61
664.596	6.19
664.923	5.79
665.249	5.74
665.576	6.52
665.902	6.47
666.228	6.76
666.554	6.3
666.881	6.39
667.207	6.44
667.533	6.14
667.859	6.91
668.185	6.3
668.511	5.83
668.837	7.14
669.162	5.88
669.488	6.17
669.814	6.7
670.139	6.4
670.465	6.15
670.791	6.34
671.116	6.46
671.442	6.61
671.767	6.21
672.092	6.8
672.418	6.21
672.743	6.57
673.068	6.28
673.393	6.2
673.718	6.39
674.043	6.72
674.368	7.61
674.693	6.36
675.018	6.8
675.343	6.61
675.667	5.69
675.992	5.99
676.317	6.18
676.641	6
676.966	6.07
677.29	6.12
677.615	7.17
677.939	6.11
678.264	7.3
678.588	6.69
678.912	5.94
679.236	6.59
679.56	7.24
679.885	6.41
680.209	5.93
680.532	6.64
680.856	6.49
681.18	6.48
681.504	6.77
681.828	6.15
682.152	6.32
682.475	6.55
682.799	6.51
683.122	6.41
683.446	6.95
683.769	6.46
684.093	6.57
684.416	6.75
684.739	6.63
685.062	6.46
685.386	7.19
685.709	6.21
686.032	7.25
686.355	6.62
686.678	6.82
687.001	6.37
687.324	7.13
687.646	6.81
687.969	6.29
688.292	6.87
688.614	6.18
688.937	6.92
689.26	6.69
689.582	7.21
689.904	6.7
690.227	7
690.549	6.3
690.871	7.08
691.194	5.94
691.516	6.27
691.838	6.76
692.16	6.7
692.482	6.87
692.804	6.77
693.126	6.85
693.448	6.52
693.769	7.03
