Data from 23-2_chest_Reflection__4__04.txt Node

Date: Thu Feb 29 21:53:28 CST 2024
User: ToomeyLab
Spectrometer: FLMS14357
Trigger mode: 0
Integration Time (sec): 1.000000E-2
Scans to average: 100
Electric dark correction enabled: true
Nonlinearity correction enabled: false
Boxcar width: 0
XAxis mode: Wavelengths
Number of Pixels in Spectrum: 2048
>>>>>Begin Spectral Data<<<<<
189.047	22.4
189.435	22.4
189.823	22.4
190.211	44.12
190.599	5.18
190.987	-74.1
191.375	-655.73
191.763	163.83
192.151	169.69
192.538	310.63
192.926	-135.13
193.314	58.13
193.702	231.93
194.089	-109.3
194.477	-720.33
194.864	-744.71
195.252	37.15
195.639	116.71
196.027	-1527.16
196.414	65.67
196.801	56.19
197.189	-2.21
197.576	-103.57
197.963	113.2
198.351	8.6
198.738	-60.48
199.125	5.14
199.512	113.32
199.899	-22.43
200.286	-14.25
200.673	47.16
201.06	13.35
201.447	26.27
201.833	5.63
202.22	-17.15
202.607	-135.62
202.994	-44.66
203.38	-164.35
203.767	42.32
204.154	24.85
204.54	38.53
204.927	36.56
205.313	13
205.699	-23.77
206.086	19.36
206.472	21.34
206.858	32.87
207.245	0.39
207.631	-6.62
208.017	-4.47
208.403	-56.35
208.789	-11.48
209.175	-7.21
209.561	24.36
209.947	6.96
210.333	5.9
210.719	43
211.105	24.92
211.491	1.73
211.876	2.77
212.262	23.74
212.648	-12.04
213.034	1.87
213.419	20.59
213.805	26.23
214.19	18.51
214.576	26.85
214.961	27.28
215.346	15.35
215.732	31.69
216.117	-22.06
216.502	9.39
216.888	-43.02
217.273	20.29
217.658	25.96
218.043	0.76
218.428	4.04
218.813	8.78
219.198	31.14
219.583	-21.46
219.968	24.25
220.353	6.19
220.738	3.77
221.122	16.28
221.507	19.29
221.892	15.53
222.276	25.56
222.661	3.8
223.046	-1.87
223.43	-7.78
223.815	-2.6
224.199	7.98
224.583	0.3
224.968	-1.06
225.352	5.16
225.736	0.85
226.121	2.07
226.505	14.65
226.889	1.66
227.273	8.35
227.657	1.03
228.041	6.69
228.425	4.99
228.809	7.38
229.193	4.02
229.577	4.45
229.961	2.15
230.344	3.82
230.728	4.68
231.112	5.14
231.495	5.49
231.879	5.31
232.263	3.07
232.646	3.76
233.03	6.07
233.413	3.17
233.797	2.5
234.18	4.1
234.563	1.73
234.946	3.61
235.33	3.92
235.713	4.89
236.096	5.48
236.479	5.65
236.862	5.87
237.245	3.59
237.628	3.6
238.011	7.11
238.394	4.46
238.777	6.24
239.16	6.89
239.543	4.87
239.925	3.54
240.308	5.98
240.691	6.11
241.073	5.16
241.456	6.44
241.838	5.62
242.221	6.15
242.603	4.95
242.986	5.26
243.368	4.67
243.75	5.75
244.133	5.22
244.515	5.05
244.897	5.81
245.279	6.06
245.661	4.96
246.043	5.23
246.425	6.14
246.807	5.72
247.189	5.03
247.571	5.41
247.953	5.78
248.335	5.56
248.717	5.64
249.098	5.25
249.48	5.71
249.862	5.66
250.243	5.54
250.625	5.38
251.006	5.64
251.388	5.62
251.769	6.08
252.151	6.7
252.532	5.52
252.913	4.83
253.295	4.46
253.676	5.82
254.057	5.29
254.438	5.92
254.819	6.46
255.2	5.06
255.581	4.79
255.962	5.76
256.343	5.88
256.724	5.6
257.105	5.03
257.486	4.6
257.867	5.95
258.247	6.9
258.628	5.49
259.009	5.55
259.389	5.72
259.77	6.21
260.15	5.66
260.531	5.93
260.911	5.45
261.292	5.16
261.672	5.55
262.052	5.37
262.432	5.53
262.813	5.45
263.193	4.63
263.573	5.22
263.953	5.46
264.333	5.35
264.713	5.8
265.093	5.47
265.473	6.7
265.853	6.17
266.233	5.08
266.612	5.72
266.992	5.86
267.372	5.15
267.752	5.04
268.131	5.7
268.511	5.72
268.89	5.51
269.27	5.51
269.649	4.95
270.029	5.13
270.408	5.12
270.787	4.77
271.167	5.69
271.546	5.34
271.925	5.31
272.304	5.27
272.683	5.56
273.062	4.67
273.441	4.9
273.82	4.49
274.199	5.53
274.578	5.18
274.957	5.28
275.336	5.45
275.715	5.54
276.093	4.56
276.472	5.51
276.851	5.15
277.229	5.31
277.608	5.86
277.986	4.91
278.365	5.4
278.743	4.12
279.122	4.31
279.5	4.59
279.878	4.79
280.257	5.72
280.635	4.72
281.013	5.59
281.391	4.45
281.769	5.75
282.147	4.81
282.525	5.37
282.903	5.32
283.281	4.73
283.659	5.26
284.037	5.13
284.415	4.98
284.792	5.1
285.17	4.78
285.548	5.15
285.925	4.91
286.303	5.11
286.68	4.91
287.058	5.44
287.435	4.82
287.813	5.22
288.19	4.94
288.567	5.12
288.945	5.18
289.322	5.16
289.699	5.12
290.076	5.27
290.453	4.69
290.83	5.47
291.207	5.29
291.584	5.44
291.961	5.37
292.338	5.4
292.715	5.26
293.092	5.14
293.469	5.54
293.845	4.83
294.222	5.15
294.599	4.55
294.975	5.34
295.352	5.47
295.728	5.61
296.105	5.39
296.481	5.27
296.858	5.82
297.234	4.84
297.61	5.33
297.986	5.52
298.363	5.5
298.739	5.54
299.115	5.78
299.491	5.4
299.867	5.2
300.243	5.43
300.619	5.55
300.995	5.66
301.371	5.54
301.746	5.14
302.122	6.06
302.498	6.04
302.874	5.87
303.249	5.04
303.625	5.84
304	5.94
304.376	5.96
304.751	5.52
305.127	6.1
305.502	5.99
305.878	5.78
306.253	5.45
306.628	5.62
307.003	6.12
307.378	6.04
307.754	5.99
308.129	5.9
308.504	6.15
308.879	5.43
309.254	5.92
309.629	6.18
310.003	6.07
310.378	5.27
310.753	5.81
311.128	5.99
311.502	6.05
311.877	6.2
312.252	5.66
312.626	6.29
313.001	6.04
313.375	6.04
313.75	6.02
314.124	6.1
314.498	6.2
314.873	5.5
315.247	5.63
315.621	6.43
315.995	6.36
316.369	6.11
316.743	6.17
317.117	6.33
317.491	6.11
317.865	6.28
318.239	6.2
318.613	6.91
318.987	6.34
319.361	5.63
319.734	6.58
320.108	6.92
320.482	6.52
320.855	6.11
321.229	6.3
321.602	6.43
321.976	6.41
322.349	6.29
322.723	6.47
323.096	6.34
323.469	5.59
323.843	6.28
324.216	6.47
324.589	6.27
324.962	5.79
325.335	5.81
325.708	6.97
326.081	5.58
326.454	6.39
326.827	6.18
327.2	6.14
327.573	6.68
327.945	6.3
328.318	6.12
328.691	6.83
329.063	6.27
329.436	6.49
329.809	6.04
330.181	6.6
330.553	6.31
330.926	5.94
331.298	6.35
331.671	6.13
332.043	6.4
332.415	6.71
332.787	5.86
333.159	5.84
333.532	6.41
333.904	6.12
334.276	6.27
334.648	6.27
335.02	5.87
335.391	6.07
335.763	5.92
336.135	6.2
336.507	6.13
336.879	6.24
337.25	6.51
337.622	6.18
337.993	6.2
338.365	6.13
338.736	6.3
339.108	6.29
339.479	6.45
339.851	6.28
340.222	6.3
340.593	5.84
340.964	6.22
341.336	6.29
341.707	6.58
342.078	6.36
342.449	6.43
342.82	6.21
343.191	6.25
343.562	6.66
343.933	6.18
344.303	6.3
344.674	6.5
345.045	6.81
345.416	6.28
345.786	6.79
346.157	6.18
346.527	6.16
346.898	6.73
347.268	6.41
347.639	6.48
348.009	6.34
348.38	6.15
348.75	6.53
349.12	6.51
349.49	6.42
349.861	6.11
350.231	6.92
350.601	6.78
350.971	6.12
351.341	6.63
351.711	6.51
352.081	6.11
352.45	6.03
352.82	6.15
353.19	6.6
353.56	6.35
353.929	6.93
354.299	6.24
354.669	6.51
355.038	6.33
355.408	6.53
355.777	6.86
356.147	6.68
356.516	6.32
356.885	6.04
357.254	6.04
357.624	6.52
357.993	6.4
358.362	6.83
358.731	6.41
359.1	6.88
359.469	6.32
359.838	6.53
360.207	6.45
360.576	6.64
360.945	6.07
361.314	6.66
361.682	5.99
362.051	6.18
362.42	6.27
362.788	6.24
363.157	6.22
363.525	6.21
363.894	6.53
364.262	6.34
364.631	6.29
364.999	6.22
365.367	5.99
365.735	6.35
366.104	6.48
366.472	5.81
366.84	6.69
367.208	6.29
367.576	6.37
367.944	6.39
368.312	6.2
368.68	6.1
369.048	6.55
369.416	6.46
369.783	6.42
370.151	6.61
370.519	6.52
370.886	6.62
371.254	6.35
371.621	6.63
371.989	6.38
372.356	6.51
372.724	6.36
373.091	6.39
373.458	6.65
373.826	6.69
374.193	6.44
374.56	6.6
374.927	6.68
375.294	6.23
375.661	6.53
376.028	6.46
376.395	6.67
376.762	6.96
377.129	6.26
377.496	6.53
377.863	6.6
378.229	6.44
378.596	6.44
378.963	6.32
379.329	6.53
379.696	6.15
380.062	6.61
380.429	6.51
380.795	6.81
381.161	6.8
381.528	6.58
381.894	5.91
382.26	6.43
382.626	6.64
382.993	6.47
383.359	6.39
383.725	6.33
384.091	6.76
384.457	6.35
384.823	6.73
385.188	6.42
385.554	6.4
385.92	6.65
386.286	6.48
386.651	6.5
387.017	6.38
387.383	6.45
387.748	6.59
388.114	6.49
388.479	6.38
388.845	6.42
389.21	6.49
389.575	6.23
389.94	6.28
390.306	6.33
390.671	6.45
391.036	6.54
391.401	6.38
391.766	6.4
392.131	6.29
392.496	6.33
392.861	6.55
393.226	6.66
393.591	6.56
393.956	6.6
394.32	6.57
394.685	6.51
395.05	6.43
395.414	6.77
395.779	6.5
396.143	6.71
396.508	6.66
396.872	6.54
397.236	6.46
397.601	6.68
397.965	6.71
398.329	6.4
398.694	6.63
399.058	6.69
399.422	6.43
399.786	6.62
400.15	6.16
400.514	6.47
400.878	6.29
401.242	6.36
401.605	6.55
401.969	6.74
402.333	6.63
402.697	6.41
403.06	6.64
403.424	6.61
403.787	6.29
404.151	6.65
404.514	6.66
404.878	6.59
405.241	6.56
405.604	6.41
405.968	6.34
406.331	6.23
406.694	6.46
407.057	6.6
407.42	6.51
407.783	6.48
408.146	6.61
408.509	6.42
408.872	6.61
409.235	6.34
409.598	6.89
409.961	6.29
410.323	6.68
410.686	6.56
411.049	6.44
411.411	6.5
411.774	6.49
412.136	6.5
412.499	6.66
412.861	6.46
413.223	6.36
413.586	6.41
413.948	6.39
414.31	6.44
414.672	6.49
415.035	6.58
415.397	6.5
415.759	6.62
416.121	6.67
416.483	6.66
416.845	6.74
417.206	6.42
417.568	6.44
417.93	6.54
418.292	6.59
418.653	6.5
419.015	6.48
419.377	6.49
419.738	6.45
420.1	6.42
420.461	6.34
420.822	6.43
421.184	6.46
421.545	6.29
421.906	6.41
422.267	6.3
422.629	6.38
422.99	6.33
423.351	6.41
423.712	6.48
424.073	6.29
424.434	6.34
424.795	6.38
425.155	6.54
425.516	6.4
425.877	6.35
426.238	6.37
426.598	6.29
426.959	6.45
427.32	6.53
427.68	6.51
428.041	6.44
428.401	6.53
428.761	6.53
429.122	6.56
429.482	6.47
429.842	6.67
430.202	6.53
430.563	6.62
430.923	6.52
431.283	6.66
431.643	6.7
432.003	6.76
432.363	6.52
432.722	6.81
433.082	6.37
433.442	6.6
433.802	6.55
434.161	6.79
434.521	6.57
434.881	6.62
435.24	6.64
435.6	6.33
435.959	6.62
436.319	6.6
436.678	6.47
437.037	6.51
437.396	6.61
437.756	6.73
438.115	6.63
438.474	6.49
438.833	6.82
439.192	6.56
439.551	6.55
439.91	6.67
440.269	6.61
440.628	6.49
440.987	6.45
441.345	6.51
441.704	6.51
442.063	6.55
442.421	6.63
442.78	6.64
443.138	6.56
443.497	6.61
443.855	6.64
444.214	6.69
444.572	6.88
444.93	6.55
445.288	6.75
445.647	6.61
446.005	6.74
446.363	6.6
446.721	6.67
447.079	6.47
447.437	6.71
447.795	6.58
448.153	6.54
448.51	6.57
448.868	6.49
449.226	6.69
449.584	6.6
449.941	6.71
450.299	6.69
450.656	6.68
451.014	6.52
451.371	6.62
451.729	6.87
452.086	6.66
452.443	6.73
452.801	6.81
453.158	6.84
453.515	6.83
453.872	6.7
454.229	6.74
454.586	6.66
454.943	6.69
455.3	6.74
455.657	6.83
456.014	6.88
456.371	6.86
456.727	6.78
457.084	6.74
457.441	6.96
457.797	6.72
458.154	6.97
458.51	6.96
458.867	7.13
459.223	6.68
459.58	6.83
459.936	6.92
460.292	6.56
460.648	6.64
461.005	6.75
461.361	6.63
461.717	6.63
462.073	6.63
462.429	6.76
462.785	6.68
463.141	6.68
463.496	6.9
463.852	6.87
464.208	6.86
464.564	6.92
464.919	6.81
465.275	6.81
465.631	6.91
465.986	6.99
466.342	6.73
466.697	6.7
467.052	6.8
467.408	6.91
467.763	6.93
468.118	6.98
468.473	6.92
468.829	7
469.184	6.88
469.539	6.97
469.894	6.94
470.249	6.88
470.603	7.09
470.958	7.04
471.313	6.76
471.668	7
472.023	6.86
472.377	6.93
472.732	6.92
473.086	6.99
473.441	7.03
473.795	6.96
474.15	6.81
474.504	7
474.859	6.76
475.213	6.9
475.567	7.03
475.921	7.06
476.275	6.98
476.63	7.1
476.984	6.84
477.338	6.89
477.692	6.99
478.045	6.88
478.399	7.01
478.753	6.94
479.107	6.97
479.461	6.87
479.814	6.99
480.168	6.89
480.521	6.95
480.875	7
481.228	7.02
481.582	7.04
481.935	6.97
482.289	7.02
482.642	6.92
482.995	6.95
483.348	6.84
483.701	6.94
484.055	6.89
484.408	6.87
484.761	6.76
485.114	6.52
485.466	6.44
485.819	6.5
486.172	6.52
486.525	6.65
486.878	6.73
487.23	6.75
487.583	6.8
487.936	6.83
488.288	6.75
488.641	6.69
488.993	6.74
489.345	6.71
489.698	6.64
490.05	6.67
490.402	6.75
490.754	6.82
491.107	6.91
491.459	6.91
491.811	6.98
492.163	6.93
492.515	6.84
492.866	6.83
493.218	6.68
493.57	6.71
493.922	6.86
494.274	6.81
494.625	6.93
494.977	7.02
495.328	7.06
495.68	7.25
496.031	7.13
496.383	7.14
496.734	7.19
497.086	7.1
497.437	7.18
497.788	7.09
498.139	7.02
498.49	7.11
498.842	7.11
499.193	7.2
499.544	7.17
499.894	7.08
500.245	7.17
500.596	7.17
500.947	7.03
501.298	7.18
501.648	7.08
501.999	7.31
502.35	7.28
502.7	7.23
503.051	7.31
503.401	7.12
503.752	7.3
504.102	7.38
504.452	7.26
504.803	7.14
505.153	7.2
505.503	7.29
505.853	7.2
506.203	7.2
506.553	7.15
506.903	7.25
507.253	7.36
507.603	7.27
507.953	7.23
508.303	7.33
508.652	7.33
509.002	7.33
509.352	7.27
509.701	7.45
510.051	7.21
510.4	7.31
510.75	7.17
511.099	7.3
511.449	7.2
511.798	7.08
512.147	7.36
512.496	7.32
512.846	7.29
513.195	7.37
513.544	7.47
513.893	7.3
514.242	7.38
514.591	7.3
514.939	7.29
515.288	7.4
515.637	7.42
515.986	7.38
516.334	7.34
516.683	7.55
517.032	7.55
517.38	7.51
517.729	7.51
518.077	7.55
518.426	7.51
518.774	7.53
519.122	7.58
519.47	7.34
519.819	7.4
520.167	7.23
520.515	7.3
520.863	7.37
521.211	7.39
521.559	7.57
521.907	7.49
522.255	7.48
522.602	7.44
522.95	7.4
523.298	7.46
523.645	7.63
523.993	7.53
524.341	7.56
524.688	7.66
525.036	7.58
525.383	7.6
525.73	7.69
526.078	7.58
526.425	7.58
526.772	7.56
527.119	7.47
527.466	7.52
527.814	7.5
528.161	7.59
528.508	7.56
528.854	7.62
529.201	7.55
529.548	7.36
529.895	7.25
530.242	7.17
530.588	7.24
530.935	7.34
531.282	7.37
531.628	7.42
531.975	7.48
532.321	7.49
532.667	7.58
533.014	7.69
533.36	7.69
533.706	7.79
534.052	7.64
534.399	7.66
534.745	7.58
535.091	7.44
535.437	7.55
535.783	7.57
536.129	7.77
536.474	7.74
536.82	7.8
537.166	7.84
537.512	7.86
537.857	7.85
538.203	7.77
538.549	7.68
538.894	7.82
539.239	7.87
539.585	7.84
539.93	7.89
540.276	7.94
540.621	7.94
540.966	8.08
541.311	8.03
541.656	8.02
542.001	8
542.346	7.89
542.691	7.82
543.036	7.77
543.381	7.7
543.726	7.8
544.071	7.86
544.415	7.91
544.76	8.02
545.105	7.96
545.449	7.92
545.794	8
546.138	8.16
546.483	8.1
546.827	8.21
547.171	8.19
547.516	8.24
547.86	8.2
548.204	8.13
548.548	8.1
548.892	8.15
549.236	8.21
549.58	8.26
549.924	8.34
550.268	8.34
550.612	8.46
550.956	8.38
551.3	8.49
551.643	8.45
551.987	8.48
552.33	8.36
552.674	8.6
553.017	8.34
553.361	8.32
553.704	8.62
554.048	8.51
554.391	8.52
554.734	8.54
555.077	8.53
555.42	8.65
555.764	8.56
556.107	8.8
556.45	8.52
556.793	8.54
557.135	8.73
557.478	8.77
557.821	8.83
558.164	8.73
558.507	8.98
558.849	8.87
559.192	8.7
559.534	8.86
559.877	8.88
560.219	8.85
560.562	8.86
560.904	8.97
561.246	8.82
561.589	8.94
561.931	8.86
562.273	8.77
562.615	8.87
562.957	8.99
563.299	8.97
563.641	8.95
563.983	9.09
564.325	8.93
564.667	9.15
565.008	9.09
565.35	9.27
565.692	9.34
566.033	9.14
566.375	9.15
566.716	9.18
567.058	9.16
567.399	9.27
567.741	9.21
568.082	9.16
568.423	9.14
568.764	9.1
569.105	9.15
569.447	9.38
569.788	9.34
570.129	9.2
570.47	9.32
570.811	9.35
571.151	9.7
571.492	9.46
571.833	9.62
572.174	9.48
572.514	9.32
572.855	9.57
573.195	9.72
573.536	9.63
573.876	9.49
574.217	9.55
574.557	9.49
574.898	9.84
575.238	9.63
575.578	9.66
575.918	9.5
576.258	9.58
576.598	9.58
576.938	9.84
577.278	9.7
577.618	9.63
577.958	9.73
578.298	9.83
578.638	9.81
578.977	9.77
579.317	10.03
579.657	10
579.996	9.98
580.336	10.18
580.675	10.29
581.014	10.05
581.354	9.8
581.693	10.28
582.032	10.04
582.372	10.3
582.711	10.33
583.05	10.32
583.389	10.25
583.728	9.84
584.067	10.36
584.406	10.31
584.745	10.09
585.083	10.14
585.422	10.45
585.761	10.48
586.1	10.39
586.438	10.31
586.777	10.63
587.115	10.4
587.454	10.32
587.792	10.44
588.13	10.55
588.469	10.48
588.807	10.71
589.145	10.52
589.483	10.56
589.821	10.52
590.159	10.51
590.497	10.52
590.835	10.89
591.173	10.88
591.511	10.46
591.849	10.75
592.187	10.5
592.524	10.82
592.862	10.77
593.2	10.81
593.537	10.81
593.875	11.13
594.212	10.88
594.55	11.06
594.887	11.33
595.224	11.25
595.561	11.03
595.899	11.1
596.236	10.98
596.573	11.13
596.91	11.25
597.247	11.42
597.584	11.21
597.921	11.3
598.258	11.11
598.594	11.19
598.931	11.18
599.268	11.2
599.604	11.22
599.941	11.37
600.277	11.56
600.614	11.5
600.95	11.52
601.287	11.72
601.623	11.6
601.959	11.33
602.296	11.27
602.632	11.61
602.968	11.51
603.304	11.67
603.64	11.67
603.976	11.64
604.312	11.88
604.648	11.67
604.984	11.54
605.319	11.97
605.655	11.69
605.991	11.58
606.326	11.57
606.662	11.67
606.998	12.04
607.333	11.83
607.668	12.14
608.004	12.04
608.339	12.04
608.674	11.95
609.01	11.94
609.345	12.04
609.68	12.11
610.015	12.17
610.35	11.93
610.685	12.26
611.02	12.02
611.355	11.99
611.689	12.27
612.024	12.09
612.359	12.37
612.694	12.29
613.028	12.28
613.363	12.62
613.697	12.58
614.032	12.49
614.366	12.6
614.7	12.09
615.035	12.44
615.369	12.7
615.703	12.62
616.037	12.74
616.371	12.88
616.705	12.84
617.039	12.83
617.373	13.14
617.707	12.67
618.041	12.81
618.375	13.18
618.709	13
619.042	12.88
619.376	12.94
619.71	12.7
620.043	13.02
620.377	13.39
620.71	13.12
621.043	13.42
621.377	13.1
621.71	13.23
622.043	13.25
622.376	13.52
622.709	13.58
623.043	13.06
623.376	13.48
623.709	13.23
624.041	13.28
624.374	13.7
624.707	13.72
625.04	13.5
625.373	13.44
625.705	13.32
626.038	13.72
626.37	13.42
626.703	13.78
627.035	13.71
627.368	14.03
627.7	13.58
628.032	13.49
628.365	14.12
628.697	13.61
629.029	13.8
629.361	13.7
629.693	13.6
630.025	13.86
630.357	14.01
630.689	14.05
631.021	14.27
631.353	13.83
631.684	13.99
632.016	13.95
632.348	14.33
632.679	14.05
633.011	14.53
633.342	13.83
633.674	14.11
634.005	14.55
634.336	14.48
634.668	14.22
634.999	14.41
635.33	14.59
635.661	14.5
635.992	14.54
636.323	14.65
636.654	14.62
636.985	14.62
637.316	14.79
637.647	14.7
637.977	14.63
638.308	14.97
638.639	14.95
638.969	14.73
639.3	14.69
639.63	14.6
639.961	15.24
640.291	14.76
640.622	14.81
640.952	14.51
641.282	15.01
641.612	15.5
641.943	15.22
642.273	15.25
642.603	14.92
642.933	15.11
643.263	15.09
643.592	15.69
643.922	15.59
644.252	15.29
644.582	15.49
644.911	15.44
645.241	15.05
645.571	15.62
645.9	15.09
646.23	15.95
646.559	15.17
646.888	15.98
647.218	15.74
647.547	15.78
647.876	15.96
648.205	15.25
648.534	15.43
648.863	15.76
649.192	16
649.521	15.86
649.85	16.03
650.179	15.66
650.508	15.96
650.837	15.87
651.165	15.96
651.494	16.29
651.822	15.94
652.151	16.28
652.479	15.83
652.808	16.11
653.136	16.16
653.465	15.79
653.793	16.06
654.121	16.48
654.449	16.56
654.777	16.59
655.105	16.29
655.433	15.49
655.761	16.8
656.089	16.45
656.417	16.47
656.745	16.86
657.073	16.32
657.4	16.74
657.728	16.72
658.056	16.27
658.383	16.59
658.711	16.93
659.038	17.01
659.365	17.05
659.693	16.73
660.02	16.75
660.347	16.89
660.674	16.84
661.001	16.58
661.329	16.94
661.656	17.13
661.982	16.92
662.309	17.4
662.636	17.17
662.963	17.44
663.29	17.22
663.616	17.69
663.943	17.31
664.27	18.1
664.596	17.7
664.923	17.29
665.249	17.62
665.576	17.42
665.902	16.6
666.228	17.8
666.554	17.68
666.881	18
667.207	18.01
667.533	17.82
667.859	17.69
668.185	17.31
668.511	17.65
668.837	17.73
669.162	17.56
669.488	17.58
669.814	17.49
670.139	18.03
670.465	17.95
670.791	18.02
671.116	18.19
671.442	18.6
671.767	17.65
672.092	18.21
672.418	18.16
672.743	18.35
673.068	18.38
673.393	18.47
673.718	18.64
674.043	18.55
674.368	19.25
674.693	18.3
675.018	19.55
675.343	18.32
675.667	18.44
675.992	19.01
676.317	17.93
676.641	18.06
676.966	18.42
677.29	18.29
677.615	19.49
677.939	19.38
678.264	19.31
678.588	18.58
678.912	18.27
679.236	18.81
679.56	19.04
679.885	19.34
680.209	19.22
680.532	19.39
680.856	19.27
681.18	19.28
681.504	19.09
681.828	18.72
682.152	19.17
682.475	19.52
682.799	19.13
683.122	19.58
683.446	19.76
683.769	19.63
684.093	19.94
684.416	19.54
684.739	19.67
685.062	19.47
685.386	20.59
685.709	19.44
