Data from 23-2_forehead_Reflection__4__14.txt Node

Date: Thu Feb 29 21:57:31 CST 2024
User: ToomeyLab
Spectrometer: FLMS14357
Trigger mode: 0
Integration Time (sec): 1.000000E-2
Scans to average: 100
Electric dark correction enabled: true
Nonlinearity correction enabled: false
Boxcar width: 0
XAxis mode: Wavelengths
Number of Pixels in Spectrum: 2048
>>>>>Begin Spectral Data<<<<<
189.047	81.57
189.435	81.57
189.823	81.57
190.211	-8.13
190.599	-361.52
190.987	243.38
191.375	-412.93
191.763	1760.64
192.151	210.82
192.538	141.25
192.926	196.69
193.314	22.88
193.702	468.12
194.089	1318.84
194.477	476.23
194.864	-491.18
195.252	42.58
195.639	45.87
196.027	-1752.47
196.414	72.35
196.801	-14.21
197.189	71.81
197.576	-58.23
197.963	-87.39
198.351	-83.23
198.738	19.71
199.125	1.24
199.512	93.91
199.899	-30.28
200.286	-6.71
200.673	47.59
201.06	-5.64
201.447	6.42
201.833	58.43
202.22	25.85
202.607	-42.25
202.994	-115.09
203.38	-82.7
203.767	-0.73
204.154	18.35
204.54	43.39
204.927	1.29
205.313	31.57
205.699	-1.11
206.086	10.86
206.472	49.53
206.858	-0.68
207.245	4.43
207.631	61.05
208.017	18.4
208.403	-43.64
208.789	20.14
209.175	-35.26
209.561	45.85
209.947	26.4
210.333	1.21
210.719	24.09
211.105	12.8
211.491	-18.89
211.876	3.9
212.262	36.68
212.648	-9.06
213.034	32.04
213.419	16.89
213.805	-23.74
214.19	20.98
214.576	22.62
214.961	50.43
215.346	2.3
215.732	-12.82
216.117	-9.08
216.502	5.54
216.888	-14.81
217.273	26.32
217.658	17.98
218.043	-4.23
218.428	2.59
218.813	14.5
219.198	15.27
219.583	3.43
219.968	18.49
220.353	-1.1
220.738	24.15
221.122	12.11
221.507	21.47
221.892	13.4
222.276	22.03
222.661	3.71
223.046	16.09
223.43	9.41
223.815	0.88
224.199	2.75
224.583	6.21
224.968	17.92
225.352	16.64
225.736	9.76
226.121	13.14
226.505	18.68
226.889	5.59
227.273	1.78
227.657	-1.06
228.041	5.61
228.425	5.31
228.809	8.82
229.193	-0.88
229.577	4.4
229.961	3.61
230.344	2.54
230.728	4.02
231.112	5.27
231.495	3.82
231.879	4.57
232.263	3.29
232.646	4.81
233.03	3.45
233.413	2.49
233.797	4.22
234.18	1.85
234.563	4.02
234.946	2.61
235.33	3.3
235.713	4.81
236.096	4.86
236.479	5.43
236.862	5.54
237.245	3.22
237.628	1.84
238.011	6.61
238.394	3.36
238.777	4.74
239.16	5.82
239.543	5.3
239.925	3.85
240.308	6.81
240.691	5.1
241.073	3.51
241.456	5.27
241.838	5.13
242.221	5.59
242.603	5.05
242.986	5.38
243.368	4.58
243.75	4.91
244.133	4.42
244.515	5.12
244.897	5.45
245.279	4.94
245.661	4.27
246.043	3.36
246.425	6.29
246.807	5.61
247.189	4.78
247.571	4.87
247.953	5.24
248.335	4.41
248.717	5.07
249.098	5.28
249.48	5.44
249.862	5.51
250.243	5.15
250.625	4.81
251.006	5.29
251.388	5.82
251.769	4.77
252.151	6.76
252.532	5.12
252.913	4.97
253.295	5.53
253.676	5.03
254.057	5.09
254.438	6.09
254.819	6.23
255.2	3.91
255.581	4.71
255.962	5.83
256.343	6.15
256.724	6.15
257.105	5.35
257.486	4.86
257.867	5.49
258.247	6.73
258.628	4.52
259.009	4.64
259.389	4.74
259.77	5.66
260.15	5.93
260.531	5.64
260.911	5.23
261.292	5.1
261.672	5.28
262.052	5.25
262.432	5.12
262.813	5.08
263.193	5.18
263.573	5.41
263.953	5.31
264.333	5.58
264.713	5.31
265.093	6.27
265.473	4.89
265.853	4.96
266.233	4.57
266.612	5.22
266.992	5.31
267.372	4.65
267.752	4.74
268.131	5.38
268.511	5.13
268.89	5.83
269.27	5.36
269.649	4.45
270.029	5.24
270.408	4.75
270.787	5.04
271.167	5.72
271.546	5.94
271.925	4.9
272.304	5.09
272.683	5.26
273.062	4.61
273.441	4.9
273.82	4.92
274.199	5.17
274.578	4.78
274.957	4.96
275.336	5.64
275.715	5.64
276.093	5.01
276.472	5.67
276.851	4.86
277.229	5.47
277.608	5.1
277.986	4.42
278.365	4.9
278.743	4.74
279.122	4.68
279.5	5.51
279.878	5.13
280.257	5.07
280.635	4.58
281.013	4.62
281.391	4.58
281.769	5.48
282.147	5.08
282.525	5.17
282.903	4.65
283.281	5.04
283.659	5.33
284.037	4.98
284.415	4.65
284.792	4.68
285.17	3.98
285.548	5.26
285.925	5.04
286.303	4.78
286.68	4.61
287.058	5.27
287.435	4.82
287.813	4.85
288.19	4.81
288.567	5.1
288.945	4.95
289.322	5.27
289.699	4.84
290.076	5.36
290.453	5.16
290.83	5.36
291.207	5.31
291.584	5.59
291.961	5.54
292.338	5.7
292.715	5.15
293.092	5.62
293.469	6.15
293.845	5.96
294.222	5.41
294.599	5.62
294.975	6.31
295.352	6.01
295.728	6.43
296.105	6.35
296.481	6.11
296.858	6.16
297.234	5.96
297.61	6.28
297.986	6.72
298.363	6.36
298.739	6.59
299.115	6.94
299.491	6.27
299.867	6.87
300.243	6.94
300.619	6.25
300.995	7.11
301.371	7.25
301.746	6.95
302.122	7.35
302.498	7.61
302.874	7.46
303.249	7.18
303.625	7.79
304	7.77
304.376	8.08
304.751	7.3
305.127	7.41
305.502	7.34
305.878	8.08
306.253	7.31
306.628	7.84
307.003	7.83
307.378	8.83
307.754	8.83
308.129	8.28
308.504	8.53
308.879	7.62
309.254	8.49
309.629	8.51
310.003	8.43
310.378	8.11
310.753	8.93
311.128	9.09
311.502	8.7
311.877	8.96
312.252	8.85
312.626	9.06
313.001	9.47
313.375	9.78
313.75	9.58
314.124	9.8
314.498	9.58
314.873	9.37
315.247	9.72
315.621	10.54
315.995	10.13
316.369	10.33
316.743	9.91
317.117	10.22
317.491	10.18
317.865	10.32
318.239	10.31
318.613	10.32
318.987	10.64
319.361	9.73
319.734	11.6
320.108	11.13
320.482	11.04
320.855	10.96
321.229	11.02
321.602	11.07
321.976	11.12
322.349	10.95
322.723	11.53
323.096	11.27
323.469	11.17
323.843	11.2
324.216	10.93
324.589	10.98
324.962	11.12
325.335	11.33
325.708	12.43
326.081	11.17
326.454	11.58
326.827	12
327.2	12.25
327.573	11.89
327.945	12.56
328.318	11.68
328.691	11.88
329.063	11.97
329.436	11.95
329.809	12.08
330.181	12.55
330.553	12.14
330.926	12.7
331.298	12.69
331.671	12.27
332.043	12.55
332.415	12.21
332.787	12.45
333.159	12.84
333.532	12.28
333.904	12.18
334.276	13.14
334.648	12.7
335.02	12.72
335.391	12.67
335.763	13.15
336.135	12.3
336.507	12.71
336.879	13.87
337.25	13.39
337.622	13.32
337.993	13.2
338.365	13.16
338.736	12.68
339.108	13.68
339.479	13.42
339.851	13.56
340.222	13.32
340.593	13.48
340.964	13.96
341.336	13.51
341.707	14.12
342.078	13.24
342.449	13.7
342.82	14.04
343.191	13.72
343.562	13.81
343.933	13.78
344.303	14.2
344.674	14.18
345.045	14.21
345.416	13.78
345.786	14.27
346.157	13.94
346.527	14.39
346.898	14.5
347.268	14.31
347.639	14.39
348.009	14.55
348.38	14.71
348.75	14.92
349.12	14.78
349.49	14.04
349.861	14.22
350.231	14.47
350.601	14.64
350.971	14.7
351.341	14.78
351.711	14.9
352.081	14.84
352.45	14.9
352.82	14.53
353.19	14.65
353.56	15.37
353.929	15.44
354.299	15.1
354.669	15.04
355.038	15.02
355.408	15.36
355.777	15.32
356.147	15.18
356.516	15.35
356.885	15.28
357.254	15.44
357.624	15.28
357.993	15.77
358.362	15.37
358.731	15.5
359.1	15.98
359.469	15.98
359.838	15.72
360.207	15.62
360.576	15.87
360.945	15.38
361.314	15.96
361.682	15.76
362.051	15.84
362.42	16.06
362.788	15.75
363.157	15.64
363.525	15.8
363.894	15.97
364.262	15.86
364.631	16.1
364.999	15.87
365.367	16.34
365.735	16.14
366.104	16.52
366.472	16.11
366.84	16.55
367.208	16.13
367.576	15.89
367.944	16.35
368.312	16.6
368.68	16.55
369.048	16.55
369.416	16.7
369.783	16.52
370.151	16.84
370.519	17.12
370.886	16.68
371.254	17.21
371.621	16.84
371.989	16.98
372.356	16.84
372.724	17.11
373.091	16.82
373.458	17.17
373.826	17.29
374.193	16.96
374.56	17.17
374.927	17.3
375.294	17.05
375.661	17.49
376.028	17.39
376.395	17.36
376.762	17.95
377.129	17.34
377.496	17.74
377.863	17.64
378.229	17.47
378.596	17.43
378.963	17.83
379.329	17.69
379.696	17.48
380.062	17.93
380.429	17.7
380.795	18.12
381.161	18.11
381.528	17.57
381.894	17.55
382.26	17.52
382.626	17.89
382.993	17.83
383.359	17.98
383.725	17.93
384.091	17.87
384.457	17.93
384.823	17.87
385.188	18.28
385.554	17.77
385.92	18.31
386.286	17.9
386.651	18.09
387.017	18.11
387.383	18.26
387.748	18.2
388.114	17.99
388.479	18.37
388.845	18.13
389.21	18.42
389.575	18.52
389.94	18.11
390.306	18.67
390.671	18.55
391.036	18.53
391.401	18.35
391.766	18.53
392.131	18.46
392.496	18.4
392.861	18.73
393.226	18.87
393.591	18.78
393.956	18.82
394.32	18.84
394.685	18.74
395.05	18.92
395.414	18.87
395.779	18.73
396.143	18.83
396.508	18.85
396.872	18.79
397.236	19.03
397.601	19.09
397.965	19.33
398.329	19.01
398.694	19.21
399.058	19.23
399.422	19.36
399.786	19.2
400.15	19.02
400.514	19.16
400.878	19.16
401.242	18.69
401.605	19.06
401.969	19.43
402.333	19.17
402.697	19.38
403.06	19.66
403.424	19.61
403.787	19.23
404.151	19.58
404.514	19.27
404.878	19.28
405.241	19.61
405.604	19.26
405.968	19.51
406.331	19.37
406.694	19.77
407.057	19.73
407.42	19.71
407.783	19.4
408.146	19.75
408.509	19.82
408.872	20
409.235	19.54
409.598	19.82
409.961	19.8
410.323	19.86
410.686	19.74
411.049	19.7
411.411	19.86
411.774	19.91
412.136	20
412.499	20.05
412.861	20.16
413.223	19.9
413.586	20.08
413.948	20.08
414.31	20.14
414.672	19.91
415.035	20.19
415.397	20.18
415.759	20.34
416.121	20.32
416.483	20.35
416.845	20.1
417.206	20.28
417.568	20.21
417.93	20.16
418.292	20.45
418.653	20.43
419.015	20.23
419.377	20.4
419.738	20.31
420.1	20.44
420.461	20.33
420.822	20.41
421.184	20.44
421.545	20.57
421.906	20.51
422.267	20.51
422.629	20.53
422.99	20.42
423.351	20.52
423.712	20.49
424.073	20.56
424.434	20.62
424.795	20.64
425.155	20.78
425.516	20.8
425.877	20.71
426.238	20.6
426.598	20.74
426.959	21.03
427.32	20.93
427.68	20.9
428.041	21.18
428.401	21.26
428.761	21.26
429.122	21.35
429.482	21.6
429.842	21.69
430.202	21.69
430.563	21.48
430.923	21.81
431.283	21.44
431.643	21.58
432.003	22.01
432.363	21.86
432.722	21.9
433.082	21.78
433.442	21.96
433.802	22.1
434.161	22.14
434.521	21.79
434.881	21.86
435.24	22.13
435.6	21.95
435.959	22.17
436.319	22.14
436.678	22
437.037	22.19
437.396	22.04
437.756	22.45
438.115	22.26
438.474	22.3
438.833	22.49
439.192	22.45
439.551	22.22
439.91	22.4
440.269	22.44
440.628	22.47
440.987	22.39
441.345	22.34
441.704	22.34
442.063	22.49
442.421	22.49
442.78	22.45
443.138	22.43
443.497	22.64
443.855	22.73
444.214	22.73
444.572	22.9
444.93	22.65
445.288	22.95
445.647	22.84
446.005	23.01
446.363	22.79
446.721	22.89
447.079	22.69
447.437	22.96
447.795	22.87
448.153	22.79
448.51	23.06
448.868	22.84
449.226	23.02
449.584	23
449.941	23.13
450.299	23.38
450.656	23.2
451.014	23.26
451.371	23.44
451.729	23.55
452.086	23.64
452.443	23.62
452.801	23.75
453.158	23.64
453.515	23.97
453.872	23.58
454.229	23.55
454.586	23.51
454.943	23.74
455.3	23.69
455.657	23.96
456.014	24.04
456.371	23.8
456.727	24.15
457.084	24.09
457.441	24.24
457.797	24.1
458.154	24.13
458.51	24.25
458.867	24.37
459.223	24.18
459.58	24.41
459.936	24.2
460.292	24.15
460.648	24.08
461.005	24.07
461.361	23.82
461.717	23.93
462.073	23.92
462.429	24.25
462.785	24.18
463.141	24.5
463.496	24.49
463.852	24.64
464.208	24.73
464.564	24.85
464.919	24.91
465.275	24.9
465.631	24.7
465.986	25.01
466.342	24.75
466.697	24.96
467.052	24.96
467.408	24.99
467.763	25.04
468.118	25
468.473	24.95
468.829	25.03
469.184	25.32
469.539	25.2
469.894	25.2
470.249	25.3
470.603	25.37
470.958	25.57
471.313	25.29
471.668	25.11
472.023	25.41
472.377	25.29
472.732	25.63
473.086	25.6
473.441	25.26
473.795	25.51
474.15	25.31
474.504	25.72
474.859	25.6
475.213	25.58
475.567	25.71
475.921	25.76
476.275	25.85
476.63	25.82
476.984	25.79
477.338	25.7
477.692	25.77
478.045	25.78
478.399	25.66
478.753	25.76
479.107	25.92
479.461	25.86
479.814	25.74
480.168	25.9
480.521	25.72
480.875	25.97
481.228	25.88
481.582	26.3
481.935	26.2
482.289	26.01
482.642	26.03
482.995	25.95
483.348	25.99
483.701	25.72
484.055	25.63
484.408	25.63
484.761	25.33
485.114	25
485.466	24.84
485.819	25
486.172	25.17
486.525	25.33
486.878	25.41
487.23	25.54
487.583	25.72
487.936	25.74
488.288	25.62
488.641	25.48
488.993	25.56
489.345	25.54
489.698	25.47
490.05	25.64
490.402	25.73
490.754	25.89
491.107	26.13
491.459	26.14
491.811	26.31
492.163	26.33
492.515	26.26
492.866	26.01
493.218	25.84
493.57	25.85
493.922	26.09
494.274	26.13
494.625	26.38
494.977	26.7
495.328	26.91
495.68	26.99
496.031	27.15
496.383	27.1
496.734	27.13
497.086	26.95
497.437	27.27
497.788	27.21
498.139	27.16
498.49	27.05
498.842	27.11
499.193	27.15
499.544	27.28
499.894	27.18
500.245	27.46
500.596	27.19
500.947	27.32
501.298	27.55
501.648	27.58
501.999	27.65
502.35	27.9
502.7	27.76
503.051	27.89
503.401	27.58
503.752	27.83
504.102	27.91
504.452	27.81
504.803	27.89
505.153	27.83
505.503	27.96
505.853	27.83
506.203	27.91
506.553	27.95
506.903	27.94
507.253	28.11
507.603	28.14
507.953	28.03
508.303	28.23
508.652	28.31
509.002	28.31
509.352	28.23
509.701	28.16
510.051	28.05
510.4	28.19
510.75	28.17
511.099	28.22
511.449	28.12
511.798	28.2
512.147	28.31
512.496	28.35
512.846	28.14
513.195	28.3
513.544	28.36
513.893	28.26
514.242	28.25
514.591	28.46
514.939	28.31
515.288	28.56
515.637	28.66
515.986	28.69
516.334	28.56
516.683	28.65
517.032	28.91
517.38	28.82
517.729	28.63
518.077	28.89
518.426	28.84
518.774	28.77
519.122	28.68
519.47	28.45
519.819	28.48
520.167	28.39
520.515	28.42
520.863	28.47
521.211	28.57
521.559	28.73
521.907	28.79
522.255	28.77
522.602	28.83
522.95	28.78
523.298	28.83
523.645	29.12
523.993	29.27
524.341	29.08
524.688	29.29
525.036	29.13
525.383	29.28
525.73	29.28
526.078	29.3
526.425	29.37
526.772	29.25
527.119	28.83
527.466	28.88
527.814	28.94
528.161	29.03
528.508	28.95
528.854	28.92
529.201	28.95
529.548	28.57
529.895	28.46
530.242	28.17
530.588	28.48
530.935	28.56
531.282	28.63
531.628	28.73
531.975	28.93
532.321	29
532.667	29.2
533.014	29.34
533.36	29.18
533.706	29.38
534.052	29.41
534.399	29.11
534.745	29.12
535.091	28.95
535.437	29.15
535.783	29.14
536.129	29.37
536.474	29.59
536.82	29.6
537.166	29.63
537.512	29.7
537.857	29.7
538.203	29.68
538.549	29.49
538.894	29.71
539.239	29.77
539.585	29.95
539.93	29.98
540.276	30.33
540.621	30.13
540.966	30.35
541.311	30.29
541.656	30.26
542.001	30.07
542.346	29.69
542.691	29.56
543.036	29.48
543.381	29.53
543.726	29.75
544.071	29.76
544.415	29.93
544.76	29.91
545.105	30.13
545.449	30.11
545.794	30.31
546.138	30.55
546.483	30.5
546.827	30.6
547.171	30.68
547.516	30.71
547.86	30.72
548.204	30.59
548.548	30.56
548.892	30.58
549.236	30.61
549.58	30.95
549.924	30.87
550.268	31.12
550.612	31.34
550.956	31.43
551.3	31.42
551.643	31.16
551.987	31.49
552.33	31.55
552.674	31.4
553.017	31.31
553.361	31.44
553.704	31.82
554.048	31.51
554.391	31.46
554.734	31.41
555.077	31.72
555.42	31.81
555.764	31.82
556.107	31.84
556.45	31.81
556.793	31.8
557.135	31.89
557.478	31.82
557.821	32.04
558.164	32.09
558.507	32.1
558.849	32.19
559.192	32.07
559.534	32.08
559.877	32.07
560.219	32.06
560.562	32.02
560.904	32.09
561.246	32.33
561.589	32.35
561.931	32.14
562.273	32.24
562.615	32.24
562.957	32.14
563.299	32.34
563.641	32.51
563.983	32.27
564.325	32.13
564.667	32.48
565.008	32.38
565.35	32.59
565.692	32.78
566.033	32.57
566.375	32.6
566.716	32.6
567.058	32.52
567.399	32.64
567.741	32.33
568.082	32.37
568.423	32.47
568.764	32.55
569.105	32.58
569.447	32.89
569.788	32.69
570.129	32.66
570.47	32.88
570.811	32.6
571.151	32.8
571.492	33.03
571.833	32.84
572.174	32.82
572.514	32.74
572.855	32.95
573.195	32.98
573.536	32.76
573.876	32.87
574.217	32.77
574.557	32.8
574.898	33.01
575.238	33.01
575.578	32.95
575.918	33.1
576.258	32.82
576.598	32.97
576.938	33.1
577.278	32.96
577.618	33.15
577.958	33.11
578.298	33.19
578.638	33.3
578.977	33.42
579.317	33.39
579.657	33.26
579.996	33.5
580.336	33.86
580.675	33.79
581.014	33.91
581.354	33.67
581.693	33.84
582.032	33.73
582.372	33.79
582.711	34.01
583.05	33.82
583.389	34.07
583.728	33.98
584.067	33.91
584.406	33.96
584.745	33.96
585.083	33.96
585.422	34.35
585.761	34
586.1	34.09
586.438	34.45
586.777	34.24
587.115	34.42
587.454	34.03
587.792	34.21
588.13	34.53
588.469	34.02
588.807	34.14
589.145	34.37
589.483	34.45
589.821	34.28
590.159	34.45
590.497	34.27
590.835	34.3
591.173	34.37
591.511	34.34
591.849	34.58
592.187	34.54
592.524	34.61
592.862	34.48
593.2	34.53
593.537	34.52
593.875	34.44
594.212	34.65
594.55	34.74
594.887	34.95
595.224	34.87
595.561	34.74
595.899	34.71
596.236	34.67
596.573	34.64
596.91	34.8
597.247	35.06
597.584	34.59
597.921	34.36
598.258	34.34
598.594	34.48
598.931	34.45
599.268	34.37
599.604	34.63
599.941	34.67
600.277	34.87
600.614	34.93
600.95	35.1
601.287	35.27
601.623	35.58
601.959	35.19
602.296	34.9
602.632	35.04
602.968	34.92
603.304	35.12
603.64	35.44
603.976	35.29
604.312	35.24
604.648	35.07
604.984	35.09
605.319	34.97
605.655	35.04
605.991	34.78
606.326	34.67
606.662	34.89
606.998	35
607.333	35.14
607.668	35.24
608.004	35.45
608.339	35.34
608.674	35.33
609.01	35.43
609.345	35.43
609.68	36.01
610.015	35.71
610.35	35.62
610.685	35.55
611.02	35.69
611.355	35.21
611.689	35.25
612.024	35.73
612.359	35.42
612.694	35.68
613.028	35.46
613.363	35.79
613.697	35.41
614.032	36.1
614.366	36.19
614.7	35.9
615.035	35.78
615.369	35.84
615.703	36.3
616.037	36.32
616.371	36.53
616.705	36.08
617.039	36.1
617.373	36.28
617.707	35.89
618.041	35.83
618.375	36.32
618.709	36.24
619.042	36.11
619.376	36.3
619.71	36.06
620.043	36.22
620.377	36.68
620.71	36.29
621.043	36.46
621.377	36.49
621.71	36.24
622.043	36.61
622.376	36.76
622.709	36.65
623.043	36.61
623.376	36.68
623.709	36.71
624.041	36.75
624.374	36.54
624.707	36.43
625.04	36.69
625.373	36.69
625.705	36.58
626.038	36.85
626.37	36.16
626.703	37.08
627.035	36.52
627.368	36.83
627.7	36.67
628.032	36.44
628.365	36.88
628.697	36.56
629.029	36.56
629.361	36.47
629.693	36.39
630.025	36.67
630.357	37.01
630.689	36.67
631.021	36.9
631.353	37
631.684	36.78
632.016	36.92
632.348	37.02
632.679	37.4
633.011	37.41
633.342	36.9
633.674	36.86
634.005	37.22
634.336	36.88
634.668	37.45
634.999	36.57
635.33	37.33
635.661	37.33
635.992	37.31
636.323	37.52
636.654	37.2
636.985	37.36
637.316	37.1
637.647	37.53
637.977	37.28
638.308	37.32
638.639	37.18
638.969	37.76
639.3	37.47
639.63	37.94
639.961	37.97
640.291	37.86
640.622	37.7
640.952	37.06
641.282	37.69
641.612	37.11
641.943	37.65
642.273	37.27
642.603	37.96
642.933	37.61
643.263	37.76
643.592	37.83
643.922	37.98
644.252	37.67
644.582	37.76
644.911	37.99
645.241	37.78
645.571	38.16
645.9	37.64
646.23	38.19
646.559	37.98
646.888	37.61
647.218	38.17
647.547	37.47
647.876	37.94
648.205	38.5
648.534	37.62
648.863	37.72
649.192	38.16
649.521	38.34
649.85	38.59
650.179	37.72
650.508	38.25
650.837	38.15
651.165	38.57
651.494	38.72
651.822	37.55
652.151	38.5
652.479	38.13
652.808	38.02
653.136	38.06
653.465	38.02
653.793	38.66
654.121	37.85
654.449	38.38
654.777	38.41
655.105	37.84
655.433	38.4
655.761	38.7
656.089	37.96
656.417	38.67
656.745	38.3
657.073	38.2
657.4	39.32
657.728	38.53
658.056	38.96
658.383	38.55
658.711	38.44
659.038	38.66
659.365	38.77
659.693	38.46
660.02	38.51
660.347	38.4
660.674	38.51
661.001	38.17
661.329	38.43
661.656	38.46
661.982	38.76
662.309	38.91
662.636	38.62
662.963	38.78
663.29	38.96
663.616	39.08
663.943	38.73
664.27	38.79
664.596	38.71
664.923	38.68
665.249	38.89
665.576	39.12
665.902	39.07
666.228	38.49
666.554	38.9
666.881	39.34
667.207	39.45
667.533	39.5
667.859	39.55
668.185	39.18
668.511	38.58
668.837	39.04
669.162	38.97
