Data from 23-2_chest_Reflection__0__00.txt Node

Date: Thu Feb 29 21:51:58 CST 2024
User: ToomeyLab
Spectrometer: FLMS14357
Trigger mode: 0
Integration Time (sec): 1.000000E-2
Scans to average: 100
Electric dark correction enabled: true
Nonlinearity correction enabled: false
Boxcar width: 0
XAxis mode: Wavelengths
Number of Pixels in Spectrum: 2048
>>>>>Begin Spectral Data<<<<<
189.047	-18.12
189.435	-18.12
189.823	-18.12
190.211	3.93
190.599	346.16
190.987	110
191.375	188.93
191.763	1779.79
192.151	91.03
192.538	9.36
192.926	201.46
193.314	4.6
193.702	158.62
194.089	165.81
194.477	87.7
194.864	-67.25
195.252	31.61
195.639	-191.26
196.027	863.58
196.414	82.88
196.801	24.83
197.189	80.51
197.576	49.5
197.963	84.69
198.351	20.25
198.738	-11.17
199.125	18.73
199.512	32.5
199.899	5.49
200.286	-26.67
200.673	25.2
201.06	22.87
201.447	-7.57
201.833	45.22
202.22	-19.91
202.607	-125.34
202.994	-129.16
203.38	55.36
203.767	21.61
204.154	20.16
204.54	48.57
204.927	4.47
205.313	38.81
205.699	5.38
206.086	-0.86
206.472	0.36
206.858	25.08
207.245	26.02
207.631	57.7
208.017	24.57
208.403	-6.92
208.789	13.16
209.175	-13.8
209.561	29.82
209.947	13.77
210.333	16.58
210.719	32.35
211.105	21.39
211.491	-32.85
211.876	14.16
212.262	46.83
212.648	-4.05
213.034	21.1
213.419	22.7
213.805	39.77
214.19	5.73
214.576	3.27
214.961	1.38
215.346	8.82
215.732	34.37
216.117	-18.97
216.502	23.21
216.888	-35.45
217.273	5.3
217.658	2.91
218.043	3.35
218.428	23.73
218.813	4.34
219.198	17.43
219.583	-15.99
219.968	0.11
220.353	4.68
220.738	5.73
221.122	-9
221.507	19.09
221.892	-3.02
222.276	29.39
222.661	23.99
223.046	12.97
223.43	-5.21
223.815	8.29
224.199	-6.31
224.583	1.61
224.968	10.23
225.352	13.19
225.736	6.46
226.121	11.82
226.505	12.2
226.889	8.85
227.273	3.32
227.657	-4.23
228.041	7.09
228.425	6.2
228.809	7.36
229.193	3.66
229.577	6.11
229.961	3.36
230.344	4.37
230.728	5.67
231.112	6.13
231.495	4.42
231.879	5.7
232.263	3.29
232.646	4.47
233.03	5.29
233.413	5.89
233.797	5.68
234.18	3.48
234.563	3
234.946	4.34
235.33	6.1
235.713	5
236.096	5.57
236.479	6.37
236.862	4.66
237.245	5.15
237.628	5.74
238.011	6.37
238.394	1.93
238.777	3.24
239.16	3.47
239.543	6.73
239.925	5.33
240.308	6.12
240.691	6.52
241.073	5.41
241.456	5.24
241.838	5.53
242.221	5.31
242.603	4.23
242.986	5.39
243.368	4.88
243.75	5.18
244.133	5.14
244.515	4.94
244.897	5.19
245.279	5.33
245.661	4.88
246.043	4.58
246.425	6.84
246.807	6.46
247.189	5
247.571	5.36
247.953	5.31
248.335	5.18
248.717	5.21
249.098	5.16
249.48	5.13
249.862	5.29
250.243	5.19
250.625	4.88
251.006	5.64
251.388	5.39
251.769	5.28
252.151	6.57
252.532	5.35
252.913	5.18
253.295	5.27
253.676	5.11
254.057	4.92
254.438	5.92
254.819	5.49
255.2	3.92
255.581	5.18
255.962	5.09
256.343	5.98
256.724	6.31
257.105	4.89
257.486	4.71
257.867	5.78
258.247	5.6
258.628	4.54
259.009	5.01
259.389	4.12
259.77	5.58
260.15	6.02
260.531	5.26
260.911	5.08
261.292	4.86
261.672	5.05
262.052	4.89
262.432	4.86
262.813	4.74
263.193	4.49
263.573	4.87
263.953	4.57
264.333	4.7
264.713	4.52
265.093	5.24
265.473	4.55
265.853	5.46
266.233	5.26
266.612	4.73
266.992	5.11
267.372	4.33
267.752	4.23
268.131	4.54
268.511	4.69
268.89	5.04
269.27	5.3
269.649	4.78
270.029	4.49
270.408	4.61
270.787	4.9
271.167	4.74
271.546	5.92
271.925	4.98
272.304	5.46
272.683	5.1
273.062	4.31
273.441	4.86
273.82	5.11
274.199	4.76
274.578	4.74
274.957	4.73
275.336	5.26
275.715	5.14
276.093	4.87
276.472	5.12
276.851	4.29
277.229	4.88
277.608	4.95
277.986	4.45
278.365	4.73
278.743	4.42
279.122	4.15
279.5	4.21
279.878	4.16
280.257	4.86
280.635	4.16
281.013	5.4
281.391	4.7
281.769	4.61
282.147	4.89
282.525	4.93
282.903	4.58
283.281	4.25
283.659	4.79
284.037	4.59
284.415	3.99
284.792	4.24
285.17	4.35
285.548	4.74
285.925	4.23
286.303	4.81
286.68	3.67
287.058	5.16
287.435	4.29
287.813	4.47
288.19	4.48
288.567	4.46
288.945	4.79
289.322	4.66
289.699	4.62
290.076	4.62
290.453	4.05
290.83	4.36
291.207	4.43
291.584	4.89
291.961	4.78
292.338	5.08
292.715	4.9
293.092	4.81
293.469	4.72
293.845	4.48
294.222	4.47
294.599	4.45
294.975	4.77
295.352	4.88
295.728	4.97
296.105	4.82
296.481	4.57
296.858	4.68
297.234	4.39
297.61	5.13
297.986	4.71
298.363	4.66
298.739	4.48
299.115	5.1
299.491	4.67
299.867	5.11
300.243	4.77
300.619	4.82
300.995	5.08
301.371	5.22
301.746	5.03
302.122	5.21
302.498	5.53
302.874	5.06
303.249	4.55
303.625	5.05
304	5.18
304.376	5.12
304.751	5.01
305.127	5.05
305.502	5.19
305.878	4.92
306.253	4.23
306.628	4.84
307.003	4.55
307.378	5.2
307.754	5.76
308.129	5.45
308.504	4.82
308.879	5.22
309.254	4.97
309.629	5.07
310.003	5.15
310.378	4.54
310.753	4.68
311.128	5.17
311.502	5.39
311.877	5.06
312.252	5.55
312.626	5.25
313.001	4.86
313.375	5.24
313.75	5.15
314.124	5.33
314.498	5.28
314.873	5.19
315.247	4.7
315.621	5.83
315.995	5.54
316.369	5.12
316.743	5.12
317.117	5.7
317.491	4.97
317.865	5.16
318.239	5.77
318.613	5.25
318.987	6.57
319.361	5.19
319.734	5.56
320.108	5.51
320.482	5.26
320.855	5.27
321.229	5.19
321.602	6.12
321.976	5.25
322.349	4.97
322.723	5.53
323.096	5.26
323.469	5.03
323.843	5.17
324.216	5.48
324.589	4.74
324.962	4.92
325.335	4.92
325.708	5.54
326.081	4.72
326.454	4.92
326.827	4.97
327.2	5.18
327.573	5.33
327.945	5.82
328.318	5.05
328.691	5.16
329.063	5.25
329.436	5.4
329.809	5.3
330.181	5.72
330.553	5.48
330.926	5.31
331.298	5.38
331.671	5.33
332.043	5.63
332.415	5.49
332.787	5.24
333.159	5.78
333.532	5.84
333.904	5.15
334.276	5.73
334.648	5.59
335.02	5.22
335.391	5.34
335.763	5.12
336.135	5.06
336.507	4.84
336.879	5.54
337.25	5.22
337.622	5.1
337.993	5.78
338.365	5.35
338.736	5.57
339.108	5.48
339.479	5.6
339.851	5.56
340.222	5.57
340.593	5.23
340.964	5.42
341.336	4.71
341.707	5.13
342.078	4.8
342.449	5.65
342.82	5.27
343.191	5.24
343.562	5.41
343.933	5.34
344.303	5.66
344.674	5.34
345.045	5.49
345.416	4.99
345.786	5.59
346.157	5.4
346.527	5.67
346.898	6.07
347.268	5.46
347.639	5.07
348.009	5.44
348.38	5.46
348.75	5.63
349.12	5.02
349.49	5.37
349.861	5.4
350.231	5.46
350.601	5.74
350.971	5.23
351.341	4.85
351.711	5.77
352.081	5.53
352.45	5.11
352.82	4.78
353.19	5.48
353.56	5.04
353.929	5.37
354.299	5.05
354.669	5.7
355.038	5.4
355.408	5.51
355.777	5.44
356.147	5.37
356.516	5.35
356.885	5.13
357.254	5.37
357.624	5.45
357.993	5.27
358.362	5.17
358.731	5.65
359.1	6.12
359.469	5.8
359.838	5.22
360.207	5.31
360.576	5.34
360.945	5.3
361.314	5.19
361.682	5.02
362.051	5.58
362.42	5.49
362.788	5.36
363.157	5.37
363.525	5.11
363.894	5.46
364.262	5.3
364.631	5.53
364.999	5.07
365.367	5.52
365.735	5.29
366.104	5.63
366.472	5.09
366.84	5.73
367.208	5.3
367.576	4.9
367.944	4.98
368.312	5.49
368.68	5.35
369.048	5.42
369.416	5.4
369.783	5.35
370.151	5.7
370.519	5.77
370.886	5.34
371.254	5.71
371.621	5.31
371.989	5.16
372.356	5.34
372.724	5.85
373.091	5.48
373.458	5.72
373.826	5.65
374.193	5.37
374.56	5.69
374.927	5.65
375.294	5.25
375.661	5.5
376.028	5.71
376.395	5.54
376.762	5.34
377.129	5.57
377.496	5.28
377.863	5.59
378.229	5.34
378.596	5.57
378.963	5.43
379.329	5.46
379.696	5.5
380.062	5.4
380.429	5.51
380.795	5.81
381.161	5.83
381.528	5.67
381.894	5.32
382.26	5.33
382.626	5.84
382.993	5.35
383.359	5.62
383.725	5.29
384.091	5.86
384.457	5.21
384.823	5.65
385.188	5.53
385.554	5.29
385.92	5.65
386.286	5.48
386.651	5.35
387.017	5.61
387.383	5.52
387.748	5.7
388.114	5.75
388.479	5.77
388.845	5.33
389.21	5.4
389.575	5.5
389.94	5.59
390.306	5.4
390.671	5.71
391.036	5.8
391.401	5.56
391.766	5.52
392.131	5.33
392.496	5.44
392.861	5.41
393.226	5.73
393.591	5.82
393.956	5.54
394.32	5.46
394.685	5.86
395.05	5.74
395.414	5.69
395.779	5.38
396.143	5.68
396.508	5.61
396.872	5.56
397.236	5.73
397.601	5.54
397.965	5.55
398.329	5.48
398.694	5.41
399.058	5.71
399.422	5.19
399.786	5.62
400.15	5.16
400.514	5.36
400.878	5.36
401.242	5.32
401.605	5.48
401.969	5.9
402.333	5.64
402.697	5.55
403.06	5.76
403.424	5.94
403.787	5.37
404.151	5.68
404.514	5.63
404.878	5.72
405.241	5.83
405.604	5.49
405.968	5.64
406.331	5.5
406.694	5.5
407.057	5.37
407.42	5.55
407.783	5.51
408.146	5.65
408.509	5.47
408.872	5.59
409.235	5.5
409.598	5.71
409.961	5.24
410.323	5.47
410.686	5.46
411.049	5.44
411.411	5.55
411.774	5.68
412.136	5.44
412.499	5.58
412.861	5.6
413.223	5.56
413.586	5.41
413.948	5.53
414.31	5.68
414.672	5.65
415.035	5.81
415.397	5.69
415.759	5.67
416.121	5.85
416.483	5.54
416.845	5.49
417.206	5.48
417.568	5.54
417.93	5.65
418.292	5.64
418.653	5.55
419.015	5.62
419.377	5.65
419.738	5.52
420.1	5.52
420.461	5.54
420.822	5.56
421.184	5.51
421.545	5.46
421.906	5.51
422.267	5.45
422.629	5.59
422.99	5.4
423.351	5.47
423.712	5.4
424.073	5.42
424.434	5.43
424.795	5.66
425.155	5.54
425.516	5.52
425.877	5.48
426.238	5.43
426.598	5.53
426.959	5.59
427.32	5.61
427.68	5.45
428.041	5.49
428.401	5.68
428.761	5.62
429.122	5.72
429.482	5.7
429.842	5.73
430.202	5.63
430.563	5.59
430.923	5.84
431.283	5.77
431.643	5.67
432.003	5.92
432.363	5.47
432.722	5.71
433.082	5.53
433.442	5.85
433.802	5.76
434.161	5.84
434.521	5.55
434.881	5.65
435.24	5.67
435.6	5.53
435.959	5.68
436.319	5.66
436.678	5.67
437.037	5.57
437.396	5.71
437.756	5.63
438.115	5.59
438.474	5.65
438.833	5.86
439.192	5.78
439.551	5.74
439.91	5.74
440.269	5.63
440.628	5.75
440.987	5.75
441.345	5.72
441.704	5.56
442.063	5.81
442.421	5.76
442.78	5.67
443.138	5.62
443.497	5.63
443.855	5.66
444.214	5.85
444.572	5.8
444.93	5.64
445.288	5.9
445.647	5.76
446.005	5.81
446.363	5.66
446.721	5.71
447.079	5.72
447.437	5.68
447.795	5.68
448.153	5.63
448.51	5.74
448.868	5.63
449.226	5.71
449.584	5.58
449.941	5.73
450.299	5.77
450.656	5.72
451.014	5.81
451.371	5.8
451.729	5.87
452.086	5.76
452.443	5.74
452.801	5.79
453.158	5.98
453.515	5.81
453.872	5.83
454.229	5.82
454.586	5.84
454.943	5.76
455.3	5.82
455.657	5.82
456.014	5.84
456.371	5.98
456.727	5.77
457.084	5.95
457.441	6.11
457.797	5.82
458.154	5.97
458.51	6.09
458.867	5.9
459.223	5.85
459.58	5.87
459.936	5.91
460.292	5.69
460.648	5.91
461.005	5.9
461.361	5.8
461.717	5.74
462.073	5.73
462.429	5.76
462.785	5.75
463.141	5.87
463.496	6.04
463.852	5.89
464.208	5.85
464.564	5.99
464.919	6.16
465.275	5.83
465.631	5.87
465.986	6.09
466.342	5.91
466.697	5.8
467.052	5.64
467.408	6.01
467.763	5.89
468.118	5.99
468.473	6.04
468.829	6.02
469.184	5.98
469.539	6.05
469.894	5.97
470.249	5.9
470.603	5.87
470.958	6.17
471.313	5.87
471.668	5.88
472.023	5.81
472.377	5.74
472.732	6.05
473.086	6.07
473.441	6.2
473.795	6.11
474.15	5.84
474.504	5.97
474.859	5.99
475.213	6.02
475.567	6.13
475.921	6.14
476.275	6.07
476.63	6
476.984	6.14
477.338	6.06
477.692	5.97
478.045	5.99
478.399	5.95
478.753	5.98
479.107	6.02
479.461	5.93
479.814	5.96
480.168	5.99
480.521	5.93
480.875	6.05
481.228	5.94
481.582	6.16
481.935	6.04
482.289	6.12
482.642	5.91
482.995	5.89
483.348	5.95
483.701	5.95
484.055	5.91
484.408	6.01
484.761	5.98
485.114	5.79
485.466	5.73
485.819	5.73
486.172	5.7
486.525	5.72
486.878	5.81
487.23	5.84
487.583	5.84
487.936	5.92
488.288	5.92
488.641	5.81
488.993	5.88
489.345	5.83
489.698	5.75
490.05	5.81
490.402	5.9
490.754	5.87
491.107	5.94
491.459	5.99
491.811	6.06
492.163	6.05
492.515	6.01
492.866	5.94
493.218	5.87
493.57	5.93
493.922	5.96
494.274	5.94
494.625	5.93
494.977	6.05
495.328	6.18
495.68	6.16
496.031	6.25
496.383	6.12
496.734	6.15
497.086	6.12
497.437	6.18
497.788	6.17
498.139	6.14
498.49	6.16
498.842	6.23
499.193	6.14
499.544	6.17
499.894	6.18
500.245	6.19
500.596	6.02
500.947	6.1
501.298	6.28
501.648	6.2
501.999	6.26
502.35	6.31
502.7	6.2
503.051	6.35
503.401	6.2
503.752	6.3
504.102	6.44
504.452	6.26
504.803	6.25
505.153	6.22
505.503	6.29
505.853	6.38
506.203	6.33
506.553	6.43
506.903	6.27
507.253	6.34
507.603	6.37
507.953	6.35
508.303	6.31
508.652	6.52
509.002	6.38
509.352	6.43
509.701	6.51
510.051	6.27
510.4	6.41
510.75	6.35
511.099	6.27
511.449	6.4
511.798	6.29
512.147	6.36
512.496	6.44
512.846	6.2
513.195	6.25
513.544	6.39
513.893	6.4
514.242	6.44
514.591	6.34
514.939	6.44
515.288	6.52
515.637	6.43
515.986	6.31
516.334	6.3
516.683	6.56
517.032	6.56
517.38	6.45
517.729	6.56
518.077	6.56
518.426	6.43
518.774	6.51
519.122	6.55
519.47	6.54
519.819	6.54
520.167	6.51
520.515	6.42
520.863	6.41
521.211	6.43
521.559	6.54
521.907	6.54
522.255	6.45
522.602	6.46
522.95	6.68
523.298	6.48
523.645	6.52
523.993	6.64
524.341	6.67
524.688	6.7
525.036	6.73
525.383	6.55
525.73	6.74
526.078	6.72
526.425	6.7
526.772	6.58
527.119	6.64
527.466	6.63
527.814	6.58
528.161	6.64
528.508	6.63
528.854	6.66
529.201	6.6
529.548	6.5
529.895	6.58
530.242	6.5
530.588	6.5
530.935	6.51
531.282	6.46
531.628	6.55
531.975	6.6
532.321	6.71
532.667	6.76
533.014	6.83
533.36	6.82
533.706	6.82
534.052	6.84
534.399	6.8
534.745	6.83
535.091	6.64
535.437	6.8
535.783	6.79
536.129	6.76
536.474	6.8
536.82	6.76
537.166	6.81
537.512	6.91
537.857	7.15
538.203	6.95
538.549	6.85
538.894	6.95
539.239	6.92
539.585	6.95
539.93	6.96
540.276	7.05
540.621	6.99
540.966	7.08
541.311	6.98
541.656	7.13
542.001	7.04
542.346	6.97
542.691	6.93
543.036	7
543.381	6.86
543.726	6.92
544.071	6.95
544.415	6.98
544.76	7.11
545.105	7.11
545.449	7.06
545.794	7.22
546.138	7.29
546.483	7.22
546.827	7.35
547.171	7.29
547.516	7.43
547.86	7.2
548.204	7.26
548.548	7.24
548.892	7.31
549.236	7.38
549.58	7.39
549.924	7.36
550.268	7.48
550.612	7.64
550.956	7.36
551.3	7.48
551.643	7.57
551.987	7.54
552.33	7.54
552.674	7.82
553.017	7.54
553.361	7.61
553.704	7.59
554.048	7.63
554.391	7.62
554.734	7.73
555.077	7.73
555.42	7.67
555.764	7.74
556.107	7.82
556.45	7.73
556.793	7.61
557.135	7.87
557.478	7.77
557.821	7.84
558.164	7.88
558.507	7.85
558.849	8
559.192	7.81
559.534	8.09
559.877	7.96
560.219	8.04
560.562	7.72
560.904	8.04
561.246	7.85
561.589	7.99
561.931	8.08
562.273	8.26
562.615	8.08
562.957	8.09
563.299	8.25
563.641	8.04
563.983	8.17
564.325	7.91
564.667	8.21
565.008	8.16
565.35	8.34
565.692	8.2
566.033	8.31
566.375	8.11
566.716	8.32
567.058	8.55
567.399	8.42
567.741	8.42
568.082	8.32
568.423	8.5
568.764	8.39
569.105	8.3
569.447	8.45
569.788	8.49
570.129	8.43
570.47	8.6
570.811	8.45
571.151	8.62
571.492	8.68
571.833	8.89
572.174	8.5
572.514	8.5
572.855	8.69
573.195	8.83
573.536	8.72
573.876	8.76
574.217	8.72
574.557	8.64
574.898	8.86
575.238	8.69
575.578	8.97
575.918	8.81
576.258	8.76
576.598	8.78
576.938	8.92
577.278	8.76
577.618	9.07
577.958	8.98
578.298	9
578.638	9.07
578.977	9.11
579.317	9.14
579.657	9.03
579.996	9.17
580.336	9.22
580.675	9.18
581.014	9.21
581.354	8.88
581.693	9.43
582.032	9.4
582.372	9.6
582.711	9.32
583.05	9.5
583.389	9.39
583.728	9.11
584.067	9.53
584.406	9.35
584.745	9.44
585.083	9.45
585.422	9.54
585.761	9.64
586.1	9.76
586.438	9.69
586.777	9.85
587.115	9.52
587.454	9.41
587.792	9.69
588.13	9.98
588.469	9.59
588.807	9.98
589.145	9.79
589.483	9.97
589.821	9.78
590.159	9.76
590.497	9.84
590.835	10.05
591.173	10.02
591.511	9.85
591.849	10.04
592.187	9.92
592.524	9.92
592.862	9.94
593.2	10.01
593.537	10.15
593.875	10.16
594.212	9.87
594.55	10.27
594.887	10.5
595.224	10.29
595.561	10.39
595.899	10.27
596.236	10.14
596.573	10.12
596.91	10.19
597.247	10.47
597.584	10.52
597.921	10.43
598.258	10.51
598.594	10.29
598.931	10.44
599.268	10.44
599.604	10.58
599.941	10.43
600.277	10.46
600.614	10.61
600.95	10.82
601.287	10.89
601.623	10.56
601.959	10.9
602.296	10.73
602.632	10.97
602.968	10.68
603.304	10.84
603.64	11.06
603.976	10.84
604.312	10.99
604.648	10.95
604.984	10.94
605.319	11.13
605.655	11.01
605.991	10.66
606.326	11.14
606.662	11.17
606.998	11.16
607.333	11.06
607.668	11.14
608.004	11.19
608.339	11.19
608.674	11.28
609.01	11.38
609.345	11.46
609.68	11.34
610.015	11.3
610.35	11.35
610.685	11.71
611.02	11.62
611.355	11.65
611.689	11.46
612.024	11.61
612.359	11.79
612.694	11.78
613.028	11.52
613.363	11.87
613.697	11.78
614.032	11.74
614.366	11.95
614.7	11.91
615.035	11.64
615.369	11.86
615.703	12.04
616.037	12.28
616.371	12.05
616.705	12.03
617.039	11.75
617.373	11.94
617.707	11.99
618.041	11.95
618.375	12.48
618.709	12.25
619.042	12.14
619.376	11.8
619.71	12.13
620.043	12.31
620.377	12.72
620.71	12.07
621.043	12.53
621.377	12.47
621.71	12.74
622.043	13.01
622.376	12.57
622.709	13.01
623.043	12.73
623.376	13.09
623.709	12.59
624.041	12.67
624.374	12.53
624.707	12.92
625.04	12.67
625.373	12.79
625.705	12.88
626.038	12.79
626.37	12.62
626.703	12.72
627.035	13.03
627.368	13.1
627.7	12.99
628.032	13.06
628.365	13.32
628.697	12.83
629.029	13.12
629.361	13.04
629.693	13.05
630.025	13.08
630.357	13.3
630.689	13.36
631.021	13.26
631.353	13.19
631.684	13.39
632.016	13.28
632.348	13.51
632.679	13.58
633.011	13.59
633.342	13.08
633.674	13.49
634.005	13.87
634.336	13.47
634.668	13.74
634.999	13.55
635.33	13.89
635.661	13.75
635.992	13.66
636.323	13.83
636.654	14.08
636.985	13.93
637.316	13.6
637.647	13.97
637.977	13.54
638.308	13.89
638.639	14.2
638.969	14.35
639.3	14.06
639.63	14.01
639.961	14.62
640.291	13.83
640.622	14.19
640.952	13.78
641.282	14.01
641.612	14.16
641.943	14.58
642.273	14.56
642.603	14.37
642.933	14.84
643.263	14.67
643.592	14.45
643.922	14.88
644.252	14.56
644.582	14.69
644.911	14.91
645.241	14.18
645.571	14.96
645.9	14.77
646.23	15.26
646.559	14.94
646.888	14.86
647.218	14.5
647.547	14.39
647.876	14.91
648.205	14.79
648.534	14.81
648.863	15.06
649.192	14.97
649.521	15.3
649.85	15.21
650.179	14.87
650.508	15.39
650.837	15.13
651.165	15.12
651.494	15.7
651.822	15.2
652.151	15.07
652.479	15.18
652.808	15.55
653.136	14.97
653.465	15.46
653.793	15.64
654.121	15.35
654.449	16.01
654.777	15.79
655.105	15.53
655.433	15.74
655.761	15.79
656.089	15.24
656.417	15.37
656.745	15.58
657.073	15.66
657.4	16.12
657.728	16.19
658.056	15.91
658.383	16.42
658.711	15.96
659.038	15.51
659.365	15.81
659.693	16.27
660.02	15.32
660.347	16.42
660.674	16.14
661.001	15.88
661.329	16.22
661.656	15.95
661.982	16.08
662.309	16.79
662.636	16.64
662.963	16.45
663.29	16.16
663.616	16.99
663.943	16.26
664.27	16.67
664.596	16.16
664.923	16.94
665.249	16.68
665.576	16.71
665.902	16.43
666.228	16.29
666.554	16.08
666.881	16.9
667.207	17.08
667.533	16.76
667.859	16.46
668.185	17.44
668.511	16.94
668.837	17.6
669.162	16.49
669.488	16.75
669.814	17.24
670.139	16.68
670.465	17.32
670.791	16.99
671.116	17.42
671.442	17.56
671.767	17.28
672.092	17.29
672.418	16.93
672.743	17.51
673.068	17.62
673.393	16.89
673.718	17.8
674.043	17.7
674.368	18.06
674.693	17.59
675.018	17.41
675.343	17.39
675.667	17.14
675.992	17.89
676.317	17.65
676.641	17.08
676.966	17.82
677.29	17.65
677.615	18.19
677.939	17.89
678.264	18.79
678.588	18.39
678.912	18.1
679.236	18.5
679.56	18.22
679.885	18.44
680.209	18.56
680.532	18.63
680.856	18.55
681.18	18.27
681.504	18.45
681.828	18.01
682.152	18.23
682.475	18.29
682.799	18.54
683.122	19.07
683.446	18.3
683.769	18.51
684.093	18.79
684.416	18.41
684.739	18.41
685.062	18.85
685.386	18.27
685.709	18.48
686.032	18.68
