Data from 23-2_crown_Reflection__2__07.txt Node

Date: Thu Feb 29 21:55:31 CST 2024
User: ToomeyLab
Spectrometer: FLMS14357
Trigger mode: 0
Integration Time (sec): 1.000000E-2
Scans to average: 100
Electric dark correction enabled: true
Nonlinearity correction enabled: false
Boxcar width: 0
XAxis mode: Wavelengths
Number of Pixels in Spectrum: 2048
>>>>>Begin Spectral Data<<<<<
189.047	66.32
189.435	66.32
189.823	66.32
190.211	119.06
190.599	259.98
190.987	-0.36
191.375	-301.47
191.763	3075.53
192.151	11.92
192.538	157.42
192.926	149.54
193.314	17.84
193.702	129.34
194.089	1249.07
194.477	29.67
194.864	-571.96
195.252	-39.98
195.639	-15.63
196.027	-2229.01
196.414	92.43
196.801	-29.3
197.189	57.01
197.576	44.65
197.963	220.22
198.351	-65.41
198.738	13.03
199.125	2.03
199.512	76.18
199.899	-2.9
200.286	-14.4
200.673	37.81
201.06	-25.25
201.447	-32.51
201.833	-8.9
202.22	16.3
202.607	-105.93
202.994	-170.78
203.38	-165.79
203.767	23.07
204.154	-5.7
204.54	45.37
204.927	-0.38
205.313	1.23
205.699	-42.87
206.086	0.04
206.472	27.24
206.858	1.05
207.245	24.29
207.631	20.16
208.017	19.11
208.403	-35.88
208.789	6.63
209.175	-81.99
209.561	10.36
209.947	37.13
210.333	-6.97
210.719	22.16
211.105	-10.69
211.491	-8.74
211.876	9.44
212.262	7.07
212.648	-39.64
213.034	31.84
213.419	6.43
213.805	-16.75
214.19	1.69
214.576	11.77
214.961	10.16
215.346	14.3
215.732	14.98
216.117	-28.12
216.502	-8.71
216.888	-44.34
217.273	-7.03
217.658	23.7
218.043	-2.19
218.428	-11.33
218.813	-8.87
219.198	18.01
219.583	2.71
219.968	-17.29
220.353	-13.29
220.738	1.21
221.122	-12.81
221.507	2.04
221.892	-3.99
222.276	7.25
222.661	-3.2
223.046	-12.15
223.43	-12.13
223.815	-9.16
224.199	3.14
224.583	1.19
224.968	-0.31
225.352	3.98
225.736	3.93
226.121	-2.66
226.505	11.17
226.889	-0.5
227.273	2.62
227.657	-5.92
228.041	2.28
228.425	3.51
228.809	7.55
229.193	3
229.577	2.39
229.961	0.82
230.344	2.52
230.728	2.35
231.112	3.85
231.495	2.7
231.879	2.94
232.263	0.88
232.646	2.92
233.03	2.65
233.413	1.37
233.797	1.5
234.18	-2.19
234.563	1.95
234.946	0.03
235.33	2.19
235.713	1.54
236.096	1.84
236.479	3.76
236.862	3.48
237.245	1.37
237.628	1.44
238.011	2.68
238.394	1.79
238.777	4.69
239.16	2.96
239.543	2.22
239.925	2.23
240.308	3.66
240.691	4.75
241.073	3.12
241.456	4.54
241.838	3.04
242.221	2.95
242.603	3.42
242.986	4.24
243.368	3.66
243.75	3.49
244.133	2.78
244.515	3.34
244.897	3.8
245.279	3.64
245.661	3.03
246.043	2.47
246.425	4.42
246.807	3.21
247.189	2.12
247.571	3.01
247.953	3.53
248.335	3.41
248.717	3.71
249.098	3.82
249.48	3.69
249.862	3.81
250.243	3.45
250.625	3.89
251.006	4.47
251.388	4.37
251.769	4.4
252.151	4.91
252.532	2.83
252.913	2.41
253.295	3.52
253.676	3.53
254.057	3.75
254.438	4.07
254.819	4.69
255.2	3.21
255.581	3.76
255.962	4.93
256.343	4.77
256.724	3.11
257.105	3.37
257.486	3.52
257.867	4.32
258.247	4.58
258.628	2.65
259.009	3.34
259.389	3.08
259.77	3.49
260.15	4.13
260.531	3.89
260.911	3.4
261.292	3.37
261.672	3.76
262.052	3.58
262.432	3.69
262.813	3.51
263.193	3.1
263.573	4.19
263.953	3.52
264.333	3.5
264.713	3.63
265.093	3.8
265.473	3.7
265.853	3.88
266.233	3.22
266.612	3.84
266.992	3.11
267.372	3.29
267.752	3.58
268.131	3.93
268.511	3.46
268.89	3.76
269.27	3.55
269.649	3.06
270.029	2.77
270.408	3.16
270.787	2.74
271.167	3.07
271.546	3.54
271.925	3.33
272.304	3.59
272.683	3.63
273.062	2.74
273.441	3.13
273.82	3.5
274.199	3.93
274.578	3.26
274.957	3.09
275.336	3.79
275.715	3.42
276.093	2.9
276.472	3.42
276.851	3.13
277.229	3.5
277.608	3.35
277.986	3.16
278.365	3.94
278.743	2.89
279.122	2.67
279.5	2.85
279.878	2.97
280.257	3.91
280.635	2.65
281.013	2.74
281.391	2.72
281.769	3.44
282.147	3.13
282.525	3.41
282.903	2.85
283.281	3.27
283.659	3.45
284.037	3.35
284.415	2.83
284.792	2.88
285.17	2.64
285.548	2.84
285.925	3.23
286.303	3.57
286.68	2.71
287.058	3.37
287.435	3.48
287.813	3.41
288.19	3.19
288.567	3.15
288.945	3.37
289.322	3.86
289.699	3.32
290.076	3.63
290.453	3.13
290.83	2.98
291.207	3.43
291.584	3.27
291.961	3.6
292.338	4.21
292.715	3.92
293.092	3.56
293.469	4.1
293.845	3.56
294.222	3.94
294.599	3.58
294.975	4.11
295.352	4.51
295.728	4.16
296.105	3.99
296.481	3.78
296.858	3.95
297.234	3.48
297.61	3.88
297.986	4.2
298.363	3.86
298.739	4.36
299.115	4.38
299.491	4.45
299.867	4.42
300.243	4.16
300.619	3.99
300.995	4.43
301.371	4.4
301.746	3.99
302.122	4.96
302.498	4.57
302.874	4.87
303.249	3.8
303.625	4.32
304	4.43
304.376	4.83
304.751	3.9
305.127	4.52
305.502	4.51
305.878	4.91
306.253	4.11
306.628	3.97
307.003	4.4
307.378	4.96
307.754	4.45
308.129	4.73
308.504	4.52
308.879	4.29
309.254	4.48
309.629	4.2
310.003	4.47
310.378	4.17
310.753	4.07
311.128	4.7
311.502	4.76
311.877	4.54
312.252	4.91
312.626	4.69
313.001	4.4
313.375	5.15
313.75	4.7
314.124	4.97
314.498	4.51
314.873	4.42
315.247	4.17
315.621	5.01
315.995	4.77
316.369	4.6
316.743	4.49
317.117	5.11
317.491	4.65
317.865	4.87
318.239	4.73
318.613	5.48
318.987	4.87
319.361	4.11
319.734	5.25
320.108	5.25
320.482	4.64
320.855	4.93
321.229	5.29
321.602	4.55
321.976	4.45
322.349	4.17
322.723	5.15
323.096	5.28
323.469	4.45
323.843	3.91
324.216	4.64
324.589	4.37
324.962	4.42
325.335	5.12
325.708	5.03
326.081	4.46
326.454	4.67
326.827	4.19
327.2	4.98
327.573	4.93
327.945	5.02
328.318	4.49
328.691	4.94
329.063	4.48
329.436	4.58
329.809	5.08
330.181	5.39
330.553	4.58
330.926	4.54
331.298	4.43
331.671	4.51
332.043	4.58
332.415	4.38
332.787	4.77
333.159	4.88
333.532	5.31
333.904	4.82
334.276	4.75
334.648	5.19
335.02	4.2
335.391	3.7
335.763	4.83
336.135	4.23
336.507	4.54
336.879	4.8
337.25	4.64
337.622	4.4
337.993	4.95
338.365	4.73
338.736	4.44
339.108	4.52
339.479	4.71
339.851	4.65
340.222	4.81
340.593	4.61
340.964	4.6
341.336	4.56
341.707	4.51
342.078	4.37
342.449	4.97
342.82	4.99
343.191	4.51
343.562	4.87
343.933	4.62
344.303	4.67
344.674	5.04
345.045	4.68
345.416	4.55
345.786	5.01
346.157	4.75
346.527	4.85
346.898	5.34
347.268	4.8
347.639	4.92
348.009	4.5
348.38	4.7
348.75	5.14
349.12	4.69
349.49	4.74
349.861	4.68
350.231	4.96
350.601	5.26
350.971	4.4
351.341	5.06
351.711	4.83
352.081	5.03
352.45	4.44
352.82	4.59
353.19	5.24
353.56	4.97
353.929	4.79
354.299	4.9
354.669	4.7
355.038	4.71
355.408	4.98
355.777	4.88
356.147	4.73
356.516	4.91
356.885	4.82
357.254	4.53
357.624	4.68
357.993	4.82
358.362	4.95
358.731	5.13
359.1	5.04
359.469	4.79
359.838	4.8
360.207	4.87
360.576	4.94
360.945	4.51
361.314	4.76
361.682	4.64
362.051	4.82
362.42	4.57
362.788	4.97
363.157	4.53
363.525	5.06
363.894	4.79
364.262	4.77
364.631	5.17
364.999	4.67
365.367	5.1
365.735	4.88
366.104	4.93
366.472	4.57
366.84	5.18
367.208	4.97
367.576	4.78
367.944	4.73
368.312	5.06
368.68	4.71
369.048	4.99
369.416	5.13
369.783	4.71
370.151	5.18
370.519	4.98
370.886	4.76
371.254	5.02
371.621	5.01
371.989	4.83
372.356	4.88
372.724	4.9
373.091	4.67
373.458	4.97
373.826	5.07
374.193	4.71
374.56	4.83
374.927	5.13
375.294	4.64
375.661	4.89
376.028	5.01
376.395	4.94
376.762	5.45
377.129	4.93
377.496	5.01
377.863	5.06
378.229	4.75
378.596	4.87
378.963	4.97
379.329	4.84
379.696	4.79
380.062	4.98
380.429	5.14
380.795	5.47
381.161	5.34
381.528	4.82
381.894	4.69
382.26	4.38
382.626	5.17
382.993	5.17
383.359	5.11
383.725	5.1
384.091	5.17
384.457	4.92
384.823	5.1
385.188	4.88
385.554	4.95
385.92	5.18
386.286	4.55
386.651	4.78
387.017	5.33
387.383	5.02
387.748	5.19
388.114	5.34
388.479	5.18
388.845	4.87
389.21	5.03
389.575	4.95
389.94	5.01
390.306	5.01
390.671	5
391.036	5.28
391.401	5.04
391.766	4.92
392.131	4.83
392.496	4.69
392.861	4.85
393.226	5.1
393.591	5.27
393.956	5.14
394.32	5.14
394.685	5.39
395.05	5.25
395.414	5.15
395.779	5.11
396.143	5.14
396.508	5.02
396.872	5.09
397.236	4.85
397.601	5.26
397.965	5.35
398.329	5.05
398.694	5.03
399.058	5.3
399.422	4.89
399.786	5.05
400.15	4.85
400.514	5.1
400.878	4.92
401.242	4.96
401.605	4.97
401.969	5.44
402.333	5.12
402.697	4.97
403.06	5.07
403.424	5.22
403.787	4.99
404.151	5.26
404.514	5.13
404.878	5.18
405.241	5.36
405.604	4.95
405.968	5.32
406.331	5.08
406.694	5.22
407.057	5.01
407.42	5.16
407.783	5.16
408.146	5.31
408.509	5.23
408.872	5.37
409.235	5.37
409.598	5.34
409.961	5.13
410.323	5.31
410.686	5.26
411.049	4.96
411.411	5.23
411.774	5.32
412.136	5.3
412.499	5.08
412.861	5.22
413.223	4.96
413.586	5.43
413.948	5.07
414.31	5.26
414.672	5.09
415.035	5.54
415.397	5.04
415.759	5.34
416.121	5.54
416.483	5.29
416.845	5.3
417.206	5.29
417.568	5.1
417.93	5.29
418.292	5.33
418.653	5.26
419.015	5.28
419.377	5.21
419.738	4.99
420.1	5.27
420.461	5.3
420.822	5.24
421.184	5.32
421.545	5.07
421.906	5.23
422.267	5.27
422.629	5.15
422.99	5.12
423.351	5.18
423.712	5.17
424.073	5.06
424.434	5.12
424.795	5.25
425.155	5.18
425.516	5.2
425.877	5.21
426.238	5.15
426.598	5.25
426.959	5.32
427.32	5.39
427.68	5.24
428.041	5.12
428.401	5.35
428.761	5.24
429.122	5.39
429.482	5.25
429.842	5.6
430.202	5.28
430.563	5.35
430.923	5.39
431.283	5.33
431.643	5.45
432.003	5.55
432.363	5.27
432.722	5.41
433.082	5.23
433.442	5.33
433.802	5.43
434.161	5.45
434.521	5.26
434.881	5.43
435.24	5.42
435.6	5.31
435.959	5.43
436.319	5.41
436.678	5.3
437.037	5.34
437.396	5.48
437.756	5.42
438.115	5.36
438.474	5.33
438.833	5.47
439.192	5.51
439.551	5.4
439.91	5.4
440.269	5.49
440.628	5.46
440.987	5.29
441.345	5.46
441.704	5.4
442.063	5.52
442.421	5.57
442.78	5.32
443.138	5.45
443.497	5.32
443.855	5.57
444.214	5.56
444.572	5.52
444.93	5.47
445.288	5.58
445.647	5.47
446.005	5.62
446.363	5.29
446.721	5.55
447.079	5.43
447.437	5.58
447.795	5.38
448.153	5.42
448.51	5.44
448.868	5.39
449.226	5.59
449.584	5.46
449.941	5.46
450.299	5.6
450.656	5.54
451.014	5.53
451.371	5.5
451.729	5.96
452.086	5.62
452.443	5.46
452.801	5.74
453.158	5.69
453.515	5.67
453.872	5.77
454.229	5.54
454.586	5.54
454.943	5.58
455.3	5.63
455.657	5.52
456.014	5.76
456.371	5.7
456.727	5.67
457.084	5.67
457.441	6.02
457.797	5.58
458.154	5.85
458.51	5.52
458.867	5.75
459.223	5.56
459.58	5.62
459.936	5.78
460.292	5.63
460.648	5.64
461.005	5.73
461.361	5.55
461.717	5.58
462.073	5.57
462.429	5.7
462.785	5.7
463.141	5.72
463.496	5.78
463.852	5.77
464.208	5.74
464.564	5.8
464.919	5.81
465.275	5.67
465.631	5.91
465.986	5.83
466.342	5.69
466.697	5.82
467.052	5.63
467.408	5.88
467.763	5.81
468.118	5.83
468.473	5.87
468.829	5.84
469.184	5.75
469.539	6
469.894	5.73
470.249	5.85
470.603	5.84
470.958	5.96
471.313	5.64
471.668	5.83
472.023	5.73
472.377	5.65
472.732	5.91
473.086	5.83
473.441	5.83
473.795	5.77
474.15	5.78
474.504	5.98
474.859	5.88
475.213	5.93
475.567	5.9
475.921	6.06
476.275	5.89
476.63	5.9
476.984	5.98
477.338	6
477.692	5.95
478.045	5.84
478.399	5.84
478.753	5.96
479.107	6.01
479.461	5.79
479.814	6
480.168	5.91
480.521	6.03
480.875	5.95
481.228	5.87
481.582	5.93
481.935	6
482.289	6.05
482.642	5.98
482.995	5.86
483.348	5.89
483.701	5.98
484.055	5.82
484.408	5.96
484.761	5.91
485.114	5.65
485.466	5.57
485.819	5.57
486.172	5.65
486.525	5.74
486.878	5.73
487.23	5.81
487.583	5.95
487.936	5.91
488.288	5.82
488.641	5.8
488.993	5.79
489.345	5.7
489.698	5.77
490.05	5.76
490.402	5.88
490.754	5.93
491.107	5.94
491.459	6.03
491.811	6.08
492.163	6.1
492.515	5.97
492.866	5.87
493.218	5.78
493.57	5.78
493.922	5.87
494.274	5.86
494.625	5.96
494.977	6.13
495.328	6.09
495.68	6.12
496.031	6.16
496.383	6.11
496.734	6.09
497.086	6.16
497.437	6.17
497.788	6.07
498.139	6.2
498.49	6.08
498.842	6.12
499.193	6.2
499.544	6.15
499.894	6.19
500.245	6.26
500.596	6.18
500.947	6.05
501.298	6.22
501.648	6.12
501.999	6.22
502.35	6.38
502.7	6.26
503.051	6.34
503.401	6.17
503.752	6.14
504.102	6.43
504.452	6.28
504.803	6.3
505.153	6.2
505.503	6.43
505.853	6.23
506.203	6.35
506.553	6.24
506.903	6.2
507.253	6.42
507.603	6.35
507.953	6.26
508.303	6.37
508.652	6.39
509.002	6.33
509.352	6.23
509.701	6.39
510.051	6.22
510.4	6.3
510.75	6.34
511.099	6.25
511.449	6.29
511.798	6.31
512.147	6.38
512.496	6.41
512.846	6.19
513.195	6.3
513.544	6.37
513.893	6.32
514.242	6.31
514.591	6.33
514.939	6.34
515.288	6.45
515.637	6.39
515.986	6.39
516.334	6.37
516.683	6.39
517.032	6.49
517.38	6.42
517.729	6.57
518.077	6.5
518.426	6.44
518.774	6.26
519.122	6.53
519.47	6.39
519.819	6.47
520.167	6.17
520.515	6.33
520.863	6.31
521.211	6.3
521.559	6.41
521.907	6.45
522.255	6.39
522.602	6.43
522.95	6.38
523.298	6.44
523.645	6.46
523.993	6.48
524.341	6.46
524.688	6.6
525.036	6.53
525.383	6.55
525.73	6.6
526.078	6.7
526.425	6.6
526.772	6.47
527.119	6.43
527.466	6.43
527.814	6.46
528.161	6.47
528.508	6.48
528.854	6.55
529.201	6.48
529.548	6.33
529.895	6.29
530.242	6.18
530.588	6.22
530.935	6.27
531.282	6.36
531.628	6.44
531.975	6.48
532.321	6.53
532.667	6.56
533.014	6.57
533.36	6.56
533.706	6.55
534.052	6.61
534.399	6.49
534.745	6.48
535.091	6.37
535.437	6.5
535.783	6.5
536.129	6.56
536.474	6.65
536.82	6.62
537.166	6.7
537.512	6.74
537.857	6.74
538.203	6.63
538.549	6.5
538.894	6.64
539.239	6.61
539.585	6.53
539.93	6.68
540.276	6.82
540.621	6.68
540.966	6.82
541.311	6.67
541.656	6.67
542.001	6.66
542.346	6.65
542.691	6.48
543.036	6.54
543.381	6.46
543.726	6.56
544.071	6.59
544.415	6.66
544.76	6.75
545.105	6.58
545.449	6.73
545.794	6.65
546.138	6.86
546.483	6.69
546.827	6.76
547.171	6.74
547.516	6.75
547.86	6.77
548.204	6.69
548.548	6.72
548.892	6.78
549.236	6.84
549.58	6.88
549.924	6.93
550.268	6.93
550.612	7.18
550.956	6.87
551.3	6.94
551.643	6.9
551.987	6.97
552.33	6.9
552.674	7.07
553.017	6.92
553.361	6.92
553.704	6.94
554.048	6.79
554.391	6.96
554.734	6.96
555.077	6.98
555.42	7.05
555.764	6.92
556.107	7.11
556.45	7.17
556.793	6.99
557.135	7.09
557.478	7.03
557.821	7.04
558.164	6.96
558.507	7.14
558.849	7.27
559.192	6.99
559.534	7.04
559.877	7.12
560.219	7.12
560.562	6.91
560.904	7.06
561.246	6.88
561.589	7.13
561.931	7.11
562.273	7.19
562.615	6.99
562.957	7.21
563.299	7.25
563.641	7.15
563.983	7.18
564.325	7.08
564.667	7.1
565.008	7.18
565.35	7.18
565.692	7.39
566.033	7.26
566.375	7.09
566.716	7.06
567.058	7.36
567.399	7.4
567.741	7.12
568.082	7.14
568.423	7
568.764	7.03
569.105	7.2
569.447	7.37
569.788	7.37
570.129	7.26
570.47	7.29
570.811	7.1
571.151	7.36
571.492	7.36
571.833	7.33
572.174	7.22
572.514	7.25
572.855	7.21
573.195	7.46
573.536	7.33
573.876	7.29
574.217	7.22
574.557	7.24
574.898	7.59
575.238	7.16
575.578	7.22
575.918	7.41
576.258	7.36
576.598	7.21
576.938	7.46
577.278	7.16
577.618	7.23
577.958	7.33
578.298	7.3
578.638	7.31
578.977	7.24
579.317	7.59
579.657	7.47
579.996	7.53
580.336	7.71
580.675	7.55
581.014	7.44
581.354	7.28
581.693	7.48
582.032	7.45
582.372	7.61
582.711	7.49
583.05	7.42
583.389	7.54
583.728	7.18
584.067	7.63
584.406	7.48
584.745	7.61
585.083	7.2
585.422	7.65
585.761	7.69
586.1	7.61
586.438	7.68
586.777	7.64
587.115	7.33
587.454	7.55
587.792	7.37
588.13	7.58
588.469	7.41
588.807	7.58
589.145	7.48
589.483	7.56
589.821	7.33
590.159	7.64
590.497	7.38
590.835	7.52
591.173	7.6
591.511	7.4
591.849	7.51
592.187	7.43
592.524	7.64
592.862	7.5
593.2	7.7
593.537	7.64
593.875	7.78
594.212	7.34
594.55	7.86
594.887	7.81
595.224	7.66
595.561	7.77
595.899	7.89
596.236	7.68
596.573	7.83
596.91	7.62
597.247	7.71
597.584	7.69
597.921	7.58
598.258	7.76
598.594	7.69
598.931	7.75
599.268	7.61
599.604	7.57
599.941	7.64
600.277	7.69
600.614	7.76
600.95	8.03
601.287	7.99
601.623	8.1
601.959	7.9
602.296	7.68
602.632	7.86
602.968	7.9
603.304	7.68
603.64	7.87
603.976	7.7
604.312	8.21
604.648	7.68
604.984	7.47
605.319	7.93
605.655	7.78
605.991	7.58
606.326	7.9
606.662	7.9
606.998	7.97
607.333	7.86
607.668	7.81
608.004	7.88
608.339	7.92
608.674	7.79
609.01	8.07
609.345	8.01
609.68	7.92
610.015	8.01
610.35	8
610.685	8
611.02	8.04
611.355	7.89
611.689	7.94
612.024	7.74
612.359	8.04
612.694	8.03
613.028	7.53
613.363	7.97
613.697	8.04
614.032	8.06
614.366	8.26
614.7	7.78
615.035	7.91
615.369	8.11
615.703	8.18
616.037	8.09
616.371	8.16
616.705	8.01
617.039	8.1
617.373	8
617.707	7.99
618.041	8.07
618.375	8.3
618.709	7.88
619.042	8.1
619.376	7.93
619.71	7.96
620.043	8.38
620.377	8.44
620.71	8.17
621.043	8.56
621.377	8.21
621.71	8.19
622.043	8.33
622.376	8.19
622.709	8.38
623.043	8.45
623.376	8.35
623.709	7.89
624.041	8.07
624.374	8.04
624.707	7.65
625.04	8.33
625.373	8.17
625.705	8.18
626.038	8.2
626.37	8.15
626.703	8.49
627.035	8.55
627.368	8.42
627.7	8.45
628.032	8.13
628.365	8.31
628.697	8.28
629.029	8.22
629.361	8.26
629.693	8.43
630.025	8.3
630.357	8.38
630.689	8.1
631.021	8.32
631.353	8.5
631.684	8.35
632.016	8.08
632.348	8.43
632.679	8.11
633.011	8.68
633.342	7.89
633.674	8.49
634.005	8.31
634.336	8.37
634.668	8.49
634.999	8.39
635.33	8.3
635.661	8.44
635.992	7.96
636.323	8.66
636.654	8.56
636.985	8.58
637.316	8.34
637.647	8.47
637.977	8.35
638.308	8.45
638.639	8.6
638.969	8.29
639.3	8.55
639.63	8.58
639.961	8.83
640.291	8.11
640.622	8.81
640.952	7.9
641.282	8.77
641.612	8.58
641.943	8.69
642.273	8.7
642.603	8.46
642.933	8.4
643.263	8.92
643.592	8.85
643.922	8.57
644.252	8.49
644.582	8.94
644.911	8.75
645.241	8.24
645.571	8.79
645.9	8.54
646.23	9
646.559	8.34
646.888	8.66
647.218	8.85
647.547	8.65
647.876	8.8
648.205	8.44
648.534	8.06
648.863	8.55
649.192	8.96
649.521	8.78
649.85	8.78
650.179	8.57
650.508	8.86
650.837	8.92
651.165	8.47
651.494	8.34
651.822	8.71
652.151	8.47
652.479	8.73
652.808	8.46
653.136	8.39
653.465	8.59
653.793	8.89
654.121	8.9
654.449	8.78
654.777	9.69
655.105	8.73
655.433	8.63
655.761	9.39
656.089	8.95
656.417	8.74
656.745	8.43
657.073	8.87
657.4	8.73
657.728	8.88
658.056	9.03
658.383	8.62
658.711	9.09
659.038	9.11
659.365	8.95
659.693	8.5
660.02	8.45
660.347	9.14
660.674	9.14
661.001	8.78
661.329	9.06
661.656	9.16
661.982	9.1
662.309	9.4
662.636	9.06
662.963	9.16
663.29	9.25
663.616	9.4
663.943	8.93
664.27	9.13
664.596	9.21
664.923	8.73
665.249	9.08
665.576	9.43
665.902	9.56
666.228	9.33
666.554	8.3
666.881	9.52
667.207	8.89
667.533	9.26
667.859	9.18
668.185	9.46
668.511	8.81
668.837	8.99
669.162	9.17
669.488	9.05
669.814	9.21
670.139	9.16
670.465	8.82
670.791	9.17
671.116	8.95
671.442	8.76
671.767	8.71
672.092	8.92
672.418	9.13
672.743	9.29
673.068	8.98
673.393	9.19
673.718	8.89
674.043	8.73
674.368	10.35
674.693	9.43
675.018	10
675.343	9.55
675.667	8.88
675.992	9.41
676.317	9.56
676.641	9.34
676.966	8.87
677.29	9.04
677.615	9.43
677.939	8.86
678.264	9.33
678.588	9.61
678.912	9.41
679.236	8.86
679.56	9.47
679.885	9.84
680.209	9.47
680.532	9.8
680.856	9.16
681.18	9.58
681.504	9.15
681.828	9.43
682.152	9.33
682.475	10.02
682.799	9.07
683.122	9.78
683.446	10.19
683.769	9.34
684.093	9.85
684.416	10.12
684.739	9.55
685.062	9.35
685.386	9.48
685.709	9.38
686.032	9.74
686.355	9.47
686.678	9.05
687.001	9.07
687.324	9.3
687.646	9.7
687.969	9.55
688.292	9.9
688.614	9.69
688.937	10.35
689.26	9.95
689.582	10.16
689.904	9.99
690.227	9.84
690.549	9.74
690.871	9.92
691.194	9.13
691.516	9.43
691.838	9.17
692.16	9.82
692.482	9.17
