Data from 23-2_chest_Reflection__1__01.txt Node

Date: Thu Feb 29 21:52:07 CST 2024
User: ToomeyLab
Spectrometer: FLMS14357
Trigger mode: 0
Integration Time (sec): 1.000000E-2
Scans to average: 100
Electric dark correction enabled: true
Nonlinearity correction enabled: false
Boxcar width: 0
XAxis mode: Wavelengths
Number of Pixels in Spectrum: 2048
>>>>>Begin Spectral Data<<<<<
189.047	113.48
189.435	113.48
189.823	113.48
190.211	-216.14
190.599	398.75
190.987	8.42
191.375	-229.73
191.763	-1832.98
192.151	24.91
192.538	174.81
192.926	183.28
193.314	-10.15
193.702	223.37
194.089	417.91
194.477	201.15
194.864	320.98
195.252	144.28
195.639	142.42
196.027	1172.22
196.414	16.13
196.801	-148.37
197.189	41.99
197.576	128.2
197.963	-91.62
198.351	-17.11
198.738	-48.55
199.125	14.28
199.512	-7.83
199.899	-5.8
200.286	-8.14
200.673	27.27
201.06	7.3
201.447	13.93
201.833	25.61
202.22	-1.65
202.607	-183.12
202.994	-82.81
203.38	-109.99
203.767	10.47
204.154	45.12
204.54	27.47
204.927	29.59
205.313	75.58
205.699	19.51
206.086	32.01
206.472	26.86
206.858	24.99
207.245	24.79
207.631	16.63
208.017	17.68
208.403	-2.81
208.789	7.74
209.175	-22.55
209.561	22.02
209.947	13.03
210.333	15.23
210.719	32.5
211.105	22.37
211.491	-5.34
211.876	26.77
212.262	42.3
212.648	2.59
213.034	35.46
213.419	19.69
213.805	32.04
214.19	-2.57
214.576	9.63
214.961	23.01
215.346	25.05
215.732	15.85
216.117	9.1
216.502	16.23
216.888	-28.37
217.273	17.2
217.658	21.25
218.043	36.6
218.428	9.02
218.813	12.59
219.198	12.39
219.583	17.04
219.968	13.26
220.353	11.39
220.738	5.03
221.122	9.01
221.507	19.86
221.892	8.59
222.276	10.13
222.661	21.6
223.046	17.84
223.43	-8.16
223.815	0.42
224.199	5.65
224.583	6.28
224.968	14.17
225.352	17.33
225.736	4.47
226.121	8.19
226.505	12.61
226.889	6.07
227.273	7.86
227.657	-4.19
228.041	9.42
228.425	7.6
228.809	12.97
229.193	3.01
229.577	6.22
229.961	2.9
230.344	3.54
230.728	4.38
231.112	4.97
231.495	4.34
231.879	4.38
232.263	2.3
232.646	5.81
233.03	5.42
233.413	4.9
233.797	4.34
234.18	1.53
234.563	0.55
234.946	3.24
235.33	4.91
235.713	3.68
236.096	5.99
236.479	6.11
236.862	3.79
237.245	5.49
237.628	3.59
238.011	5.45
238.394	3.11
238.777	3.81
239.16	5.47
239.543	4.27
239.925	4.28
240.308	5.41
240.691	6.13
241.073	5.62
241.456	6.33
241.838	5.4
242.221	4.79
242.603	5.49
242.986	5.06
243.368	4.61
243.75	5.14
244.133	3.98
244.515	4.58
244.897	5.47
245.279	5.1
245.661	4.51
246.043	2.82
246.425	7.21
246.807	4.78
247.189	4.6
247.571	5.42
247.953	5.33
248.335	4.83
248.717	4.54
249.098	4.76
249.48	4.64
249.862	4.87
250.243	4.76
250.625	4.97
251.006	5.25
251.388	5.5
251.769	4.38
252.151	6.72
252.532	5.01
252.913	4.09
253.295	5.53
253.676	5.15
254.057	4.98
254.438	5.8
254.819	4.84
255.2	4.26
255.581	5.66
255.962	5.03
256.343	5.75
256.724	5.56
257.105	4.57
257.486	5.02
257.867	5.04
258.247	5.32
258.628	4.74
259.009	4.61
259.389	4.05
259.77	5.05
260.15	4.89
260.531	5.31
260.911	4.69
261.292	4.78
261.672	4.92
262.052	4.68
262.432	4.44
262.813	4.38
263.193	4.19
263.573	4.91
263.953	4.62
264.333	4.95
264.713	4.94
265.093	4.82
265.473	4.05
265.853	5.41
266.233	4.22
266.612	5.53
266.992	4.34
267.372	3.99
267.752	4.38
268.131	4.83
268.511	4.67
268.89	5.3
269.27	5.21
269.649	4.36
270.029	4.48
270.408	4.36
270.787	4.39
271.167	5.35
271.546	4.39
271.925	4.56
272.304	4.7
272.683	5.08
273.062	4.16
273.441	4.43
273.82	4.5
274.199	4.71
274.578	4.11
274.957	4.59
275.336	5.16
275.715	4.69
276.093	4.55
276.472	5.59
276.851	4.2
277.229	4.39
277.608	4.97
277.986	3.84
278.365	5.56
278.743	4.26
279.122	4.03
279.5	4.66
279.878	4.3
280.257	5.4
280.635	4.62
281.013	5.43
281.391	4.13
281.769	4.44
282.147	4.34
282.525	4.71
282.903	4.31
283.281	4.48
283.659	4.85
284.037	4.38
284.415	3.62
284.792	3.84
285.17	3.9
285.548	4.24
285.925	4.45
286.303	4.68
286.68	4.17
287.058	4.54
287.435	4.17
287.813	3.91
288.19	4.37
288.567	4.56
288.945	4.21
289.322	4.58
289.699	4.49
290.076	4.67
290.453	4.28
290.83	3.93
291.207	4.17
291.584	4.63
291.961	4.43
292.338	5.03
292.715	4.49
293.092	4.16
293.469	4.72
293.845	4.76
294.222	4.51
294.599	5.1
294.975	4.63
295.352	4.7
295.728	4.75
296.105	4.98
296.481	4.52
296.858	5.1
297.234	4.42
297.61	5.16
297.986	5.22
298.363	4.82
298.739	4.81
299.115	5.17
299.491	5.04
299.867	4.79
300.243	4.89
300.619	4.88
300.995	5.16
301.371	5.26
301.746	4.74
302.122	5.79
302.498	5.05
302.874	5.36
303.249	4.48
303.625	5.45
304	5.75
304.376	5.42
304.751	5.11
305.127	5.26
305.502	5.54
305.878	5.81
306.253	5.11
306.628	5.31
307.003	5.57
307.378	5.68
307.754	5.85
308.129	5.53
308.504	5.82
308.879	5.85
309.254	5.37
309.629	5.79
310.003	5.8
310.378	5.65
310.753	5.86
311.128	5.47
311.502	6.1
311.877	5.61
312.252	5.85
312.626	6.35
313.001	5.6
313.375	6.21
313.75	5.88
314.124	6.21
314.498	6.08
314.873	5.57
315.247	5.49
315.621	6.31
315.995	6.25
316.369	6.52
316.743	6.1
317.117	6.18
317.491	5.61
317.865	6.39
318.239	6.34
318.613	6.88
318.987	6.57
319.361	5.98
319.734	6.17
320.108	6.75
320.482	6.67
320.855	6.39
321.229	6.71
321.602	6.32
321.976	6.39
322.349	6.28
322.723	6.62
323.096	6.75
323.469	6.18
323.843	6.14
324.216	6.34
324.589	6.53
324.962	5.93
325.335	6.43
325.708	6.78
326.081	6.54
326.454	6.16
326.827	6.63
327.2	6.8
327.573	6.24
327.945	6.93
328.318	6.6
328.691	6.66
329.063	6.56
329.436	6.82
329.809	6.96
330.181	6.84
330.553	6.81
330.926	7.03
331.298	6.3
331.671	6.75
332.043	6.38
332.415	6.49
332.787	6.21
333.159	6.69
333.532	7.03
333.904	6.27
334.276	6.74
334.648	6.84
335.02	6.28
335.391	6.54
335.763	6.31
336.135	6.23
336.507	6.44
336.879	6.48
337.25	6.86
337.622	6.35
337.993	6.78
338.365	6.53
338.736	6.51
339.108	6.8
339.479	7.29
339.851	7.01
340.222	7.29
340.593	6.68
340.964	7.25
341.336	6.58
341.707	7.12
342.078	6.52
342.449	7.1
342.82	7.47
343.191	6.79
343.562	6.49
343.933	6.99
344.303	7.36
344.674	6.59
345.045	6.91
345.416	6.77
345.786	7
346.157	6.67
346.527	6.81
346.898	7.06
347.268	6.89
347.639	6.68
348.009	7.03
348.38	7.05
348.75	6.98
349.12	6.84
349.49	6.86
349.861	7.14
350.231	7.14
350.601	7.31
350.971	6.68
351.341	7.28
351.711	7.22
352.081	7.05
352.45	6.52
352.82	6.64
353.19	7.07
353.56	7.38
353.929	7.21
354.299	6.6
354.669	6.78
355.038	7.05
355.408	7.09
355.777	7.23
356.147	7.35
356.516	6.94
356.885	7.39
357.254	6.72
357.624	6.76
357.993	7.06
358.362	7.12
358.731	7.3
359.1	7.31
359.469	7.06
359.838	6.87
360.207	7
360.576	7.47
360.945	7.13
361.314	7.45
361.682	6.95
362.051	7.13
362.42	7.49
362.788	7.13
363.157	7.23
363.525	7.28
363.894	7.03
364.262	6.96
364.631	7.22
364.999	6.82
365.367	6.93
365.735	7.35
366.104	7.24
366.472	6.68
366.84	7.13
367.208	7.19
367.576	7.46
367.944	7.36
368.312	7.75
368.68	7.04
369.048	7.07
369.416	7.32
369.783	7.48
370.151	7.52
370.519	7.54
370.886	7.29
371.254	7.93
371.621	7.51
371.989	7.04
372.356	7.26
372.724	7.56
373.091	7.1
373.458	7.44
373.826	7.44
374.193	7.31
374.56	7.24
374.927	7.43
375.294	7.34
375.661	7.71
376.028	7.39
376.395	7.27
376.762	7.88
377.129	7.3
377.496	7.57
377.863	7.49
378.229	7.41
378.596	7.46
378.963	7.4
379.329	7.48
379.696	7.36
380.062	7.69
380.429	7.44
380.795	7.72
381.161	7.78
381.528	7.57
381.894	7.31
382.26	7.09
382.626	7.68
382.993	7.53
383.359	7.61
383.725	7.58
384.091	7.76
384.457	7.57
384.823	7.37
385.188	7.82
385.554	7.18
385.92	7.39
386.286	7.08
386.651	7.55
387.017	7.69
387.383	7.42
387.748	7.65
388.114	7.63
388.479	7.53
388.845	7.5
389.21	7.7
389.575	7.47
389.94	7.55
390.306	7.36
390.671	7.69
391.036	7.65
391.401	7.5
391.766	7.28
392.131	7.28
392.496	7.53
392.861	7.49
393.226	7.56
393.591	7.68
393.956	7.49
394.32	7.41
394.685	7.54
395.05	7.44
395.414	7.57
395.779	7.46
396.143	7.56
396.508	7.49
396.872	7.59
397.236	7.73
397.601	7.47
397.965	7.72
398.329	7.77
398.694	7.42
399.058	7.85
399.422	7.62
399.786	7.77
400.15	7.35
400.514	7.4
400.878	7.39
401.242	7.37
401.605	7.63
401.969	8.04
402.333	7.65
402.697	7.49
403.06	7.52
403.424	7.72
403.787	7.61
404.151	7.76
404.514	7.81
404.878	7.37
405.241	7.6
405.604	7.65
405.968	7.55
406.331	7.71
406.694	7.69
407.057	7.36
407.42	7.57
407.783	7.67
408.146	7.63
408.509	7.47
408.872	7.28
409.235	7.76
409.598	7.79
409.961	7.39
410.323	8
410.686	7.51
411.049	7.45
411.411	7.48
411.774	7.5
412.136	7.59
412.499	7.59
412.861	7.65
413.223	7.41
413.586	7.55
413.948	7.48
414.31	7.62
414.672	7.59
415.035	7.66
415.397	7.42
415.759	7.67
416.121	7.98
416.483	7.55
416.845	7.69
417.206	7.69
417.568	7.81
417.93	7.58
418.292	7.66
418.653	7.69
419.015	7.64
419.377	7.5
419.738	7.43
420.1	7.59
420.461	7.66
420.822	7.62
421.184	7.65
421.545	7.58
421.906	7.62
422.267	7.51
422.629	7.68
422.99	7.59
423.351	7.64
423.712	7.49
424.073	7.5
424.434	7.62
424.795	7.66
425.155	7.65
425.516	7.75
425.877	7.64
426.238	7.63
426.598	7.66
426.959	7.63
427.32	7.84
427.68	7.7
428.041	7.64
428.401	7.78
428.761	8.04
429.122	8.01
429.482	7.96
429.842	8.02
430.202	7.88
430.563	7.87
430.923	7.95
431.283	8.04
431.643	8.06
432.003	8.36
432.363	8.04
432.722	8.09
433.082	7.9
433.442	8.18
433.802	8.2
434.161	8.3
434.521	8.02
434.881	8.01
435.24	8.11
435.6	7.81
435.959	8.06
436.319	7.94
436.678	7.92
437.037	8.02
437.396	8.15
437.756	8.34
438.115	8.16
438.474	8.06
438.833	8.27
439.192	8.2
439.551	8.08
439.91	8.28
440.269	8.14
440.628	8.18
440.987	8.16
441.345	8.13
441.704	8.12
442.063	8.25
442.421	8.23
442.78	8.16
443.138	8.18
443.497	8.14
443.855	8.07
444.214	8.26
444.572	8.38
444.93	8.12
445.288	8.35
445.647	8.24
446.005	8.36
446.363	8.21
446.721	8.23
447.079	8.28
447.437	8.27
447.795	8.26
448.153	8.33
448.51	8.29
448.868	8.24
449.226	8.24
449.584	8.29
449.941	8.39
450.299	8.41
450.656	8.27
451.014	8.27
451.371	8.42
451.729	8.43
452.086	8.45
452.443	8.47
452.801	8.42
453.158	8.75
453.515	8.57
453.872	8.62
454.229	8.42
454.586	8.38
454.943	8.48
455.3	8.35
455.657	8.57
456.014	8.57
456.371	8.53
456.727	8.6
457.084	8.56
457.441	8.46
457.797	8.38
458.154	8.52
458.51	8.42
458.867	8.8
459.223	8.62
459.58	8.73
459.936	8.71
460.292	8.44
460.648	8.55
461.005	8.57
461.361	8.5
461.717	8.5
462.073	8.39
462.429	8.51
462.785	8.55
463.141	8.59
463.496	8.71
463.852	8.61
464.208	8.61
464.564	8.67
464.919	8.78
465.275	8.68
465.631	8.71
465.986	8.86
466.342	8.67
466.697	8.67
467.052	8.58
467.408	8.68
467.763	8.77
468.118	8.8
468.473	8.91
468.829	8.71
469.184	8.68
469.539	8.89
469.894	8.75
470.249	8.98
470.603	8.99
470.958	9.04
471.313	8.7
471.668	8.83
472.023	8.76
472.377	8.72
472.732	8.92
473.086	8.95
473.441	8.9
473.795	9.06
474.15	8.7
474.504	9.04
474.859	8.86
475.213	9
475.567	9.08
475.921	9.11
476.275	8.78
476.63	9.02
476.984	9.06
477.338	8.87
477.692	8.91
478.045	8.9
478.399	8.85
478.753	9.06
479.107	9.1
479.461	8.89
479.814	8.98
480.168	9.02
480.521	8.98
480.875	9.04
481.228	9.03
481.582	9.09
481.935	9.03
482.289	9.07
482.642	8.98
482.995	8.92
483.348	8.95
483.701	9.03
484.055	8.91
484.408	8.96
484.761	8.92
485.114	8.72
485.466	8.66
485.819	8.63
486.172	8.52
486.525	8.51
486.878	8.62
487.23	8.67
487.583	8.78
487.936	8.88
488.288	8.9
488.641	8.93
488.993	8.85
489.345	8.79
489.698	8.72
490.05	8.7
490.402	8.79
490.754	8.8
491.107	8.87
491.459	8.93
491.811	8.97
492.163	9.01
492.515	9.07
492.866	9.05
493.218	9.06
493.57	8.92
493.922	8.9
494.274	8.87
494.625	8.91
494.977	9.05
495.328	9.16
495.68	9.23
496.031	9.34
496.383	9.25
496.734	9.36
497.086	9.25
497.437	9.37
497.788	9.35
498.139	9.33
498.49	9.31
498.842	9.22
499.193	9.3
499.544	9.43
499.894	9.34
500.245	9.33
500.596	9.36
500.947	9.28
501.298	9.5
501.648	9.34
501.999	9.53
502.35	9.45
502.7	9.53
503.051	9.53
503.401	9.45
503.752	9.49
504.102	9.61
504.452	9.56
504.803	9.4
505.153	9.45
505.503	9.56
505.853	9.71
506.203	9.7
506.553	9.56
506.903	9.39
507.253	9.66
507.603	9.55
507.953	9.64
508.303	9.63
508.652	9.73
509.002	9.75
509.352	9.59
509.701	9.64
510.051	9.75
510.4	9.72
510.75	9.6
511.099	9.6
511.449	9.59
511.798	9.67
512.147	9.67
512.496	9.79
512.846	9.54
513.195	9.63
513.544	9.75
513.893	9.65
514.242	9.7
514.591	9.62
514.939	9.68
515.288	9.89
515.637	9.87
515.986	9.78
516.334	9.7
516.683	9.84
517.032	9.85
517.38	9.86
517.729	9.87
518.077	9.93
518.426	9.89
518.774	9.79
519.122	9.9
519.47	9.92
519.819	9.82
520.167	9.77
520.515	9.86
520.863	9.73
521.211	9.75
521.559	9.86
521.907	10.02
522.255	9.93
522.602	9.81
522.95	9.89
523.298	9.97
523.645	10.04
523.993	10.12
524.341	10.11
524.688	10.27
525.036	10.18
525.383	10.13
525.73	10.12
526.078	10.36
526.425	10.02
526.772	10.02
527.119	10.08
527.466	10.07
527.814	10
528.161	10.04
528.508	9.96
528.854	10.1
529.201	10.06
529.548	9.94
529.895	9.85
530.242	9.88
530.588	9.86
530.935	9.82
531.282	9.81
531.628	9.74
531.975	9.85
532.321	10.02
532.667	10.14
533.014	10.19
533.36	10.23
533.706	10.28
534.052	10.33
534.399	10.29
534.745	10.25
535.091	10.13
535.437	10.2
535.783	10.12
536.129	10.15
536.474	10.25
536.82	10.27
537.166	10.35
537.512	10.38
537.857	10.51
538.203	10.52
538.549	10.44
538.894	10.5
539.239	10.43
539.585	10.5
539.93	10.48
540.276	10.59
540.621	10.39
540.966	10.56
541.311	10.66
541.656	10.66
542.001	10.6
542.346	10.63
542.691	10.57
543.036	10.5
543.381	10.37
543.726	10.37
544.071	10.32
544.415	10.43
544.76	10.56
545.105	10.62
545.449	10.69
545.794	10.63
546.138	10.68
546.483	10.75
546.827	10.73
547.171	10.9
547.516	11.02
547.86	10.97
548.204	10.89
548.548	10.85
548.892	10.93
549.236	10.96
549.58	10.97
549.924	10.92
550.268	10.95
550.612	11.21
550.956	11.13
551.3	11.2
551.643	11.03
551.987	11.2
552.33	11.25
552.674	11.42
553.017	11.25
553.361	11.16
553.704	11.46
554.048	11.29
554.391	11.36
554.734	11.35
555.077	11.4
555.42	11.39
555.764	11.41
556.107	11.5
556.45	11.41
556.793	11.5
557.135	11.48
557.478	11.43
557.821	11.63
558.164	11.82
558.507	11.53
558.849	11.58
559.192	11.63
559.534	11.66
559.877	11.45
560.219	11.69
560.562	11.69
560.904	11.68
561.246	11.69
561.589	11.83
561.931	11.61
562.273	11.88
562.615	11.74
562.957	11.72
563.299	11.72
563.641	11.88
563.983	11.93
564.325	11.78
564.667	11.86
565.008	11.88
565.35	11.92
565.692	11.99
566.033	11.88
566.375	11.95
566.716	11.96
567.058	12.15
567.399	12.17
567.741	11.93
568.082	12.18
568.423	11.95
568.764	12.14
569.105	12
569.447	12.11
569.788	12.24
570.129	12.13
570.47	12.4
570.811	12.16
571.151	12.43
571.492	12.2
571.833	12.41
572.174	12.28
572.514	12.29
572.855	12.41
573.195	12.49
573.536	12.53
573.876	12.55
574.217	12.41
574.557	12.32
574.898	12.65
575.238	12.36
575.578	12.51
575.918	12.55
576.258	12.53
576.598	12.61
576.938	12.73
577.278	12.46
577.618	12.65
577.958	12.67
578.298	12.43
578.638	12.62
578.977	12.66
579.317	12.96
579.657	12.77
579.996	12.81
580.336	13.16
580.675	13.04
581.014	12.84
581.354	12.68
581.693	13.09
582.032	12.87
582.372	13
582.711	13.09
583.05	13.05
583.389	13.39
583.728	12.8
584.067	13.27
584.406	13.23
584.745	13.26
585.083	13.04
585.422	13.2
585.761	13.35
586.1	13.06
586.438	13.49
586.777	13.39
587.115	13.31
587.454	13.36
587.792	13.44
588.13	13.34
588.469	13.28
588.807	13.27
589.145	13.56
589.483	13.66
589.821	13.46
590.159	13.48
590.497	13.4
590.835	13.53
591.173	13.73
591.511	13.73
591.849	13.64
592.187	13.52
592.524	13.62
592.862	13.73
593.2	13.61
593.537	13.66
593.875	13.75
594.212	14
594.55	13.93
594.887	14.12
595.224	14
595.561	13.88
595.899	14.26
596.236	13.81
596.573	13.92
596.91	14.02
597.247	14.19
597.584	14.14
597.921	13.95
598.258	14.15
598.594	14.2
598.931	14.15
599.268	14.08
599.604	14.05
599.941	14.14
600.277	14.26
600.614	14.33
600.95	14.46
601.287	14.43
601.623	14.38
601.959	14.48
602.296	14.36
602.632	14.3
602.968	14.36
603.304	14.45
603.64	14.57
603.976	14.5
604.312	14.79
604.648	14.43
604.984	14.5
605.319	14.96
605.655	14.68
605.991	14.53
606.326	14.6
606.662	14.85
606.998	14.68
607.333	14.71
607.668	14.91
608.004	14.78
608.339	14.67
608.674	14.88
609.01	14.84
609.345	14.92
609.68	14.68
610.015	15.15
610.35	15.09
610.685	15.19
611.02	15.18
611.355	14.82
611.689	15.08
612.024	15.08
612.359	15.4
612.694	15.04
613.028	14.98
613.363	15.16
613.697	15.4
614.032	15.17
614.366	15.38
614.7	15.3
615.035	15.64
615.369	15.51
615.703	15.77
616.037	15.81
616.371	15.79
616.705	15.73
617.039	15.65
617.373	15.59
617.707	15.52
618.041	15.69
618.375	15.73
618.709	15.81
619.042	15.34
619.376	15.43
619.71	15.48
620.043	15.75
620.377	16.17
620.71	15.49
621.043	16.07
621.377	15.94
621.71	16.13
622.043	16.3
622.376	16.05
622.709	16.31
623.043	16.13
623.376	16.14
623.709	16.02
624.041	15.91
624.374	15.93
624.707	16.01
625.04	16.33
625.373	16.07
625.705	16.31
626.038	16.02
626.37	16.06
626.703	16.61
627.035	16.18
627.368	16.09
627.7	16.62
628.032	16.31
628.365	16.54
628.697	16.21
629.029	16.76
629.361	16.52
629.693	16.37
630.025	16.36
630.357	16.82
630.689	16.31
631.021	16.98
631.353	16.54
631.684	16.51
632.016	16.35
632.348	16.59
632.679	17.03
633.011	16.74
633.342	16.5
633.674	16.61
634.005	17.19
634.336	17.14
634.668	16.73
634.999	17.11
635.33	17.31
635.661	17.24
635.992	16.75
636.323	17.28
636.654	17.54
636.985	17.1
637.316	17.19
637.647	17.34
637.977	17.06
638.308	17.27
638.639	17.45
638.969	17.5
639.3	17.29
639.63	17.65
639.961	17.75
640.291	17.27
640.622	17.67
640.952	17.03
641.282	17.23
641.612	17.28
641.943	17.32
642.273	17.99
642.603	17.88
642.933	17.75
643.263	18.23
643.592	17.7
643.922	17.41
644.252	17.71
644.582	18.08
644.911	18.1
645.241	17.69
645.571	17.8
645.9	17.43
646.23	18.11
646.559	17.59
646.888	18.3
647.218	17.81
647.547	18.18
647.876	18.11
648.205	17.85
648.534	17.64
648.863	18.37
649.192	18
649.521	18.26
649.85	17.9
650.179	17.54
650.508	17.88
650.837	17.78
651.165	18.24
651.494	18.11
651.822	18.23
652.151	18.65
652.479	18.06
652.808	18.59
653.136	18.43
653.465	18.28
653.793	18.78
654.121	18.81
654.449	18.35
654.777	18.45
655.105	18.65
655.433	18.38
655.761	18.87
656.089	18.5
656.417	18.65
656.745	18.81
657.073	18.6
657.4	18.88
657.728	19.03
658.056	18.85
658.383	18.94
658.711	18.94
659.038	19.33
659.365	19.42
659.693	18.68
660.02	19.13
660.347	19.68
660.674	19.07
661.001	18.86
661.329	19.25
661.656	19.3
661.982	19.27
662.309	19.67
662.636	19.15
662.963	19.23
663.29	19.14
663.616	19.53
663.943	19.17
664.27	19.25
664.596	19.01
664.923	19.78
665.249	19.63
665.576	19.49
665.902	19.34
666.228	19.64
666.554	19.58
666.881	20.56
667.207	19.85
667.533	20.21
667.859	20.27
668.185	19.92
668.511	19.42
668.837	20.22
669.162	19.83
669.488	20.08
669.814	20.22
670.139	19.77
670.465	19.74
670.791	19.82
671.116	20.05
671.442	20.36
671.767	19.57
672.092	20.43
672.418	20.19
672.743	20.05
673.068	20.4
673.393	20.69
673.718	19.99
674.043	20.56
674.368	20.71
674.693	19.87
675.018	20.37
675.343	20.5
675.667	20.63
675.992	20.59
676.317	20.98
676.641	20.1
676.966	20.43
677.29	20.42
677.615	20.59
677.939	20.91
678.264	20.84
678.588	21.76
678.912	21.29
679.236	21
679.56	21.5
679.885	20.84
680.209	21.02
680.532	21.1
680.856	20.57
681.18	20.16
681.504	20.67
681.828	20.95
