Data from 23-2_forehead_Reflection__2__12.txt Node

Date: Thu Feb 29 21:57:13 CST 2024
User: ToomeyLab
Spectrometer: FLMS14357
Trigger mode: 0
Integration Time (sec): 1.000000E-2
Scans to average: 100
Electric dark correction enabled: true
Nonlinearity correction enabled: false
Boxcar width: 0
XAxis mode: Wavelengths
Number of Pixels in Spectrum: 2048
>>>>>Begin Spectral Data<<<<<
189.047	44.8
189.435	44.8
189.823	44.8
190.211	-102.32
190.599	-344.34
190.987	-48.06
191.375	58.13
191.763	-1119.15
192.151	210.17
192.538	27.69
192.926	173.5
193.314	-9.8
193.702	150.94
194.089	224.19
194.477	36.07
194.864	-65.1
195.252	69.63
195.639	-43.58
196.027	-644.44
196.414	44.89
196.801	63.13
197.189	67.24
197.576	16.45
197.963	498.48
198.351	-65.94
198.738	26.09
199.125	20.58
199.512	62.38
199.899	5.05
200.286	-46.7
200.673	37.44
201.06	-18.17
201.447	-8.97
201.833	21.66
202.22	-45.78
202.607	-135.43
202.994	80.21
203.38	-68.47
203.767	9.99
204.154	35.21
204.54	11.18
204.927	44.41
205.313	33.14
205.699	-26.19
206.086	5.08
206.472	26.55
206.858	10.03
207.245	4.91
207.631	2.56
208.017	22.82
208.403	-20.04
208.789	21.05
209.175	-3.09
209.561	37.33
209.947	31.8
210.333	21.09
210.719	34.64
211.105	-7.69
211.491	-2.13
211.876	18.21
212.262	37.76
212.648	10.8
213.034	2.16
213.419	39.91
213.805	13.5
214.19	8.21
214.576	-9.46
214.961	17.95
215.346	-6.71
215.732	14.6
216.117	6.99
216.502	1.09
216.888	-25.22
217.273	13.05
217.658	44.77
218.043	25.4
218.428	25.97
218.813	5.09
219.198	15.81
219.583	-2.1
219.968	-7.91
220.353	-1.01
220.738	16.39
221.122	6.43
221.507	24.82
221.892	8.92
222.276	22.04
222.661	2.64
223.046	6.07
223.43	-12.8
223.815	-5.24
224.199	10.13
224.583	-1.13
224.968	0.46
225.352	4.22
225.736	2.82
226.121	4.21
226.505	13.86
226.889	9.91
227.273	-0.55
227.657	-0.02
228.041	5.36
228.425	11.7
228.809	8.68
229.193	4.71
229.577	2.16
229.961	2.53
230.344	2.29
230.728	4.07
231.112	4.55
231.495	4.58
231.879	4.27
232.263	3.21
232.646	2.87
233.03	4.03
233.413	2.81
233.797	2.49
234.18	2.12
234.563	4
234.946	2.28
235.33	4.15
235.713	3.72
236.096	3.02
236.479	5.3
236.862	5.21
237.245	1.79
237.628	3.52
238.011	5.08
238.394	1.9
238.777	3.35
239.16	6.26
239.543	1.79
239.925	4.49
240.308	5.02
240.691	6.93
241.073	4.07
241.456	4.93
241.838	4.38
242.221	4.62
242.603	5.5
242.986	4.81
243.368	3.82
243.75	4.21
244.133	4.04
244.515	3.85
244.897	4.71
245.279	4.52
245.661	4.57
246.043	4.13
246.425	5.86
246.807	5.6
247.189	3.89
247.571	4.8
247.953	5.06
248.335	4.41
248.717	4.45
249.098	4.57
249.48	4.67
249.862	5.23
250.243	4.69
250.625	4.93
251.006	5.45
251.388	5.52
251.769	5.17
252.151	5.8
252.532	5.41
252.913	4.25
253.295	4.81
253.676	5.32
254.057	5.12
254.438	5.25
254.819	5.96
255.2	4.17
255.581	4.48
255.962	4.9
256.343	5.07
256.724	5.98
257.105	5.61
257.486	5.53
257.867	6.11
258.247	6.65
258.628	4.18
259.009	5.09
259.389	3.47
259.77	5.16
260.15	5.28
260.531	4.78
260.911	4.6
261.292	4.64
261.672	4.81
262.052	5.11
262.432	4.86
262.813	4.71
263.193	5.28
263.573	5.27
263.953	4.72
264.333	4
264.713	5.11
265.093	5.17
265.473	5.49
265.853	5.47
266.233	4.92
266.612	5.36
266.992	4.89
267.372	4.5
267.752	4.38
268.131	5.33
268.511	4.65
268.89	4.86
269.27	5.16
269.649	4.97
270.029	4.75
270.408	4.57
270.787	4.48
271.167	4.36
271.546	5.38
271.925	5.14
272.304	4.51
272.683	4.95
273.062	4.47
273.441	4.66
273.82	4.94
274.199	5.29
274.578	4.86
274.957	4.55
275.336	5.14
275.715	5.17
276.093	4.57
276.472	5.75
276.851	4.96
277.229	4.33
277.608	4.86
277.986	4.34
278.365	5.24
278.743	4.58
279.122	4.64
279.5	4.58
279.878	5.01
280.257	4.94
280.635	4.85
281.013	4.98
281.391	4.22
281.769	4.89
282.147	4.88
282.525	5.1
282.903	4.71
283.281	4.62
283.659	4.98
284.037	4.91
284.415	4.24
284.792	4.61
285.17	4.03
285.548	4.63
285.925	4.73
286.303	4.88
286.68	4.15
287.058	4.59
287.435	4.62
287.813	4.39
288.19	4.8
288.567	4.71
288.945	4.68
289.322	4.65
289.699	5.23
290.076	4.9
290.453	4.55
290.83	4.53
291.207	5.02
291.584	4.8
291.961	4.69
292.338	5.13
292.715	5.19
293.092	5.22
293.469	5.51
293.845	5.16
294.222	5.18
294.599	5.26
294.975	4.98
295.352	5.65
295.728	5.42
296.105	5.85
296.481	5.27
296.858	6.19
297.234	4.96
297.61	5.83
297.986	6.19
298.363	5.83
298.739	5.06
299.115	6.03
299.491	5.9
299.867	6.32
300.243	5.42
300.619	5.94
300.995	6.45
301.371	6.49
301.746	5.83
302.122	6.77
302.498	6.41
302.874	6.6
303.249	6.57
303.625	6.93
304	6.69
304.376	6.95
304.751	6.81
305.127	6.75
305.502	6.27
305.878	7.22
306.253	6.85
306.628	6.22
307.003	7.37
307.378	7.44
307.754	7.63
308.129	7.22
308.504	7.71
308.879	7.28
309.254	7.39
309.629	7.43
310.003	7.41
310.378	7.46
310.753	7.54
311.128	8.05
311.502	8.57
311.877	7.66
312.252	8.11
312.626	8.16
313.001	7.87
313.375	8.53
313.75	8.69
314.124	9.11
314.498	8.92
314.873	8.54
315.247	8.27
315.621	8.76
315.995	8.98
316.369	9.19
316.743	9.09
317.117	9.86
317.491	9.49
317.865	9.09
318.239	9.45
318.613	9.95
318.987	9.9
319.361	9.4
319.734	9.92
320.108	10.14
320.482	10
320.855	9.94
321.229	10.34
321.602	9.67
321.976	10.14
322.349	9.85
322.723	10.82
323.096	10.66
323.469	10.23
323.843	10.24
324.216	10.41
324.589	10.38
324.962	10.38
325.335	10.54
325.708	11.21
326.081	10.61
326.454	10.21
326.827	10.96
327.2	11.3
327.573	10.76
327.945	10.93
328.318	11.21
328.691	11.35
329.063	11.19
329.436	11.15
329.809	11.37
330.181	11.64
330.553	11.77
330.926	11.36
331.298	11.65
331.671	11.27
332.043	11.42
332.415	11.1
332.787	11.25
333.159	11.74
333.532	11.3
333.904	11.9
334.276	12
334.648	12.14
335.02	11.42
335.391	11.78
335.763	12.01
336.135	11.83
336.507	11.29
336.879	11.99
337.25	11.88
337.622	11.89
337.993	11.87
338.365	11.36
338.736	12.15
339.108	12.24
339.479	12.77
339.851	12.32
340.222	12.82
340.593	12.29
340.964	12.3
341.336	12.19
341.707	12.6
342.078	12.33
342.449	12.3
342.82	12.9
343.191	12.76
343.562	12.89
343.933	12.45
344.303	12.97
344.674	12.89
345.045	12.65
345.416	12.99
345.786	13.02
346.157	12.55
346.527	13.11
346.898	12.79
347.268	12.84
347.639	13
348.009	13.12
348.38	13.54
348.75	13.23
349.12	13.7
349.49	13.33
349.861	13.38
350.231	13.41
350.601	13.61
350.971	13.06
351.341	13.63
351.711	13.68
352.081	13.57
352.45	13.34
352.82	13.6
353.19	14.45
353.56	13.86
353.929	13.74
354.299	13.7
354.669	13.43
355.038	13.69
355.408	14.39
355.777	14.12
356.147	13.56
356.516	14.07
356.885	14.42
357.254	14.1
357.624	14.08
357.993	14.06
358.362	14.31
358.731	14.21
359.1	14.51
359.469	14.54
359.838	14.51
360.207	14.34
360.576	14.34
360.945	14.37
361.314	14.59
361.682	14.38
362.051	14.57
362.42	14.64
362.788	14.75
363.157	14.7
363.525	14.29
363.894	14.9
364.262	14.74
364.631	15.05
364.999	14.65
365.367	14.77
365.735	14.84
366.104	14.98
366.472	14.6
366.84	15.3
367.208	15.23
367.576	15.15
367.944	15.11
368.312	15.24
368.68	15.36
369.048	15.31
369.416	15.42
369.783	15.43
370.151	15.53
370.519	15.31
370.886	15.33
371.254	15.69
371.621	15.77
371.989	15.32
372.356	15.47
372.724	15.69
373.091	15.41
373.458	15.62
373.826	15.88
374.193	15.83
374.56	15.56
374.927	16.47
375.294	15.94
375.661	16.03
376.028	16.1
376.395	15.98
376.762	16.41
377.129	16.05
377.496	16.26
377.863	16.09
378.229	15.69
378.596	16.21
378.963	15.94
379.329	16.17
379.696	15.98
380.062	16.38
380.429	16.16
380.795	16.48
381.161	16.4
381.528	16.21
381.894	16.14
382.26	16.31
382.626	16.67
382.993	16.52
383.359	16.46
383.725	16.35
384.091	16.74
384.457	16.53
384.823	16.6
385.188	16.72
385.554	16.4
385.92	16.84
386.286	16.31
386.651	16.63
387.017	17.05
387.383	16.78
387.748	16.74
388.114	16.69
388.479	17.06
388.845	17.08
389.21	16.74
389.575	16.9
389.94	16.87
390.306	16.62
390.671	16.98
391.036	17.09
391.401	16.9
391.766	16.79
392.131	17.09
392.496	16.98
392.861	17
393.226	17.37
393.591	17.15
393.956	17.24
394.32	17.38
394.685	17.35
395.05	17.1
395.414	17.24
395.779	17.11
396.143	17.14
396.508	17.23
396.872	17.5
397.236	17.17
397.601	17.19
397.965	17.46
398.329	17.21
398.694	17.36
399.058	17.38
399.422	17.19
399.786	17.64
400.15	17.45
400.514	17.45
400.878	17.52
401.242	17.31
401.605	17.42
401.969	17.65
402.333	17.54
402.697	17.51
403.06	17.71
403.424	17.94
403.787	17.52
404.151	17.61
404.514	17.51
404.878	17.55
405.241	17.66
405.604	17.42
405.968	17.55
406.331	17.42
406.694	17.68
407.057	17.45
407.42	17.62
407.783	17.53
408.146	17.79
408.509	17.93
408.872	17.76
409.235	17.52
409.598	17.86
409.961	17.67
410.323	18.2
410.686	17.64
411.049	17.72
411.411	17.83
411.774	17.93
412.136	17.98
412.499	18.13
412.861	18.03
413.223	17.91
413.586	18.13
413.948	18.03
414.31	18.34
414.672	17.72
415.035	18.34
415.397	18.15
415.759	18.39
416.121	18.46
416.483	18.57
416.845	18.13
417.206	18.33
417.568	18.35
417.93	18.26
418.292	18.45
418.653	18.21
419.015	18.51
419.377	18.48
419.738	18.42
420.1	18.44
420.461	18.56
420.822	18.44
421.184	18.46
421.545	18.61
421.906	18.62
422.267	18.47
422.629	18.56
422.99	18.65
423.351	18.75
423.712	18.63
424.073	18.57
424.434	18.94
424.795	19.05
425.155	18.91
425.516	18.93
425.877	18.8
426.238	19.03
426.598	19.11
426.959	19.29
427.32	19.37
427.68	19.36
428.041	19.45
428.401	19.75
428.761	19.74
429.122	19.81
429.482	19.66
429.842	19.82
430.202	20.1
430.563	19.98
430.923	20.13
431.283	20.14
431.643	20.02
432.003	20.4
432.363	20.07
432.722	20.36
433.082	20.19
433.442	20.34
433.802	20.55
434.161	20.66
434.521	20.5
434.881	20.38
435.24	20.49
435.6	20.51
435.959	20.56
436.319	20.49
436.678	20.87
437.037	20.72
437.396	20.61
437.756	20.78
438.115	20.84
438.474	20.68
438.833	20.94
439.192	21.06
439.551	21.06
439.91	21.12
440.269	21.02
440.628	21.08
440.987	20.94
441.345	21.06
441.704	21.01
442.063	21.23
442.421	21.25
442.78	21.01
443.138	21.37
443.497	21.27
443.855	21.52
444.214	21.4
444.572	21.44
444.93	21.45
445.288	21.56
445.647	21.57
446.005	21.62
446.363	21.5
446.721	21.55
447.079	21.54
447.437	21.57
447.795	21.48
448.153	21.43
448.51	21.48
448.868	21.62
449.226	21.68
449.584	21.81
449.941	21.78
450.299	21.92
450.656	22.07
451.014	22.08
451.371	22.25
451.729	22.28
452.086	22.31
452.443	22.43
452.801	22.53
453.158	22.54
453.515	22.57
453.872	22.37
454.229	22.38
454.586	22.41
454.943	22.49
455.3	22.58
455.657	22.52
456.014	22.7
456.371	22.62
456.727	22.7
457.084	22.52
457.441	22.97
457.797	22.88
458.154	23.1
458.51	23.02
458.867	23.03
459.223	23
459.58	22.79
459.936	23.01
460.292	22.96
460.648	22.89
461.005	22.79
461.361	22.79
461.717	22.54
462.073	22.81
462.429	22.95
462.785	23.2
463.141	23.33
463.496	23.5
463.852	23.29
464.208	23.48
464.564	23.47
464.919	23.61
465.275	23.41
465.631	23.67
465.986	23.97
466.342	23.45
466.697	23.58
467.052	23.72
467.408	23.73
467.763	23.71
468.118	23.71
468.473	24.03
468.829	23.59
469.184	24.15
469.539	23.92
469.894	23.93
470.249	24
470.603	23.87
470.958	24.2
471.313	24.09
471.668	24.12
472.023	24.09
472.377	24.08
472.732	24.31
473.086	24.27
473.441	24.26
473.795	24.33
474.15	24.03
474.504	24.31
474.859	24.42
475.213	24.42
475.567	24.5
475.921	24.74
476.275	24.56
476.63	24.53
476.984	24.54
477.338	24.5
477.692	24.53
478.045	24.49
478.399	24.64
478.753	24.75
479.107	24.63
479.461	24.58
479.814	24.69
480.168	24.76
480.521	24.72
480.875	24.78
481.228	24.64
481.582	24.98
481.935	25
482.289	24.89
482.642	24.73
482.995	24.72
483.348	24.64
483.701	24.81
484.055	24.58
484.408	24.61
484.761	24.38
485.114	24.05
485.466	23.89
485.819	23.99
486.172	23.99
486.525	24.26
486.878	24.48
487.23	24.62
487.583	24.69
487.936	24.76
488.288	24.67
488.641	24.48
488.993	24.5
489.345	24.46
489.698	24.48
490.05	24.58
490.402	24.79
490.754	24.83
491.107	25.14
491.459	25.18
491.811	25.34
492.163	25.49
492.515	25.13
492.866	25.01
493.218	24.74
493.57	24.77
493.922	24.98
494.274	25.04
494.625	25.34
494.977	25.57
495.328	25.72
495.68	25.85
496.031	26.08
496.383	25.88
496.734	25.97
497.086	26.02
497.437	26.07
497.788	26.01
498.139	25.91
498.49	26.05
498.842	26.02
499.193	26.13
499.544	26.16
499.894	26.02
500.245	26.07
500.596	25.95
500.947	26.12
501.298	26.21
501.648	26.48
501.999	26.45
502.35	26.5
502.7	26.55
503.051	26.54
503.401	26.53
503.752	26.44
504.102	26.66
504.452	26.53
504.803	26.55
505.153	26.55
505.503	26.84
505.853	26.58
506.203	26.69
506.553	26.86
506.903	26.67
507.253	26.85
507.603	26.9
507.953	26.88
508.303	26.9
508.652	26.95
509.002	26.95
509.352	26.81
509.701	26.87
510.051	26.82
510.4	26.89
510.75	26.92
511.099	26.98
511.449	26.9
511.798	27.04
512.147	27.06
512.496	27
512.846	27.02
513.195	26.96
513.544	27.1
513.893	27.11
514.242	27.11
514.591	27.17
514.939	27.16
515.288	27.38
515.637	27.37
515.986	27.45
516.334	27.27
516.683	27.5
517.032	27.53
517.38	27.52
517.729	27.58
518.077	27.74
518.426	27.57
518.774	27.39
519.122	27.65
519.47	27.41
519.819	27.29
520.167	27.24
520.515	27.12
520.863	27.34
521.211	27.45
521.559	27.59
521.907	27.76
522.255	27.69
522.602	27.8
522.95	27.79
523.298	27.95
523.645	28.2
523.993	28.01
524.341	27.97
524.688	28.21
525.036	27.99
525.383	28.07
525.73	28.1
526.078	28.37
526.425	28.15
526.772	28.05
527.119	27.96
527.466	27.79
527.814	27.69
528.161	27.78
528.508	27.88
528.854	27.97
529.201	27.76
529.548	27.73
529.895	27.33
530.242	27.19
530.588	27.36
530.935	27.51
531.282	27.48
531.628	27.59
531.975	27.88
532.321	28
532.667	28.07
533.014	28.28
533.36	28.14
533.706	28.42
534.052	28.32
534.399	28.13
534.745	27.95
535.091	27.79
535.437	28.07
535.783	28.07
536.129	28.27
536.474	28.42
536.82	28.53
537.166	28.61
537.512	28.74
537.857	28.68
538.203	28.55
538.549	28.5
538.894	28.54
539.239	28.66
539.585	28.82
539.93	28.97
540.276	29
540.621	29.22
540.966	29.06
541.311	29.23
541.656	29.25
542.001	28.98
542.346	28.77
542.691	28.55
543.036	28.29
543.381	28.3
543.726	28.6
544.071	28.66
544.415	28.75
544.76	28.83
545.105	28.88
545.449	29.03
545.794	29.01
546.138	29.4
546.483	29.32
546.827	29.45
547.171	29.73
547.516	29.52
547.86	29.51
548.204	29.41
548.548	29.31
548.892	29.42
549.236	29.47
549.58	29.77
549.924	29.84
550.268	29.86
550.612	29.87
550.956	30
551.3	29.98
551.643	29.91
551.987	29.98
552.33	29.97
552.674	30.34
553.017	30.2
553.361	29.91
553.704	30.26
554.048	30.11
554.391	30.19
554.734	30.12
555.077	30.33
555.42	30.27
555.764	30.24
556.107	30.57
556.45	30.48
556.793	30.37
557.135	30.53
557.478	30.54
557.821	30.7
558.164	30.53
558.507	30.69
558.849	30.78
559.192	30.59
559.534	31.1
559.877	30.84
560.219	30.87
560.562	30.91
560.904	30.84
561.246	30.87
561.589	30.83
561.931	30.65
562.273	30.98
562.615	30.93
562.957	30.9
563.299	31.02
563.641	30.99
563.983	31.21
564.325	30.82
564.667	31.24
565.008	31.24
565.35	31.22
565.692	31.27
566.033	31.31
566.375	31.11
566.716	31.3
567.058	31.21
567.399	31.39
567.741	31.09
568.082	31.26
568.423	31.21
568.764	31.22
569.105	31.19
569.447	31.43
569.788	31.32
570.129	31.35
570.47	31.67
570.811	31.39
571.151	31.47
571.492	31.51
571.833	31.63
572.174	31.47
572.514	31.44
572.855	31.63
573.195	31.66
573.536	31.61
573.876	31.49
574.217	31.61
574.557	31.44
574.898	31.78
575.238	31.69
575.578	31.81
575.918	31.65
576.258	31.8
576.598	31.69
576.938	31.85
577.278	31.74
577.618	31.7
577.958	31.93
578.298	32.03
578.638	32.22
578.977	32.08
579.317	32.05
579.657	32.14
579.996	32.39
580.336	32.18
580.675	32.27
581.014	32.21
581.354	32.24
581.693	32.73
582.032	32.26
582.372	32.65
582.711	32.97
583.05	32.76
583.389	32.92
583.728	32.49
584.067	32.86
584.406	32.44
584.745	32.4
585.083	32.38
585.422	32.82
585.761	32.57
586.1	32.61
586.438	32.89
586.777	32.86
587.115	32.71
587.454	32.78
587.792	33.07
588.13	33.13
588.469	33.13
588.807	33.1
589.145	32.75
589.483	33.4
589.821	32.91
590.159	32.84
590.497	32.83
590.835	33.23
591.173	33.06
591.511	32.95
591.849	32.93
592.187	33.14
592.524	33.27
592.862	33.09
593.2	33.4
593.537	33.22
593.875	33.49
594.212	33.39
594.55	33.47
594.887	33.6
595.224	33.1
595.561	33.32
595.899	33.31
596.236	33.39
596.573	33.45
596.91	33.77
597.247	33.4
597.584	33.43
597.921	33.28
598.258	33.34
598.594	33.43
598.931	33.47
599.268	33.28
599.604	33.37
599.941	33.15
600.277	33.8
600.614	33.76
600.95	33.6
601.287	33.81
601.623	34.09
601.959	33.97
602.296	33.86
602.632	33.86
602.968	33.63
603.304	33.82
603.64	34.18
603.976	34.07
604.312	34.08
604.648	33.8
604.984	33.77
605.319	34.08
605.655	34
605.991	33.64
606.326	33.71
606.662	33.92
606.998	34
607.333	33.95
607.668	34.07
608.004	34.11
608.339	34.21
608.674	34.05
609.01	34.29
609.345	34.49
609.68	34.58
610.015	34.6
610.35	34.5
610.685	34.63
611.02	34.35
611.355	34.28
611.689	34.16
612.024	34.18
612.359	34.45
612.694	34.44
613.028	34.55
613.363	34.62
613.697	34.8
614.032	34.73
614.366	34.91
614.7	34.89
615.035	34.72
615.369	34.99
615.703	34.84
616.037	34.89
616.371	34.82
616.705	34.98
617.039	35
617.373	34.71
617.707	34.75
618.041	34.64
618.375	35.02
618.709	35.19
619.042	34.61
619.376	35.02
619.71	34.92
620.043	34.58
620.377	35.28
620.71	34.78
621.043	35.23
621.377	35.09
621.71	35.12
622.043	35.56
622.376	35.5
622.709	35.78
623.043	35.11
623.376	35.66
623.709	35.52
624.041	35.27
624.374	34.93
624.707	35.17
625.04	35.04
625.373	35.27
625.705	35.62
626.038	35.89
626.37	35.08
626.703	35.5
627.035	35.31
627.368	35.53
627.7	35.75
628.032	35.57
628.365	35.8
628.697	35.64
629.029	35.59
629.361	35.75
629.693	35.2
630.025	35.55
630.357	35.77
630.689	35.14
631.021	35.93
631.353	36.08
631.684	35.77
632.016	35.76
632.348	36.01
632.679	35.86
633.011	35.9
633.342	35.71
633.674	35.69
634.005	36.19
634.336	36.11
634.668	36.28
634.999	35.88
635.33	36.28
635.661	36.18
635.992	35.89
636.323	36.08
636.654	35.94
636.985	35.95
637.316	35.92
637.647	36.12
637.977	35.88
638.308	36.11
638.639	36.36
638.969	36.51
639.3	35.96
639.63	36.39
639.961	36.76
640.291	36.63
640.622	36.31
640.952	35.89
641.282	36.57
641.612	36.37
641.943	36.33
642.273	36.51
642.603	36.45
642.933	36.62
643.263	36.78
643.592	36.42
643.922	36.71
644.252	36.72
644.582	36.39
644.911	36.69
645.241	36.4
645.571	36.95
645.9	37.14
646.23	36.94
646.559	36.61
646.888	37.07
647.218	36.94
647.547	36.53
647.876	36.36
648.205	37.21
648.534	36.53
648.863	36.95
649.192	36.89
649.521	37.17
649.85	37.44
650.179	36.84
650.508	37.03
650.837	37.03
651.165	37.09
651.494	37.15
651.822	36.89
652.151	37.56
652.479	36.95
652.808	36.97
653.136	37.02
653.465	37.48
653.793	37.45
654.121	36.77
654.449	37.22
654.777	37.57
655.105	37.08
655.433	37.19
655.761	37.71
656.089	36.95
656.417	36.55
656.745	37.21
657.073	37.19
657.4	37.29
657.728	37.89
658.056	37.54
658.383	37.28
658.711	37.41
659.038	37.46
659.365	37.66
659.693	37.16
660.02	37.55
660.347	37.8
660.674	37.07
661.001	37
661.329	37.78
661.656	37.81
661.982	37.46
662.309	38.03
662.636	37.64
662.963	38.11
663.29	37.86
663.616	37.86
663.943	37.99
664.27	37.97
664.596	37.67
664.923	37.77
665.249	38.13
665.576	37.84
665.902	37.77
666.228	38.29
666.554	37.86
666.881	38.38
667.207	38.44
667.533	38.13
667.859	38.17
668.185	37.66
668.511	38.24
668.837	38.46
669.162	37.82
669.488	38.17
