Data from 23-2_chest_Reflection__2__02.txt Node

Date: Thu Feb 29 21:52:16 CST 2024
User: ToomeyLab
Spectrometer: FLMS14357
Trigger mode: 0
Integration Time (sec): 1.000000E-2
Scans to average: 100
Electric dark correction enabled: true
Nonlinearity correction enabled: false
Boxcar width: 0
XAxis mode: Wavelengths
Number of Pixels in Spectrum: 2048
>>>>>Begin Spectral Data<<<<<
189.047	15.32
189.435	15.32
189.823	15.32
190.211	132.13
190.599	231.09
190.987	48.92
191.375	92.8
191.763	-1608.51
192.151	46.46
192.538	-46.51
192.926	37.6
193.314	3.48
193.702	293.04
194.089	958.14
194.477	148.2
194.864	428.24
195.252	69.32
195.639	138.85
196.027	-1387.65
196.414	65.7
196.801	-75.56
197.189	-10.21
197.576	-6.74
197.963	326.9
198.351	-4.88
198.738	-8.95
199.125	3.6
199.512	28.11
199.899	-12.07
200.286	-30.99
200.673	25.41
201.06	-39.58
201.447	-39.55
201.833	-7.84
202.22	46.82
202.607	-119.15
202.994	-124.46
203.38	-127.52
203.767	32.48
204.154	17.29
204.54	6.55
204.927	-10.44
205.313	14.92
205.699	-6.66
206.086	22.89
206.472	11.87
206.858	45.34
207.245	27.07
207.631	8.7
208.017	-0.68
208.403	-56.82
208.789	7.63
209.175	-65.21
209.561	25.2
209.947	7.63
210.333	20.03
210.719	-12.72
211.105	-14.44
211.491	-23.08
211.876	-8.18
212.262	23.66
212.648	-22.97
213.034	13.94
213.419	15.04
213.805	-10.21
214.19	16.07
214.576	-6.85
214.961	14.96
215.346	-2.54
215.732	3.97
216.117	-26.83
216.502	14.89
216.888	-24.47
217.273	-0.71
217.658	11.99
218.043	10.13
218.428	20.79
218.813	5.27
219.198	9.95
219.583	-6.11
219.968	26.69
220.353	5.44
220.738	5.95
221.122	-22.36
221.507	8.52
221.892	18.31
222.276	10.92
222.661	13.36
223.046	10.22
223.43	-11.97
223.815	-11.45
224.199	1.66
224.583	5.06
224.968	11.49
225.352	12.54
225.736	0.7
226.121	5.6
226.505	11.78
226.889	10.16
227.273	4.81
227.657	-2.01
228.041	4.3
228.425	0.71
228.809	7.43
229.193	4.7
229.577	5.5
229.961	3.68
230.344	3.46
230.728	5.05
231.112	5.48
231.495	4.34
231.879	3.87
232.263	3.21
232.646	4.05
233.03	5.54
233.413	4.1
233.797	4.06
234.18	3.23
234.563	-1.37
234.946	3.7
235.33	5.22
235.713	4.61
236.096	5.24
236.479	5.56
236.862	6.46
237.245	4.23
237.628	4.76
238.011	6.01
238.394	3.3
238.777	4.65
239.16	4.27
239.543	3.87
239.925	4.21
240.308	5.59
240.691	5.25
241.073	5.45
241.456	6.35
241.838	7.57
242.221	5.66
242.603	3.95
242.986	5.03
243.368	4.79
243.75	5.98
244.133	4.72
244.515	5.05
244.897	5.46
245.279	4.64
245.661	4.38
246.043	4.86
246.425	6.79
246.807	5.31
247.189	4.96
247.571	4.87
247.953	5.17
248.335	5.2
248.717	5.19
249.098	5.17
249.48	4.96
249.862	5.09
250.243	5.2
250.625	4.85
251.006	5.88
251.388	6.01
251.769	5
252.151	5.81
252.532	4.96
252.913	4.61
253.295	5.08
253.676	4.84
254.057	4.99
254.438	5.72
254.819	6.11
255.2	3.44
255.581	4.44
255.962	4.92
256.343	5.35
256.724	4.73
257.105	6.29
257.486	6.09
257.867	6.58
258.247	6.22
258.628	4.96
259.009	4.92
259.389	4.49
259.77	5.66
260.15	5.76
260.531	5.55
260.911	4.85
261.292	5.08
261.672	5.02
262.052	5.18
262.432	4.61
262.813	4.58
263.193	5.22
263.573	5.19
263.953	4.74
264.333	4.73
264.713	5.13
265.093	5.32
265.473	5.22
265.853	4.85
266.233	4.83
266.612	4.97
266.992	4.6
267.372	4.47
267.752	4.59
268.131	5.37
268.511	4.82
268.89	5.19
269.27	4.81
269.649	4.63
270.029	4.74
270.408	4.13
270.787	4.6
271.167	4.96
271.546	4.93
271.925	4.93
272.304	4.91
272.683	5.24
273.062	4.63
273.441	4.69
273.82	4.35
274.199	4.43
274.578	4.78
274.957	5.3
275.336	5.26
275.715	4.92
276.093	4.59
276.472	5.32
276.851	4.53
277.229	4.2
277.608	4.64
277.986	5.26
278.365	4.98
278.743	5.15
279.122	5.19
279.5	4.47
279.878	4.58
280.257	5.14
280.635	4.59
281.013	4.77
281.391	4.28
281.769	4.8
282.147	4.82
282.525	4.53
282.903	4.72
283.281	4.63
283.659	4.85
284.037	4.62
284.415	4.55
284.792	4.05
285.17	4.2
285.548	4.86
285.925	4.71
286.303	4.43
286.68	4.43
287.058	4.78
287.435	4.85
287.813	4.45
288.19	4.84
288.567	4.92
288.945	4.95
289.322	5.18
289.699	4.96
290.076	4.64
290.453	4.45
290.83	4.53
291.207	4.77
291.584	4.81
291.961	4.76
292.338	5.09
292.715	5
293.092	5.05
293.469	4.89
293.845	4.83
294.222	5.03
294.599	4.63
294.975	4.91
295.352	5.4
295.728	5.73
296.105	5.18
296.481	4.93
296.858	5.16
297.234	5.36
297.61	5.64
297.986	5.66
298.363	5.13
298.739	5.01
299.115	5.26
299.491	5.09
299.867	5.16
300.243	5.03
300.619	4.82
300.995	5.29
301.371	5.6
301.746	4.85
302.122	5.33
302.498	5.06
302.874	5.5
303.249	5.42
303.625	5.05
304	5.7
304.376	5.56
304.751	5.24
305.127	5.82
305.502	4.94
305.878	5.77
306.253	4.87
306.628	5.09
307.003	5.19
307.378	5.28
307.754	6.06
308.129	5.6
308.504	5.98
308.879	5.13
309.254	5.52
309.629	5.42
310.003	5.27
310.378	5.78
310.753	5.55
311.128	6.3
311.502	5.84
311.877	5.62
312.252	6.03
312.626	5.96
313.001	5.57
313.375	6.01
313.75	5.93
314.124	6.08
314.498	6.02
314.873	5.52
315.247	5.43
315.621	6.04
315.995	5.6
316.369	6.2
316.743	5.63
317.117	6.04
317.491	5.43
317.865	6.09
318.239	5.81
318.613	6.14
318.987	6.26
319.361	5.45
319.734	6.04
320.108	6.49
320.482	5.92
320.855	5.73
321.229	5.3
321.602	5.96
321.976	5.44
322.349	5.83
322.723	6.33
323.096	5.84
323.469	5.11
323.843	5.18
324.216	5.27
324.589	6.29
324.962	5.61
325.335	5.8
325.708	6.16
326.081	5.44
326.454	5.83
326.827	6.04
327.2	6.08
327.573	5.62
327.945	6.02
328.318	5.72
328.691	6.22
329.063	5.5
329.436	5.76
329.809	5.72
330.181	6.21
330.553	6.27
330.926	5.55
331.298	5.92
331.671	5.76
332.043	5.94
332.415	5.95
332.787	5.46
333.159	6.54
333.532	5.25
333.904	5.66
334.276	6.05
334.648	6
335.02	5.25
335.391	5.49
335.763	5.69
336.135	5.36
336.507	5.43
336.879	6.6
337.25	6.18
337.622	5.64
337.993	6.11
338.365	5.34
338.736	5.97
339.108	6.23
339.479	6.2
339.851	5.97
340.222	5.78
340.593	5.69
340.964	5.72
341.336	6.02
341.707	6.2
342.078	5.85
342.449	5.91
342.82	6.25
343.191	5.73
343.562	6.03
343.933	5.81
344.303	6.39
344.674	5.89
345.045	6.14
345.416	5.67
345.786	6.21
346.157	6.1
346.527	5.67
346.898	6.35
347.268	5.92
347.639	5.82
348.009	5.65
348.38	5.91
348.75	6.23
349.12	5.77
349.49	5.83
349.861	6
350.231	5.99
350.601	6.33
350.971	6.32
351.341	6.25
351.711	6.29
352.081	6.07
352.45	5.71
352.82	5.84
353.19	6.44
353.56	5.97
353.929	6.06
354.299	5.79
354.669	5.99
355.038	5.74
355.408	6.52
355.777	6.3
356.147	5.9
356.516	6.22
356.885	5.9
357.254	6.05
357.624	6.13
357.993	5.98
358.362	5.74
358.731	6
359.1	6.16
359.469	6.06
359.838	6.04
360.207	6.06
360.576	6.28
360.945	5.86
361.314	6.18
361.682	5.63
362.051	6.05
362.42	6.29
362.788	6.1
363.157	5.93
363.525	5.94
363.894	6.17
364.262	5.81
364.631	6.01
364.999	5.85
365.367	5.87
365.735	5.96
366.104	6.3
366.472	5.74
366.84	5.99
367.208	6.57
367.576	6.08
367.944	6.06
368.312	6.16
368.68	6.07
369.048	6.14
369.416	6
369.783	5.97
370.151	6.07
370.519	6.15
370.886	5.9
371.254	6.56
371.621	6.3
371.989	6.16
372.356	6.16
372.724	6.3
373.091	5.96
373.458	6.12
373.826	6.27
374.193	6.25
374.56	6.19
374.927	6.45
375.294	5.97
375.661	6.29
376.028	6.2
376.395	6.03
376.762	6.57
377.129	6.04
377.496	6.17
377.863	6.05
378.229	6.06
378.596	6.2
378.963	6.31
379.329	6.08
379.696	6.07
380.062	6.15
380.429	6.21
380.795	6.17
381.161	6.44
381.528	6.16
381.894	5.94
382.26	6.01
382.626	6.39
382.993	6.21
383.359	6.44
383.725	6.33
384.091	6.73
384.457	5.9
384.823	6.29
385.188	6.15
385.554	6.06
385.92	6.28
386.286	6.17
386.651	6.2
387.017	6.34
387.383	6.61
387.748	6.16
388.114	6.4
388.479	6.53
388.845	6.11
389.21	6.32
389.575	6.08
389.94	6.4
390.306	6.22
390.671	6.12
391.036	6.21
391.401	5.98
391.766	6.29
392.131	6.24
392.496	6.19
392.861	6.16
393.226	6.42
393.591	6.41
393.956	6.37
394.32	6.28
394.685	6.32
395.05	6.27
395.414	6.43
395.779	5.9
396.143	6.31
396.508	6.51
396.872	6.45
397.236	6.18
397.601	6.2
397.965	6.19
398.329	6.04
398.694	6.12
399.058	6.26
399.422	6.11
399.786	6.3
400.15	6.08
400.514	6.3
400.878	6.31
401.242	5.82
401.605	6.35
401.969	6.4
402.333	6.3
402.697	6.23
403.06	6.41
403.424	6.53
403.787	6.08
404.151	6.36
404.514	6.38
404.878	6.53
405.241	6.56
405.604	6.24
405.968	6.13
406.331	5.95
406.694	6.22
407.057	6.29
407.42	6.35
407.783	6.17
408.146	6.33
408.509	6.41
408.872	6.17
409.235	6.3
409.598	6.65
409.961	6.18
410.323	6.58
410.686	6.12
411.049	6.06
411.411	6.13
411.774	6.29
412.136	6.27
412.499	6.43
412.861	6.26
413.223	6.28
413.586	6.35
413.948	6.15
414.31	6.35
414.672	6.1
415.035	6.43
415.397	6.19
415.759	6.35
416.121	6.48
416.483	6.4
416.845	6.15
417.206	6.42
417.568	6.16
417.93	6.22
418.292	6.26
418.653	6.4
419.015	6.06
419.377	6.26
419.738	6.24
420.1	6.28
420.461	6.23
420.822	6.23
421.184	6.18
421.545	6.14
421.906	6.17
422.267	6.12
422.629	6.2
422.99	6.14
423.351	6.23
423.712	6.16
424.073	6.06
424.434	6.11
424.795	6.22
425.155	6.2
425.516	6.13
425.877	6.18
426.238	6.12
426.598	6.15
426.959	6.29
427.32	6.28
427.68	6.23
428.041	6.21
428.401	6.26
428.761	6.25
429.122	6.31
429.482	6.22
429.842	6.69
430.202	6.31
430.563	6.54
430.923	6.48
431.283	6.39
431.643	6.35
432.003	6.51
432.363	6.3
432.722	6.44
433.082	6.21
433.442	6.56
433.802	6.37
434.161	6.53
434.521	6.23
434.881	6.36
435.24	6.54
435.6	6.26
435.959	6.3
436.319	6.43
436.678	6.38
437.037	6.31
437.396	6.46
437.756	6.59
438.115	6.5
438.474	6.27
438.833	6.54
439.192	6.4
439.551	6.34
439.91	6.51
440.269	6.36
440.628	6.49
440.987	6.29
441.345	6.31
441.704	6.35
442.063	6.42
442.421	6.44
442.78	6.34
443.138	6.35
443.497	6.36
443.855	6.44
444.214	6.5
444.572	6.5
444.93	6.44
445.288	6.46
445.647	6.46
446.005	6.45
446.363	6.14
446.721	6.35
447.079	6.23
447.437	6.34
447.795	6.37
448.153	6.39
448.51	6.44
448.868	6.36
449.226	6.46
449.584	6.32
449.941	6.45
450.299	6.45
450.656	6.4
451.014	6.33
451.371	6.52
451.729	6.6
452.086	6.62
452.443	6.44
452.801	6.59
453.158	6.6
453.515	6.49
453.872	6.58
454.229	6.51
454.586	6.48
454.943	6.51
455.3	6.64
455.657	6.49
456.014	6.65
456.371	6.53
456.727	6.68
457.084	6.6
457.441	6.75
457.797	6.48
458.154	6.81
458.51	6.63
458.867	6.5
459.223	6.55
459.58	6.6
459.936	6.66
460.292	6.39
460.648	6.54
461.005	6.49
461.361	6.49
461.717	6.4
462.073	6.44
462.429	6.47
462.785	6.44
463.141	6.67
463.496	6.74
463.852	6.57
464.208	6.74
464.564	6.67
464.919	6.71
465.275	6.56
465.631	6.51
465.986	6.82
466.342	6.49
466.697	6.7
467.052	6.53
467.408	6.59
467.763	6.74
468.118	6.7
468.473	6.65
468.829	6.67
469.184	6.73
469.539	6.77
469.894	6.58
470.249	6.54
470.603	6.64
470.958	6.87
471.313	6.72
471.668	6.73
472.023	6.79
472.377	6.71
472.732	6.8
473.086	6.81
473.441	6.73
473.795	6.73
474.15	6.59
474.504	6.7
474.859	6.66
475.213	6.87
475.567	6.96
475.921	6.8
476.275	6.58
476.63	6.65
476.984	6.93
477.338	6.73
477.692	6.74
478.045	6.87
478.399	6.72
478.753	6.99
479.107	6.75
479.461	6.72
479.814	6.7
480.168	6.73
480.521	6.65
480.875	6.66
481.228	6.75
481.582	6.78
481.935	6.85
482.289	6.99
482.642	6.77
482.995	6.73
483.348	6.66
483.701	6.78
484.055	6.52
484.408	6.73
484.761	6.55
485.114	6.35
485.466	6.31
485.819	6.35
486.172	6.42
486.525	6.49
486.878	6.54
487.23	6.62
487.583	6.63
487.936	6.7
488.288	6.62
488.641	6.58
488.993	6.56
489.345	6.5
489.698	6.47
490.05	6.54
490.402	6.68
490.754	6.62
491.107	6.69
491.459	6.71
491.811	6.74
492.163	6.74
492.515	6.65
492.866	6.7
493.218	6.59
493.57	6.6
493.922	6.59
494.274	6.7
494.625	6.76
494.977	6.72
495.328	6.84
495.68	6.96
496.031	6.9
496.383	6.88
496.734	6.89
497.086	6.91
497.437	6.93
497.788	6.83
498.139	6.86
498.49	6.93
498.842	6.9
499.193	6.94
499.544	6.97
499.894	6.94
500.245	7.01
500.596	6.9
500.947	6.9
501.298	7.11
501.648	7.03
501.999	7.05
502.35	7
502.7	7.08
503.051	7.11
503.401	6.99
503.752	7.05
504.102	7.05
504.452	7.21
504.803	7.1
505.153	7.07
505.503	7.1
505.853	7.12
506.203	7.02
506.553	7.08
506.903	7.06
507.253	7.09
507.603	7.13
507.953	7.01
508.303	7.25
508.652	7.15
509.002	7.21
509.352	7.18
509.701	7.26
510.051	6.97
510.4	7.26
510.75	7.06
511.099	7.03
511.449	7.11
511.798	7.13
512.147	7.27
512.496	7.26
512.846	7.02
513.195	7.25
513.544	7.17
513.893	7.12
514.242	7.16
514.591	7.12
514.939	7.12
515.288	7.36
515.637	7.22
515.986	7.23
516.334	7.31
516.683	7.35
517.032	7.25
517.38	7.34
517.729	7.42
518.077	7.35
518.426	7.31
518.774	7.28
519.122	7.35
519.47	7.26
519.819	7.18
520.167	7.15
520.515	7.21
520.863	7.04
521.211	7.27
521.559	7.42
521.907	7.34
522.255	7.39
522.602	7.29
522.95	7.33
523.298	7.25
523.645	7.42
523.993	7.45
524.341	7.41
524.688	7.41
525.036	7.56
525.383	7.42
525.73	7.56
526.078	7.59
526.425	7.56
526.772	7.39
527.119	7.41
527.466	7.45
527.814	7.32
528.161	7.5
528.508	7.43
528.854	7.51
529.201	7.47
529.548	7.24
529.895	7.29
530.242	7.17
530.588	7.21
530.935	7.3
531.282	7.28
531.628	7.38
531.975	7.35
532.321	7.44
532.667	7.58
533.014	7.68
533.36	7.52
533.706	7.65
534.052	7.56
534.399	7.6
534.745	7.47
535.091	7.37
535.437	7.47
535.783	7.59
536.129	7.62
536.474	7.66
536.82	7.69
537.166	7.74
537.512	7.73
537.857	7.73
538.203	7.76
538.549	7.66
538.894	7.83
539.239	7.84
539.585	7.76
539.93	7.75
540.276	7.76
540.621	7.89
540.966	7.98
541.311	8.03
541.656	7.92
542.001	7.9
542.346	7.93
542.691	7.75
543.036	7.77
543.381	7.67
543.726	7.75
544.071	7.83
544.415	7.83
544.76	7.97
545.105	7.9
545.449	7.94
545.794	7.95
546.138	8.11
546.483	8.02
546.827	8.07
547.171	8.14
547.516	8.17
547.86	8.18
548.204	8.07
548.548	8.03
548.892	8.08
549.236	8.22
549.58	8.23
549.924	8.23
550.268	8.32
550.612	8.39
550.956	8.48
551.3	8.33
551.643	8.18
551.987	8.44
552.33	8.38
552.674	8.52
553.017	8.4
553.361	8.41
553.704	8.56
554.048	8.49
554.391	8.46
554.734	8.38
555.077	8.56
555.42	8.51
555.764	8.64
556.107	8.66
556.45	8.57
556.793	8.61
557.135	8.67
557.478	8.65
557.821	8.71
558.164	8.74
558.507	8.79
558.849	8.82
559.192	8.73
559.534	8.87
559.877	8.71
560.219	8.91
560.562	8.72
560.904	8.86
561.246	8.88
561.589	8.88
561.931	8.71
562.273	9.14
562.615	8.95
562.957	9
563.299	9.02
563.641	8.91
563.983	9.17
564.325	8.91
564.667	9.09
565.008	9.27
565.35	9.13
565.692	9.39
566.033	9.03
566.375	9.12
566.716	9.19
567.058	9.18
567.399	9.39
567.741	9.16
568.082	9.18
568.423	9.22
568.764	9.45
569.105	9.15
569.447	9.27
569.788	9.39
570.129	9.3
570.47	9.31
570.811	9.35
571.151	9.65
571.492	9.37
571.833	9.47
572.174	9.53
572.514	9.51
572.855	9.53
573.195	9.79
573.536	9.58
573.876	9.47
574.217	9.55
574.557	9.58
574.898	9.75
575.238	9.68
575.578	9.78
575.918	9.73
576.258	9.72
576.598	9.84
576.938	9.71
577.278	9.79
577.618	9.93
577.958	9.86
578.298	9.96
578.638	9.84
578.977	9.76
579.317	9.98
579.657	9.97
579.996	9.86
580.336	10.32
580.675	10.41
581.014	10.21
581.354	9.97
581.693	10.46
582.032	10.31
582.372	10.36
582.711	10.25
583.05	10.31
583.389	10.24
583.728	10.07
584.067	10.18
584.406	10.46
584.745	10.35
585.083	10.46
585.422	10.35
585.761	10.56
586.1	10.33
586.438	10.7
586.777	10.59
587.115	10.51
587.454	10.64
587.792	10.7
588.13	10.8
588.469	10.33
588.807	10.4
589.145	10.95
589.483	10.83
589.821	10.54
590.159	10.64
590.497	10.85
590.835	10.86
591.173	11.04
591.511	11.03
591.849	10.82
592.187	10.8
592.524	10.96
592.862	10.98
593.2	10.95
593.537	10.77
593.875	11.11
594.212	11.15
594.55	11.22
594.887	11.37
595.224	11.23
595.561	11.4
595.899	11.51
596.236	11.04
596.573	11.21
596.91	11.48
597.247	11.27
597.584	11.71
597.921	11.43
598.258	11.28
598.594	11.44
598.931	11.64
599.268	11.32
599.604	11.69
599.941	11.39
600.277	11.7
600.614	11.51
600.95	11.91
601.287	11.86
601.623	11.87
601.959	11.77
602.296	11.83
602.632	11.95
602.968	11.84
603.304	11.72
603.64	12
603.976	12.04
604.312	12.12
604.648	12.02
604.984	12.09
605.319	12.21
605.655	11.96
605.991	11.82
606.326	12
606.662	12.13
606.998	12.03
607.333	12.01
607.668	12.46
608.004	12.15
608.339	12.23
608.674	12.19
609.01	12.14
609.345	12.68
609.68	12.49
610.015	12.43
610.35	12.39
610.685	12.79
611.02	12.58
611.355	12.42
611.689	12.64
612.024	12.48
612.359	12.81
612.694	12.76
613.028	12.61
613.363	12.98
613.697	12.85
614.032	12.64
614.366	13.16
614.7	12.84
615.035	12.61
615.369	12.65
615.703	12.94
616.037	13.32
616.371	13.19
616.705	13.03
617.039	13.19
617.373	12.87
617.707	13.05
618.041	12.93
618.375	13.16
618.709	13.33
619.042	13.04
619.376	13.21
619.71	13.06
620.043	13.15
620.377	13.47
620.71	13.41
621.043	13.96
621.377	13.36
621.71	13.56
622.043	13.84
622.376	13.53
622.709	13.68
623.043	13.59
623.376	13.72
623.709	13.57
624.041	13.77
624.374	13.74
624.707	13.76
625.04	13.87
625.373	14.15
625.705	13.76
626.038	13.8
626.37	13.58
626.703	13.9
627.035	14.04
627.368	14.02
627.7	14.12
628.032	14.02
628.365	14.56
628.697	14.02
629.029	13.97
629.361	14.33
629.693	13.96
630.025	14.43
630.357	14.65
630.689	14.24
631.021	14.51
631.353	14.33
631.684	14.44
632.016	14.22
632.348	14.41
632.679	14.44
633.011	14.73
633.342	14.41
633.674	14.44
634.005	14.88
634.336	14.58
634.668	15.07
634.999	14.66
635.33	14.97
635.661	14.72
635.992	14.46
636.323	14.95
636.654	14.96
636.985	14.81
637.316	15.12
637.647	15.09
637.977	14.84
638.308	15.11
638.639	15.05
638.969	15.22
639.3	14.97
639.63	14.85
639.961	15.8
640.291	15.11
640.622	15.48
640.952	15.08
641.282	15.34
641.612	15.05
641.943	15.96
642.273	15.66
642.603	15.39
642.933	15.46
643.263	15.8
643.592	15.76
643.922	15.64
644.252	15.73
644.582	15.49
644.911	15.6
645.241	15.71
645.571	16.06
645.9	15.46
646.23	16.17
646.559	15.88
646.888	16.33
647.218	15.93
647.547	15.63
647.876	15.85
648.205	15.89
648.534	15.8
648.863	15.87
649.192	16.45
649.521	16.63
649.85	16.49
650.179	15.67
650.508	16.42
650.837	15.73
651.165	16.08
651.494	16.33
651.822	16.29
652.151	16.74
652.479	16.51
652.808	16.52
653.136	16.52
653.465	16.41
653.793	16.34
654.121	16.32
654.449	16.77
654.777	17.28
655.105	16.73
655.433	16.46
655.761	16.69
656.089	16.14
656.417	16.12
656.745	17.03
657.073	16.54
657.4	16.7
657.728	17.73
658.056	17.07
658.383	17.37
658.711	16.91
659.038	17.29
659.365	17.22
659.693	16.92
660.02	17.17
660.347	17.51
660.674	17.33
661.001	17.36
661.329	17.21
661.656	17.46
661.982	16.95
662.309	17.8
662.636	17.63
662.963	17.33
663.29	17.7
663.616	17.85
663.943	17.34
664.27	17.6
664.596	18.17
664.923	17.16
665.249	17.59
665.576	18.01
665.902	17.67
666.228	17.77
666.554	17.93
666.881	18.77
667.207	17.72
667.533	18.36
667.859	17.59
668.185	18.28
668.511	17.77
668.837	18.62
669.162	17.25
669.488	17.37
669.814	18.57
670.139	18.41
670.465	18.4
670.791	18.64
671.116	18.18
671.442	18.46
671.767	18.14
672.092	18.12
672.418	18.23
672.743	18.38
673.068	18.58
673.393	18.53
673.718	18.57
674.043	18.76
674.368	19.03
674.693	19.03
675.018	18.5
675.343	19.11
675.667	18.45
675.992	18.77
676.317	18.34
676.641	18.33
676.966	18.74
677.29	19.06
677.615	19.18
677.939	19.27
678.264	19.82
678.588	19.42
678.912	19.51
679.236	18.83
679.56	19.19
679.885	19.19
680.209	19.17
680.532	19.73
680.856	19.49
681.18	19.57
681.504	19.4
681.828	19.67
682.152	19.12
682.475	19.85
682.799	19.07
683.122	19.74
683.446	19.92
683.769	20.21
684.093	19.37
684.416	19.85
684.739	20.28
685.062	19.76
