Data from 20-51_chest_Reflection__1__46.txt Node

Date: Thu Feb 29 22:16:10 CST 2024
User: ToomeyLab
Spectrometer: FLMS14357
Trigger mode: 0
Integration Time (sec): 1.000000E-2
Scans to average: 100
Electric dark correction enabled: true
Nonlinearity correction enabled: false
Boxcar width: 0
XAxis mode: Wavelengths
Number of Pixels in Spectrum: 2048
>>>>>Begin Spectral Data<<<<<
189.047	-41.22
189.435	-41.22
189.823	-41.22
190.211	29.02
190.599	-705.66
190.987	254.87
191.375	62.69
191.763	-420.87
192.151	-1807.02
192.538	450.68
192.926	82.33
193.314	140.43
193.702	120.37
194.089	15.33
194.477	363.9
194.864	161.74
195.252	-24.91
195.639	-116.43
196.027	-26.12
196.414	59.37
196.801	-59.35
197.189	19.13
197.576	-255.7
197.963	125.36
198.351	-7.15
198.738	2.53
199.125	8.82
199.512	3.38
199.899	-9.97
200.286	-40.03
200.673	62.73
201.06	10.94
201.447	-11.64
201.833	13.31
202.22	3.49
202.607	-106.13
202.994	0.54
203.38	-35.11
203.767	137.92
204.154	1.99
204.54	30.2
204.927	37.22
205.313	27.1
205.699	25.73
206.086	14.6
206.472	33.73
206.858	38.82
207.245	-13.31
207.631	17.06
208.017	-2.39
208.403	-68.21
208.789	20.19
209.175	-39.91
209.561	20.08
209.947	52.22
210.333	9.55
210.719	2.26
211.105	29.05
211.491	-55.58
211.876	-3.01
212.262	43.27
212.648	-26.55
213.034	-20.07
213.419	26.91
213.805	-15.66
214.19	-8.12
214.576	-21.41
214.961	15.64
215.346	4.77
215.732	-15.25
216.117	-37.34
216.502	0.03
216.888	-52.74
217.273	0.13
217.658	18.85
218.043	18.53
218.428	-28.18
218.813	-5.66
219.198	2.25
219.583	0.13
219.968	-1.95
220.353	-21.27
220.738	3.72
221.122	-9.62
221.507	3.9
221.892	11.08
222.276	19.8
222.661	2.72
223.046	11.83
223.43	-16.82
223.815	-2.01
224.199	-0.75
224.583	-5.32
224.968	7.29
225.352	11.32
225.736	0.46
226.121	-1.19
226.505	7.52
226.889	5.84
227.273	-3.02
227.657	-3.67
228.041	2.48
228.425	5.41
228.809	8.39
229.193	4.31
229.577	5.49
229.961	2.3
230.344	2.56
230.728	3.91
231.112	3.73
231.495	3.41
231.879	3.1
232.263	1.92
232.646	2.73
233.03	3.47
233.413	3.82
233.797	3.99
234.18	0.67
234.563	0.74
234.946	2.93
235.33	2.66
235.713	2.87
236.096	3.08
236.479	4.54
236.862	2.08
237.245	3.46
237.628	2.52
238.011	3.58
238.394	2.28
238.777	3.99
239.16	2.56
239.543	4.03
239.925	3.3
240.308	4.63
240.691	4.45
241.073	3.09
241.456	2.99
241.838	5.28
242.221	4.63
242.603	4.33
242.986	4.01
243.368	4.09
243.75	5.13
244.133	4
244.515	4.29
244.897	4.93
245.279	4.75
245.661	4.52
246.043	3.11
246.425	6.19
246.807	4.85
247.189	4.14
247.571	4.41
247.953	4.53
248.335	4.16
248.717	4.51
249.098	4.76
249.48	4.76
249.862	4.39
250.243	4.09
250.625	4.72
251.006	4.56
251.388	4.72
251.769	4.14
252.151	4.74
252.532	3.71
252.913	4.6
253.295	4.73
253.676	4.42
254.057	4.67
254.438	5.02
254.819	5.11
255.2	3.11
255.581	4.59
255.962	5.41
256.343	5.12
256.724	4.24
257.105	5.08
257.486	3.98
257.867	4.93
258.247	4.55
258.628	4.18
259.009	3.39
259.389	3.96
259.77	4.49
260.15	5.19
260.531	5.25
260.911	4.32
261.292	4.34
261.672	4.4
262.052	4.39
262.432	4.18
262.813	4.06
263.193	3.54
263.573	4.33
263.953	4.31
264.333	3.96
264.713	4.8
265.093	5.12
265.473	4.67
265.853	5.47
266.233	4.44
266.612	3.98
266.992	4.26
267.372	4.24
267.752	4.13
268.131	5.09
268.511	4.84
268.89	4.35
269.27	4.56
269.649	3.6
270.029	4.07
270.408	4.21
270.787	3.78
271.167	3.99
271.546	4.13
271.925	4.12
272.304	4.6
272.683	4.93
273.062	4.01
273.441	4.21
273.82	4.65
274.199	4.45
274.578	3.85
274.957	4.38
275.336	4.73
275.715	4.28
276.093	4.17
276.472	5.03
276.851	4.33
277.229	4.08
277.608	4.65
277.986	4.21
278.365	4.15
278.743	3.92
279.122	4.11
279.5	3.95
279.878	4.21
280.257	4.53
280.635	4.15
281.013	4.28
281.391	3.71
281.769	4.44
282.147	4.47
282.525	4.34
282.903	4.14
283.281	4.13
283.659	4.65
284.037	3.98
284.415	3.7
284.792	3.76
285.17	3.35
285.548	4.3
285.925	4.47
286.303	4.59
286.68	3.68
287.058	4.31
287.435	3.93
287.813	3.94
288.19	4.24
288.567	3.99
288.945	4.11
289.322	3.99
289.699	4.4
290.076	4.57
290.453	3.46
290.83	3.88
291.207	4.04
291.584	4.7
291.961	4.23
292.338	4.82
292.715	4.62
293.092	4.55
293.469	4.58
293.845	4.46
294.222	4.66
294.599	4.29
294.975	4.91
295.352	5.43
295.728	5.66
296.105	5.17
296.481	4.54
296.858	5.14
297.234	4.56
297.61	4.6
297.986	5.49
298.363	5.35
298.739	5.42
299.115	5.24
299.491	5.52
299.867	5.15
300.243	5.38
300.619	5.19
300.995	5.64
301.371	5.2
301.746	4.97
302.122	6.1
302.498	5.59
302.874	5.26
303.249	5.31
303.625	5.62
304	5.93
304.376	5.73
304.751	5.37
305.127	5.82
305.502	5.6
305.878	6.35
306.253	5.42
306.628	5.48
307.003	5.58
307.378	5.99
307.754	6.31
308.129	5.7
308.504	6.12
308.879	5.75
309.254	5.67
309.629	6.03
310.003	5.48
310.378	6.16
310.753	5.76
311.128	5.77
311.502	5.93
311.877	6.11
312.252	5.94
312.626	6.09
313.001	5.67
313.375	5.76
313.75	6.09
314.124	6.33
314.498	6.21
314.873	5.17
315.247	5.87
315.621	6.44
315.995	6.19
316.369	6.37
316.743	5.6
317.117	5.55
317.491	5.33
317.865	6.14
318.239	5.8
318.613	6.83
318.987	6.67
319.361	5.74
319.734	6.77
320.108	6.71
320.482	6.29
320.855	5.81
321.229	7.02
321.602	6.36
321.976	6.46
322.349	5.45
322.723	6.8
323.096	6.13
323.469	5.63
323.843	5.68
324.216	6.72
324.589	5.86
324.962	5.99
325.335	5.92
325.708	6.37
326.081	5.95
326.454	6.71
326.827	5.78
327.2	6.36
327.573	5.93
327.945	6.74
328.318	6.05
328.691	6.2
329.063	6.39
329.436	6.08
329.809	6.33
330.181	6.69
330.553	6.57
330.926	6.1
331.298	6.61
331.671	6.26
332.043	6.5
332.415	6.77
332.787	5.5
333.159	6.5
333.532	6.15
333.904	6.55
334.276	6.18
334.648	6.39
335.02	5.85
335.391	6.29
335.763	5.78
336.135	5.89
336.507	6.4
336.879	6.12
337.25	6.55
337.622	6.33
337.993	5.8
338.365	6.42
338.736	6.47
339.108	6.63
339.479	6.55
339.851	6.39
340.222	6.46
340.593	6.3
340.964	6.58
341.336	6.06
341.707	6.32
342.078	5.97
342.449	6.08
342.82	6.24
343.191	5.82
343.562	6.98
343.933	6.19
344.303	6.28
344.674	6.25
345.045	6.2
345.416	6.32
345.786	6.44
346.157	6.17
346.527	6.09
346.898	7.17
347.268	6.62
347.639	6.67
348.009	6.53
348.38	6.31
348.75	6.53
349.12	6.42
349.49	6.44
349.861	6.51
350.231	6.79
350.601	6.51
350.971	6.25
351.341	6.56
351.711	6.96
352.081	6.8
352.45	6.45
352.82	5.94
353.19	6.71
353.56	6.93
353.929	6.96
354.299	6.41
354.669	6.77
355.038	6.17
355.408	6.69
355.777	6.98
356.147	5.65
356.516	6.81
356.885	6.56
357.254	6.51
357.624	6.34
357.993	6.58
358.362	6.71
358.731	6.72
359.1	7.03
359.469	6.82
359.838	6.63
360.207	6.62
360.576	6.82
360.945	6.68
361.314	6.44
361.682	6.64
362.051	6.47
362.42	6.51
362.788	6.4
363.157	6.19
363.525	6.35
363.894	6.49
364.262	6.34
364.631	6.7
364.999	6.2
365.367	6.14
365.735	6.52
366.104	6.63
366.472	6.14
366.84	7.07
367.208	6.49
367.576	6.38
367.944	6.46
368.312	6.77
368.68	6.62
369.048	6.44
369.416	6.7
369.783	6.68
370.151	6.54
370.519	6.82
370.886	6.97
371.254	6.4
371.621	6.88
371.989	6.21
372.356	6.55
372.724	6.52
373.091	6.67
373.458	6.73
373.826	6.75
374.193	6.75
374.56	6.69
374.927	6.65
375.294	6.11
375.661	7
376.028	6.97
376.395	6.58
376.762	7.23
377.129	6.45
377.496	7.02
377.863	6.56
378.229	6.32
378.596	6.48
378.963	6.69
379.329	6.85
379.696	6.51
380.062	6.82
380.429	6.49
380.795	6.84
381.161	6.93
381.528	6.9
381.894	6.58
382.26	6.35
382.626	6.72
382.993	6.8
383.359	6.74
383.725	6.79
384.091	6.79
384.457	6.43
384.823	6.87
385.188	6.52
385.554	6.79
385.92	6.75
386.286	6.33
386.651	6.88
387.017	6.43
387.383	6.85
387.748	6.64
388.114	6.33
388.479	6.68
388.845	6.31
389.21	6.63
389.575	6.6
389.94	6.54
390.306	6.55
390.671	6.36
391.036	6.47
391.401	6.73
391.766	6.47
392.131	6.46
392.496	6.39
392.861	6.61
393.226	6.69
393.591	6.93
393.956	6.66
394.32	6.65
394.685	6.86
395.05	6.42
395.414	6.65
395.779	6.63
396.143	6.87
396.508	6.64
396.872	6.74
397.236	6.56
397.601	6.44
397.965	6.73
398.329	6.33
398.694	6.54
399.058	6.63
399.422	6.31
399.786	6.34
400.15	6.13
400.514	6.71
400.878	6.46
401.242	6.14
401.605	6.61
401.969	6.84
402.333	6.5
402.697	6
403.06	6.71
403.424	6.74
403.787	6.33
404.151	6.67
404.514	6.53
404.878	6.53
405.241	6.68
405.604	6.44
405.968	6.72
406.331	6.63
406.694	6.46
407.057	6.49
407.42	6.37
407.783	6.52
408.146	6.64
408.509	6.35
408.872	6.38
409.235	6.44
409.598	6.75
409.961	6.57
410.323	6.6
410.686	6.44
411.049	6.37
411.411	6.47
411.774	6.54
412.136	6.66
412.499	6.51
412.861	6.42
413.223	6.27
413.586	6.45
413.948	6.58
414.31	6.48
414.672	6.53
415.035	6.51
415.397	6.54
415.759	6.73
416.121	6.98
416.483	6.73
416.845	6.68
417.206	6.41
417.568	6.59
417.93	6.57
418.292	6.48
418.653	6.7
419.015	6.6
419.377	6.51
419.738	6.6
420.1	6.56
420.461	6.48
420.822	6.59
421.184	6.52
421.545	6.59
421.906	6.58
422.267	6.53
422.629	6.62
422.99	6.6
423.351	6.68
423.712	6.6
424.073	6.64
424.434	6.58
424.795	6.62
425.155	6.67
425.516	6.65
425.877	6.64
426.238	6.64
426.598	6.7
426.959	6.7
427.32	6.86
427.68	6.82
428.041	6.69
428.401	6.74
428.761	6.84
429.122	6.72
429.482	6.9
429.842	6.92
430.202	6.98
430.563	7.03
430.923	7.21
431.283	7.09
431.643	7.14
432.003	7.31
432.363	6.97
432.722	7.22
433.082	6.78
433.442	7.06
433.802	7.18
434.161	7.29
434.521	7.09
434.881	7.05
435.24	7.15
435.6	6.92
435.959	7.04
436.319	7.11
436.678	7.07
437.037	6.91
437.396	7.06
437.756	7.19
438.115	7.12
438.474	7.17
438.833	7.48
439.192	7.2
439.551	7.11
439.91	7.39
440.269	7.25
440.628	7.16
440.987	7.04
441.345	7.39
441.704	7.24
442.063	7.28
442.421	7.21
442.78	7.15
443.138	7.1
443.497	7.21
443.855	7.34
444.214	7.37
444.572	7.32
444.93	7.23
445.288	7.41
445.647	7.4
446.005	7.4
446.363	7.25
446.721	7.25
447.079	7.4
447.437	7.26
447.795	7.39
448.153	7.25
448.51	7.4
448.868	7.3
449.226	7.48
449.584	7.3
449.941	7.29
450.299	7.38
450.656	7.43
451.014	7.4
451.371	7.36
451.729	7.61
452.086	7.61
452.443	7.38
452.801	7.42
453.158	7.57
453.515	7.61
453.872	7.59
454.229	7.53
454.586	7.51
454.943	7.58
455.3	7.6
455.657	7.66
456.014	7.76
456.371	7.69
456.727	7.61
457.084	7.71
457.441	7.91
457.797	7.52
458.154	7.55
458.51	7.84
458.867	7.91
459.223	7.58
459.58	7.79
459.936	7.81
460.292	7.53
460.648	7.56
461.005	7.58
461.361	7.61
461.717	7.58
462.073	7.59
462.429	7.67
462.785	7.63
463.141	7.77
463.496	7.84
463.852	7.79
464.208	7.7
464.564	7.78
464.919	7.75
465.275	7.89
465.631	7.8
465.986	8.04
466.342	7.76
466.697	7.81
467.052	7.62
467.408	7.85
467.763	7.84
468.118	7.76
468.473	8.03
468.829	7.88
469.184	7.88
469.539	7.86
469.894	7.81
470.249	7.73
470.603	7.79
470.958	8.07
471.313	7.79
471.668	8.04
472.023	8.1
472.377	7.88
472.732	8.16
473.086	7.95
473.441	7.96
473.795	8.18
474.15	7.83
474.504	7.8
474.859	7.8
475.213	7.92
475.567	8.18
475.921	8.2
476.275	7.9
476.63	7.94
476.984	8.04
477.338	7.88
477.692	8.17
478.045	7.95
478.399	7.88
478.753	8.14
479.107	8.13
479.461	7.99
479.814	8.03
480.168	7.94
480.521	7.98
480.875	8.08
481.228	8.02
481.582	8.2
481.935	8.18
482.289	8.16
482.642	8.12
482.995	8.09
483.348	8.03
483.701	8
484.055	7.85
484.408	8.01
484.761	7.95
485.114	7.79
485.466	7.62
485.819	7.69
486.172	7.72
486.525	7.75
486.878	7.85
487.23	7.88
487.583	8
487.936	8.04
488.288	7.99
488.641	7.93
488.993	7.91
489.345	7.83
489.698	7.77
490.05	7.82
490.402	8.04
490.754	8.02
491.107	8.09
491.459	8.12
491.811	8.15
492.163	8.21
492.515	8.18
492.866	8.07
493.218	7.99
493.57	7.92
493.922	8.07
494.274	8
494.625	8.11
494.977	8.21
495.328	8.29
495.68	8.39
496.031	8.35
496.383	8.21
496.734	8.48
497.086	8.24
497.437	8.57
497.788	8.46
498.139	8.36
498.49	8.25
498.842	8.43
499.193	8.41
499.544	8.41
499.894	8.36
500.245	8.37
500.596	8.51
500.947	8.31
501.298	8.39
501.648	8.36
501.999	8.32
502.35	8.45
502.7	8.51
503.051	8.62
503.401	8.59
503.752	8.52
504.102	8.56
504.452	8.61
504.803	8.6
505.153	8.39
505.503	8.65
505.853	8.65
506.203	8.6
506.553	8.63
506.903	8.42
507.253	8.77
507.603	8.55
507.953	8.64
508.303	8.68
508.652	8.7
509.002	8.76
509.352	8.56
509.701	8.57
510.051	8.54
510.4	8.68
510.75	8.52
511.099	8.74
511.449	8.5
511.798	8.66
512.147	8.69
512.496	8.66
512.846	8.67
513.195	8.61
513.544	8.68
513.893	8.77
514.242	8.78
514.591	8.64
514.939	8.7
515.288	8.87
515.637	8.97
515.986	8.88
516.334	8.82
516.683	8.71
517.032	8.92
517.38	8.92
517.729	8.88
518.077	8.98
518.426	8.81
518.774	8.76
519.122	8.92
519.47	8.77
519.819	8.65
520.167	8.61
520.515	8.68
520.863	8.75
521.211	8.72
521.559	8.79
521.907	8.83
522.255	8.71
522.602	8.85
522.95	8.88
523.298	8.85
523.645	8.87
523.993	8.99
524.341	8.86
524.688	8.78
525.036	8.9
525.383	8.92
525.73	9
526.078	9.13
526.425	8.97
526.772	9.04
527.119	8.92
527.466	8.86
527.814	8.9
528.161	8.99
528.508	8.91
528.854	9.03
529.201	8.89
529.548	8.84
529.895	8.79
530.242	8.68
530.588	8.66
530.935	8.75
531.282	8.81
531.628	8.84
531.975	8.9
532.321	8.99
532.667	9
533.014	9.14
533.36	9.17
533.706	9.25
534.052	9.09
534.399	9.14
534.745	9.04
535.091	8.94
535.437	9.04
535.783	9.08
536.129	9.12
536.474	9.14
536.82	9.18
537.166	9.2
537.512	9.24
537.857	9.31
538.203	9.26
538.549	9.18
538.894	9.31
539.239	9.37
539.585	9.43
539.93	9.39
540.276	9.55
540.621	9.28
540.966	9.55
541.311	9.5
541.656	9.45
542.001	9.48
542.346	9.41
542.691	9.33
543.036	9.25
543.381	9.15
543.726	9.24
544.071	9.26
544.415	9.39
544.76	9.47
545.105	9.29
545.449	9.49
545.794	9.5
546.138	9.54
546.483	9.61
546.827	9.72
547.171	9.64
547.516	9.7
547.86	9.65
548.204	9.61
548.548	9.6
548.892	9.62
549.236	9.74
549.58	9.83
549.924	9.9
550.268	9.93
550.612	9.85
550.956	9.89
551.3	9.88
551.643	9.99
551.987	9.99
552.33	10.03
552.674	10.2
553.017	10.01
553.361	9.96
553.704	10.13
554.048	10.1
554.391	10.02
554.734	10.07
555.077	10.07
555.42	10.02
555.764	9.97
556.107	10.35
556.45	10.25
556.793	10.34
557.135	10.07
557.478	10.07
557.821	10.17
558.164	10.25
558.507	10.33
558.849	10.33
559.192	10.28
559.534	10.28
559.877	10.57
560.219	10.47
560.562	10.24
560.904	10.45
561.246	10.31
561.589	10.39
561.931	10.38
562.273	10.58
562.615	10.46
562.957	10.55
563.299	10.66
563.641	10.54
563.983	10.6
564.325	10.6
564.667	10.59
565.008	10.78
565.35	10.73
565.692	10.67
566.033	10.72
566.375	10.56
566.716	10.51
567.058	10.83
567.399	10.86
567.741	10.61
568.082	10.89
568.423	10.77
568.764	10.66
569.105	10.76
569.447	10.94
569.788	10.97
570.129	10.75
570.47	10.83
570.811	10.84
571.151	11.26
571.492	10.92
571.833	11.07
572.174	11.1
572.514	10.94
572.855	11.15
573.195	11.19
573.536	11.04
573.876	11.16
574.217	11.22
574.557	11.05
574.898	11.33
575.238	11.2
575.578	11.25
575.918	11.29
576.258	11.39
576.598	11.23
576.938	11.31
577.278	11.2
577.618	11.29
577.958	11.2
578.298	11.37
578.638	11.23
578.977	11.41
579.317	11.91
579.657	11.49
579.996	11.54
580.336	11.62
580.675	11.59
581.014	11.76
581.354	11.32
581.693	11.77
582.032	11.52
582.372	11.83
582.711	11.98
583.05	11.88
583.389	12.04
583.728	11.39
584.067	11.73
584.406	11.61
584.745	12
585.083	11.81
585.422	12
585.761	12.01
586.1	12.01
586.438	11.98
586.777	12.12
587.115	12.02
587.454	12.22
587.792	12.11
588.13	12.28
588.469	11.9
588.807	12.15
589.145	12.24
589.483	12.01
589.821	12.12
590.159	12.21
590.497	11.99
590.835	12.27
591.173	12.32
591.511	12.35
591.849	12.47
592.187	12.45
592.524	12.38
592.862	12.51
593.2	12.53
593.537	12.43
593.875	12.54
594.212	12.58
594.55	12.99
594.887	12.96
595.224	12.85
595.561	12.74
595.899	12.84
596.236	12.46
596.573	12.73
596.91	12.81
597.247	12.85
597.584	13.06
597.921	12.62
598.258	12.89
598.594	12.74
598.931	12.65
599.268	12.78
599.604	12.89
599.941	12.82
600.277	13.17
600.614	13.12
600.95	12.99
601.287	13.08
601.623	13.23
601.959	12.99
602.296	13.24
602.632	13.41
602.968	13.42
603.304	13.25
603.64	13.34
603.976	13.38
604.312	13.38
604.648	13.09
604.984	13.37
605.319	13.49
605.655	13.49
605.991	13.25
606.326	13.41
606.662	13.4
606.998	13.3
607.333	13.5
607.668	13.53
608.004	13.65
608.339	13.61
608.674	13.6
609.01	13.38
609.345	14.06
609.68	13.24
610.015	13.63
610.35	13.67
610.685	14.08
611.02	13.78
611.355	13.88
611.689	13.93
612.024	13.7
612.359	13.95
612.694	14.02
613.028	13.76
613.363	14.11
613.697	14.28
614.032	14.1
614.366	14.22
614.7	14.07
615.035	14.29
615.369	13.89
615.703	14.2
616.037	14.54
616.371	14.18
616.705	14.26
617.039	14.16
617.373	14.33
617.707	14.51
618.041	14.17
618.375	14.69
618.709	14.5
619.042	14.38
619.376	14.63
619.71	14.11
620.043	14.4
620.377	14.97
620.71	14.59
621.043	14.87
621.377	14.23
621.71	14.89
622.043	14.7
622.376	14.46
622.709	14.98
623.043	14.54
623.376	14.85
623.709	14.51
624.041	14.94
624.374	14.82
624.707	14.98
625.04	15.19
625.373	14.84
625.705	15.2
626.038	15.28
626.37	15.22
626.703	15.17
627.035	14.95
627.368	15.12
627.7	15.31
628.032	14.94
628.365	15.34
628.697	14.99
629.029	15
629.361	15.23
629.693	15.1
630.025	15.18
630.357	15.61
630.689	15.39
631.021	15.88
631.353	15.23
631.684	15.1
632.016	15.17
632.348	15.92
632.679	15.55
633.011	15.79
633.342	15.25
633.674	15.4
634.005	15.53
634.336	15.78
634.668	15.7
634.999	15.72
635.33	15.89
635.661	15.56
635.992	15.3
636.323	16.17
636.654	15.78
636.985	16.17
637.316	15.51
637.647	15.93
637.977	15.96
638.308	16.09
638.639	15.7
638.969	16.05
639.3	16.26
639.63	16.14
639.961	16.31
640.291	16.2
640.622	16.06
640.952	15.67
641.282	16.06
641.612	16.49
641.943	16.27
642.273	16.9
642.603	16.25
642.933	16.56
643.263	17.2
643.592	16.73
643.922	16.4
644.252	16.65
644.582	16.56
644.911	16.79
645.241	16.42
645.571	16.69
645.9	16.34
646.23	16.89
646.559	16.6
646.888	16.74
647.218	17.15
647.547	17.13
647.876	16.93
648.205	16.28
648.534	16.72
648.863	17.32
649.192	17.32
649.521	16.84
649.85	16.43
650.179	16.66
650.508	17.23
650.837	16.97
651.165	16.98
651.494	17.14
651.822	17.43
652.151	17.14
652.479	17.39
652.808	16.74
653.136	16.8
653.465	17.07
653.793	17.27
654.121	17.07
654.449	17.63
654.777	17.71
655.105	16.95
655.433	16.97
655.761	17.56
656.089	17.27
656.417	17.28
656.745	17.55
657.073	17.66
657.4	17.97
657.728	18.17
658.056	17.59
658.383	17.25
658.711	17.49
659.038	17.51
659.365	17.88
659.693	17.47
660.02	17.31
660.347	18.18
660.674	18.06
661.001	17.43
661.329	17.95
661.656	18.17
661.982	18.09
662.309	18.47
662.636	18.17
662.963	17.73
663.29	18.19
663.616	18.07
663.943	18.2
664.27	18.81
664.596	18.67
664.923	18.37
665.249	17.41
665.576	18.28
665.902	18.37
666.228	18.52
666.554	17.95
666.881	18.84
667.207	18.39
667.533	18.53
667.859	18.4
668.185	18.49
668.511	18.49
668.837	18.54
669.162	17.8
669.488	18.62
669.814	18.89
670.139	18.57
670.465	18.7
670.791	18.57
671.116	19.36
671.442	18.76
671.767	18.45
672.092	18.47
672.418	18.83
672.743	18.71
673.068	19.13
673.393	18.41
673.718	19.14
674.043	19.15
674.368	19.55
674.693	19.29
675.018	19.55
675.343	19.41
675.667	18.56
675.992	19.45
676.317	19.44
676.641	17.95
676.966	19.24
677.29	18.94
677.615	19.98
677.939	19.6
678.264	19.7
678.588	19.58
678.912	19.53
679.236	19.77
679.56	20.3
679.885	19.71
680.209	19.68
680.532	19.29
680.856	19.77
681.18	19.28
681.504	19.36
681.828	19.5
682.152	19.77
682.475	20.1
682.799	19.33
683.122	19.57
683.446	19.66
