Data from 20-51_forehead_Reflection__2__57.txt Node

Date: Thu Feb 29 22:19:20 CST 2024
User: ToomeyLab
Spectrometer: FLMS14357
Trigger mode: 0
Integration Time (sec): 1.000000E-2
Scans to average: 100
Electric dark correction enabled: true
Nonlinearity correction enabled: false
Boxcar width: 0
XAxis mode: Wavelengths
Number of Pixels in Spectrum: 2048
>>>>>Begin Spectral Data<<<<<
189.047	140.71
189.435	140.71
189.823	140.71
190.211	22.78
190.599	-1128.3
190.987	-182.99
191.375	-286.29
191.763	-152.16
192.151	115.79
192.538	437.6
192.926	251.64
193.314	28.75
193.702	177.56
194.089	34.06
194.477	150.57
194.864	47.54
195.252	-34.01
195.639	-436.01
196.027	43.09
196.414	29.26
196.801	54.55
197.189	30.25
197.576	-2210.13
197.963	46.06
198.351	85.27
198.738	1.2
199.125	32.99
199.512	5.31
199.899	29.7
200.286	-17.71
200.673	45.21
201.06	-6.52
201.447	-71.84
201.833	24.01
202.22	0.95
202.607	-34.07
202.994	-15.07
203.38	-22.39
203.767	123.73
204.154	24.97
204.54	46.32
204.927	10.37
205.313	39.08
205.699	-8.74
206.086	56.82
206.472	41.65
206.858	1.4
207.245	40.85
207.631	17.82
208.017	11.64
208.403	-36.8
208.789	40.69
209.175	-28.87
209.561	31.57
209.947	46.57
210.333	59.78
210.719	36
211.105	28.48
211.491	43.76
211.876	5.54
212.262	51.13
212.648	-9.17
213.034	43.49
213.419	20.3
213.805	19.27
214.19	32.71
214.576	31.4
214.961	55.73
215.346	15.41
215.732	28.36
216.117	-3.06
216.502	19.04
216.888	12.1
217.273	15.25
217.658	37.5
218.043	18.15
218.428	10.4
218.813	10
219.198	21.68
219.583	10.58
219.968	23.3
220.353	-18.68
220.738	43.9
221.122	8.61
221.507	22.49
221.892	12.88
222.276	37.9
222.661	7.39
223.046	19.41
223.43	-0.23
223.815	-1.22
224.199	16.67
224.583	3.32
224.968	15.12
225.352	6.24
225.736	4.77
226.121	14.12
226.505	17.58
226.889	6.77
227.273	3.19
227.657	3.24
228.041	8.1
228.425	9.37
228.809	13.34
229.193	8.48
229.577	6.15
229.961	4.62
230.344	4.61
230.728	5.99
231.112	7.21
231.495	5.13
231.879	6.9
232.263	6.24
232.646	5.75
233.03	5.21
233.413	4.99
233.797	5.25
234.18	8.29
234.563	5.24
234.946	6.11
235.33	5.3
235.713	5.49
236.096	6.72
236.479	8.41
236.862	6.26
237.245	5.16
237.628	5.53
238.011	7.8
238.394	4.71
238.777	6.64
239.16	5.29
239.543	4.07
239.925	5.88
240.308	6.36
240.691	7.55
241.073	9.16
241.456	7
241.838	5.66
242.221	6.76
242.603	6.3
242.986	6.45
243.368	5.44
243.75	6.31
244.133	5.7
244.515	5.85
244.897	6.3
245.279	6.15
245.661	5.94
246.043	5.42
246.425	7.19
246.807	6.21
247.189	5.13
247.571	6.11
247.953	5.83
248.335	5.78
248.717	5.95
249.098	5.75
249.48	6.05
249.862	6.28
250.243	5.85
250.625	6.38
251.006	6.64
251.388	6.42
251.769	6.66
252.151	7.87
252.532	6.27
252.913	6.03
253.295	6.66
253.676	6
254.057	6.33
254.438	6.29
254.819	7.48
255.2	5.51
255.581	5.91
255.962	7.67
256.343	7.05
256.724	6.88
257.105	6.11
257.486	5.98
257.867	6.9
258.247	6.61
258.628	5.02
259.009	6.38
259.389	5.38
259.77	6.25
260.15	6.9
260.531	6.5
260.911	6.03
261.292	5.77
261.672	5.93
262.052	5.7
262.432	5.62
262.813	5.7
263.193	6.09
263.573	5.88
263.953	5.61
264.333	6.1
264.713	6.39
265.093	6.18
265.473	6.24
265.853	6.96
266.233	6.28
266.612	6.25
266.992	5.13
267.372	5.88
267.752	5.95
268.131	6.54
268.511	6.04
268.89	6.04
269.27	6.12
269.649	5.78
270.029	5.75
270.408	5.75
270.787	6.01
271.167	5.67
271.546	6.74
271.925	5.86
272.304	6.31
272.683	6.1
273.062	5.48
273.441	5.48
273.82	5.56
274.199	5.86
274.578	5.75
274.957	5.72
275.336	6.07
275.715	5.6
276.093	5.7
276.472	6.47
276.851	5.29
277.229	5.38
277.608	6.09
277.986	5.57
278.365	5.36
278.743	6.18
279.122	5.26
279.5	5.91
279.878	5.75
280.257	6.3
280.635	5.38
281.013	5.88
281.391	5.7
281.769	6.22
282.147	5.81
282.525	6.03
282.903	5.73
283.281	5.59
283.659	5.68
284.037	5.52
284.415	4.85
284.792	5.4
285.17	5.34
285.548	5.5
285.925	5.95
286.303	5.55
286.68	5.43
287.058	6.03
287.435	5.65
287.813	5.69
288.19	5.31
288.567	5.72
288.945	5.71
289.322	5.84
289.699	6.34
290.076	5.38
290.453	5.58
290.83	5.63
291.207	6.12
291.584	5.8
291.961	5.89
292.338	6.38
292.715	6.38
293.092	6.02
293.469	6.51
293.845	6.54
294.222	6.14
294.599	5.97
294.975	6.03
295.352	6.67
295.728	7.04
296.105	6.29
296.481	6.3
296.858	7.11
297.234	6.48
297.61	6.83
297.986	7.29
298.363	6.9
298.739	6.76
299.115	6.93
299.491	6.51
299.867	6.66
300.243	6.95
300.619	6.61
300.995	6.85
301.371	6.38
301.746	6.63
302.122	7.3
302.498	7.24
302.874	7.25
303.249	6.98
303.625	7.52
304	7.88
304.376	7.65
304.751	7.08
305.127	7.54
305.502	7.18
305.878	8.2
306.253	7.28
306.628	7.49
307.003	7.77
307.378	8.74
307.754	8.44
308.129	8.05
308.504	8.04
308.879	8.12
309.254	8.07
309.629	7.53
310.003	8.23
310.378	7.7
310.753	8.04
311.128	8.88
311.502	8.57
311.877	8.68
312.252	9.1
312.626	8.37
313.001	8.57
313.375	8.96
313.75	9.07
314.124	9.17
314.498	9.28
314.873	8.61
315.247	8.86
315.621	9.18
315.995	9.13
316.369	9.1
316.743	8.99
317.117	9.43
317.491	8.9
317.865	9.69
318.239	9.26
318.613	10.13
318.987	10.9
319.361	9.24
319.734	9.53
320.108	10.59
320.482	9.87
320.855	9.15
321.229	10.2
321.602	10.06
321.976	9.37
322.349	10.64
322.723	10.39
323.096	10.75
323.469	9.64
323.843	9.44
324.216	9.84
324.589	10.17
324.962	9.87
325.335	10.54
325.708	10.58
326.081	9.83
326.454	9.88
326.827	10.41
327.2	10.59
327.573	10.38
327.945	10.9
328.318	10.41
328.691	10.71
329.063	10.59
329.436	10.9
329.809	10.38
330.181	11.19
330.553	10.96
330.926	10.24
331.298	11.25
331.671	11.01
332.043	11.15
332.415	10.3
332.787	10.46
333.159	11.04
333.532	11.16
333.904	10.63
334.276	11.43
334.648	10.79
335.02	10.84
335.391	10.71
335.763	10.88
336.135	11.07
336.507	10.61
336.879	11.41
337.25	11.51
337.622	11.24
337.993	11.36
338.365	11.3
338.736	11.25
339.108	12.02
339.479	12.06
339.851	10.94
340.222	11.45
340.593	11.4
340.964	11.64
341.336	11.08
341.707	11.3
342.078	11.36
342.449	11.82
342.82	11.75
343.191	11.25
343.562	11.74
343.933	11.49
344.303	11.96
344.674	11.74
345.045	11.79
345.416	11.49
345.786	11.91
346.157	11.51
346.527	11.99
346.898	12.16
347.268	11.68
347.639	11.85
348.009	12.06
348.38	12.47
348.75	12.1
349.12	11.97
349.49	11.9
349.861	12.34
350.231	12.05
350.601	12.48
350.971	12.28
351.341	12.28
351.711	12.8
352.081	12.35
352.45	12.11
352.82	11.72
353.19	12.82
353.56	12.57
353.929	12.74
354.299	12.13
354.669	12.55
355.038	12.39
355.408	12.97
355.777	12.58
356.147	12.84
356.516	13.12
356.885	12.69
357.254	12.62
357.624	12.61
357.993	12.83
358.362	12.87
358.731	13.02
359.1	13.1
359.469	13.27
359.838	12.54
360.207	12.84
360.576	12.77
360.945	12.7
361.314	13.21
361.682	12.63
362.051	13.17
362.42	13.16
362.788	13.17
363.157	13.15
363.525	12.91
363.894	13.09
364.262	13.14
364.631	13.23
364.999	12.89
365.367	13.07
365.735	13.51
366.104	13.01
366.472	13.29
366.84	13.5
367.208	13.52
367.576	13.19
367.944	13.44
368.312	13.93
368.68	13.35
369.048	13.64
369.416	13.62
369.783	13.9
370.151	13.71
370.519	13.61
370.886	14.09
371.254	13.77
371.621	13.76
371.989	13.7
372.356	13.79
372.724	13.82
373.091	13.62
373.458	14.01
373.826	14.08
374.193	14.25
374.56	14.07
374.927	14.14
375.294	13.79
375.661	14.16
376.028	14.28
376.395	13.81
376.762	14.5
377.129	14.13
377.496	14.52
377.863	14.31
378.229	13.86
378.596	14.09
378.963	14
379.329	14.46
379.696	14
380.062	14.23
380.429	14.57
380.795	14.7
381.161	14.56
381.528	14.34
381.894	14.1
382.26	14.02
382.626	14.67
382.993	14.33
383.359	14.6
383.725	14.41
384.091	14.34
384.457	14.22
384.823	14
385.188	14.39
385.554	14.38
385.92	14.35
386.286	14.36
386.651	14.44
387.017	14.39
387.383	14.63
387.748	14.55
388.114	14.55
388.479	14.62
388.845	14.39
389.21	14.6
389.575	14.28
389.94	14.34
390.306	14.33
390.671	14.57
391.036	14.82
391.401	14.45
391.766	14.4
392.131	14.23
392.496	14.07
392.861	14.46
393.226	14.66
393.591	14.62
393.956	14.45
394.32	14.36
394.685	14.54
395.05	14.61
395.414	14.54
395.779	14.44
396.143	14.69
396.508	14.7
396.872	14.55
397.236	14.37
397.601	14.62
397.965	14.48
398.329	14.2
398.694	14.26
399.058	14.34
399.422	14.52
399.786	14.66
400.15	14.06
400.514	14.35
400.878	14.17
401.242	14.29
401.605	14.63
401.969	14.53
402.333	14.58
402.697	14.32
403.06	14.63
403.424	14.6
403.787	14.6
404.151	14.53
404.514	14.47
404.878	14.52
405.241	14.48
405.604	14.44
405.968	14.28
406.331	14.18
406.694	14.16
407.057	14.29
407.42	14.67
407.783	14.48
408.146	14.33
408.509	14.48
408.872	14.52
409.235	14.25
409.598	14.5
409.961	14.27
410.323	14.71
410.686	14.3
411.049	14.33
411.411	14.23
411.774	14.19
412.136	14.56
412.499	14.35
412.861	14.25
413.223	14.52
413.586	14.46
413.948	14.46
414.31	14.75
414.672	14.64
415.035	14.92
415.397	14.5
415.759	14.83
416.121	14.93
416.483	14.91
416.845	14.79
417.206	14.9
417.568	14.89
417.93	14.68
418.292	15.07
418.653	14.92
419.015	15.19
419.377	14.86
419.738	14.97
420.1	15.07
420.461	14.9
420.822	14.91
421.184	14.9
421.545	15.12
421.906	15.12
422.267	15.32
422.629	15.27
422.99	15.26
423.351	15.44
423.712	15.4
424.073	15.41
424.434	15.62
424.795	15.73
425.155	15.75
425.516	15.85
425.877	15.84
426.238	15.9
426.598	15.99
426.959	16.02
427.32	16.23
427.68	16.28
428.041	16.4
428.401	16.47
428.761	16.7
429.122	16.76
429.482	16.8
429.842	17.29
430.202	16.86
430.563	17.32
430.923	17.22
431.283	17.18
431.643	17.34
432.003	17.54
432.363	17.56
432.722	17.79
433.082	17.41
433.442	17.69
433.802	17.95
434.161	17.99
434.521	17.79
434.881	18.11
435.24	18.04
435.6	17.96
435.959	18.19
436.319	18.25
436.678	18.24
437.037	18.15
437.396	18.29
437.756	18.68
438.115	18.56
438.474	18.46
438.833	18.79
439.192	18.65
439.551	18.86
439.91	18.89
440.269	18.84
440.628	19.02
440.987	19.02
441.345	19.2
441.704	19.15
442.063	19.19
442.421	19.23
442.78	19.2
443.138	19.29
443.497	19.31
443.855	19.49
444.214	19.7
444.572	19.8
444.93	19.66
445.288	19.8
445.647	19.73
446.005	20
446.363	19.75
446.721	19.92
447.079	19.89
447.437	20.03
447.795	20.01
448.153	19.95
448.51	20.12
448.868	20.09
449.226	20.15
449.584	20.24
449.941	20.37
450.299	20.53
450.656	20.29
451.014	20.61
451.371	20.62
451.729	20.82
452.086	20.91
452.443	20.82
452.801	20.95
453.158	21.14
453.515	21.31
453.872	21.17
454.229	21.04
454.586	21.07
454.943	21.2
455.3	21.19
455.657	21.41
456.014	21.41
456.371	21.45
456.727	21.6
457.084	21.68
457.441	21.92
457.797	21.46
458.154	21.69
458.51	21.93
458.867	22.17
459.223	21.94
459.58	21.99
459.936	22.24
460.292	22.01
460.648	22.09
461.005	21.99
461.361	22.07
461.717	21.97
462.073	22.06
462.429	22.24
462.785	22.31
463.141	22.46
463.496	22.68
463.852	22.61
464.208	22.6
464.564	22.69
464.919	22.78
465.275	22.99
465.631	22.87
465.986	23.25
466.342	22.8
466.697	23.01
467.052	23.05
467.408	23.06
467.763	23.19
468.118	23.36
468.473	23.61
468.829	23.28
469.184	23.31
469.539	23.45
469.894	23.59
470.249	23.56
470.603	23.52
470.958	24.1
471.313	23.74
471.668	23.95
472.023	23.51
472.377	23.71
472.732	23.94
473.086	24.1
473.441	24.04
473.795	24.25
474.15	24.1
474.504	24.01
474.859	24.25
475.213	24.28
475.567	24.31
475.921	24.48
476.275	24.48
476.63	24.45
476.984	24.4
477.338	24.73
477.692	24.61
478.045	24.57
478.399	24.67
478.753	24.79
479.107	24.69
479.461	24.76
479.814	24.92
480.168	24.83
480.521	24.95
480.875	24.97
481.228	24.78
481.582	24.89
481.935	25.23
482.289	25.19
482.642	25.14
482.995	25.22
483.348	25.03
483.701	25.1
484.055	25.05
484.408	24.93
484.761	24.7
485.114	24.62
485.466	24.38
485.819	24.44
486.172	24.41
486.525	24.46
486.878	24.62
487.23	24.85
487.583	25.05
487.936	25.24
488.288	25.23
488.641	25.21
488.993	25.06
489.345	24.97
489.698	24.95
490.05	25.05
490.402	25.17
490.754	25.36
491.107	25.53
491.459	25.7
491.811	25.87
492.163	25.9
492.515	26.02
492.866	25.96
493.218	25.7
493.57	25.62
493.922	25.58
494.274	25.61
494.625	25.85
494.977	26.27
495.328	26.4
495.68	26.58
496.031	26.63
496.383	26.63
496.734	26.66
497.086	26.84
497.437	27.02
497.788	27.04
498.139	26.95
498.49	26.76
498.842	26.94
499.193	26.88
499.544	26.95
499.894	26.93
500.245	26.94
500.596	27.08
500.947	27.15
501.298	27.27
501.648	27.31
501.999	27.23
502.35	27.46
502.7	27.6
503.051	27.45
503.401	27.65
503.752	27.89
504.102	27.93
504.452	27.6
504.803	27.86
505.153	27.71
505.503	28.09
505.853	28.02
506.203	28.09
506.553	28.22
506.903	27.97
507.253	27.92
507.603	28.02
507.953	28.24
508.303	28.25
508.652	28.25
509.002	28.35
509.352	28.33
509.701	28.2
510.051	28.25
510.4	28.35
510.75	28.27
511.099	28.33
511.449	28.29
511.798	28.13
512.147	28.57
512.496	28.43
512.846	28.48
513.195	28.4
513.544	28.65
513.893	28.7
514.242	28.67
514.591	28.59
514.939	28.62
515.288	28.76
515.637	28.8
515.986	28.8
516.334	28.92
516.683	29.08
517.032	29.07
517.38	29.1
517.729	29.14
518.077	28.99
518.426	29.18
518.774	29.1
519.122	29.25
519.47	29.2
519.819	29.24
520.167	28.9
520.515	28.94
520.863	28.91
521.211	29.07
521.559	29.34
521.907	29.35
522.255	29.31
522.602	29.27
522.95	29.31
523.298	29.34
523.645	29.62
523.993	29.65
524.341	29.71
524.688	29.78
525.036	29.95
525.383	29.93
525.73	29.69
526.078	29.9
526.425	29.95
526.772	29.88
527.119	29.78
527.466	29.8
527.814	29.66
528.161	29.51
528.508	29.7
528.854	29.67
529.201	29.61
529.548	29.45
529.895	29.36
530.242	29.27
530.588	29.28
530.935	29.23
531.282	29.23
531.628	29.36
531.975	29.67
532.321	29.78
532.667	29.91
533.014	30.06
533.36	30.23
533.706	30.21
534.052	30.23
534.399	30.16
534.745	30.03
535.091	29.89
535.437	30.05
535.783	29.99
536.129	30.05
536.474	30.32
536.82	30.35
537.166	30.74
537.512	30.74
537.857	30.89
538.203	30.84
538.549	30.85
538.894	30.72
539.239	30.89
539.585	30.95
539.93	31
540.276	31.21
540.621	31.2
540.966	31.34
541.311	31.38
541.656	31.31
542.001	31.41
542.346	31.41
542.691	31.04
543.036	30.91
543.381	30.88
543.726	30.96
544.071	31.01
544.415	31.21
544.76	31.34
545.105	31.31
545.449	31.53
545.794	31.71
546.138	31.91
546.483	31.86
546.827	32
547.171	32.17
547.516	32.33
547.86	32.18
548.204	32.32
548.548	32.28
548.892	32.03
549.236	32.4
549.58	32.33
549.924	32.54
550.268	32.63
550.612	32.84
550.956	32.69
551.3	32.9
551.643	33.12
551.987	32.96
552.33	32.99
552.674	33.33
553.017	32.9
553.361	33.31
553.704	33.35
554.048	33.23
554.391	33.4
554.734	33.18
555.077	33.57
555.42	33.34
555.764	33.25
556.107	33.96
556.45	33.71
556.793	33.76
557.135	33.82
557.478	33.76
557.821	34.05
558.164	34
558.507	33.9
558.849	34.22
559.192	34.13
559.534	33.94
559.877	34.17
560.219	34.49
560.562	33.83
560.904	34.6
561.246	34.34
561.589	34.13
561.931	34.42
562.273	34.8
562.615	34.77
562.957	34.72
563.299	34.45
563.641	34.52
563.983	34.8
564.325	34.7
564.667	34.91
565.008	34.96
565.35	34.85
565.692	35.13
566.033	34.94
566.375	35.01
566.716	35.15
567.058	35
567.399	35.29
567.741	34.97
568.082	35.46
568.423	35.18
568.764	35.33
569.105	35.33
569.447	35.31
569.788	35.64
570.129	35.52
570.47	35.88
570.811	35.61
571.151	35.84
571.492	35.61
571.833	36.09
572.174	35.77
572.514	35.74
572.855	36.24
573.195	36.1
573.536	36
573.876	36.04
574.217	35.97
574.557	36.01
574.898	36.35
575.238	36.34
575.578	36.65
575.918	36.33
576.258	36.33
576.598	36.42
576.938	36.59
577.278	36.4
577.618	36.78
577.958	36.42
578.298	36.81
578.638	36.91
578.977	36.98
579.317	37.28
579.657	37.11
579.996	37.3
580.336	37.27
580.675	37.57
581.014	37.68
581.354	37.2
581.693	37.75
582.032	38.02
582.372	37.87
582.711	37.87
583.05	37.93
583.389	38.36
583.728	37.85
584.067	38.22
584.406	37.88
584.745	38.18
585.083	38.19
585.422	38.34
585.761	38.51
586.1	38.53
586.438	38.54
586.777	38.77
587.115	38.77
587.454	38.6
587.792	38.61
588.13	38.94
588.469	38.72
588.807	39.05
589.145	39.17
589.483	38.82
589.821	39.08
590.159	38.85
590.497	38.99
590.835	39.15
591.173	39.63
591.511	39.32
591.849	39.18
592.187	39.47
592.524	39.43
592.862	39.48
593.2	39.84
593.537	40.04
593.875	39.84
594.212	39.71
594.55	39.93
594.887	40.29
595.224	40.02
595.561	40.35
595.899	40.32
596.236	40.24
596.573	40.25
596.91	40.15
597.247	40.55
597.584	40.55
597.921	40.29
598.258	40.66
598.594	40.81
598.931	40.58
599.268	40.57
599.604	40.63
599.941	40.1
600.277	40.52
600.614	40.92
600.95	41.11
601.287	41.34
601.623	40.96
601.959	41.14
602.296	41.25
602.632	41.28
602.968	41.21
603.304	41.47
603.64	41.58
603.976	41.55
604.312	41.35
604.648	41.36
604.984	41.6
605.319	41.91
605.655	41.81
605.991	41.65
606.326	41.58
606.662	41.59
606.998	41.78
607.333	41.62
607.668	41.6
608.004	41.9
608.339	41.96
608.674	41.8
609.01	41.96
609.345	42.27
609.68	42.29
610.015	42.03
610.35	42.43
610.685	42.95
611.02	42.51
611.355	42.47
611.689	42.6
612.024	42.38
612.359	42.5
612.694	42.87
613.028	42.39
613.363	42.65
613.697	42.89
614.032	42.67
614.366	43.2
614.7	43.09
615.035	43.33
615.369	43.02
615.703	43.23
616.037	43.58
616.371	43.64
616.705	43.07
617.039	43.33
617.373	43.49
617.707	43.41
618.041	43.68
618.375	43.64
618.709	43.7
619.042	42.8
619.376	43.34
619.71	43.55
620.043	43.83
620.377	44.24
620.71	44.08
621.043	44.05
621.377	44.45
621.71	44.04
622.043	43.97
622.376	43.6
622.709	44.33
623.043	44.32
623.376	44.72
623.709	44.69
624.041	44.75
624.374	44.66
624.707	44.49
625.04	44.69
625.373	44.51
625.705	44.71
626.038	44.82
626.37	45
626.703	45.33
627.035	44.63
627.368	45.31
627.7	45.23
628.032	44.95
628.365	44.79
628.697	44.95
629.029	45.02
629.361	45.05
629.693	45.23
630.025	45.43
630.357	45.47
630.689	45.34
631.021	45.43
631.353	45.71
631.684	45.63
632.016	45.67
632.348	45.61
632.679	45.67
633.011	45.91
633.342	46.01
633.674	45.9
634.005	46.01
634.336	46.03
634.668	46.35
634.999	45.81
635.33	46.65
635.661	46.58
635.992	46.16
636.323	46.57
636.654	46.06
636.985	46.08
637.316	46.37
637.647	46.76
637.977	46.69
638.308	46.28
638.639	47.59
638.969	46.84
639.3	47.14
639.63	46.91
639.961	47.42
640.291	47.12
640.622	47.37
640.952	47.06
641.282	47.04
641.612	47.33
641.943	48.07
642.273	47.39
642.603	47.01
642.933	47.26
643.263	47.96
643.592	47.89
643.922	48.15
644.252	48.34
644.582	48.06
644.911	48.31
645.241	48.15
645.571	48.03
645.9	47.97
646.23	48.19
646.559	48.71
646.888	48.38
647.218	48.21
647.547	48.59
647.876	48.22
648.205	47.65
648.534	48.39
648.863	49.15
649.192	48.62
649.521	49
649.85	48.93
650.179	48.31
650.508	49.12
650.837	48.96
651.165	48.82
651.494	49.6
651.822	49.25
652.151	49.63
652.479	49.34
652.808	48.48
653.136	48.87
653.465	49.02
653.793	49.1
654.121	49.2
654.449	49.83
654.777	49.23
655.105	49.08
655.433	49.09
655.761	49.84
656.089	49.59
656.417	49.04
656.745	49.44
657.073	49.32
657.4	48.96
657.728	49.65
658.056	50.37
658.383	50.2
658.711	49.66
659.038	50.36
659.365	50.24
659.693	50.23
660.02	49.87
660.347	50.52
660.674	50.82
661.001	50.15
661.329	50.68
661.656	50.39
661.982	50.69
662.309	50.37
662.636	51.15
662.963	50.54
663.29	50.2
663.616	50.88
663.943	50.8
664.27	50.85
664.596	50.99
664.923	50.95
665.249	50.62
665.576	50.71
665.902	51.24
666.228	50.63
666.554	50.72
666.881	51.12
667.207	51.4
667.533	51.25
667.859	51.14
668.185	51.27
668.511	51.1
668.837	51.33
669.162	50.86
669.488	52.19
669.814	51.72
670.139	52.27
