Data from 20-51_crown_Reflection__1__51.txt Node

Date: Thu Feb 29 22:17:57 CST 2024
User: ToomeyLab
Spectrometer: FLMS14357
Trigger mode: 0
Integration Time (sec): 1.000000E-2
Scans to average: 100
Electric dark correction enabled: true
Nonlinearity correction enabled: false
Boxcar width: 0
XAxis mode: Wavelengths
Number of Pixels in Spectrum: 2048
>>>>>Begin Spectral Data<<<<<
189.047	5.74
189.435	5.74
189.823	5.74
190.211	-73.56
190.599	-382.7
190.987	-221.6
191.375	-219.37
191.763	513.1
192.151	-1879.82
192.538	130.65
192.926	87.25
193.314	146.38
193.702	69.51
194.089	41.28
194.477	11.63
194.864	135.94
195.252	99.2
195.639	-178.65
196.027	65.65
196.414	66.76
196.801	-49.49
197.189	44.7
197.576	-689.24
197.963	781.2
198.351	-32.36
198.738	-19.39
199.125	-11.68
199.512	11.94
199.899	-44.87
200.286	-97.35
200.673	35.85
201.06	-76.38
201.447	-63.18
201.833	2.72
202.22	-4.52
202.607	-79.09
202.994	-39.35
203.38	-49.27
203.767	-108.17
204.154	18.74
204.54	12.86
204.927	41.63
205.313	-1.49
205.699	-23.24
206.086	-18.13
206.472	18.56
206.858	-12.56
207.245	-13.73
207.631	7.76
208.017	-24.73
208.403	0.56
208.789	7.22
209.175	-26.04
209.561	-14.91
209.947	-28.45
210.333	19.76
210.719	4.58
211.105	10.21
211.491	-36.64
211.876	6.9
212.262	30.5
212.648	-20.2
213.034	12.86
213.419	3.25
213.805	-15.26
214.19	-14.74
214.576	-20.23
214.961	-0.18
215.346	10.94
215.732	-25.45
216.117	-35.49
216.502	-10.42
216.888	12.22
217.273	6.96
217.658	-12.52
218.043	13.74
218.428	-10.04
218.813	-13.55
219.198	24.83
219.583	-35.03
219.968	-8.57
220.353	-23.63
220.738	-15.85
221.122	-9.48
221.507	8.01
221.892	-20.46
222.276	11.72
222.661	9.08
223.046	-3.59
223.43	0.05
223.815	-11.33
224.199	1.48
224.583	0.42
224.968	5.72
225.352	4.06
225.736	1.44
226.121	6.31
226.505	16.51
226.889	2.2
227.273	3.77
227.657	-5.4
228.041	2.75
228.425	-0.2
228.809	8.24
229.193	4.83
229.577	5.76
229.961	2.82
230.344	3.82
230.728	4.82
231.112	5.6
231.495	4.84
231.879	5.35
232.263	2.33
232.646	5.01
233.03	5.71
233.413	3.87
233.797	4.47
234.18	3.3
234.563	-0.51
234.946	2.97
235.33	2.93
235.713	4.26
236.096	4.03
236.479	6.27
236.862	6.62
237.245	3.36
237.628	4.27
238.011	4.11
238.394	2.45
238.777	2.6
239.16	2.09
239.543	4.47
239.925	4.21
240.308	3.98
240.691	4.52
241.073	4.69
241.456	4.32
241.838	5.13
242.221	4.95
242.603	5.28
242.986	4.91
243.368	4.65
243.75	5.11
244.133	4.64
244.515	4.6
244.897	5.37
245.279	5.04
245.661	4.38
246.043	4.49
246.425	6.38
246.807	4.92
247.189	4.92
247.571	4.49
247.953	4.55
248.335	4.55
248.717	4.84
249.098	4.85
249.48	4.85
249.862	4.92
250.243	4.82
250.625	4.77
251.006	5.78
251.388	4.45
251.769	5.43
252.151	5.7
252.532	4.53
252.913	3.98
253.295	4.49
253.676	4.67
254.057	4.3
254.438	4.65
254.819	4.98
255.2	3.44
255.581	4.79
255.962	4.95
256.343	5.03
256.724	3.44
257.105	5.13
257.486	4.05
257.867	5.18
258.247	4.1
258.628	4.18
259.009	3.52
259.389	3.89
259.77	4.27
260.15	4.86
260.531	4.96
260.911	4.3
261.292	4.25
261.672	4.65
262.052	4.51
262.432	4.7
262.813	4.28
263.193	5.15
263.573	3.86
263.953	4.38
264.333	3.97
264.713	4.87
265.093	4.9
265.473	3.56
265.853	4.61
266.233	4.2
266.612	4.82
266.992	4.31
267.372	3.68
267.752	3.8
268.131	4.28
268.511	4.66
268.89	4.82
269.27	4.83
269.649	4.24
270.029	4.13
270.408	4.58
270.787	3.86
271.167	4.31
271.546	4.77
271.925	4.36
272.304	4.72
272.683	4.18
273.062	4.05
273.441	4.34
273.82	4.15
274.199	4.24
274.578	4.33
274.957	4.44
275.336	5.06
275.715	4.73
276.093	4.47
276.472	5.25
276.851	4.15
277.229	4.21
277.608	4.54
277.986	4.21
278.365	4.92
278.743	3.97
279.122	3.6
279.5	3.74
279.878	4.1
280.257	4.71
280.635	3.73
281.013	4.45
281.391	3.94
281.769	4.63
282.147	4.75
282.525	4.49
282.903	4.23
283.281	4.21
283.659	4.08
284.037	4.26
284.415	3.94
284.792	3.57
285.17	3.97
285.548	4.72
285.925	4
286.303	3.99
286.68	4.14
287.058	4.26
287.435	3.82
287.813	4.28
288.19	4
288.567	4.08
288.945	4.18
289.322	3.87
289.699	4.01
290.076	4.24
290.453	3.59
290.83	4.12
291.207	4.12
291.584	3.71
291.961	4.14
292.338	4.46
292.715	4.11
293.092	4.28
293.469	4.29
293.845	4.27
294.222	3.92
294.599	3.56
294.975	4.32
295.352	4.21
295.728	4.66
296.105	4.18
296.481	3.76
296.858	3.99
297.234	3.8
297.61	3.9
297.986	4.27
298.363	4.12
298.739	4.29
299.115	4.36
299.491	4.06
299.867	4.24
300.243	4.11
300.619	4.32
300.995	4.19
301.371	4.11
301.746	3.96
302.122	4.68
302.498	4.65
302.874	4.4
303.249	3.6
303.625	4.42
304	4.28
304.376	3.74
304.751	3.36
305.127	3.76
305.502	3.96
305.878	4.31
306.253	3.37
306.628	3.62
307.003	3.9
307.378	4.32
307.754	4.43
308.129	4.13
308.504	4
308.879	3.86
309.254	3.33
309.629	3.59
310.003	3.78
310.378	3.72
310.753	3.72
311.128	3.96
311.502	4
311.877	3.8
312.252	4.24
312.626	3.61
313.001	4.13
313.375	4.1
313.75	4.25
314.124	4.3
314.498	4.32
314.873	3.46
315.247	3.44
315.621	4.41
315.995	3.83
316.369	3.66
316.743	3.52
317.117	3.99
317.491	3.8
317.865	3.5
318.239	4.03
318.613	4.11
318.987	4.21
319.361	3.71
319.734	3.85
320.108	3.86
320.482	4.22
320.855	3.52
321.229	3.88
321.602	4.06
321.976	3.78
322.349	4.05
322.723	3.77
323.096	3.36
323.469	3
323.843	3.36
324.216	3.86
324.589	3.53
324.962	3.43
325.335	3.86
325.708	3.89
326.081	3.63
326.454	3.71
326.827	3.84
327.2	4.42
327.573	3.92
327.945	4.27
328.318	3.75
328.691	4.38
329.063	3.58
329.436	3.5
329.809	3.71
330.181	3.66
330.553	3.91
330.926	3.17
331.298	3.74
331.671	4.01
332.043	3.8
332.415	3.74
332.787	3.13
333.159	4.1
333.532	3.4
333.904	3.95
334.276	3.54
334.648	3.77
335.02	3.27
335.391	3.38
335.763	2.81
336.135	3.39
336.507	3.37
336.879	3.96
337.25	3.55
337.622	3.44
337.993	3.31
338.365	3
338.736	3.27
339.108	3.94
339.479	3.98
339.851	3.67
340.222	3.96
340.593	3.67
340.964	3.52
341.336	3.59
341.707	3.7
342.078	3.37
342.449	3.88
342.82	3.56
343.191	3.5
343.562	3.78
343.933	3.61
344.303	3.98
344.674	3.45
345.045	4.19
345.416	3.87
345.786	3.93
346.157	3.69
346.527	3.63
346.898	3.74
347.268	3.32
347.639	4.01
348.009	3.76
348.38	4.37
348.75	3.95
349.12	3.61
349.49	3.6
349.861	3.73
350.231	4.02
350.601	3.93
350.971	3.48
351.341	3.87
351.711	4.21
352.081	3.7
352.45	3.55
352.82	3.65
353.19	4.38
353.56	3.91
353.929	3.99
354.299	3.73
354.669	4.11
355.038	3.53
355.408	3.8
355.777	3.62
356.147	3.75
356.516	3.81
356.885	3.63
357.254	3.82
357.624	3.44
357.993	3.88
358.362	3.84
358.731	3.89
359.1	4.08
359.469	3.78
359.838	3.76
360.207	3.87
360.576	4.15
360.945	3.26
361.314	4.06
361.682	3.57
362.051	3.99
362.42	4.03
362.788	3.69
363.157	3.86
363.525	3.64
363.894	3.82
364.262	3.53
364.631	3.9
364.999	3.75
365.367	3.49
365.735	3.75
366.104	3.7
366.472	3.46
366.84	3.98
367.208	3.82
367.576	3.56
367.944	3.43
368.312	4.11
368.68	4.03
369.048	3.83
369.416	3.88
369.783	4.17
370.151	3.73
370.519	3.83
370.886	3.87
371.254	4.13
371.621	3.82
371.989	3.66
372.356	3.89
372.724	4.04
373.091	3.89
373.458	4.24
373.826	4.07
374.193	3.75
374.56	4.04
374.927	4.1
375.294	3.54
375.661	4.13
376.028	4.21
376.395	4.1
376.762	4.52
377.129	3.71
377.496	4.17
377.863	3.93
378.229	3.61
378.596	3.98
378.963	3.9
379.329	4.13
379.696	3.79
380.062	3.83
380.429	4.04
380.795	4.05
381.161	4.14
381.528	4.13
381.894	3.89
382.26	3.46
382.626	4.13
382.993	4.16
383.359	4.68
383.725	3.84
384.091	4.41
384.457	3.76
384.823	4.13
385.188	3.7
385.554	3.96
385.92	4.27
386.286	3.75
386.651	4.02
387.017	4.11
387.383	3.87
387.748	4.04
388.114	4.25
388.479	4.54
388.845	3.94
389.21	3.98
389.575	3.76
389.94	4.14
390.306	3.97
390.671	3.93
391.036	4.33
391.401	3.72
391.766	4.12
392.131	4.12
392.496	4.09
392.861	3.95
393.226	4.5
393.591	4.18
393.956	4.16
394.32	4.28
394.685	4.45
395.05	4.19
395.414	4.26
395.779	3.95
396.143	4.32
396.508	4.11
396.872	4.29
397.236	4.02
397.601	4.31
397.965	4.49
398.329	3.97
398.694	3.89
399.058	4.01
399.422	3.71
399.786	4.44
400.15	4.04
400.514	4.2
400.878	4.01
401.242	3.88
401.605	4.27
401.969	4.41
402.333	4.26
402.697	4.1
403.06	4.48
403.424	4.33
403.787	4.19
404.151	4.3
404.514	4.21
404.878	4.32
405.241	4.46
405.604	4.25
405.968	4.26
406.331	4.09
406.694	4.37
407.057	4.06
407.42	4.1
407.783	4.2
408.146	4.48
408.509	4.54
408.872	4.38
409.235	4.43
409.598	4.32
409.961	4.09
410.323	4.47
410.686	4.16
411.049	4.29
411.411	4.04
411.774	4.28
412.136	4.46
412.499	4.24
412.861	4.62
413.223	4.3
413.586	4.12
413.948	4.39
414.31	4.52
414.672	4.15
415.035	4.36
415.397	4.41
415.759	4.16
416.121	4.73
416.483	4.64
416.845	4.44
417.206	4.31
417.568	4.07
417.93	4.29
418.292	4.53
418.653	4.31
419.015	4.51
419.377	4.48
419.738	4.36
420.1	4.29
420.461	4.34
420.822	4.27
421.184	4.24
421.545	4.41
421.906	4.43
422.267	4.35
422.629	4.46
422.99	4.33
423.351	4.44
423.712	4.41
424.073	4.39
424.434	4.31
424.795	4.37
425.155	4.43
425.516	4.39
425.877	4.36
426.238	4.48
426.598	4.47
426.959	4.52
427.32	4.6
427.68	4.38
428.041	4.41
428.401	4.42
428.761	4.71
429.122	4.51
429.482	4.6
429.842	4.64
430.202	4.5
430.563	4.56
430.923	4.52
431.283	4.61
431.643	4.5
432.003	4.83
432.363	4.49
432.722	4.8
433.082	4.33
433.442	4.69
433.802	4.67
434.161	4.94
434.521	4.64
434.881	4.58
435.24	4.56
435.6	4.47
435.959	4.62
436.319	4.56
436.678	4.31
437.037	4.5
437.396	4.58
437.756	4.57
438.115	4.59
438.474	4.47
438.833	4.73
439.192	4.59
439.551	4.65
439.91	4.61
440.269	4.54
440.628	4.63
440.987	4.59
441.345	4.64
441.704	4.53
442.063	4.65
442.421	4.61
442.78	4.65
443.138	4.63
443.497	4.52
443.855	4.67
444.214	4.9
444.572	4.72
444.93	4.79
445.288	4.83
445.647	4.72
446.005	4.77
446.363	4.63
446.721	4.56
447.079	4.58
447.437	4.68
447.795	4.72
448.153	4.65
448.51	4.74
448.868	4.62
449.226	4.84
449.584	4.61
449.941	4.7
450.299	4.74
450.656	4.72
451.014	4.7
451.371	4.75
451.729	4.99
452.086	4.78
452.443	4.69
452.801	4.86
453.158	4.95
453.515	4.82
453.872	4.82
454.229	4.75
454.586	4.76
454.943	4.64
455.3	4.74
455.657	4.84
456.014	4.88
456.371	4.73
456.727	4.89
457.084	4.77
457.441	5.07
457.797	4.7
458.154	4.92
458.51	4.8
458.867	4.81
459.223	4.88
459.58	4.96
459.936	4.83
460.292	4.65
460.648	4.77
461.005	4.73
461.361	4.76
461.717	4.8
462.073	4.65
462.429	4.8
462.785	4.87
463.141	4.92
463.496	4.93
463.852	4.83
464.208	4.84
464.564	4.75
464.919	5.01
465.275	4.86
465.631	4.83
465.986	5.15
466.342	4.88
466.697	4.98
467.052	4.67
467.408	4.84
467.763	4.92
468.118	4.77
468.473	4.9
468.829	4.83
469.184	4.75
469.539	5.02
469.894	4.83
470.249	4.94
470.603	4.88
470.958	5.08
471.313	4.75
471.668	4.98
472.023	4.85
472.377	4.81
472.732	5.03
473.086	5.14
473.441	4.97
473.795	5.07
474.15	4.65
474.504	4.92
474.859	4.99
475.213	4.76
475.567	5.16
475.921	5.18
476.275	4.84
476.63	4.97
476.984	4.92
477.338	5.13
477.692	5.09
478.045	5.01
478.399	4.75
478.753	5.09
479.107	5.04
479.461	4.98
479.814	4.99
480.168	4.91
480.521	4.95
480.875	4.93
481.228	5.1
481.582	5.09
481.935	5
482.289	5.14
482.642	4.82
482.995	4.94
483.348	4.87
483.701	5.04
484.055	4.87
484.408	4.91
484.761	4.86
485.114	4.69
485.466	4.55
485.819	4.63
486.172	4.74
486.525	4.89
486.878	4.9
487.23	4.94
487.583	4.94
487.936	5.01
488.288	4.9
488.641	4.82
488.993	4.87
489.345	4.79
489.698	4.74
490.05	4.79
490.402	4.95
490.754	4.93
491.107	4.95
491.459	5
491.811	5.03
492.163	4.95
492.515	4.9
492.866	4.84
493.218	4.76
493.57	4.71
493.922	4.91
494.274	5
494.625	4.97
494.977	5.08
495.328	5.06
495.68	5.22
496.031	5.1
496.383	4.96
496.734	5.22
497.086	4.99
497.437	5.19
497.788	4.99
498.139	5.03
498.49	4.91
498.842	5
499.193	5.16
499.544	5.2
499.894	5.06
500.245	5.06
500.596	5.03
500.947	5.05
501.298	5.25
501.648	4.98
501.999	5.17
502.35	5.25
502.7	5.26
503.051	5.17
503.401	5.08
503.752	5.16
504.102	5.32
504.452	5.17
504.803	5.23
505.153	5.01
505.503	5.26
505.853	5.22
506.203	5.07
506.553	5.18
506.903	5.12
507.253	5.07
507.603	5.19
507.953	5.12
508.303	5.05
508.652	5.14
509.002	5.31
509.352	5.13
509.701	5.17
510.051	5.09
510.4	5.34
510.75	5.08
511.099	5.15
511.449	5.14
511.798	5.14
512.147	5.22
512.496	5.15
512.846	5.07
513.195	5.22
513.544	5.13
513.893	5.19
514.242	5.17
514.591	5.13
514.939	5.21
515.288	5.25
515.637	5.23
515.986	5.13
516.334	5.07
516.683	5.22
517.032	5.21
517.38	5.04
517.729	5.12
518.077	5.2
518.426	5.17
518.774	5.13
519.122	5.24
519.47	5.11
519.819	5.23
520.167	5.06
520.515	5.01
520.863	5.13
521.211	5.14
521.559	5.33
521.907	5.22
522.255	5.08
522.602	5.11
522.95	5.15
523.298	5.16
523.645	5.15
523.993	5.24
524.341	5.16
524.688	5.19
525.036	5.3
525.383	5.21
525.73	5.32
526.078	5.25
526.425	5.2
526.772	5.06
527.119	5.16
527.466	5.16
527.814	5.07
528.161	5.21
528.508	5.19
528.854	5.2
529.201	5.1
529.548	4.88
529.895	4.94
530.242	4.86
530.588	4.86
530.935	4.98
531.282	5.06
531.628	5.09
531.975	5.13
532.321	5.15
532.667	5.15
533.014	5.19
533.36	5.19
533.706	5.21
534.052	5.21
534.399	5.15
534.745	5.1
535.091	4.94
535.437	5.09
535.783	5.12
536.129	5.28
536.474	5.24
536.82	5.24
537.166	5.26
537.512	5.23
537.857	5.31
538.203	5.19
538.549	5.12
538.894	5.29
539.239	5.23
539.585	5.21
539.93	5.25
540.276	5.28
540.621	5.21
540.966	5.29
541.311	5.13
541.656	5.28
542.001	5.29
542.346	5.11
542.691	5.05
543.036	5.02
543.381	4.97
543.726	5.12
544.071	5.2
544.415	5.18
544.76	5.26
545.105	5.1
545.449	5.17
545.794	5.11
546.138	5.36
546.483	5.25
546.827	5.29
547.171	5.33
547.516	5.3
547.86	5.14
548.204	5.15
548.548	5.17
548.892	5.19
549.236	5.16
549.58	5.28
549.924	5.36
550.268	5.31
550.612	5.4
550.956	5.47
551.3	5.31
551.643	5.14
551.987	5.37
552.33	5.45
552.674	5.71
553.017	5.25
553.361	5.25
553.704	5.39
554.048	5.17
554.391	5.38
554.734	5.33
555.077	5.37
555.42	5.4
555.764	5.24
556.107	5.64
556.45	5.45
556.793	5.25
557.135	5.45
557.478	5.24
557.821	5.47
558.164	5.47
558.507	5.37
558.849	5.59
559.192	5.43
559.534	5.26
559.877	5.39
560.219	5.51
560.562	5.24
560.904	5.28
561.246	5.16
561.589	5.26
561.931	5.48
562.273	5.45
562.615	5.27
562.957	5.45
563.299	5.32
563.641	5.17
563.983	5.41
564.325	5.29
564.667	5.29
565.008	5.39
565.35	5.28
565.692	5.36
566.033	5.32
566.375	5.37
566.716	5.3
567.058	5.39
567.399	5.37
567.741	5.27
568.082	5.42
568.423	5.23
568.764	5.32
569.105	5.29
569.447	5.46
569.788	5.54
570.129	5.36
570.47	5.33
570.811	5.42
571.151	5.55
571.492	5.33
571.833	5.51
572.174	5.46
572.514	5.22
572.855	5.65
573.195	5.44
573.536	5.48
573.876	5.44
574.217	5.2
574.557	5.42
574.898	5.61
575.238	5.36
575.578	5.46
575.918	5.46
576.258	5.41
576.598	5.34
576.938	5.44
577.278	5.32
577.618	5.34
577.958	5.43
578.298	5.52
578.638	5.21
578.977	5.26
579.317	5.46
579.657	5.41
579.996	5.55
580.336	5.65
580.675	5.39
581.014	5.54
581.354	5.23
581.693	5.6
582.032	5.52
582.372	5.6
582.711	5.54
583.05	5.38
583.389	5.49
583.728	5.3
584.067	5.21
584.406	5.28
584.745	5.51
585.083	5.11
585.422	5.42
585.761	5.62
586.1	5.49
586.438	5.41
586.777	5.6
587.115	5.33
587.454	5.15
587.792	5.21
588.13	5.54
588.469	5.39
588.807	5.3
589.145	5.75
589.483	5.47
589.821	5.07
590.159	5.45
590.497	5.2
590.835	5.46
591.173	5.38
591.511	5.32
591.849	5.24
592.187	5.37
592.524	5.11
592.862	5.39
593.2	5.53
593.537	5.37
593.875	5.38
594.212	5.36
594.55	5.44
594.887	5.6
595.224	5.59
595.561	5.29
595.899	5.87
596.236	5.18
596.573	5.37
596.91	5.58
597.247	5.54
597.584	5.39
597.921	5.23
598.258	5.32
598.594	5.43
598.931	5.28
599.268	5.27
599.604	5.25
599.941	5.42
600.277	5.48
600.614	5.7
600.95	5.56
601.287	5.56
601.623	5.43
601.959	5.54
602.296	5.56
602.632	5.32
602.968	5.56
603.304	5.49
603.64	5.69
603.976	5.3
604.312	5.35
604.648	5.34
604.984	5.56
605.319	5.61
605.655	5.55
605.991	5.28
606.326	5.22
606.662	5.55
606.998	5.12
607.333	5.32
607.668	5.51
608.004	5.29
608.339	5.41
608.674	5.53
609.01	5.41
609.345	5.36
609.68	5.39
610.015	5.14
610.35	5.45
610.685	5.69
611.02	5.51
611.355	5.54
611.689	5.6
612.024	5.19
612.359	5.52
612.694	5.75
613.028	5.27
613.363	5.68
613.697	5.46
614.032	5.31
614.366	5.44
614.7	5.36
615.035	5.45
615.369	5.3
615.703	5.66
616.037	5.72
616.371	5.67
616.705	5.34
617.039	5.32
617.373	5.21
617.707	5.43
618.041	5.47
618.375	6.07
618.709	5.49
619.042	5.35
619.376	5.05
619.71	5.24
620.043	5.31
620.377	5.62
620.71	5.56
621.043	5.5
621.377	5.5
621.71	5.82
622.043	5.79
622.376	5.32
622.709	5.89
623.043	5.85
623.376	5.79
623.709	5.36
624.041	5.56
624.374	5.4
624.707	5.3
625.04	6.03
625.373	5.36
625.705	5.67
626.038	5.17
626.37	5.21
626.703	5.33
627.035	5.33
627.368	5.04
627.7	5.58
628.032	5.48
628.365	5.57
628.697	5.29
629.029	5.42
629.361	5.38
629.693	5.53
630.025	5.22
630.357	5.33
630.689	5.27
631.021	5.63
631.353	5.24
631.684	5.11
632.016	5.37
632.348	5.77
632.679	5.37
633.011	5.42
633.342	5.22
633.674	5.16
634.005	5.51
634.336	4.85
634.668	5.7
634.999	5.37
635.33	5.63
635.661	5.53
635.992	4.86
636.323	5.63
636.654	5.33
636.985	5.52
637.316	4.91
637.647	5.44
637.977	5.2
638.308	5.21
638.639	5.86
638.969	5.85
639.3	5.44
639.63	5.53
639.961	5.84
640.291	4.84
640.622	5.46
640.952	5.31
641.282	5.79
641.612	5.71
641.943	5.81
642.273	5.63
642.603	5.2
642.933	5.37
643.263	5.97
643.592	5.31
643.922	5.42
644.252	5.57
644.582	5.36
644.911	5.23
645.241	5.19
645.571	5.47
645.9	5.18
646.23	6.05
646.559	4.97
646.888	5.19
647.218	5.34
647.547	5.65
647.876	5.48
648.205	5.49
648.534	5.32
648.863	5.29
649.192	5.3
649.521	5.25
649.85	5.57
650.179	5.25
650.508	5.23
650.837	5.13
651.165	5.52
651.494	6.07
651.822	5.23
652.151	5.76
652.479	4.99
652.808	5.29
653.136	5.35
653.465	5.12
653.793	5.25
654.121	5.57
654.449	5.83
654.777	6.08
655.105	5.33
655.433	4.72
655.761	5.58
656.089	5.06
656.417	5.15
656.745	5.72
657.073	4.72
657.4	5.44
657.728	6.02
658.056	5.23
658.383	5.07
658.711	5.25
659.038	5.45
659.365	5.44
659.693	5.07
660.02	5.15
660.347	5.94
660.674	4.91
661.001	4.76
661.329	5.43
661.656	5.08
661.982	5.54
662.309	5.76
662.636	5.62
662.963	5.65
663.29	5.97
663.616	5.95
663.943	5.25
664.27	5.77
664.596	5.51
664.923	5.35
665.249	5.15
665.576	5.92
665.902	5.02
666.228	5.62
666.554	5.23
666.881	6.01
667.207	5.39
667.533	5.35
667.859	5.51
668.185	5.34
668.511	5.2
668.837	6.3
669.162	4.83
669.488	4.92
669.814	6.08
670.139	5.03
670.465	5.5
670.791	5.41
671.116	5.38
671.442	5.09
671.767	4.79
672.092	6.03
672.418	5.53
672.743	5.15
673.068	5.31
673.393	5.06
673.718	5.62
674.043	6.2
674.368	6.29
674.693	6.05
675.018	5.3
675.343	6.06
675.667	5.44
675.992	5.42
676.317	5.43
676.641	4.45
676.966	5.08
677.29	5.6
677.615	5.94
677.939	5.58
678.264	5.99
678.588	5.67
678.912	5.26
679.236	5.45
679.56	6.1
679.885	5.73
680.209	4.73
680.532	5.39
680.856	5.73
681.18	5.3
681.504	5.41
681.828	5.38
682.152	5.35
682.475	5.87
682.799	4.83
683.122	5.9
683.446	5.77
683.769	5.52
684.093	5.89
684.416	5.07
684.739	5.42
685.062	5.19
685.386	6.5
685.709	4.43
686.032	5.14
686.355	5.18
686.678	5.35
687.001	4.93
687.324	5.62
687.646	5.75
687.969	5.39
688.292	6.01
688.614	4.8
688.937	5.37
689.26	5.62
689.582	5.93
689.904	5.99
690.227	6.32
690.549	4.6
690.871	5.2
691.194	5.01
691.516	5.08
691.838	5.18
692.16	5.05
