Data from 20-51_chest_Reflection__4__49.txt Node

Date: Thu Feb 29 22:16:47 CST 2024
User: ToomeyLab
Spectrometer: FLMS14357
Trigger mode: 0
Integration Time (sec): 1.000000E-2
Scans to average: 100
Electric dark correction enabled: true
Nonlinearity correction enabled: false
Boxcar width: 0
XAxis mode: Wavelengths
Number of Pixels in Spectrum: 2048
>>>>>Begin Spectral Data<<<<<
189.047	174.11
189.435	174.11
189.823	174.11
190.211	112.79
190.599	-600.63
190.987	193.55
191.375	-397.02
191.763	-46.06
192.151	-3138.6
192.538	-201.36
192.926	110.37
193.314	86.56
193.702	65.93
194.089	105.65
194.477	-30.41
194.864	144.11
195.252	81.71
195.639	-206.7
196.027	53.61
196.414	-23.17
196.801	150.43
197.189	89.07
197.576	-84.81
197.963	715.16
198.351	-42.63
198.738	-2.26
199.125	15.3
199.512	-2.39
199.899	-46.81
200.286	-47.11
200.673	9.38
201.06	12.78
201.447	-27.95
201.833	43.81
202.22	-8.1
202.607	-164.61
202.994	-34.48
203.38	-58.05
203.767	25.06
204.154	13.55
204.54	23.35
204.927	-24.46
205.313	-0.07
205.699	8.35
206.086	7.49
206.472	18.48
206.858	-24.94
207.245	-28.22
207.631	9.7
208.017	12.04
208.403	-135.37
208.789	-25.04
209.175	-46.35
209.561	-10.65
209.947	1.71
210.333	31.73
210.719	17.62
211.105	1.06
211.491	-44.14
211.876	6.66
212.262	19.26
212.648	-35.03
213.034	7.49
213.419	-9.34
213.805	-29.77
214.19	16.23
214.576	-26.49
214.961	14.51
215.346	-4.03
215.732	9.35
216.117	-53.87
216.502	-4.77
216.888	-27.09
217.273	13.64
217.658	27.64
218.043	23.4
218.428	-25.07
218.813	3.36
219.198	-4.68
219.583	-21.68
219.968	-5.29
220.353	-12.69
220.738	4.48
221.122	-2.97
221.507	15.02
221.892	1.57
222.276	9.83
222.661	12.66
223.046	10.24
223.43	-11.61
223.815	-8.73
224.199	-8.75
224.583	-3.6
224.968	8.59
225.352	3.38
225.736	0.07
226.121	4.61
226.505	9.4
226.889	2.37
227.273	-0.1
227.657	-3.23
228.041	2.95
228.425	1.25
228.809	8.55
229.193	1.08
229.577	5.28
229.961	5.21
230.344	5.07
230.728	4.7
231.112	5.9
231.495	4.83
231.879	4.94
232.263	3.7
232.646	4.6
233.03	5.08
233.413	6.48
233.797	5.44
234.18	1.43
234.563	0.5
234.946	4.95
235.33	5.6
235.713	4.33
236.096	5.91
236.479	7.02
236.862	7.04
237.245	4.8
237.628	5.28
238.011	7.21
238.394	4.17
238.777	2.98
239.16	5.62
239.543	2.76
239.925	4.85
240.308	6.3
240.691	5.84
241.073	6.69
241.456	5.47
241.838	5.22
242.221	5.32
242.603	5.85
242.986	6.23
243.368	5.38
243.75	5.56
244.133	5.5
244.515	5.14
244.897	5.48
245.279	5.58
245.661	5.26
246.043	5.23
246.425	5.28
246.807	5.54
247.189	5.05
247.571	5.84
247.953	5.76
248.335	5.72
248.717	5.6
249.098	5.51
249.48	5.9
249.862	5.87
250.243	5.23
250.625	5.3
251.006	5.6
251.388	5.43
251.769	5.04
252.151	6.64
252.532	5.11
252.913	4.72
253.295	5.52
253.676	5.35
254.057	5.25
254.438	5.81
254.819	6.25
255.2	5.16
255.581	4.99
255.962	5.77
256.343	4.33
256.724	5.84
257.105	6.26
257.486	5.61
257.867	5.98
258.247	6.12
258.628	4.84
259.009	5.04
259.389	4.42
259.77	6.15
260.15	5.39
260.531	5.32
260.911	5.08
261.292	5.1
261.672	5.29
262.052	5.26
262.432	5.32
262.813	4.96
263.193	4.58
263.573	5.72
263.953	4.93
264.333	5.19
264.713	5.89
265.093	5.52
265.473	6.24
265.853	5.72
266.233	5.85
266.612	5.22
266.992	4.75
267.372	4.05
267.752	4.47
268.131	6.29
268.511	5.28
268.89	5.35
269.27	5.29
269.649	4.62
270.029	4.68
270.408	5.42
270.787	4.06
271.167	5.51
271.546	4.92
271.925	5.4
272.304	4.97
272.683	5.8
273.062	4.95
273.441	5.01
273.82	5.04
274.199	5.2
274.578	4.89
274.957	5.54
275.336	5.26
275.715	5.43
276.093	4.49
276.472	5.53
276.851	5.09
277.229	5.1
277.608	4.98
277.986	4.55
278.365	5.21
278.743	5.14
279.122	4.97
279.5	4.7
279.878	4.66
280.257	5.41
280.635	5.04
281.013	5.1
281.391	4.6
281.769	5
282.147	5.01
282.525	5.04
282.903	4.81
283.281	4.63
283.659	5.06
284.037	5.03
284.415	4.76
284.792	4.19
285.17	4.85
285.548	5.04
285.925	5.19
286.303	4.59
286.68	4.29
287.058	4.87
287.435	4.9
287.813	4.81
288.19	4.99
288.567	5.23
288.945	5.06
289.322	5.21
289.699	5.01
290.076	4.89
290.453	4.94
290.83	4.97
291.207	5.19
291.584	4.83
291.961	5.25
292.338	5.24
292.715	5.29
293.092	4.75
293.469	5.35
293.845	4.92
294.222	4.94
294.599	4.76
294.975	4.97
295.352	5.05
295.728	5.81
296.105	5.87
296.481	5.45
296.858	5.44
297.234	4.83
297.61	5.26
297.986	5.73
298.363	5.39
298.739	5.38
299.115	5.86
299.491	5.44
299.867	5.43
300.243	5.39
300.619	5.22
300.995	5.32
301.371	5.48
301.746	5.13
302.122	5.77
302.498	5.7
302.874	5.79
303.249	5.09
303.625	5.59
304	5.65
304.376	5.98
304.751	5.01
305.127	5.85
305.502	5.71
305.878	6.3
306.253	5.68
306.628	5.25
307.003	5.73
307.378	5.71
307.754	6.28
308.129	5.74
308.504	6.01
308.879	5.46
309.254	5.46
309.629	5.51
310.003	5.71
310.378	5.46
310.753	5.82
311.128	5.55
311.502	5.52
311.877	5.44
312.252	6.11
312.626	5.6
313.001	5.34
313.375	6
313.75	5.83
314.124	6.18
314.498	5.35
314.873	5.06
315.247	5.45
315.621	6.14
315.995	6.15
316.369	5.71
316.743	5.47
317.117	5.93
317.491	5.25
317.865	5.65
318.239	4.9
318.613	5.81
318.987	5.73
319.361	5.1
319.734	6.42
320.108	6.05
320.482	5.17
320.855	5.76
321.229	5.58
321.602	6.31
321.976	5.35
322.349	5.39
322.723	5.67
323.096	5.5
323.469	5.62
323.843	5.35
324.216	6.13
324.589	5.53
324.962	5.68
325.335	5.71
325.708	5.75
326.081	5.56
326.454	5.49
326.827	5.69
327.2	5.73
327.573	5.53
327.945	6.12
328.318	5.72
328.691	5.72
329.063	5.61
329.436	5.27
329.809	5.76
330.181	6.32
330.553	5.94
330.926	5.39
331.298	6.05
331.671	5.14
332.043	5.81
332.415	5.74
332.787	5.49
333.159	5.99
333.532	5.29
333.904	5.93
334.276	5.53
334.648	5.78
335.02	5.89
335.391	5.44
335.763	5.45
336.135	5.06
336.507	5.71
336.879	5.79
337.25	6.15
337.622	5.35
337.993	5.38
338.365	5.04
338.736	5.81
339.108	5.69
339.479	5.73
339.851	5.34
340.222	5.99
340.593	5.37
340.964	5.59
341.336	5.54
341.707	5.38
342.078	5.57
342.449	5.92
342.82	5.14
343.191	5.28
343.562	6.09
343.933	5.54
344.303	5.87
344.674	5.7
345.045	5.87
345.416	5.8
345.786	5.9
346.157	5.96
346.527	5.82
346.898	6.03
347.268	5.7
347.639	6.18
348.009	5.74
348.38	5.81
348.75	5.81
349.12	5.78
349.49	5.6
349.861	5.54
350.231	5.83
350.601	5.79
350.971	5.74
351.341	5.89
351.711	6.19
352.081	5.92
352.45	5.41
352.82	5.15
353.19	6.32
353.56	5.96
353.929	6.04
354.299	6.11
354.669	6.01
355.038	5.69
355.408	5.64
355.777	5.86
356.147	5.62
356.516	5.8
356.885	5.58
357.254	5.89
357.624	5.89
357.993	6.05
358.362	5.52
358.731	6.19
359.1	5.87
359.469	6.16
359.838	5.51
360.207	5.8
360.576	6.09
360.945	5.68
361.314	5.94
361.682	5.53
362.051	5.79
362.42	5.72
362.788	5.98
363.157	5.89
363.525	5.57
363.894	5.74
364.262	5.6
364.631	5.52
364.999	5.48
365.367	5.61
365.735	5.77
366.104	5.71
366.472	5.41
366.84	5.87
367.208	5.66
367.576	5.88
367.944	5.55
368.312	6.19
368.68	5.9
369.048	5.9
369.416	5.92
369.783	5.69
370.151	6.1
370.519	5.76
370.886	5.75
371.254	5.95
371.621	6.05
371.989	5.38
372.356	5.87
372.724	5.86
373.091	5.7
373.458	5.68
373.826	6.37
374.193	6.03
374.56	5.51
374.927	6.03
375.294	5.2
375.661	6.06
376.028	6.45
376.395	6.02
376.762	6.25
377.129	5.92
377.496	6.19
377.863	6.4
378.229	5.77
378.596	5.48
378.963	5.87
379.329	5.86
379.696	5.77
380.062	6.03
380.429	6
380.795	6.1
381.161	6.37
381.528	6.12
381.894	5.66
382.26	5.63
382.626	5.8
382.993	6.09
383.359	6.03
383.725	5.83
384.091	5.78
384.457	5.42
384.823	6.22
385.188	5.6
385.554	5.54
385.92	5.79
386.286	5.2
386.651	5.61
387.017	5.83
387.383	5.74
387.748	5.85
388.114	5.63
388.479	6
388.845	5.93
389.21	5.89
389.575	5.84
389.94	5.71
390.306	5.8
390.671	5.63
391.036	5.63
391.401	5.91
391.766	5.96
392.131	5.8
392.496	5.78
392.861	5.65
393.226	6.2
393.591	6.1
393.956	5.86
394.32	5.91
394.685	5.93
395.05	5.94
395.414	5.8
395.779	5.89
396.143	5.84
396.508	5.85
396.872	5.95
397.236	5.8
397.601	5.81
397.965	5.83
398.329	5.55
398.694	5.8
399.058	6.09
399.422	5.57
399.786	5.74
400.15	5.46
400.514	5.54
400.878	5.8
401.242	5.84
401.605	5.86
401.969	5.91
402.333	5.75
402.697	5.54
403.06	5.91
403.424	5.7
403.787	5.86
404.151	5.68
404.514	5.89
404.878	5.69
405.241	6.07
405.604	5.59
405.968	5.76
406.331	5.71
406.694	5.79
407.057	5.59
407.42	5.61
407.783	5.62
408.146	5.84
408.509	5.8
408.872	5.63
409.235	5.8
409.598	5.67
409.961	5.7
410.323	6.01
410.686	5.73
411.049	5.5
411.411	5.64
411.774	5.44
412.136	5.79
412.499	5.6
412.861	5.68
413.223	5.55
413.586	5.66
413.948	5.89
414.31	5.78
414.672	5.81
415.035	5.91
415.397	5.59
415.759	5.99
416.121	5.95
416.483	5.58
416.845	6.09
417.206	5.98
417.568	5.86
417.93	5.8
418.292	5.9
418.653	5.86
419.015	5.89
419.377	5.79
419.738	5.72
420.1	5.75
420.461	5.68
420.822	5.79
421.184	5.71
421.545	5.83
421.906	5.83
422.267	5.91
422.629	5.84
422.99	5.75
423.351	5.93
423.712	5.86
424.073	5.79
424.434	5.7
424.795	5.96
425.155	5.81
425.516	5.84
425.877	5.94
426.238	5.89
426.598	5.83
426.959	5.97
427.32	5.99
427.68	5.91
428.041	5.81
428.401	6.02
428.761	6.06
429.122	5.96
429.482	6.13
429.842	6.16
430.202	6.04
430.563	5.99
430.923	6.23
431.283	6.14
431.643	6.16
432.003	6.5
432.363	5.99
432.722	6.31
433.082	6.09
433.442	6.16
433.802	6.34
434.161	6.58
434.521	6.15
434.881	6.34
435.24	6.36
435.6	6.17
435.959	6.25
436.319	6.36
436.678	6.1
437.037	6.12
437.396	6.28
437.756	6.26
438.115	6.25
438.474	6.34
438.833	6.4
439.192	6.35
439.551	6.24
439.91	6.43
440.269	6.26
440.628	6.44
440.987	6.31
441.345	6.41
441.704	6.43
442.063	6.4
442.421	6.44
442.78	6.31
443.138	6.3
443.497	6.32
443.855	6.36
444.214	6.39
444.572	6.62
444.93	6.47
445.288	6.51
445.647	6.48
446.005	6.64
446.363	6.48
446.721	6.55
447.079	6.45
447.437	6.45
447.795	6.52
448.153	6.52
448.51	6.49
448.868	6.52
449.226	6.64
449.584	6.51
449.941	6.63
450.299	6.44
450.656	6.44
451.014	6.46
451.371	6.65
451.729	6.78
452.086	6.59
452.443	6.77
452.801	6.72
453.158	6.92
453.515	6.78
453.872	6.67
454.229	6.56
454.586	6.66
454.943	6.58
455.3	6.74
455.657	6.69
456.014	6.78
456.371	6.58
456.727	6.7
457.084	6.62
457.441	7
457.797	6.59
458.154	6.95
458.51	6.7
458.867	6.89
459.223	6.8
459.58	7.02
459.936	6.83
460.292	6.71
460.648	6.79
461.005	6.75
461.361	6.77
461.717	6.76
462.073	6.63
462.429	6.71
462.785	6.72
463.141	6.76
463.496	6.95
463.852	6.98
464.208	6.89
464.564	6.98
464.919	6.85
465.275	6.74
465.631	7.11
465.986	6.99
466.342	6.93
466.697	6.93
467.052	6.83
467.408	7.18
467.763	7
468.118	7.08
468.473	7.15
468.829	6.97
469.184	6.89
469.539	7.05
469.894	6.95
470.249	6.94
470.603	7.02
470.958	7.31
471.313	7.03
471.668	6.91
472.023	6.97
472.377	6.98
472.732	7.05
473.086	7.05
473.441	7.12
473.795	7.16
474.15	6.88
474.504	7.08
474.859	7.14
475.213	7.14
475.567	7.2
475.921	7.23
476.275	7.11
476.63	7.08
476.984	7.35
477.338	7.12
477.692	7.17
478.045	7.04
478.399	7.03
478.753	7.24
479.107	7.26
479.461	7.14
479.814	7.08
480.168	7.09
480.521	6.95
480.875	7.18
481.228	7.29
481.582	7.2
481.935	7.32
482.289	7.24
482.642	7.19
482.995	7.22
483.348	7.3
483.701	7.14
484.055	7.1
484.408	7.13
484.761	7.11
485.114	6.9
485.466	6.83
485.819	6.87
486.172	6.88
486.525	6.89
486.878	6.94
487.23	7.07
487.583	7.12
487.936	7.18
488.288	7.06
488.641	7.05
488.993	7.07
489.345	7.04
489.698	6.93
490.05	6.99
490.402	7.16
490.754	7.18
491.107	7.13
491.459	7.29
491.811	7.27
492.163	7.13
492.515	7.21
492.866	7.23
493.218	7.12
493.57	7.07
493.922	7.16
494.274	7.14
494.625	7.15
494.977	7.27
495.328	7.33
495.68	7.36
496.031	7.51
496.383	7.43
496.734	7.39
497.086	7.3
497.437	7.64
497.788	7.5
498.139	7.39
498.49	7.44
498.842	7.51
499.193	7.41
499.544	7.43
499.894	7.45
500.245	7.39
500.596	7.33
500.947	7.45
501.298	7.51
501.648	7.5
501.999	7.57
502.35	7.55
502.7	7.53
503.051	7.6
503.401	7.47
503.752	7.58
504.102	7.6
504.452	7.49
504.803	7.65
505.153	7.49
505.503	7.66
505.853	7.73
506.203	7.54
506.553	7.61
506.903	7.44
507.253	7.69
507.603	7.7
507.953	7.61
508.303	7.67
508.652	7.59
509.002	7.67
509.352	7.79
509.701	7.66
510.051	7.55
510.4	7.74
510.75	7.53
511.099	7.6
511.449	7.65
511.798	7.61
512.147	7.79
512.496	7.78
512.846	7.62
513.195	7.68
513.544	7.72
513.893	7.67
514.242	7.83
514.591	7.6
514.939	7.76
515.288	7.85
515.637	7.81
515.986	7.81
516.334	7.78
516.683	7.85
517.032	7.86
517.38	7.78
517.729	7.71
518.077	7.7
518.426	7.83
518.774	7.85
519.122	7.92
519.47	7.83
519.819	7.81
520.167	7.64
520.515	7.77
520.863	7.74
521.211	7.73
521.559	7.88
521.907	7.79
522.255	7.83
522.602	7.95
522.95	7.9
523.298	7.79
523.645	7.85
523.993	8.09
524.341	7.97
524.688	8.04
525.036	8.09
525.383	8.05
525.73	8
526.078	8.1
526.425	7.94
526.772	7.93
527.119	7.91
527.466	7.93
527.814	7.84
528.161	7.98
528.508	7.93
528.854	7.99
529.201	7.8
529.548	7.77
529.895	7.84
530.242	7.69
530.588	7.7
530.935	7.77
531.282	7.74
531.628	7.75
531.975	7.93
532.321	7.91
532.667	8.01
533.014	8.14
533.36	8.21
533.706	8.12
534.052	8.02
534.399	8.15
534.745	7.89
535.091	7.96
535.437	8.03
535.783	7.93
536.129	8.03
536.474	8.05
536.82	8.08
537.166	8.3
537.512	8.22
537.857	8.25
538.203	8.29
538.549	8.16
538.894	8.28
539.239	8.32
539.585	8.23
539.93	8.25
540.276	8.38
540.621	8.33
540.966	8.44
541.311	8.31
541.656	8.39
542.001	8.45
542.346	8.38
542.691	8.26
543.036	8.18
543.381	8.1
543.726	8.23
544.071	8.28
544.415	8.32
544.76	8.4
545.105	8.31
545.449	8.41
545.794	8.5
546.138	8.45
546.483	8.39
546.827	8.58
547.171	8.63
547.516	8.8
547.86	8.67
548.204	8.48
548.548	8.59
548.892	8.53
549.236	8.68
549.58	8.65
549.924	8.75
550.268	8.8
550.612	8.88
550.956	8.73
551.3	8.94
551.643	8.84
551.987	8.89
552.33	9.07
552.674	8.91
553.017	8.66
553.361	8.82
553.704	8.93
554.048	8.85
554.391	8.98
554.734	9.08
555.077	9
555.42	8.94
555.764	8.94
556.107	9.17
556.45	8.87
556.793	9.09
557.135	8.89
557.478	9
557.821	9.23
558.164	9.12
558.507	9.33
558.849	9.39
559.192	9.09
559.534	9.15
559.877	9.31
560.219	9.27
560.562	9.11
560.904	9.28
561.246	9.08
561.589	9.25
561.931	9.34
562.273	9.49
562.615	9.37
562.957	9.31
563.299	9.51
563.641	9.32
563.983	9.48
564.325	9.22
564.667	9.48
565.008	9.57
565.35	9.64
565.692	9.5
566.033	9.69
566.375	9.38
566.716	9.66
567.058	9.57
567.399	9.72
567.741	9.65
568.082	9.77
568.423	9.61
568.764	9.74
569.105	9.62
569.447	9.72
569.788	9.7
570.129	9.78
570.47	9.95
570.811	9.73
571.151	10.05
571.492	9.96
571.833	10.09
572.174	10.03
572.514	9.97
572.855	9.91
573.195	10.16
573.536	10.11
573.876	10.1
574.217	9.94
574.557	9.97
574.898	10.15
575.238	10.02
575.578	10.28
575.918	10.12
576.258	9.97
576.598	10.21
576.938	10.3
577.278	10.14
577.618	10.1
577.958	10.29
578.298	10.05
578.638	10.28
578.977	10.34
579.317	10.57
579.657	10.55
579.996	10.31
580.336	10.72
580.675	10.54
581.014	10.69
581.354	10.55
581.693	10.71
582.032	10.72
582.372	10.64
582.711	10.7
583.05	10.95
583.389	10.79
583.728	10.56
584.067	10.65
584.406	10.75
584.745	10.61
585.083	10.37
585.422	11.27
585.761	10.94
586.1	10.95
586.438	11.12
586.777	10.96
587.115	10.9
587.454	10.58
587.792	10.94
588.13	11.02
588.469	10.83
588.807	11.2
589.145	11.11
589.483	11.44
589.821	10.95
590.159	11.36
590.497	11.18
590.835	11.29
591.173	11.54
591.511	11.31
591.849	11.31
592.187	11.34
592.524	11.48
592.862	11.33
593.2	11.36
593.537	11.53
593.875	11.68
594.212	11.53
594.55	11.57
594.887	11.71
595.224	11.55
595.561	11.54
595.899	11.84
596.236	11.63
596.573	11.84
596.91	11.88
597.247	12.05
597.584	11.88
597.921	11.53
598.258	11.71
598.594	11.9
598.931	11.82
599.268	11.83
599.604	11.92
599.941	11.84
600.277	12.02
600.614	12.33
600.95	12.17
601.287	12.49
601.623	12.28
601.959	12.34
602.296	11.99
602.632	12.29
602.968	12.29
603.304	12.14
603.64	12.29
603.976	12.45
604.312	12.26
604.648	12.27
604.984	12.19
605.319	12.67
605.655	12.45
605.991	12.23
606.326	12.57
606.662	12.66
606.998	12.56
607.333	12.48
607.668	12.82
608.004	12.77
608.339	12.47
608.674	12.43
609.01	12.45
609.345	12.89
609.68	12.76
610.015	12.9
610.35	12.76
610.685	13.05
611.02	12.99
611.355	13
611.689	12.97
612.024	13
612.359	12.94
612.694	13.41
613.028	12.93
613.363	13.05
613.697	13.26
614.032	13.16
614.366	13.37
614.7	13.1
615.035	13.19
615.369	13.12
615.703	13.18
616.037	13.36
616.371	13.49
616.705	13.42
617.039	13.33
617.373	13.59
617.707	13.53
618.041	13.33
618.375	13.9
618.709	13.47
619.042	13.32
619.376	13.42
619.71	13.65
620.043	13.27
620.377	13.81
620.71	13.84
621.043	14.31
621.377	13.95
621.71	13.85
622.043	13.87
622.376	13.98
622.709	14.46
623.043	14.11
623.376	14.08
623.709	13.91
624.041	14.05
624.374	13.79
624.707	14.28
625.04	14.32
625.373	14.37
625.705	14.5
626.038	13.91
626.37	14.29
626.703	14.35
627.035	14.56
627.368	14.28
627.7	14.46
628.032	14.28
628.365	14.67
628.697	14.34
629.029	14.51
629.361	14.6
629.693	14.43
630.025	14.68
630.357	14.78
630.689	14.56
631.021	14.72
631.353	14.36
631.684	14.64
632.016	14.71
632.348	14.76
632.679	14.52
633.011	15.29
633.342	14.13
633.674	14.55
634.005	14.96
634.336	14.75
634.668	14.85
634.999	15.25
635.33	15.42
635.661	15.17
635.992	14.59
636.323	15.23
636.654	14.94
636.985	15.08
637.316	15.47
637.647	15.43
637.977	15.04
638.308	15.32
638.639	15.72
638.969	15.55
639.3	15.14
639.63	15.37
639.961	15.88
640.291	15.15
640.622	15.33
640.952	15.02
641.282	15.66
641.612	15.32
641.943	16.26
642.273	16.33
642.603	15.79
642.933	15.6
643.263	16.04
643.592	16.11
643.922	16.07
644.252	16.09
644.582	15.9
644.911	15.97
645.241	16.41
645.571	15.95
645.9	15.94
646.23	16.19
646.559	15.63
646.888	16.64
647.218	16.17
647.547	16.8
647.876	16.1
648.205	15.93
648.534	16.09
648.863	16.63
649.192	16.35
649.521	16.59
649.85	16.41
650.179	16.12
650.508	16.67
650.837	16.54
651.165	16.74
651.494	17.54
651.822	17.08
652.151	16.67
652.479	16.4
652.808	16.99
653.136	16.38
653.465	16.78
653.793	16.62
654.121	16.55
654.449	17.17
654.777	17.12
655.105	16.7
655.433	16.68
655.761	17.49
656.089	16.83
656.417	17.06
656.745	16.83
657.073	16.47
657.4	17.32
657.728	17.36
658.056	17.31
658.383	17.43
658.711	17.55
659.038	17.15
659.365	17.31
659.693	16.85
660.02	17.18
660.347	17.9
660.674	17.33
661.001	17.27
661.329	17.92
661.656	17.53
661.982	17.39
662.309	18.21
662.636	17.53
662.963	17.76
663.29	17.8
663.616	18.12
663.943	17.88
664.27	17.87
664.596	18.1
664.923	17.99
665.249	17.71
665.576	17.99
665.902	18.74
666.228	18.35
666.554	18.65
666.881	18.52
667.207	17.89
667.533	17.86
667.859	18.48
668.185	17.83
668.511	18.04
668.837	18.92
669.162	17.68
669.488	18.18
669.814	19.13
670.139	18.05
670.465	18.84
670.791	18.8
671.116	18.43
671.442	18.62
671.767	18.5
672.092	19
672.418	18.55
672.743	18.47
673.068	19.2
673.393	19.2
673.718	18.37
674.043	18.73
674.368	19.61
674.693	18.43
675.018	19.13
675.343	18.81
675.667	18.68
675.992	18.96
676.317	18.79
676.641	19.01
676.966	19.41
677.29	19
677.615	19.74
677.939	18.99
678.264	19.55
678.588	20.17
678.912	18.98
679.236	18.75
679.56	19.37
679.885	20.46
680.209	19.25
680.532	19.86
680.856	19.37
681.18	19.68
681.504	19.51
681.828	19.69
682.152	19.17
682.475	19.83
682.799	19.23
683.122	19.58
683.446	20.09
683.769	20.24
684.093	20.23
684.416	20.61
684.739	19.89
