Data from 20-51_forehead_Reflection__1__56.txt Node

Date: Thu Feb 29 22:19:12 CST 2024
User: ToomeyLab
Spectrometer: FLMS14357
Trigger mode: 0
Integration Time (sec): 1.000000E-2
Scans to average: 100
Electric dark correction enabled: true
Nonlinearity correction enabled: false
Boxcar width: 0
XAxis mode: Wavelengths
Number of Pixels in Spectrum: 2048
>>>>>Begin Spectral Data<<<<<
189.047	344.77
189.435	344.77
189.823	344.77
190.211	-54.29
190.599	-666.67
190.987	193.69
191.375	-366.63
191.763	-239.19
192.151	91.23
192.538	975.48
192.926	-135.03
193.314	206.41
193.702	168.07
194.089	166.91
194.477	145.04
194.864	143.61
195.252	-66.36
195.639	-207.62
196.027	28.43
196.414	79.01
196.801	-78.9
197.189	82.98
197.576	-764.56
197.963	325.36
198.351	5.19
198.738	-47.34
199.125	-4.73
199.512	24.82
199.899	19.33
200.286	-108.53
200.673	22.91
201.06	-49.31
201.447	2.86
201.833	24.45
202.22	-57.97
202.607	-53.23
202.994	29.31
203.38	-10.33
203.767	117.96
204.154	28.16
204.54	-0.38
204.927	20.01
205.313	57.77
205.699	-13.9
206.086	-0.92
206.472	51.07
206.858	40.22
207.245	-38.9
207.631	21.28
208.017	16.26
208.403	-111.3
208.789	15.06
209.175	2.92
209.561	8.92
209.947	13.96
210.333	21.02
210.719	11.43
211.105	19.75
211.491	-55.21
211.876	6.39
212.262	38.67
212.648	-27.92
213.034	-6.38
213.419	48.37
213.805	31.95
214.19	14.4
214.576	2.88
214.961	14.14
215.346	-2.57
215.732	13.5
216.117	-20.67
216.502	-5.06
216.888	-12.74
217.273	31.7
217.658	32.4
218.043	31.82
218.428	-6.4
218.813	-5.07
219.198	20.59
219.583	-23.2
219.968	16.42
220.353	10.17
220.738	7.36
221.122	-11.95
221.507	23.34
221.892	-1.89
222.276	24.19
222.661	5.59
223.046	11
223.43	1.64
223.815	0.86
224.199	0.12
224.583	6.57
224.968	0.5
225.352	5.98
225.736	7.27
226.121	3.36
226.505	9.97
226.889	2.66
227.273	0.16
227.657	-4.08
228.041	2.8
228.425	6.31
228.809	10.69
229.193	3.23
229.577	5.22
229.961	3.11
230.344	4.94
230.728	4.66
231.112	5.23
231.495	4.41
231.879	4.7
232.263	2.38
232.646	4.36
233.03	4.98
233.413	4.36
233.797	4.47
234.18	3.12
234.563	2.06
234.946	4.7
235.33	2.91
235.713	5.71
236.096	4.66
236.479	7.59
236.862	5.72
237.245	3.26
237.628	4.7
238.011	5.21
238.394	2.49
238.777	5.15
239.16	6.19
239.543	4.35
239.925	4.57
240.308	5.89
240.691	6.38
241.073	4.14
241.456	5.22
241.838	5.65
242.221	4.99
242.603	4.55
242.986	5.95
243.368	5.31
243.75	5.44
244.133	4.65
244.515	5.29
244.897	6
245.279	5.84
245.661	4.63
246.043	4.38
246.425	6.33
246.807	6.1
247.189	5.62
247.571	5.13
247.953	5.24
248.335	5.23
248.717	5.51
249.098	5.4
249.48	5.31
249.862	5.85
250.243	5.21
250.625	5.28
251.006	5.6
251.388	5.87
251.769	5.79
252.151	6.43
252.532	5.31
252.913	5.2
253.295	6.14
253.676	5.55
254.057	5.74
254.438	6.49
254.819	6.27
255.2	4.93
255.581	5.49
255.962	6.43
256.343	6.11
256.724	5.05
257.105	5.72
257.486	5.63
257.867	6.21
258.247	6.18
258.628	5.5
259.009	5.44
259.389	5.07
259.77	6.54
260.15	6.22
260.531	5.74
260.911	5.23
261.292	5.37
261.672	5.53
262.052	5.55
262.432	5.28
262.813	5.04
263.193	5.25
263.573	5.39
263.953	5.18
264.333	4.86
264.713	5.66
265.093	5.8
265.473	5.49
265.853	5.9
266.233	5.45
266.612	5.64
266.992	5.1
267.372	5.06
267.752	5.43
268.131	5.45
268.511	5.26
268.89	5.6
269.27	6.03
269.649	5.04
270.029	5.55
270.408	4.78
270.787	4.81
271.167	5.27
271.546	5.29
271.925	5.24
272.304	5.62
272.683	5.02
273.062	4.93
273.441	5.04
273.82	5.51
274.199	5.38
274.578	5.15
274.957	5.03
275.336	5.46
275.715	5.7
276.093	5.47
276.472	5.98
276.851	5.51
277.229	5.19
277.608	5.18
277.986	4.64
278.365	5.36
278.743	5.01
279.122	4.5
279.5	5.19
279.878	4.85
280.257	5.48
280.635	4.75
281.013	4.27
281.391	4.75
281.769	5.71
282.147	4.92
282.525	4.95
282.903	4.92
283.281	4.65
283.659	4.87
284.037	5.28
284.415	4.51
284.792	4.97
285.17	5.2
285.548	5.61
285.925	5.23
286.303	5.34
286.68	4.44
287.058	5.4
287.435	5.5
287.813	4.99
288.19	5.12
288.567	5.33
288.945	5.45
289.322	5.49
289.699	5.75
290.076	5.96
290.453	4.68
290.83	5.21
291.207	5.2
291.584	5.38
291.961	5.53
292.338	6.13
292.715	5.58
293.092	5.77
293.469	6.22
293.845	6.13
294.222	5.93
294.599	5.67
294.975	5.53
295.352	6.13
295.728	6.31
296.105	5.74
296.481	6.02
296.858	6.75
297.234	6.06
297.61	6.11
297.986	6.79
298.363	6.32
298.739	6.05
299.115	6.67
299.491	6.33
299.867	6.56
300.243	6.32
300.619	6.76
300.995	6.81
301.371	7.17
301.746	6.71
302.122	6.99
302.498	7.56
302.874	7.37
303.249	6.56
303.625	7.28
304	7.14
304.376	6.88
304.751	7
305.127	6.87
305.502	7.12
305.878	7.86
306.253	6.9
306.628	6.67
307.003	7.79
307.378	8.01
307.754	8.04
308.129	7.58
308.504	8.11
308.879	7.91
309.254	7.28
309.629	7.76
310.003	7.88
310.378	7.56
310.753	7.97
311.128	8.27
311.502	8.29
311.877	7.88
312.252	8.24
312.626	8
313.001	8.2
313.375	8.64
313.75	8.38
314.124	8.77
314.498	8.95
314.873	7.95
315.247	7.65
315.621	9.16
315.995	8.82
316.369	9.3
316.743	8.7
317.117	8.42
317.491	8.46
317.865	8.51
318.239	8.93
318.613	9.86
318.987	9.74
319.361	8.45
319.734	8.61
320.108	9.81
320.482	8.84
320.855	8.84
321.229	9.76
321.602	8.84
321.976	8.97
322.349	8.57
322.723	9.36
323.096	9.67
323.469	8.68
323.843	8.75
324.216	9.21
324.589	8.93
324.962	9.01
325.335	9.3
325.708	9.42
326.081	8.52
326.454	9.53
326.827	9.31
327.2	9.5
327.573	9.35
327.945	9.84
328.318	9.55
328.691	9.83
329.063	9.46
329.436	9.4
329.809	9.54
330.181	9.79
330.553	9.75
330.926	9.29
331.298	8.97
331.671	9.84
332.043	9.75
332.415	9.48
332.787	9.12
333.159	9.61
333.532	9.52
333.904	9.63
334.276	10.14
334.648	9.59
335.02	9.55
335.391	9.54
335.763	9.5
336.135	9.5
336.507	9.21
336.879	9.61
337.25	9.67
337.622	9.48
337.993	9.68
338.365	9.39
338.736	9.92
339.108	9.81
339.479	9.65
339.851	9.61
340.222	10.14
340.593	9.67
340.964	10.22
341.336	9.2
341.707	9.86
342.078	9.62
342.449	9.89
342.82	10.33
343.191	10.04
343.562	10.07
343.933	10.18
344.303	10.55
344.674	9.85
345.045	10
345.416	9.69
345.786	10.23
346.157	10.21
346.527	10.45
346.898	10.52
347.268	9.95
347.639	10.21
348.009	10.43
348.38	10.13
348.75	10.24
349.12	10.41
349.49	10.07
349.861	10.14
350.231	10.15
350.601	10.34
350.971	10.32
351.341	10.44
351.711	11
352.081	10.65
352.45	9.43
352.82	9.56
353.19	11.03
353.56	10.76
353.929	10.5
354.299	10.35
354.669	10.39
355.038	10.24
355.408	10.93
355.777	10.37
356.147	10.58
356.516	10.54
356.885	10.23
357.254	10.83
357.624	10.4
357.993	10.35
358.362	10.8
358.731	10.86
359.1	10.81
359.469	10.71
359.838	10.37
360.207	10.76
360.576	10.27
360.945	10.38
361.314	10.93
361.682	10.47
362.051	10.47
362.42	11.11
362.788	10.6
363.157	10.46
363.525	10.66
363.894	10.89
364.262	10.69
364.631	10.83
364.999	10.44
365.367	10.83
365.735	10.76
366.104	10.79
366.472	10.25
366.84	11.16
367.208	10.75
367.576	11.03
367.944	10.6
368.312	10.53
368.68	11.09
369.048	10.88
369.416	11.09
369.783	10.93
370.151	11.48
370.519	11.03
370.886	11.16
371.254	11.3
371.621	10.91
371.989	10.97
372.356	11.08
372.724	11.1
373.091	11.18
373.458	11.02
373.826	11.19
374.193	11.39
374.56	11.15
374.927	11.17
375.294	11.16
375.661	11.32
376.028	11.28
376.395	11.28
376.762	11.76
377.129	11.08
377.496	11.34
377.863	11.23
378.229	10.89
378.596	11.02
378.963	10.88
379.329	11.52
379.696	10.96
380.062	11.18
380.429	11.33
380.795	11.46
381.161	11.68
381.528	11.49
381.894	11.24
382.26	11.24
382.626	11.43
382.993	11.04
383.359	11.18
383.725	11.09
384.091	11.26
384.457	11.28
384.823	11.29
385.188	10.95
385.554	11.23
385.92	11.43
386.286	11.05
386.651	11.08
387.017	11.18
387.383	11.15
387.748	11.25
388.114	11.35
388.479	11.2
388.845	11.03
389.21	11.35
389.575	11.18
389.94	11.07
390.306	11.13
390.671	10.87
391.036	11.36
391.401	11.05
391.766	11.03
392.131	11.31
392.496	11.04
392.861	10.96
393.226	11.32
393.591	11.58
393.956	10.94
394.32	11.1
394.685	11.09
395.05	11.41
395.414	11.2
395.779	11.01
396.143	11.29
396.508	11.09
396.872	11.27
397.236	10.92
397.601	11.15
397.965	11.23
398.329	10.91
398.694	11.02
399.058	11.31
399.422	10.77
399.786	11.16
400.15	10.74
400.514	10.7
400.878	11.04
401.242	10.89
401.605	10.76
401.969	11.16
402.333	11.01
402.697	10.77
403.06	11.04
403.424	11.07
403.787	10.7
404.151	10.89
404.514	11.02
404.878	10.84
405.241	10.96
405.604	10.73
405.968	10.75
406.331	10.61
406.694	10.72
407.057	10.79
407.42	10.76
407.783	10.69
408.146	10.89
408.509	10.81
408.872	10.95
409.235	10.96
409.598	10.96
409.961	10.82
410.323	11.13
410.686	10.87
411.049	10.81
411.411	10.75
411.774	10.95
412.136	10.91
412.499	11.07
412.861	10.93
413.223	10.75
413.586	10.96
413.948	10.75
414.31	11.4
414.672	11.15
415.035	11.15
415.397	10.7
415.759	10.99
416.121	10.94
416.483	10.83
416.845	11.24
417.206	11.06
417.568	10.73
417.93	10.93
418.292	11.1
418.653	11.21
419.015	11.18
419.377	11.24
419.738	11.23
420.1	11.24
420.461	11.19
420.822	11.16
421.184	11.27
421.545	11.15
421.906	11.26
422.267	11.25
422.629	11.4
422.99	11.32
423.351	11.48
423.712	11.52
424.073	11.51
424.434	11.42
424.795	11.72
425.155	11.71
425.516	11.67
425.877	11.82
426.238	11.82
426.598	11.88
426.959	11.96
427.32	11.97
427.68	12.11
428.041	11.88
428.401	12.24
428.761	12.5
429.122	12.28
429.482	12.45
429.842	12.63
430.202	12.69
430.563	13
430.923	12.88
431.283	13.01
431.643	13
432.003	13.22
432.363	12.87
432.722	13.35
433.082	13.03
433.442	13.35
433.802	13.18
434.161	13.3
434.521	13.18
434.881	13.35
435.24	13.52
435.6	13.41
435.959	13.65
436.319	13.9
436.678	13.51
437.037	13.61
437.396	13.71
437.756	13.84
438.115	13.85
438.474	14.01
438.833	14.13
439.192	14.14
439.551	14.11
439.91	14.29
440.269	14.17
440.628	14.25
440.987	14.21
441.345	14.27
441.704	14.32
442.063	14.43
442.421	14.38
442.78	14.34
443.138	14.35
443.497	14.4
443.855	14.49
444.214	14.74
444.572	14.93
444.93	14.71
445.288	14.79
445.647	14.61
446.005	14.88
446.363	14.79
446.721	14.78
447.079	14.81
447.437	14.89
447.795	14.89
448.153	14.9
448.51	15.18
448.868	15.05
449.226	15.16
449.584	15.16
449.941	15.23
450.299	15.16
450.656	15.31
451.014	15.24
451.371	15.55
451.729	15.62
452.086	15.65
452.443	15.66
452.801	15.76
453.158	15.82
453.515	15.75
453.872	15.84
454.229	15.76
454.586	15.64
454.943	15.88
455.3	15.93
455.657	15.99
456.014	15.99
456.371	16
456.727	15.96
457.084	16.11
457.441	16.48
457.797	16.17
458.154	16.3
458.51	16.3
458.867	16.44
459.223	16.32
459.58	16.54
459.936	16.57
460.292	16.35
460.648	16.48
461.005	16.52
461.361	16.42
461.717	16.5
462.073	16.47
462.429	16.62
462.785	16.74
463.141	16.83
463.496	16.7
463.852	16.89
464.208	16.84
464.564	17.22
464.919	17.08
465.275	17.23
465.631	17.27
465.986	17.41
466.342	17.14
466.697	17.27
467.052	17.2
467.408	17.39
467.763	17.43
468.118	17.37
468.473	17.69
468.829	17.53
469.184	17.5
469.539	17.47
469.894	17.61
470.249	17.53
470.603	17.84
470.958	17.81
471.313	17.7
471.668	17.76
472.023	17.9
472.377	17.74
472.732	18.09
473.086	18.07
473.441	18.04
473.795	18.3
474.15	17.88
474.504	18.24
474.859	18.26
475.213	18.06
475.567	18.08
475.921	18.28
476.275	18.18
476.63	18.47
476.984	18.31
477.338	18.07
477.692	18.09
478.045	18.28
478.399	18.37
478.753	18.35
479.107	18.4
479.461	18.43
479.814	18.59
480.168	18.46
480.521	18.6
480.875	18.5
481.228	18.54
481.582	18.7
481.935	18.71
482.289	18.71
482.642	18.54
482.995	18.65
483.348	18.53
483.701	18.54
484.055	18.57
484.408	18.44
484.761	18.29
485.114	18.05
485.466	17.79
485.819	17.92
486.172	18.16
486.525	18.19
486.878	18.37
487.23	18.52
487.583	18.72
487.936	18.77
488.288	18.62
488.641	18.54
488.993	18.41
489.345	18.45
489.698	18.47
490.05	18.44
490.402	18.72
490.754	18.89
491.107	18.87
491.459	19.14
491.811	19.26
492.163	19.16
492.515	19.09
492.866	19.04
493.218	18.85
493.57	18.82
493.922	18.95
494.274	19.1
494.625	19.25
494.977	19.39
495.328	19.66
495.68	19.7
496.031	19.7
496.383	19.63
496.734	19.8
497.086	19.6
497.437	19.99
497.788	19.78
498.139	19.88
498.49	19.85
498.842	19.79
499.193	20.01
499.544	19.94
499.894	19.97
500.245	20.04
500.596	20.12
500.947	20.13
501.298	20.27
501.648	20.18
501.999	20.27
502.35	20.26
502.7	20.34
503.051	20.46
503.401	20.41
503.752	20.43
504.102	20.63
504.452	20.5
504.803	20.5
505.153	20.4
505.503	20.56
505.853	20.51
506.203	20.46
506.553	20.64
506.903	20.67
507.253	20.83
507.603	20.62
507.953	20.68
508.303	20.73
508.652	20.86
509.002	21.02
509.352	20.71
509.701	20.84
510.051	20.57
510.4	20.87
510.75	20.75
511.099	20.77
511.449	20.69
511.798	20.64
512.147	20.86
512.496	20.99
512.846	20.75
513.195	20.77
513.544	20.84
513.893	20.85
514.242	21
514.591	20.97
514.939	21.1
515.288	21.12
515.637	21.08
515.986	21.19
516.334	21.05
516.683	21.23
517.032	21.18
517.38	21.24
517.729	21.38
518.077	21.08
518.426	21.14
518.774	21.08
519.122	21.19
519.47	21.09
519.819	21.07
520.167	20.95
520.515	20.79
520.863	20.86
521.211	20.97
521.559	21.2
521.907	21
522.255	21.3
522.602	21.22
522.95	21.12
523.298	21.3
523.645	21.19
523.993	21.48
524.341	21.58
524.688	21.48
525.036	21.43
525.383	21.45
525.73	21.48
526.078	21.49
526.425	21.34
526.772	21.28
527.119	21.25
527.466	21.13
527.814	21.07
528.161	21.32
528.508	21.24
528.854	21.34
529.201	21.12
529.548	21.01
529.895	20.77
530.242	20.54
530.588	20.7
530.935	20.87
531.282	21
531.628	21.05
531.975	21.2
532.321	21.26
532.667	21.46
533.014	21.58
533.36	21.59
533.706	21.67
534.052	21.6
534.399	21.49
534.745	21.31
535.091	21.24
535.437	21.27
535.783	21.51
536.129	21.62
536.474	21.72
536.82	21.84
537.166	21.87
537.512	21.92
537.857	22.02
538.203	21.73
538.549	21.68
538.894	21.98
539.239	21.94
539.585	22.07
539.93	22.17
540.276	22.16
540.621	22.2
540.966	22.45
541.311	22.42
541.656	22.4
542.001	22.32
542.346	22.21
542.691	21.93
543.036	21.72
543.381	21.81
543.726	21.85
544.071	21.99
544.415	22.24
544.76	22.35
545.105	22.15
545.449	22.34
545.794	22.4
546.138	22.71
546.483	22.69
546.827	22.87
547.171	22.75
547.516	22.92
547.86	23
548.204	22.96
548.548	22.74
548.892	22.79
549.236	23.11
549.58	23.14
549.924	23.2
550.268	23.31
550.612	23.37
550.956	23.46
551.3	23.46
551.643	23.66
551.987	23.75
552.33	23.53
552.674	23.93
553.017	23.5
553.361	23.68
553.704	23.77
554.048	23.46
554.391	23.7
554.734	23.76
555.077	23.72
555.42	23.72
555.764	23.83
556.107	24.41
556.45	23.84
556.793	24.08
557.135	24.19
557.478	24.19
557.821	24.15
558.164	23.93
558.507	24.28
558.849	24.3
559.192	24.26
559.534	24.09
559.877	24.47
560.219	24.5
560.562	24.35
560.904	24.8
561.246	24.52
561.589	24.6
561.931	24.7
562.273	24.95
562.615	24.66
562.957	24.65
563.299	24.82
563.641	24.61
563.983	24.7
564.325	24.46
564.667	24.81
565.008	24.73
565.35	24.75
565.692	24.71
566.033	24.96
566.375	24.77
566.716	24.83
567.058	25.06
567.399	24.98
567.741	24.72
568.082	25.09
568.423	24.97
568.764	25.18
569.105	25.01
569.447	25.3
569.788	25.21
570.129	25.17
570.47	25.39
570.811	25.18
571.151	25.61
571.492	25.31
571.833	25.62
572.174	25.52
572.514	25.45
572.855	25.84
573.195	25.58
573.536	25.63
573.876	25.42
574.217	25.59
574.557	25.63
574.898	25.9
575.238	25.71
575.578	25.77
575.918	26.12
576.258	26.01
576.598	26.06
576.938	26.2
577.278	26.04
577.618	26.08
577.958	26.08
578.298	26.39
578.638	26.24
578.977	26.52
579.317	26.7
579.657	26.75
579.996	26.57
580.336	26.89
580.675	27.05
581.014	26.96
581.354	26.51
581.693	26.71
582.032	27.21
582.372	27.18
582.711	27.29
583.05	27.37
583.389	27.52
583.728	27.31
584.067	27.54
584.406	27.42
584.745	27.42
585.083	27.15
585.422	27.52
585.761	27.6
586.1	27.89
586.438	27.92
586.777	27.65
587.115	27.49
587.454	27.86
587.792	28.02
588.13	28.22
588.469	28.53
588.807	27.91
589.145	28.63
589.483	28.17
589.821	27.93
590.159	28.27
590.497	28.53
590.835	28.51
591.173	28.85
591.511	28.44
591.849	28.73
592.187	28.17
592.524	28.44
592.862	28.61
593.2	28.35
593.537	28.8
593.875	28.71
594.212	29.01
594.55	29.4
594.887	29.24
595.224	29.1
595.561	29.28
595.899	29.07
596.236	29.02
596.573	29.49
596.91	29.25
597.247	29.58
597.584	29.63
597.921	29.45
598.258	29.58
598.594	29.64
598.931	29.46
599.268	29.45
599.604	29.78
599.941	29.58
600.277	30.06
600.614	29.95
600.95	30.17
601.287	30.25
601.623	29.77
601.959	30.3
602.296	30.16
602.632	30.05
602.968	29.97
603.304	30.12
603.64	30.39
603.976	30.44
604.312	30.31
604.648	30.23
604.984	30.28
605.319	30.66
605.655	30.64
605.991	30.26
606.326	30.43
606.662	30.52
606.998	30.42
607.333	30.68
607.668	31.12
608.004	30.85
608.339	31.06
608.674	30.76
609.01	30.55
609.345	31.13
609.68	30.89
610.015	31.14
610.35	31.25
610.685	31.35
611.02	31.49
611.355	31.15
611.689	31.07
612.024	31.49
612.359	31.14
612.694	31.59
613.028	31.52
613.363	31.58
613.697	31.71
614.032	31.4
614.366	31.42
614.7	31.57
615.035	31.61
615.369	31.8
615.703	31.68
616.037	32.05
616.371	31.62
616.705	31.68
617.039	32.02
617.373	32.12
617.707	32.21
618.041	31.86
618.375	32.28
618.709	32.09
619.042	32.34
619.376	31.86
619.71	31.95
620.043	32.34
620.377	32.82
620.71	32.32
621.043	32.71
621.377	32.25
621.71	32.95
622.043	32.69
622.376	32.48
622.709	32.72
623.043	32.28
623.376	32.39
623.709	32.82
624.041	32.33
624.374	32.6
624.707	33.13
625.04	32.67
625.373	32.86
625.705	32.85
626.038	32.72
626.37	32.84
626.703	33.3
627.035	33.1
627.368	32.73
627.7	33.17
628.032	33.39
628.365	33.08
628.697	32.8
629.029	33.45
629.361	33.21
629.693	33.43
630.025	33.43
630.357	33.28
630.689	33.46
631.021	33.63
631.353	33.43
631.684	33.47
632.016	33.62
632.348	33.8
632.679	33.96
633.011	34.18
633.342	33.73
633.674	34.13
634.005	33.72
634.336	33.98
634.668	34.81
634.999	34.5
635.33	34.38
635.661	34.52
635.992	33.74
636.323	34.43
636.654	34.43
636.985	34.6
637.316	34.33
637.647	34.83
637.977	34.63
638.308	35.03
638.639	35.12
638.969	35.23
639.3	35.29
639.63	35.13
639.961	35.67
640.291	35.18
640.622	35.77
640.952	35.05
641.282	35.84
641.612	35.58
641.943	35.91
642.273	36.07
642.603	35.36
642.933	36.04
643.263	36.47
643.592	36.48
643.922	36.33
644.252	36.4
644.582	36.8
644.911	36.31
645.241	36.18
645.571	36.2
645.9	36.23
646.23	36.64
646.559	36.43
646.888	36.47
647.218	36.45
647.547	36.44
647.876	36.54
648.205	36.14
648.534	36.74
648.863	36.82
649.192	36.97
649.521	37.15
649.85	37.03
650.179	36.74
650.508	36.79
650.837	36.64
651.165	37.34
651.494	37.8
651.822	37.27
652.151	37.2
652.479	37.01
652.808	37.19
653.136	37.28
653.465	37.26
653.793	36.99
654.121	37.55
654.449	37.8
654.777	38.34
655.105	37.26
655.433	37.84
655.761	38.21
656.089	37.77
656.417	38.34
656.745	37.86
657.073	37.89
657.4	38.24
657.728	38.55
658.056	38.56
658.383	37.93
658.711	38.48
659.038	38.4
659.365	38.19
659.693	38.27
660.02	38.56
660.347	38.79
660.674	38.45
661.001	38.31
661.329	39
661.656	38.72
661.982	38.52
662.309	39.12
662.636	39.54
662.963	39.3
663.29	38.69
663.616	39.72
663.943	38.76
664.27	39.53
664.596	39.07
664.923	39.84
665.249	38.45
665.576	39.34
665.902	39.73
666.228	39.78
666.554	39.15
666.881	39.31
667.207	39.65
667.533	39.87
667.859	39.49
668.185	39.65
668.511	39.45
668.837	39.69
669.162	39.21
669.488	40.03
669.814	40.45
670.139	39.81
670.465	39.53
670.791	39.51
