Data from 20-51_forehead_Reflection__0__55.txt Node

Date: Thu Feb 29 22:19:02 CST 2024
User: ToomeyLab
Spectrometer: FLMS14357
Trigger mode: 0
Integration Time (sec): 1.000000E-2
Scans to average: 100
Electric dark correction enabled: true
Nonlinearity correction enabled: false
Boxcar width: 0
XAxis mode: Wavelengths
Number of Pixels in Spectrum: 2048
>>>>>Begin Spectral Data<<<<<
189.047	47.66
189.435	47.66
189.823	47.66
190.211	178.08
190.599	-1850
190.987	196.09
191.375	-189.45
191.763	-432.19
192.151	-5464.04
192.538	-550.82
192.926	161.43
193.314	-12.98
193.702	118.47
194.089	109.97
194.477	49.84
194.864	43.79
195.252	118.79
195.639	-206.37
196.027	88.73
196.414	48.64
196.801	-279.5
197.189	80.91
197.576	-1262.66
197.963	308.6
198.351	-24.62
198.738	63.12
199.125	23.24
199.512	35.73
199.899	39.81
200.286	-14.66
200.673	47.69
201.06	25.55
201.447	15.17
201.833	60.65
202.22	52.56
202.607	-21.76
202.994	15.73
203.38	-27.96
203.767	211.49
204.154	24.69
204.54	43.86
204.927	42.44
205.313	32.33
205.699	-34.84
206.086	19.51
206.472	4.6
206.858	24.04
207.245	20.43
207.631	39.34
208.017	3.66
208.403	-62.63
208.789	-3.36
209.175	-28.57
209.561	33.13
209.947	33.88
210.333	18.27
210.719	60.73
211.105	-1.05
211.491	19.24
211.876	33.18
212.262	39.62
212.648	31.68
213.034	9.15
213.419	10.39
213.805	1.12
214.19	19.56
214.576	-7.15
214.961	32.25
215.346	14.49
215.732	19.47
216.117	-15.91
216.502	34.83
216.888	-48.15
217.273	29.6
217.658	20.44
218.043	21.56
218.428	-1.53
218.813	43.72
219.198	17.27
219.583	-10.48
219.968	5.39
220.353	3.96
220.738	12.29
221.122	2.24
221.507	10.98
221.892	22.74
222.276	34.68
222.661	12.08
223.046	17.74
223.43	-12.04
223.815	12.07
224.199	4.15
224.583	5.09
224.968	10.09
225.352	14.4
225.736	5.29
226.121	4.9
226.505	17.74
226.889	8.96
227.273	5.04
227.657	4.2
228.041	8.98
228.425	6.25
228.809	10.6
229.193	5.53
229.577	4.94
229.961	4.85
230.344	4.5
230.728	5.01
231.112	6.67
231.495	5.2
231.879	5.72
232.263	4.44
232.646	5.69
233.03	7.29
233.413	5.52
233.797	6.18
234.18	6
234.563	2.61
234.946	3.1
235.33	5.86
235.713	5.91
236.096	5.92
236.479	7.86
236.862	6.89
237.245	6.17
237.628	5.44
238.011	6.29
238.394	3.6
238.777	4.66
239.16	4.51
239.543	5.96
239.925	4.18
240.308	7.54
240.691	8.89
241.073	6.27
241.456	7.13
241.838	5.55
242.221	5.32
242.603	5.47
242.986	6.6
243.368	5.88
243.75	6.1
244.133	6.06
244.515	5.61
244.897	6.34
245.279	5.88
245.661	5.94
246.043	5.47
246.425	6.8
246.807	7.36
247.189	5.65
247.571	6.81
247.953	6.13
248.335	5.53
248.717	6.04
249.098	5.95
249.48	5.82
249.862	6.39
250.243	5.66
250.625	5.98
251.006	6.59
251.388	6.15
251.769	5.33
252.151	7.1
252.532	5.85
252.913	5.66
253.295	5.91
253.676	6.15
254.057	5.55
254.438	6.54
254.819	6.98
255.2	4.83
255.581	6.25
255.962	8.58
256.343	6.15
256.724	6.89
257.105	5.94
257.486	6.66
257.867	7.9
258.247	6.25
258.628	6.25
259.009	5.73
259.389	5.28
259.77	6.22
260.15	6.94
260.531	6.36
260.911	5.65
261.292	5.58
261.672	5.88
262.052	5.88
262.432	5.86
262.813	5.44
263.193	5.8
263.573	6.06
263.953	6.04
264.333	5.76
264.713	5.98
265.093	6.52
265.473	6.49
265.853	6.41
266.233	6.65
266.612	6.08
266.992	5.48
267.372	4.43
267.752	5.96
268.131	6.63
268.511	5.67
268.89	6.21
269.27	5.63
269.649	5.19
270.029	5.61
270.408	5.98
270.787	5.56
271.167	5.57
271.546	5.46
271.925	5.39
272.304	6.05
272.683	6.15
273.062	5.52
273.441	5.32
273.82	5.88
274.199	5.76
274.578	5.24
274.957	5.45
275.336	6.16
275.715	6.33
276.093	5.36
276.472	6.35
276.851	5.64
277.229	5.86
277.608	5.7
277.986	5.65
278.365	6.3
278.743	5.12
279.122	5.2
279.5	5.17
279.878	5.24
280.257	5.81
280.635	6.06
281.013	5.12
281.391	5.38
281.769	5.8
282.147	5.68
282.525	6.15
282.903	5.63
283.281	5.95
283.659	5.6
284.037	5.77
284.415	4.35
284.792	5.45
285.17	5.46
285.548	5.17
285.925	5.55
286.303	5.31
286.68	5.45
287.058	5.73
287.435	5.58
287.813	5.44
288.19	5.71
288.567	6.11
288.945	5.8
289.322	5.72
289.699	5.61
290.076	6.23
290.453	5.47
290.83	5.25
291.207	5.9
291.584	5.94
291.961	5.89
292.338	6.32
292.715	5.93
293.092	6.36
293.469	6.84
293.845	6.24
294.222	5.84
294.599	5.99
294.975	6.07
295.352	6.72
295.728	6.77
296.105	6.7
296.481	6.87
296.858	6.83
297.234	6.76
297.61	6.71
297.986	6.98
298.363	6.65
298.739	6.71
299.115	6.87
299.491	6.3
299.867	6.38
300.243	6.33
300.619	6.65
300.995	7.1
301.371	7.27
301.746	7.26
302.122	7.82
302.498	7.21
302.874	7.87
303.249	6.99
303.625	7.33
304	7.33
304.376	7.51
304.751	7.41
305.127	7.72
305.502	7.79
305.878	8.5
306.253	6.97
306.628	7.08
307.003	7.37
307.378	8.04
307.754	8.74
308.129	8.21
308.504	7.72
308.879	8.53
309.254	7.72
309.629	8.13
310.003	8.67
310.378	7.84
310.753	8.32
311.128	8.25
311.502	8.65
311.877	8.02
312.252	9.12
312.626	8.58
313.001	8.66
313.375	8.88
313.75	9.02
314.124	9.07
314.498	9.14
314.873	8.45
315.247	8.77
315.621	8.96
315.995	9.19
316.369	9.01
316.743	8.82
317.117	9.53
317.491	9.24
317.865	9.25
318.239	9.24
318.613	9.58
318.987	9.63
319.361	9.11
319.734	10.07
320.108	9.66
320.482	10.14
320.855	9.41
321.229	9.89
321.602	9.77
321.976	9.56
322.349	10.01
322.723	9.33
323.096	10.3
323.469	9.77
323.843	10.01
324.216	10.48
324.589	9.86
324.962	9.81
325.335	9.81
325.708	10.65
326.081	9.69
326.454	9.49
326.827	9.73
327.2	9.95
327.573	10.17
327.945	10.46
328.318	10.11
328.691	10.24
329.063	10.24
329.436	9.89
329.809	10.67
330.181	10.41
330.553	10.39
330.926	10.17
331.298	10.29
331.671	11.07
332.043	10.82
332.415	10.32
332.787	9.7
333.159	10.82
333.532	10.55
333.904	10.67
334.276	10.9
334.648	10.49
335.02	10.51
335.391	10.29
335.763	10.17
336.135	10.48
336.507	10.28
336.879	10.7
337.25	10.75
337.622	10.8
337.993	11.13
338.365	10.45
338.736	10.6
339.108	11.12
339.479	10.72
339.851	10.6
340.222	11.02
340.593	10.58
340.964	10.81
341.336	10.54
341.707	11
342.078	10.59
342.449	11.09
342.82	11.1
343.191	10.56
343.562	11.5
343.933	10.95
344.303	11.27
344.674	11.14
345.045	11.68
345.416	11.13
345.786	11.42
346.157	11.04
346.527	11.21
346.898	11.64
347.268	11.27
347.639	10.99
348.009	11.33
348.38	11.49
348.75	11.28
349.12	11.11
349.49	11.39
349.861	10.97
350.231	11.37
350.601	11.28
350.971	11.52
351.341	11.49
351.711	11.67
352.081	11.19
352.45	11.18
352.82	11.22
353.19	11.96
353.56	11.67
353.929	11.88
354.299	11.45
354.669	11.62
355.038	11.35
355.408	11.79
355.777	11.68
356.147	11.8
356.516	11.96
356.885	11.38
357.254	11.63
357.624	11.79
357.993	11.74
358.362	11.89
358.731	11.96
359.1	12.09
359.469	12.1
359.838	11.92
360.207	11.75
360.576	12.16
360.945	11.59
361.314	12.3
361.682	12.16
362.051	11.97
362.42	12.15
362.788	11.74
363.157	11.71
363.525	11.63
363.894	12.22
364.262	11.91
364.631	12.07
364.999	11.77
365.367	11.99
365.735	12.29
366.104	12.06
366.472	11.68
366.84	12.35
367.208	12.35
367.576	12.04
367.944	11.99
368.312	12.41
368.68	12.42
369.048	12.38
369.416	12.53
369.783	12.44
370.151	12.53
370.519	12.47
370.886	12.36
371.254	12.86
371.621	12.6
371.989	12.56
372.356	12.63
372.724	12.9
373.091	12.59
373.458	12.63
373.826	12.83
374.193	12.74
374.56	12.77
374.927	12.87
375.294	12.27
375.661	12.79
376.028	12.86
376.395	12.81
376.762	12.93
377.129	12.48
377.496	13.03
377.863	13.17
378.229	12.64
378.596	12.62
378.963	12.7
379.329	13.14
379.696	12.65
380.062	12.63
380.429	13.05
380.795	13.12
381.161	13.16
381.528	12.9
381.894	12.36
382.26	12.65
382.626	12.69
382.993	13.08
383.359	13.07
383.725	12.78
384.091	12.97
384.457	12.43
384.823	12.58
385.188	12.71
385.554	12.88
385.92	13.16
386.286	12.51
386.651	12.52
387.017	12.89
387.383	12.99
387.748	12.87
388.114	12.6
388.479	12.71
388.845	12.8
389.21	12.52
389.575	12.8
389.94	12.62
390.306	12.65
390.671	12.67
391.036	12.89
391.401	12.55
391.766	12.52
392.131	12.46
392.496	12.7
392.861	12.43
393.226	12.79
393.591	12.79
393.956	12.47
394.32	12.65
394.685	12.75
395.05	12.73
395.414	12.39
395.779	12.31
396.143	12.39
396.508	12.6
396.872	12.49
397.236	12.38
397.601	12.53
397.965	12.38
398.329	12.09
398.694	12.05
399.058	12.64
399.422	12.31
399.786	12.33
400.15	12.18
400.514	11.9
400.878	12.2
401.242	11.94
401.605	12.32
401.969	12.62
402.333	12.21
402.697	12.09
403.06	12.22
403.424	12.18
403.787	11.86
404.151	12.4
404.514	12.02
404.878	12.21
405.241	12.18
405.604	11.91
405.968	11.95
406.331	11.86
406.694	12
407.057	11.85
407.42	11.97
407.783	11.71
408.146	12.02
408.509	11.75
408.872	11.83
409.235	11.98
409.598	12.05
409.961	11.82
410.323	12.25
410.686	11.83
411.049	11.77
411.411	11.85
411.774	11.83
412.136	11.83
412.499	11.73
412.861	11.99
413.223	11.93
413.586	12.34
413.948	11.92
414.31	12.17
414.672	12.14
415.035	12.04
415.397	11.87
415.759	12.16
416.121	12.23
416.483	12.6
416.845	12.21
417.206	11.95
417.568	12.12
417.93	12.22
418.292	12.51
418.653	12.15
419.015	12.28
419.377	12.26
419.738	12.18
420.1	12.39
420.461	12.36
420.822	12.48
421.184	12.42
421.545	12.41
421.906	12.38
422.267	12.61
422.629	12.73
422.99	12.69
423.351	12.93
423.712	12.88
424.073	12.84
424.434	12.97
424.795	13.2
425.155	13.28
425.516	13.22
425.877	13.24
426.238	13.5
426.598	13.5
426.959	13.66
427.32	13.61
427.68	13.78
428.041	13.9
428.401	14.01
428.761	14.2
429.122	14.38
429.482	14.41
429.842	14.69
430.202	14.67
430.563	14.88
430.923	15.02
431.283	15.21
431.643	15.34
432.003	15.51
432.363	15.19
432.722	15.47
433.082	15.35
433.442	15.62
433.802	15.59
434.161	15.86
434.521	15.76
434.881	15.81
435.24	16.17
435.6	15.97
435.959	16.22
436.319	16.09
436.678	16.09
437.037	16.26
437.396	16.39
437.756	16.71
438.115	16.63
438.474	16.75
438.833	17.01
439.192	16.92
439.551	16.98
439.91	17.1
440.269	17.2
440.628	17.2
440.987	17.24
441.345	17.35
441.704	17.36
442.063	17.53
442.421	17.42
442.78	17.48
443.138	17.7
443.497	17.94
443.855	18
444.214	18.16
444.572	18.28
444.93	18.01
445.288	18.02
445.647	18.1
446.005	18.33
446.363	18.21
446.721	18.18
447.079	18.38
447.437	18.49
447.795	18.48
448.153	18.31
448.51	18.61
448.868	18.5
449.226	18.57
449.584	18.76
449.941	18.84
450.299	18.76
450.656	18.73
451.014	19.11
451.371	18.91
451.729	19.36
452.086	19.32
452.443	19.35
452.801	19.52
453.158	19.6
453.515	19.5
453.872	19.63
454.229	19.7
454.586	19.53
454.943	19.76
455.3	19.96
455.657	20.01
456.014	20.12
456.371	20.07
456.727	20.21
457.084	19.95
457.441	20.25
457.797	20.08
458.154	20.53
458.51	20.37
458.867	20.57
459.223	20.6
459.58	20.64
459.936	20.58
460.292	20.44
460.648	20.72
461.005	20.7
461.361	20.66
461.717	20.68
462.073	20.68
462.429	20.88
462.785	21.1
463.141	21.22
463.496	21.38
463.852	21.46
464.208	21.44
464.564	21.53
464.919	21.66
465.275	21.66
465.631	21.64
465.986	21.94
466.342	21.82
466.697	21.97
467.052	21.93
467.408	22.1
467.763	22.05
468.118	22.18
468.473	22.38
468.829	21.99
469.184	22.3
469.539	22.33
469.894	22.52
470.249	22.38
470.603	22.47
470.958	22.69
471.313	22.71
471.668	22.88
472.023	22.76
472.377	22.76
472.732	22.97
473.086	23.02
473.441	23
473.795	22.97
474.15	22.99
474.504	23
474.859	23.16
475.213	23.23
475.567	23.42
475.921	23.34
476.275	23.44
476.63	23.51
476.984	23.51
477.338	23.65
477.692	23.58
478.045	23.64
478.399	23.68
478.753	23.78
479.107	23.61
479.461	23.68
479.814	23.65
480.168	23.64
480.521	23.66
480.875	23.79
481.228	23.93
481.582	24.13
481.935	23.95
482.289	24.07
482.642	24.08
482.995	24.08
483.348	23.87
483.701	23.95
484.055	24.04
484.408	23.84
484.761	23.7
485.114	23.4
485.466	23.1
485.819	23.31
486.172	23.41
486.525	23.58
486.878	23.72
487.23	23.97
487.583	24.19
487.936	24.19
488.288	24.19
488.641	24.03
488.993	23.91
489.345	23.99
489.698	23.89
490.05	23.97
490.402	24.25
490.754	24.46
491.107	24.58
491.459	24.77
491.811	24.89
492.163	24.97
492.515	24.88
492.866	24.65
493.218	24.51
493.57	24.47
493.922	24.7
494.274	24.78
494.625	25.01
494.977	25.26
495.328	25.44
495.68	25.64
496.031	25.63
496.383	25.87
496.734	25.85
497.086	25.67
497.437	25.97
497.788	25.89
498.139	25.87
498.49	25.79
498.842	25.91
499.193	25.98
499.544	26.08
499.894	26.01
500.245	26
500.596	26.22
500.947	26.22
501.298	26.26
501.648	26.28
501.999	26.43
502.35	26.53
502.7	26.6
503.051	26.51
503.401	26.63
503.752	26.78
504.102	26.74
504.452	26.99
504.803	26.97
505.153	26.87
505.503	27.03
505.853	26.98
506.203	27.05
506.553	27.05
506.903	26.95
507.253	27.03
507.603	27.31
507.953	27.16
508.303	27.18
508.652	27.4
509.002	27.36
509.352	27.19
509.701	27.2
510.051	26.96
510.4	27.38
510.75	27.18
511.099	26.99
511.449	27.26
511.798	27.14
512.147	27.37
512.496	27.4
512.846	27.39
513.195	27.31
513.544	27.46
513.893	27.47
514.242	27.46
514.591	27.53
514.939	27.68
515.288	27.84
515.637	27.86
515.986	27.87
516.334	27.7
516.683	27.83
517.032	27.89
517.38	27.85
517.729	28.01
518.077	28.17
518.426	27.88
518.774	27.87
519.122	27.91
519.47	27.79
519.819	27.75
520.167	27.6
520.515	27.68
520.863	27.81
521.211	27.74
521.559	27.87
521.907	28.02
522.255	27.93
522.602	28.03
522.95	28.21
523.298	28.2
523.645	28.22
523.993	28.25
524.341	28.16
524.688	28.28
525.036	28.35
525.383	28.51
525.73	28.29
526.078	28.44
526.425	28.42
526.772	28.09
527.119	28.2
527.466	27.93
527.814	28.03
528.161	28.3
528.508	28.2
528.854	28.25
529.201	28.11
529.548	28
529.895	27.7
530.242	27.53
530.588	27.53
530.935	27.73
531.282	27.9
531.628	28.03
531.975	28.05
532.321	28.28
532.667	28.48
533.014	28.67
533.36	28.78
533.706	28.71
534.052	28.66
534.399	28.66
534.745	28.22
535.091	28.25
535.437	28.36
535.783	28.48
536.129	28.69
536.474	28.75
536.82	28.88
537.166	29.06
537.512	29.29
537.857	28.97
538.203	29.08
538.549	28.93
538.894	29.17
539.239	29.37
539.585	29.27
539.93	29.46
540.276	29.57
540.621	29.51
540.966	29.71
541.311	29.68
541.656	29.66
542.001	29.72
542.346	29.57
542.691	29.11
543.036	29.09
543.381	29.24
543.726	29.32
544.071	29.49
544.415	29.68
544.76	29.6
545.105	29.62
545.449	29.83
545.794	30.19
546.138	30.25
546.483	30.36
546.827	30.39
547.171	30.41
547.516	30.58
547.86	30.6
548.204	30.63
548.548	30.49
548.892	30.6
549.236	30.79
549.58	31
549.924	31.04
550.268	31.15
550.612	31.34
550.956	31.25
551.3	31.4
551.643	31.52
551.987	31.44
552.33	31.59
552.674	31.85
553.017	31.85
553.361	31.82
553.704	31.91
554.048	31.85
554.391	31.89
554.734	31.92
555.077	31.65
555.42	31.76
555.764	32.08
556.107	32.19
556.45	32.16
556.793	32.32
557.135	32.35
557.478	32.28
557.821	32.55
558.164	32.42
558.507	32.42
558.849	32.48
559.192	32.62
559.534	32.45
559.877	32.61
560.219	32.86
560.562	32.66
560.904	33.01
561.246	32.83
561.589	32.7
561.931	32.89
562.273	33.16
562.615	33.07
562.957	32.91
563.299	33.03
563.641	32.92
563.983	33.01
564.325	33.26
564.667	33.35
565.008	33.35
565.35	33.42
565.692	33.29
566.033	33.52
566.375	33.18
566.716	33.48
567.058	33.53
567.399	33.48
567.741	33.39
568.082	33.5
568.423	33.49
568.764	33.68
569.105	33.72
569.447	33.92
569.788	33.88
570.129	33.9
570.47	34.09
570.811	34.1
571.151	34.16
571.492	34.17
571.833	34.43
572.174	34.3
572.514	34.31
572.855	34.52
573.195	34.33
573.536	34.46
573.876	34.2
574.217	34.59
574.557	34.77
574.898	34.57
575.238	34.88
575.578	35
575.918	34.71
576.258	34.7
576.598	34.84
576.938	35.28
577.278	35.11
577.618	35.14
577.958	35.18
578.298	35.53
578.638	35.29
578.977	35.61
579.317	35.55
579.657	35.61
579.996	36.09
580.336	36.01
580.675	35.93
581.014	36.32
581.354	35.73
581.693	36.16
582.032	36.39
582.372	36.54
582.711	36.66
583.05	36.48
583.389	36.99
583.728	36.53
584.067	36.79
584.406	36.45
584.745	37.04
585.083	36.81
585.422	37.15
585.761	37.28
586.1	37.35
586.438	37.02
586.777	37.51
587.115	37.45
587.454	37.4
587.792	37.67
588.13	37.36
588.469	37.53
588.807	37.59
589.145	37.97
589.483	38
589.821	37.81
590.159	38.11
590.497	38.26
590.835	38.44
591.173	38.36
591.511	38.5
591.849	38.22
592.187	38.39
592.524	38.31
592.862	38.49
593.2	38.46
593.537	38.64
593.875	38.76
594.212	38.85
594.55	39
594.887	39.06
595.224	38.86
595.561	39.15
595.899	39.36
596.236	39.26
596.573	39.37
596.91	39.08
597.247	39.62
597.584	39.73
597.921	39.43
598.258	39.52
598.594	39.32
598.931	39.62
599.268	39.33
599.604	39.83
599.941	39.52
600.277	40.12
600.614	39.86
600.95	40.41
601.287	40.06
601.623	39.86
601.959	40.53
602.296	40.48
602.632	40.23
602.968	40.44
603.304	40.65
603.64	40.67
603.976	40.96
604.312	40.83
604.648	40.61
604.984	40.84
605.319	40.62
605.655	40.92
605.991	40.63
606.326	40.71
606.662	40.59
606.998	40.56
607.333	40.96
607.668	40.98
608.004	41.05
608.339	41.28
608.674	41.13
609.01	41.13
609.345	41.35
609.68	41.22
610.015	41.48
610.35	41.73
610.685	41.85
611.02	41.69
611.355	41.67
611.689	41.46
612.024	41.9
612.359	41.54
612.694	41.94
613.028	42.15
613.363	41.93
613.697	41.91
614.032	42.43
614.366	42.22
614.7	42.17
615.035	42.31
615.369	42.21
615.703	42.28
616.037	42.19
616.371	42.81
616.705	42.65
617.039	42.45
617.373	42.72
617.707	42.81
618.041	42.94
618.375	43.37
618.709	42.55
619.042	42.82
619.376	42.92
619.71	43.29
620.043	43.22
620.377	43.42
620.71	42.91
621.043	43.28
621.377	43.41
621.71	43.67
622.043	43.67
622.376	43.37
622.709	43.81
623.043	43.88
623.376	43.89
623.709	43.87
624.041	43.91
624.374	43.58
624.707	43.89
625.04	44.19
625.373	43.83
625.705	44.09
626.038	43.71
626.37	44.43
626.703	44.22
627.035	44.56
627.368	44.89
627.7	44.84
628.032	44.43
628.365	44.33
628.697	44.48
629.029	44.33
629.361	44.71
629.693	44.51
630.025	44.62
630.357	44.93
630.689	44.96
631.021	45.17
631.353	44.58
631.684	44.66
632.016	45.25
632.348	45.37
632.679	45.24
633.011	45.54
633.342	44.57
633.674	45.23
634.005	45.57
634.336	45.57
634.668	46.18
634.999	46.01
635.33	45.91
635.661	46.02
635.992	45.67
636.323	46.31
636.654	45.8
636.985	46.21
637.316	46.73
637.647	46.2
637.977	46.37
638.308	46.61
638.639	46.79
638.969	46.97
639.3	46.94
639.63	46.2
639.961	47.63
640.291	47
640.622	46.85
640.952	46.72
641.282	47.26
641.612	47.44
641.943	47.6
642.273	47.73
642.603	47.4
642.933	47.65
643.263	48.01
643.592	47.99
643.922	47.64
644.252	47.91
644.582	47.98
644.911	47.73
645.241	47.6
645.571	47.71
645.9	48.14
646.23	48.4
646.559	48.42
646.888	48.35
647.218	48.14
647.547	48.98
647.876	47.98
648.205	48.32
648.534	48.52
648.863	48.37
649.192	48.61
649.521	48.75
649.85	48.81
650.179	48.19
650.508	48.68
650.837	49.01
651.165	48.77
651.494	48.93
651.822	49.05
652.151	49.45
652.479	49.47
652.808	49.1
653.136	49.14
653.465	48.78
653.793	49.42
654.121	49.44
654.449	49.51
654.777	50.16
655.105	49.07
655.433	49.59
655.761	49.61
656.089	49.37
656.417	50.22
656.745	50.41
657.073	49.84
657.4	50.28
657.728	50.19
658.056	50.28
658.383	50.79
658.711	50.85
659.038	50.72
659.365	50.78
659.693	51
660.02	50.16
660.347	50.62
660.674	50.53
661.001	50.13
661.329	50.62
661.656	50.35
661.982	50.93
662.309	51.02
662.636	51
662.963	51.37
663.29	50.79
663.616	50.83
663.943	50.56
664.27	51.94
664.596	51.75
664.923	51.54
665.249	51.5
665.576	51.48
665.902	51.83
666.228	51.19
666.554	51.04
666.881	51.77
667.207	50.69
667.533	51.46
667.859	51.1
668.185	51.01
668.511	51.18
668.837	51.93
669.162	51.76
669.488	51.59
