Data from 20-51_crown_Reflection__4__54.txt Node

Date: Thu Feb 29 22:18:24 CST 2024
User: ToomeyLab
Spectrometer: FLMS14357
Trigger mode: 0
Integration Time (sec): 1.000000E-2
Scans to average: 100
Electric dark correction enabled: true
Nonlinearity correction enabled: false
Boxcar width: 0
XAxis mode: Wavelengths
Number of Pixels in Spectrum: 2048
>>>>>Begin Spectral Data<<<<<
189.047	2.34
189.435	2.34
189.823	2.34
190.211	-23.87
190.599	-542.77
190.987	-139.51
191.375	-84.74
191.763	-81.68
192.151	-3159.65
192.538	-254.77
192.926	171.75
193.314	-9
193.702	226.52
194.089	135.03
194.477	-161.14
194.864	-115.99
195.252	1.71
195.639	-143.1
196.027	73.22
196.414	59.88
196.801	67.41
197.189	66.72
197.576	-3310.13
197.963	723.32
198.351	18.19
198.738	25.68
199.125	0.43
199.512	-27.38
199.899	-36.29
200.286	-39.83
200.673	72.15
201.06	48.26
201.447	-93.74
201.833	-3.13
202.22	3.61
202.607	-62.07
202.994	-38.22
203.38	-66.79
203.767	100.44
204.154	18.39
204.54	24.17
204.927	-13.81
205.313	29.47
205.699	-31.72
206.086	-9.62
206.472	28.94
206.858	9.83
207.245	-30.79
207.631	35.94
208.017	20.26
208.403	-87.16
208.789	-26.59
209.175	-8.7
209.561	12.59
209.947	19.68
210.333	20.34
210.719	5.88
211.105	2.86
211.491	-12.56
211.876	11.49
212.262	18.47
212.648	-24.84
213.034	28.25
213.419	14.24
213.805	3.54
214.19	-0.01
214.576	-8.59
214.961	0.27
215.346	-2.82
215.732	-11.25
216.117	-23.83
216.502	24.22
216.888	-29.43
217.273	15.91
217.658	-2.02
218.043	-19.73
218.428	-9.63
218.813	-3.26
219.198	16.08
219.583	-24.7
219.968	3.34
220.353	-25.81
220.738	-0.39
221.122	5.74
221.507	10.69
221.892	-1.74
222.276	24.82
222.661	6.62
223.046	-4.69
223.43	-4.81
223.815	-11.6
224.199	-7.42
224.583	-3.66
224.968	5.83
225.352	9.16
225.736	10.45
226.121	0.61
226.505	10.41
226.889	8.85
227.273	2.35
227.657	-8.98
228.041	0.84
228.425	6.03
228.809	8.66
229.193	2.02
229.577	2.3
229.961	0.65
230.344	2.67
230.728	2.79
231.112	4.6
231.495	2.68
231.879	2.96
232.263	1.22
232.646	2.38
233.03	2.55
233.413	3.64
233.797	1.97
234.18	-0.93
234.563	-0.94
234.946	2.51
235.33	3.99
235.713	3.76
236.096	3.98
236.479	4.79
236.862	4.1
237.245	2.91
237.628	1.69
238.011	4.08
238.394	0.56
238.777	2.2
239.16	1.93
239.543	1.79
239.925	2.82
240.308	3.9
240.691	4.49
241.073	4.85
241.456	3.7
241.838	3.55
242.221	2.71
242.603	3.92
242.986	3.89
243.368	3.09
243.75	4.33
244.133	3.19
244.515	3.96
244.897	4.29
245.279	4.38
245.661	2.76
246.043	2.5
246.425	5.23
246.807	4.81
247.189	3
247.571	3.52
247.953	3.91
248.335	3.71
248.717	3.63
249.098	3.76
249.48	3.53
249.862	3.56
250.243	3.8
250.625	3.44
251.006	3.99
251.388	3.91
251.769	3.13
252.151	4.09
252.532	3.01
252.913	3.76
253.295	3.53
253.676	3.23
254.057	3.53
254.438	4.27
254.819	4.26
255.2	2.97
255.581	3.03
255.962	3.3
256.343	3.56
256.724	2.57
257.105	3.88
257.486	3.28
257.867	3.69
258.247	4.21
258.628	3.31
259.009	2.94
259.389	2.67
259.77	4.37
260.15	3.93
260.531	3.84
260.911	3.55
261.292	3.5
261.672	3.46
262.052	3.6
262.432	3.91
262.813	2.89
263.193	3.51
263.573	3.96
263.953	3.01
264.333	4.08
264.713	4.2
265.093	3.88
265.473	3.45
265.853	4.21
266.233	3.46
266.612	3.48
266.992	3.36
267.372	2.57
267.752	2.7
268.131	3.75
268.511	3.93
268.89	3.78
269.27	3.26
269.649	2.87
270.029	3.45
270.408	2.83
270.787	3.12
271.167	3.61
271.546	3.87
271.925	3.64
272.304	3.38
272.683	4.32
273.062	3.41
273.441	3.35
273.82	3.47
274.199	3.76
274.578	3.63
274.957	3.37
275.336	3.84
275.715	3.76
276.093	2.69
276.472	4.09
276.851	2.69
277.229	2.94
277.608	3.52
277.986	3.43
278.365	3.86
278.743	2.98
279.122	3.06
279.5	3.27
279.878	3.53
280.257	4.14
280.635	2.63
281.013	3.25
281.391	3.78
281.769	3.6
282.147	3.35
282.525	3.84
282.903	2.96
283.281	3.27
283.659	3.5
284.037	3.29
284.415	2.57
284.792	3.04
285.17	3
285.548	3.77
285.925	3.7
286.303	3.19
286.68	2.48
287.058	3.15
287.435	3.24
287.813	3.11
288.19	3.1
288.567	3.49
288.945	3.39
289.322	3.38
289.699	3.68
290.076	3.39
290.453	2.84
290.83	2.65
291.207	3.24
291.584	3.1
291.961	2.85
292.338	3.68
292.715	3.65
293.092	3.36
293.469	3.61
293.845	3.4
294.222	3.09
294.599	3.33
294.975	3.49
295.352	3.7
295.728	3.46
296.105	3.45
296.481	2.86
296.858	3.58
297.234	3.03
297.61	3.48
297.986	3.79
298.363	3.18
298.739	3.07
299.115	3.32
299.491	3.16
299.867	3.6
300.243	3.34
300.619	3.34
300.995	3.55
301.371	2.86
301.746	3.36
302.122	3.26
302.498	3.71
302.874	3.74
303.249	3.24
303.625	3.02
304	3.43
304.376	3.78
304.751	3.28
305.127	3.31
305.502	2.92
305.878	3.79
306.253	2.6
306.628	2.9
307.003	3.47
307.378	3.52
307.754	3.61
308.129	3.35
308.504	3.76
308.879	3.21
309.254	2.62
309.629	3.12
310.003	2.89
310.378	3.21
310.753	2.63
311.128	3.18
311.502	3.82
311.877	3.12
312.252	3.04
312.626	3.23
313.001	3.14
313.375	3.45
313.75	3.3
314.124	3.53
314.498	3.17
314.873	3.03
315.247	3.15
315.621	3.31
315.995	3.1
316.369	2.76
316.743	3.13
317.117	3.63
317.491	3.01
317.865	3.21
318.239	2.9
318.613	3.56
318.987	4.15
319.361	2.91
319.734	3.79
320.108	3.55
320.482	3.62
320.855	3.39
321.229	3.99
321.602	3.64
321.976	2.63
322.349	2.4
322.723	3.29
323.096	3.2
323.469	3.11
323.843	2.85
324.216	3.15
324.589	3.01
324.962	2.8
325.335	3.18
325.708	3.47
326.081	2.95
326.454	2.96
326.827	2.56
327.2	3.14
327.573	2.8
327.945	4.02
328.318	2.94
328.691	3.52
329.063	2.56
329.436	2.81
329.809	2.75
330.181	3.75
330.553	2.84
330.926	3.3
331.298	3.09
331.671	3.16
332.043	3
332.415	2.58
332.787	2.63
333.159	3.75
333.532	3.38
333.904	3.37
334.276	3.12
334.648	2.93
335.02	2.48
335.391	2.84
335.763	2.91
336.135	2.71
336.507	2.57
336.879	3.41
337.25	3.52
337.622	3.07
337.993	3.34
338.365	3.32
338.736	3.13
339.108	3.52
339.479	3.39
339.851	2.7
340.222	3.34
340.593	2.85
340.964	3.16
341.336	3.01
341.707	3.16
342.078	2.73
342.449	3.25
342.82	3.42
343.191	3.35
343.562	3.07
343.933	2.99
344.303	3.12
344.674	3.1
345.045	3.41
345.416	3.18
345.786	2.78
346.157	2.91
346.527	3.02
346.898	3.7
347.268	3.02
347.639	3.49
348.009	3.19
348.38	3.42
348.75	3.28
349.12	3.21
349.49	2.94
349.861	3.08
350.231	3.35
350.601	3.42
350.971	3.17
351.341	3.09
351.711	3.53
352.081	3.25
352.45	3.05
352.82	3.17
353.19	3.44
353.56	3.38
353.929	3.38
354.299	2.82
354.669	2.87
355.038	3.43
355.408	3.09
355.777	3.42
356.147	3.35
356.516	3.24
356.885	3.16
357.254	2.82
357.624	3.31
357.993	3.24
358.362	3.23
358.731	3.28
359.1	3.6
359.469	3.43
359.838	3.09
360.207	3.26
360.576	3.64
360.945	2.83
361.314	3.66
361.682	3.05
362.051	3.44
362.42	3.41
362.788	3.28
363.157	3.08
363.525	3.19
363.894	3.39
364.262	3.28
364.631	3.56
364.999	3.06
365.367	2.91
365.735	3.14
366.104	3.12
366.472	3.14
366.84	3.46
367.208	3.57
367.576	3.23
367.944	3.15
368.312	3.51
368.68	3.45
369.048	3.21
369.416	3.56
369.783	3.32
370.151	3.5
370.519	3.31
370.886	3.08
371.254	3.27
371.621	3.57
371.989	3.34
372.356	3.62
372.724	3.69
373.091	3.2
373.458	3.45
373.826	3.44
374.193	3.3
374.56	3.29
374.927	3.58
375.294	3.13
375.661	3.55
376.028	3.23
376.395	3.25
376.762	3.8
377.129	3.3
377.496	3.7
377.863	3.53
378.229	3.16
378.596	3.46
378.963	3.35
379.329	3.73
379.696	3.17
380.062	3.69
380.429	3.27
380.795	3.27
381.161	3.43
381.528	3.49
381.894	2.93
382.26	3.17
382.626	3.51
382.993	3.33
383.359	3.43
383.725	3.42
384.091	3.76
384.457	3.54
384.823	3.64
385.188	3.73
385.554	3.2
385.92	3.47
386.286	3.28
386.651	3.34
387.017	3.46
387.383	3.37
387.748	3.35
388.114	3.46
388.479	3.67
388.845	3.32
389.21	3.76
389.575	3.55
389.94	3.62
390.306	3.29
390.671	3.32
391.036	3.8
391.401	3.19
391.766	3.36
392.131	3.29
392.496	3.4
392.861	3.45
393.226	3.89
393.591	3.73
393.956	3.56
394.32	3.67
394.685	3.8
395.05	3.69
395.414	3.46
395.779	3.39
396.143	3.72
396.508	3.76
396.872	3.65
397.236	3.51
397.601	3.47
397.965	3.45
398.329	3.42
398.694	3.4
399.058	3.6
399.422	3.3
399.786	3.71
400.15	3.34
400.514	3.48
400.878	3.48
401.242	3.22
401.605	3.53
401.969	4.09
402.333	3.53
402.697	3.21
403.06	3.98
403.424	3.68
403.787	3.32
404.151	3.55
404.514	3.26
404.878	3.56
405.241	3.7
405.604	3.42
405.968	3.76
406.331	3.62
406.694	3.66
407.057	3.57
407.42	3.66
407.783	3.63
408.146	3.62
408.509	3.73
408.872	3.58
409.235	3.72
409.598	3.68
409.961	3.66
410.323	3.91
410.686	3.63
411.049	3.36
411.411	3.62
411.774	3.56
412.136	3.46
412.499	3.8
412.861	3.51
413.223	3.46
413.586	3.58
413.948	3.64
414.31	3.91
414.672	3.52
415.035	3.65
415.397	3.65
415.759	3.99
416.121	4.03
416.483	3.58
416.845	3.58
417.206	3.68
417.568	3.83
417.93	3.66
418.292	3.88
418.653	3.59
419.015	3.83
419.377	3.65
419.738	3.69
420.1	3.62
420.461	3.6
420.822	3.64
421.184	3.49
421.545	3.71
421.906	3.72
422.267	3.66
422.629	3.7
422.99	3.66
423.351	3.66
423.712	3.7
424.073	3.57
424.434	3.63
424.795	3.65
425.155	3.64
425.516	3.67
425.877	3.69
426.238	3.71
426.598	3.8
426.959	3.72
427.32	3.76
427.68	3.81
428.041	3.6
428.401	3.73
428.761	3.84
429.122	3.81
429.482	3.67
429.842	3.92
430.202	3.77
430.563	3.8
430.923	3.97
431.283	3.84
431.643	3.78
432.003	4.16
432.363	3.7
432.722	3.89
433.082	3.71
433.442	3.76
433.802	3.67
434.161	3.99
434.521	3.72
434.881	3.79
435.24	3.89
435.6	3.73
435.959	3.92
436.319	3.66
436.678	3.66
437.037	3.67
437.396	3.69
437.756	3.85
438.115	3.83
438.474	3.86
438.833	3.89
439.192	3.89
439.551	3.89
439.91	3.79
440.269	3.8
440.628	3.85
440.987	3.73
441.345	3.8
441.704	3.84
442.063	3.8
442.421	3.83
442.78	3.9
443.138	3.79
443.497	3.86
443.855	4.01
444.214	3.98
444.572	3.98
444.93	3.87
445.288	3.9
445.647	3.92
446.005	3.97
446.363	3.82
446.721	3.88
447.079	3.9
447.437	3.81
447.795	3.91
448.153	3.91
448.51	4.02
448.868	3.91
449.226	4.01
449.584	3.8
449.941	4.02
450.299	3.99
450.656	4
451.014	3.99
451.371	3.96
451.729	4.23
452.086	3.93
452.443	4
452.801	3.84
453.158	4.06
453.515	3.96
453.872	4.16
454.229	3.93
454.586	3.87
454.943	3.96
455.3	3.92
455.657	3.92
456.014	4.12
456.371	3.91
456.727	4.08
457.084	4.03
457.441	4.29
457.797	4
458.154	4.26
458.51	4.15
458.867	4.09
459.223	3.85
459.58	3.96
459.936	4.03
460.292	3.88
460.648	3.93
461.005	3.95
461.361	3.86
461.717	3.92
462.073	3.87
462.429	3.98
462.785	4
463.141	4.07
463.496	4.1
463.852	4.12
464.208	3.89
464.564	4.22
464.919	4.07
465.275	3.99
465.631	4.29
465.986	4.12
466.342	4.14
466.697	4.22
467.052	3.81
467.408	4.03
467.763	4.09
468.118	3.98
468.473	4.19
468.829	4.24
469.184	4.27
469.539	4.32
469.894	4.13
470.249	4.05
470.603	4.14
470.958	4.29
471.313	4.07
471.668	4.04
472.023	4.15
472.377	3.89
472.732	4.12
473.086	4.34
473.441	4.11
473.795	4.28
474.15	4.15
474.504	4.19
474.859	4.17
475.213	4.03
475.567	4.14
475.921	4.28
476.275	4.11
476.63	4.2
476.984	4.03
477.338	4.22
477.692	4.16
478.045	4.14
478.399	3.99
478.753	4.13
479.107	4.15
479.461	4.23
479.814	4.37
480.168	4.06
480.521	4.05
480.875	4.15
481.228	4.12
481.582	4.21
481.935	4.19
482.289	4.2
482.642	4.22
482.995	4.16
483.348	4.1
483.701	4.16
484.055	4.04
484.408	4.16
484.761	4.07
485.114	3.89
485.466	3.78
485.819	3.91
486.172	3.98
486.525	4.03
486.878	4.11
487.23	4.14
487.583	4.08
487.936	4.15
488.288	4.06
488.641	4.04
488.993	3.97
489.345	3.96
489.698	3.95
490.05	4.01
490.402	4.18
490.754	4.15
491.107	4.09
491.459	4.2
491.811	4.12
492.163	4.07
492.515	4.12
492.866	4.05
493.218	3.96
493.57	3.94
493.922	4.12
494.274	4.06
494.625	4.16
494.977	4.23
495.328	4.26
495.68	4.33
496.031	4.38
496.383	4.17
496.734	4.33
497.086	4.02
497.437	4.39
497.788	4.3
498.139	4.3
498.49	4.25
498.842	4.24
499.193	4.31
499.544	4.35
499.894	4.27
500.245	4.25
500.596	4.19
500.947	4.07
501.298	4.25
501.648	4.22
501.999	4.36
502.35	4.34
502.7	4.37
503.051	4.41
503.401	4.23
503.752	4.17
504.102	4.32
504.452	4.37
504.803	4.52
505.153	4.17
505.503	4.41
505.853	4.49
506.203	4.43
506.553	4.39
506.903	4.18
507.253	4.44
507.603	4.3
507.953	4.27
508.303	4.27
508.652	4.34
509.002	4.39
509.352	4.44
509.701	4.44
510.051	4.13
510.4	4.3
510.75	4.23
511.099	4.3
511.449	4.26
511.798	4.26
512.147	4.4
512.496	4.4
512.846	4.25
513.195	4.31
513.544	4.28
513.893	4.33
514.242	4.33
514.591	4.16
514.939	4.32
515.288	4.27
515.637	4.4
515.986	4.29
516.334	4.49
516.683	4.51
517.032	4.37
517.38	4.38
517.729	4.33
518.077	4.38
518.426	4.28
518.774	4.28
519.122	4.39
519.47	4.37
519.819	4.33
520.167	4.2
520.515	4.22
520.863	4.31
521.211	4.26
521.559	4.41
521.907	4.43
522.255	4.25
522.602	4.34
522.95	4.37
523.298	4.31
523.645	4.39
523.993	4.4
524.341	4.31
524.688	4.33
525.036	4.44
525.383	4.45
525.73	4.36
526.078	4.39
526.425	4.44
526.772	4.32
527.119	4.29
527.466	4.26
527.814	4.26
528.161	4.32
528.508	4.29
528.854	4.32
529.201	4.25
529.548	4.19
529.895	4.09
530.242	4.06
530.588	4.06
530.935	4.15
531.282	4.25
531.628	4.25
531.975	4.31
532.321	4.27
532.667	4.37
533.014	4.38
533.36	4.37
533.706	4.41
534.052	4.34
534.399	4.38
534.745	4.25
535.091	4.12
535.437	4.2
535.783	4.28
536.129	4.43
536.474	4.39
536.82	4.33
537.166	4.39
537.512	4.42
537.857	4.37
538.203	4.34
538.549	4.17
538.894	4.38
539.239	4.42
539.585	4.31
539.93	4.33
540.276	4.38
540.621	4.3
540.966	4.57
541.311	4.48
541.656	4.4
542.001	4.37
542.346	4.32
542.691	4.16
543.036	4.2
543.381	4.14
543.726	4.33
544.071	4.25
544.415	4.31
544.76	4.34
545.105	4.24
545.449	4.34
545.794	4.34
546.138	4.44
546.483	4.48
546.827	4.38
547.171	4.34
547.516	4.48
547.86	4.41
548.204	4.32
548.548	4.34
548.892	4.33
549.236	4.43
549.58	4.43
549.924	4.47
550.268	4.43
550.612	4.58
550.956	4.42
551.3	4.22
551.643	4.43
551.987	4.38
552.33	4.52
552.674	4.54
553.017	4.51
553.361	4.55
553.704	4.47
554.048	4.39
554.391	4.45
554.734	4.39
555.077	4.41
555.42	4.49
555.764	4.42
556.107	4.65
556.45	4.61
556.793	4.53
557.135	4.52
557.478	4.43
557.821	4.75
558.164	4.61
558.507	4.57
558.849	4.39
559.192	4.44
559.534	4.52
559.877	4.53
560.219	4.52
560.562	4.57
560.904	4.54
561.246	4.45
561.589	4.58
561.931	4.37
562.273	4.72
562.615	4.42
562.957	4.55
563.299	4.55
563.641	4.48
563.983	4.65
564.325	4.52
564.667	4.56
565.008	4.51
565.35	4.68
565.692	4.5
566.033	4.53
566.375	4.43
566.716	4.6
567.058	4.52
567.399	4.84
567.741	4.45
568.082	4.63
568.423	4.31
568.764	4.47
569.105	4.48
569.447	4.72
569.788	4.55
570.129	4.46
570.47	4.73
570.811	4.39
571.151	4.91
571.492	4.77
571.833	4.65
572.174	4.52
572.514	4.29
572.855	4.47
573.195	4.56
573.536	4.43
573.876	4.45
574.217	4.58
574.557	4.36
574.898	4.52
575.238	4.51
575.578	4.73
575.918	4.5
576.258	4.44
576.598	4.35
576.938	4.41
577.278	4.5
577.618	4.4
577.958	4.41
578.298	4.51
578.638	4.47
578.977	4.66
579.317	4.64
579.657	4.54
579.996	4.52
580.336	4.79
580.675	4.68
581.014	4.8
581.354	4.35
581.693	4.7
582.032	4.59
582.372	4.56
582.711	4.66
583.05	4.66
583.389	4.8
583.728	4.32
584.067	4.44
584.406	4.59
584.745	4.62
585.083	4.29
585.422	4.62
585.761	4.68
586.1	4.72
586.438	4.72
586.777	4.54
587.115	4.56
587.454	4.51
587.792	4.79
588.13	4.63
588.469	4.47
588.807	4.5
589.145	4.74
589.483	4.52
589.821	4.41
590.159	4.8
590.497	4.35
590.835	4.66
591.173	4.56
591.511	4.71
591.849	4.54
592.187	4.51
592.524	4.45
592.862	4.57
593.2	4.59
593.537	4.61
593.875	4.62
594.212	4.37
594.55	4.45
594.887	4.78
595.224	4.62
595.561	4.73
595.899	4.86
596.236	4.37
596.573	4.87
596.91	4.61
597.247	4.73
597.584	4.57
597.921	4.52
598.258	4.48
598.594	4.68
598.931	4.55
599.268	4.46
599.604	4.66
599.941	4.33
600.277	4.78
600.614	4.53
600.95	4.95
601.287	4.79
601.623	4.62
601.959	4.64
602.296	4.41
602.632	4.58
602.968	4.51
603.304	4.59
603.64	4.46
603.976	4.81
604.312	4.81
604.648	4.47
604.984	4.76
605.319	4.75
605.655	4.68
605.991	4.35
606.326	4.42
606.662	4.74
606.998	4.47
607.333	4.56
607.668	4.51
608.004	5
608.339	4.57
608.674	4.44
609.01	4.5
609.345	4.7
609.68	4.7
610.015	4.63
610.35	4.6
610.685	4.8
611.02	4.44
611.355	4.64
611.689	4.57
612.024	4.36
612.359	4.67
612.694	4.76
613.028	4.42
613.363	4.63
613.697	4.78
614.032	4.68
614.366	4.79
614.7	4.61
615.035	4.69
615.369	4.28
615.703	4.7
616.037	4.83
616.371	4.81
616.705	4.45
617.039	4.39
617.373	4.48
617.707	4.82
618.041	4.56
618.375	5.14
618.709	4.34
619.042	4.16
619.376	4.53
619.71	4.8
620.043	4.92
620.377	4.68
620.71	4.61
621.043	4.67
621.377	4.84
621.71	4.62
622.043	4.59
622.376	4.62
622.709	4.86
623.043	4.95
623.376	4.77
623.709	4.56
624.041	4.64
624.374	4.36
624.707	4.96
625.04	5.39
625.373	4.32
625.705	4.54
626.038	4.53
626.37	4.54
626.703	4.93
627.035	4.79
627.368	4.24
627.7	4.97
628.032	4.8
628.365	4.6
628.697	4.59
629.029	4.83
629.361	4.5
629.693	4.6
630.025	4.59
630.357	4.65
630.689	4.77
631.021	4.79
631.353	4.6
631.684	4.54
632.016	4.69
632.348	4.82
632.679	4.9
633.011	5.32
633.342	4.05
633.674	4.44
634.005	4.74
634.336	4.34
634.668	4.71
634.999	4.61
635.33	4.85
635.661	4.48
635.992	4.29
636.323	5.06
636.654	4.19
636.985	4.63
637.316	4.42
637.647	4.76
637.977	4.32
638.308	4.84
638.639	4.89
638.969	4.72
639.3	4.34
639.63	4.58
639.961	4.58
640.291	4.14
640.622	4.52
640.952	4
641.282	4.6
641.612	4.97
641.943	4.89
642.273	4.69
642.603	4.3
642.933	4.72
643.263	5.12
643.592	4.94
643.922	4.73
644.252	4.61
644.582	4.49
644.911	5.07
645.241	4.44
645.571	4.88
645.9	5
646.23	4.54
646.559	4.8
646.888	5.14
647.218	4.5
647.547	4.65
647.876	4.64
648.205	4
648.534	4.28
648.863	4.79
649.192	4.65
649.521	5
649.85	5.14
650.179	4.82
650.508	4.77
650.837	4.49
651.165	4.16
651.494	4.92
651.822	4.33
652.151	4.54
652.479	4.44
652.808	4.71
653.136	4.53
653.465	4.14
653.793	4.55
654.121	5.02
654.449	4.7
654.777	4.93
655.105	4.35
655.433	4.27
655.761	4.6
656.089	4.55
656.417	5.08
656.745	4.84
657.073	4.37
657.4	4.99
657.728	5.42
658.056	5.36
658.383	4.98
658.711	4.67
659.038	5.12
659.365	4.33
659.693	4.79
660.02	4.53
660.347	4.69
660.674	4.76
661.001	4.18
661.329	4.88
661.656	4.66
661.982	4.77
662.309	4.84
662.636	4.88
662.963	4.85
663.29	5.04
663.616	5.22
663.943	5.46
664.27	4.97
664.596	4.87
664.923	4.6
665.249	4.51
665.576	4.7
665.902	4.26
666.228	5.1
666.554	4.11
666.881	4.85
667.207	4.99
667.533	4.25
667.859	4.12
668.185	5.22
668.511	4.73
668.837	5.03
669.162	4.14
669.488	4.33
669.814	5.04
670.139	4.64
670.465	4.62
670.791	4.55
671.116	4.81
671.442	4.31
671.767	3.88
672.092	5.24
672.418	5.11
672.743	5.18
673.068	4.71
673.393	4.76
673.718	5.4
674.043	4.73
674.368	5.68
674.693	5.04
675.018	5.19
675.343	4.87
675.667	5.02
675.992	4.68
676.317	4.74
676.641	3.97
676.966	4.35
677.29	4.8
677.615	4.65
677.939	4.4
678.264	5.09
678.588	5.26
678.912	4.61
679.236	4.82
679.56	5.32
679.885	5.2
680.209	4.58
680.532	5.21
680.856	4.88
681.18	4.46
681.504	4.38
681.828	4.76
682.152	4.65
682.475	5.07
682.799	4.06
683.122	5.23
683.446	5.89
683.769	5.21
684.093	4.81
684.416	5.03
684.739	5.32
685.062	4.87
685.386	5.21
685.709	5
686.032	5.13
686.355	5.38
686.678	5.06
687.001	4.73
687.324	4.84
687.646	5.17
687.969	5.41
688.292	5.47
688.614	5
688.937	5.28
689.26	5.09
689.582	5.5
689.904	5.67
690.227	4.57
690.549	4.22
690.871	5.52
691.194	5.2
691.516	4.49
691.838	4.77
692.16	5.53
692.482	4.06
