Data from 20-51_crown_Reflection__2__52.txt Node

Date: Thu Feb 29 22:18:06 CST 2024
User: ToomeyLab
Spectrometer: FLMS14357
Trigger mode: 0
Integration Time (sec): 1.000000E-2
Scans to average: 100
Electric dark correction enabled: true
Nonlinearity correction enabled: false
Boxcar width: 0
XAxis mode: Wavelengths
Number of Pixels in Spectrum: 2048
>>>>>Begin Spectral Data<<<<<
189.047	-32.23
189.435	-32.23
189.823	-32.23
190.211	117.71
190.599	-1199.06
190.987	412.96
191.375	-8.88
191.763	-245.67
192.151	-1230.7
192.538	-50.82
192.926	36.67
193.314	221.46
193.702	23.15
194.089	55.97
194.477	3.5
194.864	110.39
195.252	23.44
195.639	-11.24
196.027	97.71
196.414	78.95
196.801	121.7
197.189	74.19
197.576	-2666.46
197.963	918.22
198.351	-10.9
198.738	-26.64
199.125	-26.69
199.512	-16.43
199.899	-33.6
200.286	22.1
200.673	57.76
201.06	16.62
201.447	-81.9
201.833	-25.29
202.22	-19
202.607	-46.78
202.994	-53.09
203.38	-12.84
203.767	17.33
204.154	25.85
204.54	36.19
204.927	34.02
205.313	29.87
205.699	-59.94
206.086	19.04
206.472	13.38
206.858	22.47
207.245	-1.68
207.631	-5.42
208.017	-10.16
208.403	-81.85
208.789	-27.11
209.175	-23.03
209.561	2.05
209.947	20.49
210.333	-2.25
210.719	-5.96
211.105	-6.71
211.491	-67.14
211.876	-2.27
212.262	28.03
212.648	-47.81
213.034	0.85
213.419	-27.77
213.805	-49.86
214.19	16.52
214.576	-28.51
214.961	-10.25
215.346	-13.71
215.732	28.08
216.117	-20.47
216.502	5.45
216.888	-64.19
217.273	14.65
217.658	15.84
218.043	-8.66
218.428	-10.18
218.813	-8.09
219.198	-22.06
219.583	-20.25
219.968	-20.09
220.353	-15.82
220.738	17.32
221.122	-5.89
221.507	-4.4
221.892	17.21
222.276	13.58
222.661	13.51
223.046	3.41
223.43	-21.48
223.815	-4.69
224.199	4.89
224.583	-6.81
224.968	-0.21
225.352	4.95
225.736	-10.72
226.121	2.05
226.505	13.19
226.889	1.51
227.273	-4.2
227.657	-8.13
228.041	3.95
228.425	7.9
228.809	7.17
229.193	2.73
229.577	5.61
229.961	3.21
230.344	2.77
230.728	4.09
231.112	5.05
231.495	4.23
231.879	4.41
232.263	1.37
232.646	4.03
233.03	3.93
233.413	2.26
233.797	3.23
234.18	2.42
234.563	2.24
234.946	1.34
235.33	2.56
235.713	4.05
236.096	3.15
236.479	5.01
236.862	5.79
237.245	2.87
237.628	3.6
238.011	4.78
238.394	4.06
238.777	2.64
239.16	3.68
239.543	3.36
239.925	3.3
240.308	3.27
240.691	4.39
241.073	4.02
241.456	4.96
241.838	5
242.221	4.4
242.603	4.74
242.986	5.01
243.368	3.76
243.75	4.66
244.133	3.88
244.515	4.37
244.897	5.15
245.279	4.52
245.661	4.36
246.043	3.24
246.425	5.55
246.807	4.19
247.189	3.14
247.571	4.38
247.953	4.01
248.335	4
248.717	4.41
249.098	4.49
249.48	4.3
249.862	4.17
250.243	4.25
250.625	4.34
251.006	4.2
251.388	4.56
251.769	3.88
252.151	4.62
252.532	3.39
252.913	2.97
253.295	3.32
253.676	4.45
254.057	3.99
254.438	5.25
254.819	4.19
255.2	3.58
255.581	3.73
255.962	3.5
256.343	3.58
256.724	3.4
257.105	3.81
257.486	3.92
257.867	5.15
258.247	4.38
258.628	3.79
259.009	3.28
259.389	3.04
259.77	3.94
260.15	4.76
260.531	4.43
260.911	3.87
261.292	4.03
261.672	4.42
262.052	4.12
262.432	4.07
262.813	4.11
263.193	3.73
263.573	3.46
263.953	3.59
264.333	3.74
264.713	4.19
265.093	4.36
265.473	4.12
265.853	4.17
266.233	4.33
266.612	4.07
266.992	4.01
267.372	3.5
267.752	3.59
268.131	4.15
268.511	4.03
268.89	4.79
269.27	4.15
269.649	3.55
270.029	3.8
270.408	4.34
270.787	4.53
271.167	3.52
271.546	4.5
271.925	4.21
272.304	3.59
272.683	4.37
273.062	3.76
273.441	4.12
273.82	4.17
274.199	4.14
274.578	3.67
274.957	4.2
275.336	4.65
275.715	4.78
276.093	3.69
276.472	4.15
276.851	3.86
277.229	3.85
277.608	4.19
277.986	3.88
278.365	3.99
278.743	3.74
279.122	2.87
279.5	3.68
279.878	3.95
280.257	4.49
280.635	3.89
281.013	3.79
281.391	3.85
281.769	3.96
282.147	3.82
282.525	4
282.903	3.54
283.281	3.75
283.659	4.12
284.037	3.52
284.415	3.22
284.792	3.92
285.17	3.52
285.548	3.88
285.925	3.8
286.303	3.72
286.68	3.77
287.058	4.08
287.435	3.8
287.813	4.08
288.19	3.98
288.567	3.99
288.945	3.86
289.322	4.2
289.699	4.16
290.076	4.04
290.453	3.4
290.83	3.37
291.207	3.93
291.584	3.97
291.961	3.96
292.338	4.15
292.715	3.85
293.092	3.77
293.469	4.47
293.845	3.83
294.222	3.54
294.599	3.73
294.975	3.75
295.352	4.12
295.728	4.28
296.105	3.76
296.481	3.39
296.858	4.02
297.234	4.02
297.61	3.58
297.986	3.96
298.363	3.75
298.739	3.91
299.115	4.07
299.491	4.09
299.867	3.99
300.243	4.07
300.619	3.78
300.995	3.95
301.371	4.37
301.746	3.63
302.122	4.39
302.498	4
302.874	4.69
303.249	3.86
303.625	4.26
304	4.73
304.376	3.99
304.751	3.4
305.127	3.57
305.502	4.19
305.878	4.67
306.253	3.86
306.628	4.02
307.003	4.17
307.378	4.2
307.754	3.76
308.129	3.55
308.504	3.96
308.879	3.79
309.254	3.89
309.629	3.64
310.003	4.04
310.378	3.48
310.753	3.75
311.128	3.49
311.502	3.82
311.877	3.92
312.252	4.27
312.626	3.63
313.001	3.75
313.375	4.12
313.75	4.07
314.124	4.21
314.498	3.97
314.873	3.31
315.247	3.84
315.621	4.37
315.995	4.18
316.369	3.51
316.743	3.48
317.117	4.58
317.491	3.43
317.865	3.7
318.239	3.54
318.613	5.02
318.987	4.53
319.361	3.62
319.734	3.62
320.108	3.85
320.482	4.16
320.855	3.98
321.229	4.38
321.602	4.31
321.976	3.39
322.349	3.77
322.723	3.8
323.096	4.08
323.469	3.92
323.843	4.11
324.216	4.53
324.589	3.87
324.962	3.85
325.335	4.22
325.708	4.65
326.081	3.61
326.454	3.88
326.827	3.59
327.2	3.52
327.573	4.23
327.945	4.36
328.318	3.51
328.691	3.89
329.063	3.77
329.436	4.16
329.809	3.55
330.181	4.71
330.553	4.26
330.926	3.75
331.298	3.52
331.671	3.43
332.043	4.09
332.415	3.66
332.787	3.66
333.159	3.95
333.532	3.77
333.904	3.67
334.276	4.24
334.648	3.69
335.02	3.48
335.391	3.86
335.763	3.55
336.135	3.17
336.507	3.4
336.879	3.86
337.25	3.94
337.622	4.28
337.993	3.55
338.365	3.78
338.736	3.68
339.108	3.89
339.479	4.08
339.851	3.78
340.222	4.38
340.593	3.99
340.964	3.82
341.336	3.49
341.707	3.98
342.078	3.66
342.449	3.97
342.82	3.93
343.191	3.81
343.562	4.16
343.933	3.46
344.303	3.79
344.674	3.7
345.045	3.76
345.416	4.04
345.786	3.76
346.157	3.43
346.527	3.76
346.898	4.46
347.268	3.87
347.639	4.18
348.009	4.05
348.38	4.05
348.75	4.33
349.12	4.15
349.49	3.9
349.861	3.63
350.231	3.99
350.601	4.05
350.971	3.84
351.341	3.51
351.711	4.24
352.081	3.65
352.45	3.88
352.82	3.63
353.19	4.34
353.56	3.73
353.929	4.03
354.299	3.76
354.669	3.53
355.038	4.15
355.408	4.24
355.777	4.25
356.147	3.87
356.516	4.04
356.885	3.86
357.254	3.83
357.624	4.03
357.993	3.79
358.362	4.05
358.731	4.36
359.1	4.46
359.469	4.13
359.838	3.91
360.207	3.69
360.576	4.15
360.945	3.74
361.314	4.39
361.682	3.82
362.051	3.92
362.42	4.26
362.788	4.13
363.157	4
363.525	3.69
363.894	4.02
364.262	3.89
364.631	3.98
364.999	3.73
365.367	4.07
365.735	3.91
366.104	4.19
366.472	3.52
366.84	3.99
367.208	3.79
367.576	3.73
367.944	3.87
368.312	3.98
368.68	3.95
369.048	3.92
369.416	3.93
369.783	3.73
370.151	4.3
370.519	3.84
370.886	4.06
371.254	4.36
371.621	4.19
371.989	3.79
372.356	3.91
372.724	4.04
373.091	4.25
373.458	4.02
373.826	4.33
374.193	3.72
374.56	3.92
374.927	4.15
375.294	3.62
375.661	3.93
376.028	4.31
376.395	3.9
376.762	4.16
377.129	3.94
377.496	3.95
377.863	4
378.229	3.5
378.596	3.98
378.963	3.96
379.329	3.83
379.696	3.87
380.062	4.17
380.429	4.19
380.795	4.28
381.161	4.06
381.528	4.12
381.894	4
382.26	4.03
382.626	3.91
382.993	4.08
383.359	4.2
383.725	4.13
384.091	4.13
384.457	4.13
384.823	4.17
385.188	3.97
385.554	3.95
385.92	4.2
386.286	3.82
386.651	4.01
387.017	4.31
387.383	4.44
387.748	4.16
388.114	4.26
388.479	4.15
388.845	3.75
389.21	4.11
389.575	4.04
389.94	3.87
390.306	4.06
390.671	3.81
391.036	3.99
391.401	3.87
391.766	4
392.131	4.07
392.496	4.05
392.861	4.3
393.226	4.46
393.591	4.52
393.956	4.22
394.32	4.1
394.685	4.22
395.05	4.26
395.414	4.27
395.779	4.11
396.143	4.25
396.508	4.24
396.872	4.42
397.236	4.11
397.601	4.24
397.965	4.5
398.329	4.06
398.694	4.16
399.058	4
399.422	4.28
399.786	4.39
400.15	4.05
400.514	4.2
400.878	4.07
401.242	4.1
401.605	4.4
401.969	4.51
402.333	4.24
402.697	4.19
403.06	4.5
403.424	4.33
403.787	4.11
404.151	4.41
404.514	4.14
404.878	4.46
405.241	4.42
405.604	3.86
405.968	4.23
406.331	4.02
406.694	4.35
407.057	4.23
407.42	4.3
407.783	4.26
408.146	4.33
408.509	3.94
408.872	4.37
409.235	4.21
409.598	4.2
409.961	4.14
410.323	4.47
410.686	4.2
411.049	4.08
411.411	4.23
411.774	4.41
412.136	4.25
412.499	4.23
412.861	4.12
413.223	4.23
413.586	4.27
413.948	4.55
414.31	4.8
414.672	4.22
415.035	4.35
415.397	4.03
415.759	4.44
416.121	4.47
416.483	4.36
416.845	4.36
417.206	4.28
417.568	4.37
417.93	4.44
418.292	4.35
418.653	4.36
419.015	4.39
419.377	4.47
419.738	4.29
420.1	4.4
420.461	4.27
420.822	4.38
421.184	4.21
421.545	4.27
421.906	4.22
422.267	4.42
422.629	4.38
422.99	4.27
423.351	4.4
423.712	4.34
424.073	4.28
424.434	4.22
424.795	4.37
425.155	4.35
425.516	4.23
425.877	4.4
426.238	4.43
426.598	4.3
426.959	4.38
427.32	4.46
427.68	4.43
428.041	4.31
428.401	4.34
428.761	4.49
429.122	4.41
429.482	4.35
429.842	4.52
430.202	4.36
430.563	4.49
430.923	4.65
431.283	4.4
431.643	4.52
432.003	4.73
432.363	4.45
432.722	4.69
433.082	4.35
433.442	4.59
433.802	4.48
434.161	4.73
434.521	4.5
434.881	4.59
435.24	4.74
435.6	4.35
435.959	4.5
436.319	4.42
436.678	4.26
437.037	4.42
437.396	4.39
437.756	4.55
438.115	4.57
438.474	4.45
438.833	4.83
439.192	4.53
439.551	4.46
439.91	4.63
440.269	4.75
440.628	4.58
440.987	4.46
441.345	4.48
441.704	4.42
442.063	4.6
442.421	4.62
442.78	4.61
443.138	4.59
443.497	4.51
443.855	4.63
444.214	4.67
444.572	4.76
444.93	4.54
445.288	4.6
445.647	4.57
446.005	4.57
446.363	4.62
446.721	4.51
447.079	4.67
447.437	4.58
447.795	4.61
448.153	4.52
448.51	4.71
448.868	4.64
449.226	4.57
449.584	4.66
449.941	4.65
450.299	4.74
450.656	4.66
451.014	4.57
451.371	4.66
451.729	4.86
452.086	4.7
452.443	4.6
452.801	4.71
453.158	4.67
453.515	4.69
453.872	4.82
454.229	4.58
454.586	4.6
454.943	4.66
455.3	4.87
455.657	4.75
456.014	4.77
456.371	4.57
456.727	4.62
457.084	4.67
457.441	4.87
457.797	4.5
458.154	4.95
458.51	4.86
458.867	4.99
459.223	4.71
459.58	4.9
459.936	4.88
460.292	4.62
460.648	4.69
461.005	4.73
461.361	4.69
461.717	4.75
462.073	4.69
462.429	4.72
462.785	4.79
463.141	4.78
463.496	4.77
463.852	4.86
464.208	4.57
464.564	4.84
464.919	4.86
465.275	4.88
465.631	4.86
465.986	5.06
466.342	4.94
466.697	4.85
467.052	4.72
467.408	4.71
467.763	4.92
468.118	4.73
468.473	5.01
468.829	4.82
469.184	4.81
469.539	4.97
469.894	4.88
470.249	4.77
470.603	4.99
470.958	5.06
471.313	4.79
471.668	4.9
472.023	4.96
472.377	4.84
472.732	5.13
473.086	5.07
473.441	4.97
473.795	5.12
474.15	4.89
474.504	5.01
474.859	4.94
475.213	5.01
475.567	5.01
475.921	4.9
476.275	4.97
476.63	4.97
476.984	5.03
477.338	4.93
477.692	4.79
478.045	5.04
478.399	4.84
478.753	5.12
479.107	5
479.461	4.95
479.814	5.01
480.168	4.87
480.521	4.87
480.875	5.04
481.228	4.98
481.582	5.03
481.935	5.1
482.289	5.05
482.642	4.76
482.995	4.99
483.348	5.04
483.701	4.96
484.055	4.99
484.408	4.9
484.761	4.89
485.114	4.73
485.466	4.63
485.819	4.71
486.172	4.75
486.525	4.79
486.878	4.85
487.23	4.84
487.583	4.92
487.936	4.96
488.288	4.92
488.641	4.8
488.993	4.83
489.345	4.76
489.698	4.78
490.05	4.77
490.402	4.95
490.754	4.91
491.107	4.99
491.459	5.05
491.811	5.03
492.163	5.02
492.515	4.91
492.866	4.92
493.218	4.82
493.57	4.84
493.922	4.89
494.274	5
494.625	4.83
494.977	5.02
495.328	5.13
495.68	5.03
496.031	5.09
496.383	5.02
496.734	5.13
497.086	5.13
497.437	5.24
497.788	5.04
498.139	5.05
498.49	5.07
498.842	5.09
499.193	5.12
499.544	5.18
499.894	5.05
500.245	5.13
500.596	5.07
500.947	5.06
501.298	5.13
501.648	5.12
501.999	5.25
502.35	5.15
502.7	5.24
503.051	5.1
503.401	5.06
503.752	5.19
504.102	5.35
504.452	5.14
504.803	5.21
505.153	5.15
505.503	5.36
505.853	5.24
506.203	5.23
506.553	5.19
506.903	5.14
507.253	5.15
507.603	5.18
507.953	5.13
508.303	5.33
508.652	5.27
509.002	5.37
509.352	5.24
509.701	5.26
510.051	5.03
510.4	5.29
510.75	5.17
511.099	5.18
511.449	5.13
511.798	5.09
512.147	5.21
512.496	5.27
512.846	5.15
513.195	5.19
513.544	5.21
513.893	5.21
514.242	5.32
514.591	5.13
514.939	5.2
515.288	5.37
515.637	5.31
515.986	5.35
516.334	5.18
516.683	5.33
517.032	5.33
517.38	5.23
517.729	5.16
518.077	5.44
518.426	5.35
518.774	5.28
519.122	5.3
519.47	5.25
519.819	5.22
520.167	5.12
520.515	5.12
520.863	5.19
521.211	5.19
521.559	5.26
521.907	5.31
522.255	5.18
522.602	5.27
522.95	5.21
523.298	5.3
523.645	5.26
523.993	5.36
524.341	5.28
524.688	5.33
525.036	5.32
525.383	5.2
525.73	5.37
526.078	5.32
526.425	5.38
526.772	5.23
527.119	5.18
527.466	5.24
527.814	5.22
528.161	5.32
528.508	5.17
528.854	5.3
529.201	5.21
529.548	5.07
529.895	5.08
530.242	5.02
530.588	5.06
530.935	5.06
531.282	5.12
531.628	5.15
531.975	5.17
532.321	5.22
532.667	5.35
533.014	5.4
533.36	5.29
533.706	5.34
534.052	5.34
534.399	5.36
534.745	5.19
535.091	5.1
535.437	5.26
535.783	5.22
536.129	5.31
536.474	5.36
536.82	5.38
537.166	5.38
537.512	5.33
537.857	5.48
538.203	5.39
538.549	5.25
538.894	5.39
539.239	5.36
539.585	5.4
539.93	5.37
540.276	5.55
540.621	5.31
540.966	5.5
541.311	5.45
541.656	5.43
542.001	5.47
542.346	5.29
542.691	5.17
543.036	5.24
543.381	5.16
543.726	5.31
544.071	5.3
544.415	5.31
544.76	5.39
545.105	5.3
545.449	5.37
545.794	5.4
546.138	5.45
546.483	5.36
546.827	5.42
547.171	5.49
547.516	5.63
547.86	5.35
548.204	5.36
548.548	5.45
548.892	5.39
549.236	5.53
549.58	5.58
549.924	5.56
550.268	5.65
550.612	5.48
550.956	5.52
551.3	5.57
551.643	5.54
551.987	5.69
552.33	5.53
552.674	5.64
553.017	5.48
553.361	5.44
553.704	5.69
554.048	5.47
554.391	5.59
554.734	5.45
555.077	5.5
555.42	5.58
555.764	5.49
556.107	5.86
556.45	5.46
556.793	5.41
557.135	5.62
557.478	5.53
557.821	5.62
558.164	5.63
558.507	5.69
558.849	5.77
559.192	5.45
559.534	5.71
559.877	5.69
560.219	5.74
560.562	5.57
560.904	5.79
561.246	5.43
561.589	5.5
561.931	5.66
562.273	5.74
562.615	5.44
562.957	5.87
563.299	5.63
563.641	5.57
563.983	5.76
564.325	5.59
564.667	5.48
565.008	5.59
565.35	5.73
565.692	5.68
566.033	5.54
566.375	5.54
566.716	5.67
567.058	5.62
567.399	5.82
567.741	5.61
568.082	5.69
568.423	5.49
568.764	5.67
569.105	5.48
569.447	5.77
569.788	5.73
570.129	5.61
570.47	5.61
570.811	5.73
571.151	5.72
571.492	5.55
571.833	5.71
572.174	5.71
572.514	5.74
572.855	5.73
573.195	5.6
573.536	5.89
573.876	5.67
574.217	5.7
574.557	5.57
574.898	5.86
575.238	5.59
575.578	5.85
575.918	5.68
576.258	5.72
576.598	5.7
576.938	5.77
577.278	5.63
577.618	5.63
577.958	5.76
578.298	5.76
578.638	5.78
578.977	5.79
579.317	5.77
579.657	5.71
579.996	5.92
580.336	5.82
580.675	5.86
581.014	5.86
581.354	5.54
581.693	5.92
582.032	5.94
582.372	5.89
582.711	5.8
583.05	5.93
583.389	5.83
583.728	5.32
584.067	5.72
584.406	5.58
584.745	5.8
585.083	5.65
585.422	5.94
585.761	6.01
586.1	5.86
586.438	5.99
586.777	5.95
587.115	5.88
587.454	5.72
587.792	5.71
588.13	5.85
588.469	5.76
588.807	6.05
589.145	5.97
589.483	5.97
589.821	5.65
590.159	5.8
590.497	5.65
590.835	5.77
591.173	5.95
591.511	5.88
591.849	5.86
592.187	5.74
592.524	5.58
592.862	5.79
593.2	6.06
593.537	5.62
593.875	5.89
594.212	5.66
594.55	5.85
594.887	6.28
595.224	5.76
595.561	5.64
595.899	6.08
596.236	5.87
596.573	5.82
596.91	5.87
597.247	5.95
597.584	6.05
597.921	5.53
598.258	5.76
598.594	5.81
598.931	6.02
599.268	5.71
599.604	5.93
599.941	5.83
600.277	6.01
600.614	6.13
600.95	6.08
601.287	5.98
601.623	5.98
601.959	5.77
602.296	5.76
602.632	5.95
602.968	5.67
603.304	6.12
603.64	5.93
603.976	5.9
604.312	6.03
604.648	5.98
604.984	5.93
605.319	6.05
605.655	6.12
605.991	5.85
606.326	5.97
606.662	5.93
606.998	5.71
607.333	5.81
607.668	6.33
608.004	6
608.339	5.93
608.674	5.96
609.01	6.01
609.345	6.02
609.68	5.75
610.015	5.91
610.35	5.87
610.685	6.34
611.02	5.79
611.355	6.03
611.689	5.95
612.024	6.04
612.359	6.05
612.694	6.13
613.028	5.93
613.363	5.95
613.697	6.1
614.032	6.25
614.366	6.13
614.7	5.97
615.035	6.1
615.369	5.86
615.703	6.19
616.037	6.29
616.371	6.26
616.705	6.15
617.039	6.27
617.373	6.24
617.707	6.07
618.041	5.98
618.375	6.03
618.709	5.79
619.042	5.71
619.376	5.67
619.71	6
620.043	5.89
620.377	6.39
620.71	6.04
621.043	6.02
621.377	5.74
621.71	6.04
622.043	6.12
622.376	5.86
622.709	6.38
623.043	6.45
623.376	6.32
623.709	5.74
624.041	5.99
624.374	6.04
624.707	5.79
625.04	5.96
625.373	6.07
625.705	5.92
626.038	6.21
626.37	5.8
626.703	6.17
627.035	6.1
627.368	5.94
627.7	6.21
628.032	6.19
628.365	6.19
628.697	5.84
629.029	6.22
629.361	6.04
629.693	5.88
630.025	6.13
630.357	6.37
630.689	6.22
631.021	6.44
631.353	6.05
631.684	6.02
632.016	6.11
632.348	6.25
632.679	6.32
633.011	6.47
633.342	5.63
633.674	5.79
634.005	6.49
634.336	6.02
634.668	6.31
634.999	6.33
635.33	6.01
635.661	6.16
635.992	5.78
636.323	6.46
636.654	6.47
636.985	6.32
637.316	6.06
637.647	6.57
637.977	6.1
638.308	6.32
638.639	6.26
638.969	6.24
639.3	6.14
639.63	6.33
639.961	6.87
640.291	5.85
640.622	6.33
640.952	5.84
641.282	6.47
641.612	6.27
641.943	6.49
642.273	6.57
642.603	6.05
642.933	6.35
643.263	6.57
643.592	6.79
643.922	6.82
644.252	5.8
644.582	6.57
644.911	5.89
645.241	6.24
645.571	6.13
645.9	6.03
646.23	6.47
646.559	6.26
646.888	6.26
647.218	6.31
647.547	6.41
647.876	6.41
648.205	6.15
648.534	5.76
648.863	6.61
649.192	6.05
649.521	6.63
649.85	6.35
650.179	5.98
650.508	6.21
650.837	6.35
651.165	6.49
651.494	6.18
651.822	5.98
652.151	6.54
652.479	5.88
652.808	6.52
653.136	5.65
653.465	6.29
653.793	6.2
654.121	6.25
654.449	6.24
654.777	6.27
655.105	5.74
655.433	5.95
655.761	6.6
656.089	5.78
656.417	6.23
656.745	6.86
657.073	6.02
657.4	6.54
657.728	6.89
658.056	6.58
658.383	6.03
658.711	5.86
659.038	6.15
659.365	6.31
659.693	6.31
660.02	5.88
660.347	6.56
660.674	6.15
661.001	5.92
661.329	6.43
661.656	6.38
661.982	6.36
662.309	6.67
662.636	6.63
662.963	6.26
663.29	6.17
663.616	6.98
663.943	6.11
664.27	6.94
664.596	6.72
664.923	6.49
665.249	5.97
665.576	6.37
665.902	6.41
666.228	6.33
666.554	6.31
666.881	6.99
667.207	6.67
667.533	5.72
667.859	6.49
668.185	6.54
668.511	6.16
668.837	6.45
669.162	6.09
669.488	6.53
669.814	6.41
670.139	5.72
670.465	6.47
670.791	6.36
671.116	6.76
671.442	6.25
671.767	5.94
672.092	6.47
672.418	6.56
672.743	6.19
673.068	6.86
673.393	6.75
673.718	6.49
674.043	6.73
674.368	7.2
674.693	6.43
675.018	6.96
675.343	6.76
675.667	5.84
675.992	7.75
676.317	6.57
676.641	5.44
676.966	7
677.29	6.18
677.615	6.51
677.939	5.8
678.264	7.9
678.588	6.68
678.912	6.53
679.236	6.43
679.56	7.05
679.885	6.99
680.209	6.54
680.532	6.97
680.856	6.48
681.18	6.46
681.504	6.29
681.828	6.56
682.152	6.62
682.475	6.95
682.799	6.52
683.122	7.03
683.446	6.56
683.769	6.89
684.093	6.64
684.416	6.73
684.739	6.79
685.062	6.45
685.386	6.8
685.709	5.84
686.032	6.43
686.355	7.21
686.678	7.02
687.001	6.27
687.324	6.35
687.646	6.73
687.969	6.56
688.292	6.98
688.614	6.3
688.937	6.79
689.26	7.2
689.582	6.86
689.904	6.91
690.227	6.59
690.549	6.54
690.871	6.6
691.194	5.8
691.516	7.18
691.838	6.32
