Data from 20-51_chest_Reflection__3__48.txt Node

Date: Thu Feb 29 22:16:38 CST 2024
User: ToomeyLab
Spectrometer: FLMS14357
Trigger mode: 0
Integration Time (sec): 1.000000E-2
Scans to average: 100
Electric dark correction enabled: true
Nonlinearity correction enabled: false
Boxcar width: 0
XAxis mode: Wavelengths
Number of Pixels in Spectrum: 2048
>>>>>Begin Spectral Data<<<<<
189.047	70.56
189.435	70.56
189.823	70.56
190.211	22.31
190.599	-608.18
190.987	40.47
191.375	-141
191.763	38.42
192.151	-1278.95
192.538	96.19
192.926	222.54
193.314	239.19
193.702	110.55
194.089	136.32
194.477	127.64
194.864	69.59
195.252	2.95
195.639	-207.23
196.027	60.88
196.414	51.8
196.801	-156.26
197.189	116.99
197.576	416.46
197.963	203.21
198.351	-16.7
198.738	40.77
199.125	-29.52
199.512	-1.25
199.899	-69.55
200.286	-77.36
200.673	64.11
201.06	-31.54
201.447	-36.26
201.833	6.35
202.22	-34.5
202.607	-54.49
202.994	-80.73
203.38	-5.32
203.767	11.16
204.154	31.14
204.54	3.14
204.927	33.35
205.313	37.08
205.699	-38.71
206.086	5.28
206.472	50.43
206.858	-29.26
207.245	-13.75
207.631	-23.52
208.017	3.94
208.403	-34.99
208.789	13.84
209.175	-46.78
209.561	9.97
209.947	37.01
210.333	7.33
210.719	24.98
211.105	-38.37
211.491	-22.85
211.876	17.74
212.262	38.89
212.648	31.35
213.034	10.8
213.419	-0.13
213.805	-8.9
214.19	-1.95
214.576	-24.01
214.961	-4.11
215.346	12.57
215.732	9.98
216.117	-44.33
216.502	-10.13
216.888	-84.32
217.273	-14.83
217.658	17.26
218.043	-5.62
218.428	-13.48
218.813	-10.64
219.198	18.14
219.583	5.83
219.968	-12.44
220.353	-4.69
220.738	-17.61
221.122	-6.98
221.507	9.44
221.892	3.39
222.276	16.64
222.661	-3.07
223.046	13.81
223.43	-9.77
223.815	-8.22
224.199	-4.13
224.583	0.6
224.968	0.44
225.352	5.65
225.736	2.21
226.121	2.98
226.505	7.69
226.889	7.65
227.273	0.89
227.657	-6.3
228.041	3.24
228.425	1.07
228.809	7.92
229.193	0.99
229.577	3.23
229.961	1.55
230.344	1.86
230.728	2.61
231.112	3.12
231.495	2.43
231.879	3.12
232.263	0.47
232.646	4.25
233.03	2.78
233.413	3.26
233.797	1.63
234.18	0.3
234.563	0.94
234.946	3.35
235.33	3.03
235.713	3.03
236.096	3.71
236.479	4.26
236.862	2.25
237.245	1.88
237.628	4.54
238.011	3.94
238.394	1.1
238.777	1.91
239.16	3.2
239.543	3.3
239.925	4.41
240.308	5.48
240.691	6.12
241.073	3.23
241.456	3.2
241.838	3.22
242.221	3.08
242.603	3.79
242.986	4.79
243.368	3.22
243.75	4.47
244.133	3.01
244.515	3.42
244.897	3.57
245.279	4.23
245.661	3.13
246.043	2.53
246.425	4.75
246.807	4.41
247.189	3.41
247.571	3.91
247.953	3.83
248.335	3.41
248.717	3.66
249.098	3.84
249.48	3.76
249.862	3.79
250.243	3.57
250.625	3.66
251.006	3.89
251.388	4.63
251.769	2.8
252.151	4.89
252.532	3.32
252.913	3.9
253.295	3.44
253.676	3.87
254.057	3.43
254.438	4.35
254.819	4.08
255.2	1.88
255.581	3.42
255.962	3.8
256.343	4.82
256.724	3.76
257.105	4.49
257.486	4.25
257.867	4.22
258.247	4.11
258.628	3.42
259.009	3.07
259.389	3.44
259.77	4.02
260.15	3.9
260.531	3.59
260.911	3.58
261.292	3.72
261.672	3.89
262.052	3.83
262.432	3.84
262.813	3.86
263.193	4.1
263.573	3.9
263.953	3.56
264.333	4.08
264.713	3.63
265.093	4.32
265.473	4.66
265.853	4.59
266.233	3.12
266.612	3.89
266.992	3.28
267.372	3.43
267.752	3.46
268.131	4.07
268.511	4.19
268.89	4.39
269.27	4.28
269.649	4.05
270.029	3.71
270.408	3.79
270.787	4.12
271.167	4.24
271.546	4.02
271.925	3.88
272.304	3.61
272.683	3.89
273.062	3.93
273.441	3.75
273.82	3.81
274.199	3.91
274.578	3.51
274.957	3.86
275.336	4.16
275.715	3.98
276.093	3.23
276.472	4.14
276.851	3.41
277.229	3.35
277.608	4.14
277.986	3.65
278.365	4.04
278.743	4.11
279.122	3.21
279.5	3.21
279.878	3.55
280.257	3.94
280.635	3.87
281.013	3.77
281.391	2.9
281.769	3.95
282.147	4.13
282.525	4.43
282.903	3.51
283.281	3.77
283.659	4.02
284.037	3.31
284.415	3.38
284.792	3.52
285.17	3.43
285.548	4.11
285.925	4.19
286.303	4.06
286.68	3.29
287.058	4.14
287.435	3.75
287.813	3.7
288.19	3.83
288.567	3.79
288.945	4.49
289.322	4.28
289.699	3.71
290.076	4.39
290.453	3.14
290.83	3.75
291.207	3.83
291.584	3.97
291.961	3.92
292.338	4.21
292.715	3.87
293.092	4.36
293.469	4.52
293.845	4.45
294.222	3.71
294.599	3.53
294.975	4.41
295.352	4.66
295.728	4.34
296.105	4.57
296.481	4.27
296.858	4.35
297.234	4.01
297.61	4.65
297.986	4.56
298.363	4.6
298.739	4.57
299.115	5.02
299.491	4.36
299.867	4.76
300.243	4.25
300.619	4.61
300.995	4.28
301.371	4.22
301.746	4.15
302.122	4.75
302.498	4.42
302.874	4.99
303.249	4.22
303.625	4.79
304	4.81
304.376	4.48
304.751	3.73
305.127	4.81
305.502	4.75
305.878	4.67
306.253	4.06
306.628	4.79
307.003	5.07
307.378	4.67
307.754	5.25
308.129	4.68
308.504	5.52
308.879	4.21
309.254	4.71
309.629	4.44
310.003	4.61
310.378	4.56
310.753	4.3
311.128	4.67
311.502	5.24
311.877	4.83
312.252	4.9
312.626	5.14
313.001	4.73
313.375	5.09
313.75	4.89
314.124	4.81
314.498	4.89
314.873	4.85
315.247	4.44
315.621	5.28
315.995	5.08
316.369	5.09
316.743	4.43
317.117	4.75
317.491	4.57
317.865	5.01
318.239	4.39
318.613	6.01
318.987	5.68
319.361	4.31
319.734	5.89
320.108	5.42
320.482	4.84
320.855	5.6
321.229	4.94
321.602	5.48
321.976	4.99
322.349	4.95
322.723	5.56
323.096	5.49
323.469	4.96
323.843	5.05
324.216	5.23
324.589	4.68
324.962	4.81
325.335	4.75
325.708	5.81
326.081	4.65
326.454	5.47
326.827	5.24
327.2	5.95
327.573	4.56
327.945	5.47
328.318	4.97
328.691	5.34
329.063	4.77
329.436	5.69
329.809	4.8
330.181	5.13
330.553	4.87
330.926	5.01
331.298	5.48
331.671	5.12
332.043	5.38
332.415	4.99
332.787	4.76
333.159	5.2
333.532	4.7
333.904	4.99
334.276	5.37
334.648	4.8
335.02	4.92
335.391	4.69
335.763	5.02
336.135	4.08
336.507	4.46
336.879	5.36
337.25	5.25
337.622	5.27
337.993	5.25
338.365	5.05
338.736	4.81
339.108	5.55
339.479	5.01
339.851	5.49
340.222	5.35
340.593	5
340.964	5.12
341.336	4.86
341.707	4.74
342.078	4.78
342.449	5.31
342.82	5.03
343.191	5.05
343.562	4.75
343.933	5.23
344.303	5.56
344.674	5.28
345.045	5.12
345.416	4.7
345.786	5.44
346.157	5.05
346.527	5.15
346.898	5.67
347.268	4.85
347.639	5.14
348.009	5.26
348.38	5.36
348.75	5.36
349.12	5.36
349.49	5.27
349.861	5.34
350.231	5.43
350.601	5.76
350.971	5.11
351.341	5.61
351.711	5.46
352.081	5.62
352.45	4.87
352.82	4.73
353.19	6.13
353.56	5.3
353.929	5.26
354.299	5.16
354.669	4.95
355.038	5.29
355.408	5.48
355.777	5.29
356.147	5.27
356.516	5.25
356.885	5.46
357.254	5.3
357.624	5.35
357.993	5.35
358.362	5.33
358.731	5.19
359.1	5.72
359.469	5.51
359.838	5.07
360.207	5.2
360.576	5.73
360.945	5.02
361.314	5.6
361.682	5.29
362.051	5.36
362.42	5.43
362.788	5.21
363.157	5.06
363.525	5.23
363.894	5.34
364.262	5.22
364.631	5.47
364.999	4.96
365.367	5.23
365.735	5.18
366.104	5.43
366.472	5.08
366.84	5.36
367.208	5.59
367.576	5.43
367.944	4.94
368.312	5.65
368.68	5.35
369.048	5.34
369.416	5.63
369.783	5.65
370.151	5.41
370.519	5.59
370.886	5.27
371.254	6.14
371.621	5.69
371.989	5.27
372.356	5.14
372.724	5.39
373.091	5.2
373.458	5.4
373.826	5.72
374.193	5.47
374.56	5.4
374.927	5.86
375.294	5.43
375.661	5.53
376.028	5.69
376.395	5.66
376.762	6.07
377.129	5.31
377.496	5.59
377.863	5.47
378.229	5.26
378.596	5.21
378.963	5.52
379.329	5.46
379.696	5.44
380.062	5.54
380.429	5.48
380.795	5.72
381.161	5.57
381.528	5.8
381.894	5
382.26	5.11
382.626	5.46
382.993	5.53
383.359	5.38
383.725	5.24
384.091	5.59
384.457	5.49
384.823	5.59
385.188	5.1
385.554	5.02
385.92	5.62
386.286	5.3
386.651	5.41
387.017	5.43
387.383	5.5
387.748	5.59
388.114	5.49
388.479	5.56
388.845	5.26
389.21	5.19
389.575	5.56
389.94	5.54
390.306	5.29
390.671	5.35
391.036	5.4
391.401	5.52
391.766	5.4
392.131	5.3
392.496	5.32
392.861	5.37
393.226	5.6
393.591	5.74
393.956	5.51
394.32	5.44
394.685	5.61
395.05	5.53
395.414	5.53
395.779	5.53
396.143	5.72
396.508	5.27
396.872	5.7
397.236	5.38
397.601	5.37
397.965	5.59
398.329	5.4
398.694	5.48
399.058	5.67
399.422	5.28
399.786	5.74
400.15	5.14
400.514	5.26
400.878	5.2
401.242	5.2
401.605	5.27
401.969	5.74
402.333	5.22
402.697	5.36
403.06	5.54
403.424	5.54
403.787	4.96
404.151	5.39
404.514	5.52
404.878	5.43
405.241	5.78
405.604	5.29
405.968	5.35
406.331	5.3
406.694	5.15
407.057	5.24
407.42	5.18
407.783	5.07
408.146	5.43
408.509	5.16
408.872	5.38
409.235	5.19
409.598	5.36
409.961	5.37
410.323	5.43
410.686	5.23
411.049	4.99
411.411	5.32
411.774	5.38
412.136	5.22
412.499	5.26
412.861	5.4
413.223	5.28
413.586	5.36
413.948	5.35
414.31	5.22
414.672	5.27
415.035	5.44
415.397	4.93
415.759	5.25
416.121	5.46
416.483	5.46
416.845	5.11
417.206	5.35
417.568	5.39
417.93	5.3
418.292	5.35
418.653	5.4
419.015	5.42
419.377	5.38
419.738	5.27
420.1	5.28
420.461	5.33
420.822	5.17
421.184	5.31
421.545	5.37
421.906	5.27
422.267	5.37
422.629	5.21
422.99	5.33
423.351	5.33
423.712	5.38
424.073	5.21
424.434	5.27
424.795	5.28
425.155	5.33
425.516	5.4
425.877	5.36
426.238	5.32
426.598	5.36
426.959	5.44
427.32	5.41
427.68	5.38
428.041	5.3
428.401	5.51
428.761	5.42
429.122	5.53
429.482	5.24
429.842	5.7
430.202	5.51
430.563	5.51
430.923	5.79
431.283	5.59
431.643	5.65
432.003	5.82
432.363	5.5
432.722	5.79
433.082	5.5
433.442	5.6
433.802	5.71
434.161	5.91
434.521	5.6
434.881	5.7
435.24	5.8
435.6	5.5
435.959	5.75
436.319	5.68
436.678	5.57
437.037	5.67
437.396	5.59
437.756	5.88
438.115	5.68
438.474	5.61
438.833	5.78
439.192	5.69
439.551	5.74
439.91	5.83
440.269	5.8
440.628	5.84
440.987	5.76
441.345	5.78
441.704	5.67
442.063	5.73
442.421	5.73
442.78	5.59
443.138	5.62
443.497	5.77
443.855	5.85
444.214	5.88
444.572	5.89
444.93	5.63
445.288	5.9
445.647	5.86
446.005	5.78
446.363	5.75
446.721	5.86
447.079	5.9
447.437	5.83
447.795	5.88
448.153	5.83
448.51	5.83
448.868	5.79
449.226	5.9
449.584	5.69
449.941	5.9
450.299	5.99
450.656	5.92
451.014	5.89
451.371	5.94
451.729	6.13
452.086	5.93
452.443	5.94
452.801	6.07
453.158	6.07
453.515	5.95
453.872	6.11
454.229	5.98
454.586	6.13
454.943	6.02
455.3	6.06
455.657	5.9
456.014	5.92
456.371	6.05
456.727	6
457.084	6.12
457.441	6.25
457.797	5.92
458.154	6.22
458.51	6.26
458.867	6.38
459.223	6.14
459.58	6.16
459.936	6.06
460.292	5.84
460.648	5.98
461.005	6.03
461.361	6.06
461.717	6.04
462.073	5.95
462.429	6.14
462.785	6.19
463.141	6.25
463.496	6.14
463.852	6.13
464.208	6.06
464.564	6.18
464.919	6.31
465.275	6.15
465.631	6.31
465.986	6.27
466.342	6.18
466.697	6.22
467.052	6.22
467.408	6.12
467.763	6.36
468.118	6.38
468.473	6.34
468.829	6.34
469.184	6.24
469.539	6.4
469.894	6.31
470.249	6.34
470.603	6.25
470.958	6.47
471.313	6.28
471.668	6.18
472.023	6.4
472.377	6.1
472.732	6.47
473.086	6.31
473.441	6.41
473.795	6.43
474.15	6.26
474.504	6.32
474.859	6.27
475.213	6.29
475.567	6.42
475.921	6.45
476.275	6.31
476.63	6.48
476.984	6.43
477.338	6.38
477.692	6.38
478.045	6.22
478.399	6.17
478.753	6.35
479.107	6.54
479.461	6.37
479.814	6.5
480.168	6.3
480.521	6.37
480.875	6.38
481.228	6.41
481.582	6.46
481.935	6.59
482.289	6.46
482.642	6.39
482.995	6.29
483.348	6.3
483.701	6.22
484.055	6.24
484.408	6.25
484.761	6.26
485.114	6.08
485.466	5.95
485.819	6
486.172	6.05
486.525	6.11
486.878	6.22
487.23	6.22
487.583	6.26
487.936	6.34
488.288	6.23
488.641	6.26
488.993	6.2
489.345	6.2
489.698	6.15
490.05	6.16
490.402	6.27
490.754	6.35
491.107	6.34
491.459	6.32
491.811	6.39
492.163	6.44
492.515	6.35
492.866	6.34
493.218	6.24
493.57	6.27
493.922	6.32
494.274	6.26
494.625	6.37
494.977	6.5
495.328	6.51
495.68	6.61
496.031	6.56
496.383	6.65
496.734	6.69
497.086	6.63
497.437	6.78
497.788	6.61
498.139	6.54
498.49	6.73
498.842	6.63
499.193	6.71
499.544	6.73
499.894	6.56
500.245	6.62
500.596	6.63
500.947	6.54
501.298	6.76
501.648	6.69
501.999	6.79
502.35	6.67
502.7	6.68
503.051	6.79
503.401	6.86
503.752	6.76
504.102	6.83
504.452	6.82
504.803	6.59
505.153	6.59
505.503	6.89
505.853	6.98
506.203	6.78
506.553	6.72
506.903	6.61
507.253	6.92
507.603	6.73
507.953	6.7
508.303	6.7
508.652	6.86
509.002	7.01
509.352	6.76
509.701	6.89
510.051	6.78
510.4	6.86
510.75	6.77
511.099	6.73
511.449	6.8
511.798	6.68
512.147	6.81
512.496	6.89
512.846	6.72
513.195	6.76
513.544	6.77
513.893	6.85
514.242	6.84
514.591	6.84
514.939	6.92
515.288	6.96
515.637	6.86
515.986	6.78
516.334	6.87
516.683	6.88
517.032	6.95
517.38	6.95
517.729	7.06
518.077	6.94
518.426	6.87
518.774	6.89
519.122	7.03
519.47	7.02
519.819	6.92
520.167	6.86
520.515	6.87
520.863	6.73
521.211	6.86
521.559	6.95
521.907	7.02
522.255	6.83
522.602	6.85
522.95	6.88
523.298	7.01
523.645	6.9
523.993	7.19
524.341	7.01
524.688	6.98
525.036	7.16
525.383	7.09
525.73	7.2
526.078	7.15
526.425	7.08
526.772	6.99
527.119	7.04
527.466	6.96
527.814	6.91
528.161	7.04
528.508	6.99
528.854	7.04
529.201	6.98
529.548	6.79
529.895	6.73
530.242	6.69
530.588	6.71
530.935	6.77
531.282	6.9
531.628	6.87
531.975	6.9
532.321	6.99
532.667	7.1
533.014	7.19
533.36	7.13
533.706	7.15
534.052	7.1
534.399	7.16
534.745	7.02
535.091	6.92
535.437	7.07
535.783	7.04
536.129	7.11
536.474	7.17
536.82	7.16
537.166	7.25
537.512	7.16
537.857	7.3
538.203	7.24
538.549	7.16
538.894	7.24
539.239	7.31
539.585	7.35
539.93	7.29
540.276	7.38
540.621	7.34
540.966	7.45
541.311	7.28
541.656	7.26
542.001	7.35
542.346	7.34
542.691	7.15
543.036	7.14
543.381	7.13
543.726	7.27
544.071	7.2
544.415	7.35
544.76	7.31
545.105	7.31
545.449	7.25
545.794	7.39
546.138	7.57
546.483	7.5
546.827	7.54
547.171	7.5
547.516	7.61
547.86	7.55
548.204	7.46
548.548	7.52
548.892	7.59
549.236	7.57
549.58	7.73
549.924	7.64
550.268	7.69
550.612	7.83
550.956	7.75
551.3	7.85
551.643	7.9
551.987	7.91
552.33	7.8
552.674	7.95
553.017	7.81
553.361	7.7
553.704	8
554.048	7.78
554.391	7.91
554.734	7.87
555.077	7.95
555.42	7.83
555.764	7.92
556.107	8.28
556.45	8.02
556.793	7.91
557.135	8.2
557.478	8.22
557.821	8.18
558.164	8.24
558.507	8.26
558.849	8.18
559.192	8.08
559.534	8.16
559.877	8.12
560.219	8.34
560.562	8.09
560.904	8.26
561.246	8.09
561.589	8.45
561.931	8.23
562.273	8.4
562.615	8.5
562.957	8.43
563.299	8.42
563.641	8.28
563.983	8.49
564.325	8.38
564.667	8.53
565.008	8.67
565.35	8.72
565.692	8.45
566.033	8.6
566.375	8.32
566.716	8.44
567.058	8.46
567.399	8.6
567.741	8.56
568.082	8.5
568.423	8.53
568.764	8.57
569.105	8.35
569.447	8.85
569.788	8.73
570.129	8.78
570.47	8.75
570.811	8.61
571.151	8.93
571.492	8.76
571.833	8.77
572.174	8.75
572.514	8.62
572.855	8.9
573.195	8.99
573.536	9
573.876	8.9
574.217	8.82
574.557	8.79
574.898	8.97
575.238	8.81
575.578	9.1
575.918	8.9
576.258	9
576.598	9.08
576.938	9.05
577.278	8.84
577.618	9.05
577.958	9.01
578.298	9.17
578.638	8.99
578.977	9.09
579.317	9.31
579.657	9.3
579.996	9.29
580.336	9.61
580.675	9.64
581.014	9.73
581.354	9.17
581.693	9.51
582.032	9.5
582.372	9.57
582.711	9.73
583.05	9.57
583.389	9.54
583.728	9.51
584.067	9.56
584.406	9.55
584.745	9.39
585.083	9.4
585.422	9.68
585.761	9.78
586.1	10.01
586.438	9.54
586.777	9.78
587.115	9.65
587.454	9.7
587.792	9.88
588.13	10.2
588.469	9.74
588.807	9.77
589.145	10.23
589.483	10.08
589.821	9.66
590.159	9.91
590.497	10.02
590.835	10.11
591.173	10.26
591.511	10.02
591.849	10.15
592.187	10.07
592.524	10.19
592.862	10.1
593.2	10.09
593.537	10.18
593.875	10.35
594.212	10.09
594.55	10.41
594.887	10.54
595.224	10.07
595.561	10.59
595.899	10.4
596.236	10.26
596.573	10.32
596.91	10.24
597.247	10.78
597.584	10.47
597.921	10.33
598.258	10.36
598.594	10.52
598.931	10.63
599.268	10.33
599.604	10.58
599.941	10.68
600.277	10.96
600.614	10.68
600.95	10.85
601.287	10.98
601.623	10.93
601.959	10.99
602.296	11
602.632	10.94
602.968	11.04
603.304	11.16
603.64	11.01
603.976	11.32
604.312	11.22
604.648	11.19
604.984	11.01
605.319	11.49
605.655	11.13
605.991	10.9
606.326	11.2
606.662	11.33
606.998	11.04
607.333	11.14
607.668	11.21
608.004	11.18
608.339	11.28
608.674	11.21
609.01	11.45
609.345	11.42
609.68	11.5
610.015	11.61
610.35	11.55
610.685	11.63
611.02	11.52
611.355	11.57
611.689	11.57
612.024	11.47
612.359	11.53
612.694	12.01
613.028	11.61
613.363	11.96
613.697	12.02
614.032	12.06
614.366	11.81
614.7	11.98
615.035	12.02
615.369	11.89
615.703	11.82
616.037	12.38
616.371	12.22
616.705	12.37
617.039	12.31
617.373	12.17
617.707	12.35
618.041	12.24
618.375	12.59
618.709	12.21
619.042	12.19
619.376	12.22
619.71	12.15
620.043	12.39
620.377	12.93
620.71	12.45
621.043	13
621.377	12.63
621.71	12.89
622.043	12.82
622.376	12.73
622.709	13.08
623.043	13.25
623.376	13.34
623.709	12.95
624.041	12.98
624.374	12.77
624.707	13.02
625.04	13.3
625.373	12.73
625.705	13.01
626.038	13.12
626.37	13
626.703	13.2
627.035	13.64
627.368	13.08
627.7	13.61
628.032	13.45
628.365	13.55
628.697	13.16
629.029	13.3
629.361	13.37
629.693	13.51
630.025	13.45
630.357	13.61
630.689	13.61
631.021	13.61
631.353	13.85
631.684	13.5
632.016	13.46
632.348	13.91
632.679	14.09
633.011	14.41
633.342	13.67
633.674	13.85
634.005	14
634.336	13.96
634.668	14.17
634.999	14.17
635.33	13.94
635.661	13.75
635.992	13.64
636.323	14.05
636.654	14.2
636.985	14.49
637.316	14.04
637.647	14.23
637.977	14.45
638.308	14.31
638.639	14.65
638.969	14.69
639.3	14.8
639.63	14.97
639.961	15.01
640.291	14.6
640.622	14.55
640.952	14.35
641.282	14.71
641.612	15.09
641.943	15.32
642.273	15.5
642.603	14.83
642.933	15.05
643.263	15.61
643.592	15.1
643.922	14.8
644.252	15.28
644.582	15.07
644.911	16.03
645.241	15.09
645.571	15.38
645.9	15.45
646.23	15.49
646.559	15.4
646.888	15.39
647.218	15.26
647.547	16.05
647.876	15.53
648.205	15.65
648.534	15.34
648.863	15.91
649.192	15.68
649.521	15.34
649.85	16.22
650.179	15.9
650.508	16.12
650.837	15.9
651.165	15.81
651.494	16.58
651.822	15.85
652.151	16.43
652.479	16.11
652.808	15.95
653.136	15.78
653.465	16.22
653.793	16.35
654.121	15.96
654.449	16.59
654.777	16.56
655.105	16.42
655.433	16.01
655.761	16.92
656.089	16.47
656.417	15.98
656.745	16.63
657.073	16.56
657.4	16.41
657.728	17.62
658.056	16.78
658.383	16.53
658.711	17.18
659.038	16.42
659.365	16.47
659.693	16.64
660.02	16.17
660.347	17.33
660.674	17.01
661.001	16.72
661.329	16.96
661.656	16.87
661.982	16.98
662.309	17.61
662.636	17.5
662.963	17.53
663.29	17.67
663.616	18.1
663.943	17.61
664.27	17.35
664.596	17.62
664.923	17.87
665.249	17.32
665.576	17.73
665.902	17.81
666.228	18.07
666.554	17.56
666.881	17.67
667.207	18.1
667.533	17.78
667.859	18.43
668.185	18.23
668.511	18.22
668.837	18.35
669.162	17.27
669.488	18.06
669.814	18.61
670.139	17.71
670.465	18.06
670.791	17.91
671.116	18.16
671.442	17.61
671.767	18.32
672.092	18.81
672.418	18.6
672.743	18.45
673.068	18.96
673.393	18.76
673.718	19.15
674.043	19.31
674.368	19.45
674.693	19.72
675.018	18.79
675.343	19.54
675.667	19.48
675.992	19.31
676.317	18.91
676.641	18.82
676.966	19.23
677.29	19.02
677.615	20
677.939	19.91
678.264	20.13
678.588	19.08
678.912	19.89
679.236	19.38
679.56	19.2
679.885	20.41
680.209	19.32
680.532	19.97
680.856	20.44
681.18	19.92
681.504	20.12
681.828	19.5
682.152	19.84
682.475	19.85
682.799	19.89
683.122	19.79
683.446	20.78
683.769	20.38
684.093	20.39
684.416	19.93
684.739	20.24
685.062	20.11
685.386	20.62
685.709	20.56
