Data from 20-51_chest_Reflection__0__45.txt Node

Date: Thu Feb 29 22:16:00 CST 2024
User: ToomeyLab
Spectrometer: FLMS14357
Trigger mode: 0
Integration Time (sec): 1.000000E-2
Scans to average: 100
Electric dark correction enabled: true
Nonlinearity correction enabled: false
Boxcar width: 0
XAxis mode: Wavelengths
Number of Pixels in Spectrum: 2048
>>>>>Begin Spectral Data<<<<<
189.047	215.43
189.435	215.43
189.823	215.43
190.211	-5.93
190.599	-856.6
190.987	567.63
191.375	-343.5
191.763	-280.41
192.151	-2298.25
192.538	-28.88
192.926	73.86
193.314	-58.12
193.702	-107.82
194.089	154.16
194.477	-131.71
194.864	-12.99
195.252	46.2
195.639	-442.31
196.027	-8.93
196.414	62.48
196.801	101.2
197.189	56.27
197.576	-2.53
197.963	848.4
198.351	-9.04
198.738	-3.61
199.125	-40.5
199.512	-34.51
199.899	-75.48
200.286	-80.15
200.673	25.6
201.06	-27.37
201.447	-55.23
201.833	21.44
202.22	-30.98
202.607	-98.54
202.994	-80.51
203.38	-7.2
203.767	159.2
204.154	10.05
204.54	29.54
204.927	-13.14
205.313	14.2
205.699	-68.73
206.086	-34.2
206.472	-2.01
206.858	-4.2
207.245	-18.19
207.631	-4.29
208.017	17.12
208.403	-128.03
208.789	15.6
209.175	-51.57
209.561	26.84
209.947	-23.85
210.333	-12.86
210.719	11
211.105	-63.6
211.491	-46.73
211.876	-24.45
212.262	11.94
212.648	-62.88
213.034	-28.95
213.419	-43.53
213.805	-20.79
214.19	-9.29
214.576	-50.9
214.961	9.26
215.346	-9.17
215.732	8.76
216.117	-32.82
216.502	1.46
216.888	-28.77
217.273	-21.34
217.658	3.68
218.043	-19.32
218.428	-16.96
218.813	-16.29
219.198	0.36
219.583	-25.38
219.968	5.74
220.353	-5.52
220.738	1.38
221.122	-22.83
221.507	10.89
221.892	-1.53
222.276	5.73
222.661	1.12
223.046	-6.17
223.43	-19.71
223.815	-10.49
224.199	-6.55
224.583	4.16
224.968	5.91
225.352	0.55
225.736	5.64
226.121	5.03
226.505	6.25
226.889	-2.5
227.273	-4.06
227.657	-8.75
228.041	-1.06
228.425	0.76
228.809	5.62
229.193	-1.37
229.577	2.6
229.961	-1.63
230.344	1.75
230.728	1.89
231.112	1.74
231.495	1.24
231.879	1.73
232.263	-1.16
232.646	-0.16
233.03	0.99
233.413	0.46
233.797	1.02
234.18	-2.2
234.563	-3.11
234.946	-1.55
235.33	0.13
235.713	0.94
236.096	2.21
236.479	1.83
236.862	1.76
237.245	-0.1
237.628	1.16
238.011	2.31
238.394	0.5
238.777	1.19
239.16	0.07
239.543	-0.13
239.925	0.59
240.308	0.83
240.691	2.39
241.073	2.04
241.456	1.76
241.838	1.8
242.221	1.38
242.603	2.03
242.986	1.8
243.368	1.65
243.75	2.27
244.133	2.33
244.515	1.91
244.897	2.45
245.279	1.81
245.661	1.38
246.043	0.02
246.425	2.52
246.807	1.4
247.189	2.56
247.571	2.06
247.953	1.99
248.335	1.61
248.717	2.06
249.098	2.25
249.48	2.12
249.862	2.2
250.243	2.4
250.625	1.92
251.006	2.59
251.388	2.21
251.769	1.58
252.151	2.84
252.532	1.53
252.913	2.03
253.295	2.04
253.676	1.86
254.057	2.32
254.438	2.58
254.819	2.8
255.2	1.88
255.581	2.18
255.962	2.28
256.343	2.21
256.724	2.14
257.105	1.38
257.486	1.34
257.867	2.93
258.247	2.77
258.628	0.59
259.009	1.57
259.389	1.2
259.77	2.34
260.15	2.75
260.531	1.9
260.911	2.07
261.292	1.9
261.672	2.21
262.052	2.34
262.432	2.07
262.813	1.92
263.193	2.21
263.573	1.96
263.953	2.23
264.333	2.23
264.713	2.31
265.093	2.16
265.473	1.68
265.853	2.25
266.233	2.03
266.612	2.16
266.992	1.65
267.372	1.09
267.752	2.14
268.131	2.43
268.511	2.59
268.89	2.37
269.27	2.65
269.649	2.01
270.029	1.88
270.408	1.7
270.787	1.87
271.167	1.92
271.546	2.02
271.925	1.93
272.304	2.27
272.683	2.2
273.062	1.97
273.441	2.25
273.82	1.93
274.199	2.12
274.578	1.96
274.957	2.47
275.336	2.21
275.715	2.66
276.093	1.97
276.472	2.89
276.851	2.29
277.229	2.28
277.608	1.86
277.986	1.79
278.365	2.01
278.743	2.38
279.122	1.43
279.5	1.59
279.878	1.44
280.257	2.58
280.635	1.74
281.013	2.02
281.391	2.03
281.769	2.26
282.147	2.49
282.525	2.47
282.903	1.67
283.281	2.21
283.659	2.43
284.037	2.36
284.415	1.22
284.792	2.08
285.17	1.61
285.548	2.17
285.925	2.03
286.303	1.99
286.68	1.56
287.058	2.23
287.435	1.96
287.813	1.8
288.19	2.23
288.567	2.25
288.945	2.18
289.322	2.3
289.699	2.03
290.076	2.38
290.453	2
290.83	2.33
291.207	2.36
291.584	2.21
291.961	2.33
292.338	2.52
292.715	2.54
293.092	2.42
293.469	2.46
293.845	2.56
294.222	2.17
294.599	2.38
294.975	2.08
295.352	2.93
295.728	2.96
296.105	2.52
296.481	2.34
296.858	2.74
297.234	1.86
297.61	2.7
297.986	2.84
298.363	2.58
298.739	2.45
299.115	2.97
299.491	2.56
299.867	2.48
300.243	2.44
300.619	2.63
300.995	2.84
301.371	2.81
301.746	2.02
302.122	3.1
302.498	2.97
302.874	3.04
303.249	2.79
303.625	3.08
304	2.8
304.376	2.71
304.751	2.78
305.127	2.14
305.502	2.96
305.878	3.35
306.253	1.98
306.628	2.46
307.003	2.71
307.378	3.02
307.754	3.67
308.129	2.76
308.504	3.12
308.879	3.05
309.254	2.34
309.629	2.3
310.003	2.75
310.378	3.03
310.753	2.85
311.128	3.02
311.502	3.46
311.877	3.08
312.252	3.1
312.626	3.16
313.001	3.01
313.375	2.98
313.75	2.9
314.124	3.19
314.498	2.87
314.873	2.94
315.247	2.3
315.621	3.19
315.995	3.29
316.369	3.09
316.743	2.51
317.117	3.17
317.491	2.98
317.865	3.28
318.239	2.32
318.613	3.51
318.987	3.4
319.361	2.73
319.734	2.53
320.108	4.04
320.482	3.52
320.855	3.48
321.229	3.55
321.602	3.14
321.976	3.09
322.349	2.22
322.723	2.79
323.096	3.51
323.469	2.3
323.843	2.72
324.216	3.19
324.589	2.84
324.962	2.77
325.335	3.25
325.708	3.34
326.081	3.09
326.454	3.19
326.827	2.72
327.2	2.95
327.573	2.96
327.945	3.58
328.318	2.95
328.691	2.89
329.063	3.07
329.436	2.72
329.809	3
330.181	3.45
330.553	3.35
330.926	2.75
331.298	2.72
331.671	3.51
332.043	2.94
332.415	3.27
332.787	2.56
333.159	2.5
333.532	3.52
333.904	3.19
334.276	3.61
334.648	2.92
335.02	2.11
335.391	3.12
335.763	2.58
336.135	2.65
336.507	2.38
336.879	3.43
337.25	2.85
337.622	3.08
337.993	3.33
338.365	3.05
338.736	2.7
339.108	3.08
339.479	3.49
339.851	3.56
340.222	3.37
340.593	3.05
340.964	3.73
341.336	2.54
341.707	2.74
342.078	2.79
342.449	3.36
342.82	3.31
343.191	3.68
343.562	2.78
343.933	2.95
344.303	3.58
344.674	2.86
345.045	3.1
345.416	2.95
345.786	3.1
346.157	3.4
346.527	3.09
346.898	3.38
347.268	3.22
347.639	3.22
348.009	3.27
348.38	3.48
348.75	3.2
349.12	3.42
349.49	3.03
349.861	3.41
350.231	3.04
350.601	3.54
350.971	3.06
351.341	3.23
351.711	3.47
352.081	3.37
352.45	2.95
352.82	2.95
353.19	3.45
353.56	3.72
353.929	3.3
354.299	2.87
354.669	3.37
355.038	3.33
355.408	3.29
355.777	3.23
356.147	2.98
356.516	3.5
356.885	3.29
357.254	3.21
357.624	3.25
357.993	3.64
358.362	3.56
358.731	3.5
359.1	3.69
359.469	3.48
359.838	3.21
360.207	3.3
360.576	3.31
360.945	3.09
361.314	3.5
361.682	3.21
362.051	3.41
362.42	3.31
362.788	3.42
363.157	3.18
363.525	3.4
363.894	3.32
364.262	3.07
364.631	3.2
364.999	3.1
365.367	3.32
365.735	3.39
366.104	3.33
366.472	2.76
366.84	3.61
367.208	3.33
367.576	3.47
367.944	3.21
368.312	3.21
368.68	3.42
369.048	3.39
369.416	3.54
369.783	3.71
370.151	3.35
370.519	3.3
370.886	3.42
371.254	3.94
371.621	3.41
371.989	3.01
372.356	3.29
372.724	3.62
373.091	3.44
373.458	3.24
373.826	3.78
374.193	3.42
374.56	3.44
374.927	3.59
375.294	3.15
375.661	3.29
376.028	3.54
376.395	3.51
376.762	3.99
377.129	2.94
377.496	3.85
377.863	3.45
378.229	3.33
378.596	3.55
378.963	3.26
379.329	3.56
379.696	3.29
380.062	3.38
380.429	3.48
380.795	3.95
381.161	3.86
381.528	3.52
381.894	3.09
382.26	3.03
382.626	3.82
382.993	3.29
383.359	3.6
383.725	3.49
384.091	3.87
384.457	3.27
384.823	3.41
385.188	3.14
385.554	3.41
385.92	3.39
386.286	2.83
386.651	3.53
387.017	3.68
387.383	3.57
387.748	3.6
388.114	3.43
388.479	3.48
388.845	3.24
389.21	3.3
389.575	3.39
389.94	3.41
390.306	3.42
390.671	3.12
391.036	3.75
391.401	3.32
391.766	3.34
392.131	3.27
392.496	3.2
392.861	3.26
393.226	3.5
393.591	3.61
393.956	3.36
394.32	3.45
394.685	3.34
395.05	3.47
395.414	3.55
395.779	3.41
396.143	3.6
396.508	3.43
396.872	3.36
397.236	3.41
397.601	3.51
397.965	3.69
398.329	3.22
398.694	3.31
399.058	3.59
399.422	3.3
399.786	3.44
400.15	3.4
400.514	3.12
400.878	3.02
401.242	3.01
401.605	3.26
401.969	3.94
402.333	3.33
402.697	2.98
403.06	3.44
403.424	3.38
403.787	3.27
404.151	3.42
404.514	3.34
404.878	3.34
405.241	3.52
405.604	3.21
405.968	3.28
406.331	3.04
406.694	3.43
407.057	3.45
407.42	3.36
407.783	3.35
408.146	3.38
408.509	3.27
408.872	3.47
409.235	3.19
409.598	3.48
409.961	3.29
410.323	3.64
410.686	3.32
411.049	3.3
411.411	3.24
411.774	3.31
412.136	3.57
412.499	3.41
412.861	3.17
413.223	2.99
413.586	3.24
413.948	3.21
414.31	3.53
414.672	3.42
415.035	3.57
415.397	3.07
415.759	3.25
416.121	3.57
416.483	3.31
416.845	3.32
417.206	3.18
417.568	3.29
417.93	3.42
418.292	3.53
418.653	3.42
419.015	3.4
419.377	3.22
419.738	3.25
420.1	3.27
420.461	3.37
420.822	3.18
421.184	3.27
421.545	3.27
421.906	3.45
422.267	3.32
422.629	3.36
422.99	3.31
423.351	3.36
423.712	3.33
424.073	3.17
424.434	3.36
424.795	3.45
425.155	3.43
425.516	3.4
425.877	3.45
426.238	3.39
426.598	3.41
426.959	3.29
427.32	3.44
427.68	3.51
428.041	3.31
428.401	3.43
428.761	3.58
429.122	3.44
429.482	3.57
429.842	3.63
430.202	3.42
430.563	3.65
430.923	3.73
431.283	3.56
431.643	3.61
432.003	3.88
432.363	3.35
432.722	3.94
433.082	3.53
433.442	3.65
433.802	3.71
434.161	3.89
434.521	3.58
434.881	3.64
435.24	3.7
435.6	3.66
435.959	3.71
436.319	3.67
436.678	3.59
437.037	3.66
437.396	3.63
437.756	3.66
438.115	3.7
438.474	3.56
438.833	3.81
439.192	3.72
439.551	3.67
439.91	3.91
440.269	3.72
440.628	3.85
440.987	3.63
441.345	3.83
441.704	3.81
442.063	3.94
442.421	3.83
442.78	3.72
443.138	3.77
443.497	3.81
443.855	3.85
444.214	3.87
444.572	3.97
444.93	3.71
445.288	3.95
445.647	3.85
446.005	3.92
446.363	3.82
446.721	3.75
447.079	3.93
447.437	3.88
447.795	3.88
448.153	3.87
448.51	4.02
448.868	3.83
449.226	3.92
449.584	3.91
449.941	3.96
450.299	3.89
450.656	3.86
451.014	3.95
451.371	3.91
451.729	4.13
452.086	4.04
452.443	3.89
452.801	4.09
453.158	3.97
453.515	3.91
453.872	3.99
454.229	3.91
454.586	3.92
454.943	4.06
455.3	4.07
455.657	4.07
456.014	4.12
456.371	4.1
456.727	4.1
457.084	4.15
457.441	4.22
457.797	3.9
458.154	4.27
458.51	4.1
458.867	4.25
459.223	4.06
459.58	4.14
459.936	4.21
460.292	3.77
460.648	3.95
461.005	4.05
461.361	4.02
461.717	3.97
462.073	3.98
462.429	4.22
462.785	4.14
463.141	4.21
463.496	4.23
463.852	4.16
464.208	3.98
464.564	4.18
464.919	4.33
465.275	4.07
465.631	4.1
465.986	4.36
466.342	3.97
466.697	4.4
467.052	4.09
467.408	4.24
467.763	4.38
468.118	4.33
468.473	4.35
468.829	4.29
469.184	4.11
469.539	4.39
469.894	4.33
470.249	4.25
470.603	4.22
470.958	4.57
471.313	4.21
471.668	4.25
472.023	4.31
472.377	4.2
472.732	4.53
473.086	4.38
473.441	4.37
473.795	4.44
474.15	4.23
474.504	4.31
474.859	4.36
475.213	4.11
475.567	4.37
475.921	4.47
476.275	4.29
476.63	4.34
476.984	4.35
477.338	4.44
477.692	4.34
478.045	4.41
478.399	4.24
478.753	4.33
479.107	4.41
479.461	4.29
479.814	4.25
480.168	4.3
480.521	4.24
480.875	4.25
481.228	4.26
481.582	4.42
481.935	4.48
482.289	4.53
482.642	4.33
482.995	4.41
483.348	4.35
483.701	4.37
484.055	4.27
484.408	4.32
484.761	4.32
485.114	4.19
485.466	4.03
485.819	4.1
486.172	4.15
486.525	4.26
486.878	4.31
487.23	4.28
487.583	4.39
487.936	4.34
488.288	4.31
488.641	4.31
488.993	4.29
489.345	4.2
489.698	4.23
490.05	4.27
490.402	4.4
490.754	4.34
491.107	4.44
491.459	4.52
491.811	4.52
492.163	4.45
492.515	4.43
492.866	4.37
493.218	4.27
493.57	4.27
493.922	4.36
494.274	4.42
494.625	4.47
494.977	4.55
495.328	4.57
495.68	4.52
496.031	4.46
496.383	4.49
496.734	4.66
497.086	4.51
497.437	4.61
497.788	4.52
498.139	4.55
498.49	4.66
498.842	4.55
499.193	4.65
499.544	4.73
499.894	4.58
500.245	4.53
500.596	4.64
500.947	4.62
501.298	4.71
501.648	4.52
501.999	4.61
502.35	4.72
502.7	4.73
503.051	4.74
503.401	4.61
503.752	4.56
504.102	4.83
504.452	4.79
504.803	4.66
505.153	4.56
505.503	4.74
505.853	4.78
506.203	4.7
506.553	4.76
506.903	4.75
507.253	4.82
507.603	4.71
507.953	4.61
508.303	4.92
508.652	4.87
509.002	4.68
509.352	4.65
509.701	4.82
510.051	4.7
510.4	4.76
510.75	4.6
511.099	4.69
511.449	4.83
511.798	4.69
512.147	4.81
512.496	4.77
512.846	4.7
513.195	4.87
513.544	4.91
513.893	4.74
514.242	4.75
514.591	4.81
514.939	4.88
515.288	4.93
515.637	4.77
515.986	4.83
516.334	4.77
516.683	5
517.032	4.99
517.38	4.77
517.729	4.88
518.077	5.02
518.426	4.8
518.774	4.86
519.122	4.83
519.47	4.81
519.819	4.83
520.167	4.74
520.515	4.78
520.863	4.74
521.211	4.78
521.559	4.92
521.907	4.92
522.255	4.72
522.602	4.76
522.95	4.79
523.298	4.81
523.645	4.88
523.993	5.08
524.341	4.83
524.688	4.95
525.036	4.96
525.383	4.99
525.73	4.97
526.078	4.98
526.425	4.92
526.772	4.76
527.119	4.91
527.466	4.96
527.814	4.84
528.161	4.96
528.508	4.93
528.854	4.96
529.201	4.9
529.548	4.76
529.895	4.79
530.242	4.72
530.588	4.73
530.935	4.8
531.282	4.89
531.628	4.86
531.975	4.94
532.321	4.86
532.667	5
533.014	5.09
533.36	4.99
533.706	5.05
534.052	5
534.399	5.06
534.745	4.94
535.091	4.83
535.437	4.91
535.783	4.97
536.129	5.09
536.474	5.01
536.82	5.06
537.166	5.09
537.512	5.15
537.857	5.26
538.203	5.07
538.549	4.93
538.894	5.2
539.239	5.16
539.585	5.08
539.93	5.13
540.276	5.25
540.621	5.07
540.966	5.23
541.311	5.15
541.656	5.23
542.001	5.22
542.346	5.16
542.691	5.02
543.036	5.04
543.381	4.99
543.726	5.15
544.071	5.05
544.415	5.18
544.76	5.33
545.105	5.18
545.449	5.23
545.794	5.23
546.138	5.27
546.483	5.34
546.827	5.3
547.171	5.5
547.516	5.44
547.86	5.4
548.204	5.31
548.548	5.39
548.892	5.29
549.236	5.45
549.58	5.52
549.924	5.55
550.268	5.57
550.612	5.57
550.956	5.45
551.3	5.54
551.643	5.48
551.987	5.52
552.33	5.64
552.674	5.75
553.017	5.45
553.361	5.67
553.704	5.57
554.048	5.61
554.391	5.54
554.734	5.66
555.077	5.65
555.42	5.68
555.764	5.63
556.107	5.91
556.45	5.64
556.793	5.63
557.135	5.81
557.478	5.7
557.821	5.89
558.164	5.67
558.507	5.93
558.849	6
559.192	5.79
559.534	5.68
559.877	5.84
560.219	6.05
560.562	5.74
560.904	5.93
561.246	5.62
561.589	6.13
561.931	6.05
562.273	5.99
562.615	5.75
562.957	6.15
563.299	6.12
563.641	5.77
563.983	6.04
564.325	5.85
564.667	5.87
565.008	6.02
565.35	5.77
565.692	6.03
566.033	6.24
566.375	5.82
566.716	6.11
567.058	6.04
567.399	6.25
567.741	6.02
568.082	6.29
568.423	6.03
568.764	6.14
569.105	6.01
569.447	6.21
569.788	6.21
570.129	6.31
570.47	6.33
570.811	6.21
571.151	6.56
571.492	6.5
571.833	6.44
572.174	6.18
572.514	6.33
572.855	6.45
573.195	6.54
573.536	6.44
573.876	6.28
574.217	6.42
574.557	6.35
574.898	6.6
575.238	6.57
575.578	6.57
575.918	6.39
576.258	6.38
576.598	6.58
576.938	6.59
577.278	6.37
577.618	6.49
577.958	6.56
578.298	6.69
578.638	6.39
578.977	6.56
579.317	6.8
579.657	6.71
579.996	6.7
580.336	7.06
580.675	6.7
581.014	7.06
581.354	6.57
581.693	6.97
582.032	6.92
582.372	6.83
582.711	7.07
583.05	6.8
583.389	7
583.728	6.77
584.067	7
584.406	6.95
584.745	6.96
585.083	6.75
585.422	7.19
585.761	7.25
586.1	6.94
586.438	7.09
586.777	7.25
587.115	6.94
587.454	7.07
587.792	7.12
588.13	7.24
588.469	6.98
588.807	7.17
589.145	7.36
589.483	7.37
589.821	6.79
590.159	7.22
590.497	7.07
590.835	7.17
591.173	7.35
591.511	7.13
591.849	7.28
592.187	7.3
592.524	7.38
592.862	7.3
593.2	7.3
593.537	7.22
593.875	7.62
594.212	7.38
594.55	7.52
594.887	7.62
595.224	7.75
595.561	7.71
595.899	7.77
596.236	7.45
596.573	7.54
596.91	7.63
597.247	7.76
597.584	7.7
597.921	7.85
598.258	7.68
598.594	7.65
598.931	7.85
599.268	7.74
599.604	7.79
599.941	7.69
600.277	7.81
600.614	8.09
600.95	8
601.287	8.1
601.623	8.06
601.959	8.16
602.296	7.74
602.632	7.94
602.968	8.21
603.304	7.85
603.64	7.88
603.976	8.25
604.312	8.17
604.648	8.01
604.984	8.22
605.319	8.53
605.655	8
605.991	8.14
606.326	8.39
606.662	8.18
606.998	8.09
607.333	8.34
607.668	8.24
608.004	8.38
608.339	8.09
608.674	7.99
609.01	8.3
609.345	8.54
609.68	8.33
610.015	8.24
610.35	8.25
610.685	8.56
611.02	8.55
611.355	8.46
611.689	8.5
612.024	8.46
612.359	8.63
612.694	8.81
613.028	8.49
613.363	8.6
613.697	8.64
614.032	8.61
614.366	8.75
614.7	8.48
615.035	8.88
615.369	8.79
615.703	8.97
616.037	9.13
616.371	8.96
616.705	8.91
617.039	8.8
617.373	9.15
617.707	8.9
618.041	8.79
618.375	9.33
618.709	8.72
619.042	8.73
619.376	8.92
619.71	9.32
620.043	9.08
620.377	9.27
620.71	8.99
621.043	9.42
621.377	9.31
621.71	9.47
622.043	9.32
622.376	9.43
622.709	9.82
623.043	9.64
623.376	9.3
623.709	9.04
624.041	9.43
624.374	9.42
624.707	9.41
625.04	9.35
625.373	9.38
625.705	9.32
626.038	9.45
626.37	9.34
626.703	9.53
627.035	9.8
627.368	9.51
627.7	9.54
628.032	9.65
628.365	9.42
628.697	9.62
629.029	9.97
629.361	9.62
629.693	9.63
630.025	9.65
630.357	9.76
630.689	9.9
631.021	10.03
631.353	9.89
631.684	9.77
632.016	9.81
632.348	9.72
632.679	10.09
633.011	10.06
633.342	9.64
633.674	9.72
634.005	10.53
634.336	10.01
634.668	10.5
634.999	9.89
635.33	10.14
635.661	10.08
635.992	9.37
636.323	10.58
636.654	10.55
636.985	10.7
637.316	10.18
637.647	10.6
637.977	10.25
638.308	10.66
638.639	10.5
638.969	10.55
639.3	10.69
639.63	11.21
639.961	10.64
640.291	10.14
640.622	10.81
640.952	10.03
641.282	10.81
641.612	10.61
641.943	11.13
642.273	11.09
642.603	10.46
642.933	10.86
643.263	11.11
643.592	11.02
643.922	11.15
644.252	10.93
644.582	10.75
644.911	11.02
645.241	11.14
645.571	11.01
645.9	10.71
646.23	11.35
646.559	10.99
646.888	10.97
647.218	11.08
647.547	11.24
647.876	11.18
648.205	11.29
648.534	11.14
648.863	11.16
649.192	11.28
649.521	11.29
649.85	11.51
650.179	10.87
650.508	11.58
650.837	11.27
651.165	11.59
651.494	11.98
651.822	11.01
652.151	11.33
652.479	11.37
652.808	11.59
653.136	11.43
653.465	11.52
653.793	11.33
654.121	12.07
654.449	11.52
654.777	12.44
655.105	11.02
655.433	11.45
655.761	11.91
656.089	11.46
656.417	11.96
656.745	11.93
657.073	11.49
657.4	11.72
657.728	12.06
658.056	11.87
658.383	12.22
658.711	12.11
659.038	12.28
659.365	11.58
659.693	11.89
660.02	12
660.347	12.6
660.674	12.18
661.001	11.69
661.329	11.95
661.656	12.26
661.982	12.19
662.309	12.54
662.636	12.43
662.963	12.26
663.29	12.56
663.616	12.57
663.943	12.14
664.27	12.33
664.596	12.59
664.923	12.65
665.249	12.33
665.576	12.68
665.902	11.91
666.228	12.94
666.554	12.24
666.881	12.91
667.207	12.44
667.533	12.29
667.859	12.74
668.185	12.6
668.511	12.98
668.837	12.96
669.162	12.39
669.488	12.86
669.814	13.11
670.139	12.52
670.465	12.61
670.791	12.78
671.116	13
671.442	13.26
671.767	13.22
672.092	13.42
672.418	13.07
672.743	12.87
673.068	13.42
673.393	13.49
673.718	13.77
674.043	12.94
674.368	14.46
674.693	12.89
675.018	14.1
675.343	14.04
675.667	13.37
675.992	13.6
676.317	13.63
676.641	12.49
676.966	13.42
677.29	13.55
677.615	13.51
677.939	13.55
678.264	14.45
678.588	13.88
678.912	12.79
679.236	12.65
679.56	14.5
679.885	13.93
680.209	13.68
680.532	13.94
680.856	13.43
681.18	14.01
681.504	13.59
681.828	13.54
682.152	14.2
682.475	13.71
682.799	13.87
683.122	14.03
683.446	14.46
683.769	14.36
684.093	14.17
684.416	14.5
684.739	14.82
685.062	14.15
685.386	14.72
685.709	14.31
686.032	14.24
686.355	15.05
686.678	14.72
687.001	14.36
687.324	14.28
687.646	14.92
687.969	14.38
