Data from 20-51_crown_Reflection__0__50.txt Node

Date: Thu Feb 29 22:17:48 CST 2024
User: ToomeyLab
Spectrometer: FLMS14357
Trigger mode: 0
Integration Time (sec): 1.000000E-2
Scans to average: 100
Electric dark correction enabled: true
Nonlinearity correction enabled: false
Boxcar width: 0
XAxis mode: Wavelengths
Number of Pixels in Spectrum: 2048
>>>>>Begin Spectral Data<<<<<
189.047	49.95
189.435	49.95
189.823	49.95
190.211	367.55
190.599	-616.35
190.987	131.14
191.375	47.2
191.763	434.61
192.151	175.44
192.538	-319.35
192.926	232.38
193.314	-70.73
193.702	100.73
194.089	170.14
194.477	152.85
194.864	-122.48
195.252	82.48
195.639	-337.98
196.027	88.37
196.414	78.7
196.801	-99.49
197.189	41.55
197.576	-65.82
197.963	826.82
198.351	-31.59
198.738	16.99
199.125	-22.55
199.512	30.96
199.899	-39.37
200.286	-124.71
200.673	51.2
201.06	-26.41
201.447	-127.89
201.833	16.87
202.22	-10.25
202.607	-27.77
202.994	-52.73
203.38	-44.42
203.767	18.63
204.154	6.92
204.54	-9.86
204.927	-30.72
205.313	34.5
205.699	-8.21
206.086	15.39
206.472	2.77
206.858	9.62
207.245	12.35
207.631	-17.85
208.017	16.9
208.403	-106.38
208.789	36.48
209.175	-39.01
209.561	10.23
209.947	10.49
210.333	24.51
210.719	-4.32
211.105	21.91
211.491	-41.87
211.876	-6.21
212.262	18.81
212.648	-39.97
213.034	19.64
213.419	21.14
213.805	-34.57
214.19	29.82
214.576	-34.11
214.961	19.66
215.346	-7.6
215.732	-5.52
216.117	-46.02
216.502	-25.1
216.888	-46.37
217.273	11.34
217.658	-12.2
218.043	-15.47
218.428	-5.65
218.813	-5.07
219.198	10.91
219.583	-19
219.968	-13.46
220.353	-26.45
220.738	18.16
221.122	-15.84
221.507	10.37
221.892	-13.7
222.276	14.38
222.661	-0.98
223.046	-8.85
223.43	-12.14
223.815	4.2
224.199	-1.63
224.583	6.99
224.968	-5.48
225.352	9.72
225.736	-0.73
226.121	0.15
226.505	11.27
226.889	6.26
227.273	-2.95
227.657	-3.52
228.041	-0.53
228.425	0.62
228.809	8.5
229.193	3.35
229.577	4.9
229.961	2.92
230.344	3.2
230.728	4.52
231.112	4.97
231.495	3.88
231.879	3.66
232.263	2.18
232.646	3.55
233.03	5.76
233.413	3.34
233.797	4.33
234.18	3.84
234.563	3.47
234.946	1.86
235.33	4.38
235.713	3.32
236.096	4.32
236.479	6.04
236.862	3.99
237.245	3.2
237.628	4.84
238.011	5.05
238.394	2.83
238.777	3.23
239.16	4.96
239.543	4.14
239.925	2.18
240.308	5.71
240.691	5.08
241.073	4.24
241.456	4.73
241.838	4.07
242.221	5.59
242.603	5.42
242.986	4.23
243.368	4.74
243.75	5.06
244.133	3.8
244.515	4.29
244.897	5.13
245.279	5.08
245.661	3.31
246.043	4.07
246.425	5.25
246.807	5.19
247.189	4.19
247.571	4.39
247.953	4.65
248.335	4.03
248.717	4.58
249.098	4.43
249.48	4.48
249.862	4.63
250.243	4.13
250.625	4.43
251.006	4.4
251.388	4.64
251.769	4.05
252.151	4.99
252.532	3.93
252.913	4.27
253.295	4.42
253.676	4.24
254.057	4.32
254.438	5.26
254.819	4.59
255.2	2.88
255.581	3.52
255.962	5.56
256.343	3.68
256.724	5.3
257.105	4.55
257.486	3.87
257.867	4.6
258.247	4.84
258.628	3.94
259.009	4.35
259.389	3.18
259.77	4.6
260.15	5.28
260.531	4.46
260.911	3.93
261.292	4.11
261.672	4.46
262.052	4.23
262.432	4.34
262.813	4.44
263.193	4.44
263.573	4.72
263.953	4.81
264.333	3.73
264.713	4.33
265.093	4.56
265.473	4.42
265.853	4.74
266.233	3.87
266.612	4.99
266.992	3.37
267.372	3.68
267.752	3.51
268.131	4.89
268.511	4.27
268.89	4.3
269.27	4.56
269.649	4.45
270.029	3.97
270.408	3.26
270.787	3.67
271.167	3.97
271.546	4.16
271.925	3.76
272.304	4.07
272.683	4.69
273.062	3.55
273.441	4.19
273.82	3.96
274.199	4.41
274.578	4.28
274.957	3.78
275.336	4.7
275.715	5.09
276.093	4.04
276.472	5.09
276.851	3.89
277.229	4.66
277.608	3.99
277.986	3.81
278.365	3.99
278.743	4.38
279.122	3.9
279.5	3.99
279.878	3.73
280.257	4.31
280.635	3.33
281.013	4.64
281.391	3.75
281.769	4.47
282.147	4.31
282.525	4.08
282.903	3.97
283.281	4.24
283.659	4.47
284.037	4.06
284.415	3.89
284.792	3.58
285.17	3.09
285.548	4.06
285.925	3.87
286.303	3.89
286.68	3.39
287.058	3.9
287.435	4.11
287.813	3.57
288.19	4.01
288.567	4.07
288.945	3.78
289.322	4.01
289.699	3.74
290.076	3.88
290.453	3.78
290.83	3.49
291.207	4.09
291.584	4
291.961	3.49
292.338	4.35
292.715	3.93
293.092	4.16
293.469	4.11
293.845	3.98
294.222	3.92
294.599	3.59
294.975	4.31
295.352	4.3
295.728	4.19
296.105	3.95
296.481	3.68
296.858	4.26
297.234	3.86
297.61	4.1
297.986	4.13
298.363	3.63
298.739	4.04
299.115	4.36
299.491	4.12
299.867	4.12
300.243	3.81
300.619	3.91
300.995	4.48
301.371	4.33
301.746	4.13
302.122	4.39
302.498	3.59
302.874	4.22
303.249	3.63
303.625	4.23
304	4.11
304.376	4.67
304.751	3.61
305.127	3.61
305.502	4.07
305.878	4.69
306.253	3.71
306.628	3.79
307.003	3.99
307.378	4.57
307.754	5.15
308.129	3.69
308.504	4.39
308.879	4.19
309.254	3.77
309.629	3.76
310.003	4.08
310.378	3.57
310.753	3.46
311.128	3.9
311.502	3.94
311.877	3.9
312.252	3.92
312.626	4.21
313.001	4.17
313.375	4.43
313.75	4.07
314.124	4.04
314.498	4.16
314.873	3.36
315.247	3.67
315.621	4.68
315.995	4.21
316.369	3.54
316.743	3.61
317.117	4.45
317.491	3.91
317.865	4.16
318.239	4.49
318.613	4.1
318.987	4.71
319.361	3.85
319.734	4.37
320.108	3.95
320.482	4.59
320.855	4.28
321.229	3.95
321.602	4.2
321.976	3.76
322.349	3.51
322.723	4.02
323.096	4.1
323.469	3.03
323.843	3.36
324.216	4.36
324.589	4.05
324.962	3.66
325.335	4.22
325.708	4.64
326.081	3.37
326.454	3.74
326.827	4.1
327.2	4.22
327.573	3.64
327.945	4.17
328.318	3.57
328.691	3.75
329.063	3.95
329.436	3.67
329.809	3.35
330.181	3.51
330.553	4.05
330.926	3.45
331.298	3.92
331.671	3.89
332.043	3.93
332.415	3.15
332.787	3.88
333.159	4.09
333.532	3.08
333.904	3.94
334.276	3.91
334.648	3.74
335.02	3.34
335.391	3.36
335.763	3.4
336.135	3.5
336.507	3.17
336.879	4.06
337.25	3.89
337.622	3.73
337.993	4.05
338.365	3.92
338.736	3.56
339.108	3.96
339.479	4.22
339.851	4.06
340.222	4.1
340.593	3.54
340.964	3.86
341.336	3.52
341.707	3.27
342.078	3.36
342.449	4.15
342.82	3.89
343.191	4.02
343.562	4.24
343.933	3.85
344.303	3.99
344.674	3.56
345.045	3.48
345.416	3.64
345.786	4.06
346.157	4.07
346.527	4.18
346.898	4.59
347.268	4
347.639	3.66
348.009	3.63
348.38	3.98
348.75	4.01
349.12	4.08
349.49	4.03
349.861	3.61
350.231	4.03
350.601	3.95
350.971	3.91
351.341	4.34
351.711	4.57
352.081	3.9
352.45	3.5
352.82	3.57
353.19	4.38
353.56	3.83
353.929	3.78
354.299	3.8
354.669	3.84
355.038	3.93
355.408	4.42
355.777	3.83
356.147	3.7
356.516	4.12
356.885	4.09
357.254	4.21
357.624	4.16
357.993	4.44
358.362	4.11
358.731	4.05
359.1	4.21
359.469	4.11
359.838	4.01
360.207	4.09
360.576	4
360.945	3.83
361.314	4.09
361.682	4.09
362.051	4.28
362.42	4.38
362.788	4.1
363.157	4.06
363.525	3.89
363.894	4.14
364.262	4.02
364.631	4.08
364.999	3.77
365.367	4.03
365.735	3.86
366.104	4.19
366.472	3.71
366.84	4.32
367.208	4.16
367.576	4.27
367.944	3.86
368.312	4.15
368.68	3.85
369.048	4.03
369.416	4.47
369.783	4.34
370.151	4.33
370.519	4.3
370.886	4.22
371.254	4.26
371.621	4.28
371.989	4.24
372.356	3.87
372.724	4.31
373.091	4.3
373.458	4.07
373.826	4.6
374.193	3.8
374.56	4.43
374.927	4.28
375.294	3.83
375.661	4.36
376.028	4.3
376.395	3.83
376.762	4.65
377.129	4.07
377.496	4.53
377.863	4.18
378.229	4.1
378.596	4.3
378.963	4.4
379.329	4.4
379.696	3.89
380.062	4.41
380.429	4.55
380.795	4.35
381.161	4.37
381.528	4.24
381.894	3.83
382.26	3.95
382.626	4.51
382.993	3.92
383.359	4.37
383.725	4.58
384.091	4.32
384.457	4.55
384.823	4.31
385.188	4.35
385.554	4.12
385.92	3.76
386.286	3.78
386.651	4.04
387.017	4.14
387.383	4.48
387.748	4.21
388.114	4.06
388.479	4.27
388.845	3.89
389.21	4.19
389.575	4.25
389.94	4.32
390.306	4.1
390.671	4.21
391.036	4.37
391.401	4.2
391.766	4.08
392.131	4.02
392.496	4.29
392.861	4.26
393.226	4.38
393.591	4.4
393.956	4.31
394.32	4.21
394.685	4.33
395.05	4.14
395.414	4.43
395.779	4.35
396.143	4.57
396.508	4.48
396.872	4.29
397.236	4.29
397.601	4.27
397.965	4.6
398.329	4.22
398.694	4.04
399.058	4.38
399.422	3.97
399.786	4.6
400.15	3.95
400.514	4.32
400.878	4.07
401.242	4.28
401.605	4.2
401.969	4.52
402.333	4.4
402.697	4.22
403.06	4.71
403.424	4.38
403.787	4.14
404.151	4.56
404.514	4.39
404.878	4.43
405.241	4.55
405.604	4.13
405.968	4.22
406.331	4.15
406.694	4.31
407.057	4.16
407.42	4.3
407.783	4.12
408.146	4.51
408.509	4.36
408.872	4.26
409.235	4.42
409.598	4.28
409.961	4.36
410.323	4.45
410.686	4.29
411.049	3.95
411.411	4.26
411.774	4.28
412.136	4.5
412.499	4.3
412.861	4.1
413.223	4.25
413.586	4.38
413.948	4.25
414.31	4.43
414.672	4.21
415.035	4.41
415.397	4.11
415.759	4.22
416.121	4.39
416.483	4.42
416.845	4.32
417.206	4.42
417.568	4.26
417.93	4.32
418.292	4.45
418.653	4.4
419.015	4.47
419.377	4.34
419.738	4.36
420.1	4.43
420.461	4.3
420.822	4.22
421.184	4.34
421.545	4.27
421.906	4.35
422.267	4.38
422.629	4.31
422.99	4.4
423.351	4.46
423.712	4.37
424.073	4.38
424.434	4.29
424.795	4.33
425.155	4.4
425.516	4.3
425.877	4.3
426.238	4.43
426.598	4.24
426.959	4.49
427.32	4.41
427.68	4.44
428.041	4.35
428.401	4.4
428.761	4.48
429.122	4.42
429.482	4.57
429.842	4.63
430.202	4.64
430.563	4.64
430.923	4.63
431.283	4.64
431.643	4.61
432.003	4.89
432.363	4.39
432.722	4.64
433.082	4.57
433.442	4.62
433.802	4.62
434.161	4.76
434.521	4.45
434.881	4.51
435.24	4.62
435.6	4.65
435.959	4.66
436.319	4.48
436.678	4.42
437.037	4.52
437.396	4.58
437.756	4.75
438.115	4.71
438.474	4.56
438.833	4.76
439.192	4.63
439.551	4.76
439.91	4.64
440.269	4.58
440.628	4.58
440.987	4.65
441.345	4.69
441.704	4.54
442.063	4.72
442.421	4.51
442.78	4.6
443.138	4.67
443.497	4.45
443.855	4.72
444.214	4.69
444.572	4.69
444.93	4.65
445.288	4.63
445.647	4.55
446.005	4.75
446.363	4.5
446.721	4.63
447.079	4.61
447.437	4.74
447.795	4.66
448.153	4.61
448.51	4.68
448.868	4.61
449.226	4.63
449.584	4.7
449.941	4.71
450.299	4.69
450.656	4.58
451.014	4.63
451.371	4.71
451.729	4.91
452.086	4.74
452.443	4.73
452.801	4.81
453.158	5.07
453.515	4.76
453.872	4.98
454.229	4.69
454.586	4.63
454.943	4.67
455.3	4.82
455.657	4.83
456.014	4.85
456.371	4.92
456.727	4.9
457.084	4.79
457.441	4.98
457.797	4.55
458.154	4.94
458.51	4.86
458.867	4.86
459.223	4.74
459.58	4.9
459.936	4.98
460.292	4.73
460.648	4.75
461.005	4.85
461.361	4.69
461.717	4.72
462.073	4.73
462.429	4.79
462.785	4.85
463.141	4.79
463.496	4.97
463.852	4.89
464.208	4.73
464.564	5.16
464.919	5.05
465.275	4.96
465.631	5.01
465.986	4.94
466.342	4.77
466.697	4.74
467.052	4.86
467.408	4.94
467.763	4.93
468.118	4.93
468.473	4.98
468.829	4.92
469.184	4.92
469.539	5.11
469.894	4.81
470.249	4.87
470.603	4.91
470.958	5.05
471.313	4.84
471.668	5.06
472.023	4.84
472.377	4.8
472.732	5.04
473.086	4.9
473.441	5.02
473.795	4.81
474.15	4.93
474.504	4.98
474.859	4.86
475.213	4.91
475.567	4.96
475.921	5.08
476.275	4.97
476.63	5
476.984	5.01
477.338	4.94
477.692	4.98
478.045	4.93
478.399	4.9
478.753	5.02
479.107	4.95
479.461	5.04
479.814	4.93
480.168	4.82
480.521	4.94
480.875	5.02
481.228	4.98
481.582	5
481.935	4.93
482.289	5.01
482.642	4.9
482.995	4.85
483.348	4.88
483.701	4.94
484.055	4.91
484.408	4.86
484.761	4.88
485.114	4.69
485.466	4.58
485.819	4.61
486.172	4.69
486.525	4.78
486.878	4.82
487.23	4.92
487.583	4.84
487.936	4.9
488.288	4.82
488.641	4.73
488.993	4.73
489.345	4.72
489.698	4.73
490.05	4.72
490.402	4.87
490.754	4.91
491.107	4.89
491.459	4.97
491.811	4.98
492.163	4.92
492.515	4.89
492.866	4.94
493.218	4.72
493.57	4.79
493.922	4.86
494.274	4.87
494.625	4.96
494.977	5.05
495.328	5.04
495.68	5.07
496.031	5.03
496.383	4.93
496.734	5.01
497.086	4.97
497.437	5.18
497.788	5.17
498.139	5.11
498.49	5.04
498.842	5.02
499.193	4.96
499.544	5.12
499.894	4.93
500.245	5.05
500.596	5.03
500.947	4.92
501.298	5.02
501.648	4.96
501.999	5.07
502.35	5.16
502.7	5.01
503.051	5.17
503.401	5.05
503.752	5.15
504.102	5.23
504.452	5.22
504.803	5.12
505.153	4.96
505.503	5.03
505.853	5.09
506.203	5.12
506.553	5.04
506.903	4.9
507.253	5.08
507.603	5.08
507.953	5.02
508.303	5.14
508.652	5.13
509.002	5.1
509.352	5.15
509.701	5.17
510.051	4.91
510.4	5.02
510.75	5.06
511.099	5.08
511.449	5.23
511.798	5.03
512.147	5.12
512.496	5.08
512.846	5.09
513.195	4.93
513.544	5.19
513.893	5.09
514.242	5.05
514.591	5
514.939	5.15
515.288	5.19
515.637	5.13
515.986	5.09
516.334	5
516.683	4.99
517.032	5.08
517.38	5.06
517.729	5.06
518.077	5.13
518.426	5.01
518.774	5.08
519.122	5.14
519.47	5.05
519.819	5.08
520.167	4.94
520.515	4.95
520.863	4.93
521.211	4.93
521.559	5.06
521.907	5.18
522.255	4.96
522.602	5.03
522.95	5.01
523.298	5.03
523.645	5.13
523.993	4.99
524.341	5.1
524.688	5.13
525.036	5.12
525.383	5.12
525.73	5.16
526.078	5.14
526.425	5.15
526.772	4.99
527.119	5
527.466	5.01
527.814	4.9
528.161	5.07
528.508	5.02
528.854	5.04
529.201	4.93
529.548	4.78
529.895	4.85
530.242	4.68
530.588	4.74
530.935	4.76
531.282	4.88
531.628	4.91
531.975	4.98
532.321	4.98
532.667	5.07
533.014	5.12
533.36	5.03
533.706	5.05
534.052	5.1
534.399	5.06
534.745	4.82
535.091	4.75
535.437	4.86
535.783	4.97
536.129	5.05
536.474	5.05
536.82	4.99
537.166	5.08
537.512	5.02
537.857	5.17
538.203	5.01
538.549	5.01
538.894	5.14
539.239	5.08
539.585	4.97
539.93	5.04
540.276	5.22
540.621	5.01
540.966	5.18
541.311	5.03
541.656	5.05
542.001	5.03
542.346	4.97
542.691	4.9
543.036	4.87
543.381	4.82
543.726	4.97
544.071	4.97
544.415	5
544.76	5
545.105	4.91
545.449	5
545.794	4.96
546.138	5.17
546.483	5.17
546.827	5.15
547.171	5.11
547.516	5.11
547.86	5.24
548.204	4.95
548.548	4.96
548.892	5.13
549.236	5.11
549.58	5.13
549.924	5.05
550.268	5.08
550.612	5.2
550.956	5.07
551.3	5.29
551.643	5.09
551.987	5.01
552.33	5.26
552.674	5.42
553.017	5.06
553.361	5.12
553.704	5.36
554.048	5.15
554.391	5.11
554.734	5.13
555.077	5.13
555.42	5.19
555.764	5.1
556.107	5.24
556.45	5.34
556.793	5.19
557.135	5.15
557.478	5.11
557.821	5.24
558.164	5.09
558.507	5.06
558.849	5.28
559.192	4.94
559.534	5.27
559.877	5.2
560.219	5.31
560.562	5.07
560.904	5.4
561.246	5
561.589	5.21
561.931	5.09
562.273	5.33
562.615	5.22
562.957	5.3
563.299	5.33
563.641	5.01
563.983	5.27
564.325	5.09
564.667	5.21
565.008	5.22
565.35	5.32
565.692	5.31
566.033	5.36
566.375	5.23
566.716	5.22
567.058	5.26
567.399	5.38
567.741	5.15
568.082	5.31
568.423	5.06
568.764	5.36
569.105	5.09
569.447	5.17
569.788	5.31
570.129	5.05
570.47	5.17
570.811	5.1
571.151	5.43
571.492	5.27
571.833	5.43
572.174	5.1
572.514	5.09
572.855	5.19
573.195	5.06
573.536	5.31
573.876	5.17
574.217	5.21
574.557	5.04
574.898	5.35
575.238	5.12
575.578	5.35
575.918	5.2
576.258	5.15
576.598	5.12
576.938	5.24
577.278	5.09
577.618	4.98
577.958	5.04
578.298	5.04
578.638	5.19
578.977	5.25
579.317	5.26
579.657	5.12
579.996	5.26
580.336	5.4
580.675	5.21
581.014	5.33
581.354	5.22
581.693	5.19
582.032	5.3
582.372	5.31
582.711	5.19
583.05	5.22
583.389	5.37
583.728	5.09
584.067	5.01
584.406	5.26
584.745	5.05
585.083	5.08
585.422	5.3
585.761	5.34
586.1	5.39
586.438	5.33
586.777	5.35
587.115	5.19
587.454	5.08
587.792	5.44
588.13	5.18
588.469	4.98
588.807	5.24
589.145	5.46
589.483	5.06
589.821	4.98
590.159	5.2
590.497	5.25
590.835	5.31
591.173	5.33
591.511	5.14
591.849	5.2
592.187	5.13
592.524	5.1
592.862	5.28
593.2	5
593.537	5.2
593.875	5.24
594.212	5.4
594.55	5.39
594.887	5.35
595.224	5.3
595.561	5.28
595.899	5.43
596.236	5.04
596.573	5.34
596.91	5.09
597.247	5.47
597.584	5.53
597.921	4.95
598.258	5.04
598.594	5.09
598.931	5.35
599.268	5.18
599.604	5.22
599.941	5.08
600.277	5.4
600.614	5.38
600.95	5.29
601.287	5.42
601.623	5.46
601.959	5.16
602.296	5.05
602.632	5.05
602.968	5.31
603.304	5.09
603.64	5.26
603.976	5.17
604.312	5.22
604.648	5.15
604.984	5.13
605.319	5.3
605.655	5.24
605.991	4.95
606.326	5.37
606.662	5.21
606.998	5.32
607.333	5.33
607.668	5.32
608.004	5.41
608.339	5.07
608.674	5.17
609.01	5.2
609.345	5.22
609.68	5.18
610.015	5.19
610.35	5.19
610.685	5.4
611.02	5.27
611.355	5.42
611.689	5.28
612.024	5.06
612.359	5.49
612.694	5.44
613.028	5.19
613.363	5.21
613.697	5.45
614.032	5.2
614.366	5.39
614.7	5.28
615.035	5.11
615.369	5.25
615.703	5.35
616.037	5.3
616.371	5.35
616.705	5.65
617.039	5.38
617.373	5.46
617.707	5.2
618.041	4.91
618.375	5.5
618.709	4.95
619.042	4.83
619.376	4.85
619.71	4.91
620.043	5.45
620.377	5.43
620.71	5.48
621.043	5.83
621.377	5.17
621.71	5.46
622.043	5.5
622.376	5.14
622.709	5.62
623.043	5.45
623.376	5.33
623.709	5.1
624.041	5.25
624.374	4.86
624.707	5.48
625.04	5.58
625.373	5.25
625.705	5.17
626.038	5.48
626.37	5.15
626.703	5.39
627.035	5.13
627.368	5.06
627.7	5.73
628.032	4.95
628.365	5.63
628.697	5.05
629.029	5.34
629.361	5.33
629.693	5.22
630.025	5.28
630.357	5.27
630.689	5.51
631.021	5.69
631.353	5.16
631.684	5.16
632.016	4.79
632.348	5.35
632.679	5.82
633.011	5.61
633.342	4.77
633.674	5.1
634.005	5.38
634.336	5.44
634.668	5.26
634.999	5.34
635.33	5.39
635.661	5.27
635.992	4.83
636.323	5.45
636.654	5.54
636.985	5.43
637.316	5.27
637.647	5.35
637.977	5.23
638.308	5.43
638.639	5.33
638.969	5.22
639.3	5.33
639.63	5.63
639.961	5.95
640.291	4.73
640.622	5.27
640.952	4.34
641.282	5.32
641.612	6.01
641.943	5.46
642.273	5.26
642.603	5.26
642.933	5.16
643.263	5.31
643.592	5.45
643.922	5.22
644.252	5.4
644.582	5.19
644.911	5.27
645.241	5.02
645.571	5.29
645.9	5.24
646.23	5.65
646.559	5.03
646.888	5.19
647.218	5.04
647.547	5.57
647.876	5.68
648.205	5.4
648.534	4.85
648.863	5.59
649.192	5.51
649.521	5.39
649.85	5.32
650.179	4.99
650.508	5.55
650.837	5.43
651.165	5.66
651.494	5.41
651.822	4.93
652.151	5.25
652.479	5.43
652.808	5.06
653.136	5.11
653.465	5.23
653.793	4.56
654.121	5.11
654.449	5.48
654.777	5.66
655.105	5.05
655.433	4.86
655.761	5.82
656.089	4.69
656.417	5
656.745	5.48
657.073	5.73
657.4	5.72
657.728	5.66
658.056	5.73
658.383	5.18
658.711	5.84
659.038	5.36
659.365	5.36
659.693	5.36
660.02	4.73
660.347	5.5
660.674	4.92
661.001	4.8
661.329	5.18
661.656	5.56
661.982	5.69
662.309	5.7
662.636	5.33
662.963	5.22
663.29	5.39
663.616	5.82
663.943	5.16
664.27	5.31
664.596	5.6
664.923	5.26
665.249	5.15
665.576	5.18
665.902	5.09
666.228	5.72
666.554	5.13
666.881	5.44
667.207	5.23
667.533	5.18
667.859	4.82
668.185	5.17
668.511	5.05
668.837	5.55
669.162	5.2
669.488	5.39
669.814	5.41
670.139	5.1
670.465	4.94
670.791	5.48
671.116	4.93
671.442	5.33
671.767	4.85
672.092	5.7
672.418	5.11
672.743	4.88
673.068	5.06
673.393	5.28
673.718	5.3
674.043	5.24
674.368	6.17
674.693	5.34
675.018	5.48
675.343	6.05
675.667	4.82
675.992	5.51
676.317	5.25
676.641	4.55
676.966	4.96
677.29	5.65
677.615	5.32
677.939	4.88
678.264	6.02
678.588	5.75
678.912	4.71
679.236	5.18
679.56	5.49
679.885	5.11
680.209	5.44
680.532	5.41
680.856	5.57
681.18	5.27
681.504	5.43
681.828	5.26
682.152	5.27
682.475	5.59
682.799	5.06
683.122	5.54
683.446	5.73
683.769	5.6
684.093	5.93
684.416	5.37
684.739	5.2
685.062	4.97
685.386	5.41
685.709	4.73
686.032	5.68
686.355	5.64
686.678	5.26
687.001	4.91
687.324	5.67
687.646	6.05
687.969	5.53
688.292	6.15
688.614	5.36
688.937	5.96
689.26	5.22
689.582	5.52
689.904	6.2
690.227	5.7
690.549	4.71
690.871	5.59
691.194	4.92
691.516	4.62
691.838	4.75
692.16	5.46
