Data from 0001_crown_Reflection__0__246.txt Node

Date: Thu Dec 15 18:43:27 CST 2022
User: ToomeyLab
Spectrometer: FLMS14357
Trigger mode: 0
Integration Time (sec): 1.000000E-2
Scans to average: 100
Electric dark correction enabled: true
Nonlinearity correction enabled: false
Boxcar width: 0
XAxis mode: Wavelengths
Number of Pixels in Spectrum: 2048
>>>>>Begin Spectral Data<<<<<
189.047	-169.48
189.435	-169.48
189.823	-169.48
190.211	39.3
190.599	54.6
190.987	2419.74
191.375	-16.78
191.763	130.17
192.151	13.76
192.538	251.99
192.926	179.44
193.314	214.96
193.702	188.04
194.089	-107.35
194.477	441.31
194.864	-22.57
195.252	60.86
195.639	89.74
196.027	-76.6
196.414	565.78
196.801	55.41
197.189	218.21
197.576	73.47
197.963	-6408.33
198.351	-20.44
198.738	-9.47
199.125	-25.97
199.512	35.12
199.899	-61.19
200.286	6.13
200.673	1.99
201.06	-32.71
201.447	-19.73
201.833	-35.37
202.22	-8.99
202.607	19.61
202.994	-11.07
203.38	-3.63
203.767	-1.09
204.154	30.89
204.54	50.02
204.927	28.45
205.313	26.64
205.699	-9.98
206.086	20.07
206.472	-3.27
206.858	-29.29
207.245	34.73
207.631	-33.48
208.017	25.32
208.403	-68.87
208.789	-2.28
209.175	-4.2
209.561	-77.83
209.947	-27.63
210.333	-42.99
210.719	14.4
211.105	25.83
211.491	6.29
211.876	-47.07
212.262	18.75
212.648	11.12
213.034	-56.39
213.419	-6.46
213.805	-13.79
214.19	-33.72
214.576	4.64
214.961	3.95
215.346	-33.85
215.732	-12.56
216.117	10.55
216.502	-14.57
216.888	-2.11
217.273	-1.85
217.658	-29.54
218.043	-19.01
218.428	-16.37
218.813	-15.48
219.198	-45.58
219.583	-17.23
219.968	14.1
220.353	-43.89
220.738	-2.22
221.122	-22.37
221.507	-13.3
221.892	-16.17
222.276	-33.26
222.661	0.47
223.046	-18.17
223.43	-2.56
223.815	2.33
224.199	-6.92
224.583	-7.16
224.968	6.12
225.352	-11.91
225.736	12.53
226.121	-3.51
226.505	-7.95
226.889	6.01
227.273	-4.83
227.657	1.49
228.041	-1.14
228.425	-0.21
228.809	-4.68
229.193	-0.86
229.577	1.16
229.961	0.22
230.344	1.22
230.728	2
231.112	1.51
231.495	-0.16
231.879	0.73
232.263	0.94
232.646	0.87
233.03	2.1
233.413	1.41
233.797	-0.02
234.18	2.04
234.563	-0.64
234.946	0.67
235.33	-0.35
235.713	0.73
236.096	0.88
236.479	0.55
236.862	-0.87
237.245	0.48
237.628	1.64
238.011	-0.3
238.394	0.66
238.777	0.05
239.16	2.47
239.543	2.31
239.925	-0.05
240.308	0.26
240.691	-1.31
241.073	-0.38
241.456	0.65
241.838	0.6
242.221	1.74
242.603	1.18
242.986	0.96
243.368	1.14
243.75	0.92
244.133	1.33
244.515	0.94
244.897	0.64
245.279	0.47
245.661	1.08
246.043	0.75
246.425	0.38
246.807	0.32
247.189	0.49
247.571	0.17
247.953	0.64
248.335	0.88
248.717	1.04
249.098	0.7
249.48	0.49
249.862	0.71
250.243	1.02
250.625	0.9
251.006	1.27
251.388	0.99
251.769	-0.5
252.151	0.77
252.532	0.74
252.913	0.75
253.295	-0.06
253.676	0.92
254.057	0.3
254.438	0.97
254.819	0.33
255.2	0.93
255.581	1.35
255.962	1.36
256.343	0.04
256.724	0.79
257.105	0.13
257.486	-0.33
257.867	0.05
258.247	0.13
258.628	1.05
259.009	0.3
259.389	-0.56
259.77	0.82
260.15	1.41
260.531	1.02
260.911	0.73
261.292	0.94
261.672	0.81
262.052	0.94
262.432	0.65
262.813	0.92
263.193	1
263.573	0.61
263.953	0.23
264.333	0.57
264.713	0.86
265.093	0.32
265.473	-0.35
265.853	1.01
266.233	1.01
266.612	0.17
266.992	0.49
267.372	1.5
267.752	1.31
268.131	0.6
268.511	0.24
268.89	1.03
269.27	0.24
269.649	0.26
270.029	0.73
270.408	0.52
270.787	0.39
271.167	1.22
271.546	0.91
271.925	0.88
272.304	0.88
272.683	0.65
273.062	0.81
273.441	0.86
273.82	0.97
274.199	0.55
274.578	0.76
274.957	0.56
275.336	1.36
275.715	0.76
276.093	0.13
276.472	0.16
276.851	0.56
277.229	0.49
277.608	0.53
277.986	0.98
278.365	1.03
278.743	0.92
279.122	0.15
279.5	0.72
279.878	0.5
280.257	0.84
280.635	0.96
281.013	0.23
281.391	0.61
281.769	0.98
282.147	0.62
282.525	0.42
282.903	0.49
283.281	1.15
283.659	0.5
284.037	0.35
284.415	0.74
284.792	0.5
285.17	0.55
285.548	0.7
285.925	0.51
286.303	0.79
286.68	0.49
287.058	0.63
287.435	0.28
287.813	0.85
288.19	0.57
288.567	0.74
288.945	0.78
289.322	0.81
289.699	0.67
290.076	0.55
290.453	0.5
290.83	0.7
291.207	0.72
291.584	0.88
291.961	0.6
292.338	0.24
292.715	0.39
293.092	1
293.469	0.53
293.845	0.57
294.222	0.85
294.599	0.39
294.975	-0.11
295.352	0.82
295.728	0.56
296.105	0.7
296.481	1.02
296.858	0.66
297.234	0.16
297.61	0.48
297.986	1.21
298.363	0.73
298.739	1.11
299.115	0.75
299.491	0.96
299.867	0.5
300.243	0.44
300.619	0.33
300.995	0.77
301.371	0.75
301.746	0.66
302.122	0.04
302.498	0.67
302.874	0.89
303.249	0.6
303.625	0.16
304	0.52
304.376	0.86
304.751	0.74
305.127	0.17
305.502	1.06
305.878	0.73
306.253	0.18
306.628	0.96
307.003	0.24
307.378	0.58
307.754	0.78
308.129	0.17
308.504	0.24
308.879	0.7
309.254	0.77
309.629	0.4
310.003	0.64
310.378	0.77
310.753	0.5
311.128	0.23
311.502	0.46
311.877	0.31
312.252	0.84
312.626	1.08
313.001	0.72
313.375	0.62
313.75	0.61
314.124	0.87
314.498	0.89
314.873	0.44
315.247	0.56
315.621	0.42
315.995	0.71
316.369	0.17
316.743	0.5
317.117	0.51
317.491	0.68
317.865	0.32
318.239	1.39
318.613	0.57
318.987	0.34
319.361	0.44
319.734	0.39
320.108	0.75
320.482	0.71
320.855	0.82
321.229	0.62
321.602	0.56
321.976	0.29
322.349	1.86
322.723	0.54
323.096	0.14
323.469	0.51
323.843	0.01
324.216	0.6
324.589	0.97
324.962	0.89
325.335	0.47
325.708	0.86
326.081	0.89
326.454	1.12
326.827	0.59
327.2	0.5
327.573	1.31
327.945	0.55
328.318	0.63
328.691	0.29
329.063	0.17
329.436	0.04
329.809	0.54
330.181	0.95
330.553	0.67
330.926	1.1
331.298	-0.06
331.671	0.6
332.043	0.45
332.415	0.75
332.787	0.65
333.159	0.5
333.532	0.91
333.904	0.76
334.276	0.7
334.648	0.69
335.02	0.44
335.391	0.81
335.763	0.52
336.135	0.82
336.507	0.51
336.879	0.47
337.25	0.59
337.622	1.06
337.993	0.74
338.365	0.72
338.736	0.78
339.108	0.36
339.479	0.81
339.851	0.82
340.222	1.01
340.593	1.01
340.964	0.81
341.336	0.48
341.707	0.52
342.078	0.57
342.449	0.69
342.82	0.49
343.191	0.94
343.562	1.33
343.933	0.64
344.303	0.99
344.674	1.06
345.045	0.42
345.416	1.27
345.786	0.74
346.157	1.02
346.527	0.62
346.898	0.61
347.268	0.75
347.639	0.72
348.009	0.97
348.38	0.48
348.75	0.64
349.12	0.99
349.49	0.54
349.861	1.13
350.231	0.89
350.601	0.71
350.971	0.89
351.341	0.73
351.711	0.82
352.081	0.34
352.45	0.25
352.82	0.29
353.19	0.86
353.56	0.71
353.929	0.99
354.299	1.16
354.669	1.01
355.038	1.03
355.408	0.55
355.777	0.84
356.147	0.56
356.516	0.75
356.885	0.92
357.254	0.85
357.624	0.53
357.993	0.99
358.362	0.79
358.731	1.25
359.1	1.03
359.469	1.12
359.838	0.82
360.207	0.88
360.576	0.81
360.945	0.64
361.314	0.87
361.682	0.44
362.051	0.78
362.42	0.85
362.788	0.89
363.157	0.86
363.525	0.9
363.894	0.75
364.262	0.91
364.631	1.09
364.999	0.79
365.367	0.91
365.735	0.78
366.104	0.66
366.472	0.61
366.84	0.9
367.208	1.35
367.576	0.89
367.944	0.85
368.312	0.78
368.68	1.05
369.048	0.57
369.416	0.49
369.783	0.89
370.151	1.02
370.519	1.33
370.886	0.63
371.254	1.12
371.621	0.98
371.989	0.91
372.356	0.68
372.724	0.55
373.091	0.7
373.458	0.58
373.826	0.98
374.193	0.98
374.56	1.1
374.927	0.56
375.294	0.82
375.661	0.75
376.028	1.05
376.395	0.96
376.762	0.48
377.129	0.75
377.496	0.97
377.863	0.86
378.229	1.13
378.596	0.98
378.963	1.02
379.329	1.27
379.696	0.65
380.062	0.91
380.429	0.97
380.795	0.95
381.161	0.5
381.528	0.61
381.894	1.04
382.26	0.84
382.626	0.98
382.993	1.07
383.359	0.86
383.725	0.7
384.091	0.83
384.457	0.77
384.823	0.94
385.188	0.95
385.554	1.08
385.92	0.85
386.286	0.83
386.651	0.77
387.017	1.17
387.383	0.82
387.748	0.98
388.114	0.77
388.479	0.81
388.845	0.79
389.21	1.1
389.575	1.08
389.94	1.1
390.306	0.83
390.671	0.73
391.036	0.84
391.401	1.1
391.766	0.9
392.131	1.1
392.496	1.03
392.861	0.86
393.226	0.86
393.591	1.03
393.956	0.98
394.32	1.18
394.685	1.04
395.05	1.08
395.414	1.05
395.779	0.98
396.143	0.85
396.508	0.86
396.872	1.01
397.236	1.26
397.601	0.95
397.965	0.9
398.329	0.89
398.694	0.92
399.058	0.98
399.422	0.9
399.786	0.74
400.15	1.04
400.514	1.05
400.878	1.04
401.242	1.12
401.605	0.93
401.969	0.78
402.333	0.89
402.697	1.19
403.06	1.06
403.424	1.04
403.787	1.12
404.151	0.93
404.514	0.98
404.878	0.72
405.241	0.9
405.604	0.89
405.968	0.93
406.331	0.97
406.694	1.06
407.057	0.95
407.42	0.85
407.783	1.09
408.146	0.98
408.509	0.93
408.872	1.15
409.235	1.3
409.598	0.95
409.961	0.88
410.323	0.81
410.686	0.95
411.049	0.91
411.411	0.9
411.774	0.99
412.136	1.07
412.499	1.08
412.861	0.65
413.223	0.77
413.586	0.81
413.948	1.07
414.31	0.93
414.672	0.94
415.035	1.03
415.397	0.8
415.759	1
416.121	1.11
416.483	0.94
416.845	0.98
417.206	0.86
417.568	0.9
417.93	1.14
418.292	0.94
418.653	0.79
419.015	0.8
419.377	1.02
419.738	1.08
420.1	0.92
420.461	0.95
420.822	0.96
421.184	1.02
421.545	1.05
421.906	0.97
422.267	0.99
422.629	0.96
422.99	0.99
423.351	0.96
423.712	0.96
424.073	1.04
424.434	1.2
424.795	0.92
425.155	0.9
425.516	0.97
425.877	1.09
426.238	0.97
426.598	1.02
426.959	0.98
427.32	0.93
427.68	0.95
428.041	1.16
428.401	0.85
428.761	1.02
429.122	1.04
429.482	0.95
429.842	1.03
430.202	1.08
430.563	0.94
430.923	1.04
431.283	1.09
431.643	1.09
432.003	1.15
432.363	1.13
432.722	1.03
433.082	0.88
433.442	0.99
433.802	0.91
434.161	1.02
434.521	1.05
434.881	1.16
435.24	0.94
435.6	1.03
435.959	1.01
436.319	1.04
436.678	1.07
437.037	0.94
437.396	1.09
437.756	0.99
438.115	0.93
438.474	0.98
438.833	1.11
439.192	1
439.551	1.04
439.91	1
440.269	1.07
440.628	0.91
440.987	1.04
441.345	1.08
441.704	1.06
442.063	0.99
442.421	1.05
442.78	1.03
443.138	1.04
443.497	0.99
443.855	1.1
444.214	0.89
444.572	1.18
444.93	0.96
445.288	1.06
445.647	0.85
446.005	1.01
446.363	0.98
446.721	1.07
447.079	0.92
447.437	1.01
447.795	1.01
448.153	1.09
448.51	1.07
448.868	0.95
449.226	1.04
449.584	1.03
449.941	1.14
450.299	0.99
450.656	0.97
451.014	1.09
451.371	0.98
451.729	1.01
452.086	0.95
452.443	1.05
452.801	1.01
453.158	1.2
453.515	0.92
453.872	1.05
454.229	0.86
454.586	0.94
454.943	1.21
455.3	1.21
455.657	0.91
456.014	1.05
456.371	1.12
456.727	1.1
457.084	1.13
457.441	1.06
457.797	0.99
458.154	1.06
458.51	1.02
458.867	1.05
459.223	0.98
459.58	1.13
459.936	1.05
460.292	0.98
460.648	0.98
461.005	0.99
461.361	1.03
461.717	1.04
462.073	1.07
462.429	1.04
462.785	1.15
463.141	1.05
463.496	1.07
463.852	1.2
464.208	1
464.564	0.92
464.919	1.03
465.275	1.02
465.631	1.21
465.986	1.1
466.342	0.93
466.697	0.98
467.052	1.19
467.408	1.03
467.763	1.03
468.118	0.78
468.473	1.05
468.829	0.96
469.184	1.15
469.539	0.89
469.894	1.03
470.249	1.24
470.603	1.24
470.958	1.09
471.313	1.02
471.668	1.02
472.023	1.19
472.377	1.03
472.732	1.07
473.086	1.11
473.441	1.01
473.795	1.28
474.15	0.99
474.504	1.03
474.859	0.77
475.213	1.25
475.567	0.96
475.921	1.12
476.275	1.22
476.63	1.31
476.984	0.95
477.338	1.14
477.692	1
478.045	1.15
478.399	1.19
478.753	1.04
479.107	1.14
479.461	1.1
479.814	1.16
480.168	1.04
480.521	1.14
480.875	1.1
481.228	1.1
481.582	0.96
481.935	1.16
482.289	1.1
482.642	1.25
482.995	1.1
483.348	1.03
483.701	1.14
484.055	1.08
484.408	1.05
484.761	1.05
485.114	1.02
485.466	1.01
485.819	1
486.172	1.03
486.525	1.03
486.878	1.08
487.23	1.06
487.583	1.08
487.936	1.04
488.288	1.11
488.641	1.06
488.993	1.06
489.345	1.04
489.698	1.05
490.05	1.04
490.402	1.08
490.754	1.07
491.107	1.02
491.459	1.12
491.811	1.02
492.163	1.04
492.515	1.03
492.866	1.01
493.218	1.06
493.57	1.11
493.922	1.06
494.274	1.13
494.625	1.17
494.977	1.13
495.328	1.06
495.68	1.07
496.031	1.03
496.383	1.05
496.734	0.97
497.086	1.14
497.437	1.21
497.788	1.24
498.139	1.13
498.49	1.21
498.842	1.12
499.193	1.02
499.544	1.08
499.894	1.05
500.245	1.13
500.596	1.17
500.947	1
501.298	1.07
501.648	1.17
501.999	1.14
502.35	1.03
502.7	1.26
503.051	1.1
503.401	1.21
503.752	0.94
504.102	1.09
504.452	0.97
504.803	1.08
505.153	1.12
505.503	1.18
505.853	1.21
506.203	1.12
506.553	1.06
506.903	1.15
507.253	1.1
507.603	1.05
507.953	1.07
508.303	1.16
508.652	1.04
509.002	1.12
509.352	1.12
509.701	0.97
510.051	1.18
510.4	1.12
510.75	1.1
511.099	1.04
511.449	1.19
511.798	1.05
512.147	1.06
512.496	1.14
512.846	1.01
513.195	1.14
513.544	1.18
513.893	1.16
514.242	1.06
514.591	1.09
514.939	1.13
515.288	1.19
515.637	1.1
515.986	1.09
516.334	1.12
516.683	1.05
517.032	1.06
517.38	1.05
517.729	1.05
518.077	1.14
518.426	1.18
518.774	1.13
519.122	1.18
519.47	1.1
519.819	1.09
520.167	1.07
520.515	1.12
520.863	1.16
521.211	1.09
521.559	1.11
521.907	1.11
522.255	1.15
522.602	1.25
522.95	1.18
523.298	1.11
523.645	1.08
523.993	1.11
524.341	1.09
524.688	1.09
525.036	1.12
525.383	1.23
525.73	1.08
526.078	1.09
526.425	1.08
526.772	1.13
527.119	1.16
527.466	1.23
527.814	1.13
528.161	1.15
528.508	1.24
528.854	1.14
529.201	1.07
529.548	1.11
529.895	1.06
530.242	1.08
530.588	1.05
530.935	1.07
531.282	1.06
531.628	1.08
531.975	1.07
532.321	1.12
532.667	1.15
533.014	1.21
533.36	1.12
533.706	1.11
534.052	1.15
534.399	1.16
534.745	1.08
535.091	1.08
535.437	1.12
535.783	1.09
536.129	1.1
536.474	1.13
536.82	1.18
537.166	1.04
537.512	1.14
537.857	1.16
538.203	1.15
538.549	1.09
538.894	1.14
539.239	1.14
539.585	1.11
539.93	1.18
540.276	1.06
540.621	1.21
540.966	1.12
541.311	1.14
541.656	1.09
542.001	1
542.346	1.09
542.691	1.08
543.036	1.14
543.381	1.1
543.726	1.15
544.071	1.17
544.415	1.1
544.76	1.1
545.105	1.06
545.449	1.14
545.794	1.12
546.138	1.08
546.483	1.22
546.827	1.15
547.171	1.24
547.516	1.12
547.86	1.09
548.204	1.21
548.548	1.11
548.892	1.08
549.236	1.11
549.58	1.15
549.924	1.24
550.268	1.21
550.612	1.17
550.956	1.29
551.3	1.13
551.643	1.1
551.987	1.31
552.33	1.26
552.674	1.09
553.017	1.17
553.361	1.26
553.704	1.27
554.048	1.16
554.391	1.28
554.734	1.14
555.077	1.15
555.42	1.2
555.764	1.2
556.107	1.33
556.45	1.21
556.793	1.33
557.135	1.25
557.478	1.1
557.821	1.18
558.164	1.19
558.507	1.1
558.849	1.41
559.192	1.23
559.534	1.08
559.877	0.98
560.219	1.08
560.562	1.13
560.904	1.43
561.246	1.03
561.589	1.38
561.931	1.23
562.273	1.11
562.615	1.24
562.957	1.06
563.299	1.19
563.641	1.04
563.983	1.12
564.325	1.13
564.667	1.16
565.008	1.12
565.35	1.2
565.692	1.16
566.033	1.27
566.375	1.19
566.716	1.08
567.058	1.09
567.399	1.18
567.741	1.23
568.082	1.26
568.423	1.03
568.764	1.26
569.105	1.14
569.447	1.13
569.788	1.16
570.129	1.09
570.47	1.16
570.811	1.12
571.151	1.2
571.492	1.21
571.833	1.03
572.174	1.32
572.514	1.13
572.855	1.18
573.195	1.13
573.536	1.13
573.876	1.08
574.217	1.16
574.557	1.24
574.898	1.16
575.238	1.21
575.578	1.27
575.918	1.24
576.258	1.46
576.598	1.05
576.938	1.08
577.278	1.24
577.618	1.34
577.958	1.27
578.298	1.27
578.638	1.02
578.977	1.2
579.317	1.24
579.657	1.03
579.996	1.35
580.336	1.31
580.675	0.95
581.014	1.28
581.354	1.06
581.693	1.32
582.032	1.11
582.372	1.21
582.711	1.28
583.05	1.06
583.389	1.3
583.728	1.34
584.067	1.01
584.406	1.38
584.745	1.03
585.083	1.16
585.422	1.31
585.761	1.22
586.1	1.34
586.438	1.16
586.777	1.14
587.115	1.34
587.454	1.05
587.792	1.3
588.13	1.47
588.469	1.27
588.807	1.19
589.145	1.23
589.483	0.99
589.821	1.22
590.159	1.36
590.497	1.28
590.835	1.36
591.173	1.29
591.511	1.44
591.849	1.3
592.187	1.14
592.524	1.13
592.862	1
593.2	1.2
593.537	1.18
593.875	1.12
594.212	1.16
594.55	1.47
594.887	1.43
595.224	1.2
595.561	1.19
595.899	1.32
596.236	1.16
596.573	1.05
596.91	1.12
597.247	1.4
597.584	1.43
597.921	1.34
598.258	1.33
598.594	1.2
598.931	1.07
599.268	1.22
599.604	1.35
599.941	1.29
600.277	1.26
600.614	1.07
600.95	1.21
601.287	0.79
601.623	1.14
601.959	1.31
602.296	1.34
602.632	1.25
602.968	1.08
603.304	1.14
603.64	1.09
603.976	1.04
604.312	1.23
604.648	1.21
604.984	1.41
605.319	1.23
605.655	1.2
605.991	1.13
606.326	1.34
606.662	1.2
606.998	1.37
607.333	1.17
607.668	1.23
608.004	1.24
608.339	1.27
608.674	1.42
609.01	1.51
609.345	1.3
609.68	1.37
610.015	1.41
610.35	1.36
610.685	1.13
611.02	1
611.355	1.22
611.689	1.05
612.024	1.4
612.359	1.34
612.694	1.29
613.028	1.05
613.363	1.23
613.697	1.19
614.032	1.21
614.366	1.45
614.7	1.21
615.035	1.25
615.369	1.43
615.703	1.28
616.037	1.37
616.371	1.12
616.705	1.31
617.039	1.06
617.373	1.6
617.707	1.28
618.041	1.25
618.375	0.62
618.709	1.32
619.042	1.16
619.376	1.36
619.71	1.05
620.043	1.59
620.377	1.37
620.71	1.29
621.043	1.67
621.377	1.34
621.71	1.4
622.043	1.31
622.376	1.47
622.709	1.94
623.043	1.2
623.376	1.53
623.709	1.68
624.041	1.1
624.374	1.29
624.707	1.3
625.04	1.32
625.373	1.45
625.705	1.34
626.038	1.65
626.37	1.1
626.703	1.56
627.035	1.39
627.368	1.16
627.7	1.35
628.032	1.48
628.365	1.48
628.697	1.62
629.029	1.44
629.361	1.45
629.693	1.34
630.025	1.53
630.357	1.36
630.689	1.37
631.021	1.27
631.353	1.46
631.684	1.16
632.016	0.95
632.348	1.26
632.679	1.59
633.011	1.23
633.342	1.17
633.674	1.09
634.005	1.49
634.336	1.57
634.668	1.54
634.999	1.15
635.33	1.43
635.661	1.32
635.992	1.36
636.323	1.22
636.654	1.39
636.985	1.22
637.316	1.28
637.647	1.7
637.977	1.23
638.308	1.58
638.639	1.36
638.969	1.17
639.3	1.5
639.63	1.09
639.961	1.73
640.291	1.19
640.622	1.45
640.952	1.73
641.282	0.97
641.612	1.09
641.943	1.3
642.273	1.45
642.603	1.58
642.933	1.41
643.263	1.39
643.592	1.88
643.922	1.97
644.252	1.42
644.582	1.37
644.911	1.23
645.241	1.1
645.571	1.41
645.9	1.48
646.23	1.52
646.559	0.82
646.888	1.59
647.218	1.44
647.547	1.56
647.876	1.16
648.205	0.98
648.534	1.32
648.863	1.06
649.192	1.15
649.521	1.41
649.85	1.19
650.179	1.38
650.508	0.7
650.837	1.57
651.165	1.47
651.494	1.34
651.822	1.72
652.151	1.44
652.479	1.37
652.808	1.18
653.136	1.22
653.465	1.4
653.793	1.47
654.121	1.42
654.449	1.15
654.777	1.19
655.105	0.74
655.433	1.37
655.761	1.12
656.089	1.52
656.417	1.96
656.745	1.63
657.073	0.87
657.4	1.33
657.728	1
658.056	1.44
658.383	1.72
658.711	1.59
659.038	1.82
659.365	1.88
659.693	1.5
660.02	1.17
660.347	1.58
660.674	1.26
661.001	1.33
661.329	1.04
661.656	1.24
661.982	1.13
662.309	1.22
662.636	1.43
662.963	1.56
663.29	1.28
663.616	1.29
663.943	1.41
664.27	1.23
664.596	1.2
664.923	1.38
665.249	1.54
665.576	1.11
665.902	1.01
666.228	1.65
666.554	1.45
666.881	0.76
667.207	1.51
667.533	1.55
667.859	0.85
668.185	1.39
668.511	1.53
668.837	1.31
669.162	1.34
669.488	0.89
669.814	1.06
670.139	1.08
670.465	1.48
670.791	1.36
671.116	1
671.442	0.74
671.767	1.32
672.092	1.41
672.418	1.37
672.743	1.61
673.068	1.46
673.393	1.39
673.718	1.2
674.043	1.04
674.368	0.91
674.693	1.78
675.018	1.74
675.343	1.48
675.667	1.49
675.992	0.86
676.317	0.44
676.641	1.78
676.966	1.26
677.29	0.82
677.615	1.18
677.939	1.22
678.264	0.97
678.588	1.52
678.912	1.28
679.236	1.4
679.56	1.57
679.885	1.16
680.209	1.96
680.532	1.77
680.856	1.04
681.18	2
681.504	1.24
681.828	1.04
682.152	1.31
682.475	1.32
682.799	1.12
683.122	1.77
683.446	1.02
683.769	1.73
684.093	1.98
684.416	1.14
684.739	1.36
685.062	2.12
685.386	1.96
685.709	1.27
686.032	1.23
686.355	1.67
686.678	1.39
687.001	1.76
687.324	1.32
687.646	1.44
687.969	1.96
688.292	1.5
688.614	1.4
688.937	1.78
689.26	1.81
689.582	1.89
689.904	1.85
690.227	1.76
690.549	2.2
690.871	1.11
691.194	1.94
691.516	1.15
