Data from 0001_forehead_Reflection__1__252.txt Node

Date: Thu Dec 15 18:44:36 CST 2022
User: ToomeyLab
Spectrometer: FLMS14357
Trigger mode: 0
Integration Time (sec): 1.000000E-2
Scans to average: 100
Electric dark correction enabled: true
Nonlinearity correction enabled: false
Boxcar width: 0
XAxis mode: Wavelengths
Number of Pixels in Spectrum: 2048
>>>>>Begin Spectral Data<<<<<
189.047	91.79
189.435	91.79
189.823	91.79
190.211	-5.59
190.599	29.91
190.987	-2896.71
191.375	-44.48
191.763	10.45
192.151	50.19
192.538	46.18
192.926	83.39
193.314	135.46
193.702	2.36
194.089	-72.79
194.477	177.57
194.864	252.77
195.252	-25.95
195.639	26.76
196.027	-262.1
196.414	323.14
196.801	76.88
197.189	256.12
197.576	146.41
197.963	15387.5
198.351	40.8
198.738	-24.6
199.125	-9.12
199.512	34.72
199.899	-70.58
200.286	19.04
200.673	18.03
201.06	29.97
201.447	10.83
201.833	-1.39
202.22	1.18
202.607	-43.68
202.994	35.31
203.38	32.06
203.767	-77.56
204.154	74.87
204.54	20.23
204.927	31.67
205.313	34.5
205.699	28
206.086	36.4
206.472	14.24
206.858	-12.74
207.245	10.13
207.631	-3.85
208.017	23.16
208.403	-44.54
208.789	-5.46
209.175	54.11
209.561	-100.71
209.947	-4.3
210.333	-1.74
210.719	25.87
211.105	19.42
211.491	-8.47
211.876	-38.83
212.262	-3.75
212.648	15.71
213.034	-20.79
213.419	-14.92
213.805	-15.83
214.19	-49.34
214.576	-40.3
214.961	-0.2
215.346	-27.33
215.732	-38.32
216.117	-12.56
216.502	-28.4
216.888	4.9
217.273	4.58
217.658	2.99
218.043	5.71
218.428	-6.88
218.813	7.39
219.198	-38.49
219.583	5.69
219.968	-9.25
220.353	-19.95
220.738	-28.33
221.122	-1.69
221.507	-27.38
221.892	-15.68
222.276	-3.8
222.661	-15.15
223.046	-2.7
223.43	11.7
223.815	7.53
224.199	-2.23
224.583	-3.43
224.968	3.45
225.352	-11.5
225.736	1.1
226.121	0.54
226.505	-4.6
226.889	-2.74
227.273	0.59
227.657	1.54
228.041	2.74
228.425	-2.24
228.809	-1.54
229.193	2.04
229.577	0.25
229.961	0.26
230.344	1.65
230.728	1.94
231.112	1.5
231.495	0.86
231.879	0.55
232.263	1.78
232.646	1.43
233.03	2.35
233.413	-0.22
233.797	0.06
234.18	-0.25
234.563	2.82
234.946	0.14
235.33	-0.93
235.713	2.5
236.096	0.59
236.479	2.36
236.862	1.22
237.245	-0.62
237.628	1.82
238.011	2.7
238.394	1.05
238.777	1.2
239.16	2.19
239.543	1.9
239.925	2.11
240.308	0.77
240.691	2.76
241.073	0.72
241.456	0.88
241.838	0.28
242.221	0.8
242.603	1.24
242.986	0.97
243.368	1.32
243.75	1.41
244.133	1.64
244.515	1.03
244.897	1.35
245.279	1.16
245.661	1.13
246.043	1.35
246.425	1.62
246.807	1.44
247.189	1.24
247.571	0.99
247.953	1.26
248.335	1.5
248.717	1.54
249.098	1.28
249.48	1.49
249.862	1.62
250.243	1.58
250.625	1.32
251.006	1.94
251.388	1.29
251.769	0.83
252.151	3.07
252.532	1.03
252.913	1.22
253.295	1.14
253.676	1.41
254.057	1.02
254.438	1.73
254.819	1.6
255.2	1.75
255.581	2.37
255.962	1.61
256.343	2.54
256.724	1.3
257.105	1.09
257.486	0.53
257.867	1.27
258.247	1.8
258.628	1.71
259.009	0.81
259.389	0
259.77	1.53
260.15	1.97
260.531	1.94
260.911	1.37
261.292	1.72
261.672	1.44
262.052	1.3
262.432	1.13
262.813	1.48
263.193	1.21
263.573	1.42
263.953	1.29
264.333	2.19
264.713	1.27
265.093	1.02
265.473	0.79
265.853	1.16
266.233	1.62
266.612	1.2
266.992	1.41
267.372	1.77
267.752	2.01
268.131	1.06
268.511	1.45
268.89	1.73
269.27	1.36
269.649	1
270.029	1.36
270.408	0.96
270.787	1.52
271.167	1.31
271.546	2.19
271.925	1.73
272.304	1.19
272.683	1.73
273.062	1.54
273.441	1.28
273.82	1.66
274.199	1.32
274.578	1.55
274.957	1.79
275.336	1.86
275.715	1.58
276.093	1.19
276.472	1.06
276.851	1.86
277.229	1.69
277.608	1.24
277.986	1.31
278.365	1.76
278.743	1.18
279.122	1.54
279.5	1.72
279.878	1.31
280.257	2.03
280.635	2.03
281.013	0.84
281.391	1.93
281.769	1.63
282.147	1.48
282.525	1.15
282.903	1.54
283.281	1.68
283.659	1.84
284.037	1.5
284.415	1.39
284.792	1.31
285.17	1.4
285.548	1.24
285.925	1.61
286.303	2.02
286.68	1.27
287.058	1.66
287.435	1.65
287.813	1.91
288.19	1.36
288.567	1.71
288.945	1.09
289.322	1.59
289.699	2.01
290.076	1.58
290.453	1.39
290.83	2.08
291.207	1.73
291.584	1.71
291.961	1.87
292.338	1.64
292.715	1.96
293.092	2.56
293.469	1.73
293.845	1.94
294.222	2.35
294.599	1.68
294.975	1.85
295.352	2.05
295.728	1.94
296.105	1.95
296.481	2.08
296.858	2.04
297.234	1.64
297.61	1.51
297.986	2.44
298.363	2.02
298.739	2.27
299.115	2.02
299.491	2.69
299.867	1.75
300.243	2.1
300.619	2.1
300.995	1.87
301.371	2.52
301.746	2.42
302.122	2.15
302.498	2.11
302.874	2.74
303.249	2.12
303.625	1.81
304	2.55
304.376	2.73
304.751	2.55
305.127	2.63
305.502	2.37
305.878	2.58
306.253	1.86
306.628	2.68
307.003	2.54
307.378	2.47
307.754	2.28
308.129	2.55
308.504	2.73
308.879	2.85
309.254	2.85
309.629	2.72
310.003	2.9
310.378	2.9
310.753	2.67
311.128	2.73
311.502	2.74
311.877	2.63
312.252	3.13
312.626	3.13
313.001	2.91
313.375	2.87
313.75	3.2
314.124	3.33
314.498	3.72
314.873	3.16
315.247	2.76
315.621	2.94
315.995	3.46
316.369	2.61
316.743	3.11
317.117	3.43
317.491	3.05
317.865	2.88
318.239	3.46
318.613	2.78
318.987	3.12
319.361	3.32
319.734	3.63
320.108	3.4
320.482	3.72
320.855	3.83
321.229	3.52
321.602	3.48
321.976	3.04
322.349	4.17
322.723	3.29
323.096	3.68
323.469	3.48
323.843	3.48
324.216	3.38
324.589	4.32
324.962	3.41
325.335	3.26
325.708	3.55
326.081	3.87
326.454	4.13
326.827	4.01
327.2	3.63
327.573	3.88
327.945	3.37
328.318	3.55
328.691	4.24
329.063	3.51
329.436	3.8
329.809	4.4
330.181	4.69
330.553	4.26
330.926	4.41
331.298	4.28
331.671	4.32
332.043	4.04
332.415	4.24
332.787	4.57
333.159	3.97
333.532	4.14
333.904	4.05
334.276	4.17
334.648	4.03
335.02	4.03
335.391	4.41
335.763	4.45
336.135	4.64
336.507	4.09
336.879	4.21
337.25	4.66
337.622	4.64
337.993	4.27
338.365	5
338.736	4.88
339.108	4.45
339.479	4.46
339.851	4.76
340.222	4.63
340.593	4.36
340.964	4.75
341.336	4.82
341.707	4.8
342.078	4.58
342.449	4.63
342.82	4.65
343.191	4.87
343.562	4.76
343.933	4.7
344.303	4.66
344.674	4.49
345.045	4.64
345.416	5.07
345.786	4.71
346.157	5.09
346.527	4.8
346.898	4.64
347.268	5.16
347.639	4.7
348.009	5.28
348.38	4.86
348.75	5.51
349.12	5.22
349.49	5
349.861	5.35
350.231	5.65
350.601	5.23
350.971	5.21
351.341	5.13
351.711	5.15
352.081	5.14
352.45	5.3
352.82	4.83
353.19	4.97
353.56	5.26
353.929	5.5
354.299	5.56
354.669	5.48
355.038	5.55
355.408	5.46
355.777	5.45
356.147	5.59
356.516	5.1
356.885	5.27
357.254	5.44
357.624	5.2
357.993	5.66
358.362	5.81
358.731	5.6
359.1	5.37
359.469	5.83
359.838	5.65
360.207	5.28
360.576	5.6
360.945	5.73
361.314	5.68
361.682	5.49
362.051	5.59
362.42	5.65
362.788	5.78
363.157	5.92
363.525	5.72
363.894	5.63
364.262	5.78
364.631	6.04
364.999	5.66
365.367	5.67
365.735	5.79
366.104	5.93
366.472	5.61
366.84	6.1
367.208	6.3
367.576	6.12
367.944	5.91
368.312	5.89
368.68	6.3
369.048	5.9
369.416	6.08
369.783	6.37
370.151	6.5
370.519	6.44
370.886	6.44
371.254	6.21
371.621	6.37
371.989	6.45
372.356	6.28
372.724	6.19
373.091	6.29
373.458	6.73
373.826	6.72
374.193	6.61
374.56	6.6
374.927	6.44
375.294	6.59
375.661	6.77
376.028	6.22
376.395	6.64
376.762	6.18
377.129	6.51
377.496	6.64
377.863	6.69
378.229	6.81
378.596	6.62
378.963	6.9
379.329	6.92
379.696	6.39
380.062	6.81
380.429	6.64
380.795	6.87
381.161	6.75
381.528	6.54
381.894	6.72
382.26	7.12
382.626	7.04
382.993	7.16
383.359	6.78
383.725	6.75
384.091	6.73
384.457	6.92
384.823	6.94
385.188	7.11
385.554	6.8
385.92	7
386.286	7.1
386.651	6.9
387.017	7.06
387.383	6.96
387.748	7.26
388.114	7.11
388.479	7.18
388.845	6.77
389.21	7.4
389.575	7.49
389.94	7.31
390.306	7.45
390.671	7.37
391.036	7.25
391.401	7.46
391.766	7.3
392.131	7.69
392.496	7.34
392.861	7.52
393.226	7.21
393.591	7.4
393.956	7.31
394.32	7.73
394.685	7.45
395.05	7.73
395.414	7.72
395.779	7.66
396.143	7.35
396.508	7.46
396.872	7.52
397.236	7.82
397.601	7.82
397.965	7.89
398.329	7.77
398.694	7.46
399.058	7.86
399.422	7.74
399.786	7.61
400.15	7.68
400.514	7.84
400.878	8.04
401.242	7.74
401.605	7.85
401.969	7.92
402.333	7.88
402.697	8.18
403.06	8.03
403.424	7.91
403.787	8.05
404.151	8.11
404.514	8.07
404.878	8
405.241	8.07
405.604	7.95
405.968	8.04
406.331	8.32
406.694	8.06
407.057	8.09
407.42	8.24
407.783	8.29
408.146	8.17
408.509	8.46
408.872	8.37
409.235	8.36
409.598	8.29
409.961	8.39
410.323	8.34
410.686	8.15
411.049	8.35
411.411	8.11
411.774	8.52
412.136	8.45
412.499	8.57
412.861	8.25
413.223	8.37
413.586	8.41
413.948	8.56
414.31	8.78
414.672	8.45
415.035	8.71
415.397	8.44
415.759	8.35
416.121	8.63
416.483	8.6
416.845	8.53
417.206	8.48
417.568	8.48
417.93	8.55
418.292	8.58
418.653	8.63
419.015	8.68
419.377	8.51
419.738	8.65
420.1	8.67
420.461	8.48
420.822	8.63
421.184	8.65
421.545	8.62
421.906	8.77
422.267	8.6
422.629	8.59
422.99	8.65
423.351	8.6
423.712	8.7
424.073	8.87
424.434	8.86
424.795	8.71
425.155	8.66
425.516	8.77
425.877	8.75
426.238	8.74
426.598	8.86
426.959	8.97
427.32	8.86
427.68	8.89
428.041	9.13
428.401	8.9
428.761	9.37
429.122	9.08
429.482	9.26
429.842	9.25
430.202	9.28
430.563	9.28
430.923	9.16
431.283	9.36
431.643	9.42
432.003	9.31
432.363	9.35
432.722	9.6
433.082	9.32
433.442	9.49
433.802	9.46
434.161	9.36
434.521	9.32
434.881	9.33
435.24	9.42
435.6	9.4
435.959	9.55
436.319	9.44
436.678	9.57
437.037	9.55
437.396	9.57
437.756	9.51
438.115	9.55
438.474	9.77
438.833	9.69
439.192	9.56
439.551	9.46
439.91	9.71
440.269	9.61
440.628	9.56
440.987	9.77
441.345	9.62
441.704	9.67
442.063	9.65
442.421	9.64
442.78	9.7
443.138	9.68
443.497	9.84
443.855	9.99
444.214	9.8
444.572	10.01
444.93	9.9
445.288	9.84
445.647	9.84
446.005	9.92
446.363	9.97
446.721	9.92
447.079	9.87
447.437	9.77
447.795	9.89
448.153	9.89
448.51	9.99
448.868	10
449.226	9.95
449.584	9.98
449.941	10.04
450.299	10.17
450.656	10.23
451.014	10.15
451.371	10.44
451.729	10.24
452.086	10.38
452.443	10.6
452.801	10.31
453.158	10.57
453.515	10.42
453.872	10.37
454.229	10.34
454.586	10.23
454.943	10.49
455.3	10.54
455.657	10.41
456.014	10.59
456.371	10.78
456.727	10.68
457.084	10.75
457.441	10.83
457.797	10.73
458.154	10.81
458.51	10.72
458.867	10.65
459.223	10.78
459.58	10.76
459.936	10.65
460.292	10.7
460.648	10.57
461.005	10.52
461.361	10.59
461.717	10.61
462.073	10.84
462.429	10.83
462.785	11.04
463.141	10.97
463.496	10.91
463.852	11.04
464.208	11.08
464.564	10.94
464.919	11.01
465.275	11.27
465.631	11.45
465.986	11.3
466.342	11.15
466.697	11.22
467.052	11.35
467.408	11.33
467.763	11.24
468.118	11.12
468.473	11.31
468.829	11.32
469.184	11.39
469.539	11.35
469.894	11.3
470.249	11.58
470.603	11.61
470.958	11.55
471.313	11.56
471.668	11.53
472.023	11.49
472.377	11.5
472.732	11.67
473.086	11.7
473.441	11.55
473.795	11.9
474.15	11.66
474.504	11.63
474.859	11.42
475.213	11.74
475.567	11.74
475.921	11.7
476.275	11.87
476.63	11.8
476.984	11.69
477.338	12.01
477.692	11.85
478.045	11.87
478.399	11.77
478.753	11.97
479.107	12.13
479.461	11.94
479.814	11.87
480.168	11.95
480.521	12.05
480.875	12
481.228	12.05
481.582	12.07
481.935	12.17
482.289	12.07
482.642	12.18
482.995	11.96
483.348	11.97
483.701	12
484.055	11.96
484.408	11.82
484.761	11.65
485.114	11.48
485.466	11.43
485.819	11.44
486.172	11.54
486.525	11.72
486.878	11.88
487.23	12
487.583	12.01
487.936	12.03
488.288	12.08
488.641	11.86
488.993	11.85
489.345	11.8
489.698	11.85
490.05	11.92
490.402	12.1
490.754	12.19
491.107	12.25
491.459	12.46
491.811	12.43
492.163	12.45
492.515	12.38
492.866	12.02
493.218	12.07
493.57	12.2
493.922	12.31
494.274	12.41
494.625	12.6
494.977	12.66
495.328	12.83
495.68	12.87
496.031	12.96
496.383	12.93
496.734	12.96
497.086	13.08
497.437	13.13
497.788	13.14
498.139	13.01
498.49	12.95
498.842	13.05
499.193	12.96
499.544	13.09
499.894	13.09
500.245	13.12
500.596	13.15
500.947	13.34
501.298	13.36
501.648	13.38
501.999	13.44
502.35	13.32
502.7	13.53
503.051	13.42
503.401	13.63
503.752	13.49
504.102	13.47
504.452	13.46
504.803	13.6
505.153	13.63
505.503	13.71
505.853	13.54
506.203	13.7
506.553	13.67
506.903	13.76
507.253	13.72
507.603	13.72
507.953	13.78
508.303	13.84
508.652	13.75
509.002	13.79
509.352	13.85
509.701	13.7
510.051	13.91
510.4	13.84
510.75	13.72
511.099	13.72
511.449	13.99
511.798	13.91
512.147	13.94
512.496	13.94
512.846	13.99
513.195	14.11
513.544	14.12
513.893	14.1
514.242	14.1
514.591	14.15
514.939	14.15
515.288	14.23
515.637	14.22
515.986	14.27
516.334	14.49
516.683	14.3
517.032	14.31
517.38	14.45
517.729	14.54
518.077	14.43
518.426	14.5
518.774	14.46
519.122	14.5
519.47	14.34
519.819	14.25
520.167	14.34
520.515	14.31
520.863	14.39
521.211	14.56
521.559	14.59
521.907	14.64
522.255	14.61
522.602	14.84
522.95	14.73
523.298	14.85
523.645	14.82
523.993	14.79
524.341	14.87
524.688	14.97
525.036	14.88
525.383	14.95
525.73	14.82
526.078	15.02
526.425	14.9
526.772	14.88
527.119	14.78
527.466	14.82
527.814	14.86
528.161	14.86
528.508	14.9
528.854	14.88
529.201	14.8
529.548	14.56
529.895	14.43
530.242	14.43
530.588	14.43
530.935	14.59
531.282	14.73
531.628	14.78
531.975	15.04
532.321	15.04
532.667	15.12
533.014	15.27
533.36	15.36
533.706	15.34
534.052	15.25
534.399	15.15
534.745	14.99
535.091	14.91
535.437	15.06
535.783	15.22
536.129	15.39
536.474	15.46
536.82	15.65
537.166	15.6
537.512	15.67
537.857	15.54
538.203	15.48
538.549	15.47
538.894	15.57
539.239	15.71
539.585	15.88
539.93	15.91
540.276	16.03
540.621	16.09
540.966	16.1
541.311	16.11
541.656	16
542.001	15.87
542.346	15.77
542.691	15.62
543.036	15.48
543.381	15.6
543.726	15.76
544.071	15.8
544.415	15.97
544.76	16.02
545.105	15.99
545.449	16.06
545.794	16.24
546.138	16.22
546.483	16.54
546.827	16.42
547.171	16.48
547.516	16.57
547.86	16.55
548.204	16.43
548.548	16.46
548.892	16.43
549.236	16.57
549.58	16.9
549.924	16.91
550.268	17.09
550.612	16.85
550.956	17.12
551.3	17.26
551.643	17.16
551.987	17.13
552.33	17.29
552.674	17.32
553.017	17.3
553.361	17.12
553.704	17.37
554.048	17.31
554.391	17.28
554.734	17.23
555.077	17.27
555.42	17.21
555.764	17.34
556.107	17.4
556.45	17.48
556.793	17.56
557.135	17.61
557.478	17.65
557.821	17.61
558.164	17.76
558.507	17.61
558.849	17.75
559.192	17.71
559.534	17.88
559.877	17.71
560.219	17.84
560.562	17.8
560.904	17.96
561.246	17.92
561.589	18.17
561.931	17.99
562.273	18
562.615	17.92
562.957	18
563.299	18.13
563.641	18.23
563.983	18.09
564.325	18.25
564.667	18.18
565.008	18.27
565.35	18.18
565.692	18.21
566.033	18.23
566.375	18.21
566.716	18.02
567.058	18.2
567.399	18.39
567.741	18.31
568.082	18.28
568.423	18.36
568.764	18.4
569.105	18.49
569.447	18.51
569.788	18.59
570.129	18.64
570.47	18.52
570.811	18.69
571.151	18.72
571.492	18.72
571.833	18.72
572.174	18.67
572.514	19
572.855	18.91
573.195	18.77
573.536	18.7
573.876	18.62
574.217	18.88
574.557	18.7
574.898	18.84
575.238	19.02
575.578	18.95
575.918	19.06
576.258	19.37
576.598	18.98
576.938	19.05
577.278	19.18
577.618	19.18
577.958	19.16
578.298	19.31
578.638	19.07
578.977	19.35
579.317	19.47
579.657	19.41
579.996	19.58
580.336	19.64
580.675	19.63
581.014	20.02
581.354	19.56
581.693	19.92
582.032	20.03
582.372	19.79
582.711	19.69
583.05	20
583.389	20
583.728	19.96
584.067	19.86
584.406	20.1
584.745	19.9
585.083	19.87
585.422	20.39
585.761	20.08
586.1	20.33
586.438	20.2
586.777	20.32
587.115	20.21
587.454	20.21
587.792	20.43
588.13	20.26
588.469	20.26
588.807	20.41
589.145	20.38
589.483	20.27
589.821	20.63
590.159	20.39
590.497	20.5
590.835	20.55
591.173	20.58
591.511	20.64
591.849	20.52
592.187	20.55
592.524	20.59
592.862	20.49
593.2	20.6
593.537	20.63
593.875	20.64
594.212	20.76
594.55	20.68
594.887	21.07
595.224	21.06
595.561	20.78
595.899	21.06
596.236	20.79
596.573	21
596.91	20.91
597.247	21.05
597.584	21.02
597.921	20.93
598.258	21.2
598.594	20.78
598.931	20.69
599.268	20.84
599.604	21.07
599.941	21.06
600.277	21.18
600.614	21.14
600.95	21.39
601.287	21.11
601.623	21.26
601.959	21.6
602.296	21.6
602.632	21.62
602.968	21.42
603.304	21.48
603.64	21.32
603.976	21.42
604.312	21.44
604.648	21.31
604.984	21.44
605.319	21.54
605.655	21.42
605.991	21.32
606.326	21.45
606.662	21.39
606.998	21.37
607.333	21.68
607.668	21.7
608.004	21.77
608.339	21.91
608.674	21.67
609.01	22.19
609.345	21.94
609.68	21.79
610.015	21.97
610.35	22.2
610.685	21.68
611.02	21.93
611.355	22.16
611.689	21.99
612.024	22.15
612.359	22.07
612.694	22.37
613.028	22.28
613.363	22.39
613.697	22.32
614.032	22.04
614.366	22.55
614.7	22.56
615.035	22.68
615.369	22.87
615.703	22.84
616.037	22.77
616.371	22.62
616.705	22.82
617.039	22.87
617.373	22.81
617.707	22.63
618.041	22.43
618.375	22.51
618.709	23
619.042	22.9
619.376	23.08
619.71	22.85
620.043	23.04
620.377	23.44
620.71	22.8
621.043	23.01
621.377	23.21
621.71	23.12
622.043	23.38
622.376	23.07
622.709	22.99
623.043	23.25
623.376	22.94
623.709	23.63
624.041	22.88
624.374	23.68
624.707	23.71
625.04	23.36
625.373	23.61
625.705	23.85
626.038	23.64
626.37	23.48
626.703	23.32
627.035	23.22
627.368	23.81
627.7	23.57
628.032	23.46
628.365	23.56
628.697	23.76
629.029	23.6
629.361	23.33
629.693	23.38
630.025	23.83
630.357	23.71
630.689	23.32
631.021	23.76
631.353	24.21
631.684	24.06
632.016	23.88
632.348	23.89
632.679	24.07
633.011	23.97
633.342	24.3
633.674	23.86
634.005	24.43
634.336	23.66
634.668	24.13
634.999	24.1
635.33	24.11
635.661	24.25
635.992	24.28
636.323	24.41
636.654	24.16
636.985	24.14
637.316	24.53
637.647	24.47
637.977	24.34
638.308	24.83
638.639	24.61
638.969	24.77
639.3	24.55
639.63	24.78
639.961	24.28
640.291	24.32
640.622	24.94
640.952	24.99
641.282	24.18
641.612	24.69
641.943	24.82
642.273	24.87
642.603	25.06
642.933	25.15
643.263	24.84
643.592	25.44
643.922	25.23
644.252	24.96
644.582	25.52
644.911	24.87
645.241	24.89
645.571	24.9
645.9	25.44
646.23	25.02
646.559	25.11
646.888	25.27
647.218	25.06
647.547	24.79
647.876	25.22
648.205	25.34
648.534	25.11
648.863	25.19
649.192	25.24
649.521	25.53
649.85	25.47
650.179	25.26
650.508	25.82
650.837	25.81
651.165	25.79
651.494	25.57
651.822	25.68
652.151	25.05
652.479	26
652.808	25.71
653.136	25.24
653.465	25.52
653.793	25.76
654.121	25.92
654.449	25.86
654.777	25.59
655.105	25.44
655.433	26.21
655.761	25.93
656.089	26
656.417	26.03
656.745	25.79
657.073	25.81
657.4	25.73
657.728	25.74
658.056	25.96
658.383	26.42
658.711	25.58
659.038	26.35
659.365	26.32
659.693	25.73
660.02	25.8
660.347	25.69
660.674	25.74
661.001	26.15
661.329	25.88
661.656	25.5
661.982	26.23
662.309	26.42
662.636	26.14
662.963	26.18
663.29	26.37
663.616	26.98
663.943	27.01
664.27	26.15
664.596	26.23
664.923	26.94
665.249	27.13
665.576	26.49
665.902	26.3
666.228	26.8
666.554	26.74
666.881	25.82
667.207	26.8
667.533	26.66
667.859	26.52
668.185	26.54
668.511	27.55
668.837	26.95
669.162	27.19
669.488	26.51
669.814	26.85
670.139	26.27
670.465	26.43
670.791	26.98
671.116	26.75
671.442	26.26
671.767	27.97
672.092	26.75
672.418	27.02
672.743	26.62
673.068	26.85
673.393	27.86
673.718	27.1
674.043	26.8
674.368	27.45
674.693	27.6
675.018	27.67
675.343	28.19
675.667	27.41
675.992	27.78
676.317	27.25
676.641	27.77
676.966	27.4
677.29	27.36
