Data from 0001_forehead_Reflection__4__255.txt Node

Date: Thu Dec 15 18:45:06 CST 2022
User: ToomeyLab
Spectrometer: FLMS14357
Trigger mode: 0
Integration Time (sec): 1.000000E-2
Scans to average: 100
Electric dark correction enabled: true
Nonlinearity correction enabled: false
Boxcar width: 0
XAxis mode: Wavelengths
Number of Pixels in Spectrum: 2048
>>>>>Begin Spectral Data<<<<<
189.047	38.73
189.435	38.73
189.823	38.73
190.211	77.28
190.599	11.22
190.987	-394.08
191.375	129.28
191.763	29.45
192.151	52.86
192.538	135.93
192.926	114.28
193.314	323.75
193.702	195.83
194.089	2100.74
194.477	169.41
194.864	140.77
195.252	-158.02
195.639	84.89
196.027	674.3
196.414	83.07
196.801	47.73
197.189	512.29
197.576	-24.2
197.963	-8229.17
198.351	10.86
198.738	-57.01
199.125	-66.26
199.512	23.2
199.899	-18.6
200.286	-32.54
200.673	50.61
201.06	-35.88
201.447	22.32
201.833	27.13
202.22	19.23
202.607	-25.32
202.994	0.27
203.38	13.65
203.767	3.43
204.154	-12.66
204.54	-3.63
204.927	78.29
205.313	1.92
205.699	15.29
206.086	16.85
206.472	-28.91
206.858	-16.32
207.245	-0.06
207.631	-18.64
208.017	60.5
208.403	-67.65
208.789	14.45
209.175	-17.39
209.561	-107.48
209.947	-34.7
210.333	-12.01
210.719	16.72
211.105	37.17
211.491	11.03
211.876	-18.5
212.262	11.53
212.648	-5.81
213.034	-16.92
213.419	6.93
213.805	-50.7
214.19	-32.84
214.576	-30.13
214.961	3.83
215.346	7.39
215.732	-34.21
216.117	1.11
216.502	-32.59
216.888	9.97
217.273	-7.45
217.658	-7.75
218.043	-35.8
218.428	-2.34
218.813	-1.83
219.198	-38.86
219.583	3.83
219.968	-10.3
220.353	-8.31
220.738	7.1
221.122	-4.27
221.507	-5.53
221.892	-19.34
222.276	-43.27
222.661	-9.3
223.046	-20.49
223.43	14.43
223.815	1.67
224.199	-1.93
224.583	-14.21
224.968	1.06
225.352	-9.08
225.736	5.39
226.121	-1.1
226.505	-3.61
226.889	3.5
227.273	-3.25
227.657	-1.41
228.041	1.65
228.425	-2.33
228.809	0.23
229.193	2.04
229.577	0.84
229.961	2.01
230.344	2.77
230.728	2.9
231.112	2.78
231.495	0.43
231.879	0.7
232.263	2.88
232.646	1.78
233.03	2.75
233.413	0.91
233.797	-1.64
234.18	0.81
234.563	1.07
234.946	1.9
235.33	0.91
235.713	1.26
236.096	2.37
236.479	2.79
236.862	1.83
237.245	1.59
237.628	3.27
238.011	2.95
238.394	-0.11
238.777	0.42
239.16	3.24
239.543	4.17
239.925	0.48
240.308	1.27
240.691	1.66
241.073	0.79
241.456	2.21
241.838	2.43
242.221	2.58
242.603	2.49
242.986	2.7
243.368	1.78
243.75	2.28
244.133	2.88
244.515	2.65
244.897	2.06
245.279	2.03
245.661	2.18
246.043	0.81
246.425	2.23
246.807	2.2
247.189	2.35
247.571	1.89
247.953	2.13
248.335	2.3
248.717	2.48
249.098	2.46
249.48	2.04
249.862	2.44
250.243	2.74
250.625	2.47
251.006	3.13
251.388	2.02
251.769	1.98
252.151	3.07
252.532	2.25
252.913	2.52
253.295	2.48
253.676	2.35
254.057	2.51
254.438	2.18
254.819	2.19
255.2	2.39
255.581	3.04
255.962	2.77
256.343	2.42
256.724	2.13
257.105	2.29
257.486	0.93
257.867	2.92
258.247	1.97
258.628	2.69
259.009	2
259.389	2.09
259.77	1.71
260.15	3.17
260.531	2.61
260.911	2.41
261.292	2.51
261.672	2.45
262.052	2.49
262.432	2.48
262.813	2.65
263.193	2.42
263.573	1.8
263.953	1.97
264.333	1.86
264.713	1.94
265.093	2.21
265.473	2.26
265.853	2.59
266.233	3.38
266.612	2.24
266.992	2.88
267.372	2.69
267.752	2.34
268.131	2.26
268.511	2.63
268.89	2.95
269.27	2.18
269.649	2.22
270.029	2.52
270.408	2.39
270.787	2.78
271.167	2.94
271.546	2.96
271.925	3.07
272.304	2.79
272.683	2.15
273.062	2.46
273.441	2.22
273.82	2.93
274.199	2.67
274.578	2.88
274.957	2.46
275.336	2.86
275.715	2.81
276.093	2.17
276.472	2.18
276.851	2.23
277.229	2.94
277.608	2.55
277.986	2.42
278.365	2.74
278.743	2.77
279.122	2.68
279.5	2.79
279.878	2.26
280.257	2.13
280.635	2.63
281.013	2.43
281.391	2.35
281.769	2.88
282.147	2.61
282.525	2.37
282.903	2.06
283.281	2.85
283.659	2.65
284.037	2.71
284.415	2.68
284.792	2.66
285.17	2.53
285.548	2.69
285.925	2.64
286.303	3.07
286.68	2.68
287.058	2.69
287.435	2.91
287.813	2.62
288.19	2.78
288.567	2.52
288.945	2.35
289.322	2.86
289.699	3.07
290.076	2.9
290.453	2.29
290.83	2.83
291.207	2.74
291.584	2.77
291.961	3.17
292.338	2.91
292.715	2.65
293.092	3.35
293.469	2.58
293.845	3.03
294.222	3.56
294.599	2.55
294.975	2.37
295.352	3.14
295.728	3.11
296.105	3.25
296.481	3.12
296.858	3.24
297.234	3.19
297.61	3.26
297.986	3.45
298.363	3.51
298.739	3.61
299.115	3.59
299.491	3.92
299.867	3.49
300.243	3.48
300.619	3.07
300.995	3.49
301.371	3.54
301.746	3.64
302.122	3.14
302.498	3.23
302.874	3.82
303.249	3.69
303.625	3.42
304	3.89
304.376	3.94
304.751	3.8
305.127	3.69
305.502	3.8
305.878	3.63
306.253	3.51
306.628	3.96
307.003	3.99
307.378	3.53
307.754	3.99
308.129	4.1
308.504	4.24
308.879	3.92
309.254	4.44
309.629	4.47
310.003	3.95
310.378	4.18
310.753	4.59
311.128	4.01
311.502	4.42
311.877	4.26
312.252	4.72
312.626	4.77
313.001	4.42
313.375	4.93
313.75	4.59
314.124	4.63
314.498	4.85
314.873	3.96
315.247	4.36
315.621	4.36
315.995	4.79
316.369	4.61
316.743	4.49
317.117	4.18
317.491	5.12
317.865	4.52
318.239	4.75
318.613	5.2
318.987	4.48
319.361	4.83
319.734	4.89
320.108	5.11
320.482	5.32
320.855	5.33
321.229	5.36
321.602	5.38
321.976	4.76
322.349	5.68
322.723	5.48
323.096	5.26
323.469	4.98
323.843	5
324.216	5.43
324.589	5.34
324.962	5.12
325.335	5.1
325.708	5.53
326.081	5.73
326.454	5.66
326.827	5.76
327.2	5.24
327.573	6.27
327.945	5.28
328.318	5.63
328.691	5.76
329.063	5.49
329.436	5.69
329.809	6.14
330.181	6.74
330.553	6.16
330.926	6.31
331.298	5.65
331.671	6.13
332.043	5.59
332.415	6.08
332.787	6.23
333.159	5.9
333.532	6.12
333.904	6.29
334.276	6.1
334.648	6.27
335.02	6.28
335.391	5.99
335.763	6.24
336.135	6.44
336.507	6.09
336.879	6.79
337.25	6.54
337.622	6.29
337.993	6.3
338.365	6.39
338.736	6.43
339.108	6.54
339.479	6.73
339.851	6.83
340.222	7.02
340.593	6.34
340.964	6.58
341.336	7.11
341.707	6.69
342.078	6.61
342.449	6.97
342.82	7.04
343.191	6.78
343.562	6.61
343.933	6.57
344.303	7.5
344.674	6.68
345.045	6.94
345.416	7.42
345.786	6.96
346.157	7.24
346.527	7.22
346.898	7
347.268	7.19
347.639	6.99
348.009	7.54
348.38	7.04
348.75	7.24
349.12	7.7
349.49	7.32
349.861	7.61
350.231	7.45
350.601	7.2
350.971	7.22
351.341	7.24
351.711	7.3
352.081	7.36
352.45	7.22
352.82	7.42
353.19	7.56
353.56	7.17
353.929	7.54
354.299	7.64
354.669	7.6
355.038	7.85
355.408	7.64
355.777	7.67
356.147	7.65
356.516	7.57
356.885	7.68
357.254	7.5
357.624	7.57
357.993	7.83
358.362	8.06
358.731	8.13
359.1	8.15
359.469	8.16
359.838	8.11
360.207	8.11
360.576	8.08
360.945	8.2
361.314	8.24
361.682	8.11
362.051	8.37
362.42	8.24
362.788	8.37
363.157	8.29
363.525	8.36
363.894	8.27
364.262	8.37
364.631	8.65
364.999	8.22
365.367	8.57
365.735	8.26
366.104	8.26
366.472	8.31
366.84	8.6
367.208	8.56
367.576	8.34
367.944	8.62
368.312	8.51
368.68	8.58
369.048	8.38
369.416	8.71
369.783	8.58
370.151	9
370.519	9.06
370.886	8.55
371.254	9.12
371.621	9.21
371.989	9.17
372.356	9.04
372.724	8.8
373.091	9.05
373.458	9.04
373.826	9.26
374.193	9.12
374.56	8.87
374.927	8.98
375.294	9.37
375.661	9.17
376.028	9.1
376.395	9.33
376.762	9.01
377.129	9.29
377.496	9.26
377.863	9.4
378.229	9.53
378.596	9.47
378.963	9.46
379.329	9.5
379.696	9.57
380.062	9.7
380.429	9.49
380.795	9.46
381.161	9.25
381.528	9.16
381.894	9.6
382.26	9.53
382.626	9.81
382.993	10.2
383.359	9.84
383.725	9.58
384.091	9.72
384.457	9.7
384.823	9.88
385.188	9.62
385.554	9.96
385.92	9.73
386.286	10.06
386.651	9.93
387.017	10.09
387.383	9.99
387.748	10.07
388.114	10.25
388.479	10.21
388.845	10.02
389.21	10.31
389.575	10.32
389.94	10.45
390.306	10.27
390.671	10.28
391.036	10.3
391.401	10.49
391.766	10.31
392.131	10.52
392.496	10.4
392.861	10.28
393.226	10.32
393.591	10.71
393.956	10.53
394.32	10.58
394.685	10.66
395.05	10.58
395.414	10.53
395.779	10.88
396.143	10.49
396.508	10.46
396.872	10.63
397.236	10.8
397.601	10.73
397.965	10.61
398.329	10.89
398.694	10.71
399.058	10.61
399.422	10.83
399.786	10.75
400.15	10.69
400.514	11.11
400.878	10.92
401.242	10.98
401.605	11.14
401.969	11.13
402.333	10.99
402.697	11.3
403.06	10.98
403.424	11.07
403.787	11.15
404.151	11.16
404.514	11.22
404.878	11.09
405.241	11.07
405.604	11.07
405.968	11.24
406.331	11.43
406.694	11.47
407.057	11.09
407.42	11.28
407.783	11.42
408.146	11.43
408.509	11.51
408.872	11.66
409.235	11.83
409.598	11.5
409.961	11.59
410.323	11.61
410.686	11.61
411.049	11.62
411.411	11.4
411.774	11.71
412.136	11.45
412.499	11.99
412.861	11.37
413.223	11.73
413.586	11.71
413.948	12.01
414.31	11.92
414.672	11.73
415.035	11.96
415.397	11.94
415.759	11.94
416.121	11.98
416.483	11.93
416.845	12.02
417.206	12.12
417.568	11.79
417.93	12.03
418.292	11.95
418.653	11.83
419.015	11.88
419.377	12.01
419.738	12.13
420.1	12.02
420.461	11.96
420.822	12.04
421.184	12.03
421.545	11.99
421.906	12.12
422.267	12.04
422.629	12.03
422.99	11.95
423.351	12.18
423.712	12.15
424.073	12.25
424.434	12.48
424.795	12.06
425.155	12.13
425.516	12.09
425.877	12.17
426.238	12.18
426.598	12.36
426.959	12.42
427.32	12.45
427.68	12.46
428.041	12.64
428.401	12.47
428.761	12.65
429.122	12.47
429.482	12.84
429.842	12.72
430.202	12.86
430.563	12.84
430.923	12.89
431.283	12.98
431.643	13.07
432.003	12.96
432.363	13
432.722	12.86
433.082	12.95
433.442	13.01
433.802	12.99
434.161	12.95
434.521	12.96
434.881	12.92
435.24	13.04
435.6	13.08
435.959	13.28
436.319	13.25
436.678	13.17
437.037	13.29
437.396	13.29
437.756	13.36
438.115	13.24
438.474	13.4
438.833	13.24
439.192	13.29
439.551	13.36
439.91	13.53
440.269	13.44
440.628	13.25
440.987	13.45
441.345	13.49
441.704	13.45
442.063	13.29
442.421	13.38
442.78	13.42
443.138	13.42
443.497	13.36
443.855	13.76
444.214	13.61
444.572	13.87
444.93	13.54
445.288	13.7
445.647	13.76
446.005	13.83
446.363	13.74
446.721	13.85
447.079	13.57
447.437	13.67
447.795	13.54
448.153	13.62
448.51	13.8
448.868	13.87
449.226	13.85
449.584	13.86
449.941	13.93
450.299	14.04
450.656	14.04
451.014	14.26
451.371	14.37
451.729	14.26
452.086	14.21
452.443	14.37
452.801	14.29
453.158	14.5
453.515	14.2
453.872	14.46
454.229	14.35
454.586	14.22
454.943	14.45
455.3	14.46
455.657	14.37
456.014	14.46
456.371	14.71
456.727	14.76
457.084	14.75
457.441	14.61
457.797	14.66
458.154	14.69
458.51	14.66
458.867	14.75
459.223	14.66
459.58	14.85
459.936	14.77
460.292	14.82
460.648	14.66
461.005	14.65
461.361	14.6
461.717	14.59
462.073	14.74
462.429	14.84
462.785	15.08
463.141	15.07
463.496	15.09
463.852	15.04
464.208	15.31
464.564	15.18
464.919	15.14
465.275	15.25
465.631	15.52
465.986	15.32
466.342	15.28
466.697	15.24
467.052	15.28
467.408	15.52
467.763	15.48
468.118	15.15
468.473	15.6
468.829	15.49
469.184	15.65
469.539	15.46
469.894	15.47
470.249	15.63
470.603	15.75
470.958	15.64
471.313	15.75
471.668	15.82
472.023	15.74
472.377	15.82
472.732	16.09
473.086	15.79
473.441	15.91
473.795	15.99
474.15	16.08
474.504	15.99
474.859	15.61
475.213	16.05
475.567	15.87
475.921	16.04
476.275	16.15
476.63	16.2
476.984	16.07
477.338	15.98
477.692	16.17
478.045	16.24
478.399	16.22
478.753	16.12
479.107	16.44
479.461	16.2
479.814	16.22
480.168	16.23
480.521	16.48
480.875	16.36
481.228	16.4
481.582	16.4
481.935	16.48
482.289	16.45
482.642	16.58
482.995	16.5
483.348	16.25
483.701	16.42
484.055	16.28
484.408	16.2
484.761	15.97
485.114	15.73
485.466	15.76
485.819	15.79
486.172	15.97
486.525	16.04
486.878	16.16
487.23	16.26
487.583	16.33
487.936	16.21
488.288	16.35
488.641	16.25
488.993	16.21
489.345	16.15
489.698	16.27
490.05	16.33
490.402	16.49
490.754	16.52
491.107	16.75
491.459	16.9
491.811	16.92
492.163	16.9
492.515	16.81
492.866	16.52
493.218	16.51
493.57	16.68
493.922	16.68
494.274	16.9
494.625	17.17
494.977	17.23
495.328	17.33
495.68	17.36
496.031	17.43
496.383	17.56
496.734	17.64
497.086	17.6
497.437	17.67
497.788	17.78
498.139	17.48
498.49	17.51
498.842	17.65
499.193	17.49
499.544	17.7
499.894	17.67
500.245	17.81
500.596	17.85
500.947	17.75
501.298	17.97
501.648	18.01
501.999	18.12
502.35	17.99
502.7	18.03
503.051	18.22
503.401	18.25
503.752	18.09
504.102	18.2
504.452	18.26
504.803	18.24
505.153	18.38
505.503	18.32
505.853	18.3
506.203	18.37
506.553	18.37
506.903	18.4
507.253	18.42
507.603	18.38
507.953	18.55
508.303	18.6
508.652	18.47
509.002	18.65
509.352	18.67
509.701	18.62
510.051	18.66
510.4	18.69
510.75	18.56
511.099	18.59
511.449	18.8
511.798	18.72
512.147	18.82
512.496	18.94
512.846	18.79
513.195	18.8
513.544	18.98
513.893	18.88
514.242	18.95
514.591	18.93
514.939	19.19
515.288	19.19
515.637	19.14
515.986	19.13
516.334	19.33
516.683	19.23
517.032	19.33
517.38	19.23
517.729	19.25
518.077	19.34
518.426	19.48
518.774	19.39
519.122	19.35
519.47	19.19
519.819	19.1
520.167	19.19
520.515	19.24
520.863	19.35
521.211	19.33
521.559	19.48
521.907	19.74
522.255	19.68
522.602	19.84
522.95	19.65
523.298	19.86
523.645	19.93
523.993	19.91
524.341	19.91
524.688	20.05
525.036	19.99
525.383	20.06
525.73	19.95
526.078	20.08
526.425	19.92
526.772	19.87
527.119	19.84
527.466	20
527.814	19.79
528.161	19.95
528.508	20.11
528.854	20
529.201	19.85
529.548	19.77
529.895	19.54
530.242	19.49
530.588	19.59
530.935	19.71
531.282	19.71
531.628	19.81
531.975	20.05
532.321	20.13
532.667	20.3
533.014	20.45
533.36	20.33
533.706	20.4
534.052	20.46
534.399	20.29
534.745	20.1
535.091	20.17
535.437	20.33
535.783	20.35
536.129	20.48
536.474	20.76
536.82	20.84
537.166	20.83
537.512	20.94
537.857	20.81
538.203	20.72
538.549	20.78
538.894	20.93
539.239	21.07
539.585	21.2
539.93	21.29
540.276	21.23
540.621	21.37
540.966	21.45
541.311	21.45
541.656	21.24
542.001	21.16
542.346	21.06
542.691	20.84
543.036	20.78
543.381	20.92
543.726	21.07
544.071	21.02
544.415	21.23
544.76	21.31
545.105	21.25
545.449	21.45
545.794	21.59
546.138	21.64
546.483	21.83
546.827	21.79
547.171	21.79
547.516	21.9
547.86	21.91
548.204	21.93
548.548	21.82
548.892	22.04
549.236	22.06
549.58	21.99
549.924	22.24
550.268	22.41
550.612	22.42
550.956	22.59
551.3	22.87
551.643	22.45
551.987	22.83
552.33	22.87
552.674	22.72
553.017	22.8
553.361	22.85
553.704	22.88
554.048	22.65
554.391	22.85
554.734	22.87
555.077	22.76
555.42	22.92
555.764	22.92
556.107	23.06
556.45	23.22
556.793	23.28
557.135	23.3
557.478	23.19
557.821	23.48
558.164	23.25
558.507	23.23
558.849	23.53
559.192	23.45
559.534	23.41
559.877	23.45
560.219	23.35
560.562	23.64
560.904	23.8
561.246	23.54
561.589	23.78
561.931	23.6
562.273	23.77
562.615	23.84
562.957	23.71
563.299	23.69
563.641	23.83
563.983	23.8
564.325	24.02
564.667	23.84
565.008	23.98
565.35	24.07
565.692	23.91
566.033	23.96
566.375	24.23
566.716	24.04
567.058	24.06
567.399	23.88
567.741	24.22
568.082	24.18
568.423	24.11
568.764	24.15
569.105	24.38
569.447	24.54
569.788	24.36
570.129	24.23
570.47	24.5
570.811	24.43
571.151	24.66
571.492	24.54
571.833	24.47
572.174	24.86
572.514	24.52
572.855	24.83
573.195	24.61
573.536	24.61
573.876	24.53
574.217	24.65
574.557	24.75
574.898	24.64
575.238	24.97
575.578	24.91
575.918	25.04
576.258	25.2
576.598	25.04
576.938	25.09
577.278	25.09
577.618	25.37
577.958	25.04
578.298	25.1
578.638	25.07
578.977	25.43
579.317	25.57
579.657	25.53
579.996	25.53
580.336	25.54
580.675	25.57
581.014	25.94
581.354	25.48
581.693	25.89
582.032	26.06
582.372	25.82
582.711	25.81
583.05	25.9
583.389	26.02
583.728	26.11
584.067	25.93
584.406	26.27
584.745	25.97
585.083	25.96
585.422	26.34
585.761	26.13
586.1	26.2
586.438	26.27
586.777	26.22
587.115	26.26
587.454	26.2
587.792	26.27
588.13	26.21
588.469	26.37
588.807	26.16
589.145	26.48
589.483	26.42
589.821	26.75
590.159	26.53
590.497	26.64
590.835	26.61
591.173	26.87
591.511	26.75
591.849	26.68
592.187	26.6
592.524	27.04
592.862	26.64
593.2	26.71
593.537	26.97
593.875	26.94
594.212	27.01
594.55	27.04
594.887	26.96
595.224	27.21
595.561	27.04
595.899	27.02
596.236	27.3
596.573	27.07
596.91	27.1
597.247	27.37
597.584	27.32
597.921	27.2
598.258	27.42
598.594	27.12
598.931	26.99
599.268	27.12
599.604	27.29
599.941	27.37
600.277	27.34
600.614	27.42
600.95	27.44
601.287	27.4
601.623	27.61
601.959	27.85
602.296	27.83
602.632	27.73
602.968	27.83
603.304	28.01
603.64	28.1
603.976	27.81
604.312	28.12
604.648	28.04
604.984	27.78
605.319	28.04
605.655	27.76
605.991	28
606.326	27.9
606.662	27.82
606.998	28.06
607.333	27.8
607.668	28.13
608.004	28.57
608.339	28.06
608.674	28.26
609.01	28.45
609.345	28.21
609.68	28.59
610.015	28.35
610.35	28.65
610.685	28.22
611.02	28.59
611.355	28.56
611.689	28.38
612.024	28.58
612.359	28.63
612.694	28.65
613.028	28.64
613.363	28.74
613.697	29.04
614.032	28.77
614.366	28.94
614.7	28.99
615.035	28.93
615.369	29.54
615.703	29.37
616.037	29.26
616.371	29.26
616.705	29.19
617.039	29.27
617.373	29.07
617.707	29.3
618.041	29.15
618.375	29.27
618.709	29.47
619.042	29.4
619.376	29.44
619.71	29.53
620.043	29.84
620.377	29.44
620.71	29.47
621.043	29.68
621.377	29.44
621.71	29.76
622.043	29.72
622.376	29.34
622.709	29.96
623.043	30.02
623.376	29.57
623.709	30.34
624.041	30.03
624.374	30.28
624.707	30.1
625.04	30.09
625.373	30.13
625.705	29.96
626.038	30.38
626.37	30.17
626.703	30.35
627.035	30.15
627.368	30.22
627.7	30.32
628.032	30.09
628.365	30.49
628.697	30.57
629.029	30.39
629.361	30.43
629.693	30.48
630.025	30.43
630.357	30.95
630.689	30.63
631.021	30.83
631.353	30.69
631.684	30.47
632.016	30.57
632.348	30.78
632.679	30.79
633.011	30.92
633.342	31.02
633.674	30.78
634.005	31.12
634.336	31.07
634.668	30.62
634.999	30.71
635.33	31.24
635.661	30.87
635.992	31.2
636.323	31.32
636.654	31.09
636.985	31.12
637.316	30.89
637.647	31.36
637.977	31.22
638.308	31.57
638.639	31.54
638.969	31.07
639.3	31.19
639.63	31.49
639.961	31.5
640.291	31.23
640.622	31.73
640.952	31.42
641.282	31.21
641.612	31.43
641.943	31.7
642.273	31.46
642.603	31.86
642.933	31.99
643.263	32.13
643.592	31.96
643.922	32.09
644.252	31.8
644.582	31.98
644.911	32.07
645.241	31.32
645.571	32.07
645.9	32.27
646.23	32.13
646.559	32.19
646.888	32.46
647.218	32.26
647.547	31.79
647.876	32.57
648.205	32.48
648.534	32.23
648.863	32.2
649.192	32.11
649.521	32.45
649.85	32.42
650.179	32.27
650.508	32.64
650.837	32.6
651.165	32.55
651.494	32.17
651.822	32.5
652.151	32.47
652.479	33.06
652.808	32.69
653.136	32.52
653.465	32.48
653.793	32.54
654.121	32.98
654.449	32.75
654.777	33.02
655.105	32.7
655.433	33.03
655.761	32.83
656.089	32.8
656.417	33.06
656.745	33.23
657.073	32.71
657.4	32.94
657.728	32.6
658.056	33.3
658.383	32.44
658.711	33.34
659.038	33.79
659.365	32.97
659.693	33.06
660.02	32.99
660.347	33.05
660.674	33.24
661.001	33.27
661.329	33.1
661.656	33.04
661.982	33.7
662.309	33.05
662.636	33.51
662.963	33.59
663.29	33.69
663.616	33.78
663.943	34.31
664.27	33.69
664.596	33.43
664.923	33.92
665.249	34.08
665.576	34.02
665.902	33.41
666.228	33.95
666.554	33.62
666.881	33.94
667.207	34.18
667.533	34.36
667.859	34.1
668.185	33.47
668.511	34.59
668.837	33.73
669.162	33.89
669.488	33.67
669.814	34.16
670.139	34.21
670.465	34.03
670.791	34.19
671.116	33.9
671.442	33.93
671.767	34.83
672.092	34.41
672.418	34.25
