Data from 0001_chest_Reflection__4__245.txt Node

Date: Thu Dec 15 18:42:29 CST 2022
User: ToomeyLab
Spectrometer: FLMS14357
Trigger mode: 0
Integration Time (sec): 1.000000E-2
Scans to average: 100
Electric dark correction enabled: true
Nonlinearity correction enabled: false
Boxcar width: 0
XAxis mode: Wavelengths
Number of Pixels in Spectrum: 2048
>>>>>Begin Spectral Data<<<<<
189.047	184.74
189.435	184.74
189.823	184.74
190.211	-37.62
190.599	62.07
190.987	521.71
191.375	-120.33
191.763	130.36
192.151	36.59
192.538	34.68
192.926	100.94
193.314	45.68
193.702	532.07
194.089	-2581.62
194.477	243.17
194.864	133.47
195.252	-29.74
195.639	53.12
196.027	152.7
196.414	524.2
196.801	45
197.189	64.56
197.576	-1.92
197.963	-10895.83
198.351	15.23
198.738	-74.25
199.125	-59.99
199.512	27.51
199.899	-78.78
200.286	-48.45
200.673	49.98
201.06	-64.88
201.447	-14.82
201.833	17.75
202.22	9.59
202.607	-88.77
202.994	-28.79
203.38	14.92
203.767	27.57
204.154	65.34
204.54	12.38
204.927	-25.45
205.313	56.1
205.699	30.61
206.086	12.16
206.472	-4.43
206.858	8.66
207.245	12.17
207.631	23.73
208.017	37.08
208.403	-70.2
208.789	13.21
209.175	-22.65
209.561	-8.54
209.947	27.24
210.333	-34.52
210.719	14.12
211.105	48.32
211.491	-4.21
211.876	-52.78
212.262	23.57
212.648	6.34
213.034	7.49
213.419	20.24
213.805	-8.57
214.19	-36.39
214.576	-22.21
214.961	5.54
215.346	-19.13
215.732	17.42
216.117	-1.33
216.502	12.42
216.888	14.8
217.273	-15.22
217.658	-6.15
218.043	-19.25
218.428	-62.71
218.813	8.67
219.198	-43.55
219.583	1.54
219.968	-5
220.353	-23.15
220.738	2.88
221.122	7.63
221.507	-14.82
221.892	-33.75
222.276	-24.86
222.661	-6.37
223.046	-5.85
223.43	9.76
223.815	6.66
224.199	-2.48
224.583	0.89
224.968	3.83
225.352	-10.73
225.736	9.55
226.121	1.65
226.505	1.06
226.889	3.99
227.273	-6.29
227.657	5.79
228.041	5.32
228.425	0.1
228.809	1.95
229.193	2.48
229.577	3.55
229.961	4.67
230.344	5
230.728	5.05
231.112	4.62
231.495	3.96
231.879	4.3
232.263	4.51
232.646	4.54
233.03	5.03
233.413	3.21
233.797	2.85
234.18	5.19
234.563	4.14
234.946	3.81
235.33	5.5
235.713	4.51
236.096	5.8
236.479	4.8
236.862	3.32
237.245	3.64
237.628	4.47
238.011	4.08
238.394	2.06
238.777	3.23
239.16	6.42
239.543	5.16
239.925	2.59
240.308	3.96
240.691	3.75
241.073	3.12
241.456	5.27
241.838	4.88
242.221	3.82
242.603	5.03
242.986	4.54
243.368	4.93
243.75	4.41
244.133	4.86
244.515	4.51
244.897	4.65
245.279	3.83
245.661	4.11
246.043	3.93
246.425	4.6
246.807	4.46
247.189	4.49
247.571	4.5
247.953	4.28
248.335	4.48
248.717	4.44
249.098	4.54
249.48	4.09
249.862	4.71
250.243	4.45
250.625	4.89
251.006	4.69
251.388	3.86
251.769	3.44
252.151	4.3
252.532	4.17
252.913	4.05
253.295	3.7
253.676	4.26
254.057	4.32
254.438	4.29
254.819	4.37
255.2	4.05
255.581	5.41
255.962	4.19
256.343	4.19
256.724	3.99
257.105	3.26
257.486	3.2
257.867	3.36
258.247	4.44
258.628	4.62
259.009	3.85
259.389	3.73
259.77	4.24
260.15	4.82
260.531	4.25
260.911	4.15
261.292	4.13
261.672	4.04
262.052	4.18
262.432	4.11
262.813	4.09
263.193	4.28
263.573	4.41
263.953	3.75
264.333	4.21
264.713	4.35
265.093	4.18
265.473	3.38
265.853	4
266.233	4
266.612	3.6
266.992	4.5
267.372	3.58
267.752	4.41
268.131	4.15
268.511	3.89
268.89	4.15
269.27	3.54
269.649	3.9
270.029	3.67
270.408	3.48
270.787	3.82
271.167	4.06
271.546	4.54
271.925	4.49
272.304	4.01
272.683	3.86
273.062	3.79
273.441	3.72
273.82	3.94
274.199	3.84
274.578	4.11
274.957	4.08
275.336	4.4
275.715	4.68
276.093	3.59
276.472	4
276.851	3.89
277.229	3.84
277.608	3.46
277.986	3.77
278.365	4.01
278.743	4.31
279.122	3.53
279.5	3.87
279.878	3.46
280.257	4.1
280.635	4.08
281.013	3.6
281.391	4.17
281.769	4.31
282.147	3.49
282.525	3.59
282.903	3.66
283.281	4.3
283.659	4.36
284.037	3.66
284.415	3.39
284.792	4.11
285.17	3.91
285.548	3.82
285.925	3.64
286.303	4.42
286.68	3.84
287.058	4.39
287.435	3.75
287.813	4.09
288.19	3.75
288.567	3.74
288.945	3.49
289.322	3.71
289.699	3.86
290.076	3.78
290.453	3.62
290.83	4.14
291.207	3.79
291.584	4.03
291.961	3.93
292.338	3.8
292.715	3.61
293.092	4.12
293.469	3.93
293.845	3.94
294.222	4.71
294.599	3.64
294.975	3.36
295.352	3.96
295.728	3.82
296.105	3.65
296.481	3.79
296.858	3.98
297.234	3.63
297.61	3.78
297.986	4.35
298.363	4.15
298.739	4.33
299.115	4.2
299.491	4.3
299.867	3.73
300.243	4.15
300.619	3.82
300.995	4.06
301.371	4.47
301.746	4.02
302.122	3.64
302.498	4.07
302.874	4
303.249	4
303.625	3.55
304	4.29
304.376	4.14
304.751	4.18
305.127	3.91
305.502	4.25
305.878	4.12
306.253	3.63
306.628	4.48
307.003	3.73
307.378	3.67
307.754	4.05
308.129	3.6
308.504	4.09
308.879	4.03
309.254	3.98
309.629	4.42
310.003	3.73
310.378	4.75
310.753	4.16
311.128	3.98
311.502	4.02
311.877	4.03
312.252	4.44
312.626	4.59
313.001	4.22
313.375	3.87
313.75	4.26
314.124	4.15
314.498	4.16
314.873	4.27
315.247	3.93
315.621	3.94
315.995	4.2
316.369	3.57
316.743	3.85
317.117	4.21
317.491	4.53
317.865	3.55
318.239	4.5
318.613	3.74
318.987	3.82
319.361	4.58
319.734	4.77
320.108	4.3
320.482	4.53
320.855	3.5
321.229	3.76
321.602	3.77
321.976	3.7
322.349	4.72
322.723	4.13
323.096	4
323.469	4.01
323.843	3.3
324.216	3.94
324.589	4.67
324.962	4.04
325.335	4.34
325.708	4.46
326.081	4.07
326.454	4.62
326.827	4.31
327.2	4.02
327.573	4.27
327.945	4.07
328.318	4.01
328.691	3.72
329.063	3.57
329.436	3.68
329.809	4.22
330.181	4.58
330.553	4.55
330.926	4.05
331.298	4.18
331.671	4.27
332.043	4.16
332.415	4.26
332.787	4.38
333.159	3.73
333.532	4.29
333.904	4.67
334.276	4.61
334.648	4.37
335.02	3.82
335.391	4.3
335.763	3.98
336.135	4.6
336.507	3.85
336.879	4.45
337.25	3.68
337.622	4.34
337.993	3.92
338.365	4.03
338.736	4.3
339.108	4.11
339.479	4.1
339.851	4.19
340.222	4.49
340.593	4.27
340.964	4.4
341.336	3.95
341.707	3.93
342.078	4.03
342.449	4.13
342.82	4.2
343.191	4.33
343.562	4.32
343.933	4.04
344.303	4.1
344.674	4.34
345.045	3.92
345.416	4.31
345.786	4.2
346.157	4.43
346.527	4.01
346.898	3.67
347.268	4.12
347.639	3.89
348.009	4
348.38	4
348.75	4.16
349.12	4.45
349.49	4.44
349.861	3.92
350.231	3.92
350.601	4.13
350.971	4.34
351.341	4.36
351.711	4.18
352.081	3.7
352.45	4.08
352.82	3.83
353.19	3.63
353.56	4.36
353.929	4.18
354.299	4.23
354.669	4.49
355.038	4.25
355.408	4.32
355.777	4.5
356.147	4
356.516	3.81
356.885	4.27
357.254	3.94
357.624	3.99
357.993	3.95
358.362	4.15
358.731	4.31
359.1	4.26
359.469	4.24
359.838	4.17
360.207	4.15
360.576	4.22
360.945	4.31
361.314	4.15
361.682	4.11
362.051	4.35
362.42	4.17
362.788	4.43
363.157	4.28
363.525	4.32
363.894	4.02
364.262	4.27
364.631	4.55
364.999	4.51
365.367	3.93
365.735	4.11
366.104	4.09
366.472	4.01
366.84	4.2
367.208	4.26
367.576	4.12
367.944	4.22
368.312	4.22
368.68	4.49
369.048	4.41
369.416	4.01
369.783	4.35
370.151	4.76
370.519	4.58
370.886	4.5
371.254	4.43
371.621	4.23
371.989	4.54
372.356	4.38
372.724	4.14
373.091	4.2
373.458	4.34
373.826	4.47
374.193	4.54
374.56	4.23
374.927	4.26
375.294	4.29
375.661	4.39
376.028	3.99
376.395	4.55
376.762	4.21
377.129	4.18
377.496	4.54
377.863	4.18
378.229	4.48
378.596	4.37
378.963	4.35
379.329	4.39
379.696	4.24
380.062	4.06
380.429	4.13
380.795	4.82
381.161	4.02
381.528	3.96
381.894	4.39
382.26	4.3
382.626	4.42
382.993	4.67
383.359	4.45
383.725	4.15
384.091	4.4
384.457	4.29
384.823	4.47
385.188	4.31
385.554	4.33
385.92	4.3
386.286	4.35
386.651	4.25
387.017	4.65
387.383	4.21
387.748	4.3
388.114	4.32
388.479	4.37
388.845	4.14
389.21	4.81
389.575	4.55
389.94	4.52
390.306	4.35
390.671	4.5
391.036	4.42
391.401	4.62
391.766	4.32
392.131	4.47
392.496	4.38
392.861	4.1
393.226	4.24
393.591	4.61
393.956	4.31
394.32	4.4
394.685	4.48
395.05	4.32
395.414	4.32
395.779	4.56
396.143	4.35
396.508	4.26
396.872	4.42
397.236	4.7
397.601	4.34
397.965	4.39
398.329	4.39
398.694	4.18
399.058	4.25
399.422	4.39
399.786	4.18
400.15	4.34
400.514	4.65
400.878	4.39
401.242	4.6
401.605	4.28
401.969	4.36
402.333	4.4
402.697	4.46
403.06	4.21
403.424	4.59
403.787	4.45
404.151	4.28
404.514	4.37
404.878	4.32
405.241	4.46
405.604	4.35
405.968	4.36
406.331	4.51
406.694	4.53
407.057	4.36
407.42	4.42
407.783	4.5
408.146	4.44
408.509	4.48
408.872	4.51
409.235	4.38
409.598	4.48
409.961	4.5
410.323	4.47
410.686	4.42
411.049	4.57
411.411	4.4
411.774	4.5
412.136	4.42
412.499	4.55
412.861	4.18
413.223	4.58
413.586	4.3
413.948	4.7
414.31	4.66
414.672	4.21
415.035	4.56
415.397	4.38
415.759	4.14
416.121	4.52
416.483	4.54
416.845	4.46
417.206	4.41
417.568	4.42
417.93	4.58
418.292	4.27
418.653	4.23
419.015	4.48
419.377	4.34
419.738	4.52
420.1	4.4
420.461	4.33
420.822	4.56
421.184	4.31
421.545	4.43
421.906	4.31
422.267	4.35
422.629	4.34
422.99	4.35
423.351	4.29
423.712	4.4
424.073	4.39
424.434	4.51
424.795	4.25
425.155	4.31
425.516	4.3
425.877	4.34
426.238	4.36
426.598	4.4
426.959	4.36
427.32	4.26
427.68	4.41
428.041	4.51
428.401	4.42
428.761	4.45
429.122	4.58
429.482	4.54
429.842	4.4
430.202	4.6
430.563	4.6
430.923	4.61
431.283	4.56
431.643	4.58
432.003	4.65
432.363	4.55
432.722	4.47
433.082	4.44
433.442	4.48
433.802	4.51
434.161	4.48
434.521	4.43
434.881	4.39
435.24	4.52
435.6	4.48
435.959	4.48
436.319	4.57
436.678	4.77
437.037	4.5
437.396	4.45
437.756	4.38
438.115	4.45
438.474	4.49
438.833	4.51
439.192	4.54
439.551	4.36
439.91	4.52
440.269	4.41
440.628	4.42
440.987	4.45
441.345	4.58
441.704	4.52
442.063	4.56
442.421	4.58
442.78	4.56
443.138	4.61
443.497	4.52
443.855	4.55
444.214	4.47
444.572	4.63
444.93	4.56
445.288	4.55
445.647	4.46
446.005	4.61
446.363	4.55
446.721	4.58
447.079	4.47
447.437	4.46
447.795	4.38
448.153	4.55
448.51	4.51
448.868	4.53
449.226	4.56
449.584	4.49
449.941	4.52
450.299	4.5
450.656	4.53
451.014	4.6
451.371	4.7
451.729	4.55
452.086	4.54
452.443	4.66
452.801	4.5
453.158	4.84
453.515	4.44
453.872	4.53
454.229	4.48
454.586	4.5
454.943	4.56
455.3	4.51
455.657	4.55
456.014	4.59
456.371	4.79
456.727	4.68
457.084	4.66
457.441	4.6
457.797	4.57
458.154	4.64
458.51	4.58
458.867	4.58
459.223	4.56
459.58	4.8
459.936	4.58
460.292	4.66
460.648	4.56
461.005	4.54
461.361	4.58
461.717	4.55
462.073	4.7
462.429	4.69
462.785	4.67
463.141	4.61
463.496	4.6
463.852	4.71
464.208	4.77
464.564	4.74
464.919	4.58
465.275	4.68
465.631	4.83
465.986	4.85
466.342	4.61
466.697	4.66
467.052	4.78
467.408	4.86
467.763	4.46
468.118	4.56
468.473	4.77
468.829	4.72
469.184	4.74
469.539	4.71
469.894	4.72
470.249	4.7
470.603	4.73
470.958	4.9
471.313	4.83
471.668	4.81
472.023	4.86
472.377	4.67
472.732	4.85
473.086	4.86
473.441	4.53
473.795	4.98
474.15	4.75
474.504	4.84
474.859	4.65
475.213	4.88
475.567	4.76
475.921	4.84
476.275	4.84
476.63	4.81
476.984	4.59
477.338	4.84
477.692	4.85
478.045	4.82
478.399	4.86
478.753	4.82
479.107	4.88
479.461	4.71
479.814	4.82
480.168	4.89
480.521	4.83
480.875	4.85
481.228	4.83
481.582	4.82
481.935	4.78
482.289	4.74
482.642	4.95
482.995	4.77
483.348	4.82
483.701	4.88
484.055	4.72
484.408	4.69
484.761	4.61
485.114	4.51
485.466	4.53
485.819	4.53
486.172	4.59
486.525	4.6
486.878	4.67
487.23	4.66
487.583	4.74
487.936	4.68
488.288	4.77
488.641	4.7
488.993	4.61
489.345	4.63
489.698	4.65
490.05	4.62
490.402	4.64
490.754	4.75
491.107	4.77
491.459	4.83
491.811	4.83
492.163	4.82
492.515	4.72
492.866	4.72
493.218	4.68
493.57	4.77
493.922	4.78
494.274	4.81
494.625	4.96
494.977	4.88
495.328	4.97
495.68	4.98
496.031	4.82
496.383	4.95
496.734	4.85
497.086	5.02
497.437	5.03
497.788	5.12
498.139	4.98
498.49	4.96
498.842	4.98
499.193	4.93
499.544	4.96
499.894	4.96
500.245	5.07
500.596	4.96
500.947	5.09
501.298	5.02
501.648	5.09
501.999	5.01
502.35	5.03
502.7	5.23
503.051	5.04
503.401	5.08
503.752	5.07
504.102	5
504.452	4.97
504.803	5.06
505.153	5.24
505.503	5.12
505.853	5.03
506.203	5.15
506.553	5.11
506.903	5.14
507.253	5.13
507.603	5.11
507.953	5.03
508.303	5.16
508.652	5.07
509.002	5.22
509.352	5.27
509.701	4.99
510.051	5.24
510.4	5.24
510.75	5.09
511.099	5.07
511.449	5.19
511.798	5.16
512.147	5.26
512.496	5.26
512.846	5.14
513.195	5.26
513.544	5.27
513.893	5.32
514.242	5.18
514.591	5.21
514.939	5.33
515.288	5.22
515.637	5.3
515.986	5.27
516.334	5.31
516.683	5.26
517.032	5.19
517.38	5.19
517.729	5.4
518.077	5.27
518.426	5.39
518.774	5.22
519.122	5.36
519.47	5.23
519.819	5.26
520.167	5.23
520.515	5.27
520.863	5.22
521.211	5.21
521.559	5.21
521.907	5.41
522.255	5.3
522.602	5.4
522.95	5.45
523.298	5.47
523.645	5.47
523.993	5.42
524.341	5.53
524.688	5.51
525.036	5.35
525.383	5.46
525.73	5.42
526.078	5.57
526.425	5.55
526.772	5.4
527.119	5.4
527.466	5.5
527.814	5.43
528.161	5.5
528.508	5.46
528.854	5.48
529.201	5.34
529.548	5.37
529.895	5.33
530.242	5.27
530.588	5.35
530.935	5.38
531.282	5.39
531.628	5.42
531.975	5.44
532.321	5.58
532.667	5.51
533.014	5.68
533.36	5.53
533.706	5.56
534.052	5.67
534.399	5.54
534.745	5.54
535.091	5.46
535.437	5.62
535.783	5.67
536.129	5.68
536.474	5.76
536.82	5.76
537.166	5.79
537.512	5.74
537.857	5.71
538.203	5.66
538.549	5.71
538.894	5.77
539.239	5.82
539.585	5.82
539.93	5.88
540.276	5.83
540.621	5.95
540.966	5.96
541.311	5.99
541.656	5.86
542.001	5.85
542.346	5.8
542.691	5.81
543.036	5.74
543.381	5.79
543.726	5.87
544.071	5.9
544.415	5.84
544.76	5.89
545.105	5.98
545.449	5.9
545.794	6.03
546.138	6.01
546.483	6.1
546.827	6.04
547.171	6.16
547.516	6.18
547.86	6.17
548.204	6.13
548.548	6.09
548.892	6.16
549.236	6.2
549.58	6.24
549.924	6.42
550.268	6.43
550.612	6.35
550.956	6.41
551.3	6.38
551.643	6.46
551.987	6.55
552.33	6.63
552.674	6.48
553.017	6.71
553.361	6.47
553.704	6.64
554.048	6.39
554.391	6.6
554.734	6.51
555.077	6.39
555.42	6.56
555.764	6.63
556.107	6.68
556.45	6.49
556.793	6.72
557.135	6.77
557.478	6.73
557.821	6.7
558.164	6.73
558.507	6.53
558.849	6.88
559.192	6.87
559.534	6.67
559.877	6.73
560.219	6.82
560.562	6.72
560.904	6.96
561.246	6.91
561.589	6.95
561.931	6.73
562.273	6.91
562.615	6.92
562.957	6.86
563.299	6.99
563.641	7.06
563.983	6.81
564.325	7.05
564.667	7.06
565.008	7
565.35	6.99
565.692	7.07
566.033	7.06
566.375	7.16
566.716	6.99
567.058	7.04
567.399	7.25
567.741	7.24
568.082	7.34
568.423	7.21
568.764	7.27
569.105	7.31
569.447	7.32
569.788	7.35
570.129	7.26
570.47	7.51
570.811	7.23
571.151	7.18
571.492	7.35
571.833	7.28
572.174	7.53
572.514	7.57
572.855	7.64
573.195	7.45
573.536	7.66
573.876	7.45
574.217	7.41
574.557	7.62
574.898	7.55
575.238	7.65
575.578	7.61
575.918	7.46
576.258	7.89
576.598	7.7
576.938	7.68
577.278	7.74
577.618	7.75
577.958	7.74
578.298	7.78
578.638	7.77
578.977	8.06
579.317	7.98
579.657	7.8
579.996	8.05
580.336	8
580.675	7.89
581.014	8.14
581.354	8.07
581.693	8.28
582.032	8.31
582.372	8.36
582.711	8.14
583.05	8.32
583.389	8.57
583.728	8.48
584.067	8.2
584.406	8.42
584.745	8.22
585.083	8.31
585.422	8.48
585.761	8.6
586.1	8.51
586.438	8.37
586.777	8.46
587.115	8.57
587.454	8.57
587.792	8.57
588.13	8.62
588.469	8.53
588.807	8.6
589.145	8.81
589.483	8.54
589.821	8.65
590.159	8.82
590.497	8.76
590.835	8.94
591.173	8.82
591.511	8.96
591.849	8.97
592.187	8.71
592.524	9.08
592.862	9.01
593.2	9.01
593.537	8.98
593.875	8.91
594.212	9.14
594.55	9
594.887	9.2
595.224	9.31
595.561	9.1
595.899	9.26
596.236	9.41
596.573	9.14
596.91	9.31
597.247	9.39
597.584	9.47
597.921	9.24
598.258	9.5
598.594	9.14
598.931	9.13
599.268	8.98
599.604	9.48
599.941	9.49
600.277	9.64
600.614	9.77
600.95	9.48
601.287	9.42
601.623	9.53
601.959	9.9
602.296	9.87
602.632	9.55
602.968	9.9
603.304	9.84
603.64	9.9
603.976	9.87
604.312	9.98
604.648	9.88
604.984	9.95
605.319	9.87
605.655	10.1
605.991	9.84
606.326	9.98
606.662	9.92
606.998	10.09
607.333	10.05
607.668	10.22
608.004	10.22
608.339	10.16
608.674	10.12
609.01	10.19
609.345	10.34
609.68	10.37
610.015	10.42
610.35	10.44
610.685	10.31
611.02	10.52
611.355	10.4
611.689	10.41
612.024	10.52
612.359	10.81
612.694	10.94
613.028	10.52
613.363	10.53
613.697	10.67
614.032	10.65
614.366	10.68
614.7	10.98
615.035	10.78
615.369	11
615.703	10.99
616.037	10.8
616.371	11.01
616.705	11.26
617.039	11.12
617.373	10.99
617.707	11.07
618.041	11.1
618.375	10.97
618.709	10.98
619.042	11.2
619.376	11.16
619.71	11.24
620.043	11.38
620.377	11.26
620.71	11.29
621.043	11.33
621.377	11.4
621.71	11.69
622.043	11.5
622.376	11.47
622.709	12.13
623.043	11.73
623.376	11.76
623.709	11.61
624.041	11.62
624.374	11.78
624.707	11.59
625.04	11.67
625.373	12.31
625.705	11.85
626.038	11.89
626.37	12.16
626.703	11.9
627.035	12.24
627.368	11.96
627.7	12.17
628.032	12.08
628.365	12.33
628.697	12.41
629.029	12.28
629.361	12.57
629.693	12.32
630.025	12.26
630.357	12.45
630.689	12.32
631.021	12.58
631.353	12.46
631.684	12.16
632.016	12.26
632.348	12.17
632.679	12.97
633.011	12.48
633.342	12.7
633.674	12.8
634.005	12.8
634.336	13.04
634.668	12.9
634.999	12.74
635.33	12.67
635.661	12.96
635.992	13.02
636.323	13.06
636.654	13.29
636.985	13.08
637.316	13.29
637.647	13.27
637.977	13.14
638.308	13.51
638.639	13.26
638.969	13.4
639.3	13.52
639.63	13.29
639.961	13.42
640.291	13.21
640.622	13.42
640.952	14.02
641.282	13.23
641.612	13.39
641.943	13.72
642.273	13.42
642.603	13.63
642.933	14.01
643.263	14.17
643.592	13.8
643.922	13.76
644.252	13.94
644.582	13.72
644.911	13.58
645.241	13.26
645.571	14.42
645.9	14.24
646.23	14.3
646.559	13.59
646.888	14.26
647.218	14.03
647.547	14.31
647.876	14.13
648.205	14.2
648.534	14.09
648.863	14.28
649.192	14.29
649.521	14.67
649.85	14.46
650.179	14.57
650.508	14.43
650.837	14.6
651.165	14.35
651.494	14.53
651.822	15.02
652.151	14.63
652.479	15.35
652.808	14.93
653.136	14.4
653.465	14.71
653.793	14.75
654.121	14.9
654.449	14.31
654.777	14.5
655.105	14.67
655.433	15.16
655.761	14.84
656.089	14.58
656.417	15.35
656.745	15.83
657.073	14.97
657.4	15.22
657.728	15.21
658.056	14.96
658.383	14.9
658.711	15.72
659.038	15.45
659.365	15.76
659.693	15.49
660.02	15.27
660.347	15.53
660.674	15.23
661.001	15.71
661.329	15.28
661.656	15.11
661.982	15.46
662.309	15.41
662.636	15.87
662.963	15.88
663.29	15.88
663.616	15.26
663.943	16.22
664.27	15.32
664.596	15.99
664.923	16.1
665.249	15.82
665.576	15.85
665.902	16.39
666.228	16.33
666.554	16.46
666.881	15.72
667.207	16.42
667.533	16.42
667.859	15.88
668.185	15.96
668.511	16.22
668.837	16.37
669.162	16.53
669.488	16.08
669.814	16.06
670.139	16.05
670.465	16.9
670.791	16.35
671.116	16.88
671.442	15.93
671.767	16.5
672.092	16.75
672.418	16.76
672.743	16.92
673.068	16.34
673.393	16.9
673.718	16.2
674.043	16.59
674.368	17.12
674.693	16.5
675.018	17.28
675.343	17.65
675.667	17.17
675.992	17.33
676.317	17.19
676.641	17.13
676.966	17.42
677.29	16.88
677.615	17.05
677.939	17.37
678.264	16.91
678.588	17.43
678.912	17.73
679.236	17.42
679.56	17.36
679.885	17.41
680.209	17.68
680.532	18.18
680.856	18.52
681.18	18.16
681.504	18.02
681.828	17.48
682.152	17.57
682.475	18.03
682.799	17.62
683.122	18.31
683.446	17.69
683.769	18.02
684.093	18.49
684.416	17.86
684.739	18.03
685.062	19.2
685.386	18.01
685.709	18.18
686.032	18.01
686.355	18.65
686.678	18.16
687.001	18.21
687.324	18.96
