Data from 0001_crown_Reflection__2__248.txt Node

Date: Thu Dec 15 18:43:45 CST 2022
User: ToomeyLab
Spectrometer: FLMS14357
Trigger mode: 0
Integration Time (sec): 1.000000E-2
Scans to average: 100
Electric dark correction enabled: true
Nonlinearity correction enabled: false
Boxcar width: 0
XAxis mode: Wavelengths
Number of Pixels in Spectrum: 2048
>>>>>Begin Spectral Data<<<<<
189.047	51.76
189.435	51.76
189.823	51.76
190.211	13.62
190.599	27.4
190.987	-1661.18
191.375	-58.39
191.763	-17.14
192.151	49.17
192.538	219.09
192.926	260.61
193.314	106.18
193.702	545.47
194.089	-221.32
194.477	323.14
194.864	159.38
195.252	86.64
195.639	67.98
196.027	273.3
196.414	71.19
196.801	-35.94
197.189	264.87
197.576	-63.96
197.963	-6187.5
198.351	59.1
198.738	-47.89
199.125	-63.53
199.512	49.14
199.899	-33.25
200.286	-67.74
200.673	30.52
201.06	-24.14
201.447	-83.54
201.833	-26.89
202.22	-30.79
202.607	2.84
202.994	19.57
203.38	10.19
203.767	13.71
204.154	26.69
204.54	-7.52
204.927	23.06
205.313	17.17
205.699	34.9
206.086	15.13
206.472	35.39
206.858	8.6
207.245	-17.67
207.631	-23.75
208.017	47.01
208.403	-104.23
208.789	23.82
209.175	-8.17
209.561	-92.76
209.947	-63.59
210.333	-3.21
210.719	-4.51
211.105	31.5
211.491	37.7
211.876	-29.4
212.262	3.38
212.648	-13.54
213.034	-57.56
213.419	0.55
213.805	-15.91
214.19	-56.63
214.576	-19.97
214.961	-1.96
215.346	-12.39
215.732	-10.52
216.117	-36.43
216.502	-21.02
216.888	21.68
217.273	-11.64
217.658	-2.9
218.043	-29.58
218.428	5.92
218.813	-2.92
219.198	-20.01
219.583	-2.27
219.968	1.9
220.353	-48.1
220.738	3.82
221.122	-8.05
221.507	-12.92
221.892	-25.38
222.276	-31.1
222.661	-14.29
223.046	-16.98
223.43	15.19
223.815	9.87
224.199	5.59
224.583	-7.97
224.968	-3.35
225.352	-15.51
225.736	7.72
226.121	-1.52
226.505	4.44
226.889	9.36
227.273	2.59
227.657	7.82
228.041	8.04
228.425	5.67
228.809	5.04
229.193	7.93
229.577	6.69
229.961	6.92
230.344	8.34
230.728	7.85
231.112	8.76
231.495	7.67
231.879	7.74
232.263	8.62
232.646	7.02
233.03	7.63
233.413	7.95
233.797	5.75
234.18	5.66
234.563	5.83
234.946	6.55
235.33	6.74
235.713	8.02
236.096	8.86
236.479	8.21
236.862	6.26
237.245	6.5
237.628	7.24
238.011	6.88
238.394	6.78
238.777	6.71
239.16	6.45
239.543	6.18
239.925	5.93
240.308	5.96
240.691	6.99
241.073	6.33
241.456	7.08
241.838	6.89
242.221	7.6
242.603	7.76
242.986	7.38
243.368	7.27
243.75	7.1
244.133	7.79
244.515	6.67
244.897	7.22
245.279	6.94
245.661	6.59
246.043	6.58
246.425	7.31
246.807	6.86
247.189	6.52
247.571	7.21
247.953	6.76
248.335	7.03
248.717	7
249.098	7.04
249.48	6.96
249.862	6.75
250.243	7.09
250.625	7.03
251.006	7.12
251.388	6.19
251.769	6.08
252.151	6.99
252.532	5.44
252.913	6.21
253.295	6.21
253.676	6.66
254.057	6.7
254.438	6.45
254.819	6.37
255.2	6.49
255.581	7.19
255.962	6.81
256.343	5.72
256.724	6.48
257.105	6.12
257.486	5.74
257.867	5.65
258.247	6.84
258.628	6.39
259.009	6.02
259.389	6.05
259.77	6.2
260.15	6.64
260.531	6.44
260.911	6.01
261.292	6.25
261.672	6.2
262.052	6.22
262.432	5.95
262.813	6.18
263.193	5.98
263.573	6.09
263.953	5.79
264.333	6.17
264.713	6.17
265.093	5.77
265.473	5.58
265.853	5.8
266.233	5.89
266.612	6
266.992	4.96
267.372	6
267.752	6.06
268.131	6.06
268.511	5.73
268.89	6.58
269.27	5.92
269.649	5.78
270.029	5.34
270.408	5.43
270.787	5.89
271.167	6.19
271.546	6.33
271.925	5.79
272.304	5.52
272.683	5.81
273.062	5.58
273.441	5.28
273.82	5.76
274.199	5.06
274.578	5.62
274.957	5.25
275.336	5.79
275.715	5.56
276.093	5.08
276.472	4.94
276.851	5.49
277.229	5.03
277.608	5.06
277.986	5.52
278.365	5.77
278.743	5.24
279.122	5.23
279.5	5.28
279.878	5.23
280.257	5.39
280.635	5.63
281.013	5.1
281.391	4.92
281.769	5.6
282.147	4.97
282.525	5.01
282.903	5
283.281	5.62
283.659	5.7
284.037	5.04
284.415	5.31
284.792	5.39
285.17	5.16
285.548	5.27
285.925	4.9
286.303	5.69
286.68	5.23
287.058	5.38
287.435	5.15
287.813	5.33
288.19	5.05
288.567	5.18
288.945	4.54
289.322	5.14
289.699	5.46
290.076	5.01
290.453	4.95
290.83	4.95
291.207	5.26
291.584	4.96
291.961	4.81
292.338	5.07
292.715	4.66
293.092	5.47
293.469	5.05
293.845	5.25
294.222	5.24
294.599	4.99
294.975	3.86
295.352	4.91
295.728	5.17
296.105	4.65
296.481	4.79
296.858	4.71
297.234	4.5
297.61	5.09
297.986	5.13
298.363	5.03
298.739	5.28
299.115	4.94
299.491	5.03
299.867	4.7
300.243	4.66
300.619	4.39
300.995	5.05
301.371	4.71
301.746	5.23
302.122	4.17
302.498	4.8
302.874	4.65
303.249	4.56
303.625	4.17
304	5.09
304.376	5.2
304.751	4.68
305.127	4.07
305.502	4.72
305.878	4.83
306.253	4.69
306.628	4.78
307.003	4.79
307.378	4.71
307.754	4.76
308.129	4.46
308.504	4.75
308.879	4.74
309.254	4.7
309.629	4.66
310.003	4.57
310.378	4.91
310.753	4.51
311.128	4.46
311.502	4.52
311.877	4.61
312.252	4.71
312.626	4.93
313.001	4.8
313.375	5
313.75	4.59
314.124	4.76
314.498	5.01
314.873	4.15
315.247	4.64
315.621	4.12
315.995	4.48
316.369	4.43
316.743	4.4
317.117	4.63
317.491	4.35
317.865	4.25
318.239	4.87
318.613	4.52
318.987	4.36
319.361	4.59
319.734	4.67
320.108	4.37
320.482	4.79
320.855	4.71
321.229	4.63
321.602	4.69
321.976	4.26
322.349	5.02
322.723	4.79
323.096	4.54
323.469	4.4
323.843	4.04
324.216	4.19
324.589	5.18
324.962	4.23
325.335	4.28
325.708	4.88
326.081	4.6
326.454	4.74
326.827	4.58
327.2	4.83
327.573	4.99
327.945	4.13
328.318	4.26
328.691	4.55
329.063	4.59
329.436	4.16
329.809	4.7
330.181	5.05
330.553	4.79
330.926	4.85
331.298	4.56
331.671	4.72
332.043	4.72
332.415	5.06
332.787	5.01
333.159	4.59
333.532	5.03
333.904	4.82
334.276	4.62
334.648	4.57
335.02	4.63
335.391	4.57
335.763	4.69
336.135	4.82
336.507	4.53
336.879	4.65
337.25	5.14
337.622	4.86
337.993	4.38
338.365	4.57
338.736	4.81
339.108	4.91
339.479	4.45
339.851	5.01
340.222	5.12
340.593	4.59
340.964	5.04
341.336	4.9
341.707	4.8
342.078	4.83
342.449	4.8
342.82	4.96
343.191	4.75
343.562	4.84
343.933	4.64
344.303	5.42
344.674	4.65
345.045	4.7
345.416	5.26
345.786	4.64
346.157	4.95
346.527	4.57
346.898	4.67
347.268	4.97
347.639	4.95
348.009	4.9
348.38	4.8
348.75	5.17
349.12	5.08
349.49	5.29
349.861	5.34
350.231	4.95
350.601	4.91
350.971	4.83
351.341	5.01
351.711	5.17
352.081	4.7
352.45	4.81
352.82	4.57
353.19	5.07
353.56	5.25
353.929	5
354.299	5.28
354.669	5.19
355.038	5.42
355.408	4.88
355.777	5.47
356.147	5.11
356.516	4.96
356.885	4.98
357.254	4.95
357.624	4.73
357.993	5.01
358.362	5.09
358.731	5.53
359.1	5.21
359.469	5.4
359.838	5.37
360.207	5.21
360.576	5.28
360.945	5.5
361.314	5.28
361.682	4.95
362.051	5.38
362.42	5.29
362.788	5.27
363.157	5.03
363.525	5.38
363.894	4.81
364.262	5.24
364.631	5.39
364.999	5.3
365.367	5.06
365.735	5.14
366.104	5.1
366.472	4.93
366.84	5.42
367.208	5.69
367.576	5.2
367.944	5.54
368.312	5.06
368.68	5.66
369.048	5.31
369.416	5.11
369.783	5.16
370.151	5.46
370.519	5.9
370.886	5.94
371.254	5.74
371.621	5.57
371.989	5.53
372.356	5.49
372.724	5.34
373.091	5.29
373.458	5.34
373.826	5.65
374.193	5.41
374.56	5.51
374.927	5.22
375.294	5.77
375.661	5.47
376.028	5.45
376.395	5.53
376.762	5.38
377.129	5.58
377.496	5.59
377.863	5.65
378.229	5.97
378.596	5.59
378.963	5.43
379.329	5.79
379.696	5.49
380.062	5.73
380.429	5.29
380.795	5.72
381.161	5.08
381.528	5.37
381.894	5.66
382.26	5.66
382.626	5.79
382.993	6.21
383.359	5.75
383.725	5.67
384.091	5.53
384.457	5.77
384.823	5.78
385.188	5.98
385.554	5.57
385.92	5.66
386.286	5.61
386.651	5.52
387.017	5.8
387.383	5.49
387.748	5.84
388.114	5.65
388.479	5.88
388.845	5.67
389.21	6
389.575	5.78
389.94	6.13
390.306	5.74
390.671	5.84
391.036	5.67
391.401	5.78
391.766	5.72
392.131	5.99
392.496	6.05
392.861	5.74
393.226	5.73
393.591	5.73
393.956	5.84
394.32	6.03
394.685	5.88
395.05	5.8
395.414	5.9
395.779	6.12
396.143	5.66
396.508	5.74
396.872	5.86
397.236	6.21
397.601	5.75
397.965	5.96
398.329	5.99
398.694	5.7
399.058	5.74
399.422	5.71
399.786	5.73
400.15	5.59
400.514	6.03
400.878	5.82
401.242	5.84
401.605	5.83
401.969	5.9
402.333	5.75
402.697	5.98
403.06	5.74
403.424	5.89
403.787	5.89
404.151	5.86
404.514	5.97
404.878	5.72
405.241	5.71
405.604	6.04
405.968	5.77
406.331	6.06
406.694	6.01
407.057	5.76
407.42	5.99
407.783	6.05
408.146	6.04
408.509	6.02
408.872	5.8
409.235	6.04
409.598	6.12
409.961	5.95
410.323	5.82
410.686	6.04
411.049	6
411.411	5.96
411.774	6.11
412.136	5.97
412.499	6.13
412.861	5.71
413.223	5.82
413.586	5.93
413.948	5.99
414.31	6.13
414.672	6
415.035	6.19
415.397	5.89
415.759	6.09
416.121	5.97
416.483	5.99
416.845	6.04
417.206	5.93
417.568	5.84
417.93	6.11
418.292	5.85
418.653	5.78
419.015	5.91
419.377	5.83
419.738	5.91
420.1	5.95
420.461	5.96
420.822	5.99
421.184	5.88
421.545	5.93
421.906	6.01
422.267	5.93
422.629	5.86
422.99	5.83
423.351	5.84
423.712	5.92
424.073	5.95
424.434	6
424.795	5.93
425.155	5.79
425.516	5.9
425.877	5.87
426.238	5.88
426.598	5.9
426.959	5.97
427.32	5.87
427.68	5.9
428.041	5.95
428.401	5.84
428.761	6.14
429.122	6.07
429.482	6.07
429.842	6.04
430.202	6.03
430.563	6.04
430.923	5.92
431.283	5.99
431.643	6.14
432.003	6.06
432.363	6.16
432.722	5.98
433.082	6.02
433.442	6.1
433.802	5.97
434.161	6.12
434.521	6.01
434.881	6.13
435.24	6.08
435.6	6.11
435.959	6.1
436.319	6.17
436.678	6.23
437.037	6.03
437.396	6.13
437.756	5.95
438.115	6.12
438.474	6.16
438.833	6
439.192	5.98
439.551	5.87
439.91	6.01
440.269	5.94
440.628	5.98
440.987	6.13
441.345	5.98
441.704	5.99
442.063	5.91
442.421	5.96
442.78	5.93
443.138	5.93
443.497	5.97
443.855	6.19
444.214	5.9
444.572	6.21
444.93	5.96
445.288	6.08
445.647	5.85
446.005	5.95
446.363	5.97
446.721	5.96
447.079	5.93
447.437	5.89
447.795	5.96
448.153	5.86
448.51	5.98
448.868	5.91
449.226	5.94
449.584	5.92
449.941	6.01
450.299	6.09
450.656	5.93
451.014	6.07
451.371	6.14
451.729	6.01
452.086	6.08
452.443	6.11
452.801	6.06
453.158	6.31
453.515	6.04
453.872	6.05
454.229	5.95
454.586	6.1
454.943	6.04
455.3	6.04
455.657	5.92
456.014	6.03
456.371	6.11
456.727	6.19
457.084	6.16
457.441	6.17
457.797	6.09
458.154	6.04
458.51	5.94
458.867	6.14
459.223	6.09
459.58	5.89
459.936	6.03
460.292	6.09
460.648	5.86
461.005	5.86
461.361	5.86
461.717	5.92
462.073	6
462.429	5.92
462.785	6.08
463.141	6.04
463.496	6.11
463.852	6.11
464.208	6.14
464.564	5.99
464.919	6.09
465.275	6.04
465.631	6.28
465.986	6.13
466.342	5.97
466.697	5.97
467.052	6.12
467.408	6.12
467.763	6.27
468.118	5.9
468.473	5.96
468.829	5.95
469.184	6.22
469.539	6
469.894	6.06
470.249	6.11
470.603	6.11
470.958	6.23
471.313	6.27
471.668	6.18
472.023	6.08
472.377	5.98
472.732	6.14
473.086	6.02
473.441	6.13
473.795	6.28
474.15	6.17
474.504	5.95
474.859	5.83
475.213	6.16
475.567	5.93
475.921	6.05
476.275	6.09
476.63	6.1
476.984	6.03
477.338	6.12
477.692	5.92
478.045	6.02
478.399	6.09
478.753	6.05
479.107	6.05
479.461	6.14
479.814	6.04
480.168	6.01
480.521	6.18
480.875	6.04
481.228	6.05
481.582	6.01
481.935	6.13
482.289	6.13
482.642	6.16
482.995	5.96
483.348	5.91
483.701	5.94
484.055	5.87
484.408	5.79
484.761	5.75
485.114	5.62
485.466	5.56
485.819	5.61
486.172	5.63
486.525	5.69
486.878	5.79
487.23	5.83
487.583	5.84
487.936	5.69
488.288	5.77
488.641	5.68
488.993	5.65
489.345	5.64
489.698	5.67
490.05	5.66
490.402	5.73
490.754	5.78
491.107	5.74
491.459	5.88
491.811	5.88
492.163	5.78
492.515	5.83
492.866	5.68
493.218	5.67
493.57	5.71
493.922	5.72
494.274	5.88
494.625	5.9
494.977	5.9
495.328	5.89
495.68	5.99
496.031	5.95
496.383	5.94
496.734	5.93
497.086	6.11
497.437	5.98
497.788	5.98
498.139	5.95
498.49	5.98
498.842	5.93
499.193	5.85
499.544	5.97
499.894	5.84
500.245	6.02
500.596	6.01
500.947	5.99
501.298	5.9
501.648	5.89
501.999	6.06
502.35	5.88
502.7	6.07
503.051	5.98
503.401	6.02
503.752	5.83
504.102	5.97
504.452	5.9
504.803	5.89
505.153	6.02
505.503	5.96
505.853	5.99
506.203	5.98
506.553	5.89
506.903	6.02
507.253	5.96
507.603	6.02
507.953	5.93
508.303	6
508.652	5.83
509.002	5.91
509.352	5.92
509.701	5.81
510.051	5.92
510.4	5.9
510.75	5.87
511.099	5.75
511.449	5.98
511.798	5.85
512.147	5.8
512.496	6
512.846	5.98
513.195	6.03
513.544	5.96
513.893	6.02
514.242	5.89
514.591	5.85
514.939	5.88
515.288	5.98
515.637	5.93
515.986	5.98
516.334	6.05
516.683	5.94
517.032	5.95
517.38	5.85
517.729	5.94
518.077	5.94
518.426	5.91
518.774	5.84
519.122	5.81
519.47	5.76
519.819	5.75
520.167	5.75
520.515	5.78
520.863	5.74
521.211	5.78
521.559	5.84
521.907	5.79
522.255	5.81
522.602	5.81
522.95	5.92
523.298	5.89
523.645	5.95
523.993	5.93
524.341	5.82
524.688	5.79
525.036	5.93
525.383	5.79
525.73	5.89
526.078	5.92
526.425	5.74
526.772	5.66
527.119	5.71
527.466	5.81
527.814	5.64
528.161	5.79
528.508	5.84
528.854	5.76
529.201	5.64
529.548	5.64
529.895	5.54
530.242	5.47
530.588	5.46
530.935	5.54
531.282	5.53
531.628	5.68
531.975	5.62
532.321	5.64
532.667	5.74
533.014	5.79
533.36	5.78
533.706	5.64
534.052	5.74
534.399	5.65
534.745	5.56
535.091	5.55
535.437	5.58
535.783	5.57
536.129	5.65
536.474	5.69
536.82	5.8
537.166	5.71
537.512	5.69
537.857	5.69
538.203	5.61
538.549	5.65
538.894	5.63
539.239	5.73
539.585	5.73
539.93	5.75
540.276	5.69
540.621	5.86
540.966	5.83
541.311	5.83
541.656	5.72
542.001	5.61
542.346	5.54
542.691	5.52
543.036	5.51
543.381	5.47
543.726	5.64
544.071	5.59
544.415	5.62
544.76	5.66
545.105	5.63
545.449	5.62
545.794	5.65
546.138	5.71
546.483	5.84
546.827	5.64
547.171	5.7
547.516	5.81
547.86	5.77
548.204	5.71
548.548	5.63
548.892	5.74
549.236	5.76
549.58	5.74
549.924	5.87
550.268	5.93
550.612	5.64
550.956	5.86
551.3	5.94
551.643	5.74
551.987	5.93
552.33	5.96
552.674	5.85
553.017	5.93
553.361	5.8
553.704	5.88
554.048	5.82
554.391	5.8
554.734	5.74
555.077	5.74
555.42	5.79
555.764	5.79
556.107	5.82
556.45	5.76
556.793	5.84
557.135	5.76
557.478	5.83
557.821	5.66
558.164	5.89
558.507	5.7
558.849	5.91
559.192	5.75
559.534	5.85
559.877	5.61
560.219	5.74
560.562	5.64
560.904	5.75
561.246	5.79
561.589	5.94
561.931	5.75
562.273	5.61
562.615	5.71
562.957	5.76
563.299	5.74
563.641	5.79
563.983	5.65
564.325	5.81
564.667	5.67
565.008	5.74
565.35	5.54
565.692	5.53
566.033	5.69
566.375	5.63
566.716	5.76
567.058	5.58
567.399	5.78
567.741	5.67
568.082	5.69
568.423	5.64
568.764	5.74
569.105	5.69
569.447	5.71
569.788	5.58
570.129	5.52
570.47	5.63
570.811	5.57
571.151	5.67
571.492	5.52
571.833	5.59
572.174	5.81
572.514	5.66
572.855	5.76
573.195	5.55
573.536	5.75
573.876	5.59
574.217	5.59
574.557	5.59
574.898	5.5
575.238	5.64
575.578	5.83
575.918	5.75
576.258	5.77
576.598	5.44
576.938	5.55
577.278	5.51
577.618	5.47
577.958	5.57
578.298	5.72
578.638	5.49
578.977	5.65
579.317	5.66
579.657	5.77
579.996	5.84
580.336	5.67
580.675	5.62
581.014	5.76
581.354	5.63
581.693	5.62
582.032	5.93
582.372	5.82
582.711	5.69
583.05	5.71
583.389	5.68
583.728	5.96
584.067	5.44
584.406	5.7
584.745	5.51
585.083	5.51
585.422	5.83
585.761	5.8
586.1	5.69
586.438	5.41
586.777	5.72
587.115	5.84
587.454	5.5
587.792	5.52
588.13	5.91
588.469	5.61
588.807	5.92
589.145	5.7
589.483	5.33
589.821	5.64
590.159	5.64
590.497	5.66
590.835	5.64
591.173	5.56
591.511	5.67
591.849	5.58
592.187	5.46
592.524	5.63
592.862	5.42
593.2	5.72
593.537	5.34
593.875	5.53
594.212	5.71
594.55	5.61
594.887	5.46
595.224	5.65
595.561	5.46
595.899	5.62
596.236	5.52
596.573	5.35
596.91	5.27
597.247	5.7
597.584	5.63
597.921	5.49
598.258	5.66
598.594	5.4
598.931	5.45
599.268	5.27
599.604	5.54
599.941	5.48
600.277	5.3
600.614	5.43
600.95	5.46
601.287	5.18
601.623	5.31
601.959	5.68
602.296	5.55
602.632	5.37
602.968	5.5
603.304	5.4
603.64	5.48
603.976	5.52
604.312	5.51
604.648	5.45
604.984	5.36
605.319	5.31
605.655	5.21
605.991	5.39
606.326	5.39
606.662	5.27
606.998	5.52
607.333	5.36
607.668	5.5
608.004	5.44
608.339	5.28
608.674	5.48
609.01	5.56
609.345	5.4
609.68	5.37
610.015	5.46
610.35	5.51
610.685	5.21
611.02	5.29
611.355	5.54
611.689	5.38
612.024	5.41
612.359	5.52
612.694	5.53
613.028	5.27
613.363	5.53
613.697	5.48
614.032	5.37
614.366	5.35
614.7	5.4
615.035	5.54
615.369	5.62
615.703	5.54
616.037	5.49
616.371	5.26
616.705	5.52
617.039	5.57
617.373	5.58
617.707	5.53
618.041	5.07
618.375	5.05
618.709	5.42
619.042	5.34
619.376	5.46
619.71	5.2
620.043	5.77
620.377	5.65
620.71	5.36
621.043	5.76
621.377	5.54
621.71	5.77
622.043	5.55
622.376	5.47
622.709	5.89
623.043	5.29
623.376	5.21
623.709	5.51
624.041	5.46
624.374	5.75
624.707	5.44
625.04	5.4
625.373	5.51
625.705	5.6
626.038	5.75
626.37	5.36
626.703	5.63
627.035	5.49
627.368	5.55
627.7	5.42
628.032	5.08
628.365	5.65
628.697	5.5
629.029	5.44
629.361	5.52
629.693	5.33
630.025	5.35
630.357	5.56
630.689	5.39
631.021	5.69
631.353	5.44
631.684	5.01
632.016	5.15
632.348	5
632.679	5.44
633.011	5.35
633.342	5.27
633.674	5.01
634.005	5.08
634.336	5.45
634.668	5.27
634.999	5.16
635.33	5.4
635.661	5.4
635.992	5.59
636.323	5.21
636.654	5.3
636.985	5.41
637.316	5.42
637.647	5.25
637.977	5.06
638.308	5.5
638.639	5.35
638.969	5.52
639.3	5.72
639.63	5.21
639.961	5.4
640.291	5.43
640.622	5.35
640.952	5.65
641.282	5.01
641.612	4.62
641.943	5.13
642.273	5.33
642.603	5.2
642.933	5.48
643.263	5.4
643.592	5.58
643.922	5.54
644.252	5.51
644.582	5.48
644.911	5.33
645.241	5.24
645.571	5.4
645.9	5.62
646.23	5.74
646.559	5.36
646.888	5.7
647.218	5.57
647.547	5.15
647.876	5.15
648.205	5.19
648.534	5.49
648.863	5.28
649.192	5.46
649.521	5.58
649.85	5.3
650.179	5.43
650.508	5.43
650.837	5.71
651.165	5.33
651.494	5.13
651.822	5.07
652.151	5.29
652.479	5.1
652.808	5.68
653.136	4.78
653.465	5.23
653.793	5.25
654.121	5.53
654.449	4.93
654.777	5
655.105	4.85
655.433	6.03
655.761	5.12
656.089	5.33
656.417	5.91
656.745	5.25
657.073	5.11
657.4	5.06
657.728	4.78
658.056	5.12
658.383	5.21
658.711	5.46
659.038	5.44
659.365	5.66
659.693	5.53
660.02	5.31
660.347	5.33
660.674	5.21
661.001	4.92
661.329	5.33
661.656	5.12
661.982	5.16
662.309	5.04
662.636	5.3
662.963	5.56
663.29	5.26
663.616	5.19
663.943	5.4
664.27	5.68
664.596	5.17
664.923	5.63
665.249	5.73
665.576	5.38
665.902	4.88
666.228	6.02
666.554	5.67
666.881	4.92
667.207	5.45
667.533	5.51
667.859	5.36
668.185	5.4
668.511	5.49
668.837	5.51
669.162	5.38
669.488	5.02
669.814	4.91
670.139	4.71
670.465	5.84
670.791	4.7
671.116	5.51
671.442	4.84
671.767	4.91
672.092	5.42
672.418	5.3
672.743	5.36
673.068	5.18
673.393	5.27
673.718	4.73
674.043	5.35
674.368	5.22
674.693	5.04
675.018	5.97
675.343	5.58
675.667	5.15
675.992	5.59
676.317	4.85
676.641	5.64
676.966	5.38
677.29	4.7
677.615	5.56
677.939	5.74
678.264	5.4
678.588	5.13
678.912	5.72
679.236	5.7
679.56	5
679.885	5.23
680.209	5.6
680.532	6.33
680.856	5.9
681.18	6.4
681.504	5.19
681.828	5.42
682.152	5.14
682.475	5.25
682.799	5.12
683.122	5.35
683.446	5.07
683.769	5.52
684.093	5
684.416	5.11
684.739	4.91
685.062	5.69
685.386	6.04
685.709	5.66
686.032	4.97
686.355	5.07
686.678	5.9
687.001	5.45
687.324	5.17
687.646	5.85
687.969	5.65
688.292	5.23
688.614	5.4
688.937	5.01
689.26	5.33
689.582	5.55
689.904	5.53
690.227	5.64
690.549	5.24
690.871	5.17
691.194	5.01
691.516	5.4
691.838	5.16
692.16	5.14
692.482	4.85
