Data from 0001_crown_Reflection__4__250.txt Node

Date: Thu Dec 15 18:44:03 CST 2022
User: ToomeyLab
Spectrometer: FLMS14357
Trigger mode: 0
Integration Time (sec): 1.000000E-2
Scans to average: 100
Electric dark correction enabled: true
Nonlinearity correction enabled: false
Boxcar width: 0
XAxis mode: Wavelengths
Number of Pixels in Spectrum: 2048
>>>>>Begin Spectral Data<<<<<
189.047	76.23
189.435	76.23
189.823	76.23
190.211	33.04
190.599	239.14
190.987	-1514.47
191.375	-40.67
191.763	-20.14
192.151	99.3
192.538	39.23
192.926	301.44
193.314	75.74
193.702	32.25
194.089	-1269.12
194.477	283.51
194.864	204.94
195.252	-248.45
195.639	60.12
196.027	76.6
196.414	-76.42
196.801	79.09
197.189	413.89
197.576	48.54
197.963	-27925
198.351	-10.19
198.738	-79.78
199.125	-67
199.512	-7.95
199.899	-103.55
200.286	-23.46
200.673	30.62
201.06	-11.21
201.447	5.01
201.833	-31.53
202.22	-11.5
202.607	21.93
202.994	-20.71
203.38	-6.05
203.767	2.97
204.154	53.66
204.54	-5.68
204.927	-22.29
205.313	15.85
205.699	-1.4
206.086	11.56
206.472	12.14
206.858	-24.67
207.245	-8.7
207.631	2.15
208.017	17.93
208.403	-34.49
208.789	-9.16
209.175	-37.26
209.561	-110.45
209.947	-55.66
210.333	-42.6
210.719	16.01
211.105	32.37
211.491	-21.91
211.876	-30.05
212.262	-3.25
212.648	-9.96
213.034	-3.89
213.419	-3.37
213.805	-24.16
214.19	-17.82
214.576	-23.64
214.961	5.68
215.346	-25.59
215.732	-3.99
216.117	6.63
216.502	-24.45
216.888	-4.81
217.273	6.51
217.658	-7.7
218.043	-54.2
218.428	-73.83
218.813	0.74
219.198	-27.92
219.583	-23.35
219.968	8.22
220.353	6.27
220.738	-8.85
221.122	-8.93
221.507	-8.21
221.892	-27.48
222.276	-30.6
222.661	-12.02
223.046	-23.74
223.43	8.82
223.815	-3.87
224.199	6.41
224.583	-3.83
224.968	-8.99
225.352	-11.12
225.736	4.24
226.121	-4.13
226.505	-9.29
226.889	-1.68
227.273	-8.51
227.657	3.32
228.041	0.43
228.425	-2.99
228.809	0.23
229.193	1.42
229.577	2
229.961	2.11
230.344	3.96
230.728	4.47
231.112	3.7
231.495	2.28
231.879	2.33
232.263	3.07
232.646	1.58
233.03	3.63
233.413	3.72
233.797	0.34
234.18	3.18
234.563	2.69
234.946	1.39
235.33	3.27
235.713	3.45
236.096	5.56
236.479	3.61
236.862	1.91
237.245	2.52
237.628	2.9
238.011	2.48
238.394	1.91
238.777	2.37
239.16	4.89
239.543	4.09
239.925	1.95
240.308	1.22
240.691	3.23
241.073	4.45
241.456	3.04
241.838	3.23
242.221	3.85
242.603	3.38
242.986	3.02
243.368	3.49
243.75	3.56
244.133	3.82
244.515	3.54
244.897	3.19
245.279	2.64
245.661	3.68
246.043	3.24
246.425	3.45
246.807	3.43
247.189	3.11
247.571	3.24
247.953	3.19
248.335	3.29
248.717	3.38
249.098	3.54
249.48	3.26
249.862	3.22
250.243	3.45
250.625	3.72
251.006	3.43
251.388	2.39
251.769	2.86
252.151	3.16
252.532	3.26
252.913	3.3
253.295	3.01
253.676	3.4
254.057	2.89
254.438	2.8
254.819	3.36
255.2	3.22
255.581	3.48
255.962	3.57
256.343	4.13
256.724	1.99
257.105	2.04
257.486	1.28
257.867	2.63
258.247	3.29
258.628	2.98
259.009	2.65
259.389	2.51
259.77	2.56
260.15	3.61
260.531	3.18
260.911	2.87
261.292	3.13
261.672	3.14
262.052	2.95
262.432	2.72
262.813	2.97
263.193	2.57
263.573	2.5
263.953	2.24
264.333	3.29
264.713	3.15
265.093	2.44
265.473	2.13
265.853	2.26
266.233	2.87
266.612	2.52
266.992	2.59
267.372	2.25
267.752	2.67
268.131	2.55
268.511	2.96
268.89	3.43
269.27	2.18
269.649	2.57
270.029	2.41
270.408	2.66
270.787	2.68
271.167	3.02
271.546	3.09
271.925	2.35
272.304	2.46
272.683	2.34
273.062	2.57
273.441	2.5
273.82	2.62
274.199	2.61
274.578	2.94
274.957	2.52
275.336	3.25
275.715	2.96
276.093	2.27
276.472	2.09
276.851	2.57
277.229	2.3
277.608	2.36
277.986	2.57
278.365	2.36
278.743	2.64
279.122	2.28
279.5	2.4
279.878	2.38
280.257	2.18
280.635	2.81
281.013	2.04
281.391	2.66
281.769	3.07
282.147	2.55
282.525	2.17
282.903	2.11
283.281	3.06
283.659	2.35
284.037	2.53
284.415	2.42
284.792	2.45
285.17	2.61
285.548	2.02
285.925	2.4
286.303	2.95
286.68	2.67
287.058	2.48
287.435	2.16
287.813	2.57
288.19	2.52
288.567	2.51
288.945	2.22
289.322	2.36
289.699	2.51
290.076	2.27
290.453	2.17
290.83	2.31
291.207	2.24
291.584	2.52
291.961	2.41
292.338	2.53
292.715	2.11
293.092	2.37
293.469	2.13
293.845	2.35
294.222	2.43
294.599	1.84
294.975	1.43
295.352	2.47
295.728	2.38
296.105	1.87
296.481	2.35
296.858	2.34
297.234	1.83
297.61	2.32
297.986	2.64
298.363	2.56
298.739	2.55
299.115	2.35
299.491	2.66
299.867	2.43
300.243	2.34
300.619	1.98
300.995	2.13
301.371	2.47
301.746	2.25
302.122	2.17
302.498	1.81
302.874	2.38
303.249	1.92
303.625	1.59
304	2.21
304.376	2.53
304.751	2.69
305.127	1.88
305.502	2.6
305.878	2.57
306.253	2.12
306.628	2.42
307.003	2.27
307.378	1.92
307.754	2.51
308.129	1.68
308.504	2.34
308.879	2.42
309.254	2.35
309.629	2.21
310.003	2.49
310.378	2.1
310.753	2.61
311.128	1.71
311.502	2.52
311.877	2.16
312.252	2.26
312.626	2.2
313.001	2.29
313.375	2.17
313.75	2.39
314.124	2.55
314.498	2.74
314.873	2.01
315.247	2.43
315.621	2.18
315.995	1.89
316.369	1.6
316.743	1.96
317.117	2.34
317.491	2.4
317.865	1.9
318.239	2.67
318.613	1.61
318.987	1.84
319.361	2.11
319.734	1.99
320.108	2.02
320.482	2.31
320.855	2.37
321.229	2.17
321.602	2.12
321.976	2.09
322.349	2.61
322.723	1.58
323.096	2.15
323.469	2.17
323.843	1.84
324.216	1.65
324.589	2.14
324.962	1.64
325.335	1.94
325.708	1.87
326.081	2.3
326.454	2.6
326.827	1.96
327.2	1.96
327.573	2.38
327.945	2.11
328.318	2.15
328.691	2.24
329.063	2.05
329.436	1.83
329.809	2.44
330.181	2.6
330.553	2.34
330.926	2.35
331.298	2.09
331.671	2.6
332.043	2.18
332.415	2.29
332.787	2.54
333.159	2.19
333.532	2.11
333.904	2.52
334.276	2.31
334.648	2.39
335.02	2.31
335.391	2.28
335.763	2.19
336.135	2.28
336.507	2.12
336.879	2.54
337.25	2.05
337.622	2.44
337.993	2.21
338.365	2.06
338.736	2.4
339.108	2.4
339.479	2.09
339.851	2.17
340.222	2.86
340.593	2.37
340.964	2.21
341.336	2.18
341.707	2.62
342.078	2.18
342.449	2.26
342.82	2.07
343.191	1.84
343.562	2.26
343.933	2.17
344.303	2.73
344.674	2.28
345.045	2.62
345.416	2.76
345.786	2.66
346.157	2.53
346.527	2.58
346.898	2.01
347.268	2.17
347.639	2.22
348.009	2.22
348.38	2.11
348.75	2.37
349.12	2.53
349.49	2.65
349.861	2.44
350.231	2.58
350.601	2.88
350.971	2.2
351.341	2.58
351.711	2.52
352.081	2.34
352.45	2.09
352.82	2.07
353.19	2.52
353.56	2.34
353.929	2.19
354.299	2.48
354.669	2.44
355.038	2.94
355.408	2.5
355.777	2.6
356.147	2.3
356.516	2.4
356.885	2.76
357.254	2.42
357.624	2.16
357.993	2.46
358.362	2.65
358.731	2.7
359.1	2.33
359.469	2.73
359.838	2.51
360.207	2.49
360.576	2.78
360.945	2.58
361.314	2.38
361.682	2.52
362.051	2.35
362.42	2.57
362.788	2.66
363.157	2.47
363.525	2.47
363.894	2.52
364.262	2.76
364.631	3.06
364.999	2.57
365.367	2.7
365.735	2.3
366.104	2.57
366.472	2.5
366.84	2.65
367.208	2.98
367.576	2.52
367.944	2.54
368.312	2.35
368.68	3.22
369.048	3.07
369.416	2.33
369.783	2.41
370.151	2.7
370.519	3.06
370.886	2.88
371.254	2.83
371.621	2.76
371.989	2.75
372.356	2.53
372.724	2.79
373.091	2.57
373.458	2.58
373.826	2.76
374.193	2.92
374.56	2.68
374.927	2.74
375.294	2.93
375.661	2.76
376.028	2.63
376.395	2.84
376.762	2.36
377.129	2.76
377.496	2.66
377.863	2.79
378.229	3.05
378.596	2.84
378.963	3.06
379.329	3
379.696	2.51
380.062	2.83
380.429	2.91
380.795	3.05
381.161	2.54
381.528	2.76
381.894	2.82
382.26	2.84
382.626	2.75
382.993	2.98
383.359	2.8
383.725	2.49
384.091	2.66
384.457	2.46
384.823	2.88
385.188	3.16
385.554	2.85
385.92	2.78
386.286	3.02
386.651	2.62
387.017	3.21
387.383	2.89
387.748	3.16
388.114	3.12
388.479	2.77
388.845	2.38
389.21	3.08
389.575	2.98
389.94	2.96
390.306	2.86
390.671	2.82
391.036	2.7
391.401	3.14
391.766	2.85
392.131	3.14
392.496	3.07
392.861	2.87
393.226	3.02
393.591	2.92
393.956	2.9
394.32	3.14
394.685	2.9
395.05	2.85
395.414	2.89
395.779	3.24
396.143	2.93
396.508	2.82
396.872	2.92
397.236	3.18
397.601	3.26
397.965	3.08
398.329	3.18
398.694	2.95
399.058	2.97
399.422	3.14
399.786	2.92
400.15	3.05
400.514	3.34
400.878	2.8
401.242	3.22
401.605	2.87
401.969	3.02
402.333	2.93
402.697	3.33
403.06	2.96
403.424	3.06
403.787	3.01
404.151	3.18
404.514	3
404.878	2.76
405.241	3.03
405.604	3.04
405.968	3.05
406.331	3.1
406.694	3.06
407.057	2.86
407.42	3.12
407.783	3.15
408.146	3
408.509	3.13
408.872	3.08
409.235	3.12
409.598	2.97
409.961	3.24
410.323	2.95
410.686	3.29
411.049	3.24
411.411	3.13
411.774	3.02
412.136	3.19
412.499	3.27
412.861	2.85
413.223	2.95
413.586	3.17
413.948	3.25
414.31	3.29
414.672	3.05
415.035	3.18
415.397	2.99
415.759	2.89
416.121	3.18
416.483	3.04
416.845	3.23
417.206	3.24
417.568	3.04
417.93	3.02
418.292	3.01
418.653	2.87
419.015	2.99
419.377	2.98
419.738	3.12
420.1	3.11
420.461	3
420.822	3.14
421.184	2.99
421.545	3.1
421.906	2.99
422.267	2.96
422.629	2.99
422.99	2.99
423.351	3.07
423.712	3.06
424.073	3.14
424.434	3.13
424.795	2.99
425.155	3.05
425.516	2.99
425.877	3.06
426.238	3.02
426.598	3.04
426.959	3.19
427.32	3.01
427.68	3.07
428.041	3.08
428.401	2.97
428.761	3.16
429.122	3.13
429.482	3.18
429.842	3.16
430.202	3.15
430.563	3.03
430.923	3.14
431.283	3.21
431.643	3.25
432.003	3.16
432.363	3.26
432.722	3.28
433.082	3.17
433.442	3.21
433.802	3.15
434.161	3.18
434.521	3.05
434.881	3.09
435.24	3.03
435.6	3.11
435.959	3.14
436.319	3.2
436.678	3.18
437.037	3.08
437.396	3.2
437.756	3.06
438.115	3.14
438.474	3.15
438.833	3.12
439.192	3.09
439.551	2.97
439.91	3.01
440.269	3.02
440.628	3.1
440.987	3.12
441.345	3.16
441.704	3.06
442.063	3.03
442.421	3.14
442.78	3.11
443.138	3.08
443.497	2.98
443.855	3.19
444.214	2.96
444.572	3.28
444.93	3.18
445.288	3.15
445.647	3.03
446.005	3.16
446.363	3.23
446.721	3.07
447.079	3.11
447.437	3.1
447.795	3.25
448.153	3.07
448.51	3.16
448.868	3.03
449.226	3.16
449.584	3.02
449.941	3.1
450.299	3.08
450.656	3.13
451.014	3.31
451.371	3.26
451.729	3.16
452.086	3.15
452.443	3.42
452.801	3.24
453.158	3.43
453.515	3.09
453.872	3.11
454.229	2.96
454.586	3.07
454.943	3.15
455.3	3.22
455.657	3.03
456.014	3.07
456.371	3.24
456.727	3.25
457.084	3.22
457.441	3.15
457.797	3.18
458.154	3.19
458.51	3.07
458.867	3.21
459.223	3.04
459.58	3.12
459.936	3.1
460.292	3.03
460.648	3.07
461.005	3.01
461.361	3.08
461.717	3.06
462.073	3.1
462.429	3.23
462.785	3.3
463.141	3.1
463.496	3.16
463.852	3.23
464.208	3.13
464.564	3.25
464.919	3.25
465.275	3.3
465.631	3.34
465.986	3.15
466.342	3.14
466.697	3.41
467.052	3.44
467.408	3.29
467.763	3.27
468.118	3.02
468.473	3.19
468.829	3.06
469.184	3.27
469.539	3.15
469.894	3.34
470.249	3.3
470.603	3.23
470.958	3.26
471.313	3.28
471.668	3.24
472.023	3.28
472.377	3.21
472.732	3.32
473.086	3.31
473.441	3.26
473.795	3.36
474.15	3.09
474.504	3.2
474.859	2.95
475.213	3.37
475.567	3.26
475.921	3.21
476.275	3.35
476.63	3.21
476.984	3.13
477.338	3.29
477.692	3.2
478.045	3.16
478.399	3.21
478.753	3.16
479.107	3.24
479.461	3.1
479.814	3.16
480.168	3.18
480.521	3.18
480.875	3.28
481.228	3.12
481.582	3.18
481.935	3.31
482.289	3.19
482.642	3.35
482.995	3.18
483.348	3.15
483.701	3.13
484.055	3.08
484.408	3.11
484.761	3.03
485.114	2.95
485.466	2.87
485.819	2.88
486.172	2.99
486.525	3.04
486.878	3.07
487.23	3.09
487.583	3.13
487.936	3.05
488.288	3
488.641	3.02
488.993	2.98
489.345	2.96
489.698	3
490.05	2.98
490.402	3.06
490.754	3.05
491.107	3.09
491.459	3.13
491.811	3.16
492.163	3.04
492.515	3.08
492.866	2.98
493.218	2.96
493.57	2.99
493.922	3.06
494.274	3.18
494.625	3.22
494.977	3.2
495.328	3.25
495.68	3.15
496.031	3.09
496.383	3.18
496.734	3.23
497.086	3.27
497.437	3.3
497.788	3.22
498.139	3.06
498.49	3.1
498.842	3.17
499.193	3.1
499.544	3.14
499.894	3.15
500.245	3.24
500.596	3.23
500.947	3.08
501.298	3.19
501.648	3.18
501.999	3.21
502.35	3.06
502.7	3.26
503.051	3.1
503.401	3.31
503.752	3.19
504.102	3.15
504.452	3.06
504.803	3.11
505.153	3.27
505.503	3.16
505.853	3.31
506.203	3.27
506.553	3.16
506.903	3.16
507.253	3.07
507.603	3.13
507.953	3.13
508.303	3.2
508.652	3.09
509.002	3.23
509.352	3.13
509.701	3.08
510.051	3.32
510.4	3.24
510.75	3.08
511.099	3.12
511.449	3.23
511.798	3.15
512.147	3.13
512.496	3.17
512.846	3.03
513.195	3.09
513.544	3.27
513.893	3.1
514.242	3.1
514.591	3.1
514.939	3.2
515.288	3.12
515.637	3.13
515.986	3.15
516.334	3.26
516.683	3.23
517.032	3.05
517.38	3.11
517.729	3.18
518.077	3.11
518.426	3.15
518.774	3.02
519.122	3.08
519.47	3.05
519.819	3.03
520.167	3.07
520.515	3.08
520.863	3.01
521.211	3.09
521.559	3.06
521.907	3.14
522.255	3.17
522.602	3.09
522.95	3.17
523.298	3.12
523.645	3.16
523.993	3.14
524.341	3.13
524.688	3.04
525.036	3.1
525.383	3.04
525.73	3.06
526.078	3.13
526.425	3.14
526.772	2.98
527.119	3
527.466	3.05
527.814	3.03
528.161	3.16
528.508	3.18
528.854	3.08
529.201	2.97
529.548	2.96
529.895	2.91
530.242	2.87
530.588	2.87
530.935	2.91
531.282	2.97
531.628	3.04
531.975	3.02
532.321	3.01
532.667	3.09
533.014	3.19
533.36	3.06
533.706	3.13
534.052	3.1
534.399	3.04
534.745	2.89
535.091	2.89
535.437	3.04
535.783	2.95
536.129	2.96
536.474	3.15
536.82	3.23
537.166	3.01
537.512	3.09
537.857	3.06
538.203	2.98
538.549	3
538.894	3
539.239	3.1
539.585	3.09
539.93	3.28
540.276	3.23
540.621	3.13
540.966	3.05
541.311	3.09
541.656	3.01
542.001	3.04
542.346	2.93
542.691	2.89
543.036	2.94
543.381	2.94
543.726	3.04
544.071	2.99
544.415	3.01
544.76	3.06
545.105	2.97
545.449	3.06
545.794	3.02
546.138	3
546.483	3.23
546.827	3.08
547.171	3.16
547.516	3.14
547.86	3.09
548.204	3.09
548.548	3
548.892	3.12
549.236	3.01
549.58	3.11
549.924	3.22
550.268	3.12
550.612	3.2
550.956	3.2
551.3	3.17
551.643	3.22
551.987	3.35
552.33	3.27
552.674	3.09
553.017	3.06
553.361	3.12
553.704	3.11
554.048	3.06
554.391	2.96
554.734	2.95
555.077	3.1
555.42	3.16
555.764	3.21
556.107	3.19
556.45	3.27
556.793	3.23
557.135	3.13
557.478	3.18
557.821	3.11
558.164	3.26
558.507	3.06
558.849	3.41
559.192	3.06
559.534	3.08
559.877	3.04
560.219	3.07
560.562	3.1
560.904	3.33
561.246	3.14
561.589	3.36
561.931	3.11
562.273	3.18
562.615	3
562.957	3.15
563.299	3.09
563.641	3.09
563.983	3.03
564.325	3.1
564.667	3.15
565.008	2.95
565.35	2.95
565.692	3.07
566.033	3.12
566.375	3.16
566.716	3.01
567.058	2.95
567.399	3.1
567.741	3.09
568.082	3.11
568.423	2.98
568.764	3.07
569.105	3.16
569.447	3.05
569.788	3.16
570.129	2.98
570.47	3.08
570.811	2.94
571.151	3.05
571.492	3.07
571.833	3.12
572.174	3.12
572.514	3.09
572.855	3.08
573.195	2.96
573.536	3.24
573.876	3.03
574.217	2.93
574.557	3.03
574.898	3.02
575.238	3.02
575.578	3.19
575.918	2.99
576.258	3.24
576.598	3.03
576.938	3.09
577.278	3.03
577.618	2.98
577.958	3.05
578.298	3.02
578.638	3.19
578.977	3.13
579.317	3.23
579.657	3.06
579.996	3.25
580.336	3.26
580.675	3.15
581.014	3.08
581.354	2.99
581.693	3.25
582.032	3.25
582.372	3.18
582.711	3.22
583.05	2.99
583.389	3.09
583.728	3.18
584.067	3.04
584.406	2.96
584.745	3.05
585.083	2.99
585.422	3.13
585.761	3.23
586.1	2.98
586.438	3.01
586.777	3.14
587.115	3
587.454	2.92
587.792	2.99
588.13	3
588.469	2.95
588.807	3.22
589.145	3.08
589.483	2.83
589.821	3.09
590.159	3.04
590.497	3.09
590.835	3.02
591.173	3.08
591.511	3.1
591.849	2.96
592.187	3.08
592.524	3.08
592.862	3
593.2	3.08
593.537	3.11
593.875	3.09
594.212	3.01
594.55	3.18
594.887	3.16
595.224	3.2
595.561	2.94
595.899	3.02
596.236	3.13
596.573	3.11
596.91	3.06
597.247	3.24
597.584	2.92
597.921	3.01
598.258	3.16
598.594	2.96
598.931	2.79
599.268	2.84
599.604	3.17
599.941	3.22
600.277	3
600.614	3.06
600.95	2.94
601.287	2.84
601.623	2.82
601.959	3.29
602.296	3.01
602.632	2.92
602.968	3.11
603.304	2.99
603.64	2.87
603.976	2.94
604.312	2.78
604.648	2.87
604.984	3.02
605.319	2.92
605.655	2.86
605.991	2.88
606.326	2.98
606.662	2.81
606.998	3.03
607.333	3.03
607.668	2.87
608.004	2.77
608.339	2.95
608.674	2.92
609.01	3.21
609.345	2.86
609.68	3.03
610.015	3
610.35	3.25
610.685	2.65
611.02	3.05
611.355	2.92
611.689	2.92
612.024	3.05
612.359	3.02
612.694	3.19
613.028	3.14
613.363	2.91
613.697	2.66
614.032	3.18
614.366	3.09
614.7	2.81
615.035	3.3
615.369	3.05
615.703	2.98
616.037	3.13
616.371	2.82
616.705	3
617.039	3.11
617.373	3.08
617.707	2.94
618.041	2.75
618.375	2.84
618.709	3.13
619.042	2.92
619.376	2.99
619.71	2.88
620.043	3.36
620.377	3.1
620.71	2.96
621.043	3.24
621.377	3.05
621.71	3.29
622.043	2.96
622.376	3.24
622.709	3.64
623.043	2.86
623.376	2.88
623.709	3.22
624.041	3.16
624.374	3.16
624.707	3.21
625.04	2.58
625.373	3.45
625.705	3.15
626.038	2.65
626.37	2.82
626.703	3.01
627.035	2.94
627.368	3.2
627.7	3.07
628.032	3.02
628.365	3.24
628.697	3.37
629.029	2.95
629.361	3.18
629.693	3.26
630.025	3
630.357	3.26
630.689	3.03
631.021	3.02
631.353	3.12
631.684	2.73
632.016	2.53
632.348	2.91
632.679	3.22
633.011	3.04
633.342	2.95
633.674	2.69
634.005	3.05
634.336	3.23
634.668	2.94
634.999	2.85
635.33	3.2
635.661	2.99
635.992	2.93
636.323	2.91
636.654	3.08
636.985	2.87
637.316	2.65
637.647	3.15
637.977	2.8
638.308	3.18
638.639	3.19
638.969	2.86
639.3	3.04
639.63	3.1
639.961	2.74
640.291	2.79
640.622	3.1
640.952	3.08
641.282	2.73
641.612	2.67
641.943	2.65
642.273	2.52
642.603	3.1
642.933	3.75
643.263	2.88
643.592	3.44
643.922	3.45
644.252	3.14
644.582	3.06
644.911	3.1
645.241	2.87
645.571	2.71
645.9	3.25
646.23	3.24
646.559	2.71
646.888	3.3
647.218	3.23
647.547	2.63
647.876	3.43
648.205	2.97
648.534	3.04
648.863	2.78
649.192	2.9
649.521	2.88
649.85	3
650.179	3.16
650.508	2.79
650.837	3.35
651.165	3.19
651.494	3.04
651.822	3.02
652.151	2.51
652.479	2.97
652.808	2.9
653.136	2.5
653.465	2.63
653.793	2.79
654.121	2.56
654.449	2.9
654.777	2.38
655.105	2.86
655.433	3.05
655.761	2.87
656.089	2.8
656.417	3.49
656.745	3.61
657.073	2.66
657.4	2.79
657.728	2.14
658.056	2.53
658.383	2.76
658.711	2.99
659.038	3.38
659.365	3.45
659.693	3
660.02	2.49
660.347	2.96
660.674	2.84
661.001	2.92
661.329	2.73
661.656	2.69
661.982	2.66
662.309	2.88
662.636	2.88
662.963	2.82
663.29	2.79
663.616	2.92
663.943	2.91
664.27	2.92
664.596	2.82
664.923	2.99
665.249	3.33
665.576	2.65
665.902	2.83
666.228	2.98
666.554	3.39
666.881	2.37
667.207	2.66
667.533	2.78
667.859	2.91
668.185	2.6
668.511	3.2
668.837	3.14
669.162	2.96
669.488	2.64
669.814	2.81
670.139	2.41
670.465	2.9
670.791	2.65
671.116	2.87
671.442	2.16
671.767	2.95
672.092	3
672.418	2.69
672.743	2.6
673.068	2.25
673.393	2.98
673.718	2.54
674.043	2.77
674.368	2.9
674.693	2.86
675.018	3.35
675.343	3.16
675.667	2.94
675.992	2.91
676.317	2.12
676.641	3.52
676.966	2.58
677.29	1.98
677.615	2.78
677.939	3.04
678.264	2.7
678.588	3.07
678.912	2.94
679.236	2.62
679.56	2.6
679.885	2.7
680.209	3.52
680.532	3.62
680.856	2.59
681.18	3.51
681.504	2.76
681.828	2.4
682.152	3
682.475	3.21
682.799	2.87
683.122	3.05
683.446	2.18
683.769	3.19
684.093	3.48
684.416	2.51
684.739	2.86
685.062	3.08
685.386	2.9
685.709	3.14
686.032	2.93
686.355	3.17
686.678	3.75
687.001	3.4
687.324	3.44
687.646	2.51
687.969	3.15
688.292	2.65
688.614	2.82
688.937	2.37
689.26	2.95
689.582	2.92
689.904	3.31
690.227	3.82
690.549	3.35
690.871	3.06
691.194	3
691.516	2.38
691.838	3.16
692.16	2.63
692.482	2.88
692.804	3.02
