Data from 0001_chest_Reflection__2__243.txt Node

Date: Thu Dec 15 18:41:55 CST 2022
User: ToomeyLab
Spectrometer: FLMS14357
Trigger mode: 0
Integration Time (sec): 1.000000E-2
Scans to average: 100
Electric dark correction enabled: true
Nonlinearity correction enabled: false
Boxcar width: 0
XAxis mode: Wavelengths
Number of Pixels in Spectrum: 2048
>>>>>Begin Spectral Data<<<<<
189.047	66.41
189.435	66.41
189.823	66.41
190.211	65.19
190.599	127.18
190.987	-1588.16
191.375	49.67
191.763	87.46
192.151	127.57
192.538	206.59
192.926	281
193.314	121.84
193.702	-98.19
194.089	1307.35
194.477	175.71
194.864	249.32
195.252	-47.07
195.639	67.01
196.027	52.6
196.414	99.47
196.801	75.19
197.189	161.21
197.576	4.53
197.963	-25725
198.351	35.94
198.738	-10.83
199.125	-32.84
199.512	50.57
199.899	-54.47
200.286	-24.41
200.673	29.25
201.06	-15.05
201.447	43.52
201.833	-20.92
202.22	-7.89
202.607	12.82
202.994	-3.72
203.38	8.03
203.767	-9.51
204.154	46.46
204.54	21.59
204.927	-26.98
205.313	20.22
205.699	13.27
206.086	12.78
206.472	10.01
206.858	39.49
207.245	-28.35
207.631	3.39
208.017	33.94
208.403	-23.05
208.789	-15.74
209.175	-30.61
209.561	-77.02
209.947	-20.58
210.333	-44.82
210.719	4.95
211.105	19.78
211.491	22.2
211.876	-59.96
212.262	2.81
212.648	3.34
213.034	-35.45
213.419	-27.56
213.805	-33.88
214.19	-37.23
214.576	-23.34
214.961	-10.25
215.346	-15.4
215.732	12.83
216.117	19.86
216.502	-22.86
216.888	3.93
217.273	4.46
217.658	-27.82
218.043	-27.79
218.428	-5.76
218.813	-0.07
219.198	-28.38
219.583	2.29
219.968	5.74
220.353	-6.77
220.738	-7.81
221.122	-9.73
221.507	-15.14
221.892	-24.97
222.276	1.36
222.661	-13.33
223.046	-3.76
223.43	9.15
223.815	1.15
224.199	-5.54
224.583	6.97
224.968	1.49
225.352	-11.12
225.736	6.17
226.121	-2.61
226.505	-3.59
226.889	-2.08
227.273	-4.41
227.657	3.77
228.041	3.74
228.425	-2.19
228.809	3.28
229.193	4.6
229.577	3.05
229.961	3.9
230.344	4.29
230.728	4.94
231.112	4.76
231.495	3.07
231.879	3.54
232.263	3.67
232.646	4.52
233.03	4.74
233.413	3.53
233.797	1.97
234.18	0.73
234.563	5.03
234.946	3.8
235.33	3.86
235.713	2.72
236.096	3.95
236.479	4.31
236.862	2.02
237.245	1.81
237.628	3.83
238.011	3.96
238.394	3.4
238.777	4.46
239.16	4.07
239.543	5.56
239.925	3.16
240.308	3.84
240.691	2.54
241.073	3.45
241.456	3.03
241.838	3.77
242.221	4.67
242.603	3.79
242.986	3.96
243.368	4.46
243.75	3.98
244.133	3.95
244.515	4.22
244.897	4.45
245.279	3.42
245.661	3.73
246.043	4.65
246.425	4.41
246.807	4.28
247.189	4.35
247.571	4.04
247.953	3.95
248.335	4.22
248.717	4.39
249.098	4.08
249.48	3.75
249.862	3.99
250.243	4.05
250.625	3.95
251.006	4.42
251.388	3.62
251.769	3.03
252.151	4.09
252.532	4.11
252.913	3.77
253.295	3.92
253.676	3.97
254.057	3.98
254.438	3.86
254.819	3.81
255.2	3.54
255.581	4.99
255.962	3.9
256.343	4.4
256.724	4.69
257.105	4.11
257.486	2.82
257.867	2.9
258.247	4.26
258.628	4.25
259.009	3.43
259.389	3.13
259.77	3.8
260.15	4.68
260.531	3.66
260.911	3.84
261.292	4.07
261.672	3.85
262.052	3.95
262.432	3.83
262.813	3.57
263.193	3.83
263.573	3.57
263.953	3.41
264.333	3.41
264.713	4
265.093	3.68
265.473	3.08
265.853	3.44
266.233	3.4
266.612	2.76
266.992	3.51
267.372	3.98
267.752	3.93
268.131	3.45
268.511	3.97
268.89	4.16
269.27	3.16
269.649	3.3
270.029	3.79
270.408	3.45
270.787	4.05
271.167	4.12
271.546	3.77
271.925	3.87
272.304	3.66
272.683	3.45
273.062	3.52
273.441	3.11
273.82	3.39
274.199	3.77
274.578	4.08
274.957	3.64
275.336	3.79
275.715	4.24
276.093	3.14
276.472	3.39
276.851	3.5
277.229	3.43
277.608	3.29
277.986	3.35
278.365	3.92
278.743	3.39
279.122	3.32
279.5	3.33
279.878	3.32
280.257	3.99
280.635	4.06
281.013	3.3
281.391	3.38
281.769	3.97
282.147	3.55
282.525	3.1
282.903	3.54
283.281	3.65
283.659	3.63
284.037	3.14
284.415	3.42
284.792	3.73
285.17	3.32
285.548	3.86
285.925	3.47
286.303	4.09
286.68	3.54
287.058	3.72
287.435	3.61
287.813	3.4
288.19	3.39
288.567	3.75
288.945	3.32
289.322	3.72
289.699	3.71
290.076	3.52
290.453	3.15
290.83	3.78
291.207	3.29
291.584	3.98
291.961	3.45
292.338	3.68
292.715	3.39
293.092	3.9
293.469	3.6
293.845	3.41
294.222	4.37
294.599	3.8
294.975	2.96
295.352	3.75
295.728	3.54
296.105	3.56
296.481	3.73
296.858	3.45
297.234	3.64
297.61	3.8
297.986	4.08
298.363	3.76
298.739	4.12
299.115	3.49
299.491	4.03
299.867	3.61
300.243	3.63
300.619	3.53
300.995	3.58
301.371	4.01
301.746	3.97
302.122	3.2
302.498	4
302.874	3.74
303.249	3.72
303.625	3.44
304	3.93
304.376	4.04
304.751	3.78
305.127	3.56
305.502	3.39
305.878	3.95
306.253	3.21
306.628	3.9
307.003	3.38
307.378	3.47
307.754	4.1
308.129	3.4
308.504	3.85
308.879	3.76
309.254	3.93
309.629	4.01
310.003	3.64
310.378	4
310.753	4.18
311.128	3.75
311.502	3.62
311.877	3.76
312.252	4.07
312.626	3.97
313.001	3.9
313.375	3.75
313.75	3.99
314.124	3.97
314.498	4.39
314.873	3.6
315.247	3.55
315.621	3.47
315.995	3.96
316.369	3.68
316.743	3.53
317.117	3.7
317.491	3.99
317.865	3.75
318.239	4.48
318.613	3.94
318.987	3.2
319.361	3.81
319.734	3.82
320.108	3.83
320.482	4.28
320.855	3.76
321.229	3.75
321.602	4
321.976	3.09
322.349	4.21
322.723	4.07
323.096	3.44
323.469	3.5
323.843	3.49
324.216	4.01
324.589	3.9
324.962	3.54
325.335	3.66
325.708	3.95
326.081	3.67
326.454	4.17
326.827	3.8
327.2	3.48
327.573	4.22
327.945	3.78
328.318	3.82
328.691	3.83
329.063	3.44
329.436	3.19
329.809	3.92
330.181	4.68
330.553	4.06
330.926	4.14
331.298	3.91
331.671	4.25
332.043	3.87
332.415	4.1
332.787	4.09
333.159	3.46
333.532	3.84
333.904	3.61
334.276	4.3
334.648	3.94
335.02	3.7
335.391	3.55
335.763	3.74
336.135	3.8
336.507	3.79
336.879	3.92
337.25	3.86
337.622	4.58
337.993	4.01
338.365	3.59
338.736	3.74
339.108	4.26
339.479	3.83
339.851	4.15
340.222	4.25
340.593	3.77
340.964	3.98
341.336	3.91
341.707	3.81
342.078	3.64
342.449	4.17
342.82	4.1
343.191	3.97
343.562	3.55
343.933	3.61
344.303	3.93
344.674	3.78
345.045	4
345.416	4.13
345.786	3.59
346.157	4.11
346.527	4.02
346.898	3.66
347.268	4.14
347.639	3.76
348.009	4.03
348.38	4.06
348.75	3.72
349.12	3.88
349.49	3.67
349.861	3.99
350.231	3.97
350.601	4
350.971	3.72
351.341	4.37
351.711	3.87
352.081	3.69
352.45	3.8
352.82	3.32
353.19	3.85
353.56	3.66
353.929	3.92
354.299	4.15
354.669	4.08
355.038	3.95
355.408	3.95
355.777	4.17
356.147	3.87
356.516	4.13
356.885	4.11
357.254	3.6
357.624	3.42
357.993	3.77
358.362	3.86
358.731	4.21
359.1	3.91
359.469	4.37
359.838	3.96
360.207	3.92
360.576	4.2
360.945	3.99
361.314	3.79
361.682	3.63
362.051	4.01
362.42	3.97
362.788	3.97
363.157	3.9
363.525	3.9
363.894	3.78
364.262	3.9
364.631	4.26
364.999	4
365.367	3.92
365.735	3.75
366.104	3.72
366.472	3.74
366.84	4.23
367.208	4.17
367.576	4.02
367.944	3.89
368.312	3.68
368.68	4.39
369.048	4
369.416	3.94
369.783	3.87
370.151	4.2
370.519	4.37
370.886	3.84
371.254	4.34
371.621	4.19
371.989	4.05
372.356	4.17
372.724	4.1
373.091	3.95
373.458	4.21
373.826	4.28
374.193	4.2
374.56	3.78
374.927	4.03
375.294	4.32
375.661	4.12
376.028	4.37
376.395	4.08
376.762	4.02
377.129	3.81
377.496	4.35
377.863	4.15
378.229	4.27
378.596	4.27
378.963	4.11
379.329	4.29
379.696	4.13
380.062	4.07
380.429	3.73
380.795	4.2
381.161	3.82
381.528	3.92
381.894	3.85
382.26	4.17
382.626	4.11
382.993	4.31
383.359	3.86
383.725	3.91
384.091	4.29
384.457	3.91
384.823	4.26
385.188	4.09
385.554	4.24
385.92	3.85
386.286	4
386.651	3.98
387.017	4.31
387.383	3.96
387.748	3.97
388.114	4.26
388.479	4.12
388.845	4.06
389.21	4.37
389.575	4.28
389.94	4.08
390.306	4.11
390.671	3.87
391.036	3.98
391.401	4.02
391.766	3.89
392.131	4.34
392.496	4.17
392.861	4.07
393.226	4.04
393.591	4.28
393.956	4.16
394.32	4.3
394.685	4.21
395.05	4.17
395.414	4.14
395.779	4.43
396.143	4.05
396.508	4.1
396.872	4.21
397.236	4.41
397.601	4.19
397.965	4.13
398.329	3.99
398.694	3.96
399.058	4.14
399.422	4.3
399.786	4
400.15	4.09
400.514	3.99
400.878	4.3
401.242	4.17
401.605	4.1
401.969	4.23
402.333	4.16
402.697	4.45
403.06	4.3
403.424	4.38
403.787	4.12
404.151	4.11
404.514	4.32
404.878	4.12
405.241	4.03
405.604	4.25
405.968	4.1
406.331	4.23
406.694	4.26
407.057	4.01
407.42	4.07
407.783	4.28
408.146	4.26
408.509	4.17
408.872	4.31
409.235	4.31
409.598	4.16
409.961	4.46
410.323	4.12
410.686	4.21
411.049	4.15
411.411	4.13
411.774	4.3
412.136	4.23
412.499	4.46
412.861	4.06
413.223	4.13
413.586	4.33
413.948	4.31
414.31	4.29
414.672	4.16
415.035	4.54
415.397	4.06
415.759	3.93
416.121	4.51
416.483	4.16
416.845	4.02
417.206	4.12
417.568	4.14
417.93	4.3
418.292	4
418.653	4.1
419.015	4.16
419.377	4.16
419.738	4.35
420.1	4.24
420.461	4.15
420.822	4.18
421.184	4.24
421.545	4.1
421.906	4.24
422.267	4.16
422.629	4.13
422.99	4.15
423.351	4.21
423.712	4.28
424.073	4.32
424.434	4.32
424.795	4.19
425.155	4.09
425.516	4.17
425.877	4.19
426.238	4.2
426.598	4.22
426.959	4.24
427.32	4.11
427.68	4.27
428.041	4.28
428.401	4.19
428.761	4.45
429.122	4.21
429.482	4.16
429.842	4.14
430.202	4.35
430.563	4.39
430.923	4.4
431.283	4.44
431.643	4.37
432.003	4.31
432.363	4.34
432.722	4.35
433.082	4.26
433.442	4.33
433.802	4.27
434.161	4.21
434.521	4.3
434.881	4.27
435.24	4.24
435.6	4.28
435.959	4.2
436.319	4.32
436.678	4.25
437.037	4.18
437.396	4.36
437.756	4.32
438.115	4.31
438.474	4.27
438.833	4.33
439.192	4.2
439.551	4.11
439.91	4.2
440.269	4.32
440.628	4.3
440.987	4.29
441.345	4.37
441.704	4.21
442.063	4.22
442.421	4.26
442.78	4.33
443.138	4.31
443.497	4.29
443.855	4.41
444.214	4.19
444.572	4.37
444.93	4.32
445.288	4.42
445.647	4.26
446.005	4.25
446.363	4.35
446.721	4.2
447.079	4.15
447.437	4.27
447.795	4.34
448.153	4.23
448.51	4.3
448.868	4.19
449.226	4.34
449.584	4.39
449.941	4.33
450.299	4.14
450.656	4.36
451.014	4.4
451.371	4.41
451.729	4.37
452.086	4.48
452.443	4.39
452.801	4.47
453.158	4.61
453.515	4.28
453.872	4.29
454.229	4.34
454.586	4.38
454.943	4.45
455.3	4.32
455.657	4.3
456.014	4.41
456.371	4.56
456.727	4.66
457.084	4.51
457.441	4.44
457.797	4.38
458.154	4.5
458.51	4.42
458.867	4.36
459.223	4.31
459.58	4.41
459.936	4.41
460.292	4.37
460.648	4.36
461.005	4.34
461.361	4.33
461.717	4.3
462.073	4.35
462.429	4.47
462.785	4.63
463.141	4.52
463.496	4.6
463.852	4.48
464.208	4.42
464.564	4.41
464.919	4.52
465.275	4.6
465.631	4.65
465.986	4.46
466.342	4.45
466.697	4.55
467.052	4.56
467.408	4.63
467.763	4.5
468.118	4.46
468.473	4.61
468.829	4.41
469.184	4.57
469.539	4.5
469.894	4.55
470.249	4.57
470.603	4.6
470.958	4.54
471.313	4.46
471.668	4.44
472.023	4.5
472.377	4.53
472.732	4.6
473.086	4.56
473.441	4.52
473.795	4.78
474.15	4.57
474.504	4.52
474.859	4.37
475.213	4.73
475.567	4.51
475.921	4.5
476.275	4.56
476.63	4.61
476.984	4.43
477.338	4.6
477.692	4.56
478.045	4.5
478.399	4.51
478.753	4.55
479.107	4.71
479.461	4.47
479.814	4.54
480.168	4.49
480.521	4.6
480.875	4.66
481.228	4.48
481.582	4.57
481.935	4.73
482.289	4.5
482.642	4.73
482.995	4.61
483.348	4.51
483.701	4.64
484.055	4.58
484.408	4.5
484.761	4.48
485.114	4.3
485.466	4.31
485.819	4.37
486.172	4.42
486.525	4.46
486.878	4.52
487.23	4.56
487.583	4.6
487.936	4.51
488.288	4.52
488.641	4.46
488.993	4.43
489.345	4.46
489.698	4.44
490.05	4.49
490.402	4.51
490.754	4.53
491.107	4.55
491.459	4.63
491.811	4.67
492.163	4.59
492.515	4.51
492.866	4.49
493.218	4.48
493.57	4.58
493.922	4.59
494.274	4.69
494.625	4.8
494.977	4.76
495.328	4.75
495.68	4.67
496.031	4.75
496.383	4.81
496.734	4.68
497.086	4.89
497.437	4.84
497.788	4.87
498.139	4.78
498.49	4.77
498.842	4.82
499.193	4.64
499.544	4.81
499.894	4.76
500.245	4.81
500.596	4.87
500.947	4.79
501.298	4.64
501.648	4.76
501.999	4.91
502.35	4.71
502.7	4.98
503.051	4.84
503.401	4.76
503.752	4.75
504.102	4.78
504.452	4.86
504.803	4.73
505.153	4.83
505.503	4.83
505.853	4.89
506.203	4.88
506.553	4.81
506.903	4.93
507.253	4.81
507.603	4.94
507.953	4.89
508.303	4.99
508.652	4.94
509.002	4.91
509.352	4.92
509.701	4.91
510.051	4.95
510.4	4.93
510.75	4.91
511.099	4.81
511.449	5.03
511.798	4.88
512.147	4.92
512.496	5
512.846	4.9
513.195	5.01
513.544	5.04
513.893	4.99
514.242	5.02
514.591	4.96
514.939	5.04
515.288	5.07
515.637	4.95
515.986	4.99
516.334	5.13
516.683	5.05
517.032	5.06
517.38	4.95
517.729	5.13
518.077	5.01
518.426	5.17
518.774	5.05
519.122	5.06
519.47	5.07
519.819	5.02
520.167	5
520.515	5.01
520.863	4.97
521.211	5.01
521.559	5.13
521.907	5.11
522.255	5.09
522.602	5.21
522.95	5.18
523.298	5.2
523.645	5.22
523.993	5.16
524.341	5.2
524.688	5.12
525.036	5.22
525.383	5.24
525.73	5.16
526.078	5.23
526.425	5.08
526.772	5.21
527.119	5.26
527.466	5.22
527.814	5.15
528.161	5.35
528.508	5.25
528.854	5.26
529.201	5.12
529.548	5.16
529.895	5.06
530.242	5.02
530.588	5.02
530.935	5.13
531.282	5.13
531.628	5.21
531.975	5.23
532.321	5.31
532.667	5.39
533.014	5.31
533.36	5.4
533.706	5.41
534.052	5.37
534.399	5.35
534.745	5.23
535.091	5.21
535.437	5.32
535.783	5.37
536.129	5.37
536.474	5.42
536.82	5.49
537.166	5.36
537.512	5.34
537.857	5.35
538.203	5.47
538.549	5.4
538.894	5.44
539.239	5.54
539.585	5.56
539.93	5.68
540.276	5.54
540.621	5.61
540.966	5.56
541.311	5.56
541.656	5.56
542.001	5.62
542.346	5.53
542.691	5.42
543.036	5.44
543.381	5.46
543.726	5.61
544.071	5.58
544.415	5.59
544.76	5.69
545.105	5.6
545.449	5.8
545.794	5.73
546.138	5.78
546.483	5.85
546.827	5.66
547.171	5.87
547.516	5.84
547.86	5.85
548.204	5.89
548.548	5.82
548.892	5.78
549.236	5.81
549.58	5.9
549.924	5.96
550.268	5.95
550.612	6.04
550.956	6.12
551.3	6.07
551.643	6
551.987	6.14
552.33	6.16
552.674	6.05
553.017	6.14
553.361	6.07
553.704	6.22
554.048	6.16
554.391	6.29
554.734	6.07
555.077	6.22
555.42	6.21
555.764	6.21
556.107	6.3
556.45	6.46
556.793	6.27
557.135	6.35
557.478	6.27
557.821	6.46
558.164	6.24
558.507	6.28
558.849	6.58
559.192	6.32
559.534	6.3
559.877	6.29
560.219	6.31
560.562	6.5
560.904	6.54
561.246	6.47
561.589	6.63
561.931	6.5
562.273	6.54
562.615	6.51
562.957	6.56
563.299	6.5
563.641	6.52
563.983	6.42
564.325	6.81
564.667	6.57
565.008	6.61
565.35	6.54
565.692	6.69
566.033	6.5
566.375	6.7
566.716	6.61
567.058	6.69
567.399	6.7
567.741	6.71
568.082	6.79
568.423	6.67
568.764	6.79
569.105	6.92
569.447	6.73
569.788	6.86
570.129	6.93
570.47	6.99
570.811	6.87
571.151	6.85
571.492	7
571.833	6.91
572.174	7.1
572.514	6.93
572.855	7.16
573.195	6.93
573.536	7.04
573.876	7.15
574.217	7.1
574.557	6.95
574.898	7.05
575.238	7.19
575.578	7.21
575.918	7.19
576.258	7.53
576.598	7.1
576.938	7.22
577.278	7.2
577.618	7.28
577.958	7.39
578.298	7.31
578.638	7.3
578.977	7.53
579.317	7.25
579.657	7.37
579.996	7.56
580.336	7.75
580.675	7.7
581.014	7.54
581.354	7.3
581.693	7.67
582.032	7.61
582.372	7.7
582.711	7.76
583.05	7.54
583.389	7.89
583.728	7.8
584.067	7.59
584.406	7.7
584.745	7.71
585.083	7.81
585.422	8.16
585.761	7.91
586.1	7.77
586.438	7.78
586.777	8.02
587.115	8.1
587.454	7.91
587.792	7.92
588.13	7.93
588.469	7.92
588.807	8.21
589.145	8.18
589.483	7.76
589.821	8.13
590.159	7.97
590.497	8.33
590.835	8.22
591.173	8.28
591.511	8.28
591.849	8.24
592.187	8.35
592.524	8.54
592.862	8.34
593.2	8.49
593.537	8.45
593.875	8.52
594.212	8.47
594.55	8.44
594.887	8.66
595.224	8.75
595.561	8.27
595.899	8.76
596.236	8.78
596.573	8.48
596.91	8.65
597.247	8.81
597.584	8.54
597.921	8.6
598.258	8.73
598.594	8.72
598.931	8.63
599.268	8.57
599.604	8.91
599.941	8.94
600.277	8.92
600.614	8.88
600.95	9.05
601.287	9.02
601.623	8.81
601.959	9.28
602.296	9.34
602.632	9.13
602.968	9.26
603.304	9.19
603.64	8.87
603.976	8.97
604.312	9.08
604.648	9.28
604.984	9.18
605.319	9.09
605.655	9.25
605.991	9.19
606.326	9.21
606.662	9.11
606.998	9.38
607.333	9.17
607.668	9.38
608.004	9.41
608.339	9.45
608.674	9.63
609.01	9.85
609.345	9.57
609.68	9.37
610.015	9.67
610.35	9.77
610.685	9.42
611.02	9.61
611.355	9.56
611.689	9.81
612.024	9.66
612.359	10.02
612.694	9.75
613.028	9.67
613.363	9.89
613.697	10.11
614.032	9.93
614.366	10.13
614.7	9.94
615.035	10.05
615.369	10.03
615.703	10.23
616.037	10.05
616.371	10.26
616.705	9.89
617.039	10.15
617.373	10.52
617.707	10.11
618.041	10.08
618.375	9.93
618.709	10.15
619.042	10.25
619.376	10.58
619.71	10.31
620.043	10.33
620.377	10.66
620.71	10.19
621.043	10.43
621.377	10.5
621.71	10.96
622.043	10.79
622.376	10.79
622.709	11.32
623.043	10.79
623.376	10.6
623.709	11.03
624.041	10.67
624.374	10.72
624.707	10.74
625.04	10.78
625.373	11.32
625.705	10.9
626.038	11.07
626.37	11.12
626.703	11.29
627.035	11.08
627.368	11.39
627.7	11.04
628.032	10.97
628.365	11.35
628.697	11.37
629.029	11.17
629.361	11.44
629.693	11.46
630.025	11.33
630.357	11.4
630.689	11.33
631.021	11.5
631.353	11.63
631.684	11.32
632.016	11.35
632.348	11.62
632.679	11.67
633.011	11.81
633.342	11.58
633.674	11.43
634.005	11.94
634.336	11.89
634.668	11.61
634.999	11.8
635.33	12.03
635.661	11.61
635.992	11.96
636.323	11.9
636.654	12
636.985	11.75
637.316	12.07
637.647	12.26
637.977	11.73
638.308	12.51
638.639	12.1
638.969	12.35
639.3	11.96
639.63	12.4
639.961	12.54
640.291	12.2
640.622	12.4
640.952	12.63
641.282	11.85
641.612	12.32
641.943	12.3
642.273	12.13
642.603	12.89
642.933	12.93
643.263	13.06
643.592	12.87
643.922	12.99
644.252	12.63
644.582	12.9
644.911	12.85
645.241	12.7
645.571	13.16
645.9	13.24
646.23	13.27
646.559	12.9
646.888	12.93
647.218	13
647.547	13.44
647.876	12.97
648.205	12.74
648.534	13.37
648.863	13.06
649.192	12.79
649.521	13.49
649.85	13.37
650.179	13.5
650.508	13.14
650.837	13.76
651.165	13.15
651.494	12.9
651.822	13.58
652.151	13.59
652.479	13.32
652.808	13.43
653.136	13.37
653.465	13.36
653.793	13.46
654.121	13.69
654.449	13.43
654.777	13.71
655.105	13.37
655.433	14.1
655.761	13.94
656.089	13.97
656.417	14.09
656.745	13.98
657.073	13.84
657.4	13.51
657.728	13.36
658.056	14.19
658.383	14.8
658.711	14.11
659.038	14.69
659.365	14.63
659.693	14.3
660.02	14.1
660.347	14
660.674	14.31
661.001	14.56
661.329	14.16
661.656	14.04
661.982	14.45
662.309	14.45
662.636	14.23
662.963	14.39
663.29	14.73
663.616	14.63
663.943	15.1
664.27	14.54
664.596	14.27
664.923	14.81
665.249	14.72
665.576	14.75
665.902	14.33
666.228	14.99
666.554	15.56
666.881	14.34
667.207	15.1
667.533	14.88
667.859	14.96
668.185	14.6
668.511	15.26
668.837	15.13
669.162	15.31
669.488	14.72
669.814	15.29
670.139	14.7
670.465	15.49
670.791	14.35
671.116	15.23
671.442	14.69
671.767	15.74
672.092	15.12
672.418	14.96
672.743	15.23
673.068	15.04
673.393	15.45
673.718	15.11
674.043	15.34
674.368	14.79
674.693	15.62
675.018	15.53
675.343	16.13
675.667	15.62
675.992	16.05
676.317	15.19
676.641	15.63
676.966	16.29
677.29	15.75
677.615	15.91
677.939	16.08
678.264	16.52
678.588	16.02
678.912	16.44
679.236	16.13
679.56	15.76
679.885	16.46
680.209	16.74
680.532	16.83
680.856	16.19
681.18	16.56
681.504	16.83
681.828	16.18
682.152	16.14
682.475	16.5
682.799	16.3
683.122	16.44
683.446	16.08
683.769	16.91
684.093	16.81
684.416	16.46
684.739	16.86
685.062	16.84
685.386	17.06
685.709	17
686.032	17.23
686.355	16.94
686.678	16.94
687.001	17.1
687.324	16.93
687.646	16.85
687.969	17.24
