Data from 0001_chest_Reflection__3__244.txt Node

Date: Thu Dec 15 18:42:12 CST 2022
User: ToomeyLab
Spectrometer: FLMS14357
Trigger mode: 0
Integration Time (sec): 1.000000E-2
Scans to average: 100
Electric dark correction enabled: true
Nonlinearity correction enabled: false
Boxcar width: 0
XAxis mode: Wavelengths
Number of Pixels in Spectrum: 2048
>>>>>Begin Spectral Data<<<<<
189.047	171.4
189.435	171.4
189.823	171.4
190.211	12.44
190.599	176.73
190.987	-992.76
191.375	90.18
191.763	191.07
192.151	24.12
192.538	196.08
192.926	213.06
193.314	158.6
193.702	-122.64
194.089	-2133.09
194.477	522.43
194.864	168.81
195.252	-276.81
195.639	63.29
196.027	-36.3
196.414	144.24
196.801	-61.87
197.189	141.82
197.576	38.82
197.963	-7020.83
198.351	-23.21
198.738	-77.52
199.125	-70.99
199.512	-26.69
199.899	-103.41
200.286	-2.26
200.673	21.71
201.06	-1.61
201.447	42.51
201.833	-40.97
202.22	-27.64
202.607	-45.8
202.994	-5.32
203.38	20.12
203.767	-28.21
204.154	27.26
204.54	12.8
204.927	30.92
205.313	41.04
205.699	26.77
206.086	36.01
206.472	16.36
206.858	-21.18
207.245	-3.16
207.631	8.87
208.017	33.51
208.403	-27.85
208.789	-27.68
209.175	9.54
209.561	-124.56
209.947	-4.32
210.333	-29.21
210.719	28.88
211.105	14.87
211.491	-15.16
211.876	-20.42
212.262	11.08
212.648	-4.13
213.034	4.68
213.419	15.92
213.805	-75.8
214.19	-28.89
214.576	-4.48
214.961	37.4
215.346	-40.28
215.732	2.09
216.117	1.94
216.502	-28.66
216.888	20.09
217.273	-1.79
217.658	4.58
218.043	-31.33
218.428	-22.89
218.813	-2.22
219.198	-46.86
219.583	-7.14
219.968	13.91
220.353	-12.01
220.738	1.5
221.122	-8.49
221.507	-20.39
221.892	-24.93
222.276	-28.78
222.661	-10.25
223.046	-14.7
223.43	13.58
223.815	-5.89
224.199	1.67
224.583	0.63
224.968	0.54
225.352	-2.88
225.736	7.21
226.121	5.3
226.505	-5.15
226.889	4.98
227.273	-3.43
227.657	3.11
228.041	3.03
228.425	4.03
228.809	-0.14
229.193	0.69
229.577	2.67
229.961	2.45
230.344	2.49
230.728	2.95
231.112	3.18
231.495	0.36
231.879	2.25
232.263	2.45
232.646	1.81
233.03	2.57
233.413	3.1
233.797	0.43
234.18	0.64
234.563	2.81
234.946	2.19
235.33	2.2
235.713	2.47
236.096	3.82
236.479	2.67
236.862	0.75
237.245	0.2
237.628	1.62
238.011	2.08
238.394	0.91
238.777	3.68
239.16	3.38
239.543	3.11
239.925	1.83
240.308	0.04
240.691	1.74
241.073	2.52
241.456	2.36
241.838	2.75
242.221	2.74
242.603	2.15
242.986	2.57
243.368	3.29
243.75	2.73
244.133	3.04
244.515	2.75
244.897	2.8
245.279	2.21
245.661	2.22
246.043	2.28
246.425	2.33
246.807	2.34
247.189	2.41
247.571	1.98
247.953	2.62
248.335	2.59
248.717	2.65
249.098	2.38
249.48	2.36
249.862	2.56
250.243	2.62
250.625	2.48
251.006	3.32
251.388	2.1
251.769	1.64
252.151	2.81
252.532	1.69
252.913	2.38
253.295	2.52
253.676	2.19
254.057	2.38
254.438	2.19
254.819	2.04
255.2	3
255.581	3.28
255.962	3.52
256.343	3.08
256.724	2.64
257.105	2.5
257.486	1.19
257.867	2.62
258.247	2.73
258.628	2.54
259.009	1.81
259.389	1.31
259.77	2.09
260.15	3.04
260.531	2.35
260.911	2.35
261.292	2.51
261.672	2.3
262.052	2.28
262.432	2.16
262.813	2.14
263.193	2.3
263.573	2.6
263.953	2.04
264.333	2.32
264.713	2.53
265.093	2.21
265.473	1.99
265.853	1.73
266.233	1.67
266.612	1.65
266.992	2.59
267.372	2.36
267.752	2.53
268.131	2.15
268.511	2.33
268.89	2.43
269.27	1.79
269.649	2.33
270.029	2.27
270.408	2.08
270.787	2.32
271.167	2.45
271.546	2.47
271.925	2.05
272.304	2.38
272.683	1.75
273.062	1.79
273.441	2.14
273.82	2.19
274.199	2.02
274.578	2.44
274.957	1.89
275.336	2.24
275.715	2.64
276.093	1.89
276.472	1.72
276.851	2.45
277.229	2.04
277.608	1.98
277.986	2.6
278.365	2.58
278.743	2.14
279.122	1.88
279.5	2.67
279.878	2.2
280.257	2.04
280.635	2.31
281.013	1.98
281.391	2
281.769	2.21
282.147	1.55
282.525	1.95
282.903	1.98
283.281	2.11
283.659	2.32
284.037	2.14
284.415	2.2
284.792	1.94
285.17	2.18
285.548	2.1
285.925	2.33
286.303	2.47
286.68	2.09
287.058	2.11
287.435	2.17
287.813	2.09
288.19	2.19
288.567	2.36
288.945	1.78
289.322	2.31
289.699	2.25
290.076	1.88
290.453	2.01
290.83	2.43
291.207	2.21
291.584	2.51
291.961	2.22
292.338	2.28
292.715	2.02
293.092	2.43
293.469	2.03
293.845	2.24
294.222	2.94
294.599	2.21
294.975	1.75
295.352	2.02
295.728	2.38
296.105	2.15
296.481	2.17
296.858	2.41
297.234	1.91
297.61	2.18
297.986	2.46
298.363	2.31
298.739	2.37
299.115	2.15
299.491	2.56
299.867	1.82
300.243	2.24
300.619	2.16
300.995	2.31
301.371	2.3
301.746	2.15
302.122	1.9
302.498	2.02
302.874	2.6
303.249	2.01
303.625	2.3
304	2.43
304.376	2.53
304.751	2.26
305.127	2.17
305.502	2.32
305.878	2.58
306.253	2.11
306.628	2.38
307.003	2.3
307.378	2.31
307.754	2.45
308.129	2.37
308.504	2.67
308.879	2.34
309.254	2.19
309.629	2.24
310.003	2.32
310.378	2.52
310.753	2.54
311.128	1.87
311.502	2.48
311.877	2.16
312.252	2.53
312.626	2.53
313.001	2.47
313.375	2.59
313.75	2.53
314.124	2.44
314.498	2.47
314.873	1.96
315.247	1.9
315.621	2.03
315.995	2.06
316.369	1.84
316.743	2.32
317.117	2.29
317.491	2.28
317.865	1.68
318.239	2.87
318.613	2.65
318.987	1.97
319.361	2.63
319.734	2.84
320.108	2.48
320.482	2.68
320.855	2.64
321.229	2.17
321.602	2.09
321.976	1.65
322.349	2.75
322.723	2.56
323.096	2.31
323.469	2.3
323.843	2
324.216	1.88
324.589	2.48
324.962	2.46
325.335	2.42
325.708	2.44
326.081	2.04
326.454	2.73
326.827	2.52
327.2	2.23
327.573	2.72
327.945	1.99
328.318	1.92
328.691	2.24
329.063	1.95
329.436	2.25
329.809	2.78
330.181	3.07
330.553	2.67
330.926	2.82
331.298	2.16
331.671	2.88
332.043	2.69
332.415	2.47
332.787	2.76
333.159	2.49
333.532	2.64
333.904	2.87
334.276	2.64
334.648	2.81
335.02	2.66
335.391	2.28
335.763	2.23
336.135	2.85
336.507	2.46
336.879	2.32
337.25	2.74
337.622	2.5
337.993	2.01
338.365	2.48
338.736	2.51
339.108	2.24
339.479	2.61
339.851	2.74
340.222	2.89
340.593	2.53
340.964	2.12
341.336	2.18
341.707	2.19
342.078	1.99
342.449	2.29
342.82	2.83
343.191	2.44
343.562	2.78
343.933	2.12
344.303	2.64
344.674	2.78
345.045	2.76
345.416	2.85
345.786	2.7
346.157	2.65
346.527	2.48
346.898	1.99
347.268	2.46
347.639	2.3
348.009	2.65
348.38	2.85
348.75	2.66
349.12	2.51
349.49	2.79
349.861	2.82
350.231	2.54
350.601	2.58
350.971	2.22
351.341	2.59
351.711	2.55
352.081	2.54
352.45	2.12
352.82	2.19
353.19	2.78
353.56	2.17
353.929	2.63
354.299	2.82
354.669	2.8
355.038	2.65
355.408	2.35
355.777	2.86
356.147	2.26
356.516	2.46
356.885	2.57
357.254	2.52
357.624	2.26
357.993	2.64
358.362	3.07
358.731	2.7
359.1	2.79
359.469	2.57
359.838	2.62
360.207	2.64
360.576	2.71
360.945	2.75
361.314	2.48
361.682	2.6
362.051	2.53
362.42	2.71
362.788	2.78
363.157	2.52
363.525	2.7
363.894	2.46
364.262	2.42
364.631	3.02
364.999	2.55
365.367	2.5
365.735	2.37
366.104	2.61
366.472	2.67
366.84	2.7
367.208	2.88
367.576	2.63
367.944	2.65
368.312	2.53
368.68	2.9
369.048	2.85
369.416	2.73
369.783	2.74
370.151	2.88
370.519	2.92
370.886	2.57
371.254	3.03
371.621	2.62
371.989	2.87
372.356	2.72
372.724	2.46
373.091	2.64
373.458	2.54
373.826	2.93
374.193	2.64
374.56	3.09
374.927	2.51
375.294	3
375.661	2.64
376.028	2.61
376.395	2.68
376.762	2.51
377.129	2.55
377.496	2.95
377.863	2.94
378.229	2.95
378.596	3.08
378.963	2.69
379.329	2.74
379.696	2.6
380.062	2.88
380.429	2.26
380.795	2.75
381.161	2.35
381.528	2.38
381.894	2.64
382.26	2.8
382.626	2.72
382.993	3.15
383.359	2.42
383.725	2.52
384.091	2.74
384.457	2.43
384.823	3.02
385.188	2.62
385.554	2.66
385.92	2.74
386.286	2.57
386.651	2.78
387.017	2.76
387.383	2.69
387.748	2.89
388.114	2.71
388.479	2.77
388.845	2.67
389.21	3.23
389.575	3.16
389.94	3
390.306	2.9
390.671	2.55
391.036	2.65
391.401	2.91
391.766	2.79
392.131	2.9
392.496	2.75
392.861	2.83
393.226	2.64
393.591	2.86
393.956	2.78
394.32	2.81
394.685	2.86
395.05	2.72
395.414	2.93
395.779	2.99
396.143	2.79
396.508	2.75
396.872	2.82
397.236	3.21
397.601	3.07
397.965	2.92
398.329	2.97
398.694	2.96
399.058	2.82
399.422	2.77
399.786	2.4
400.15	3.04
400.514	2.83
400.878	2.81
401.242	3.08
401.605	2.91
401.969	2.83
402.333	2.63
402.697	2.88
403.06	3.09
403.424	3
403.787	2.85
404.151	2.92
404.514	2.81
404.878	2.57
405.241	2.86
405.604	2.68
405.968	2.81
406.331	2.89
406.694	2.88
407.057	2.75
407.42	2.82
407.783	2.9
408.146	2.91
408.509	3.14
408.872	2.86
409.235	2.99
409.598	2.96
409.961	2.88
410.323	2.72
410.686	2.83
411.049	2.98
411.411	2.85
411.774	2.79
412.136	2.94
412.499	2.96
412.861	2.55
413.223	2.77
413.586	2.81
413.948	2.89
414.31	3.19
414.672	2.84
415.035	3.16
415.397	2.99
415.759	2.84
416.121	2.96
416.483	3.06
416.845	3.01
417.206	2.82
417.568	2.97
417.93	2.94
418.292	2.76
418.653	2.85
419.015	2.98
419.377	2.81
419.738	2.94
420.1	3.01
420.461	2.87
420.822	3
421.184	2.92
421.545	2.91
421.906	2.91
422.267	2.82
422.629	2.84
422.99	2.88
423.351	2.89
423.712	2.93
424.073	3.02
424.434	2.99
424.795	2.93
425.155	2.77
425.516	2.84
425.877	2.92
426.238	2.8
426.598	2.91
426.959	2.97
427.32	2.86
427.68	2.91
428.041	2.97
428.401	2.88
428.761	3.08
429.122	2.92
429.482	3.01
429.842	2.98
430.202	3.03
430.563	3.04
430.923	3.03
431.283	2.97
431.643	3.05
432.003	2.88
432.363	3.05
432.722	3.05
433.082	2.96
433.442	2.99
433.802	3.03
434.161	3.02
434.521	2.92
434.881	2.97
435.24	3.05
435.6	3.08
435.959	2.98
436.319	3.05
436.678	3.04
437.037	2.97
437.396	2.96
437.756	2.82
438.115	2.89
438.474	3.05
438.833	2.89
439.192	2.99
439.551	3.02
439.91	3
440.269	2.93
440.628	2.97
440.987	2.98
441.345	2.97
441.704	2.95
442.063	2.95
442.421	3.05
442.78	3.04
443.138	2.96
443.497	2.94
443.855	3.06
444.214	2.91
444.572	3.19
444.93	3.03
445.288	3.19
445.647	3.01
446.005	3.04
446.363	3.08
446.721	2.96
447.079	2.92
447.437	2.93
447.795	3.03
448.153	2.91
448.51	3.02
448.868	2.99
449.226	3
449.584	3.01
449.941	3.04
450.299	3.07
450.656	3.12
451.014	3.17
451.371	3.14
451.729	3.22
452.086	3.11
452.443	3.2
452.801	3.09
453.158	3.29
453.515	3.03
453.872	3
454.229	2.91
454.586	2.99
454.943	3.08
455.3	3.11
455.657	3.01
456.014	3.08
456.371	3.26
456.727	3.18
457.084	3.2
457.441	3.13
457.797	3.14
458.154	3.17
458.51	3.01
458.867	3.14
459.223	3.11
459.58	3.16
459.936	3.13
460.292	3.1
460.648	3.04
461.005	2.99
461.361	2.95
461.717	2.97
462.073	3.17
462.429	3.2
462.785	3.3
463.141	3.1
463.496	3.22
463.852	3.32
464.208	3.19
464.564	3.1
464.919	3.28
465.275	3.21
465.631	3.41
465.986	3.26
466.342	3.1
466.697	3.25
467.052	3.36
467.408	3.29
467.763	3.08
468.118	3.07
468.473	3.27
468.829	3.21
469.184	3.33
469.539	3
469.894	3.35
470.249	3.26
470.603	3.46
470.958	3.43
471.313	3.35
471.668	3.27
472.023	3.33
472.377	3.12
472.732	3.38
473.086	3.18
473.441	3.19
473.795	3.39
474.15	3.25
474.504	3.25
474.859	3.13
475.213	3.32
475.567	3.11
475.921	3.22
476.275	3.25
476.63	3.21
476.984	3.07
477.338	3.37
477.692	3.31
478.045	3.22
478.399	3.25
478.753	3.17
479.107	3.28
479.461	3.26
479.814	3.33
480.168	3.28
480.521	3.24
480.875	3.37
481.228	3.3
481.582	3.28
481.935	3.39
482.289	3.31
482.642	3.32
482.995	3.27
483.348	3.13
483.701	3.26
484.055	3.27
484.408	3.2
484.761	3.18
485.114	3.05
485.466	3.07
485.819	3.07
486.172	3.11
486.525	3.19
486.878	3.26
487.23	3.21
487.583	3.26
487.936	3.23
488.288	3.22
488.641	3.19
488.993	3.13
489.345	3.17
489.698	3.17
490.05	3.19
490.402	3.25
490.754	3.22
491.107	3.27
491.459	3.38
491.811	3.4
492.163	3.34
492.515	3.19
492.866	3.24
493.218	3.22
493.57	3.24
493.922	3.31
494.274	3.42
494.625	3.4
494.977	3.38
495.328	3.44
495.68	3.38
496.031	3.43
496.383	3.4
496.734	3.37
497.086	3.53
497.437	3.54
497.788	3.51
498.139	3.4
498.49	3.4
498.842	3.54
499.193	3.33
499.544	3.51
499.894	3.46
500.245	3.54
500.596	3.55
500.947	3.52
501.298	3.54
501.648	3.62
501.999	3.64
502.35	3.38
502.7	3.69
503.051	3.56
503.401	3.62
503.752	3.41
504.102	3.5
504.452	3.37
504.803	3.44
505.153	3.57
505.503	3.58
505.853	3.56
506.203	3.65
506.553	3.53
506.903	3.68
507.253	3.66
507.603	3.55
507.953	3.5
508.303	3.65
508.652	3.48
509.002	3.61
509.352	3.54
509.701	3.47
510.051	3.61
510.4	3.64
510.75	3.55
511.099	3.53
511.449	3.63
511.798	3.59
512.147	3.65
512.496	3.62
512.846	3.62
513.195	3.66
513.544	3.78
513.893	3.6
514.242	3.67
514.591	3.6
514.939	3.7
515.288	3.77
515.637	3.67
515.986	3.71
516.334	3.71
516.683	3.61
517.032	3.73
517.38	3.71
517.729	3.73
518.077	3.71
518.426	3.84
518.774	3.61
519.122	3.79
519.47	3.68
519.819	3.73
520.167	3.65
520.515	3.71
520.863	3.69
521.211	3.72
521.559	3.67
521.907	3.79
522.255	3.71
522.602	3.76
522.95	3.81
523.298	3.84
523.645	3.9
523.993	3.79
524.341	3.82
524.688	3.84
525.036	3.79
525.383	3.86
525.73	3.79
526.078	3.85
526.425	3.8
526.772	3.82
527.119	3.8
527.466	3.87
527.814	3.82
528.161	3.98
528.508	3.92
528.854	3.81
529.201	3.87
529.548	3.8
529.895	3.77
530.242	3.7
530.588	3.76
530.935	3.79
531.282	3.8
531.628	3.86
531.975	3.9
532.321	3.99
532.667	4.02
533.014	4.05
533.36	4.05
533.706	3.97
534.052	4.07
534.399	3.94
534.745	3.92
535.091	3.9
535.437	3.98
535.783	4.03
536.129	4.02
536.474	4.14
536.82	4.18
537.166	4.11
537.512	4.15
537.857	4.11
538.203	4.02
538.549	4.08
538.894	4.15
539.239	4.2
539.585	4.17
539.93	4.19
540.276	4.27
540.621	4.29
540.966	4.28
541.311	4.16
541.656	4.24
542.001	4.19
542.346	4.12
542.691	4.12
543.036	4.14
543.381	4.14
543.726	4.22
544.071	4.19
544.415	4.3
544.76	4.33
545.105	4.22
545.449	4.25
545.794	4.31
546.138	4.33
546.483	4.39
546.827	4.36
547.171	4.4
547.516	4.36
547.86	4.39
548.204	4.46
548.548	4.42
548.892	4.46
549.236	4.42
549.58	4.53
549.924	4.56
550.268	4.65
550.612	4.59
550.956	4.77
551.3	4.72
551.643	4.7
551.987	4.81
552.33	4.83
552.674	4.65
553.017	4.72
553.361	4.69
553.704	4.78
554.048	4.7
554.391	4.75
554.734	4.7
555.077	4.73
555.42	4.66
555.764	4.83
556.107	4.89
556.45	4.77
556.793	4.95
557.135	4.82
557.478	4.86
557.821	4.8
558.164	4.9
558.507	4.86
558.849	5.17
559.192	4.97
559.534	4.91
559.877	4.94
560.219	4.94
560.562	4.77
560.904	5.13
561.246	5.05
561.589	5.19
561.931	5.25
562.273	5.13
562.615	5.06
562.957	5.1
563.299	5.11
563.641	5.13
563.983	5.04
564.325	5.06
564.667	5.11
565.008	5.21
565.35	5.1
565.692	5.19
566.033	5.26
566.375	5.3
566.716	5.16
567.058	5.28
567.399	5.3
567.741	5.32
568.082	5.3
568.423	5.23
568.764	5.41
569.105	5.44
569.447	5.21
569.788	5.46
570.129	5.43
570.47	5.42
570.811	5.42
571.151	5.43
571.492	5.46
571.833	5.45
572.174	5.58
572.514	5.51
572.855	5.63
573.195	5.48
573.536	5.73
573.876	5.42
574.217	5.44
574.557	5.55
574.898	5.56
575.238	5.74
575.578	5.78
575.918	5.72
576.258	5.82
576.598	5.61
576.938	5.64
577.278	5.75
577.618	5.91
577.958	5.83
578.298	5.92
578.638	5.8
578.977	5.98
579.317	5.97
579.657	5.93
579.996	6.18
580.336	5.95
580.675	6.04
581.014	6.27
581.354	5.94
581.693	6.16
582.032	6.26
582.372	6.31
582.711	6.19
583.05	6.11
583.389	6.26
583.728	6.28
584.067	6.23
584.406	6.44
584.745	6.04
585.083	6.16
585.422	6.53
585.761	6.44
586.1	6.54
586.438	6.35
586.777	6.46
587.115	6.39
587.454	6.44
587.792	6.6
588.13	6.43
588.469	6.36
588.807	6.64
589.145	6.57
589.483	6.46
589.821	6.8
590.159	6.68
590.497	6.6
590.835	6.74
591.173	6.68
591.511	6.81
591.849	6.9
592.187	6.57
592.524	6.69
592.862	6.65
593.2	6.7
593.537	6.73
593.875	6.9
594.212	6.87
594.55	7.08
594.887	6.98
595.224	6.99
595.561	7.01
595.899	6.94
596.236	7.13
596.573	6.89
596.91	7.04
597.247	7.03
597.584	7.19
597.921	7.18
598.258	7.29
598.594	6.99
598.931	6.89
599.268	7.04
599.604	7.18
599.941	7.34
600.277	7.31
600.614	7.42
600.95	7.36
601.287	7.22
601.623	7.23
601.959	7.81
602.296	7.56
602.632	7.55
602.968	7.37
603.304	7.62
603.64	7.62
603.976	7.41
604.312	7.5
604.648	7.7
604.984	7.66
605.319	7.55
605.655	7.78
605.991	7.58
606.326	7.61
606.662	7.48
606.998	7.72
607.333	7.78
607.668	7.75
608.004	7.87
608.339	7.82
608.674	7.89
609.01	8.24
609.345	7.84
609.68	7.81
610.015	8.02
610.35	8.13
610.685	7.75
611.02	7.65
611.355	7.91
611.689	8.01
612.024	8.24
612.359	8.17
612.694	8.33
613.028	7.88
613.363	8.14
613.697	8.14
614.032	7.89
614.366	8.4
614.7	8.53
615.035	8.33
615.369	8.34
615.703	8.57
616.037	8.28
616.371	8.31
616.705	8.37
617.039	8.57
617.373	8.63
617.707	8.28
618.041	8.5
618.375	8.12
618.709	8.48
619.042	8.38
619.376	8.64
619.71	8.68
620.043	9.04
620.377	8.73
620.71	8.65
621.043	8.74
621.377	9.26
621.71	9.11
622.043	9.18
622.376	8.94
622.709	9.02
623.043	8.78
623.376	8.76
623.709	9.18
624.041	9.15
624.374	9
624.707	9.4
625.04	9.2
625.373	9.13
625.705	9.48
626.038	9.33
626.37	9.23
626.703	9.7
627.035	9.31
627.368	9.58
627.7	9.36
628.032	9.41
628.365	9.6
628.697	9.63
629.029	9.68
629.361	9.6
629.693	9.34
630.025	9.62
630.357	9.67
630.689	9.64
631.021	10.22
631.353	9.74
631.684	9.96
632.016	9.45
632.348	9.7
632.679	10.18
633.011	9.64
633.342	9.87
633.674	9.89
634.005	9.68
634.336	10.42
634.668	9.95
634.999	9.59
635.33	10.09
635.661	10.02
635.992	9.87
636.323	9.94
636.654	10.05
636.985	9.92
637.316	10.03
637.647	10.41
637.977	10.25
638.308	10.84
638.639	10.3
638.969	10.28
639.3	10.77
639.63	10.33
639.961	10.27
640.291	10.53
640.622	10.69
640.952	10.85
641.282	10.16
641.612	10.52
641.943	10.47
642.273	10.78
642.603	10.98
642.933	10.71
643.263	10.94
643.592	10.92
643.922	10.83
644.252	10.54
644.582	11.13
644.911	10.95
645.241	10.85
645.571	10.95
645.9	11.12
646.23	11.08
646.559	10.8
646.888	11.35
647.218	11.03
647.547	11.01
647.876	11.18
648.205	10.94
648.534	10.86
648.863	11.09
649.192	11.33
649.521	11.43
649.85	11.47
650.179	11.14
650.508	11.21
650.837	11.84
651.165	11.81
651.494	11.36
651.822	11.54
652.151	11.35
652.479	11.37
652.808	11.86
653.136	11.07
653.465	11.28
653.793	11.5
654.121	11.51
654.449	11.3
654.777	11.12
655.105	11.63
655.433	12.14
655.761	11.45
656.089	11.53
656.417	12.36
656.745	12.27
657.073	11.62
657.4	11.82
657.728	11.07
658.056	11.61
658.383	11.79
658.711	11.67
659.038	12.2
659.365	12.18
659.693	12.07
660.02	12.19
660.347	12.02
660.674	12.06
661.001	12.16
661.329	12.43
661.656	12.16
661.982	11.92
662.309	12.4
662.636	12.37
662.963	12.3
663.29	12.77
663.616	12.41
663.943	12.54
664.27	12.83
664.596	12.34
664.923	13.09
665.249	12.97
665.576	12.69
665.902	12.52
666.228	13.31
666.554	13.79
666.881	12.49
667.207	12.73
667.533	13.1
667.859	12.73
668.185	12.49
668.511	13.31
668.837	13.06
669.162	13.17
669.488	12.74
669.814	12.69
670.139	12.71
670.465	12.95
670.791	12.72
671.116	12.72
671.442	12.43
671.767	13.42
672.092	12.95
672.418	13.59
672.743	13.2
673.068	13.21
673.393	13.74
673.718	13.28
674.043	12.59
674.368	13.58
674.693	13.46
675.018	14.04
675.343	13.78
675.667	13.55
675.992	13.58
676.317	13.42
676.641	13.28
676.966	14.4
677.29	13.46
677.615	13.13
677.939	13.8
678.264	13.58
678.588	13.99
678.912	13.29
679.236	13.56
679.56	13.39
679.885	13.36
680.209	14.3
680.532	14.15
680.856	14.39
681.18	14.84
681.504	14.29
681.828	13.67
682.152	14.03
682.475	14.34
682.799	13.73
683.122	14.17
683.446	13.79
683.769	14.4
684.093	13.97
684.416	14.03
684.739	14.33
685.062	14.52
685.386	14.46
685.709	14.57
686.032	14.57
686.355	14.49
686.678	14.63
687.001	13.72
687.324	14.84
687.646	14.62
687.969	14.92
