Data from 0001_crown_Reflection__1__247.txt Node

Date: Thu Dec 15 18:43:36 CST 2022
User: ToomeyLab
Spectrometer: FLMS14357
Trigger mode: 0
Integration Time (sec): 1.000000E-2
Scans to average: 100
Electric dark correction enabled: true
Nonlinearity correction enabled: false
Boxcar width: 0
XAxis mode: Wavelengths
Number of Pixels in Spectrum: 2048
>>>>>Begin Spectral Data<<<<<
189.047	139.65
189.435	139.65
189.823	139.65
190.211	-33.95
190.599	86.84
190.987	-3001.97
191.375	47.42
191.763	76.1
192.151	16.35
192.538	-48.38
192.926	337.61
193.314	35.08
193.702	222.64
194.089	80.15
194.477	394.59
194.864	114.78
195.252	-408.02
195.639	50.68
196.027	451.5
196.414	-316.58
196.801	32.04
197.189	239.66
197.576	222.18
197.963	-20412.5
198.351	-11.88
198.738	-38.3
199.125	-26.64
199.512	-0.68
199.899	-90.06
200.286	-60.23
200.673	8.53
201.06	-35.71
201.447	-40.13
201.833	-12.94
202.22	11.36
202.607	-15.98
202.994	-35.21
203.38	2.72
203.767	15.67
204.154	43.31
204.54	-30.34
204.927	10.39
205.313	17.57
205.699	10.98
206.086	5.8
206.472	-2.04
206.858	-9.49
207.245	18.06
207.631	3.92
208.017	40.13
208.403	-55.07
208.789	11.42
209.175	4.61
209.561	-91.49
209.947	-11.47
210.333	-37.88
210.719	2.5
211.105	32.67
211.491	17.12
211.876	-44.49
212.262	-15.14
212.648	18.91
213.034	13.33
213.419	-19.67
213.805	-45.13
214.19	-8.94
214.576	-46.43
214.961	-4.97
215.346	-6.16
215.732	7.31
216.117	24.93
216.502	-23.02
216.888	-8.57
217.273	-6.51
217.658	-19.58
218.043	6.66
218.428	-39.47
218.813	3.57
219.198	-33.45
219.583	15.18
219.968	-3.95
220.353	-63.29
220.738	0.82
221.122	-2.41
221.507	-19.88
221.892	-32.75
222.276	-61.52
222.661	-15.15
223.046	-13.08
223.43	12.85
223.815	5.84
224.199	1.29
224.583	-3.17
224.968	-5.23
225.352	-4.03
225.736	12.24
226.121	-0.46
226.505	-2.13
226.889	-0.14
227.273	2.9
227.657	4.31
228.041	5.77
228.425	3.59
228.809	5.3
229.193	3.76
229.577	7.1
229.961	7.3
230.344	7.26
230.728	8.21
231.112	7.64
231.495	6.05
231.879	6.87
232.263	8.1
232.646	5.18
233.03	7.86
233.413	6.1
233.797	1.9
234.18	2.84
234.563	7.32
234.946	5.83
235.33	7.16
235.713	6.06
236.096	6.37
236.479	6.57
236.862	5.08
237.245	5.72
237.628	5.53
238.011	5.03
238.394	5.39
238.777	6.14
239.16	8.47
239.543	7.15
239.925	5.46
240.308	5.88
240.691	5.96
241.073	5.22
241.456	7.25
241.838	6.99
242.221	6.38
242.603	7.27
242.986	6.91
243.368	7.04
243.75	6.83
244.133	7.15
244.515	6.5
244.897	6.68
245.279	6.11
245.661	6.34
246.043	5.98
246.425	6.44
246.807	6.32
247.189	5.84
247.571	6.36
247.953	6.4
248.335	6.16
248.717	6.37
249.098	6.42
249.48	6.32
249.862	6.48
250.243	6.33
250.625	6.1
251.006	7.19
251.388	5.79
251.769	5.35
252.151	5.67
252.532	6.59
252.913	6.21
253.295	6.02
253.676	6.41
254.057	6.15
254.438	5.83
254.819	5.74
255.2	6.17
255.581	6.97
255.962	5.73
256.343	6.98
256.724	6.78
257.105	5.52
257.486	4.51
257.867	5.96
258.247	5.56
258.628	6.06
259.009	5.75
259.389	5.25
259.77	5.39
260.15	6.38
260.531	5.97
260.911	5.68
261.292	5.8
261.672	5.69
262.052	5.93
262.432	5.63
262.813	5.93
263.193	5.77
263.573	5.72
263.953	5.05
264.333	5.94
264.713	6.01
265.093	5.44
265.473	5.16
265.853	4.72
266.233	4.98
266.612	5.1
266.992	5.72
267.372	6.2
267.752	5.71
268.131	5.17
268.511	5.03
268.89	5.81
269.27	5.1
269.649	4.83
270.029	5.12
270.408	4.91
270.787	5.51
271.167	5.31
271.546	6.43
271.925	5.76
272.304	5.48
272.683	5.35
273.062	5.24
273.441	5.38
273.82	5.34
274.199	5.35
274.578	5.33
274.957	5.29
275.336	5.2
275.715	5.45
276.093	4.81
276.472	4.83
276.851	4.96
277.229	4.84
277.608	4.37
277.986	5.61
278.365	5.36
278.743	4.93
279.122	4.53
279.5	5.78
279.878	4.87
280.257	4.38
280.635	5.15
281.013	4.89
281.391	4.91
281.769	5.22
282.147	5.29
282.525	4.65
282.903	4.78
283.281	5.19
283.659	5.13
284.037	5.12
284.415	4.78
284.792	4.89
285.17	4.97
285.548	5.02
285.925	5
286.303	5.26
286.68	5.2
287.058	4.71
287.435	4.69
287.813	4.97
288.19	4.85
288.567	4.76
288.945	4.64
289.322	4.91
289.699	4.66
290.076	4.78
290.453	4.8
290.83	4.78
291.207	4.5
291.584	5.15
291.961	4.66
292.338	4.42
292.715	4.51
293.092	4.95
293.469	4.47
293.845	4.7
294.222	4.91
294.599	4.19
294.975	3.81
295.352	4.68
295.728	4.47
296.105	4.48
296.481	4.45
296.858	4.62
297.234	4.46
297.61	4.31
297.986	4.94
298.363	4.66
298.739	4.73
299.115	4.69
299.491	4.79
299.867	4.51
300.243	4.43
300.619	4.09
300.995	4.72
301.371	5.11
301.746	4.6
302.122	4.12
302.498	4.68
302.874	4.89
303.249	4.76
303.625	4.32
304	5.08
304.376	5.02
304.751	4.62
305.127	4.33
305.502	4.44
305.878	4.59
306.253	4.31
306.628	4.17
307.003	4.36
307.378	4.3
307.754	4.77
308.129	4.28
308.504	4.7
308.879	4.19
309.254	5.02
309.629	4.25
310.003	4.37
310.378	4.91
310.753	4.4
311.128	4.17
311.502	4.39
311.877	4.44
312.252	4.29
312.626	4.89
313.001	4.5
313.375	4.51
313.75	4.59
314.124	4.72
314.498	4.4
314.873	4.25
315.247	4.27
315.621	4.38
315.995	4.25
316.369	4.35
316.743	4.27
317.117	3.91
317.491	4.84
317.865	4.27
318.239	4.9
318.613	4.13
318.987	4.02
319.361	4.65
319.734	4.29
320.108	4.7
320.482	4.71
320.855	4.36
321.229	4.1
321.602	4.27
321.976	3.65
322.349	5.24
322.723	4.47
323.096	4.26
323.469	3.97
323.843	4.49
324.216	4.69
324.589	4.79
324.962	4.28
325.335	4.26
325.708	4.42
326.081	4.94
326.454	4.84
326.827	4.7
327.2	4.13
327.573	4.73
327.945	4.59
328.318	4.44
328.691	4.55
329.063	4.33
329.436	4.39
329.809	4.46
330.181	5.01
330.553	5
330.926	5.23
331.298	4.81
331.671	4.63
332.043	4.47
332.415	4.75
332.787	4.81
333.159	4.18
333.532	4.75
333.904	4.59
334.276	4.43
334.648	4.49
335.02	4.22
335.391	4.66
335.763	4.85
336.135	4.87
336.507	4.68
336.879	5.03
337.25	4.67
337.622	4.53
337.993	4.52
338.365	4.46
338.736	5.04
339.108	4.63
339.479	4.07
339.851	4.85
340.222	5.1
340.593	4.49
340.964	4.93
341.336	4.28
341.707	4.84
342.078	4.39
342.449	4.78
342.82	4.69
343.191	4.86
343.562	4.62
343.933	4.48
344.303	5
344.674	4.92
345.045	4.74
345.416	4.94
345.786	4.95
346.157	4.85
346.527	4.94
346.898	4.53
347.268	5.08
347.639	4.8
348.009	5.33
348.38	4.95
348.75	5.41
349.12	5.04
349.49	4.82
349.861	5.19
350.231	5
350.601	4.75
350.971	4.85
351.341	4.84
351.711	4.96
352.081	4.63
352.45	4.57
352.82	4.95
353.19	4.6
353.56	5.08
353.929	5.09
354.299	5.14
354.669	5.43
355.038	4.9
355.408	4.87
355.777	5.28
356.147	5.27
356.516	4.68
356.885	5.02
357.254	5.07
357.624	4.77
357.993	4.94
358.362	5.32
358.731	5.25
359.1	5.26
359.469	5.43
359.838	5.19
360.207	5.25
360.576	5.4
360.945	5.47
361.314	5.08
361.682	5.1
362.051	5.16
362.42	5.24
362.788	5.1
363.157	4.98
363.525	5.3
363.894	5.11
364.262	5.37
364.631	5.46
364.999	5.23
365.367	5.16
365.735	4.85
366.104	5.08
366.472	5.17
366.84	5.43
367.208	5.52
367.576	5.05
367.944	5.21
368.312	5.26
368.68	5.61
369.048	5.44
369.416	5.16
369.783	5.37
370.151	5.53
370.519	5.34
370.886	5.34
371.254	5.69
371.621	5.58
371.989	5.46
372.356	5.38
372.724	5.34
373.091	5
373.458	5.23
373.826	5.51
374.193	5.5
374.56	5.44
374.927	5.09
375.294	5.52
375.661	5.54
376.028	5.26
376.395	5.78
376.762	5.2
377.129	5.38
377.496	5.52
377.863	5.43
378.229	5.64
378.596	5.6
378.963	5.49
379.329	5.51
379.696	5.51
380.062	5.69
380.429	5.22
380.795	5.53
381.161	5.06
381.528	5.16
381.894	5.32
382.26	5.48
382.626	5.41
382.993	5.9
383.359	5.74
383.725	5.28
384.091	5.59
384.457	5.41
384.823	5.45
385.188	5.38
385.554	5.6
385.92	5.38
386.286	5.65
386.651	5.52
387.017	5.85
387.383	5.7
387.748	5.84
388.114	5.72
388.479	5.74
388.845	5.55
389.21	5.74
389.575	5.81
389.94	5.64
390.306	5.67
390.671	5.58
391.036	5.71
391.401	5.56
391.766	5.5
392.131	5.84
392.496	5.68
392.861	5.81
393.226	5.76
393.591	5.62
393.956	5.82
394.32	5.79
394.685	5.67
395.05	5.69
395.414	5.76
395.779	6
396.143	5.65
396.508	5.5
396.872	5.84
397.236	5.96
397.601	6.01
397.965	5.83
398.329	5.94
398.694	5.61
399.058	5.79
399.422	5.79
399.786	5.64
400.15	5.8
400.514	5.83
400.878	5.78
401.242	5.79
401.605	5.78
401.969	5.72
402.333	5.67
402.697	6.08
403.06	5.53
403.424	5.7
403.787	5.83
404.151	5.76
404.514	5.73
404.878	5.77
405.241	5.76
405.604	5.61
405.968	5.8
406.331	5.67
406.694	5.83
407.057	5.86
407.42	5.53
407.783	5.88
408.146	5.77
408.509	5.84
408.872	5.71
409.235	5.72
409.598	5.73
409.961	5.86
410.323	5.81
410.686	5.73
411.049	6.04
411.411	5.81
411.774	5.94
412.136	5.88
412.499	6.01
412.861	5.63
413.223	5.97
413.586	6.16
413.948	6.02
414.31	5.95
414.672	5.76
415.035	5.84
415.397	5.84
415.759	5.59
416.121	6
416.483	5.85
416.845	5.82
417.206	5.6
417.568	5.73
417.93	5.88
418.292	5.57
418.653	5.67
419.015	5.8
419.377	5.7
419.738	5.8
420.1	5.79
420.461	5.72
420.822	5.86
421.184	5.65
421.545	5.84
421.906	5.82
422.267	5.73
422.629	5.69
422.99	5.69
423.351	5.73
423.712	5.79
424.073	5.85
424.434	5.89
424.795	5.69
425.155	5.69
425.516	5.72
425.877	5.78
426.238	5.68
426.598	5.69
426.959	5.79
427.32	5.8
427.68	5.7
428.041	5.85
428.401	5.7
428.761	5.81
429.122	5.8
429.482	5.96
429.842	5.76
430.202	5.89
430.563	5.75
430.923	5.84
431.283	5.98
431.643	6.03
432.003	5.93
432.363	6.11
432.722	5.92
433.082	5.83
433.442	5.91
433.802	5.87
434.161	5.88
434.521	5.78
434.881	5.82
435.24	5.78
435.6	5.84
435.959	5.9
436.319	5.81
436.678	5.91
437.037	5.86
437.396	5.97
437.756	5.96
438.115	5.7
438.474	6.01
438.833	5.77
439.192	5.88
439.551	5.86
439.91	5.83
440.269	5.88
440.628	5.74
440.987	5.84
441.345	5.92
441.704	5.79
442.063	5.84
442.421	5.82
442.78	5.94
443.138	5.79
443.497	5.74
443.855	5.93
444.214	5.93
444.572	5.99
444.93	5.91
445.288	5.92
445.647	5.72
446.005	5.77
446.363	5.74
446.721	5.87
447.079	5.63
447.437	5.81
447.795	5.75
448.153	5.79
448.51	5.76
448.868	5.7
449.226	5.7
449.584	5.65
449.941	5.77
450.299	5.77
450.656	5.91
451.014	5.9
451.371	5.86
451.729	5.86
452.086	5.92
452.443	5.88
452.801	5.89
453.158	6.03
453.515	5.98
453.872	5.79
454.229	5.67
454.586	5.66
454.943	5.81
455.3	5.77
455.657	5.89
456.014	5.83
456.371	5.85
456.727	5.87
457.084	6.04
457.441	5.87
457.797	5.88
458.154	5.72
458.51	5.95
458.867	6
459.223	5.85
459.58	5.78
459.936	5.79
460.292	5.81
460.648	5.7
461.005	5.78
461.361	5.67
461.717	5.61
462.073	5.78
462.429	5.88
462.785	5.93
463.141	5.76
463.496	5.93
463.852	5.89
464.208	5.82
464.564	5.9
464.919	5.89
465.275	5.87
465.631	6.03
465.986	5.9
466.342	5.78
466.697	5.84
467.052	5.82
467.408	5.9
467.763	5.82
468.118	5.78
468.473	5.78
468.829	5.76
469.184	5.8
469.539	5.82
469.894	5.92
470.249	5.92
470.603	6.03
470.958	5.93
471.313	5.72
471.668	5.94
472.023	5.93
472.377	5.82
472.732	6.01
473.086	5.96
473.441	5.76
473.795	6.04
474.15	5.81
474.504	5.92
474.859	5.74
475.213	5.88
475.567	5.67
475.921	5.72
476.275	5.81
476.63	6.03
476.984	5.84
477.338	5.93
477.692	5.84
478.045	5.69
478.399	5.72
478.753	5.82
479.107	5.95
479.461	5.83
479.814	5.75
480.168	5.82
480.521	5.92
480.875	5.91
481.228	5.75
481.582	5.78
481.935	5.95
482.289	5.83
482.642	5.77
482.995	5.63
483.348	5.66
483.701	5.73
484.055	5.65
484.408	5.63
484.761	5.51
485.114	5.36
485.466	5.32
485.819	5.36
486.172	5.46
486.525	5.51
486.878	5.62
487.23	5.59
487.583	5.64
487.936	5.59
488.288	5.6
488.641	5.52
488.993	5.38
489.345	5.45
489.698	5.44
490.05	5.48
490.402	5.51
490.754	5.56
491.107	5.65
491.459	5.72
491.811	5.66
492.163	5.71
492.515	5.52
492.866	5.4
493.218	5.35
493.57	5.45
493.922	5.52
494.274	5.69
494.625	5.66
494.977	5.69
495.328	5.69
495.68	5.62
496.031	5.75
496.383	5.6
496.734	5.66
497.086	5.7
497.437	5.74
497.788	5.75
498.139	5.66
498.49	5.73
498.842	5.73
499.193	5.63
499.544	5.62
499.894	5.64
500.245	5.69
500.596	5.74
500.947	5.69
501.298	5.73
501.648	5.72
501.999	5.71
502.35	5.65
502.7	5.82
503.051	5.7
503.401	5.82
503.752	5.66
504.102	5.68
504.452	5.63
504.803	5.63
505.153	5.8
505.503	5.58
505.853	5.72
506.203	5.73
506.553	5.63
506.903	5.7
507.253	5.74
507.603	5.69
507.953	5.7
508.303	5.74
508.652	5.48
509.002	5.7
509.352	5.61
509.701	5.58
510.051	5.64
510.4	5.61
510.75	5.56
511.099	5.49
511.449	5.6
511.798	5.59
512.147	5.63
512.496	5.68
512.846	5.61
513.195	5.54
513.544	5.71
513.893	5.49
514.242	5.67
514.591	5.55
514.939	5.74
515.288	5.61
515.637	5.71
515.986	5.7
516.334	5.71
516.683	5.61
517.032	5.56
517.38	5.51
517.729	5.6
518.077	5.61
518.426	5.61
518.774	5.54
519.122	5.57
519.47	5.43
519.819	5.51
520.167	5.41
520.515	5.5
520.863	5.5
521.211	5.5
521.559	5.54
521.907	5.47
522.255	5.56
522.602	5.65
522.95	5.62
523.298	5.66
523.645	5.51
523.993	5.61
524.341	5.53
524.688	5.52
525.036	5.52
525.383	5.71
525.73	5.45
526.078	5.6
526.425	5.48
526.772	5.43
527.119	5.45
527.466	5.49
527.814	5.45
528.161	5.54
528.508	5.51
528.854	5.46
529.201	5.36
529.548	5.27
529.895	5.24
530.242	5.16
530.588	5.19
530.935	5.29
531.282	5.32
531.628	5.39
531.975	5.41
532.321	5.38
532.667	5.46
533.014	5.49
533.36	5.47
533.706	5.45
534.052	5.43
534.399	5.4
534.745	5.26
535.091	5.25
535.437	5.37
535.783	5.34
536.129	5.45
536.474	5.53
536.82	5.54
537.166	5.43
537.512	5.39
537.857	5.43
538.203	5.29
538.549	5.22
538.894	5.39
539.239	5.56
539.585	5.52
539.93	5.51
540.276	5.45
540.621	5.61
540.966	5.45
541.311	5.49
541.656	5.44
542.001	5.37
542.346	5.28
542.691	5.19
543.036	5.2
543.381	5.26
543.726	5.37
544.071	5.3
544.415	5.37
544.76	5.34
545.105	5.33
545.449	5.43
545.794	5.36
546.138	5.34
546.483	5.45
546.827	5.42
547.171	5.43
547.516	5.39
547.86	5.36
548.204	5.41
548.548	5.41
548.892	5.47
549.236	5.2
549.58	5.41
549.924	5.52
550.268	5.52
550.612	5.55
550.956	5.43
551.3	5.6
551.643	5.55
551.987	5.65
552.33	5.65
552.674	5.46
553.017	5.45
553.361	5.39
553.704	5.4
554.048	5.32
554.391	5.42
554.734	5.33
555.077	5.34
555.42	5.48
555.764	5.45
556.107	5.68
556.45	5.47
556.793	5.5
557.135	5.47
557.478	5.48
557.821	5.52
558.164	5.67
558.507	5.38
558.849	5.47
559.192	5.35
559.534	5.33
559.877	5.35
560.219	5.48
560.562	5.35
560.904	5.66
561.246	5.39
561.589	5.55
561.931	5.37
562.273	5.43
562.615	5.22
562.957	5.25
563.299	5.41
563.641	5.42
563.983	5.18
564.325	5.32
564.667	5.4
565.008	5.35
565.35	5.36
565.692	5.32
566.033	5.33
566.375	5.33
566.716	5.19
567.058	5.27
567.399	5.33
567.741	5.25
568.082	5.23
568.423	5.18
568.764	5.34
569.105	5.42
569.447	5.25
569.788	5.4
570.129	5.25
570.47	5.38
570.811	5.34
571.151	5.4
571.492	5.31
571.833	5.28
572.174	5.38
572.514	5.32
572.855	5.33
573.195	5.18
573.536	5.36
573.876	5.12
574.217	5.13
574.557	5.17
574.898	5.24
575.238	5.23
575.578	5.27
575.918	5.17
576.258	5.42
576.598	5.15
576.938	5.09
577.278	5.28
577.618	5.42
577.958	5.18
578.298	5.19
578.638	5.25
578.977	5.27
579.317	5.24
579.657	5.25
579.996	5.33
580.336	5.06
580.675	5.37
581.014	5.51
581.354	5.1
581.693	5.54
582.032	5.41
582.372	5.36
582.711	5.22
583.05	5.31
583.389	5.39
583.728	5.47
584.067	5.1
584.406	5.33
584.745	5.05
585.083	5.29
585.422	5.49
585.761	5.22
586.1	5.36
586.438	5.43
586.777	5.43
587.115	5.17
587.454	5.09
587.792	5.27
588.13	5.13
588.469	5.44
588.807	5.37
589.145	5.23
589.483	5.02
589.821	5.16
590.159	5.27
590.497	5.16
590.835	5.43
591.173	5.19
591.511	5.18
591.849	5.2
592.187	5
592.524	5.2
592.862	4.94
593.2	5.2
593.537	5.04
593.875	5.13
594.212	5.25
594.55	5.09
594.887	5.08
595.224	5.18
595.561	5.23
595.899	5.15
596.236	5.5
596.573	5
596.91	4.81
597.247	5.41
597.584	5.24
597.921	5.24
598.258	5.17
598.594	4.93
598.931	4.88
599.268	4.95
599.604	5.13
599.941	5.07
600.277	5.26
600.614	5.08
600.95	4.9
601.287	4.78
601.623	4.82
601.959	5.24
602.296	5.17
602.632	5.09
602.968	5.19
603.304	4.92
603.64	4.98
603.976	5.14
604.312	5.01
604.648	5.08
604.984	5.18
605.319	4.95
605.655	4.94
605.991	4.88
606.326	5.04
606.662	4.99
606.998	5.04
607.333	4.94
607.668	5
608.004	4.88
608.339	4.95
608.674	5.22
609.01	5.34
609.345	5.11
609.68	4.9
610.015	4.99
610.35	4.99
610.685	4.68
611.02	4.77
611.355	4.82
611.689	5.02
612.024	4.97
612.359	5.11
612.694	5.25
613.028	4.83
613.363	4.94
613.697	5.11
614.032	5.01
614.366	5.12
614.7	4.96
615.035	4.72
615.369	5.12
615.703	5.11
616.037	4.99
616.371	5.04
616.705	4.9
617.039	5.05
617.373	5.26
617.707	4.97
618.041	4.82
618.375	4.44
618.709	5.17
619.042	5.22
619.376	4.92
619.71	4.79
620.043	5.16
620.377	5.12
620.71	5.04
621.043	5.22
621.377	4.88
621.71	5.1
622.043	5.04
622.376	5.09
622.709	5.2
623.043	4.69
623.376	4.86
623.709	5.04
624.041	4.85
624.374	5.09
624.707	4.74
625.04	4.72
625.373	5.2
625.705	5.11
626.038	4.83
626.37	4.7
626.703	4.97
627.035	4.96
627.368	5.11
627.7	5.02
628.032	4.98
628.365	5.11
628.697	5.2
629.029	4.76
629.361	5.01
629.693	4.94
630.025	5.03
630.357	5.09
630.689	5.15
631.021	4.84
631.353	5.1
631.684	4.89
632.016	4.64
632.348	4.67
632.679	4.78
633.011	4.99
633.342	4.84
633.674	4.7
634.005	4.82
634.336	5.51
634.668	4.63
634.999	4.85
635.33	5.3
635.661	4.74
635.992	4.83
636.323	4.8
636.654	4.76
636.985	4.69
637.316	4.74
637.647	4.85
637.977	5.25
638.308	5.14
638.639	4.94
638.969	4.91
639.3	5.16
639.63	4.78
639.961	5.11
640.291	4.55
640.622	4.96
640.952	5.16
641.282	4.84
641.612	5.01
641.943	4.27
642.273	4.89
642.603	5.43
642.933	5.29
643.263	5.26
643.592	4.88
643.922	5.55
644.252	5.04
644.582	5.08
644.911	5.09
645.241	4.94
645.571	4.71
645.9	5.31
646.23	4.84
646.559	4.63
646.888	5.17
647.218	5.45
647.547	4.91
647.876	5.01
648.205	4.88
648.534	4.93
648.863	4.7
649.192	4.88
649.521	4.68
649.85	5.12
650.179	5.04
650.508	4.39
650.837	4.83
651.165	5.02
651.494	4.97
651.822	4.65
652.151	4.69
652.479	4.73
652.808	4.87
653.136	4.32
653.465	4.91
653.793	4.75
654.121	4.8
654.449	4.84
654.777	4.9
655.105	4.42
655.433	4.91
655.761	4.84
656.089	5.17
656.417	5.25
656.745	5.12
657.073	4.88
657.4	4.47
657.728	4.35
658.056	4.47
658.383	4.92
658.711	4.94
659.038	5.07
659.365	5.01
659.693	4.66
660.02	4.63
660.347	4.61
660.674	4.69
661.001	4.59
661.329	4.6
661.656	4.53
661.982	4.85
662.309	4.48
662.636	4.96
662.963	4.73
663.29	5.26
663.616	4.93
663.943	4.74
664.27	4.74
664.596	4.78
664.923	4.98
665.249	5.14
665.576	4.81
665.902	4.18
666.228	5.1
666.554	5.07
666.881	4.67
667.207	4.9
667.533	4.86
667.859	4.69
668.185	4.96
668.511	5.27
668.837	4.55
669.162	5.33
669.488	4.36
669.814	4.66
670.139	4.17
670.465	4.77
670.791	4.29
671.116	5.08
671.442	4.49
671.767	4.42
672.092	5
672.418	4.53
672.743	4.61
673.068	4.86
673.393	4.51
673.718	4.53
674.043	5.02
674.368	4.57
674.693	4.95
675.018	5.24
675.343	5.33
675.667	4.45
675.992	5.37
676.317	4.73
676.641	5.45
676.966	5.11
677.29	4.69
677.615	4.72
677.939	5.13
678.264	4.66
678.588	4.8
678.912	4.55
679.236	5.17
679.56	4.47
679.885	4.79
680.209	4.82
680.532	5.35
680.856	5.07
681.18	5.17
681.504	4.9
681.828	4.54
682.152	4.93
682.475	4.81
682.799	4.66
683.122	4.73
683.446	4.23
683.769	5.23
684.093	4.92
684.416	4.54
684.739	4.6
685.062	5.1
685.386	4.89
685.709	4.99
686.032	4.77
686.355	5.25
686.678	5.52
687.001	5.19
687.324	4.83
687.646	5.66
687.969	5.01
688.292	4.37
688.614	5.05
688.937	4.96
689.26	5.31
689.582	4.61
689.904	5.03
690.227	5.49
690.549	5.14
690.871	4.71
691.194	4.85
691.516	5.02
691.838	5.42
692.16	4.19
