Data from 0001_forehead_Reflection__2__253.txt Node

Date: Thu Dec 15 18:44:46 CST 2022
User: ToomeyLab
Spectrometer: FLMS14357
Trigger mode: 0
Integration Time (sec): 1.000000E-2
Scans to average: 100
Electric dark correction enabled: true
Nonlinearity correction enabled: false
Boxcar width: 0
XAxis mode: Wavelengths
Number of Pixels in Spectrum: 2048
>>>>>Begin Spectral Data<<<<<
189.047	-133.67
189.435	-133.67
189.823	-133.67
190.211	95.01
190.599	96.8
190.987	1190.13
191.375	27.71
191.763	137.96
192.151	-62.98
192.538	343.04
192.926	-155.5
193.314	14.82
193.702	-724.46
194.089	918.38
194.477	272.25
194.864	273.59
195.252	-649.74
195.639	56.66
196.027	327.9
196.414	2.93
196.801	51.44
197.189	293.78
197.576	101.43
197.963	-5862.5
198.351	-10.2
198.738	55.98
199.125	-25.28
199.512	35.67
199.899	37.25
200.286	-29.46
200.673	53.09
201.06	7.97
201.447	59.13
201.833	37.81
202.22	-2
202.607	-8.4
202.994	38.92
203.38	15.75
203.767	36.76
204.154	61.33
204.54	-19.58
204.927	84.24
205.313	5.8
205.699	29.63
206.086	48.9
206.472	23.03
206.858	18.34
207.245	22.39
207.631	-4.5
208.017	50.34
208.403	-31.05
208.789	4.43
209.175	44.71
209.561	-19.58
209.947	69.42
210.333	-28.63
210.719	41.73
211.105	47.72
211.491	-9.32
211.876	25.07
212.262	21.94
212.648	19.33
213.034	-12.13
213.419	17.02
213.805	20.13
214.19	-35.93
214.576	-12.26
214.961	29.25
215.346	-3.13
215.732	29.63
216.117	24.38
216.502	12.12
216.888	33.14
217.273	4.1
217.658	16.18
218.043	10.19
218.428	-11.66
218.813	10.91
219.198	-37.66
219.583	4.22
219.968	-7.6
220.353	17.18
220.738	2.22
221.122	10.38
221.507	10.44
221.892	2.17
222.276	4.5
222.661	-0.53
223.046	1.28
223.43	23.6
223.815	-5.56
224.199	-3.87
224.583	0.3
224.968	0.62
225.352	5.92
225.736	10.46
226.121	5.57
226.505	-0.08
226.889	5.85
227.273	5.8
227.657	5.58
228.041	9.84
228.425	2.3
228.809	5.25
229.193	6.82
229.577	4
229.961	5.35
230.344	5.62
230.728	5.58
231.112	5.35
231.495	4.35
231.879	5.17
232.263	6.04
232.646	5.91
233.03	7.16
233.413	6.85
233.797	3.66
234.18	5.58
234.563	4.02
234.946	3.16
235.33	4.86
235.713	4.79
236.096	7.16
236.479	5.69
236.862	4.02
237.245	4.15
237.628	5.6
238.011	6.17
238.394	6.12
238.777	5.76
239.16	7.49
239.543	7.11
239.925	5.38
240.308	4.59
240.691	6.14
241.073	5.25
241.456	6.51
241.838	6.36
242.221	6.06
242.603	5.71
242.986	5.6
243.368	5.86
243.75	6.19
244.133	5.92
244.515	5.81
244.897	5.94
245.279	5.3
245.661	6.49
246.043	5.95
246.425	6.39
246.807	5.22
247.189	5.67
247.571	5.56
247.953	5.74
248.335	5.81
248.717	6.04
249.098	5.83
249.48	5.55
249.862	5.92
250.243	6.13
250.625	6.34
251.006	6.54
251.388	5.51
251.769	6.21
252.151	5.68
252.532	5.54
252.913	5.81
253.295	5.93
253.676	6.01
254.057	5.87
254.438	5.88
254.819	6.46
255.2	6.13
255.581	6.97
255.962	6.92
256.343	6.49
256.724	6.77
257.105	5.77
257.486	5.5
257.867	5.62
258.247	6.24
258.628	6.54
259.009	5.53
259.389	5.68
259.77	6.19
260.15	6.95
260.531	6.07
260.911	5.81
261.292	6.11
261.672	6
262.052	6.08
262.432	5.5
262.813	5.89
263.193	6.35
263.573	5.82
263.953	5.99
264.333	6.67
264.713	6.34
265.093	5.95
265.473	5.23
265.853	5.82
266.233	6.53
266.612	5.38
266.992	6.64
267.372	6.65
267.752	6.58
268.131	6.05
268.511	6.09
268.89	6.54
269.27	5.55
269.649	5.46
270.029	6.33
270.408	6.44
270.787	6
271.167	6.56
271.546	7.01
271.925	6.47
272.304	6.43
272.683	5.99
273.062	6
273.441	5.72
273.82	6.29
274.199	6.03
274.578	6.24
274.957	6.1
275.336	6.3
275.715	6.29
276.093	5.67
276.472	5.67
276.851	5.99
277.229	6.08
277.608	5.69
277.986	6.07
278.365	6.61
278.743	6.23
279.122	5.7
279.5	5.76
279.878	5.31
280.257	6.22
280.635	6.46
281.013	6.1
281.391	5.96
281.769	6.55
282.147	6.05
282.525	6.19
282.903	5.98
283.281	6.64
283.659	6.12
284.037	5.85
284.415	6.1
284.792	6.2
285.17	5.96
285.548	6.26
285.925	6.07
286.303	6.75
286.68	6.4
287.058	6.48
287.435	6.2
287.813	6.27
288.19	6.43
288.567	6.57
288.945	6.32
289.322	6.66
289.699	6.52
290.076	6.75
290.453	6.66
290.83	6.86
291.207	6.6
291.584	7.32
291.961	7.05
292.338	7.01
292.715	6.82
293.092	7.13
293.469	6.97
293.845	7.22
294.222	7.79
294.599	7.19
294.975	6.67
295.352	7.51
295.728	7.27
296.105	7.76
296.481	7.42
296.858	7.42
297.234	7.46
297.61	7.89
297.986	8.08
298.363	7.92
298.739	7.99
299.115	8.19
299.491	7.97
299.867	7.57
300.243	7.78
300.619	8.3
300.995	8.67
301.371	8.03
301.746	8.52
302.122	8.14
302.498	8.73
302.874	8.85
303.249	8.71
303.625	7.95
304	9.04
304.376	9.28
304.751	8.85
305.127	8.72
305.502	9.3
305.878	9.1
306.253	8.5
306.628	9.1
307.003	9.08
307.378	9.26
307.754	9.52
308.129	9.26
308.504	10.27
308.879	9.69
309.254	9.78
309.629	10.12
310.003	9.6
310.378	10.28
310.753	9.84
311.128	9.92
311.502	10.14
311.877	9.84
312.252	9.96
312.626	10.56
313.001	10.29
313.375	10.86
313.75	10.65
314.124	10.69
314.498	10.62
314.873	10.19
315.247	10.74
315.621	10.49
315.995	10.68
316.369	10.7
316.743	11.02
317.117	10.86
317.491	11.54
317.865	11.18
318.239	11.61
318.613	11.28
318.987	11.29
319.361	11.74
319.734	12.01
320.108	12.01
320.482	11.69
320.855	12.15
321.229	11.74
321.602	11.8
321.976	11.33
322.349	11.95
322.723	12.42
323.096	12.15
323.469	12.06
323.843	12.14
324.216	12.27
324.589	12.22
324.962	12.62
325.335	12.18
325.708	12.46
326.081	12.77
326.454	13.17
326.827	12.7
327.2	12.55
327.573	13.4
327.945	13.06
328.318	13.04
328.691	12.51
329.063	12.48
329.436	13.12
329.809	13.07
330.181	13.62
330.553	13.42
330.926	13.93
331.298	12.85
331.671	14.05
332.043	13.44
332.415	13.73
332.787	13.93
333.159	13.88
333.532	13.77
333.904	14.1
334.276	14.01
334.648	14.14
335.02	13.86
335.391	13.9
335.763	13.75
336.135	14
336.507	13.89
336.879	14.09
337.25	14.34
337.622	14.46
337.993	14.24
338.365	14.73
338.736	14.53
339.108	14.63
339.479	14.67
339.851	14.36
340.222	14.82
340.593	15.17
340.964	14.84
341.336	14.9
341.707	14.92
342.078	14.92
342.449	15.39
342.82	15.57
343.191	15.11
343.562	15.51
343.933	15.14
344.303	15.26
344.674	15.35
345.045	15.41
345.416	15.69
345.786	15.92
346.157	15.53
346.527	15.55
346.898	15.18
347.268	16.08
347.639	15.62
348.009	16.26
348.38	15.92
348.75	16.11
349.12	16.31
349.49	15.87
349.861	16.16
350.231	16.06
350.601	16.45
350.971	16.09
351.341	16.29
351.711	16.34
352.081	16.46
352.45	16.5
352.82	16.24
353.19	16.99
353.56	16.78
353.929	16.84
354.299	16.72
354.669	16.64
355.038	17.12
355.408	17.08
355.777	16.96
356.147	16.42
356.516	16.88
356.885	16.88
357.254	16.94
357.624	17.06
357.993	17.3
358.362	17.65
358.731	17.51
359.1	17.33
359.469	17.37
359.838	17.6
360.207	17.43
360.576	17.59
360.945	17.54
361.314	17.65
361.682	17.57
362.051	17.62
362.42	17.63
362.788	17.92
363.157	18.03
363.525	17.96
363.894	17.81
364.262	17.74
364.631	18.16
364.999	18.03
365.367	18.1
365.735	18.05
366.104	18.36
366.472	18.15
366.84	18.4
367.208	18.64
367.576	18.5
367.944	18.53
368.312	18.59
368.68	18.81
369.048	18.78
369.416	18.55
369.783	18.87
370.151	19.42
370.519	19.15
370.886	18.95
371.254	19.59
371.621	19.51
371.989	19.16
372.356	19.44
372.724	19.19
373.091	19.37
373.458	19.61
373.826	19.48
374.193	19.55
374.56	19.51
374.927	19.19
375.294	19.65
375.661	19.72
376.028	19.61
376.395	19.6
376.762	19.81
377.129	20.04
377.496	20.19
377.863	20.03
378.229	20.06
378.596	20.15
378.963	20.09
379.329	20.29
379.696	19.98
380.062	20.31
380.429	20.05
380.795	20.39
381.161	20.22
381.528	20.13
381.894	20.15
382.26	20.67
382.626	20.62
382.993	20.99
383.359	20.47
383.725	20.48
384.091	20.89
384.457	20.66
384.823	20.81
385.188	21
385.554	20.89
385.92	20.63
386.286	20.94
386.651	21.1
387.017	21.47
387.383	21.17
387.748	21.48
388.114	21.26
388.479	21.46
388.845	21.29
389.21	21.64
389.575	21.56
389.94	21.81
390.306	21.77
390.671	21.64
391.036	21.54
391.401	21.81
391.766	21.73
392.131	21.94
392.496	21.57
392.861	21.92
393.226	21.75
393.591	21.97
393.956	21.81
394.32	22.1
394.685	22.22
395.05	22.12
395.414	22.08
395.779	22.19
396.143	21.98
396.508	22.25
396.872	22.2
397.236	22.76
397.601	22.5
397.965	22.65
398.329	22.51
398.694	22.53
399.058	22.68
399.422	22.69
399.786	22.78
400.15	22.76
400.514	22.98
400.878	22.92
401.242	22.99
401.605	23
401.969	23.24
402.333	23.26
402.697	23.53
403.06	23.25
403.424	23.38
403.787	23.22
404.151	23.18
404.514	23.48
404.878	23.34
405.241	23.28
405.604	23.46
405.968	23.38
406.331	23.38
406.694	23.55
407.057	23.43
407.42	23.66
407.783	23.67
408.146	23.69
408.509	23.89
408.872	24.01
409.235	23.99
409.598	24.14
409.961	24.19
410.323	23.99
410.686	24.07
411.049	24.27
411.411	23.91
411.774	24.21
412.136	24.19
412.499	24.29
412.861	23.97
413.223	24.33
413.586	24.51
413.948	24.62
414.31	24.48
414.672	24.57
415.035	24.85
415.397	24.48
415.759	24.35
416.121	25.07
416.483	24.88
416.845	24.7
417.206	24.79
417.568	24.78
417.93	24.72
418.292	24.9
418.653	24.71
419.015	24.86
419.377	24.51
419.738	24.8
420.1	24.91
420.461	24.75
420.822	24.93
421.184	24.79
421.545	24.91
421.906	24.9
422.267	24.8
422.629	24.76
422.99	24.59
423.351	24.88
423.712	24.97
424.073	25.06
424.434	25.22
424.795	25.06
425.155	24.93
425.516	24.96
425.877	25.18
426.238	25.05
426.598	25.38
426.959	25.52
427.32	25.6
427.68	25.79
428.041	25.81
428.401	25.78
428.761	26.09
429.122	25.98
429.482	26.28
429.842	26.05
430.202	26.06
430.563	26.33
430.923	26.14
431.283	26.58
431.643	26.48
432.003	26.37
432.363	26.61
432.722	26.62
433.082	26.51
433.442	26.71
433.802	26.47
434.161	26.62
434.521	26.59
434.881	26.8
435.24	26.61
435.6	26.74
435.959	26.59
436.319	26.83
436.678	26.92
437.037	26.83
437.396	27.06
437.756	27.14
438.115	27.01
438.474	27.34
438.833	27.36
439.192	27.33
439.551	27.36
439.91	27.24
440.269	27.39
440.628	27.25
440.987	27.15
441.345	27.34
441.704	27.24
442.063	27.23
442.421	27.23
442.78	27.44
443.138	27.42
443.497	27.52
443.855	27.63
444.214	27.79
444.572	27.86
444.93	27.81
445.288	27.85
445.647	27.96
446.005	27.89
446.363	27.98
446.721	27.77
447.079	27.65
447.437	27.78
447.795	27.66
448.153	27.74
448.51	27.57
448.868	27.83
449.226	27.98
449.584	28.01
449.941	28.25
450.299	28.21
450.656	28.48
451.014	28.71
451.371	28.66
451.729	28.73
452.086	28.78
452.443	28.76
452.801	28.86
453.158	29.04
453.515	28.75
453.872	29.01
454.229	28.77
454.586	28.77
454.943	29.05
455.3	28.96
455.657	29.03
456.014	29.03
456.371	29.22
456.727	29.28
457.084	29.38
457.441	29.46
457.797	29.42
458.154	29.53
458.51	29.6
458.867	29.46
459.223	29.54
459.58	29.77
459.936	29.46
460.292	29.62
460.648	29.4
461.005	29.37
461.361	29.09
461.717	29.24
462.073	29.34
462.429	29.56
462.785	29.8
463.141	29.92
463.496	30.07
463.852	29.98
464.208	30.32
464.564	30.27
464.919	30.14
465.275	30.45
465.631	30.68
465.986	30.53
466.342	30.4
466.697	30.65
467.052	30.61
467.408	30.47
467.763	30.47
468.118	30.52
468.473	30.67
468.829	30.85
469.184	31
469.539	30.75
469.894	30.71
470.249	31.16
470.603	31.07
470.958	31.26
471.313	31.19
471.668	30.99
472.023	31.21
472.377	31.05
472.732	31.44
473.086	31.46
473.441	31.4
473.795	31.63
474.15	31.5
474.504	31.52
474.859	31.4
475.213	31.56
475.567	31.87
475.921	31.75
476.275	31.92
476.63	31.91
476.984	31.98
477.338	31.96
477.692	32.04
478.045	31.78
478.399	31.9
478.753	32.04
479.107	32.09
479.461	31.87
479.814	32.03
480.168	32
480.521	32.06
480.875	32.13
481.228	32.14
481.582	32.3
481.935	32.34
482.289	32.26
482.642	32.37
482.995	32.21
483.348	32.07
483.701	31.98
484.055	32.01
484.408	31.74
484.761	31.58
485.114	31.49
485.466	31.53
485.819	31.5
486.172	31.61
486.525	31.74
486.878	31.91
487.23	32.06
487.583	32.31
487.936	32.28
488.288	32.16
488.641	32.04
488.993	32.02
489.345	31.98
489.698	31.96
490.05	32.04
490.402	32.31
490.754	32.58
491.107	32.66
491.459	32.98
491.811	33.08
492.163	32.97
492.515	32.74
492.866	32.59
493.218	32.56
493.57	32.64
493.922	32.64
494.274	33.03
494.625	33.24
494.977	33.58
495.328	33.67
495.68	33.89
496.031	33.92
496.383	33.95
496.734	34.11
497.086	33.95
497.437	34.26
497.788	34.17
498.139	34.05
498.49	33.99
498.842	34.21
499.193	33.95
499.544	34.31
499.894	34.42
500.245	34.38
500.596	34.54
500.947	34.56
501.298	34.92
501.648	34.84
501.999	34.76
502.35	34.77
502.7	34.88
503.051	35.07
503.401	35.13
503.752	35.05
504.102	35.12
504.452	35.1
504.803	35.31
505.153	35.35
505.503	35.3
505.853	35.23
506.203	35.34
506.553	35.45
506.903	35.36
507.253	35.57
507.603	35.21
507.953	35.41
508.303	35.55
508.652	35.62
509.002	35.59
509.352	35.54
509.701	35.54
510.051	35.76
510.4	35.61
510.75	35.61
511.099	35.63
511.449	35.95
511.798	35.83
512.147	35.93
512.496	35.98
512.846	36.21
513.195	36.1
513.544	36.09
513.893	36.13
514.242	35.96
514.591	36.13
514.939	36.26
515.288	36.33
515.637	36.47
515.986	36.39
516.334	36.7
516.683	36.61
517.032	36.75
517.38	36.8
517.729	36.82
518.077	36.79
518.426	36.85
518.774	36.67
519.122	36.76
519.47	36.67
519.819	36.35
520.167	36.4
520.515	36.73
520.863	36.65
521.211	36.68
521.559	36.78
521.907	36.94
522.255	37.02
522.602	37.39
522.95	37.53
523.298	37.47
523.645	37.49
523.993	37.59
524.341	37.72
524.688	37.61
525.036	37.82
525.383	37.79
525.73	37.66
526.078	37.84
526.425	37.55
526.772	37.49
527.119	37.22
527.466	37.39
527.814	37.49
528.161	37.8
528.508	37.69
528.854	37.59
529.201	37.48
529.548	37.29
529.895	37.08
530.242	37.31
530.588	37.28
530.935	37.43
531.282	37.21
531.628	37.49
531.975	37.76
532.321	37.81
532.667	38.07
533.014	38.07
533.36	38.25
533.706	38.26
534.052	38.33
534.399	37.99
534.745	37.73
535.091	37.97
535.437	38.13
535.783	38.28
536.129	38.41
536.474	38.63
536.82	38.8
537.166	38.85
537.512	38.81
537.857	38.74
538.203	38.76
538.549	38.75
538.894	38.97
539.239	39.07
539.585	39.16
539.93	39.43
540.276	39.45
540.621	39.74
540.966	39.64
541.311	39.79
541.656	39.6
542.001	39.43
542.346	39.17
542.691	38.83
543.036	38.94
543.381	38.99
543.726	39.05
544.071	39.12
544.415	39.4
544.76	39.48
545.105	39.65
545.449	39.76
545.794	39.88
546.138	39.88
546.483	40.31
546.827	40.28
547.171	40.38
547.516	40.29
547.86	40.42
548.204	40.21
548.548	40.1
548.892	40.28
549.236	40.49
549.58	40.73
549.924	40.96
550.268	41.09
550.612	41.03
550.956	41.14
551.3	41.57
551.643	41.64
551.987	41.45
552.33	41.67
552.674	41.37
553.017	41.62
553.361	41.62
553.704	41.74
554.048	41.59
554.391	41.61
554.734	41.88
555.077	41.54
555.42	41.55
555.764	41.83
556.107	42.09
556.45	42.11
556.793	42.02
557.135	42.25
557.478	42.59
557.821	42.14
558.164	42.57
558.507	42.33
558.849	42.84
559.192	42.43
559.534	42.35
559.877	42.28
560.219	42.64
560.562	42.62
560.904	42.78
561.246	42.78
561.589	42.93
561.931	43.12
562.273	43.05
562.615	42.84
562.957	42.86
563.299	42.89
563.641	43.23
563.983	42.88
564.325	43.3
564.667	43.05
565.008	43.3
565.35	43.27
565.692	43.3
566.033	43.58
566.375	43.12
566.716	43.12
567.058	43.37
567.399	43.55
567.741	43.42
568.082	43.37
568.423	43.35
568.764	43.47
569.105	43.56
569.447	43.58
569.788	43.65
570.129	43.79
570.47	43.86
570.811	43.79
571.151	43.92
571.492	44.16
571.833	43.69
572.174	44.18
572.514	44.28
572.855	44.39
573.195	43.95
573.536	44.02
573.876	43.77
574.217	43.98
574.557	44.08
574.898	44.16
575.238	44.35
575.578	44.44
575.918	44.45
576.258	44.63
576.598	44.43
576.938	44.51
577.278	44.61
577.618	44.85
577.958	44.59
578.298	44.96
578.638	44.88
578.977	45.07
579.317	44.92
579.657	45.17
579.996	45.14
580.336	45.35
580.675	45.61
581.014	45.58
581.354	45.29
581.693	45.77
582.032	45.85
582.372	45.6
582.711	45.43
583.05	45.71
583.389	45.95
583.728	46.02
584.067	45.65
584.406	46.5
584.745	46.11
585.083	46.06
585.422	46.39
585.761	46.24
586.1	46.04
586.438	46.4
586.777	46.52
587.115	46.41
587.454	46.37
587.792	46.27
588.13	46.34
588.469	46.51
588.807	46.29
589.145	46.64
589.483	46.64
589.821	46.78
590.159	46.72
590.497	46.66
590.835	46.86
591.173	47.01
591.511	46.99
591.849	46.66
592.187	47
592.524	46.85
592.862	47.17
593.2	46.91
593.537	46.85
593.875	46.93
594.212	46.93
594.55	46.99
594.887	47.58
595.224	47.05
595.561	47
595.899	47.32
596.236	47.44
596.573	47.26
596.91	47.24
597.247	47.45
597.584	47.26
597.921	47.23
598.258	47.61
598.594	47.3
598.931	47.26
599.268	47.27
599.604	47.5
599.941	47.66
600.277	47.78
600.614	47.84
600.95	47.7
601.287	47.91
601.623	47.79
601.959	48.46
602.296	47.88
602.632	48.09
602.968	48.28
603.304	48.27
603.64	48.27
603.976	48.35
604.312	48.55
604.648	48.31
604.984	48.29
605.319	48.04
605.655	48.08
605.991	48.17
606.326	48.32
606.662	48.26
606.998	48.23
607.333	48.4
607.668	48.39
608.004	48.79
608.339	48.88
608.674	48.56
609.01	48.67
609.345	49.03
609.68	49.12
610.015	49.41
610.35	48.98
610.685	49.06
611.02	48.65
611.355	48.75
611.689	49.1
612.024	49.18
612.359	49.14
612.694	49.11
613.028	49.27
613.363	49.26
613.697	49.88
614.032	49.62
614.366	49.67
614.7	49.45
615.035	49.91
615.369	49.87
615.703	49.77
616.037	49.56
616.371	49.77
616.705	50.18
617.039	50.26
617.373	50.25
617.707	49.93
618.041	50.13
618.375	50.29
618.709	50.04
619.042	50.33
619.376	50.51
619.71	50.09
620.043	50.6
620.377	50.52
620.71	49.98
621.043	50.28
621.377	50.35
621.71	50.44
622.043	51.04
622.376	50.72
622.709	50.74
623.043	51.26
623.376	50.45
623.709	51.11
624.041	50.56
624.374	51.13
624.707	51.04
625.04	51.03
625.373	51.45
625.705	51.29
626.038	50.71
626.37	51.13
626.703	51.29
627.035	51.41
627.368	51.25
627.7	51.26
628.032	51.52
628.365	51.17
628.697	51.42
629.029	51.34
629.361	51.44
629.693	51.19
630.025	51.66
630.357	51.72
630.689	51.75
631.021	51.93
631.353	51.89
631.684	51.77
632.016	51.8
632.348	52.14
632.679	52.06
633.011	51.99
633.342	52.49
633.674	52.05
634.005	52.3
634.336	51.94
634.668	52.31
634.999	51.83
635.33	52.12
635.661	52.2
635.992	52.1
636.323	51.99
636.654	52.26
636.985	52.53
637.316	52.22
637.647	52.1
637.977	52.26
638.308	52.92
638.639	53.13
638.969	52.55
639.3	52.9
639.63	53.09
639.961	53.16
640.291	52.8
640.622	52.76
640.952	52.61
641.282	52.42
641.612	53.23
641.943	52.74
642.273	52.77
642.603	53.59
642.933	53.45
643.263	53.41
643.592	53.62
643.922	53.87
644.252	53.38
644.582	53.4
644.911	53.22
645.241	53.31
645.571	53.8
645.9	53.7
646.23	53.39
646.559	53.29
646.888	53.89
647.218	53.32
647.547	53.56
647.876	54.24
648.205	53.53
648.534	53.77
648.863	53.97
649.192	53.69
649.521	53.57
649.85	53.96
650.179	54.1
650.508	54.08
650.837	53.76
651.165	54.22
651.494	53.74
651.822	54.46
652.151	54.15
652.479	54.79
652.808	54.32
653.136	54.06
653.465	54.59
653.793	54.09
654.121	54.36
654.449	54.67
654.777	54.24
655.105	54.07
655.433	54.45
655.761	54.71
656.089	54.28
656.417	54.34
656.745	54.75
657.073	54.42
657.4	54.19
657.728	54.16
658.056	55.1
658.383	54.84
658.711	55.22
659.038	55.39
659.365	55.02
659.693	55.06
660.02	54.44
660.347	54.65
660.674	54.72
661.001	55.06
661.329	54.78
661.656	54.81
661.982	54.74
662.309	54.64
662.636	55.46
662.963	55.1
663.29	55.36
663.616	55.52
663.943	55.61
664.27	55.04
664.596	55.29
664.923	55.62
665.249	55.57
665.576	55.2
665.902	55.33
666.228	56.21
666.554	55.86
666.881	55.14
667.207	56.04
667.533	55.99
667.859	56.25
668.185	55.04
668.511	55.53
