Data from 0001_forehead_Reflection__3__254.txt Node

Date: Thu Dec 15 18:44:56 CST 2022
User: ToomeyLab
Spectrometer: FLMS14357
Trigger mode: 0
Integration Time (sec): 1.000000E-2
Scans to average: 100
Electric dark correction enabled: true
Nonlinearity correction enabled: false
Boxcar width: 0
XAxis mode: Wavelengths
Number of Pixels in Spectrum: 2048
>>>>>Begin Spectral Data<<<<<
189.047	-181.9
189.435	-181.9
189.823	-181.9
190.211	50.24
190.599	78.46
190.987	-2981.58
191.375	-27.81
191.763	81.61
192.151	45.5
192.538	-132.85
192.926	272.67
193.314	156.32
193.702	-58.7
194.089	797.06
194.477	-161.35
194.864	91.03
195.252	-258.97
195.639	-44.83
196.027	266
196.414	218.09
196.801	-27.19
197.189	243
197.576	-56.41
197.963	-13950
198.351	35.32
198.738	-25.32
199.125	-26.86
199.512	45.56
199.899	-22.26
200.286	-45.11
200.673	37.97
201.06	10.63
201.447	33.01
201.833	18.86
202.22	-20.13
202.607	15.03
202.994	5.23
203.38	10.83
203.767	-32.9
204.154	25.63
204.54	83.22
204.927	1.58
205.313	33.72
205.699	14.27
206.086	37.14
206.472	61.29
206.858	32.48
207.245	23
207.631	-3.41
208.017	35.03
208.403	-73.8
208.789	6.66
209.175	1.51
209.561	-79.97
209.947	-4.77
210.333	21.78
210.719	15.73
211.105	74.74
211.491	4.63
211.876	-11.68
212.262	-2.45
212.648	-0.67
213.034	16.55
213.419	-4.15
213.805	0.37
214.19	-35.7
214.576	-16.85
214.961	35.43
215.346	-36.48
215.732	-1.63
216.117	6.36
216.502	-10.92
216.888	17.64
217.273	23.01
217.658	9.66
218.043	-19.87
218.428	-4.96
218.813	9.18
219.198	-43.65
219.583	10.08
219.968	3.4
220.353	19.16
220.738	12.44
221.122	-5.53
221.507	-14.88
221.892	-23.24
222.276	-1.23
222.661	-7.43
223.046	-6.47
223.43	4.58
223.815	3.87
224.199	-5.11
224.583	-2.42
224.968	-0.6
225.352	-5.25
225.736	4.42
226.121	-3.65
226.505	-3.73
226.889	7.34
227.273	2.18
227.657	2.1
228.041	3.81
228.425	-3.06
228.809	0.32
229.193	2.14
229.577	2.69
229.961	2.51
230.344	3.35
230.728	3.37
231.112	3.83
231.495	1.04
231.879	2.26
232.263	3.44
232.646	1.92
233.03	4.12
233.413	2.72
233.797	0.16
234.18	4.4
234.563	3.93
234.946	1.19
235.33	3.2
235.713	3.03
236.096	3.67
236.479	3.88
236.862	2.26
237.245	1.37
237.628	2.38
238.011	4.34
238.394	1.9
238.777	4.83
239.16	2.96
239.543	4.99
239.925	3.16
240.308	2.74
240.691	2.91
241.073	2.02
241.456	2.51
241.838	2.43
242.221	1.75
242.603	2.32
242.986	2.86
243.368	2.72
243.75	3.04
244.133	3.35
244.515	2.67
244.897	2.89
245.279	2.77
245.661	2.9
246.043	3.8
246.425	2.95
246.807	2.8
247.189	3.04
247.571	2.66
247.953	2.95
248.335	3.12
248.717	3.09
249.098	3.09
249.48	2.99
249.862	2.83
250.243	3.35
250.625	3.17
251.006	4.05
251.388	2.54
251.769	2.69
252.151	3.86
252.532	2.94
252.913	3.46
253.295	3.26
253.676	3.24
254.057	3.25
254.438	2.96
254.819	2.95
255.2	3.55
255.581	5.05
255.962	3.9
256.343	3.61
256.724	3.53
257.105	2.85
257.486	3.12
257.867	2.73
258.247	2.7
258.628	3.58
259.009	2.97
259.389	2.97
259.77	2.37
260.15	3.51
260.531	3.35
260.911	3.36
261.292	3.28
261.672	3.22
262.052	3.4
262.432	3.1
262.813	3.84
263.193	3.18
263.573	3.42
263.953	3.03
264.333	3.42
264.713	3.67
265.093	2.94
265.473	2.71
265.853	3.21
266.233	3.08
266.612	2.55
266.992	3.1
267.372	3.83
267.752	3.49
268.131	3.17
268.511	3.23
268.89	3.53
269.27	2.86
269.649	3.1
270.029	3.36
270.408	2.99
270.787	3.39
271.167	3.11
271.546	3.71
271.925	3.78
272.304	2.96
272.683	2.78
273.062	2.73
273.441	3.14
273.82	3.26
274.199	3.27
274.578	3.29
274.957	3.19
275.336	3.29
275.715	3.67
276.093	2.68
276.472	3.28
276.851	3.28
277.229	3.14
277.608	2.67
277.986	3.32
278.365	3.52
278.743	2.9
279.122	3.49
279.5	3.09
279.878	3.31
280.257	2.81
280.635	3.28
281.013	2.85
281.391	3.07
281.769	4.03
282.147	3.71
282.525	3.68
282.903	3.02
283.281	3.49
283.659	3.02
284.037	3
284.415	3.04
284.792	3.37
285.17	3.21
285.548	3.13
285.925	3.47
286.303	3.96
286.68	3.45
287.058	3.63
287.435	3.17
287.813	3.61
288.19	3.36
288.567	3.53
288.945	3.72
289.322	3.46
289.699	3.91
290.076	3.62
290.453	3.66
290.83	4.04
291.207	3.53
291.584	3.75
291.961	3.91
292.338	3.78
292.715	4
293.092	4.09
293.469	3.99
293.845	3.59
294.222	4.87
294.599	4.09
294.975	3.9
295.352	4.79
295.728	4.24
296.105	4.28
296.481	4.47
296.858	4.21
297.234	4.2
297.61	4.57
297.986	5.02
298.363	4.78
298.739	4.39
299.115	4.57
299.491	4.76
299.867	4.6
300.243	4.8
300.619	4.37
300.995	4.85
301.371	4.88
301.746	5.18
302.122	4.89
302.498	4.71
302.874	5
303.249	4.77
303.625	4.59
304	5.03
304.376	5.38
304.751	5.13
305.127	4.66
305.502	5.44
305.878	5.3
306.253	4.95
306.628	5.52
307.003	5.44
307.378	5.3
307.754	5.57
308.129	5.64
308.504	5.83
308.879	5.15
309.254	5.81
309.629	5.91
310.003	5.42
310.378	6.07
310.753	5.6
311.128	5.45
311.502	5.87
311.877	5.67
312.252	6.1
312.626	6.1
313.001	6.21
313.375	6.17
313.75	6.09
314.124	6.53
314.498	6.56
314.873	5.86
315.247	6.54
315.621	6.49
315.995	6.14
316.369	6.26
316.743	6.48
317.117	6.3
317.491	6.91
317.865	5.97
318.239	7.18
318.613	6.69
318.987	6.77
319.361	6.63
319.734	7.15
320.108	6.82
320.482	7.2
320.855	6.65
321.229	7.18
321.602	7.25
321.976	7.02
322.349	7.5
322.723	7.77
323.096	7.64
323.469	7.81
323.843	7.51
324.216	7.68
324.589	8.04
324.962	7.54
325.335	7.38
325.708	7.69
326.081	7.72
326.454	8.15
326.827	7.76
327.2	7.41
327.573	8.13
327.945	7.74
328.318	8.05
328.691	8.17
329.063	7.59
329.436	7.68
329.809	8.64
330.181	8.81
330.553	8.22
330.926	8.64
331.298	8.49
331.671	8.56
332.043	8.07
332.415	8.46
332.787	8.6
333.159	8.17
333.532	8.67
333.904	8.7
334.276	8.61
334.648	8.36
335.02	8.46
335.391	8.52
335.763	8.6
336.135	8.74
336.507	8.37
336.879	8.99
337.25	9
337.622	9.19
337.993	8.85
338.365	8.82
338.736	8.93
339.108	9.19
339.479	9.08
339.851	9.01
340.222	9.45
340.593	9.32
340.964	9.48
341.336	8.65
341.707	9.17
342.078	9.22
342.449	9.46
342.82	9.84
343.191	9.16
343.562	9.59
343.933	9.71
344.303	10.3
344.674	9.72
345.045	9.5
345.416	9.64
345.786	9.73
346.157	9.85
346.527	9.71
346.898	9.6
347.268	9.98
347.639	10.02
348.009	9.97
348.38	9.91
348.75	10.4
349.12	10.25
349.49	9.94
349.861	10.22
350.231	10.18
350.601	10.18
350.971	10.31
351.341	10.52
351.711	10.55
352.081	10.13
352.45	10.04
352.82	10.49
353.19	10.54
353.56	10.27
353.929	10.68
354.299	10.66
354.669	10.77
355.038	10.68
355.408	10.7
355.777	10.5
356.147	11.03
356.516	10.7
356.885	10.7
357.254	10.46
357.624	10.28
357.993	10.75
358.362	10.74
358.731	10.98
359.1	11.07
359.469	11.18
359.838	11.04
360.207	10.83
360.576	11.17
360.945	11.12
361.314	11.14
361.682	11.1
362.051	11.06
362.42	11.19
362.788	11.34
363.157	10.89
363.525	11.32
363.894	11.08
364.262	11.3
364.631	11.53
364.999	11.49
365.367	11.45
365.735	11.63
366.104	11.39
366.472	11.51
366.84	11.61
367.208	11.84
367.576	11.63
367.944	11.56
368.312	11.48
368.68	11.89
369.048	12.01
369.416	11.94
369.783	12
370.151	12.54
370.519	12.19
370.886	12.11
371.254	12.42
371.621	12.06
371.989	12.28
372.356	12.33
372.724	12.18
373.091	11.74
373.458	12.39
373.826	12.83
374.193	12.42
374.56	12.22
374.927	12.55
375.294	12.63
375.661	12.61
376.028	12.53
376.395	12.95
376.762	12.32
377.129	12.73
377.496	12.7
377.863	12.77
378.229	13.15
378.596	12.93
378.963	13.01
379.329	13.04
379.696	12.77
380.062	12.89
380.429	12.58
380.795	13.29
381.161	12.74
381.528	12.95
381.894	12.86
382.26	13.22
382.626	13.02
382.993	13.59
383.359	13.13
383.725	13.04
384.091	13.39
384.457	13.14
384.823	13.38
385.188	13.67
385.554	13.39
385.92	13.18
386.286	13.55
386.651	13.3
387.017	13.96
387.383	13.5
387.748	13.68
388.114	13.94
388.479	13.62
388.845	13.51
389.21	13.91
389.575	14.05
389.94	14.14
390.306	13.85
390.671	13.87
391.036	14.01
391.401	14.11
391.766	14.16
392.131	14.18
392.496	14.01
392.861	13.82
393.226	13.87
393.591	14.17
393.956	14.16
394.32	14.14
394.685	14.42
395.05	14.19
395.414	14.28
395.779	14.42
396.143	14.07
396.508	14.32
396.872	14.62
397.236	14.83
397.601	14.66
397.965	14.57
398.329	14.73
398.694	14.55
399.058	14.68
399.422	14.76
399.786	14.51
400.15	14.5
400.514	14.98
400.878	14.84
401.242	14.83
401.605	14.85
401.969	15.03
402.333	14.75
402.697	15.22
403.06	14.95
403.424	15.53
403.787	15.21
404.151	15.03
404.514	15.13
404.878	14.89
405.241	15.13
405.604	15.2
405.968	15.41
406.331	15.27
406.694	15.4
407.057	15.21
407.42	15.35
407.783	15.51
408.146	15.36
408.509	15.37
408.872	15.52
409.235	15.8
409.598	15.52
409.961	15.81
410.323	15.67
410.686	15.74
411.049	15.86
411.411	15.79
411.774	15.76
412.136	15.89
412.499	16.01
412.861	15.63
413.223	15.81
413.586	16.33
413.948	16.43
414.31	16.11
414.672	16.11
415.035	16.32
415.397	15.99
415.759	15.98
416.121	16.3
416.483	16.14
416.845	16.18
417.206	16.41
417.568	16.14
417.93	16.24
418.292	16.11
418.653	16.14
419.015	15.98
419.377	16.18
419.738	16.23
420.1	16.25
420.461	16.15
420.822	16.32
421.184	16.18
421.545	16.37
421.906	16.31
422.267	16.24
422.629	16.13
422.99	16.18
423.351	16.28
423.712	16.41
424.073	16.51
424.434	16.68
424.795	16.54
425.155	16.37
425.516	16.37
425.877	16.55
426.238	16.56
426.598	16.67
426.959	16.76
427.32	16.74
427.68	16.86
428.041	17.03
428.401	16.98
428.761	17.25
429.122	17.16
429.482	17.33
429.842	17.2
430.202	17.35
430.563	17.24
430.923	17.34
431.283	17.43
431.643	17.47
432.003	17.79
432.363	17.5
432.722	17.5
433.082	17.66
433.442	17.48
433.802	17.41
434.161	17.47
434.521	17.53
434.881	17.51
435.24	17.49
435.6	17.53
435.959	17.74
436.319	17.72
436.678	17.81
437.037	17.8
437.396	17.81
437.756	17.81
438.115	18
438.474	18.12
438.833	17.84
439.192	17.94
439.551	17.96
439.91	17.88
440.269	18
440.628	18.08
440.987	18.1
441.345	18.11
441.704	18.06
442.063	17.92
442.421	17.99
442.78	18.06
443.138	18.26
443.497	18.2
443.855	18.45
444.214	18.46
444.572	18.51
444.93	18.55
445.288	18.61
445.647	18.37
446.005	18.41
446.363	18.48
446.721	18.57
447.079	18.37
447.437	18.36
447.795	18.32
448.153	18.4
448.51	18.42
448.868	18.61
449.226	18.55
449.584	18.64
449.941	18.8
450.299	18.75
450.656	19.05
451.014	19.01
451.371	19.26
451.729	19.12
452.086	19.2
452.443	19.15
452.801	19.21
453.158	19.43
453.515	19.17
453.872	19.41
454.229	19.3
454.586	19.22
454.943	19.56
455.3	19.59
455.657	19.46
456.014	19.59
456.371	19.52
456.727	19.66
457.084	19.66
457.441	19.74
457.797	19.82
458.154	19.76
458.51	19.85
458.867	19.8
459.223	19.7
459.58	19.87
459.936	20.05
460.292	19.88
460.648	19.69
461.005	19.62
461.361	19.59
461.717	19.62
462.073	19.76
462.429	19.96
462.785	20.03
463.141	20.17
463.496	20.37
463.852	20.12
464.208	20.25
464.564	20.44
464.919	20.42
465.275	20.4
465.631	20.72
465.986	20.5
466.342	20.37
466.697	20.68
467.052	20.72
467.408	20.72
467.763	20.83
468.118	20.7
468.473	20.96
468.829	20.72
469.184	20.87
469.539	20.9
469.894	20.96
470.249	21
470.603	21.08
470.958	21.15
471.313	21.11
471.668	21.09
472.023	21.06
472.377	21.19
472.732	21.29
473.086	21.34
473.441	21.11
473.795	21.38
474.15	21.58
474.504	21.46
474.859	21.18
475.213	21.48
475.567	21.36
475.921	21.45
476.275	21.5
476.63	21.67
476.984	21.56
477.338	21.8
477.692	21.78
478.045	21.7
478.399	21.57
478.753	21.73
479.107	22.02
479.461	21.84
479.814	21.81
480.168	21.69
480.521	22.09
480.875	22.09
481.228	21.95
481.582	21.93
481.935	21.99
482.289	22.09
482.642	22.19
482.995	21.99
483.348	21.87
483.701	21.85
484.055	21.77
484.408	21.63
484.761	21.41
485.114	21.24
485.466	21.18
485.819	21.27
486.172	21.38
486.525	21.51
486.878	21.71
487.23	21.82
487.583	21.99
487.936	21.91
488.288	21.79
488.641	21.66
488.993	21.81
489.345	21.7
489.698	21.84
490.05	21.88
490.402	22.07
490.754	22.22
491.107	22.48
491.459	22.66
491.811	22.65
492.163	22.48
492.515	22.5
492.866	22.23
493.218	22.16
493.57	22.27
493.922	22.39
494.274	22.59
494.625	22.98
494.977	23.13
495.328	23.25
495.68	23.39
496.031	23.31
496.383	23.42
496.734	23.47
497.086	23.55
497.437	23.66
497.788	23.53
498.139	23.5
498.49	23.36
498.842	23.55
499.193	23.45
499.544	23.67
499.894	23.75
500.245	23.85
500.596	23.9
500.947	24.01
501.298	24.14
501.648	23.98
501.999	24.15
502.35	24.17
502.7	24.34
503.051	24.29
503.401	24.45
503.752	24.26
504.102	24.33
504.452	24.32
504.803	24.23
505.153	24.48
505.503	24.38
505.853	24.44
506.203	24.55
506.553	24.64
506.903	24.55
507.253	24.71
507.603	24.79
507.953	24.8
508.303	24.83
508.652	24.71
509.002	24.79
509.352	24.91
509.701	24.72
510.051	24.94
510.4	24.8
510.75	24.84
511.099	24.76
511.449	25.05
511.798	25.02
512.147	25.02
512.496	25.09
512.846	25.18
513.195	25.25
513.544	25.16
513.893	25.21
514.242	25.07
514.591	25.31
514.939	25.47
515.288	25.37
515.637	25.48
515.986	25.52
516.334	25.72
516.683	25.58
517.032	25.74
517.38	25.89
517.729	25.81
518.077	25.86
518.426	25.87
518.774	25.76
519.122	25.83
519.47	25.71
519.819	25.54
520.167	25.52
520.515	25.68
520.863	25.69
521.211	25.85
521.559	25.89
521.907	25.92
522.255	26.02
522.602	26.34
522.95	26.25
523.298	26.5
523.645	26.25
523.993	26.47
524.341	26.42
524.688	26.66
525.036	26.53
525.383	26.71
525.73	26.55
526.078	26.67
526.425	26.65
526.772	26.33
527.119	26.32
527.466	26.5
527.814	26.3
528.161	26.56
528.508	26.65
528.854	26.47
529.201	26.42
529.548	26.19
529.895	26.05
530.242	26.01
530.588	26.14
530.935	26.29
531.282	26.34
531.628	26.51
531.975	26.64
532.321	26.83
532.667	26.97
533.014	27.04
533.36	27.11
533.706	27.18
534.052	27.24
534.399	26.98
534.745	26.71
535.091	26.91
535.437	27.02
535.783	27.13
536.129	27.28
536.474	27.5
536.82	27.72
537.166	27.67
537.512	27.77
537.857	27.55
538.203	27.69
538.549	27.65
538.894	27.75
539.239	27.91
539.585	28.04
539.93	28.22
540.276	28.3
540.621	28.36
540.966	28.34
541.311	28.31
541.656	28.41
542.001	28.21
542.346	27.88
542.691	27.7
543.036	27.71
543.381	27.79
543.726	27.94
544.071	28
544.415	28.13
544.76	28.33
545.105	28.23
545.449	28.49
545.794	28.7
546.138	28.76
546.483	28.95
546.827	28.87
547.171	29
547.516	29.15
547.86	29.02
548.204	29.12
548.548	29.01
548.892	28.96
549.236	29.17
549.58	29.49
549.924	29.58
550.268	29.73
550.612	29.66
550.956	29.9
551.3	30
551.643	29.93
551.987	30.13
552.33	30.28
552.674	29.96
553.017	30.29
553.361	30.23
553.704	30.21
554.048	30.07
554.391	30.19
554.734	30.2
555.077	30.22
555.42	30.13
555.764	30.47
556.107	30.47
556.45	30.39
556.793	30.53
557.135	30.66
557.478	30.65
557.821	30.71
558.164	30.75
558.507	30.75
558.849	31.06
559.192	31
559.534	30.94
559.877	31.04
560.219	31.11
560.562	31.22
560.904	31.33
561.246	31.1
561.589	31.41
561.931	31.39
562.273	31.45
562.615	31.25
562.957	31.38
563.299	31.24
563.641	31.44
563.983	31.4
564.325	31.56
564.667	31.42
565.008	31.69
565.35	31.52
565.692	31.88
566.033	31.93
566.375	31.61
566.716	31.69
567.058	31.92
567.399	31.79
567.741	31.69
568.082	31.9
568.423	31.67
568.764	31.94
569.105	31.94
569.447	32.04
569.788	32.09
570.129	32.24
570.47	32.37
570.811	32.24
571.151	32.16
571.492	32.39
571.833	32.45
572.174	32.57
572.514	32.52
572.855	32.7
573.195	32.42
573.536	32.62
573.876	32.44
574.217	32.64
574.557	32.46
574.898	32.61
575.238	32.89
575.578	32.83
575.918	33.03
576.258	32.99
576.598	32.82
576.938	32.85
577.278	33.04
577.618	33.01
577.958	33.07
578.298	33.14
578.638	32.99
578.977	33.26
579.317	33.34
579.657	33.49
579.996	33.46
580.336	33.69
580.675	33.48
581.014	33.95
581.354	33.68
581.693	33.93
582.032	34.3
582.372	33.89
582.711	34.08
583.05	33.95
583.389	34.22
583.728	34.22
584.067	34.02
584.406	34.22
584.745	34.36
585.083	34.42
585.422	34.58
585.761	34.34
586.1	34.48
586.438	34.67
586.777	34.9
587.115	34.47
587.454	34.62
587.792	34.62
588.13	34.46
588.469	34.83
588.807	34.94
589.145	34.76
589.483	34.83
589.821	35.02
590.159	35
590.497	35
590.835	34.97
591.173	35.11
591.511	35.38
591.849	34.87
592.187	34.93
592.524	35.16
592.862	35.22
593.2	35.43
593.537	35.3
593.875	35.5
594.212	35.55
594.55	35.39
594.887	35.77
595.224	35.82
595.561	35.59
595.899	35.65
596.236	35.85
596.573	35.7
596.91	35.76
597.247	35.65
597.584	35.9
597.921	35.55
598.258	35.78
598.594	35.65
598.931	35.36
599.268	35.41
599.604	35.65
599.941	36.13
600.277	36.02
600.614	35.87
600.95	36.17
601.287	35.64
601.623	36.17
601.959	36.56
602.296	36.18
602.632	36.24
602.968	36.66
603.304	36.78
603.64	36.56
603.976	36.38
604.312	36.52
604.648	36.31
604.984	36.56
605.319	36.57
605.655	36.4
605.991	36.56
606.326	36.53
606.662	36.48
606.998	36.54
607.333	36.49
607.668	36.63
608.004	36.77
608.339	36.77
608.674	36.99
609.01	37.42
609.345	37.25
609.68	37.2
610.015	37.33
610.35	37.3
610.685	37.03
611.02	37.13
611.355	37.02
611.689	37.5
612.024	37.24
612.359	37.63
612.694	37.4
613.028	37.59
613.363	37.62
613.697	37.99
614.032	37.83
614.366	37.77
614.7	38.04
615.035	38.06
615.369	38.53
615.703	38.29
616.037	37.84
616.371	37.96
616.705	38.45
617.039	38.12
617.373	38.61
617.707	38.2
618.041	37.98
618.375	38.28
618.709	38.29
619.042	38.22
619.376	38.39
619.71	38.47
620.043	39.07
620.377	38.69
620.71	38.37
621.043	38.62
621.377	38.52
621.71	38.86
622.043	38.99
622.376	38.52
622.709	39.13
623.043	38.83
623.376	38.97
623.709	39.58
624.041	38.94
624.374	39.06
624.707	39.26
625.04	39.41
625.373	39.59
625.705	39.43
626.038	39.35
626.37	39.4
626.703	39.53
627.035	39.44
627.368	39.38
627.7	39.66
628.032	39.47
628.365	39.79
628.697	39.77
629.029	39.48
629.361	40.07
629.693	39.71
630.025	39.54
630.357	39.83
630.689	39.71
631.021	40.07
631.353	39.79
631.684	39.66
632.016	39.97
632.348	40.42
632.679	39.94
633.011	39.84
633.342	39.92
633.674	40.16
634.005	40.42
634.336	40.85
634.668	40.36
634.999	40.58
635.33	40.39
635.661	40.46
635.992	40.75
636.323	40.92
636.654	40.71
636.985	40.4
637.316	40.15
637.647	40.49
637.977	40.87
638.308	41.33
638.639	40.95
638.969	40.94
639.3	41.02
639.63	40.53
639.961	41.51
640.291	40.66
640.622	40.8
640.952	40.9
641.282	41.09
641.612	40.91
641.943	41.18
642.273	40.99
642.603	41.34
642.933	41.53
643.263	41.93
643.592	41.6
643.922	41.73
644.252	41.77
644.582	41.29
644.911	41.37
645.241	41.45
645.571	42.03
645.9	41.86
646.23	42.21
646.559	41.31
646.888	42.08
647.218	42.14
647.547	42.12
647.876	42
648.205	41.79
648.534	42.26
648.863	42.02
649.192	42.44
649.521	42.17
649.85	42.42
650.179	42.1
650.508	42.16
650.837	42.6
651.165	42.67
651.494	42.45
651.822	42.64
652.151	42.13
652.479	42.65
652.808	42.19
653.136	42.23
653.465	42.7
653.793	42.08
654.121	42.65
654.449	42.68
654.777	42.78
655.105	42.44
655.433	42.66
655.761	42.46
656.089	42.98
656.417	43.11
656.745	42.61
657.073	43.42
657.4	43.21
657.728	42.98
658.056	43.39
658.383	43.03
658.711	43.76
659.038	43.01
659.365	43.65
659.693	43.12
660.02	42.95
660.347	43.17
660.674	42.99
661.001	43.23
661.329	43.25
661.656	43.11
661.982	43.16
662.309	43.51
662.636	43.54
662.963	43.48
663.29	43.3
663.616	43.67
663.943	44.19
664.27	43.48
664.596	43.23
664.923	44.25
665.249	44.25
665.576	43.98
665.902	43.37
666.228	43.92
666.554	44.63
666.881	43.16
667.207	44.56
667.533	43.76
667.859	43.94
668.185	43.47
668.511	44.23
668.837	43.73
669.162	43.93
669.488	44.06
669.814	44.44
670.139	44.21
670.465	44.51
670.791	44.05
671.116	44.6
