Data from 0001_chest_Reflection__0__241.txt Node

Date: Thu Dec 15 18:41:33 CST 2022
User: ToomeyLab
Spectrometer: FLMS14357
Trigger mode: 0
Integration Time (sec): 1.000000E-2
Scans to average: 100
Electric dark correction enabled: true
Nonlinearity correction enabled: false
Boxcar width: 0
XAxis mode: Wavelengths
Number of Pixels in Spectrum: 2048
>>>>>Begin Spectral Data<<<<<
189.047	-46.4
189.435	-46.4
189.823	-46.4
190.211	11.73
190.599	-3.72
190.987	-1261.18
191.375	50.23
191.763	32.1
192.151	125.83
192.538	194.82
192.926	171.72
193.314	315.1
193.702	386.05
194.089	-503.68
194.477	-49.91
194.864	288.87
195.252	-218.19
195.639	43.1
196.027	201.3
196.414	245.66
196.801	77.12
197.189	61.57
197.576	-121.9
197.963	-7454.17
198.351	21
198.738	-59.93
199.125	-36.72
199.512	-35.12
199.899	-68.02
200.286	16.11
200.673	23.98
201.06	-10.21
201.447	55.54
201.833	-19.42
202.22	14.09
202.607	-1.54
202.994	10.23
203.38	6.57
203.767	13.71
204.154	-2.75
204.54	5.32
204.927	-8.78
205.313	7.89
205.699	-8.82
206.086	14.38
206.472	-2.34
206.858	-23.77
207.245	-44.48
207.631	-11.81
208.017	26.38
208.403	-76.44
208.789	24.61
209.175	-40.96
209.561	-70.47
209.947	-33.23
210.333	-26.74
210.719	36.04
211.105	56.23
211.491	0.78
211.876	-1.75
212.262	-21.82
212.648	28.43
213.034	-14
213.419	22.95
213.805	-13.48
214.19	-73.29
214.576	-1.96
214.961	11.53
215.346	-3.89
215.732	9.36
216.117	-24.7
216.502	-18.94
216.888	7.12
217.273	-4.86
217.658	-21.7
218.043	-27.25
218.428	-8.16
218.813	11.33
219.198	-44.4
219.583	-23.17
219.968	-13.32
220.353	-31.99
220.738	-2.34
221.122	6
221.507	-1.99
221.892	-15.66
222.276	-23.6
222.661	-22.12
223.046	-16.15
223.43	9.97
223.815	-8.6
224.199	-0.71
224.583	8.59
224.968	-6.36
225.352	-4.08
225.736	13.04
226.121	-5.13
226.505	-2.83
226.889	-2.9
227.273	-6.2
227.657	-0.06
228.041	3.35
228.425	1.77
228.809	3.97
229.193	5.31
229.577	3.93
229.961	5.56
230.344	6.05
230.728	6.01
231.112	5.78
231.495	2.73
231.879	4.27
232.263	5.3
232.646	3.58
233.03	6.28
233.413	5.84
233.797	5.83
234.18	5.5
234.563	5.73
234.946	4.31
235.33	5.54
235.713	5.23
236.096	5.9
236.479	5.37
236.862	5.28
237.245	3.1
237.628	5.37
238.011	4.86
238.394	3.85
238.777	4.89
239.16	6.38
239.543	6.58
239.925	4.24
240.308	4.63
240.691	5.64
241.073	5.09
241.456	5.12
241.838	4.96
242.221	6.1
242.603	6.18
242.986	5.56
243.368	6.07
243.75	5.26
244.133	5.95
244.515	5.6
244.897	5.77
245.279	6.11
245.661	5.78
246.043	5.51
246.425	4.75
246.807	6
247.189	5.07
247.571	5.27
247.953	5.27
248.335	5.48
248.717	5.61
249.098	5.57
249.48	5.32
249.862	5.71
250.243	5.95
250.625	5.67
251.006	6.22
251.388	4.96
251.769	4.91
252.151	5.15
252.532	4.68
252.913	5.74
253.295	5.35
253.676	5.73
254.057	5.35
254.438	5.68
254.819	4.38
255.2	6
255.581	5.33
255.962	4.74
256.343	5.42
256.724	5.3
257.105	5.53
257.486	3.94
257.867	4.27
258.247	5.17
258.628	5.31
259.009	4.22
259.389	4.3
259.77	4.3
260.15	6.05
260.531	5.05
260.911	5.02
261.292	5.28
261.672	5.22
262.052	5.28
262.432	5.13
262.813	5.12
263.193	4.89
263.573	5.6
263.953	4.75
264.333	5.18
264.713	5.53
265.093	5.22
265.473	4.07
265.853	5.02
266.233	4.85
266.612	4.63
266.992	5.26
267.372	5.14
267.752	4.8
268.131	4.89
268.511	4.87
268.89	5.69
269.27	4.29
269.649	5.14
270.029	5.05
270.408	4.79
270.787	4.99
271.167	5.43
271.546	5.64
271.925	5.26
272.304	4.8
272.683	4.58
273.062	4.78
273.441	4.51
273.82	5.18
274.199	4.85
274.578	5.24
274.957	5.09
275.336	4.89
275.715	5.15
276.093	4.32
276.472	4.27
276.851	4.85
277.229	4.59
277.608	4.83
277.986	4.61
278.365	4.65
278.743	4.76
279.122	4.37
279.5	5
279.878	4.6
280.257	4.93
280.635	4.93
281.013	4.47
281.391	4.7
281.769	5.44
282.147	4.73
282.525	4.66
282.903	4.4
283.281	4.97
283.659	5.18
284.037	4.58
284.415	4.62
284.792	4.89
285.17	4.55
285.548	4.39
285.925	4.47
286.303	5.29
286.68	4.73
287.058	4.85
287.435	4.77
287.813	4.83
288.19	4.53
288.567	4.83
288.945	4.7
289.322	4.85
289.699	5.19
290.076	4.93
290.453	4.59
290.83	4.8
291.207	4.74
291.584	4.89
291.961	4.72
292.338	5.04
292.715	4.79
293.092	5.07
293.469	4.9
293.845	5.09
294.222	5.54
294.599	4.88
294.975	4.32
295.352	4.94
295.728	4.88
296.105	4.71
296.481	5.21
296.858	4.85
297.234	4.81
297.61	4.54
297.986	5.3
298.363	5.15
298.739	5.38
299.115	5.28
299.491	5.22
299.867	4.91
300.243	4.9
300.619	4.47
300.995	4.8
301.371	5.48
301.746	5.16
302.122	4.73
302.498	4.84
302.874	4.84
303.249	5.08
303.625	4.58
304	5.43
304.376	5.51
304.751	4.95
305.127	4.99
305.502	4.85
305.878	5.51
306.253	4.61
306.628	5
307.003	4.95
307.378	4.94
307.754	4.91
308.129	4.98
308.504	5.01
308.879	4.93
309.254	5.33
309.629	5.14
310.003	4.87
310.378	5.26
310.753	5.21
311.128	5.12
311.502	5.18
311.877	4.95
312.252	5.24
312.626	5.18
313.001	5.23
313.375	5.35
313.75	5.28
314.124	5.31
314.498	5.47
314.873	4.83
315.247	5.03
315.621	5.04
315.995	5.36
316.369	5.14
316.743	4.85
317.117	5.31
317.491	5.12
317.865	5.06
318.239	5.39
318.613	5.13
318.987	4.96
319.361	5.06
319.734	4.99
320.108	5.16
320.482	5.3
320.855	5.04
321.229	5.28
321.602	5.36
321.976	5.02
322.349	5.92
322.723	5.25
323.096	4.91
323.469	4.95
323.843	5.06
324.216	5.26
324.589	5.65
324.962	4.7
325.335	4.93
325.708	5.19
326.081	5.33
326.454	5.07
326.827	5.07
327.2	4.8
327.573	5.63
327.945	4.83
328.318	5.33
328.691	5.28
329.063	5.04
329.436	4.94
329.809	5.47
330.181	5.78
330.553	5.77
330.926	5.32
331.298	4.89
331.671	5.44
332.043	4.96
332.415	5.32
332.787	5.06
333.159	4.51
333.532	5.53
333.904	5.16
334.276	5.43
334.648	5.38
335.02	5.24
335.391	5.05
335.763	5.65
336.135	5.5
336.507	5.53
336.879	5.28
337.25	5.31
337.622	5.05
337.993	5.16
338.365	5.24
338.736	5.25
339.108	5.34
339.479	5.42
339.851	5.5
340.222	5.94
340.593	5.21
340.964	5.34
341.336	4.85
341.707	5.14
342.078	4.87
342.449	5.29
342.82	5.28
343.191	5.02
343.562	5.74
343.933	4.92
344.303	5.33
344.674	5.19
345.045	5.2
345.416	5.42
345.786	5.33
346.157	5.38
346.527	5.38
346.898	5.15
347.268	5.68
347.639	5.02
348.009	5.47
348.38	5.43
348.75	5.4
349.12	5.34
349.49	5.61
349.861	5.63
350.231	5.41
350.601	5.37
350.971	5.53
351.341	5.59
351.711	5.01
352.081	5.01
352.45	4.86
352.82	4.99
353.19	5.53
353.56	5.49
353.929	5.24
354.299	5.63
354.669	5.44
355.038	5.45
355.408	5.18
355.777	5.56
356.147	5.33
356.516	5.23
356.885	5.15
357.254	5.24
357.624	4.93
357.993	5.4
358.362	5.39
358.731	5.65
359.1	5.43
359.469	5.56
359.838	5.09
360.207	5.3
360.576	5.47
360.945	5.62
361.314	5.41
361.682	5.26
362.051	5.16
362.42	5.61
362.788	5.4
363.157	5.39
363.525	5.43
363.894	5.24
364.262	5.41
364.631	5.63
364.999	5.51
365.367	5.33
365.735	5.53
366.104	5.36
366.472	5.44
366.84	5.58
367.208	5.69
367.576	5.38
367.944	5.64
368.312	5.5
368.68	5.84
369.048	5.37
369.416	5
369.783	5.37
370.151	5.67
370.519	5.7
370.886	5.49
371.254	5.5
371.621	5.72
371.989	5.68
372.356	5.7
372.724	5.24
373.091	5.26
373.458	5.33
373.826	5.68
374.193	5.55
374.56	5.53
374.927	5.4
375.294	5.54
375.661	5.83
376.028	5.59
376.395	5.56
376.762	5.47
377.129	5.39
377.496	5.48
377.863	5.76
378.229	5.81
378.596	5.48
378.963	5.61
379.329	5.42
379.696	5.41
380.062	5.68
380.429	5.51
380.795	5.77
381.161	5.06
381.528	5.31
381.894	5.39
382.26	5.54
382.626	5.53
382.993	5.7
383.359	5.29
383.725	5.24
384.091	5.52
384.457	5.15
384.823	5.68
385.188	5.55
385.554	5.32
385.92	5.38
386.286	5.31
386.651	5.5
387.017	5.84
387.383	5.35
387.748	5.81
388.114	5.51
388.479	5.32
388.845	5.52
389.21	5.64
389.575	5.62
389.94	5.76
390.306	5.72
390.671	5.78
391.036	5.46
391.401	5.58
391.766	5.68
392.131	5.77
392.496	5.67
392.861	5.49
393.226	5.37
393.591	5.78
393.956	5.46
394.32	5.88
394.685	5.6
395.05	5.71
395.414	5.55
395.779	5.64
396.143	5.53
396.508	5.51
396.872	5.65
397.236	5.78
397.601	5.7
397.965	5.63
398.329	5.65
398.694	5.38
399.058	5.67
399.422	5.62
399.786	5.52
400.15	5.49
400.514	5.63
400.878	5.57
401.242	5.72
401.605	5.55
401.969	5.37
402.333	5.61
402.697	5.96
403.06	5.87
403.424	5.86
403.787	5.72
404.151	5.47
404.514	5.69
404.878	5.56
405.241	5.58
405.604	5.65
405.968	5.73
406.331	5.72
406.694	5.61
407.057	5.61
407.42	5.65
407.783	5.74
408.146	5.73
408.509	5.65
408.872	5.59
409.235	5.63
409.598	5.5
409.961	5.67
410.323	5.78
410.686	5.56
411.049	5.52
411.411	5.68
411.774	5.77
412.136	5.78
412.499	5.96
412.861	5.59
413.223	5.61
413.586	5.71
413.948	5.94
414.31	5.78
414.672	5.59
415.035	5.81
415.397	5.57
415.759	5.53
416.121	5.95
416.483	5.7
416.845	5.68
417.206	5.69
417.568	5.47
417.93	5.75
418.292	5.66
418.653	5.49
419.015	5.71
419.377	5.69
419.738	5.76
420.1	5.75
420.461	5.57
420.822	5.7
421.184	5.79
421.545	5.63
421.906	5.62
422.267	5.68
422.629	5.6
422.99	5.65
423.351	5.66
423.712	5.69
424.073	5.63
424.434	5.68
424.795	5.7
425.155	5.57
425.516	5.66
425.877	5.66
426.238	5.71
426.598	5.74
426.959	5.69
427.32	5.72
427.68	5.79
428.041	5.74
428.401	5.67
428.761	5.77
429.122	5.69
429.482	5.7
429.842	5.78
430.202	5.89
430.563	5.83
430.923	5.87
431.283	5.86
431.643	5.95
432.003	5.86
432.363	5.87
432.722	5.86
433.082	5.85
433.442	5.87
433.802	5.71
434.161	5.91
434.521	5.77
434.881	5.81
435.24	5.76
435.6	5.85
435.959	5.9
436.319	5.85
436.678	5.93
437.037	5.77
437.396	5.88
437.756	5.67
438.115	6
438.474	5.77
438.833	5.87
439.192	5.82
439.551	5.76
439.91	5.83
440.269	5.74
440.628	5.74
440.987	5.89
441.345	5.86
441.704	5.9
442.063	5.83
442.421	5.8
442.78	5.82
443.138	5.72
443.497	5.83
443.855	6.04
444.214	5.65
444.572	5.87
444.93	5.91
445.288	5.81
445.647	5.8
446.005	5.94
446.363	5.85
446.721	5.86
447.079	5.74
447.437	5.87
447.795	5.78
448.153	5.73
448.51	5.82
448.868	5.78
449.226	5.82
449.584	5.8
449.941	5.84
450.299	5.85
450.656	5.89
451.014	5.92
451.371	5.89
451.729	5.96
452.086	6
452.443	5.95
452.801	6.04
453.158	6.07
453.515	5.93
453.872	5.93
454.229	5.83
454.586	5.9
454.943	5.94
455.3	5.98
455.657	5.86
456.014	5.91
456.371	5.99
456.727	6.05
457.084	5.95
457.441	5.9
457.797	5.91
458.154	5.85
458.51	5.9
458.867	5.93
459.223	5.96
459.58	6.1
459.936	5.79
460.292	5.92
460.648	5.9
461.005	5.91
461.361	5.9
461.717	5.89
462.073	5.96
462.429	5.95
462.785	6.09
463.141	5.87
463.496	5.92
463.852	6.24
464.208	6.07
464.564	5.98
464.919	5.89
465.275	6.09
465.631	6.33
465.986	6.1
466.342	5.94
466.697	5.96
467.052	6.19
467.408	6.13
467.763	6.06
468.118	5.97
468.473	6.15
468.829	6.04
469.184	6.17
469.539	5.94
469.894	6.17
470.249	6.16
470.603	6.18
470.958	6.2
471.313	6.17
471.668	6.2
472.023	6.2
472.377	6.12
472.732	6.27
473.086	6.09
473.441	6
473.795	6.18
474.15	6.06
474.504	6.27
474.859	5.97
475.213	6.22
475.567	6.05
475.921	5.98
476.275	6.11
476.63	6.26
476.984	6.14
477.338	6.27
477.692	6.13
478.045	6.03
478.399	6.29
478.753	6.15
479.107	6.26
479.461	6.08
479.814	6.08
480.168	6.14
480.521	6.29
480.875	6.17
481.228	6.24
481.582	6.24
481.935	6.37
482.289	6.25
482.642	6.31
482.995	6.13
483.348	6.17
483.701	6.2
484.055	6.19
484.408	6.04
484.761	6
485.114	5.87
485.466	5.9
485.819	5.88
486.172	5.95
486.525	5.97
486.878	6.01
487.23	6.05
487.583	6.09
487.936	6.09
488.288	6.04
488.641	6.06
488.993	6.05
489.345	5.99
489.698	6.02
490.05	5.99
490.402	6.06
490.754	6.1
491.107	6.13
491.459	6.22
491.811	6.16
492.163	6.21
492.515	6.11
492.866	6.11
493.218	6.06
493.57	6.15
493.922	6.09
494.274	6.19
494.625	6.28
494.977	6.27
495.328	6.37
495.68	6.27
496.031	6.38
496.383	6.32
496.734	6.33
497.086	6.42
497.437	6.44
497.788	6.46
498.139	6.39
498.49	6.38
498.842	6.45
499.193	6.25
499.544	6.37
499.894	6.36
500.245	6.49
500.596	6.51
500.947	6.39
501.298	6.37
501.648	6.4
501.999	6.47
502.35	6.38
502.7	6.54
503.051	6.43
503.401	6.55
503.752	6.43
504.102	6.4
504.452	6.46
504.803	6.43
505.153	6.72
505.503	6.55
505.853	6.67
506.203	6.61
506.553	6.68
506.903	6.6
507.253	6.59
507.603	6.58
507.953	6.59
508.303	6.72
508.652	6.4
509.002	6.74
509.352	6.63
509.701	6.51
510.051	6.6
510.4	6.72
510.75	6.62
511.099	6.55
511.449	6.69
511.798	6.59
512.147	6.74
512.496	6.72
512.846	6.69
513.195	6.73
513.544	6.66
513.893	6.74
514.242	6.65
514.591	6.62
514.939	6.74
515.288	6.74
515.637	6.63
515.986	6.78
516.334	6.82
516.683	6.76
517.032	6.78
517.38	6.78
517.729	6.71
518.077	6.82
518.426	6.89
518.774	6.82
519.122	6.83
519.47	6.88
519.819	6.82
520.167	6.82
520.515	6.84
520.863	6.79
521.211	6.8
521.559	6.73
521.907	6.87
522.255	6.88
522.602	6.96
522.95	6.97
523.298	6.94
523.645	6.86
523.993	6.97
524.341	6.95
524.688	7.03
525.036	7
525.383	6.98
525.73	6.78
526.078	7.07
526.425	6.9
526.772	7.05
527.119	6.97
527.466	7.05
527.814	7.01
528.161	7.04
528.508	7.11
528.854	6.95
529.201	6.99
529.548	6.92
529.895	6.87
530.242	6.86
530.588	6.91
530.935	6.89
531.282	6.91
531.628	6.97
531.975	7.02
532.321	7.13
532.667	7.13
533.014	7.16
533.36	7.15
533.706	7.3
534.052	7.2
534.399	7.08
534.745	7.06
535.091	7.13
535.437	7.2
535.783	7.15
536.129	7.14
536.474	7.3
536.82	7.4
537.166	7.31
537.512	7.38
537.857	7.36
538.203	7.35
538.549	7.31
538.894	7.41
539.239	7.49
539.585	7.44
539.93	7.43
540.276	7.51
540.621	7.54
540.966	7.56
541.311	7.63
541.656	7.54
542.001	7.54
542.346	7.54
542.691	7.43
543.036	7.46
543.381	7.47
543.726	7.53
544.071	7.47
544.415	7.6
544.76	7.56
545.105	7.53
545.449	7.65
545.794	7.64
546.138	7.69
546.483	7.8
546.827	7.77
547.171	7.82
547.516	7.81
547.86	7.88
548.204	7.8
548.548	7.93
548.892	7.86
549.236	7.91
549.58	7.98
549.924	7.98
550.268	8.18
550.612	8.22
550.956	7.99
551.3	8.44
551.643	8.15
551.987	8.19
552.33	8.35
552.674	8.34
553.017	8.26
553.361	8.36
553.704	8.4
554.048	8.15
554.391	8.35
554.734	8.33
555.077	8.33
555.42	8.22
555.764	8.34
556.107	8.39
556.45	8.33
556.793	8.5
557.135	8.46
557.478	8.43
557.821	8.43
558.164	8.36
558.507	8.35
558.849	8.69
559.192	8.47
559.534	8.68
559.877	8.53
560.219	8.68
560.562	8.59
560.904	8.72
561.246	8.64
561.589	8.96
561.931	8.94
562.273	8.79
562.615	8.77
562.957	8.82
563.299	8.88
563.641	8.86
563.983	8.77
564.325	8.93
564.667	8.89
565.008	8.73
565.35	8.95
565.692	9.08
566.033	8.85
566.375	9.15
566.716	8.98
567.058	9.06
567.399	9.12
567.741	9.28
568.082	9.17
568.423	9.07
568.764	9.08
569.105	9.07
569.447	9.22
569.788	9.11
570.129	9.11
570.47	9.19
570.811	9.32
571.151	9.31
571.492	9.51
571.833	9.54
572.174	9.5
572.514	9.56
572.855	9.69
573.195	9.38
573.536	9.76
573.876	9.64
574.217	9.52
574.557	9.54
574.898	9.5
575.238	9.75
575.578	9.66
575.918	9.72
576.258	9.81
576.598	9.61
576.938	9.84
577.278	9.91
577.618	9.81
577.958	9.91
578.298	9.89
578.638	9.98
578.977	10.05
579.317	10.07
579.657	10.12
579.996	10.13
580.336	10.36
580.675	10.19
581.014	10.26
581.354	10.14
581.693	10.24
582.032	10.3
582.372	10.41
582.711	10.35
583.05	10.41
583.389	10.54
583.728	10.62
584.067	10.34
584.406	10.52
584.745	10.49
585.083	10.53
585.422	10.54
585.761	10.46
586.1	10.87
586.438	10.73
586.777	10.84
587.115	10.75
587.454	10.49
587.792	10.9
588.13	10.98
588.469	10.77
588.807	11.14
589.145	11.15
589.483	11.01
589.821	11.14
590.159	10.89
590.497	11.13
590.835	10.95
591.173	11.21
591.511	11.29
591.849	11.4
592.187	11.02
592.524	11.44
592.862	11.36
593.2	11.25
593.537	11.28
593.875	11.33
594.212	11.53
594.55	11.49
594.887	11.79
595.224	11.63
595.561	11.43
595.899	11.74
596.236	11.65
596.573	11.59
596.91	11.57
597.247	11.93
597.584	11.81
597.921	11.85
598.258	11.93
598.594	11.77
598.931	11.48
599.268	11.73
599.604	11.92
599.941	12.05
600.277	12.14
600.614	11.74
600.95	12.03
601.287	12.01
601.623	12.07
601.959	12.21
602.296	12.34
602.632	12.23
602.968	12.34
603.304	12.4
603.64	12.38
603.976	12.48
604.312	12.62
604.648	12.32
604.984	12.44
605.319	12.47
605.655	12.42
605.991	12.52
606.326	12.42
606.662	12.53
606.998	12.6
607.333	12.56
607.668	12.61
608.004	12.64
608.339	12.64
608.674	12.99
609.01	12.96
609.345	12.86
609.68	12.82
610.015	13.2
610.35	13.07
610.685	12.92
611.02	12.87
611.355	13.03
611.689	13.16
612.024	13.2
612.359	13.1
612.694	13.27
613.028	13.29
613.363	13.24
613.697	13.3
614.032	13.29
614.366	13.35
614.7	13.41
615.035	13.48
615.369	13.66
615.703	13.76
616.037	13.51
616.371	13.48
616.705	13.68
617.039	13.92
617.373	14.07
617.707	13.78
618.041	13.74
618.375	13.73
618.709	14.04
619.042	13.8
619.376	14
619.71	13.87
620.043	14.63
620.377	14
620.71	13.87
621.043	14.5
621.377	13.99
621.71	14.47
622.043	14.29
622.376	14.25
622.709	14.51
623.043	14.19
623.376	14.42
623.709	14.97
624.041	14.44
624.374	14.28
624.707	14.62
625.04	14.46
625.373	14.72
625.705	15.03
626.038	14.79
626.37	14.88
626.703	14.79
627.035	14.83
627.368	15.22
627.7	14.73
628.032	14.63
628.365	15.1
628.697	15.08
629.029	15.06
629.361	15.14
629.693	15.17
630.025	15.22
630.357	15.36
630.689	15.52
631.021	15.42
631.353	15.59
631.684	15.28
632.016	15.18
632.348	15.29
632.679	15.52
633.011	15.39
633.342	15.39
633.674	15.29
634.005	15.5
634.336	15.55
634.668	15.7
634.999	15.74
635.33	15.89
635.661	15.76
635.992	16.1
636.323	16.04
636.654	16.12
636.985	16.04
637.316	15.86
637.647	16.19
637.977	16.13
638.308	16.23
638.639	16.23
638.969	16.19
639.3	16.06
639.63	16.15
639.961	16.76
640.291	15.89
640.622	16.54
640.952	16.54
641.282	16.29
641.612	16.51
641.943	16.27
642.273	16.34
642.603	16.87
642.933	17.1
643.263	16.77
643.592	16.57
643.922	17.14
644.252	16.97
644.582	17.01
644.911	16.76
645.241	16.71
645.571	16.92
645.9	17.39
646.23	16.91
646.559	17.04
646.888	17.38
647.218	17.14
647.547	17.16
647.876	17.15
648.205	16.88
648.534	17.31
648.863	17.33
649.192	17.25
649.521	17.49
649.85	17.78
650.179	17.82
650.508	17.24
650.837	18.05
651.165	17.56
651.494	17.63
651.822	17.57
652.151	17.78
652.479	17.88
652.808	17.81
653.136	17.79
653.465	17.73
653.793	17.77
654.121	18
654.449	17.83
654.777	17.83
655.105	17.69
655.433	18.21
655.761	18.08
656.089	18.06
656.417	18.48
656.745	18.52
657.073	18.3
657.4	18.58
657.728	18.28
658.056	17.94
658.383	18.11
658.711	18.53
659.038	18.57
659.365	18.51
659.693	18.47
660.02	18.69
660.347	18.59
660.674	18.73
661.001	18.81
661.329	18.7
661.656	18.39
661.982	18.4
662.309	18.98
662.636	18.63
662.963	18.6
663.29	19.06
663.616	18.66
663.943	19.13
664.27	18.76
664.596	18.95
664.923	19.24
665.249	19.38
665.576	19.42
665.902	19.08
666.228	19.29
666.554	19.89
666.881	18.75
667.207	19.64
667.533	19.09
667.859	19.15
668.185	19.35
668.511	19.54
668.837	19.58
669.162	19.55
669.488	19.46
669.814	19.64
670.139	19.59
670.465	20.03
670.791	19.46
671.116	19.94
671.442	19.23
671.767	20.18
672.092	20.3
672.418	20.41
672.743	19.71
673.068	19.82
673.393	20.22
673.718	19.34
674.043	20.31
674.368	20.12
674.693	19.99
675.018	20.88
675.343	20.58
675.667	20.21
675.992	20.4
676.317	20.12
676.641	20.68
676.966	20.86
677.29	20.47
677.615	20.51
677.939	20.68
678.264	19.84
678.588	20.27
678.912	20.41
679.236	20.23
679.56	20.16
679.885	20.78
680.209	20.77
680.532	21.06
680.856	20.85
681.18	21.93
681.504	20.93
681.828	21.35
682.152	21.09
682.475	21.18
682.799	20.68
683.122	21.19
683.446	20.62
683.769	21.52
684.093	21.81
684.416	21
684.739	21.36
