Data from 20-7_crown_Reflection__3__23.txt Node

Date: Fri Nov 11 20:22:38 CST 2022
User: ToomeyLab
Spectrometer: FLMS14357
Trigger mode: 0
Integration Time (sec): 1.000000E-2
Scans to average: 100
Electric dark correction enabled: true
Nonlinearity correction enabled: false
Boxcar width: 0
XAxis mode: Wavelengths
Number of Pixels in Spectrum: 2048
>>>>>Begin Spectral Data<<<<<
189.047	83.13
189.435	83.13
189.823	83.13
190.211	37.93
190.599	-61.06
190.987	134.61
191.375	1917.28
191.763	109.58
192.151	187.15
192.538	-2.69
192.926	10.03
193.314	82.68
193.702	11
194.089	-1458.49
194.477	67.89
194.864	197.96
195.252	253.07
195.639	53.22
196.027	69.24
196.414	-16.36
196.801	360.97
197.189	-89.95
197.576	-69.14
197.963	-1549.22
198.351	-144.86
198.738	-46.51
199.125	-22.23
199.512	23.88
199.899	-26.82
200.286	-29.87
200.673	6.18
201.06	20.91
201.447	0.59
201.833	16.96
202.22	-43.81
202.607	3.52
202.994	30.8
203.38	44.16
203.767	47.96
204.154	47.03
204.54	3.87
204.927	15.96
205.313	-0.02
205.699	-16.86
206.086	15.8
206.472	16.28
206.858	89.05
207.245	27.02
207.631	2.97
208.017	12.68
208.403	-6.7
208.789	29.4
209.175	14.67
209.561	42.69
209.947	-16.96
210.333	12.47
210.719	-0.02
211.105	42.92
211.491	24.16
211.876	7.72
212.262	32.42
212.648	-3.82
213.034	-0.69
213.419	-18.24
213.805	5.55
214.19	4.66
214.576	21.82
214.961	-35.62
215.346	15.78
215.732	-16.51
216.117	24.57
216.502	7.39
216.888	13.76
217.273	14.93
217.658	-14.88
218.043	3.08
218.428	-7.65
218.813	10.74
219.198	7.81
219.583	15.52
219.968	10.55
220.353	-15.56
220.738	-3.4
221.122	-9.63
221.507	-4
221.892	0.11
222.276	4.16
222.661	10.21
223.046	2.64
223.43	6.59
223.815	-1.02
224.199	8.4
224.583	4.47
224.968	-14.68
225.352	3.12
225.736	6.14
226.121	1.02
226.505	6.39
226.889	-1.77
227.273	5.37
227.657	-3.63
228.041	-4.41
228.425	0.16
228.809	1.49
229.193	5.86
229.577	3.08
229.961	1.91
230.344	1.93
230.728	0.07
231.112	0.72
231.495	1.71
231.879	0
232.263	3
232.646	-0.12
233.03	2.59
233.413	1.05
233.797	1.2
234.18	-0.57
234.563	1.22
234.946	0.12
235.33	0.7
235.713	1.87
236.096	0.81
236.479	1.5
236.862	4.18
237.245	1.47
237.628	3.49
238.011	0.96
238.394	1.12
238.777	1.57
239.16	2.92
239.543	1.43
239.925	1.47
240.308	2.63
240.691	2.54
241.073	1.53
241.456	0.21
241.838	2.4
242.221	0.86
242.603	1.66
242.986	1.74
243.368	1.85
243.75	1.37
244.133	1.5
244.515	1.17
244.897	1.82
245.279	1.04
245.661	1.15
246.043	1.32
246.425	2.58
246.807	1.21
247.189	1.21
247.571	1.21
247.953	1.45
248.335	1.19
248.717	1.52
249.098	1.69
249.48	0.93
249.862	1.67
250.243	1.13
250.625	1.79
251.006	2.01
251.388	1.68
251.769	2.3
252.151	2.58
252.532	1.42
252.913	2.03
253.295	1.81
253.676	0.25
254.057	1.19
254.438	1.24
254.819	1.14
255.2	2.71
255.581	0.82
255.962	1.25
256.343	0.94
256.724	0.62
257.105	1.47
257.486	1.31
257.867	2.26
258.247	0.38
258.628	1.87
259.009	1.5
259.389	1.6
259.77	1.95
260.15	1.58
260.531	1.49
260.911	0.99
261.292	1.54
261.672	1.1
262.052	1.27
262.432	1.36
262.813	1.35
263.193	1.12
263.573	1.07
263.953	1.55
264.333	1.82
264.713	1.41
265.093	1.77
265.473	0.93
265.853	1.83
266.233	0.96
266.612	1.1
266.992	1.67
267.372	2.42
267.752	1.49
268.131	1.08
268.511	1.04
268.89	1.25
269.27	1.4
269.649	1.46
270.029	2.04
270.408	1.44
270.787	1.6
271.167	0.65
271.546	1.36
271.925	1.63
272.304	1.87
272.683	1.25
273.062	0.77
273.441	1.53
273.82	1.44
274.199	1.1
274.578	1.1
274.957	1.5
275.336	1.7
275.715	1.26
276.093	0.79
276.472	1.36
276.851	1.38
277.229	1.25
277.608	1.45
277.986	1.88
278.365	1.1
278.743	1.22
279.122	2.28
279.5	1.17
279.878	1.17
280.257	1.3
280.635	1.09
281.013	1.38
281.391	1.51
281.769	1.05
282.147	1.21
282.525	0.28
282.903	1.55
283.281	1.34
283.659	1.26
284.037	1.38
284.415	1.28
284.792	1.4
285.17	1.55
285.548	1.2
285.925	1.15
286.303	1.42
286.68	1.44
287.058	1.41
287.435	1.1
287.813	1.35
288.19	0.93
288.567	0.91
288.945	1.64
289.322	1.45
289.699	0.86
290.076	1.54
290.453	1.33
290.83	1.32
291.207	0.99
291.584	1.11
291.961	1.63
292.338	1.1
292.715	1.53
293.092	1.69
293.469	0.85
293.845	1.4
294.222	1.15
294.599	1.83
294.975	1.34
295.352	1.76
295.728	1.24
296.105	1.39
296.481	0.75
296.858	0.89
297.234	1.54
297.61	0.93
297.986	1.4
298.363	1.26
298.739	1.13
299.115	1.28
299.491	1.32
299.867	1.02
300.243	1.34
300.619	1.32
300.995	1.21
301.371	1.57
301.746	1.94
302.122	1.39
302.498	1.64
302.874	1.14
303.249	1.17
303.625	0.94
304	0.93
304.376	1.34
304.751	0.92
305.127	1.02
305.502	1.72
305.878	2.03
306.253	1.55
306.628	1.6
307.003	1.74
307.378	1.63
307.754	1.66
308.129	1.41
308.504	1.25
308.879	1.28
309.254	1.47
309.629	0.68
310.003	1.57
310.378	1.54
310.753	1.81
311.128	1.69
311.502	1.38
311.877	1.31
312.252	1.64
312.626	1.16
313.001	1.29
313.375	1.26
313.75	1.52
314.124	1.1
314.498	1.37
314.873	1.31
315.247	2.08
315.621	1.56
315.995	2.03
316.369	1.54
316.743	1.25
317.117	1.8
317.491	1.44
317.865	0.82
318.239	1.02
318.613	1.7
318.987	1.5
319.361	0.99
319.734	1.58
320.108	1.5
320.482	2.11
320.855	1.59
321.229	1.18
321.602	1.29
321.976	1.55
322.349	2.04
322.723	1.71
323.096	1.39
323.469	1.75
323.843	1.8
324.216	1.11
324.589	1.97
324.962	1.96
325.335	1.63
325.708	1.49
326.081	1.43
326.454	1.41
326.827	1.25
327.2	1.9
327.573	2.12
327.945	1.23
328.318	1.38
328.691	1.91
329.063	1.88
329.436	1.69
329.809	1.24
330.181	1.14
330.553	1.27
330.926	1.7
331.298	1.86
331.671	1.61
332.043	0.74
332.415	1.26
332.787	1.89
333.159	1.6
333.532	1.68
333.904	1.98
334.276	1.43
334.648	1.24
335.02	1.07
335.391	1.73
335.763	1.46
336.135	1.2
336.507	1.49
336.879	1.7
337.25	1.56
337.622	1.59
337.993	1.99
338.365	1.99
338.736	1.39
339.108	2.08
339.479	1.87
339.851	1.78
340.222	1.6
340.593	1.71
340.964	1.61
341.336	1.66
341.707	1.43
342.078	1.08
342.449	1.52
342.82	1.75
343.191	2.02
343.562	1.26
343.933	1.31
344.303	1.69
344.674	1.29
345.045	1.51
345.416	1.72
345.786	1.38
346.157	1.12
346.527	1.75
346.898	0.93
347.268	1.47
347.639	1.41
348.009	1.52
348.38	2.07
348.75	1.64
349.12	2.5
349.49	2.03
349.861	1.28
350.231	1.53
350.601	1.35
350.971	1.89
351.341	1.8
351.711	1.77
352.081	1.55
352.45	1.57
352.82	1.38
353.19	1.67
353.56	1.39
353.929	1.67
354.299	1.82
354.669	1.69
355.038	1.69
355.408	1.34
355.777	1.75
356.147	1.66
356.516	1.53
356.885	1.89
357.254	1.46
357.624	1.24
357.993	1.83
358.362	1.71
358.731	1.19
359.1	1.71
359.469	1.01
359.838	1.65
360.207	1.69
360.576	1.94
360.945	1.99
361.314	1.43
361.682	1.52
362.051	1.52
362.42	1.39
362.788	1.72
363.157	1.61
363.525	1.45
363.894	1.37
364.262	1.87
364.631	1.88
364.999	1.75
365.367	1.62
365.735	1.69
366.104	1.46
366.472	1.62
366.84	1.16
367.208	1.5
367.576	1.74
367.944	1.87
368.312	1.47
368.68	1.55
369.048	1.83
369.416	1.82
369.783	1.85
370.151	1.59
370.519	1.68
370.886	1.76
371.254	1.72
371.621	1.66
371.989	1.46
372.356	1.92
372.724	2.22
373.091	1.71
373.458	1.62
373.826	1.26
374.193	1.49
374.56	1.81
374.927	1.46
375.294	1.5
375.661	1.68
376.028	1.4
376.395	1.82
376.762	1.75
377.129	1.61
377.496	1.68
377.863	1.8
378.229	1.51
378.596	1.6
378.963	1.77
379.329	1.85
379.696	1.69
380.062	1.75
380.429	1.83
380.795	1.63
381.161	1.99
381.528	1.73
381.894	2.04
382.26	1.83
382.626	1.85
382.993	1.55
383.359	1.72
383.725	1.58
384.091	1.91
384.457	1.87
384.823	1.65
385.188	1.8
385.554	1.61
385.92	1.51
386.286	1.73
386.651	1.68
387.017	1.87
387.383	1.96
387.748	1.85
388.114	1.72
388.479	1.51
388.845	1.58
389.21	1.58
389.575	1.91
389.94	1.59
390.306	1.49
390.671	1.79
391.036	1.95
391.401	1.72
391.766	1.68
392.131	1.76
392.496	2.01
392.861	1.69
393.226	1.54
393.591	1.65
393.956	1.68
394.32	1.81
394.685	1.8
395.05	2.07
395.414	1.56
395.779	1.77
396.143	1.66
396.508	2.03
396.872	1.79
397.236	1.55
397.601	1.78
397.965	1.72
398.329	1.85
398.694	1.88
399.058	1.7
399.422	1.78
399.786	1.7
400.15	1.62
400.514	1.83
400.878	1.76
401.242	1.84
401.605	1.75
401.969	1.82
402.333	1.59
402.697	1.89
403.06	1.94
403.424	1.71
403.787	1.79
404.151	1.81
404.514	1.64
404.878	1.71
405.241	1.66
405.604	1.7
405.968	1.92
406.331	1.52
406.694	1.7
407.057	1.74
407.42	1.91
407.783	1.76
408.146	1.86
408.509	1.88
408.872	1.86
409.235	1.95
409.598	1.89
409.961	1.8
410.323	1.68
410.686	1.94
411.049	1.65
411.411	1.79
411.774	1.75
412.136	1.74
412.499	1.87
412.861	1.82
413.223	1.67
413.586	1.6
413.948	2.18
414.31	1.78
414.672	1.84
415.035	1.78
415.397	1.72
415.759	1.7
416.121	1.65
416.483	1.71
416.845	1.84
417.206	1.98
417.568	1.7
417.93	1.69
418.292	1.69
418.653	1.9
419.015	1.84
419.377	1.74
419.738	1.8
420.1	1.72
420.461	1.91
420.822	1.8
421.184	1.69
421.545	1.78
421.906	1.72
422.267	1.7
422.629	1.67
422.99	1.74
423.351	1.66
423.712	1.84
424.073	1.85
424.434	1.7
424.795	1.8
425.155	1.77
425.516	1.81
425.877	1.76
426.238	1.78
426.598	1.66
426.959	1.74
427.32	1.78
427.68	1.84
428.041	1.88
428.401	1.64
428.761	1.81
429.122	1.62
429.482	1.87
429.842	1.96
430.202	1.76
430.563	1.96
430.923	1.7
431.283	1.62
431.643	1.71
432.003	1.77
432.363	1.8
432.722	1.96
433.082	1.86
433.442	1.83
433.802	1.87
434.161	1.74
434.521	1.75
434.881	1.87
435.24	1.82
435.6	1.8
435.959	1.75
436.319	1.72
436.678	1.87
437.037	1.85
437.396	1.96
437.756	1.76
438.115	1.71
438.474	1.73
438.833	1.77
439.192	1.89
439.551	1.72
439.91	1.76
440.269	1.73
440.628	1.89
440.987	1.84
441.345	1.78
441.704	1.84
442.063	1.74
442.421	1.77
442.78	1.74
443.138	1.9
443.497	1.72
443.855	1.73
444.214	1.68
444.572	1.92
444.93	1.69
445.288	1.79
445.647	1.95
446.005	1.87
446.363	1.87
446.721	1.94
447.079	1.92
447.437	1.79
447.795	1.77
448.153	1.81
448.51	1.8
448.868	1.89
449.226	1.81
449.584	1.84
449.941	1.86
450.299	1.65
450.656	1.86
451.014	1.9
451.371	1.87
451.729	1.8
452.086	1.94
452.443	1.78
452.801	1.87
453.158	1.71
453.515	1.87
453.872	1.73
454.229	1.94
454.586	1.69
454.943	1.89
455.3	1.98
455.657	1.89
456.014	2.03
456.371	1.84
456.727	1.93
457.084	1.65
457.441	1.99
457.797	1.97
458.154	1.71
458.51	1.86
458.867	1.8
459.223	1.86
459.58	1.8
459.936	1.88
460.292	1.84
460.648	1.94
461.005	1.8
461.361	1.76
461.717	1.79
462.073	1.84
462.429	1.8
462.785	1.81
463.141	1.8
463.496	1.86
463.852	1.89
464.208	1.95
464.564	1.89
464.919	1.81
465.275	1.74
465.631	2.11
465.986	2.16
466.342	1.94
466.697	1.76
467.052	1.76
467.408	1.87
467.763	1.74
468.118	1.8
468.473	1.84
468.829	1.88
469.184	1.91
469.539	1.92
469.894	1.89
470.249	1.88
470.603	1.77
470.958	1.84
471.313	1.97
471.668	1.95
472.023	1.78
472.377	1.86
472.732	1.89
473.086	1.8
473.441	1.76
473.795	1.82
474.15	2
474.504	1.99
474.859	1.89
475.213	2.04
475.567	1.82
475.921	1.92
476.275	1.9
476.63	1.93
476.984	2
477.338	1.99
477.692	1.81
478.045	1.87
478.399	2.08
478.753	1.77
479.107	1.85
479.461	1.88
479.814	1.86
480.168	1.87
480.521	1.96
480.875	1.93
481.228	1.88
481.582	1.86
481.935	1.77
482.289	1.71
482.642	1.88
482.995	1.83
483.348	1.84
483.701	1.94
484.055	1.84
484.408	1.81
484.761	1.81
485.114	1.71
485.466	1.7
485.819	1.69
486.172	1.72
486.525	1.79
486.878	1.79
487.23	1.77
487.583	1.76
487.936	1.85
488.288	1.86
488.641	1.77
488.993	1.84
489.345	1.73
489.698	1.78
490.05	1.8
490.402	1.78
490.754	1.9
491.107	1.74
491.459	1.83
491.811	1.81
492.163	1.88
492.515	1.87
492.866	1.83
493.218	1.78
493.57	1.79
493.922	1.78
494.274	1.86
494.625	1.83
494.977	1.92
495.328	1.86
495.68	1.89
496.031	1.97
496.383	2.04
496.734	1.86
497.086	2.03
497.437	1.95
497.788	1.84
498.139	1.94
498.49	1.84
498.842	1.78
499.193	1.94
499.544	1.87
499.894	1.85
500.245	1.91
500.596	1.98
500.947	1.86
501.298	1.76
501.648	1.89
501.999	1.94
502.35	2.03
502.7	1.93
503.051	1.88
503.401	1.84
503.752	1.71
504.102	1.8
504.452	1.93
504.803	1.67
505.153	1.86
505.503	2.02
505.853	1.94
506.203	1.96
506.553	1.85
506.903	1.86
507.253	1.9
507.603	1.91
507.953	1.88
508.303	1.8
508.652	1.83
509.002	1.87
509.352	1.83
509.701	1.93
510.051	1.87
510.4	1.88
510.75	1.82
511.099	1.8
511.449	1.86
511.798	1.85
512.147	1.86
512.496	1.8
512.846	2.02
513.195	1.95
513.544	1.86
513.893	1.78
514.242	1.8
514.591	1.97
514.939	1.87
515.288	1.87
515.637	1.93
515.986	1.88
516.334	1.91
516.683	1.9
517.032	1.88
517.38	1.9
517.729	1.91
518.077	1.92
518.426	2.01
518.774	1.9
519.122	2.03
519.47	1.94
519.819	1.87
520.167	1.77
520.515	1.83
520.863	1.88
521.211	1.82
521.559	1.8
521.907	1.91
522.255	1.91
522.602	1.79
522.95	1.87
523.298	1.99
523.645	1.95
523.993	1.94
524.341	1.99
524.688	1.95
525.036	2
525.383	1.96
525.73	1.93
526.078	1.81
526.425	1.92
526.772	1.96
527.119	1.8
527.466	1.83
527.814	1.93
528.161	1.96
528.508	1.84
528.854	1.85
529.201	1.8
529.548	1.83
529.895	1.79
530.242	1.73
530.588	1.73
530.935	1.77
531.282	1.77
531.628	1.86
531.975	1.8
532.321	1.76
532.667	1.85
533.014	1.79
533.36	1.91
533.706	1.95
534.052	1.84
534.399	1.81
534.745	1.83
535.091	1.83
535.437	1.81
535.783	1.81
536.129	1.88
536.474	1.94
536.82	1.87
537.166	1.86
537.512	1.82
537.857	1.84
538.203	1.84
538.549	1.97
538.894	1.86
539.239	1.82
539.585	1.91
539.93	1.85
540.276	1.96
540.621	1.9
540.966	1.9
541.311	1.85
541.656	1.97
542.001	1.87
542.346	1.87
542.691	1.85
543.036	1.74
543.381	1.83
543.726	1.75
544.071	1.82
544.415	1.89
544.76	1.86
545.105	1.81
545.449	1.7
545.794	1.95
546.138	1.91
546.483	1.86
546.827	1.92
547.171	1.94
547.516	1.78
547.86	1.8
548.204	1.93
548.548	1.81
548.892	1.9
549.236	1.83
549.58	2
549.924	1.97
550.268	1.92
550.612	1.9
550.956	2.05
551.3	2.02
551.643	1.93
551.987	2.11
552.33	1.92
552.674	1.93
553.017	2.05
553.361	2.06
553.704	2.03
554.048	1.88
554.391	2.02
554.734	1.84
555.077	1.96
555.42	1.72
555.764	1.98
556.107	2.01
556.45	1.89
556.793	1.98
557.135	1.92
557.478	1.92
557.821	2.05
558.164	1.89
558.507	2.01
558.849	2
559.192	2
559.534	2.03
559.877	2.09
560.219	2
560.562	1.87
560.904	2.12
561.246	1.76
561.589	1.95
561.931	1.73
562.273	2
562.615	1.81
562.957	2.01
563.299	1.91
563.641	1.89
563.983	1.85
564.325	1.98
564.667	2.11
565.008	2.11
565.35	1.83
565.692	1.71
566.033	1.95
566.375	2.07
566.716	2.03
567.058	1.93
567.399	2.03
567.741	1.95
568.082	1.94
568.423	2.02
568.764	2.08
569.105	1.88
569.447	2.15
569.788	2.01
570.129	1.83
570.47	1.76
570.811	2
571.151	2.18
571.492	2.2
571.833	2.03
572.174	2.1
572.514	1.97
572.855	1.95
573.195	1.78
573.536	1.99
573.876	1.97
574.217	2.08
574.557	1.97
574.898	1.88
575.238	1.9
575.578	2.09
575.918	2.08
576.258	2.04
576.598	1.88
576.938	2.02
577.278	1.81
577.618	1.97
577.958	1.95
578.298	1.99
578.638	2
578.977	2.08
579.317	2.19
579.657	2.05
579.996	1.95
580.336	1.85
580.675	2.2
581.014	2.06
581.354	1.74
581.693	2.08
582.032	1.99
582.372	1.94
582.711	2.11
583.05	1.89
583.389	1.97
583.728	1.92
584.067	2.03
584.406	2.07
584.745	2.2
585.083	1.99
585.422	1.77
585.761	2.01
586.1	2.02
586.438	1.85
586.777	1.99
587.115	2.11
587.454	1.76
587.792	2.17
588.13	2.07
588.469	2.03
588.807	1.88
589.145	2.07
589.483	2
589.821	2.13
590.159	2.11
590.497	2.15
590.835	1.96
591.173	2.08
591.511	1.84
591.849	1.95
592.187	2.1
592.524	1.96
592.862	1.92
593.2	2.18
593.537	2.14
593.875	2.17
594.212	2.11
594.55	2.07
594.887	1.98
595.224	2.01
595.561	1.87
595.899	1.92
596.236	2
596.573	1.9
596.91	1.96
597.247	2.05
597.584	1.89
597.921	2.12
598.258	2.08
598.594	2.02
598.931	1.84
599.268	1.8
599.604	1.91
599.941	1.92
600.277	2.02
600.614	1.95
600.95	1.96
601.287	2.13
601.623	2.31
601.959	2.14
602.296	1.85
602.632	1.77
602.968	2.1
603.304	2.16
603.64	2.17
603.976	2.15
604.312	1.96
604.648	1.91
604.984	1.97
605.319	2.11
605.655	1.82
605.991	1.98
606.326	2.24
606.662	1.97
606.998	2.03
607.333	1.97
607.668	1.77
608.004	2.08
608.339	2.09
608.674	1.87
609.01	2.19
609.345	2.06
609.68	1.67
610.015	1.96
610.35	1.93
610.685	2.08
611.02	2.06
611.355	1.96
611.689	1.9
612.024	1.9
612.359	1.82
612.694	1.84
613.028	1.93
613.363	2.04
613.697	1.99
614.032	2.21
614.366	1.99
614.7	1.77
615.035	2.02
615.369	1.72
615.703	2.19
616.037	1.94
616.371	1.89
616.705	2.13
617.039	2.15
617.373	2.2
617.707	2.1
618.041	2.31
618.375	1.88
618.709	2.25
619.042	2.21
619.376	2.02
619.71	2.1
620.043	2.3
620.377	1.91
620.71	2.05
621.043	1.8
621.377	2.12
621.71	2.05
622.043	2.15
622.376	2.24
622.709	2
623.043	2.15
623.376	2.04
623.709	2.33
624.041	2.14
624.374	1.9
624.707	2.22
625.04	2.07
625.373	1.87
625.705	2.14
626.038	2
626.37	2.15
626.703	2.07
627.035	2.17
627.368	1.59
627.7	2.01
628.032	2.12
628.365	2.4
628.697	1.99
629.029	1.8
629.361	1.75
629.693	1.89
630.025	1.97
630.357	2.19
630.689	1.84
631.021	2.03
631.353	2.13
631.684	2.08
632.016	1.88
632.348	1.95
632.679	2.06
633.011	2.15
633.342	2.11
633.674	1.65
634.005	2.05
634.336	1.95
634.668	2.04
634.999	2.23
635.33	1.84
635.661	2.32
635.992	2.05
636.323	1.99
636.654	2.23
636.985	1.95
637.316	2.2
637.647	2.34
637.977	2.37
638.308	2.17
638.639	1.99
638.969	1.98
639.3	2.31
639.63	2.16
639.961	2.24
640.291	2.51
640.622	2.34
640.952	2.19
641.282	1.79
641.612	2.02
641.943	2.03
642.273	2.12
642.603	2.13
642.933	2.34
643.263	1.83
643.592	2.22
643.922	2.01
644.252	2.44
644.582	2.29
644.911	2.09
645.241	2.23
645.571	1.87
645.9	1.96
646.23	2.35
646.559	2
646.888	2.1
647.218	2.12
647.547	1.92
647.876	1.93
648.205	2.11
648.534	2.08
648.863	2.14
649.192	1.85
649.521	2.01
649.85	2.41
650.179	1.77
650.508	2.22
650.837	2.11
651.165	1.69
651.494	2.64
651.822	1.87
652.151	1.65
652.479	1.73
652.808	1.68
653.136	1.79
653.465	2.54
653.793	1.91
654.121	2.06
654.449	1.71
654.777	2.71
655.105	1.94
655.433	2.47
655.761	2.56
656.089	2.18
656.417	1.72
656.745	2.16
657.073	2.35
657.4	2.1
657.728	2.2
658.056	2.3
658.383	1.88
658.711	2.07
659.038	1.81
659.365	1.83
659.693	1.96
660.02	2.63
660.347	2.16
660.674	1.92
661.001	2.05
661.329	2
661.656	2.37
661.982	2.46
662.309	2.03
662.636	2.51
662.963	2.2
663.29	2.04
663.616	1.86
663.943	2.4
664.27	2.19
664.596	2.19
664.923	2.29
665.249	2.4
665.576	2.72
665.902	2.9
666.228	2.66
666.554	2
666.881	2.04
667.207	2.24
667.533	2.01
667.859	2.19
668.185	2.11
668.511	1.87
668.837	2.6
669.162	2.67
669.488	1.8
669.814	2.35
670.139	2.2
670.465	2.49
670.791	2.13
671.116	2.3
671.442	2.65
671.767	2.53
672.092	2.04
672.418	2.34
672.743	1.82
673.068	2.03
673.393	2.22
673.718	1.84
674.043	1.81
674.368	1.94
674.693	1.57
675.018	1.85
675.343	2.81
675.667	2.66
675.992	2.72
676.317	1.38
676.641	1.74
676.966	3.09
677.29	2.38
677.615	2.2
677.939	2.03
678.264	2.07
678.588	2.07
678.912	1.93
679.236	2.02
679.56	2.36
679.885	1.84
680.209	2.31
680.532	2.5
680.856	2.48
681.18	2.17
681.504	1.94
681.828	2.04
682.152	2.12
682.475	2.12
682.799	1.8
683.122	1.81
683.446	2.64
683.769	2.44
684.093	2.12
684.416	1.83
684.739	2.37
685.062	2.15
685.386	2.69
685.709	2.18
686.032	2.34
686.355	2.84
686.678	2.12
687.001	1.66
687.324	2.65
687.646	1.63
687.969	2.71
688.292	3.11
688.614	2.16
688.937	2.28
689.26	1.62
689.582	2.85
689.904	2.23
690.227	2.08
690.549	1.66
690.871	1.67
691.194	1.75
691.516	1.11
691.838	1.51
692.16	2.15
692.482	2.08
692.804	2.72
693.126	1.93
693.448	1.61
693.769	2.12
