Data from 20-7_chest_Reflection__4__19.txt Node

Date: Fri Nov 11 20:20:44 CST 2022
User: ToomeyLab
Spectrometer: FLMS14357
Trigger mode: 0
Integration Time (sec): 1.000000E-2
Scans to average: 100
Electric dark correction enabled: true
Nonlinearity correction enabled: false
Boxcar width: 0
XAxis mode: Wavelengths
Number of Pixels in Spectrum: 2048
>>>>>Begin Spectral Data<<<<<
189.047	-112.97
189.435	-112.97
189.823	-112.97
190.211	58.6
190.599	-49.18
190.987	65.3
191.375	-2563.87
191.763	64.62
192.151	-57.07
192.538	-69.34
192.926	394.78
193.314	107.86
193.702	22.18
194.089	-555.87
194.477	70.92
194.864	588.38
195.252	291.54
195.639	55.45
196.027	80.26
196.414	8.42
196.801	132.19
197.189	-70.86
197.576	-153.31
197.963	-2411.92
198.351	-204.92
198.738	2.83
199.125	47.29
199.512	35.62
199.899	-33.77
200.286	33.67
200.673	46.85
201.06	-0.18
201.447	46.86
201.833	30.38
202.22	4.14
202.607	32.26
202.994	43.94
203.38	45.12
203.767	40.35
204.154	22.09
204.54	-3.32
204.927	75.32
205.313	25.73
205.699	-5.4
206.086	24.93
206.472	-12.81
206.858	31.63
207.245	35.85
207.631	37.92
208.017	14.53
208.403	-1.63
208.789	20.1
209.175	8.57
209.561	42.01
209.947	10.23
210.333	3.85
210.719	25.38
211.105	43.8
211.491	-3.43
211.876	11.66
212.262	19.93
212.648	-10.34
213.034	26.77
213.419	3.72
213.805	10.29
214.19	25.65
214.576	19.68
214.961	13.14
215.346	-22.65
215.732	15.33
216.117	52.43
216.502	34.69
216.888	-1.27
217.273	42.22
217.658	14.75
218.043	10.67
218.428	15.45
218.813	3.87
219.198	11.08
219.583	23.78
219.968	3.87
220.353	11.12
220.738	15.49
221.122	24.68
221.507	-16.43
221.892	13.75
222.276	27.62
222.661	19.33
223.046	-2.3
223.43	8.58
223.815	6.89
224.199	9.16
224.583	-8.41
224.968	-6.53
225.352	11.52
225.736	10.15
226.121	10.23
226.505	7.35
226.889	-1.18
227.273	11.06
227.657	-1.88
228.041	5.74
228.425	6.25
228.809	8.41
229.193	7.49
229.577	5.22
229.961	6.41
230.344	6.54
230.728	5.09
231.112	4.9
231.495	5.35
231.879	3.59
232.263	4.74
232.646	4.58
233.03	5.7
233.413	5.67
233.797	5.91
234.18	4.11
234.563	3.08
234.946	5.22
235.33	4.12
235.713	7.31
236.096	5.51
236.479	5.78
236.862	7.5
237.245	5.37
237.628	5.8
238.011	5.44
238.394	6.06
238.777	5.77
239.16	5.8
239.543	4.26
239.925	5.2
240.308	5.17
240.691	7.81
241.073	4.37
241.456	5.7
241.838	6.46
242.221	5.48
242.603	6.05
242.986	4.9
243.368	5.32
243.75	5.44
244.133	5.23
244.515	4.94
244.897	5.68
245.279	4.58
245.661	5.72
246.043	4.62
246.425	6.73
246.807	5.66
247.189	4.82
247.571	4.81
247.953	4.76
248.335	4.93
248.717	5.43
249.098	5.16
249.48	5.03
249.862	5.21
250.243	4.92
250.625	5.38
251.006	6.56
251.388	5.6
251.769	5.65
252.151	5.1
252.532	5.84
252.913	6.5
253.295	5.02
253.676	4.31
254.057	4.77
254.438	5.55
254.819	4.97
255.2	5.79
255.581	5.83
255.962	4.85
256.343	5.61
256.724	4.28
257.105	5.14
257.486	5.05
257.867	5.1
258.247	4.06
258.628	5.19
259.009	5.91
259.389	4.88
259.77	5.21
260.15	4.5
260.531	5
260.911	4.51
261.292	4.86
261.672	4.56
262.052	4.79
262.432	5.01
262.813	5.19
263.193	4.7
263.573	3.7
263.953	5.91
264.333	4.95
264.713	5.23
265.093	5.25
265.473	3.75
265.853	4.77
266.233	5.3
266.612	4.03
266.992	5.06
267.372	5.53
267.752	4.8
268.131	3.98
268.511	4.6
268.89	4.54
269.27	4.57
269.649	4.42
270.029	5.06
270.408	4.78
270.787	4.54
271.167	4.34
271.546	4.91
271.925	4.62
272.304	4.47
272.683	4.36
273.062	4.28
273.441	4.85
273.82	4.47
274.199	4.5
274.578	4.23
274.957	4.91
275.336	4.73
275.715	4.97
276.093	4.28
276.472	4.48
276.851	4.45
277.229	4.66
277.608	5.03
277.986	4.72
278.365	3.87
278.743	4.2
279.122	4.75
279.5	4.79
279.878	4.71
280.257	4.52
280.635	4.34
281.013	4.16
281.391	4.32
281.769	4.77
282.147	4.41
282.525	3.86
282.903	3.78
283.281	4.24
283.659	4.69
284.037	4.21
284.415	4.23
284.792	4.14
285.17	4.53
285.548	4.63
285.925	4.12
286.303	4.6
286.68	4.85
287.058	4.43
287.435	4.22
287.813	4.36
288.19	4.25
288.567	4.07
288.945	4.43
289.322	5.1
289.699	4.07
290.076	4.96
290.453	4.43
290.83	4.17
291.207	4.64
291.584	4.53
291.961	4.57
292.338	4.41
292.715	4.53
293.092	4.94
293.469	4.35
293.845	4.45
294.222	4.76
294.599	5.09
294.975	4.97
295.352	4.92
295.728	4.93
296.105	4.58
296.481	4.16
296.858	4.62
297.234	4.74
297.61	4.16
297.986	5.04
298.363	4.7
298.739	4.72
299.115	4.74
299.491	5.02
299.867	4.76
300.243	4.54
300.619	4.84
300.995	4.97
301.371	5.07
301.746	5.25
302.122	4.88
302.498	4.81
302.874	5
303.249	4.81
303.625	4.22
304	4.96
304.376	4.62
304.751	4.49
305.127	4.84
305.502	5.25
305.878	5.12
306.253	5.13
306.628	4.73
307.003	5.23
307.378	5.04
307.754	5.39
308.129	4.95
308.504	5.14
308.879	4.73
309.254	5.47
309.629	5.04
310.003	4.99
310.378	4.94
310.753	5.25
311.128	5.18
311.502	5.14
311.877	4.8
312.252	5.05
312.626	5.02
313.001	4.56
313.375	5.15
313.75	5.06
314.124	4.54
314.498	5.28
314.873	4.53
315.247	5.28
315.621	5.44
315.995	5.39
316.369	5.01
316.743	4.79
317.117	5.52
317.491	5.4
317.865	4.89
318.239	5.44
318.613	4.84
318.987	4.48
319.361	4.66
319.734	5.26
320.108	5.17
320.482	5.45
320.855	5.23
321.229	4.72
321.602	4.75
321.976	5.46
322.349	5.61
322.723	5.35
323.096	5.05
323.469	5.99
323.843	5.61
324.216	5.22
324.589	5.6
324.962	5.24
325.335	4.72
325.708	5.54
326.081	5.44
326.454	5.13
326.827	4.77
327.2	5.77
327.573	6.31
327.945	5.54
328.318	5.35
328.691	5.08
329.063	5.51
329.436	4.95
329.809	5.05
330.181	4.88
330.553	4.66
330.926	5.09
331.298	5.65
331.671	4.7
332.043	5.03
332.415	5.1
332.787	5.31
333.159	5.32
333.532	5.11
333.904	5.75
334.276	5
334.648	5.35
335.02	5.48
335.391	5.65
335.763	5.27
336.135	4.57
336.507	5.64
336.879	5.34
337.25	5.1
337.622	5.22
337.993	5.33
338.365	5.32
338.736	5.44
339.108	5.19
339.479	5.27
339.851	5.26
340.222	4.97
340.593	5.45
340.964	5.39
341.336	5.87
341.707	4.99
342.078	4.74
342.449	5.43
342.82	5.53
343.191	5.52
343.562	5.19
343.933	5.2
344.303	5.32
344.674	5.08
345.045	5.38
345.416	5.62
345.786	4.92
346.157	5.01
346.527	5.26
346.898	4.83
347.268	5.23
347.639	5.02
348.009	5.05
348.38	5.32
348.75	5.14
349.12	5.93
349.49	5.63
349.861	5.56
350.231	5.47
350.601	5.18
350.971	5.22
351.341	5.36
351.711	5.44
352.081	5.39
352.45	4.97
352.82	5.21
353.19	5.58
353.56	5.37
353.929	5.73
354.299	5.26
354.669	5.4
355.038	5.45
355.408	5.38
355.777	5.37
356.147	5.5
356.516	5.39
356.885	5.7
357.254	5.47
357.624	4.82
357.993	5.39
358.362	5.56
358.731	5.12
359.1	5.29
359.469	4.87
359.838	5.2
360.207	5.42
360.576	5.37
360.945	5.6
361.314	5
361.682	5.46
362.051	5.35
362.42	5.33
362.788	5.63
363.157	5.15
363.525	5.22
363.894	5.42
364.262	5.53
364.631	5.64
364.999	5.25
365.367	5.42
365.735	5.47
366.104	5.3
366.472	5.24
366.84	5.09
367.208	5.07
367.576	5.62
367.944	5.53
368.312	5.4
368.68	5.3
369.048	5.2
369.416	5.21
369.783	5.27
370.151	5.58
370.519	5.54
370.886	5.27
371.254	5.57
371.621	5.21
371.989	5.33
372.356	5.68
372.724	5.82
373.091	5.63
373.458	5.49
373.826	5.47
374.193	5.46
374.56	5.37
374.927	5.46
375.294	5.46
375.661	5.62
376.028	5.34
376.395	5.61
376.762	5.65
377.129	5.62
377.496	5.29
377.863	5.74
378.229	5.6
378.596	5.18
378.963	5.4
379.329	5.67
379.696	5.41
380.062	5.64
380.429	5.72
380.795	5.85
381.161	5.48
381.528	5.55
381.894	5.65
382.26	5.91
382.626	5.63
382.993	5.75
383.359	5.87
383.725	5.46
384.091	5.47
384.457	5.46
384.823	5.44
385.188	5.47
385.554	5.49
385.92	5.59
386.286	5.37
386.651	5.73
387.017	5.49
387.383	5.59
387.748	5.48
388.114	5.67
388.479	5.42
388.845	5.43
389.21	5.19
389.575	5.57
389.94	5.83
390.306	5.27
390.671	5.48
391.036	5.59
391.401	5.72
391.766	5.85
392.131	5.48
392.496	5.65
392.861	5.46
393.226	5.56
393.591	5.57
393.956	5.67
394.32	5.52
394.685	5.74
395.05	5.82
395.414	5.69
395.779	5.54
396.143	5.62
396.508	6
396.872	5.61
397.236	5.51
397.601	5.86
397.965	5.68
398.329	5.68
398.694	5.75
399.058	5.99
399.422	5.73
399.786	5.69
400.15	5.91
400.514	5.62
400.878	5.7
401.242	5.5
401.605	5.86
401.969	5.78
402.333	5.47
402.697	5.62
403.06	5.93
403.424	5.45
403.787	5.84
404.151	5.56
404.514	5.75
404.878	5.75
405.241	5.66
405.604	5.75
405.968	5.72
406.331	5.45
406.694	5.58
407.057	5.72
407.42	5.76
407.783	5.8
408.146	5.65
408.509	5.96
408.872	5.71
409.235	5.84
409.598	5.71
409.961	5.76
410.323	5.65
410.686	6.08
411.049	5.56
411.411	5.76
411.774	5.51
412.136	5.58
412.499	5.72
412.861	5.71
413.223	5.62
413.586	5.87
413.948	5.91
414.31	5.93
414.672	5.71
415.035	5.66
415.397	5.63
415.759	5.77
416.121	5.8
416.483	5.8
416.845	5.61
417.206	5.66
417.568	5.68
417.93	5.63
418.292	5.71
418.653	5.88
419.015	5.84
419.377	5.66
419.738	5.85
420.1	5.67
420.461	5.71
420.822	5.75
421.184	5.82
421.545	5.7
421.906	5.64
422.267	5.67
422.629	5.48
422.99	5.66
423.351	5.69
423.712	5.58
424.073	5.75
424.434	5.75
424.795	5.87
425.155	5.79
425.516	5.8
425.877	5.72
426.238	5.74
426.598	5.63
426.959	5.72
427.32	5.77
427.68	5.78
428.041	5.9
428.401	5.82
428.761	6.06
429.122	5.85
429.482	5.86
429.842	5.98
430.202	5.87
430.563	6.1
430.923	6.05
431.283	5.81
431.643	5.84
432.003	5.96
432.363	5.92
432.722	6.07
433.082	5.96
433.442	5.98
433.802	6.02
434.161	5.94
434.521	5.93
434.881	6.02
435.24	5.86
435.6	5.89
435.959	6.08
436.319	5.89
436.678	5.94
437.037	5.98
437.396	6.09
437.756	6.07
438.115	5.96
438.474	5.89
438.833	5.84
439.192	6.08
439.551	5.9
439.91	6.09
440.269	5.86
440.628	6.11
440.987	5.82
441.345	5.93
441.704	5.95
442.063	5.84
442.421	5.97
442.78	5.87
443.138	6.05
443.497	5.92
443.855	5.98
444.214	6.15
444.572	6.1
444.93	5.96
445.288	5.98
445.647	6.08
446.005	6.15
446.363	6.16
446.721	5.99
447.079	6.04
447.437	5.81
447.795	5.93
448.153	5.83
448.51	5.95
448.868	6.01
449.226	5.9
449.584	6.03
449.941	6.12
450.299	5.98
450.656	6.07
451.014	6.01
451.371	6.06
451.729	6.06
452.086	6.22
452.443	6.16
452.801	6.29
453.158	6.11
453.515	6.3
453.872	6.1
454.229	6.17
454.586	6.12
454.943	6.23
455.3	6.24
455.657	6.24
456.014	6.28
456.371	6.15
456.727	6.26
457.084	5.97
457.441	6.3
457.797	6.32
458.154	6.03
458.51	6.19
458.867	6.17
459.223	6.17
459.58	6.23
459.936	6.17
460.292	6.23
460.648	6.07
461.005	6.15
461.361	6.03
461.717	6.06
462.073	6.07
462.429	6.18
462.785	6.17
463.141	6.23
463.496	6.23
463.852	6.32
464.208	6.36
464.564	6.26
464.919	6.37
465.275	6.24
465.631	6.33
465.986	6.43
466.342	6.38
466.697	6.19
467.052	6.26
467.408	6.31
467.763	6.36
468.118	6.33
468.473	6.34
468.829	6.31
469.184	6.26
469.539	6.25
469.894	6.37
470.249	6.32
470.603	6.2
470.958	6.26
471.313	6.4
471.668	6.48
472.023	6.25
472.377	6.57
472.732	6.28
473.086	6.33
473.441	6.36
473.795	6.3
474.15	6.42
474.504	6.26
474.859	6.42
475.213	6.6
475.567	6.44
475.921	6.55
476.275	6.4
476.63	6.47
476.984	6.52
477.338	6.49
477.692	6.4
478.045	6.32
478.399	6.56
478.753	6.46
479.107	6.47
479.461	6.46
479.814	6.4
480.168	6.38
480.521	6.48
480.875	6.51
481.228	6.49
481.582	6.53
481.935	6.28
482.289	6.39
482.642	6.46
482.995	6.45
483.348	6.42
483.701	6.48
484.055	6.39
484.408	6.36
484.761	6.27
485.114	6.16
485.466	6.09
485.819	6.05
486.172	6.08
486.525	6.14
486.878	6.28
487.23	6.29
487.583	6.35
487.936	6.44
488.288	6.36
488.641	6.32
488.993	6.29
489.345	6.21
489.698	6.25
490.05	6.26
490.402	6.28
490.754	6.42
491.107	6.37
491.459	6.43
491.811	6.58
492.163	6.58
492.515	6.5
492.866	6.35
493.218	6.35
493.57	6.33
493.922	6.4
494.274	6.42
494.625	6.5
494.977	6.63
495.328	6.68
495.68	6.68
496.031	6.72
496.383	6.64
496.734	6.76
497.086	6.78
497.437	6.84
497.788	6.7
498.139	6.67
498.49	6.58
498.842	6.6
499.193	6.75
499.544	6.73
499.894	6.69
500.245	6.66
500.596	6.75
500.947	6.73
501.298	6.81
501.648	6.86
501.999	6.74
502.35	7.04
502.7	6.83
503.051	6.94
503.401	6.89
503.752	6.88
504.102	6.87
504.452	7
504.803	6.77
505.153	6.83
505.503	6.89
505.853	6.82
506.203	6.94
506.553	6.76
506.903	6.8
507.253	7.01
507.603	6.92
507.953	6.86
508.303	6.82
508.652	6.94
509.002	7.01
509.352	6.89
509.701	7.06
510.051	6.83
510.4	7.03
510.75	6.9
511.099	6.93
511.449	7
511.798	7.07
512.147	6.94
512.496	6.93
512.846	7.15
513.195	7.09
513.544	7.06
513.893	6.9
514.242	7.01
514.591	7.17
514.939	7.04
515.288	7.13
515.637	7.11
515.986	7.07
516.334	7.19
516.683	7.1
517.032	7.21
517.38	7.13
517.729	7.26
518.077	7.18
518.426	7.14
518.774	7.09
519.122	7.3
519.47	7.17
519.819	7.16
520.167	7.11
520.515	7.18
520.863	7.13
521.211	7.18
521.559	7.2
521.907	7.23
522.255	7.25
522.602	7.33
522.95	7.36
523.298	7.47
523.645	7.38
523.993	7.37
524.341	7.53
524.688	7.44
525.036	7.49
525.383	7.41
525.73	7.37
526.078	7.4
526.425	7.37
526.772	7.39
527.119	7.21
527.466	7.29
527.814	7.28
528.161	7.42
528.508	7.4
528.854	7.36
529.201	7.44
529.548	7.36
529.895	7.21
530.242	7.15
530.588	7.18
530.935	7.22
531.282	7.29
531.628	7.3
531.975	7.49
532.321	7.4
532.667	7.58
533.014	7.51
533.36	7.51
533.706	7.64
534.052	7.65
534.399	7.56
534.745	7.5
535.091	7.49
535.437	7.5
535.783	7.63
536.129	7.68
536.474	7.74
536.82	7.64
537.166	7.74
537.512	7.84
537.857	7.77
538.203	7.74
538.549	7.78
538.894	7.82
539.239	7.82
539.585	7.95
539.93	7.95
540.276	8.11
540.621	8.03
540.966	8.1
541.311	7.95
541.656	8.06
542.001	8.08
542.346	8.02
542.691	7.84
543.036	7.82
543.381	7.79
543.726	7.84
544.071	7.93
544.415	7.92
544.76	8.03
545.105	7.98
545.449	8.1
545.794	8.29
546.138	8.23
546.483	8.23
546.827	8.23
547.171	8.39
547.516	8.2
547.86	8.14
548.204	8.35
548.548	8.25
548.892	8.31
549.236	8.4
549.58	8.4
549.924	8.5
550.268	8.47
550.612	8.63
550.956	8.62
551.3	8.59
551.643	8.61
551.987	8.71
552.33	8.63
552.674	8.6
553.017	8.83
553.361	8.76
553.704	8.84
554.048	8.74
554.391	8.76
554.734	8.69
555.077	8.92
555.42	8.72
555.764	8.95
556.107	8.94
556.45	8.91
556.793	8.99
557.135	8.99
557.478	9.06
557.821	8.83
558.164	8.91
558.507	9.08
558.849	8.99
559.192	9.17
559.534	9.2
559.877	9.3
560.219	9.03
560.562	9.02
560.904	9.25
561.246	9.09
561.589	9.2
561.931	9.1
562.273	9.22
562.615	9.17
562.957	9.24
563.299	9.3
563.641	9.14
563.983	9.44
564.325	9.45
564.667	9.34
565.008	9.47
565.35	9.41
565.692	9.36
566.033	9.4
566.375	9.65
566.716	9.68
567.058	9.54
567.399	9.74
567.741	9.68
568.082	9.7
568.423	9.58
568.764	9.82
569.105	9.8
569.447	9.65
569.788	9.66
570.129	9.66
570.47	9.77
570.811	9.74
571.151	10.02
571.492	10.1
571.833	9.92
572.174	10.08
572.514	10.02
572.855	10.07
573.195	9.89
573.536	9.97
573.876	10.07
574.217	10.16
574.557	10.05
574.898	10.05
575.238	10.08
575.578	10.17
575.918	10.25
576.258	10.22
576.598	10.33
576.938	10.31
577.278	10.06
577.618	10.43
577.958	10.39
578.298	10.4
578.638	10.43
578.977	10.57
579.317	10.77
579.657	10.77
579.996	10.68
580.336	10.76
580.675	10.8
581.014	10.69
581.354	10.64
581.693	10.72
582.032	10.52
582.372	10.78
582.711	10.74
583.05	10.76
583.389	10.88
583.728	10.98
584.067	10.93
584.406	10.93
584.745	11.08
585.083	11.07
585.422	11
585.761	11
586.1	11.13
586.438	11.25
586.777	11.22
587.115	11.14
587.454	11.14
587.792	11.34
588.13	11.38
588.469	11.1
588.807	11.47
589.145	11.31
589.483	11.38
589.821	11.53
590.159	11.68
590.497	11.76
590.835	11.61
591.173	11.48
591.511	11.46
591.849	11.56
592.187	11.42
592.524	11.67
592.862	11.63
593.2	11.8
593.537	11.89
593.875	12.07
594.212	11.85
594.55	11.97
594.887	11.72
595.224	12.11
595.561	11.79
595.899	12.01
596.236	11.85
596.573	12.04
596.91	12.11
597.247	12.03
597.584	12.18
597.921	12.37
598.258	11.84
598.594	12.19
598.931	12.08
599.268	12.12
599.604	12.08
599.941	12.38
600.277	12.39
600.614	12.51
600.95	12.29
601.287	12.27
601.623	12.97
601.959	12.73
602.296	12.43
602.632	12.57
602.968	12.77
603.304	12.87
603.64	12.78
603.976	12.79
604.312	12.58
604.648	12.79
604.984	12.74
605.319	12.83
605.655	12.78
605.991	12.97
606.326	13.03
606.662	12.88
606.998	12.88
607.333	12.86
607.668	12.86
608.004	13.25
608.339	13.06
608.674	13.14
609.01	13.43
609.345	13.29
609.68	13.09
610.015	13.32
610.35	13.46
610.685	13.42
611.02	13.23
611.355	13.4
611.689	13.43
612.024	13.33
612.359	13.6
612.694	13.45
613.028	13.5
613.363	13.58
613.697	13.83
614.032	13.82
614.366	13.71
614.7	13.6
615.035	13.75
615.369	13.55
615.703	14.14
616.037	14.14
616.371	14.05
616.705	14.03
617.039	14.08
617.373	14.07
617.707	14.01
618.041	14.05
618.375	13.78
618.709	14.36
619.042	14.42
619.376	14.29
619.71	14.34
620.043	14.3
620.377	13.87
620.71	14.01
621.043	14.05
621.377	14.26
621.71	14.33
622.043	14.44
622.376	14.32
622.709	14.73
623.043	14.61
623.376	14.95
623.709	14.95
624.041	14.81
624.374	14.59
624.707	15.26
625.04	14.57
625.373	14.31
625.705	14.57
626.038	14.69
626.37	14.82
626.703	14.93
627.035	15.13
627.368	14.6
627.7	15.01
628.032	15.31
628.365	15.28
628.697	15.28
629.029	15.25
629.361	15.34
629.693	15.19
630.025	15.28
630.357	15.63
630.689	15.02
631.021	15.38
631.353	15.85
631.684	15.61
632.016	15.67
632.348	15.45
632.679	15.62
633.011	15.86
633.342	15.38
633.674	15.21
634.005	15.64
634.336	15.45
634.668	15.87
634.999	15.73
635.33	15.66
635.661	15.94
635.992	15.88
636.323	15.85
636.654	16.06
636.985	15.66
637.316	15.87
637.647	16.37
637.977	16.03
638.308	15.87
638.639	16.12
638.969	16.23
639.3	16.31
639.63	16.92
639.961	16.21
640.291	16.67
640.622	16.51
640.952	16.25
641.282	16.23
641.612	16.41
641.943	16.55
642.273	16.1
642.603	16.61
642.933	17.26
643.263	16.4
643.592	16.72
643.922	16.84
644.252	16.93
644.582	16.67
644.911	16.61
645.241	16.78
645.571	17.02
645.9	17.09
646.23	17.09
646.559	17.42
646.888	17.24
647.218	17.27
647.547	16.86
647.876	17.07
648.205	17.54
648.534	16.57
648.863	17.53
649.192	17.16
649.521	17.16
649.85	17.69
650.179	16.95
650.508	17.39
650.837	17.91
651.165	17.35
651.494	17.76
651.822	17.17
652.151	17.36
652.479	17.49
652.808	17.13
653.136	17.6
653.465	17.92
653.793	18.04
654.121	17.83
654.449	16.98
654.777	18.09
655.105	18.09
655.433	17.9
655.761	17.61
656.089	18.16
656.417	17.84
656.745	17.98
657.073	18.08
657.4	18.06
657.728	18.37
658.056	18.41
658.383	18.09
658.711	17.92
659.038	18.23
659.365	17.96
659.693	18.22
660.02	18.6
660.347	18.47
660.674	18.17
661.001	18.42
661.329	18.36
661.656	18.44
661.982	18.87
662.309	18.6
662.636	18.99
662.963	18.35
663.29	18.91
663.616	18.65
663.943	18.72
664.27	18.72
664.596	18.82
664.923	19.01
665.249	19.31
665.576	19.71
665.902	19.22
666.228	19.46
666.554	18.65
666.881	19.05
667.207	19.39
667.533	20.14
667.859	19.66
668.185	19.25
668.511	19.03
668.837	19.53
669.162	18.85
669.488	19.29
669.814	19.29
670.139	19.32
670.465	19.06
670.791	19.5
671.116	19.68
671.442	19.48
671.767	20.18
672.092	19.71
672.418	19.69
672.743	19.45
673.068	19.71
673.393	19.85
673.718	20.41
674.043	20.22
674.368	19.54
674.693	19.32
675.018	19.67
675.343	19.9
675.667	20.65
675.992	20.85
676.317	19.8
676.641	19.76
676.966	21.28
677.29	19.61
677.615	20.09
677.939	20.57
678.264	20.05
678.588	20.09
678.912	20.54
679.236	20.17
679.56	21.5
679.885	20.04
680.209	20.34
680.532	20.63
680.856	20.94
681.18	20.85
681.504	20.19
681.828	20.9
682.152	20.5
682.475	20.58
682.799	20.2
683.122	20.79
683.446	21.15
683.769	20.18
684.093	20.95
684.416	20.66
