Data from 20-7_chest_Reflection__2__17.txt Node

Date: Fri Nov 11 20:20:16 CST 2022
User: ToomeyLab
Spectrometer: FLMS14357
Trigger mode: 0
Integration Time (sec): 1.000000E-2
Scans to average: 100
Electric dark correction enabled: true
Nonlinearity correction enabled: false
Boxcar width: 0
XAxis mode: Wavelengths
Number of Pixels in Spectrum: 2048
>>>>>Begin Spectral Data<<<<<
189.047	147.67
189.435	147.67
189.823	147.67
190.211	71.73
190.599	-247.47
190.987	-185.57
191.375	2102.09
191.763	-81.4
192.151	118.56
192.538	-67.15
192.926	-37.56
193.314	68.86
193.702	80.54
194.089	-1625.33
194.477	44.88
194.864	502.55
195.252	77.43
195.639	-35.1
196.027	218.43
196.414	0.41
196.801	-444.06
197.189	-190.34
197.576	-232.47
197.963	-1566.32
198.351	-132.14
198.738	13.7
199.125	24.84
199.512	7.08
199.899	-50.02
200.286	38.08
200.673	18.67
201.06	18.87
201.447	41.04
201.833	37.5
202.22	-75.54
202.607	45.08
202.994	43.57
203.38	40.66
203.767	37.38
204.154	-9.08
204.54	18.83
204.927	21.81
205.313	15.19
205.699	-43.43
206.086	59.95
206.472	-13.1
206.858	84.41
207.245	42.83
207.631	3.9
208.017	51.64
208.403	9.27
208.789	-10.13
209.175	28.08
209.561	36.93
209.947	-3.93
210.333	-24.46
210.719	-0.01
211.105	33.96
211.491	10.05
211.876	7.8
212.262	8.99
212.648	-15.13
213.034	40.5
213.419	-6.62
213.805	4.08
214.19	7.31
214.576	24.7
214.961	-40.93
215.346	-14.41
215.732	10.95
216.117	31.64
216.502	7.58
216.888	18.23
217.273	9.83
217.658	-28.95
218.043	19.56
218.428	18.25
218.813	17.35
219.198	21.88
219.583	-1.91
219.968	4.27
220.353	3.8
220.738	-14.35
221.122	5.43
221.507	-14.43
221.892	4.54
222.276	21.83
222.661	35.77
223.046	-10.58
223.43	-7.54
223.815	9.82
224.199	8
224.583	6.01
224.968	-14.18
225.352	12.58
225.736	0.81
226.121	5.37
226.505	4.37
226.889	-2.39
227.273	7.9
227.657	-4.66
228.041	0.03
228.425	2.42
228.809	-0.78
229.193	4.01
229.577	3.02
229.961	4.35
230.344	2.13
230.728	1.21
231.112	1.18
231.495	1.7
231.879	0.91
232.263	3.01
232.646	0.01
233.03	2.9
233.413	3.2
233.797	2.91
234.18	-0.37
234.563	1.31
234.946	0.04
235.33	2.64
235.713	1.65
236.096	2.11
236.479	3.24
236.862	4.59
237.245	2.3
237.628	1.9
238.011	3.22
238.394	3.14
238.777	3.32
239.16	5.14
239.543	1.3
239.925	3.73
240.308	1.93
240.691	3.78
241.073	2.22
241.456	2.18
241.838	2.93
242.221	1.79
242.603	2.44
242.986	1.95
243.368	1.96
243.75	2.6
244.133	2.63
244.515	2.44
244.897	2.65
245.279	2.55
245.661	2.48
246.043	2.21
246.425	3.76
246.807	1.58
247.189	2.4
247.571	3.36
247.953	2.53
248.335	2.76
248.717	2.72
249.098	2.87
249.48	2.59
249.862	2.74
250.243	2.76
250.625	2.65
251.006	3.63
251.388	2.6
251.769	2.66
252.151	2.88
252.532	2.51
252.913	2.74
253.295	2.95
253.676	2.03
254.057	2.52
254.438	2.63
254.819	2.64
255.2	2.98
255.581	2.63
255.962	2.03
256.343	2.2
256.724	2.98
257.105	2.29
257.486	1.6
257.867	2.6
258.247	2.34
258.628	1.95
259.009	2.27
259.389	2.81
259.77	3.37
260.15	2.58
260.531	2.49
260.911	2.36
261.292	2.73
261.672	2.31
262.052	2.36
262.432	2.63
262.813	2.4
263.193	2.56
263.573	2.15
263.953	2.66
264.333	2.21
264.713	2.17
265.093	3.14
265.473	2.68
265.853	1.52
266.233	2.14
266.612	2.32
266.992	2.47
267.372	3.13
267.752	1.83
268.131	1.92
268.511	2.2
268.89	2.19
269.27	1.95
269.649	2.64
270.029	3.1
270.408	1.84
270.787	2.21
271.167	1.5
271.546	2.36
271.925	3.01
272.304	2.86
272.683	2.22
273.062	1.87
273.441	2.31
273.82	2.55
274.199	2.17
274.578	2.27
274.957	2.02
275.336	2.54
275.715	2.34
276.093	2.12
276.472	2.44
276.851	2.44
277.229	2.23
277.608	2.22
277.986	2.8
278.365	1.88
278.743	1.98
279.122	2.96
279.5	2.76
279.878	2.51
280.257	2.12
280.635	2.08
281.013	2.77
281.391	2.33
281.769	2.2
282.147	1.99
282.525	1.97
282.903	1.68
283.281	2.54
283.659	2.29
284.037	2.43
284.415	2.3
284.792	2.38
285.17	2.33
285.548	2.26
285.925	2.26
286.303	2.2
286.68	2.62
287.058	2.47
287.435	2.24
287.813	2.21
288.19	2.24
288.567	2.17
288.945	2.34
289.322	3.13
289.699	1.64
290.076	2.71
290.453	2.2
290.83	2.11
291.207	2.19
291.584	2.65
291.961	2.09
292.338	2.9
292.715	2.65
293.092	2.95
293.469	2.6
293.845	3.11
294.222	2.58
294.599	3.39
294.975	3.3
295.352	3.12
295.728	3
296.105	2.8
296.481	2.85
296.858	2.67
297.234	2.78
297.61	2.79
297.986	3.03
298.363	3.24
298.739	3.04
299.115	3.22
299.491	3.29
299.867	2.89
300.243	3.3
300.619	3.24
300.995	2.87
301.371	3.49
301.746	3.33
302.122	3.09
302.498	3.6
302.874	3.43
303.249	3.34
303.625	3.13
304	2.54
304.376	3.29
304.751	3.17
305.127	3
305.502	3.66
305.878	3.61
306.253	3.21
306.628	3.38
307.003	3.39
307.378	3.32
307.754	3.35
308.129	3.66
308.504	3.94
308.879	3.43
309.254	3.44
309.629	3.44
310.003	3.1
310.378	3.74
310.753	3.61
311.128	3.71
311.502	3.56
311.877	3.74
312.252	3.34
312.626	3.51
313.001	3.27
313.375	3.67
313.75	3.28
314.124	3.35
314.498	2.96
314.873	3.24
315.247	3.65
315.621	3.47
315.995	3.59
316.369	3.36
316.743	3.38
317.117	3.39
317.491	2.84
317.865	3.03
318.239	3.8
318.613	3.11
318.987	3.42
319.361	3.44
319.734	3.87
320.108	3.14
320.482	4.32
320.855	3.32
321.229	2.68
321.602	3.16
321.976	3.52
322.349	3.75
322.723	4.25
323.096	3.71
323.469	3.87
323.843	3.94
324.216	3.23
324.589	3.87
324.962	4.24
325.335	3.54
325.708	3.93
326.081	3.81
326.454	3.4
326.827	3.4
327.2	4
327.573	3.86
327.945	3.83
328.318	4.13
328.691	3.56
329.063	3.89
329.436	3.95
329.809	3.83
330.181	3.6
330.553	3.37
330.926	3.57
331.298	3.84
331.671	3.41
332.043	3.12
332.415	3.76
332.787	4.32
333.159	3.81
333.532	3.35
333.904	4.26
334.276	3.68
334.648	3.58
335.02	3.68
335.391	4.08
335.763	4
336.135	3.01
336.507	3.62
336.879	3.96
337.25	3.4
337.622	3.69
337.993	3.96
338.365	3.93
338.736	4.19
339.108	4.14
339.479	3.77
339.851	3.69
340.222	3.8
340.593	4.43
340.964	3.46
341.336	3.75
341.707	3.4
342.078	3.31
342.449	3.72
342.82	4.08
343.191	3.86
343.562	3.45
343.933	3.6
344.303	3.61
344.674	3.91
345.045	3.9
345.416	3.59
345.786	3.19
346.157	3.49
346.527	3.91
346.898	3.27
347.268	3.75
347.639	3.63
348.009	3.6
348.38	3.78
348.75	3.71
349.12	4.18
349.49	3.94
349.861	3.6
350.231	3.98
350.601	3.33
350.971	3.99
351.341	3.77
351.711	3.42
352.081	4.03
352.45	3.55
352.82	3.55
353.19	3.83
353.56	3.74
353.929	4.01
354.299	3.52
354.669	4.12
355.038	3.42
355.408	3.68
355.777	4.05
356.147	4.09
356.516	3.8
356.885	3.75
357.254	3.55
357.624	3.24
357.993	3.91
358.362	3.86
358.731	3.41
359.1	3.46
359.469	3.63
359.838	3.45
360.207	3.86
360.576	3.64
360.945	3.4
361.314	3.52
361.682	3.61
362.051	3.57
362.42	3.73
362.788	3.91
363.157	3.62
363.525	3.67
363.894	3.63
364.262	3.67
364.631	3.84
364.999	3.84
365.367	3.73
365.735	3.66
366.104	3.46
366.472	3.51
366.84	3.31
367.208	3.62
367.576	4.02
367.944	3.9
368.312	3.39
368.68	3.52
369.048	3.8
369.416	3.62
369.783	3.85
370.151	3.95
370.519	3.99
370.886	3.61
371.254	3.95
371.621	3.82
371.989	3.69
372.356	3.85
372.724	3.91
373.091	3.8
373.458	3.67
373.826	3.53
374.193	3.55
374.56	3.38
374.927	3.91
375.294	3.9
375.661	4.22
376.028	3.55
376.395	3.8
376.762	3.85
377.129	3.66
377.496	3.72
377.863	4.13
378.229	3.59
378.596	3.58
378.963	3.76
379.329	3.79
379.696	3.87
380.062	3.79
380.429	3.52
380.795	4.21
381.161	3.92
381.528	3.72
381.894	3.84
382.26	4.19
382.626	4
382.993	3.95
383.359	3.99
383.725	3.61
384.091	3.96
384.457	3.61
384.823	3.53
385.188	3.77
385.554	3.73
385.92	3.55
386.286	3.86
386.651	3.76
387.017	3.86
387.383	3.9
387.748	3.64
388.114	4
388.479	3.66
388.845	3.67
389.21	3.82
389.575	4.18
389.94	3.78
390.306	3.91
390.671	3.85
391.036	3.79
391.401	3.94
391.766	3.93
392.131	3.86
392.496	4.08
392.861	3.97
393.226	3.82
393.591	3.79
393.956	3.8
394.32	4.07
394.685	3.89
395.05	4.09
395.414	3.96
395.779	3.89
396.143	3.85
396.508	4
396.872	3.87
397.236	3.8
397.601	3.81
397.965	3.98
398.329	3.8
398.694	3.99
399.058	4.13
399.422	4.05
399.786	3.75
400.15	3.81
400.514	4
400.878	3.94
401.242	3.75
401.605	3.99
401.969	4.15
402.333	3.54
402.697	4.09
403.06	4.29
403.424	3.62
403.787	4.08
404.151	4.01
404.514	4.03
404.878	3.88
405.241	3.72
405.604	3.8
405.968	4.05
406.331	3.79
406.694	3.78
407.057	3.98
407.42	4
407.783	3.93
408.146	3.85
408.509	4.16
408.872	4.07
409.235	4.18
409.598	4.07
409.961	4.14
410.323	3.87
410.686	4.03
411.049	3.96
411.411	3.9
411.774	4.01
412.136	3.99
412.499	4.01
412.861	3.89
413.223	3.99
413.586	4.01
413.948	4.09
414.31	4.05
414.672	4.1
415.035	3.9
415.397	4.03
415.759	3.84
416.121	4.12
416.483	4.04
416.845	3.85
417.206	4
417.568	3.94
417.93	3.93
418.292	3.89
418.653	4.05
419.015	3.97
419.377	3.9
419.738	4.07
420.1	4.11
420.461	4.19
420.822	3.89
421.184	3.96
421.545	3.9
421.906	4.02
422.267	3.88
422.629	3.77
422.99	4
423.351	4.04
423.712	3.96
424.073	4.11
424.434	4.12
424.795	4.09
425.155	3.94
425.516	4.03
425.877	3.98
426.238	4
426.598	3.86
426.959	3.87
427.32	4.05
427.68	4.14
428.041	4.18
428.401	3.92
428.761	4.2
429.122	4.07
429.482	4.04
429.842	4.11
430.202	4.42
430.563	4.11
430.923	4.18
431.283	4.28
431.643	4.05
432.003	4.12
432.363	4.05
432.722	4.58
433.082	4.19
433.442	4.27
433.802	4.12
434.161	4.29
434.521	4.24
434.881	4.15
435.24	4.12
435.6	4.03
435.959	4.23
436.319	4.14
436.678	4.2
437.037	4.22
437.396	4.25
437.756	4.14
438.115	4.27
438.474	4.12
438.833	4.25
439.192	4.34
439.551	4.15
439.91	4.28
440.269	4.15
440.628	4.22
440.987	4.25
441.345	4.18
441.704	4.11
442.063	4.15
442.421	4.24
442.78	4.08
443.138	4.24
443.497	4.15
443.855	4.22
444.214	4.17
444.572	4.35
444.93	4.3
445.288	4.33
445.647	4.31
446.005	4.28
446.363	4.3
446.721	4.22
447.079	4.27
447.437	4.09
447.795	4.23
448.153	4.09
448.51	4.19
448.868	4.23
449.226	4.28
449.584	4.27
449.941	4.25
450.299	4.15
450.656	4.32
451.014	4.34
451.371	4.44
451.729	4.27
452.086	4.34
452.443	4.37
452.801	4.44
453.158	4.34
453.515	4.48
453.872	4.32
454.229	4.31
454.586	4.28
454.943	4.37
455.3	4.48
455.657	4.4
456.014	4.42
456.371	4.37
456.727	4.54
457.084	4.22
457.441	4.52
457.797	4.36
458.154	4.37
458.51	4.48
458.867	4.47
459.223	4.63
459.58	4.55
459.936	4.31
460.292	4.42
460.648	4.49
461.005	4.34
461.361	4.34
461.717	4.33
462.073	4.46
462.429	4.31
462.785	4.4
463.141	4.32
463.496	4.45
463.852	4.47
464.208	4.49
464.564	4.45
464.919	4.59
465.275	4.47
465.631	4.45
465.986	4.56
466.342	4.5
466.697	4.53
467.052	4.39
467.408	4.51
467.763	4.44
468.118	4.66
468.473	4.51
468.829	4.55
469.184	4.61
469.539	4.6
469.894	4.58
470.249	4.54
470.603	4.37
470.958	4.49
471.313	4.6
471.668	4.64
472.023	4.53
472.377	4.65
472.732	4.51
473.086	4.51
473.441	4.73
473.795	4.45
474.15	4.64
474.504	4.58
474.859	4.62
475.213	4.62
475.567	4.75
475.921	4.74
476.275	4.73
476.63	4.62
476.984	4.75
477.338	4.6
477.692	4.63
478.045	4.55
478.399	4.67
478.753	4.52
479.107	4.66
479.461	4.57
479.814	4.5
480.168	4.69
480.521	4.75
480.875	4.72
481.228	4.75
481.582	4.68
481.935	4.58
482.289	4.7
482.642	4.65
482.995	4.5
483.348	4.59
483.701	4.64
484.055	4.57
484.408	4.66
484.761	4.55
485.114	4.44
485.466	4.33
485.819	4.38
486.172	4.41
486.525	4.49
486.878	4.58
487.23	4.57
487.583	4.63
487.936	4.58
488.288	4.63
488.641	4.52
488.993	4.55
489.345	4.47
489.698	4.5
490.05	4.54
490.402	4.54
490.754	4.62
491.107	4.63
491.459	4.67
491.811	4.77
492.163	4.8
492.515	4.74
492.866	4.59
493.218	4.58
493.57	4.61
493.922	4.63
494.274	4.71
494.625	4.72
494.977	4.75
495.328	4.8
495.68	4.87
496.031	4.88
496.383	4.92
496.734	4.83
497.086	4.98
497.437	4.9
497.788	4.8
498.139	4.86
498.49	4.77
498.842	4.81
499.193	4.93
499.544	4.96
499.894	4.8
500.245	4.97
500.596	5
500.947	4.9
501.298	4.9
501.648	4.91
501.999	4.97
502.35	5.05
502.7	5
503.051	4.96
503.401	4.99
503.752	4.93
504.102	4.87
504.452	4.96
504.803	4.99
505.153	4.96
505.503	4.96
505.853	5
506.203	5.14
506.553	4.86
506.903	4.87
507.253	4.97
507.603	5.08
507.953	5.08
508.303	4.88
508.652	5.12
509.002	4.96
509.352	5.09
509.701	5.09
510.051	5.09
510.4	5.08
510.75	5.04
511.099	4.84
511.449	5.09
511.798	5.12
512.147	5.01
512.496	4.94
512.846	5.19
513.195	5.02
513.544	5.02
513.893	4.97
514.242	5.04
514.591	5.19
514.939	5.15
515.288	5.13
515.637	5.2
515.986	5.07
516.334	5.17
516.683	5.23
517.032	5.21
517.38	5.23
517.729	5.3
518.077	5.21
518.426	5.23
518.774	5.19
519.122	5.22
519.47	5.17
519.819	5.17
520.167	5.18
520.515	5.07
520.863	5.23
521.211	5.12
521.559	5.13
521.907	5.29
522.255	5.17
522.602	5.29
522.95	5.28
523.298	5.31
523.645	5.23
523.993	5.4
524.341	5.42
524.688	5.5
525.036	5.32
525.383	5.37
525.73	5.23
526.078	5.29
526.425	5.27
526.772	5.31
527.119	5.23
527.466	5.33
527.814	5.29
528.161	5.27
528.508	5.36
528.854	5.32
529.201	5.31
529.548	5.26
529.895	5.17
530.242	5.1
530.588	5.13
530.935	5.16
531.282	5.29
531.628	5.27
531.975	5.3
532.321	5.27
532.667	5.4
533.014	5.35
533.36	5.36
533.706	5.45
534.052	5.34
534.399	5.37
534.745	5.32
535.091	5.34
535.437	5.28
535.783	5.36
536.129	5.44
536.474	5.58
536.82	5.49
537.166	5.5
537.512	5.53
537.857	5.51
538.203	5.46
538.549	5.55
538.894	5.44
539.239	5.53
539.585	5.64
539.93	5.76
540.276	5.78
540.621	5.68
540.966	5.82
541.311	5.67
541.656	5.72
542.001	5.59
542.346	5.57
542.691	5.48
543.036	5.39
543.381	5.52
543.726	5.5
544.071	5.61
544.415	5.69
544.76	5.66
545.105	5.66
545.449	5.63
545.794	5.73
546.138	5.75
546.483	5.85
546.827	5.79
547.171	5.87
547.516	5.68
547.86	5.85
548.204	5.86
548.548	5.64
548.892	5.74
549.236	5.78
549.58	5.91
549.924	5.94
550.268	5.95
550.612	5.92
550.956	6
551.3	5.97
551.643	6.01
551.987	6.04
552.33	6.08
552.674	5.9
553.017	6.15
553.361	6.11
553.704	6.09
554.048	6.04
554.391	6.07
554.734	6.06
555.077	6.07
555.42	6.08
555.764	6.11
556.107	6.3
556.45	6.28
556.793	6.16
557.135	6.3
557.478	6.22
557.821	6.28
558.164	6.3
558.507	6.25
558.849	6.33
559.192	6.23
559.534	6.19
559.877	6.33
560.219	6.22
560.562	6.29
560.904	6.42
561.246	6.19
561.589	6.31
561.931	6.03
562.273	6.39
562.615	6.49
562.957	6.4
563.299	6.21
563.641	6.32
563.983	6.26
564.325	6.26
564.667	6.33
565.008	6.51
565.35	6.39
565.692	6.19
566.033	6.46
566.375	6.53
566.716	6.64
567.058	6.42
567.399	6.56
567.741	6.51
568.082	6.59
568.423	6.52
568.764	6.59
569.105	6.49
569.447	6.58
569.788	6.66
570.129	6.5
570.47	6.72
570.811	6.72
571.151	6.82
571.492	6.63
571.833	6.58
572.174	6.65
572.514	6.64
572.855	6.9
573.195	6.54
573.536	6.73
573.876	6.76
574.217	6.86
574.557	6.73
574.898	6.79
575.238	6.77
575.578	6.85
575.918	6.82
576.258	6.69
576.598	6.84
576.938	6.85
577.278	6.82
577.618	6.9
577.958	6.9
578.298	6.95
578.638	7
578.977	6.98
579.317	7.05
579.657	7.07
579.996	7.17
580.336	7.07
580.675	7.17
581.014	7.07
581.354	6.99
581.693	7.02
582.032	7
582.372	7.17
582.711	7.28
583.05	7.12
583.389	7.09
583.728	7.16
584.067	7.09
584.406	7.1
584.745	7.14
585.083	7.27
585.422	7.16
585.761	7.3
586.1	7.14
586.438	7.28
586.777	7.26
587.115	7.2
587.454	7.25
587.792	7.24
588.13	7.32
588.469	7.33
588.807	7.23
589.145	7.52
589.483	7.54
589.821	7.4
590.159	7.61
590.497	7.46
590.835	7.35
591.173	7.67
591.511	7.54
591.849	7.23
592.187	7.6
592.524	7.28
592.862	7.28
593.2	7.45
593.537	7.64
593.875	7.85
594.212	7.57
594.55	7.57
594.887	7.26
595.224	7.62
595.561	7.63
595.899	7.51
596.236	7.42
596.573	7.49
596.91	7.73
597.247	7.71
597.584	7.52
597.921	7.87
598.258	7.53
598.594	7.7
598.931	7.54
599.268	7.66
599.604	7.83
599.941	7.86
600.277	7.79
600.614	8.11
600.95	7.62
601.287	7.87
601.623	8.17
601.959	8.09
602.296	7.85
602.632	7.95
602.968	7.81
603.304	8
603.64	8.07
603.976	8.12
604.312	8.12
604.648	7.65
604.984	7.84
605.319	8.12
605.655	8
605.991	7.9
606.326	8.23
606.662	7.97
606.998	8.07
607.333	8.14
607.668	8.08
608.004	8
608.339	8.24
608.674	8.28
609.01	8.46
609.345	8.31
609.68	8.11
610.015	8.36
610.35	8.27
610.685	8.32
611.02	8.22
611.355	8.18
611.689	8.27
612.024	8.34
612.359	8.17
612.694	8.35
613.028	8.4
613.363	8.41
613.697	8.57
614.032	8.48
614.366	8.42
614.7	8.54
615.035	8.36
615.369	8.61
615.703	8.65
616.037	8.78
616.371	8.42
616.705	8.64
617.039	8.74
617.373	8.4
617.707	8.7
618.041	8.91
618.375	8.58
618.709	9.08
619.042	8.64
619.376	9.02
619.71	9.11
620.043	8.73
620.377	8.78
620.71	8.54
621.043	8.7
621.377	8.99
621.71	8.78
622.043	8.96
622.376	9.05
622.709	8.62
623.043	8.85
623.376	8.83
623.709	9.05
624.041	9.45
624.374	9.16
624.707	9.44
625.04	9.31
625.373	8.88
625.705	8.94
626.038	9.13
626.37	9.07
626.703	9.07
627.035	9.08
627.368	8.96
627.7	9.09
628.032	9.22
628.365	9.2
628.697	8.85
629.029	9.06
629.361	9.21
629.693	8.98
630.025	9.26
630.357	9.45
630.689	8.98
631.021	9.25
631.353	9.41
631.684	8.89
632.016	9.23
632.348	9.33
632.679	9.32
633.011	9.29
633.342	9.42
633.674	9.36
634.005	9.13
634.336	9.51
634.668	9.4
634.999	9.44
635.33	9.46
635.661	9.78
635.992	9.48
636.323	9.35
636.654	9.7
636.985	9.38
637.316	9.43
637.647	9.84
637.977	9.67
638.308	9.52
638.639	9.67
638.969	9.52
639.3	10.08
639.63	9.98
639.961	9.5
640.291	9.56
640.622	9.94
640.952	9.34
641.282	9.81
641.612	9.78
641.943	9.85
642.273	9.65
642.603	9.69
642.933	9.87
643.263	9.76
643.592	9.91
643.922	10.26
644.252	9.87
644.582	10.24
644.911	9.95
645.241	10.3
645.571	9.61
645.9	10.08
646.23	10.17
646.559	10.19
646.888	10.03
647.218	9.7
647.547	9.97
647.876	9.82
648.205	10.17
648.534	10.31
648.863	10.2
649.192	10.03
649.521	10.19
649.85	10.25
650.179	10.03
650.508	10.16
650.837	10.51
651.165	9.83
651.494	10.66
651.822	9.87
652.151	10.05
652.479	10.04
652.808	10.14
653.136	10.24
653.465	10.63
653.793	10.04
654.121	10.16
654.449	9.9
654.777	10.66
655.105	10.28
655.433	10.54
655.761	10.45
656.089	10.6
656.417	10.29
656.745	10.23
657.073	10.3
657.4	10.05
657.728	10.75
658.056	10.41
658.383	10.27
658.711	10.06
659.038	10.8
659.365	10.49
659.693	10.88
660.02	11.13
660.347	10.81
660.674	10.91
661.001	10.61
661.329	10.66
661.656	10.72
661.982	10.75
662.309	11.13
662.636	11.17
662.963	10.84
663.29	10.21
663.616	10.65
663.943	10.72
664.27	11.05
664.596	11.29
664.923	10.54
665.249	11.33
665.576	11.37
665.902	11.04
666.228	10.9
666.554	10.96
666.881	10.66
667.207	11.12
667.533	11.36
667.859	11.61
668.185	11.76
668.511	11.05
668.837	10.87
669.162	11.01
669.488	11.26
669.814	11.06
670.139	10.94
670.465	10.99
670.791	11.3
671.116	10.99
671.442	11.08
671.767	11.65
672.092	10.62
672.418	11.47
672.743	10.87
673.068	11.54
673.393	12.07
673.718	11.3
674.043	11.62
674.368	11.39
674.693	11.16
675.018	11.48
675.343	11.4
675.667	11.78
675.992	12.23
676.317	10.83
676.641	10.95
676.966	11.71
677.29	11.23
677.615	11.39
677.939	11.25
678.264	12.19
678.588	11.09
678.912	11.11
679.236	11.85
679.56	11.59
679.885	11.07
680.209	11.64
680.532	12.52
680.856	11.55
681.18	11.94
681.504	11.16
681.828	11.95
682.152	12.14
682.475	11.45
682.799	11.58
683.122	11.98
683.446	12.23
683.769	11.8
684.093	11.81
684.416	11.59
684.739	12.48
685.062	12.21
685.386	11.92
685.709	11.83
686.032	11.85
686.355	11.72
686.678	11.66
687.001	11.74
687.324	12.43
687.646	12.02
687.969	11.97
688.292	12.37
688.614	11.57
688.937	11.42
689.26	11.91
689.582	12.08
689.904	11.79
690.227	12.26
