Data from 20-7_forehead_Reflection__2__27.txt Node

Date: Fri Nov 11 20:23:48 CST 2022
User: ToomeyLab
Spectrometer: FLMS14357
Trigger mode: 0
Integration Time (sec): 1.000000E-2
Scans to average: 100
Electric dark correction enabled: true
Nonlinearity correction enabled: false
Boxcar width: 0
XAxis mode: Wavelengths
Number of Pixels in Spectrum: 2048
>>>>>Begin Spectral Data<<<<<
189.047	128.02
189.435	128.02
189.823	128.02
190.211	84.57
190.599	-37.75
190.987	-111.43
191.375	1168.59
191.763	-4.77
192.151	77.47
192.538	-150.7
192.926	221.9
193.314	159.62
193.702	-88.48
194.089	-449.09
194.477	92.09
194.864	822.48
195.252	138.77
195.639	-4.02
196.027	-83.27
196.414	12.78
196.801	346.08
197.189	-123.57
197.576	332.96
197.963	-12.44
198.351	-61.77
198.738	-24
199.125	4.98
199.512	49.21
199.899	-47.58
200.286	1.69
200.673	9.66
201.06	49.02
201.447	48.63
201.833	28.16
202.22	-17.53
202.607	27.35
202.994	35.48
203.38	50
203.767	47.68
204.154	36.15
204.54	-5.19
204.927	22.14
205.313	20.74
205.699	-14.15
206.086	18.46
206.472	8.97
206.858	97.99
207.245	47.32
207.631	3.44
208.017	26.41
208.403	20.03
208.789	66.15
209.175	2.2
209.561	34.45
209.947	20.67
210.333	26.58
210.719	56.55
211.105	46.87
211.491	9.36
211.876	24.7
212.262	40.23
212.648	10.5
213.034	-7.55
213.419	-26.92
213.805	13.96
214.19	-7.97
214.576	24.18
214.961	-20.61
215.346	18.12
215.732	-28.16
216.117	30.24
216.502	1.71
216.888	-18.96
217.273	41.82
217.658	-11.18
218.043	17.72
218.428	-9.21
218.813	2.24
219.198	23.02
219.583	20.01
219.968	7.79
220.353	1.29
220.738	-3.35
221.122	1.41
221.507	15.33
221.892	13.56
222.276	18.73
222.661	18.65
223.046	-18.43
223.43	-11.76
223.815	2.29
224.199	0.06
224.583	2.06
224.968	-0.65
225.352	10.44
225.736	2.3
226.121	-0.82
226.505	0.49
226.889	1.4
227.273	7.87
227.657	-1.55
228.041	4.02
228.425	1.89
228.809	3.71
229.193	5.33
229.577	6.42
229.961	3.67
230.344	4.08
230.728	1.68
231.112	1.93
231.495	4.19
231.879	2.81
232.263	3.14
232.646	2.23
233.03	3.1
233.413	3.06
233.797	2.47
234.18	0.9
234.563	5.94
234.946	3.42
235.33	4.39
235.713	2.43
236.096	2.19
236.479	1.97
236.862	4.59
237.245	4
237.628	4.13
238.011	4.23
238.394	4.1
238.777	3.98
239.16	4.75
239.543	3.81
239.925	3.27
240.308	1.98
240.691	5.03
241.073	3.66
241.456	2.95
241.838	4.11
242.221	3.14
242.603	2.74
242.986	2.96
243.368	2.96
243.75	3.11
244.133	2.75
244.515	2.68
244.897	2.69
245.279	2.57
245.661	3.1
246.043	3.76
246.425	4.6
246.807	4.04
247.189	2.98
247.571	3.08
247.953	3.05
248.335	2.62
248.717	2.95
249.098	2.89
249.48	2.6
249.862	3.56
250.243	2.43
250.625	2.87
251.006	3.82
251.388	3.87
251.769	2.6
252.151	3.19
252.532	3.81
252.913	3.94
253.295	3.35
253.676	2.71
254.057	2.69
254.438	2.72
254.819	2.46
255.2	3.71
255.581	3.53
255.962	2.07
256.343	3.13
256.724	2.3
257.105	2.42
257.486	1.8
257.867	3.58
258.247	2.82
258.628	2.98
259.009	2.37
259.389	2.62
259.77	3.64
260.15	3.25
260.531	2.77
260.911	2.88
261.292	2.93
261.672	2.55
262.052	2.72
262.432	3.18
262.813	2.86
263.193	3.19
263.573	2.71
263.953	3.3
264.333	2.78
264.713	2.74
265.093	2.82
265.473	2.37
265.853	2.16
266.233	3.75
266.612	2.31
266.992	3.24
267.372	3.49
267.752	2.84
268.131	2.13
268.511	2.53
268.89	2.94
269.27	2.82
269.649	2.48
270.029	2.67
270.408	2.79
270.787	3.42
271.167	2.04
271.546	2.4
271.925	2.8
272.304	3.06
272.683	3.09
273.062	2.29
273.441	2.53
273.82	2.44
274.199	2.57
274.578	2.24
274.957	2.86
275.336	3.35
275.715	2.73
276.093	2.55
276.472	2.55
276.851	2.73
277.229	3.14
277.608	3.07
277.986	2.86
278.365	2.76
278.743	2.59
279.122	3.37
279.5	2.86
279.878	3.3
280.257	2.46
280.635	2.41
281.013	3.18
281.391	2.83
281.769	3.09
282.147	2.69
282.525	1.82
282.903	2.92
283.281	2.84
283.659	2.77
284.037	3.31
284.415	2.77
284.792	2.87
285.17	3.05
285.548	2.55
285.925	2.51
286.303	2.77
286.68	2.93
287.058	3.01
287.435	2.8
287.813	2.52
288.19	2.69
288.567	2.74
288.945	2.73
289.322	2.85
289.699	2.31
290.076	3.73
290.453	3
290.83	3.05
291.207	2.92
291.584	3.42
291.961	3.44
292.338	3.01
292.715	3.37
293.092	3.72
293.469	3.21
293.845	3.03
294.222	3.2
294.599	3.26
294.975	3.01
295.352	2.98
295.728	3.34
296.105	3.14
296.481	2.58
296.858	2.9
297.234	3.39
297.61	2.92
297.986	3.41
298.363	3.45
298.739	3.52
299.115	3.72
299.491	3.6
299.867	3.43
300.243	3.49
300.619	3.8
300.995	3.79
301.371	4.13
301.746	4.13
302.122	4.38
302.498	3.86
302.874	3.8
303.249	3.52
303.625	3.46
304	3.06
304.376	3.89
304.751	3.74
305.127	3.97
305.502	4.26
305.878	4.24
306.253	3.77
306.628	3.81
307.003	3.79
307.378	3.8
307.754	4.52
308.129	4.24
308.504	4.71
308.879	4.26
309.254	4.5
309.629	4.35
310.003	4.34
310.378	4.46
310.753	4.31
311.128	4.54
311.502	4.41
311.877	4.36
312.252	4.27
312.626	4.05
313.001	4.22
313.375	4.25
313.75	4.23
314.124	4.01
314.498	4.57
314.873	4.23
315.247	4.71
315.621	4.57
315.995	4.49
316.369	4.62
316.743	4.47
317.117	4.63
317.491	4.8
317.865	4.31
318.239	4.64
318.613	4.72
318.987	4.82
319.361	4.54
319.734	5.19
320.108	4.46
320.482	5.31
320.855	5.02
321.229	4.93
321.602	5.04
321.976	4.92
322.349	5.21
322.723	5.6
323.096	5.14
323.469	5.08
323.843	4.91
324.216	4.72
324.589	5.15
324.962	5.76
325.335	5.05
325.708	4.96
326.081	5.05
326.454	5.24
326.827	5.23
327.2	5.48
327.573	6.3
327.945	5.12
328.318	5.1
328.691	5.23
329.063	5.63
329.436	5.2
329.809	5.43
330.181	4.94
330.553	4.63
330.926	5.78
331.298	5.79
331.671	5.78
332.043	5.22
332.415	5.64
332.787	6.11
333.159	5.14
333.532	5.96
333.904	6.13
334.276	5.32
334.648	5.54
335.02	5.43
335.391	5.77
335.763	5.21
336.135	5.32
336.507	5.56
336.879	5.81
337.25	5.1
337.622	5.65
337.993	6.02
338.365	5.83
338.736	5.86
339.108	5.93
339.479	5.51
339.851	5.93
340.222	5.76
340.593	6.43
340.964	5.73
341.336	6.16
341.707	5.58
342.078	5.33
342.449	6.22
342.82	5.8
343.191	5.98
343.562	6.02
343.933	5.98
344.303	6.07
344.674	6.17
345.045	6.3
345.416	6.08
345.786	6.03
346.157	6.03
346.527	6.05
346.898	5.45
347.268	6.08
347.639	6.42
348.009	6.28
348.38	6.37
348.75	6.08
349.12	6.7
349.49	6.58
349.861	5.99
350.231	6.17
350.601	6.42
350.971	6.21
351.341	6.57
351.711	6.42
352.081	6.55
352.45	6.32
352.82	6.53
353.19	6.53
353.56	6.26
353.929	6.8
354.299	6.6
354.669	6.68
355.038	6.65
355.408	6.6
355.777	6.93
356.147	7.08
356.516	6.79
356.885	6.69
357.254	6.51
357.624	6.48
357.993	6.73
358.362	6.85
358.731	6.25
359.1	6.56
359.469	6.45
359.838	6.54
360.207	6.79
360.576	6.95
360.945	7.04
361.314	6.48
361.682	6.71
362.051	6.63
362.42	6.89
362.788	7
363.157	6.73
363.525	6.77
363.894	6.63
364.262	6.81
364.631	7.07
364.999	7.13
365.367	7.25
365.735	6.94
366.104	7.1
366.472	7.14
366.84	6.71
367.208	7.21
367.576	7.39
367.944	7.3
368.312	6.77
368.68	7.04
369.048	7.15
369.416	7.37
369.783	7.48
370.151	7.51
370.519	7.54
370.886	7.58
371.254	7.77
371.621	7.19
371.989	7.33
372.356	7.56
372.724	7.93
373.091	7.48
373.458	7.1
373.826	7.24
374.193	7.49
374.56	7.56
374.927	7.42
375.294	7.96
375.661	7.99
376.028	7.34
376.395	7.61
376.762	7.68
377.129	7.85
377.496	7.67
377.863	7.81
378.229	7.58
378.596	7.86
378.963	7.79
379.329	8.18
379.696	7.79
380.062	8.01
380.429	7.96
380.795	8.19
381.161	8.16
381.528	7.93
381.894	8.19
382.26	8.22
382.626	8.22
382.993	8.05
383.359	8.31
383.725	7.96
384.091	8.31
384.457	8.28
384.823	8.01
385.188	8.29
385.554	8.11
385.92	8.04
386.286	8.06
386.651	8.43
387.017	8.24
387.383	8.33
387.748	8.34
388.114	8.46
388.479	8.46
388.845	8.49
389.21	8.47
389.575	8.68
389.94	8.37
390.306	8.24
390.671	8.49
391.036	8.59
391.401	8.65
391.766	8.63
392.131	8.38
392.496	8.59
392.861	8.59
393.226	8.48
393.591	8.49
393.956	8.44
394.32	8.81
394.685	8.89
395.05	8.8
395.414	8.73
395.779	8.61
396.143	8.76
396.508	8.94
396.872	8.89
397.236	8.63
397.601	9.11
397.965	9.09
398.329	9.08
398.694	9.16
399.058	9.09
399.422	9.07
399.786	9.14
400.15	9.22
400.514	9.12
400.878	8.97
401.242	8.97
401.605	9.29
401.969	9.02
402.333	9.18
402.697	9.42
403.06	9.58
403.424	9.06
403.787	9.42
404.151	9.41
404.514	9.17
404.878	9.29
405.241	9.11
405.604	9.15
405.968	9.42
406.331	9.09
406.694	9.27
407.057	9.28
407.42	9.4
407.783	9.48
408.146	9.58
408.509	9.64
408.872	9.55
409.235	9.8
409.598	9.65
409.961	9.86
410.323	9.77
410.686	9.86
411.049	9.59
411.411	9.81
411.774	9.79
412.136	9.81
412.499	9.76
412.861	9.77
413.223	9.85
413.586	9.97
413.948	10.21
414.31	10.26
414.672	9.99
415.035	10.22
415.397	10.03
415.759	9.75
416.121	9.89
416.483	9.91
416.845	10.29
417.206	10.14
417.568	9.95
417.93	10
418.292	9.9
418.653	10.15
419.015	9.92
419.377	10.14
419.738	10.16
420.1	10.08
420.461	10.16
420.822	10
421.184	10.01
421.545	10.1
421.906	10.08
422.267	10.02
422.629	9.91
422.99	10.02
423.351	10.08
423.712	10.15
424.073	10.3
424.434	10.31
424.795	10.4
425.155	10.25
425.516	10.39
425.877	10.2
426.238	10.26
426.598	10.24
426.959	10.43
427.32	10.5
427.68	10.68
428.041	10.88
428.401	10.61
428.761	10.96
429.122	10.89
429.482	11.03
429.842	11.02
430.202	10.84
430.563	11.09
430.923	10.94
431.283	10.8
431.643	10.87
432.003	11.34
432.363	11.02
432.722	11.19
433.082	11.21
433.442	11.18
433.802	11.25
434.161	11.13
434.521	11.09
434.881	11.2
435.24	10.94
435.6	11.03
435.959	11.09
436.319	11.13
436.678	11.33
437.037	11.26
437.396	11.48
437.756	11.41
438.115	11.49
438.474	11.42
438.833	11.43
439.192	11.56
439.551	11.48
439.91	11.5
440.269	11.57
440.628	11.61
440.987	11.41
441.345	11.45
441.704	11.5
442.063	11.49
442.421	11.43
442.78	11.51
443.138	11.72
443.497	11.71
443.855	11.8
444.214	11.74
444.572	11.9
444.93	12
445.288	11.98
445.647	12.12
446.005	11.87
446.363	12.07
446.721	11.85
447.079	11.86
447.437	11.72
447.795	11.84
448.153	11.62
448.51	11.84
448.868	11.98
449.226	11.89
449.584	12.14
449.941	12.21
450.299	12.22
450.656	12.21
451.014	12.43
451.371	12.25
451.729	12.32
452.086	12.41
452.443	12.51
452.801	12.63
453.158	12.59
453.515	12.65
453.872	12.6
454.229	12.48
454.586	12.46
454.943	12.66
455.3	12.67
455.657	12.9
456.014	12.91
456.371	12.89
456.727	12.75
457.084	12.61
457.441	13.01
457.797	13
458.154	12.87
458.51	13.08
458.867	12.95
459.223	13.09
459.58	12.96
459.936	12.91
460.292	12.91
460.648	12.84
461.005	12.96
461.361	12.74
461.717	12.75
462.073	12.96
462.429	13.04
462.785	13.15
463.141	13.09
463.496	13.34
463.852	13.39
464.208	13.45
464.564	13.4
464.919	13.58
465.275	13.44
465.631	13.55
465.986	13.56
466.342	13.57
466.697	13.51
467.052	13.61
467.408	13.58
467.763	13.65
468.118	13.67
468.473	13.72
468.829	13.87
469.184	13.69
469.539	13.76
469.894	13.78
470.249	14.18
470.603	13.81
470.958	13.89
471.313	13.89
471.668	14.14
472.023	13.89
472.377	14.1
472.732	13.93
473.086	14.07
473.441	14.11
473.795	14.14
474.15	14.31
474.504	14.45
474.859	14.18
475.213	14.41
475.567	14.35
475.921	14.31
476.275	14.42
476.63	14.61
476.984	14.61
477.338	14.53
477.692	14.41
478.045	14.32
478.399	14.5
478.753	14.48
479.107	14.53
479.461	14.45
479.814	14.47
480.168	14.56
480.521	14.79
480.875	14.82
481.228	14.78
481.582	14.78
481.935	14.72
482.289	14.68
482.642	14.69
482.995	14.66
483.348	14.8
483.701	14.7
484.055	14.7
484.408	14.59
484.761	14.32
485.114	14
485.466	13.9
485.819	14.02
486.172	14.09
486.525	14.38
486.878	14.59
487.23	14.69
487.583	14.89
487.936	14.85
488.288	14.76
488.641	14.53
488.993	14.55
489.345	14.43
489.698	14.56
490.05	14.59
490.402	14.82
490.754	14.99
491.107	15.21
491.459	15.24
491.811	15.44
492.163	15.4
492.515	15.36
492.866	15.06
493.218	14.83
493.57	14.85
493.922	15.12
494.274	15.33
494.625	15.55
494.977	15.71
495.328	15.86
495.68	16.04
496.031	15.99
496.383	16.2
496.734	16.14
497.086	16.18
497.437	16.17
497.788	16.11
498.139	16.15
498.49	15.82
498.842	15.96
499.193	16.12
499.544	16.26
499.894	16.12
500.245	16.35
500.596	16.23
500.947	16.42
501.298	16.51
501.648	16.62
501.999	16.47
502.35	16.65
502.7	16.68
503.051	16.51
503.401	16.78
503.752	16.72
504.102	16.8
504.452	16.79
504.803	16.85
505.153	17.01
505.503	16.9
505.853	16.88
506.203	16.92
506.553	16.97
506.903	16.98
507.253	17.08
507.603	17.17
507.953	17.01
508.303	16.95
508.652	17.14
509.002	17.09
509.352	17.05
509.701	17.24
510.051	17.1
510.4	17.16
510.75	17.01
511.099	17.07
511.449	17.15
511.798	17.25
512.147	17.16
512.496	17.46
512.846	17.39
513.195	17.57
513.544	17.59
513.893	17.41
514.242	17.63
514.591	17.61
514.939	17.74
515.288	17.78
515.637	17.83
515.986	17.79
516.334	17.89
516.683	18.12
517.032	17.99
517.38	17.89
517.729	18.17
518.077	18.09
518.426	18.07
518.774	18.05
519.122	18.17
519.47	18.01
519.819	17.91
520.167	17.76
520.515	17.83
520.863	17.91
521.211	18.01
521.559	18.22
521.907	18.14
522.255	18.35
522.602	18.56
522.95	18.48
523.298	18.64
523.645	18.69
523.993	18.73
524.341	18.71
524.688	18.9
525.036	18.85
525.383	18.79
525.73	19.03
526.078	18.83
526.425	18.81
526.772	18.6
527.119	18.53
527.466	18.52
527.814	18.64
528.161	18.77
528.508	18.79
528.854	18.86
529.201	18.82
529.548	18.53
529.895	18.2
530.242	18.08
530.588	18.26
530.935	18.38
531.282	18.52
531.628	18.72
531.975	18.86
532.321	18.99
532.667	19.18
533.014	19.35
533.36	19.13
533.706	19.41
534.052	19.27
534.399	19.16
534.745	18.97
535.091	18.95
535.437	19.02
535.783	19.23
536.129	19.48
536.474	19.59
536.82	19.59
537.166	19.77
537.512	19.81
537.857	19.77
538.203	19.56
538.549	19.62
538.894	19.83
539.239	19.86
539.585	20.05
539.93	20.15
540.276	20.49
540.621	20.45
540.966	20.56
541.311	20.66
541.656	20.42
542.001	20.36
542.346	20.14
542.691	19.67
543.036	19.58
543.381	19.71
543.726	19.83
544.071	20.04
544.415	20.16
544.76	20.3
545.105	20.23
545.449	20.4
545.794	20.65
546.138	20.71
546.483	20.74
546.827	20.93
547.171	20.84
547.516	20.66
547.86	20.85
548.204	20.88
548.548	20.84
548.892	20.89
549.236	21
549.58	21.3
549.924	21.55
550.268	21.49
550.612	21.72
550.956	21.87
551.3	21.81
551.643	21.91
551.987	21.89
552.33	21.87
552.674	21.84
553.017	21.95
553.361	22.04
553.704	21.98
554.048	21.73
554.391	21.63
554.734	21.85
555.077	22.19
555.42	21.96
555.764	22.14
556.107	22.16
556.45	22.21
556.793	22.37
557.135	22.49
557.478	22.42
557.821	22.65
558.164	22.66
558.507	22.6
558.849	22.52
559.192	22.68
559.534	22.9
559.877	22.93
560.219	22.87
560.562	22.86
560.904	22.89
561.246	22.96
561.589	22.79
561.931	22.67
562.273	23.02
562.615	22.93
562.957	22.89
563.299	22.89
563.641	23.2
563.983	23.12
564.325	23.22
564.667	23.44
565.008	23.34
565.35	23.46
565.692	23.36
566.033	23.35
566.375	23.45
566.716	23.58
567.058	23.45
567.399	23.55
567.741	23.34
568.082	23.39
568.423	23.43
568.764	23.75
569.105	23.75
569.447	23.74
569.788	23.67
570.129	23.83
570.47	23.85
570.811	24.03
571.151	24.09
571.492	24.11
571.833	23.89
572.174	24.33
572.514	24.11
572.855	24.27
573.195	24.03
573.536	24.1
573.876	23.95
574.217	24.31
574.557	24.1
574.898	24.25
575.238	24.31
575.578	24.28
575.918	24.42
576.258	24.54
576.598	24.54
576.938	24.52
577.278	24.44
577.618	24.65
577.958	24.73
578.298	24.9
578.638	24.82
578.977	24.93
579.317	25.1
579.657	24.93
579.996	25.07
580.336	25.04
580.675	25.04
581.014	25.23
581.354	25.2
581.693	25.51
582.032	25.29
582.372	25.34
582.711	25.48
583.05	25.36
583.389	25.62
583.728	25.45
584.067	25.49
584.406	25.67
584.745	26.01
585.083	25.76
585.422	25.72
585.761	25.81
586.1	25.82
586.438	25.89
586.777	26.1
587.115	25.88
587.454	25.9
587.792	26.23
588.13	26.01
588.469	25.94
588.807	26.3
589.145	26.41
589.483	26.49
589.821	26.29
590.159	26.48
590.497	26.36
590.835	26.41
591.173	26.73
591.511	26.34
591.849	26.33
592.187	26.44
592.524	26.44
592.862	26.72
593.2	26.97
593.537	26.67
593.875	26.83
594.212	26.69
594.55	26.9
594.887	26.59
595.224	26.77
595.561	27.01
595.899	26.92
596.236	26.81
596.573	26.95
596.91	27.49
597.247	27.08
597.584	27.08
597.921	27.27
598.258	26.76
598.594	26.87
598.931	26.87
599.268	27.04
599.604	27.01
599.941	27.36
600.277	27.41
600.614	27.73
600.95	27.56
601.287	27.58
601.623	27.91
601.959	27.64
602.296	27.7
602.632	27.67
602.968	27.97
603.304	28.05
603.64	28.27
603.976	28.05
604.312	27.78
604.648	27.98
604.984	27.95
605.319	27.95
605.655	27.65
605.991	27.77
606.326	27.93
606.662	27.77
606.998	27.8
607.333	28.18
607.668	28.08
608.004	28.16
608.339	28.6
608.674	28.59
609.01	28.64
609.345	28.64
609.68	28.51
610.015	28.68
610.35	28.6
610.685	28.51
611.02	28.23
611.355	28.32
611.689	28.45
612.024	28.49
612.359	28.39
612.694	28.88
613.028	28.84
613.363	29
613.697	29.12
614.032	28.86
614.366	29.42
614.7	28.78
615.035	29.24
615.369	29.34
615.703	29.55
616.037	29.87
616.371	29.42
616.705	29.54
617.039	29.66
617.373	29.58
617.707	29.27
618.041	29.93
618.375	29.59
618.709	30.02
619.042	29.89
619.376	29.49
619.71	29.99
620.043	29.95
620.377	29.83
620.71	30.05
621.043	29.39
621.377	29.86
621.71	29.94
622.043	30.76
622.376	30.02
622.709	29.65
623.043	30.06
623.376	30.74
623.709	30.15
624.041	30.63
624.374	30.06
624.707	30.91
625.04	30.48
625.373	30.18
625.705	30.14
626.038	30.31
626.37	30.36
626.703	30.65
627.035	30.45
627.368	30.57
627.7	30.55
628.032	30.55
628.365	30.97
628.697	30.68
629.029	30.68
629.361	30.77
629.693	30.52
630.025	30.96
630.357	31.17
630.689	30.93
631.021	30.88
631.353	31.04
631.684	31.09
632.016	31.17
632.348	31.3
632.679	31.19
633.011	31.22
633.342	31.04
633.674	30.92
634.005	31.33
634.336	31.32
634.668	31.69
634.999	31.02
635.33	31.38
635.661	31.44
635.992	31.94
636.323	31.34
636.654	31.63
636.985	31.49
637.316	31.77
637.647	32.09
637.977	31.99
638.308	31.83
638.639	31.7
638.969	31.62
639.3	32.13
639.63	32.35
639.961	31.77
640.291	32.44
640.622	32.47
640.952	32.46
641.282	32.26
641.612	32.03
641.943	32.61
642.273	32.18
642.603	32.47
642.933	32.7
643.263	32.54
643.592	33.23
643.922	32.47
644.252	32.56
644.582	32.79
644.911	32.33
645.241	32.27
645.571	32.85
645.9	33.1
646.23	32.85
646.559	32.44
646.888	33.15
647.218	32.79
647.547	32.94
647.876	32.95
648.205	32.97
648.534	32.67
648.863	32.65
649.192	33.27
649.521	32.87
649.85	33.42
650.179	32.97
650.508	33.2
650.837	33.09
651.165	33.21
651.494	33.75
651.822	33.4
652.151	32.98
652.479	32.99
652.808	32.88
653.136	33.3
653.465	33.7
653.793	33.86
654.121	33.36
654.449	32.83
654.777	33.54
655.105	33.66
655.433	33.64
655.761	33.64
656.089	34.35
656.417	33.48
656.745	33.95
657.073	33.88
657.4	34.08
657.728	33.86
658.056	34.11
658.383	33.74
658.711	33.95
659.038	33.63
659.365	33.93
659.693	33.83
660.02	34.27
660.347	34.11
660.674	33.86
661.001	33.77
661.329	34.15
661.656	34.08
661.982	34.35
662.309	34.28
662.636	34.76
662.963	34.49
663.29	34.56
663.616	34.31
663.943	34.75
664.27	34.46
664.596	35.06
664.923	35.09
665.249	35.03
665.576	35.56
665.902	34.65
666.228	35.47
666.554	34.43
666.881	34.42
667.207	35.04
667.533	35.16
667.859	35.16
668.185	35.16
668.511	34.55
668.837	35.35
669.162	35.12
669.488	35.17
669.814	35.05
670.139	34.98
670.465	35.2
670.791	35.5
671.116	35.3
671.442	34.84
671.767	35.18
672.092	35.55
672.418	35.25
672.743	35.85
673.068	35.17
673.393	35.46
673.718	36.08
674.043	35.79
674.368	35.61
674.693	35.62
