Data from 20-7_crown_Reflection__1__21.txt Node

Date: Fri Nov 11 20:22:16 CST 2022
User: ToomeyLab
Spectrometer: FLMS14357
Trigger mode: 0
Integration Time (sec): 1.000000E-2
Scans to average: 100
Electric dark correction enabled: true
Nonlinearity correction enabled: false
Boxcar width: 0
XAxis mode: Wavelengths
Number of Pixels in Spectrum: 2048
>>>>>Begin Spectral Data<<<<<
189.047	1.97
189.435	1.97
189.823	1.97
190.211	-74.44
190.599	-5.06
190.987	132.69
191.375	590.05
191.763	52.54
192.151	15.39
192.538	-136.25
192.926	724.77
193.314	88.52
193.702	-8.86
194.089	-929.77
194.477	102.91
194.864	914.3
195.252	158.86
195.639	84.3
196.027	-423.67
196.414	36.85
196.801	159.56
197.189	-147.34
197.576	60.92
197.963	-1330.05
198.351	-167.41
198.738	35.86
199.125	-10.03
199.512	22.88
199.899	-56.67
200.286	-4.05
200.673	45.41
201.06	44.68
201.447	60.26
201.833	19.89
202.22	-19.62
202.607	19.5
202.994	25.85
203.38	29.14
203.767	11.6
204.154	35.06
204.54	22.88
204.927	13.17
205.313	-25.14
205.699	-61.53
206.086	34.53
206.472	4.5
206.858	57.04
207.245	48.16
207.631	21.63
208.017	27.47
208.403	23.47
208.789	-42.35
209.175	15.8
209.561	57.56
209.947	14.09
210.333	-5.86
210.719	25.71
211.105	33.93
211.491	12.24
211.876	-1.09
212.262	45.42
212.648	-3
213.034	-4.73
213.419	13.91
213.805	8.58
214.19	9.89
214.576	-0.6
214.961	-38.79
215.346	-20.81
215.732	-3.94
216.117	56.64
216.502	1.8
216.888	19.54
217.273	25.44
217.658	-2.45
218.043	32.28
218.428	-3.61
218.813	8.91
219.198	0.24
219.583	12.45
219.968	-1.17
220.353	-27.35
220.738	-9.22
221.122	31.15
221.507	-18.52
221.892	7.47
222.276	23.89
222.661	15.18
223.046	-8.83
223.43	2.95
223.815	19.25
224.199	9.38
224.583	-4.26
224.968	-4.53
225.352	5.36
225.736	-0.7
226.121	8.2
226.505	5.82
226.889	-10.67
227.273	13.31
227.657	-2.39
228.041	2.02
228.425	1.97
228.809	3.54
229.193	4.33
229.577	5.53
229.961	1.56
230.344	2.06
230.728	0.29
231.112	0.4
231.495	1.81
231.879	0.99
232.263	1.8
232.646	1.85
233.03	1.58
233.413	2.52
233.797	2.16
234.18	1.08
234.563	3.38
234.946	2.86
235.33	2.98
235.713	1.5
236.096	-0.29
236.479	2.44
236.862	4.12
237.245	0.67
237.628	4.19
238.011	1.54
238.394	1.99
238.777	2.69
239.16	5.97
239.543	-0.04
239.925	3.48
240.308	0.22
240.691	3.76
241.073	1.79
241.456	1.24
241.838	2.56
242.221	1.43
242.603	2.05
242.986	0.85
243.368	0.96
243.75	1.24
244.133	1.38
244.515	1.43
244.897	1.98
245.279	1.01
245.661	1.57
246.043	1.75
246.425	2.01
246.807	2.16
247.189	0.98
247.571	2.44
247.953	1.7
248.335	1.28
248.717	1.45
249.098	1.88
249.48	1.34
249.862	1.87
250.243	1.17
250.625	1.41
251.006	2.24
251.388	1.36
251.769	1.44
252.151	2.32
252.532	1.59
252.913	1.94
253.295	1.79
253.676	0.96
254.057	1.04
254.438	1.25
254.819	1.15
255.2	2.22
255.581	1.88
255.962	0.85
256.343	1.18
256.724	1.66
257.105	1.69
257.486	1.3
257.867	1.82
258.247	0.45
258.628	0.84
259.009	1.4
259.389	1.23
259.77	1.83
260.15	1.26
260.531	1.65
260.911	1.17
261.292	1.46
261.672	1.05
262.052	1.31
262.432	1.63
262.813	1.58
263.193	1.19
263.573	1.6
263.953	1.63
264.333	1.43
264.713	1.5
265.093	1.48
265.473	0.46
265.853	1.23
266.233	1.04
266.612	1.11
266.992	1.57
267.372	2.3
267.752	1.49
268.131	0.95
268.511	1.55
268.89	0.97
269.27	1.2
269.649	1.45
270.029	1.63
270.408	0.93
270.787	1.45
271.167	1.04
271.546	0.93
271.925	1.31
272.304	1.27
272.683	1.05
273.062	1.16
273.441	0.89
273.82	1.28
274.199	0.99
274.578	0.74
274.957	1.56
275.336	1.7
275.715	1.23
276.093	1.37
276.472	1.26
276.851	1.01
277.229	0.91
277.608	1.48
277.986	1.72
278.365	1.06
278.743	1.01
279.122	0.66
279.5	1.22
279.878	1.25
280.257	1.4
280.635	1.39
281.013	1.51
281.391	1.27
281.769	1.37
282.147	1.54
282.525	0.77
282.903	0.84
283.281	1.74
283.659	1.39
284.037	1.43
284.415	1.13
284.792	1.16
285.17	1.66
285.548	0.87
285.925	1.09
286.303	1.12
286.68	1.56
287.058	1.27
287.435	1.31
287.813	1.17
288.19	0.85
288.567	1.42
288.945	1.32
289.322	1.66
289.699	0.4
290.076	1.49
290.453	1.02
290.83	0.74
291.207	1.11
291.584	1.01
291.961	1.12
292.338	1.23
292.715	1.13
293.092	1.35
293.469	0.83
293.845	1.07
294.222	0.59
294.599	1.46
294.975	1.16
295.352	1.27
295.728	1.31
296.105	0.67
296.481	1
296.858	0.91
297.234	0.79
297.61	0.8
297.986	1.03
298.363	1.59
298.739	1.3
299.115	1.41
299.491	1.49
299.867	1.23
300.243	1.4
300.619	0.97
300.995	1.04
301.371	1.98
301.746	1.48
302.122	1.36
302.498	1.54
302.874	1.3
303.249	1.25
303.625	1.27
304	0.58
304.376	1.84
304.751	1.14
305.127	1.05
305.502	1.57
305.878	1.54
306.253	1.24
306.628	1.11
307.003	1.17
307.378	1.37
307.754	1.44
308.129	1.37
308.504	1.24
308.879	1.04
309.254	1.09
309.629	1.02
310.003	1.29
310.378	1.26
310.753	1.59
311.128	1.63
311.502	1.66
311.877	1.18
312.252	1.66
312.626	1.24
313.001	0.93
313.375	1.15
313.75	1.17
314.124	1.12
314.498	1.34
314.873	1.25
315.247	1.28
315.621	1.5
315.995	1.41
316.369	1.52
316.743	1.15
317.117	1.17
317.491	1.08
317.865	1.08
318.239	1.39
318.613	1.4
318.987	0.85
319.361	0.92
319.734	1.86
320.108	1.03
320.482	1.76
320.855	1.45
321.229	1.15
321.602	1.11
321.976	1.69
322.349	1.7
322.723	1.54
323.096	1.48
323.469	1.68
323.843	1.52
324.216	1.2
324.589	1.57
324.962	1.59
325.335	1.4
325.708	1.25
326.081	1.59
326.454	0.98
326.827	1.06
327.2	2.1
327.573	2.14
327.945	1.48
328.318	1.1
328.691	1.55
329.063	1.46
329.436	1.19
329.809	1.1
330.181	0.82
330.553	0.6
330.926	1.56
331.298	1.11
331.671	0.85
332.043	1.15
332.415	1.33
332.787	1.84
333.159	1.24
333.532	1.41
333.904	2.18
334.276	1.48
334.648	0.98
335.02	1.01
335.391	1.81
335.763	1.72
336.135	1.48
336.507	1.55
336.879	1.19
337.25	1.13
337.622	1.64
337.993	1.4
338.365	1.69
338.736	1.5
339.108	1.51
339.479	1.01
339.851	1.68
340.222	1.44
340.593	1.29
340.964	1.4
341.336	1.77
341.707	1.5
342.078	1.29
342.449	1.41
342.82	1.73
343.191	1.34
343.562	1.47
343.933	1.6
344.303	1.18
344.674	1.8
345.045	0.95
345.416	1.42
345.786	1.19
346.157	1.3
346.527	1.55
346.898	0.84
347.268	1.29
347.639	1.53
348.009	1.15
348.38	2.04
348.75	1.55
349.12	1.87
349.49	1.88
349.861	1.18
350.231	1.59
350.601	1.64
350.971	1.09
351.341	1.51
351.711	1.28
352.081	1.68
352.45	1.23
352.82	1.12
353.19	1.55
353.56	1.48
353.929	1.55
354.299	1.38
354.669	1.28
355.038	1.22
355.408	1.64
355.777	1.27
356.147	1.33
356.516	1.25
356.885	1.58
357.254	1.22
357.624	0.88
357.993	1.29
358.362	1.69
358.731	1.04
359.1	1.41
359.469	1.17
359.838	1.24
360.207	1.42
360.576	1.16
360.945	1.59
361.314	0.94
361.682	1.25
362.051	1.34
362.42	1.74
362.788	1.47
363.157	1.49
363.525	1.21
363.894	1.23
364.262	1.62
364.631	1.61
364.999	1.24
365.367	1.5
365.735	1.5
366.104	1.28
366.472	1.16
366.84	0.94
367.208	1.26
367.576	1.78
367.944	1.51
368.312	1.07
368.68	1.24
369.048	1.56
369.416	1.41
369.783	1.65
370.151	1.37
370.519	1.6
370.886	1.78
371.254	1.57
371.621	1.29
371.989	1.03
372.356	1.25
372.724	1.66
373.091	1.74
373.458	1.22
373.826	1.14
374.193	1.13
374.56	1.31
374.927	1.23
375.294	1.53
375.661	1.78
376.028	1.36
376.395	1.66
376.762	1.29
377.129	1.41
377.496	1.51
377.863	1.36
378.229	1.38
378.596	1.19
378.963	1.31
379.329	1.35
379.696	1.37
380.062	1.37
380.429	1.44
380.795	1.56
381.161	1.23
381.528	1.52
381.894	1.54
382.26	1.55
382.626	1.68
382.993	1.64
383.359	1.6
383.725	1.38
384.091	1.33
384.457	1.21
384.823	1.32
385.188	1.33
385.554	1.28
385.92	1.4
386.286	1.3
386.651	1.37
387.017	0.97
387.383	1.42
387.748	1.38
388.114	1.44
388.479	1.25
388.845	1.47
389.21	1.37
389.575	1.49
389.94	1.42
390.306	1.32
390.671	1.36
391.036	1.45
391.401	1.34
391.766	1.55
392.131	1.49
392.496	1.78
392.861	1.31
393.226	1.36
393.591	1.29
393.956	1.25
394.32	1.59
394.685	1.27
395.05	1.7
395.414	1.28
395.779	1.33
396.143	1.34
396.508	1.65
396.872	1.46
397.236	1.36
397.601	1.27
397.965	1.59
398.329	1.48
398.694	1.71
399.058	1.41
399.422	1.69
399.786	1.46
400.15	1.55
400.514	1.59
400.878	1.4
401.242	1.47
401.605	1.59
401.969	1.54
402.333	1.34
402.697	1.59
403.06	1.61
403.424	1.31
403.787	1.57
404.151	1.43
404.514	1.2
404.878	1.39
405.241	1.57
405.604	1.39
405.968	1.61
406.331	1.31
406.694	1.51
407.057	1.54
407.42	1.45
407.783	1.48
408.146	1.58
408.509	1.49
408.872	1.56
409.235	1.64
409.598	1.59
409.961	1.71
410.323	1.49
410.686	1.41
411.049	1.41
411.411	1.48
411.774	1.33
412.136	1.35
412.499	1.63
412.861	1.53
413.223	1.35
413.586	1.64
413.948	1.83
414.31	1.61
414.672	1.31
415.035	1.57
415.397	1.44
415.759	1.35
416.121	1.46
416.483	1.38
416.845	1.48
417.206	1.39
417.568	1.43
417.93	1.46
418.292	1.31
418.653	1.5
419.015	1.5
419.377	1.4
419.738	1.51
420.1	1.51
420.461	1.55
420.822	1.36
421.184	1.44
421.545	1.32
421.906	1.52
422.267	1.43
422.629	1.38
422.99	1.4
423.351	1.37
423.712	1.34
424.073	1.53
424.434	1.43
424.795	1.53
425.155	1.45
425.516	1.41
425.877	1.44
426.238	1.36
426.598	1.38
426.959	1.34
427.32	1.44
427.68	1.49
428.041	1.56
428.401	1.35
428.761	1.56
429.122	1.45
429.482	1.6
429.842	1.46
430.202	1.52
430.563	1.74
430.923	1.5
431.283	1.45
431.643	1.45
432.003	1.72
432.363	1.51
432.722	1.69
433.082	1.54
433.442	1.59
433.802	1.5
434.161	1.38
434.521	1.44
434.881	1.67
435.24	1.51
435.6	1.56
435.959	1.53
436.319	1.41
436.678	1.45
437.037	1.48
437.396	1.6
437.756	1.44
438.115	1.45
438.474	1.47
438.833	1.65
439.192	1.47
439.551	1.52
439.91	1.51
440.269	1.43
440.628	1.66
440.987	1.54
441.345	1.54
441.704	1.57
442.063	1.55
442.421	1.48
442.78	1.38
443.138	1.53
443.497	1.42
443.855	1.46
444.214	1.47
444.572	1.48
444.93	1.53
445.288	1.47
445.647	1.72
446.005	1.62
446.363	1.61
446.721	1.51
447.079	1.63
447.437	1.45
447.795	1.49
448.153	1.43
448.51	1.55
448.868	1.53
449.226	1.56
449.584	1.52
449.941	1.51
450.299	1.46
450.656	1.58
451.014	1.51
451.371	1.55
451.729	1.46
452.086	1.58
452.443	1.52
452.801	1.53
453.158	1.42
453.515	1.46
453.872	1.44
454.229	1.65
454.586	1.43
454.943	1.67
455.3	1.61
455.657	1.56
456.014	1.68
456.371	1.66
456.727	1.8
457.084	1.15
457.441	1.61
457.797	1.45
458.154	1.46
458.51	1.52
458.867	1.55
459.223	1.71
459.58	1.54
459.936	1.57
460.292	1.63
460.648	1.55
461.005	1.47
461.361	1.5
461.717	1.41
462.073	1.57
462.429	1.48
462.785	1.48
463.141	1.36
463.496	1.49
463.852	1.66
464.208	1.44
464.564	1.51
464.919	1.71
465.275	1.56
465.631	1.53
465.986	1.66
466.342	1.66
466.697	1.6
467.052	1.5
467.408	1.57
467.763	1.51
468.118	1.53
468.473	1.63
468.829	1.47
469.184	1.55
469.539	1.57
469.894	1.63
470.249	1.76
470.603	1.51
470.958	1.59
471.313	1.62
471.668	1.63
472.023	1.44
472.377	1.72
472.732	1.52
473.086	1.37
473.441	1.65
473.795	1.54
474.15	1.5
474.504	1.61
474.859	1.59
475.213	1.83
475.567	1.63
475.921	1.71
476.275	1.53
476.63	1.58
476.984	1.8
477.338	1.6
477.692	1.47
478.045	1.5
478.399	1.69
478.753	1.51
479.107	1.6
479.461	1.6
479.814	1.48
480.168	1.59
480.521	1.67
480.875	1.57
481.228	1.56
481.582	1.58
481.935	1.39
482.289	1.46
482.642	1.55
482.995	1.54
483.348	1.49
483.701	1.6
484.055	1.51
484.408	1.57
484.761	1.45
485.114	1.42
485.466	1.38
485.819	1.4
486.172	1.39
486.525	1.47
486.878	1.44
487.23	1.5
487.583	1.5
487.936	1.47
488.288	1.53
488.641	1.46
488.993	1.49
489.345	1.42
489.698	1.44
490.05	1.46
490.402	1.5
490.754	1.49
491.107	1.47
491.459	1.46
491.811	1.51
492.163	1.63
492.515	1.52
492.866	1.5
493.218	1.45
493.57	1.45
493.922	1.5
494.274	1.51
494.625	1.57
494.977	1.64
495.328	1.64
495.68	1.54
496.031	1.53
496.383	1.57
496.734	1.66
497.086	1.64
497.437	1.66
497.788	1.55
498.139	1.55
498.49	1.48
498.842	1.48
499.193	1.56
499.544	1.49
499.894	1.53
500.245	1.59
500.596	1.61
500.947	1.52
501.298	1.63
501.648	1.51
501.999	1.57
502.35	1.63
502.7	1.64
503.051	1.62
503.401	1.5
503.752	1.52
504.102	1.52
504.452	1.54
504.803	1.55
505.153	1.59
505.503	1.6
505.853	1.61
506.203	1.61
506.553	1.47
506.903	1.67
507.253	1.49
507.603	1.61
507.953	1.56
508.303	1.59
508.652	1.57
509.002	1.59
509.352	1.53
509.701	1.63
510.051	1.55
510.4	1.57
510.75	1.52
511.099	1.5
511.449	1.52
511.798	1.51
512.147	1.45
512.496	1.42
512.846	1.63
513.195	1.52
513.544	1.52
513.893	1.45
514.242	1.47
514.591	1.57
514.939	1.55
515.288	1.58
515.637	1.59
515.986	1.58
516.334	1.57
516.683	1.6
517.032	1.58
517.38	1.66
517.729	1.66
518.077	1.66
518.426	1.72
518.774	1.6
519.122	1.68
519.47	1.57
519.819	1.53
520.167	1.48
520.515	1.58
520.863	1.63
521.211	1.53
521.559	1.49
521.907	1.55
522.255	1.56
522.602	1.63
522.95	1.53
523.298	1.64
523.645	1.6
523.993	1.61
524.341	1.59
524.688	1.58
525.036	1.59
525.383	1.57
525.73	1.55
526.078	1.56
526.425	1.49
526.772	1.64
527.119	1.46
527.466	1.58
527.814	1.52
528.161	1.61
528.508	1.53
528.854	1.56
529.201	1.53
529.548	1.52
529.895	1.44
530.242	1.4
530.588	1.46
530.935	1.46
531.282	1.51
531.628	1.51
531.975	1.53
532.321	1.52
532.667	1.59
533.014	1.52
533.36	1.45
533.706	1.57
534.052	1.56
534.399	1.53
534.745	1.48
535.091	1.52
535.437	1.44
535.783	1.53
536.129	1.59
536.474	1.57
536.82	1.59
537.166	1.49
537.512	1.52
537.857	1.52
538.203	1.48
538.549	1.61
538.894	1.53
539.239	1.54
539.585	1.58
539.93	1.58
540.276	1.75
540.621	1.6
540.966	1.59
541.311	1.59
541.656	1.59
542.001	1.5
542.346	1.58
542.691	1.51
543.036	1.44
543.381	1.51
543.726	1.46
544.071	1.51
544.415	1.54
544.76	1.6
545.105	1.53
545.449	1.5
545.794	1.58
546.138	1.56
546.483	1.65
546.827	1.6
547.171	1.59
547.516	1.5
547.86	1.56
548.204	1.57
548.548	1.54
548.892	1.54
549.236	1.62
549.58	1.63
549.924	1.71
550.268	1.62
550.612	1.71
550.956	1.71
551.3	1.64
551.643	1.44
551.987	1.61
552.33	1.61
552.674	1.63
553.017	1.73
553.361	1.64
553.704	1.72
554.048	1.66
554.391	1.7
554.734	1.6
555.077	1.79
555.42	1.6
555.764	1.62
556.107	1.55
556.45	1.68
556.793	1.67
557.135	1.71
557.478	1.71
557.821	1.69
558.164	1.47
558.507	1.76
558.849	1.67
559.192	1.53
559.534	1.67
559.877	1.66
560.219	1.68
560.562	1.57
560.904	1.81
561.246	1.5
561.589	1.75
561.931	1.51
562.273	1.66
562.615	1.59
562.957	1.68
563.299	1.61
563.641	1.54
563.983	1.61
564.325	1.65
564.667	1.81
565.008	1.93
565.35	1.58
565.692	1.62
566.033	1.57
566.375	1.69
566.716	1.66
567.058	1.62
567.399	1.66
567.741	1.68
568.082	1.62
568.423	1.66
568.764	1.79
569.105	1.52
569.447	1.83
569.788	1.62
570.129	1.52
570.47	1.63
570.811	1.72
571.151	1.72
571.492	1.61
571.833	1.7
572.174	1.63
572.514	1.89
572.855	1.73
573.195	1.4
573.536	1.87
573.876	1.64
574.217	1.79
574.557	1.64
574.898	1.64
575.238	1.68
575.578	1.6
575.918	1.7
576.258	1.74
576.598	1.64
576.938	1.75
577.278	1.57
577.618	1.63
577.958	1.6
578.298	1.83
578.638	1.66
578.977	1.75
579.317	1.68
579.657	1.79
579.996	1.6
580.336	1.64
580.675	1.78
581.014	1.78
581.354	1.64
581.693	1.53
582.032	1.55
582.372	1.59
582.711	1.71
583.05	1.58
583.389	1.63
583.728	1.72
584.067	1.74
584.406	1.41
584.745	1.84
585.083	1.52
585.422	1.56
585.761	1.63
586.1	1.51
586.438	1.69
586.777	1.78
587.115	1.74
587.454	1.68
587.792	1.48
588.13	1.74
588.469	1.69
588.807	1.59
589.145	1.66
589.483	1.83
589.821	1.78
590.159	1.81
590.497	1.74
590.835	1.72
591.173	1.69
591.511	1.64
591.849	1.64
592.187	1.64
592.524	1.55
592.862	1.52
593.2	1.82
593.537	1.63
593.875	1.93
594.212	1.7
594.55	1.75
594.887	1.59
595.224	1.54
595.561	1.58
595.899	1.53
596.236	1.48
596.573	1.65
596.91	1.69
597.247	1.61
597.584	1.59
597.921	1.86
598.258	1.87
598.594	1.63
598.931	1.54
599.268	1.61
599.604	1.82
599.941	1.84
600.277	1.78
600.614	1.68
600.95	1.49
601.287	1.67
601.623	2.11
601.959	2.01
602.296	1.56
602.632	1.78
602.968	1.55
603.304	1.8
603.64	1.86
603.976	1.75
604.312	1.65
604.648	1.69
604.984	1.84
605.319	1.83
605.655	1.55
605.991	1.59
606.326	1.81
606.662	1.73
606.998	1.62
607.333	1.77
607.668	1.61
608.004	1.78
608.339	1.85
608.674	1.61
609.01	1.79
609.345	1.67
609.68	1.74
610.015	1.52
610.35	1.68
610.685	1.81
611.02	1.65
611.355	1.69
611.689	1.63
612.024	1.55
612.359	1.57
612.694	1.44
613.028	1.65
613.363	1.76
613.697	1.78
614.032	1.7
614.366	1.86
614.7	1.64
615.035	1.9
615.369	1.54
615.703	1.67
616.037	1.81
616.371	1.78
616.705	1.56
617.039	1.73
617.373	1.73
617.707	1.57
618.041	1.79
618.375	1.37
618.709	1.83
619.042	1.92
619.376	1.82
619.71	1.83
620.043	1.89
620.377	1.57
620.71	1.73
621.043	1.68
621.377	1.81
621.71	1.59
622.043	1.69
622.376	1.98
622.709	1.28
623.043	1.68
623.376	1.91
623.709	1.66
624.041	1.64
624.374	1.33
624.707	1.9
625.04	1.61
625.373	1.29
625.705	1.78
626.038	1.97
626.37	1.8
626.703	1.72
627.035	1.63
627.368	1.33
627.7	1.66
628.032	1.92
628.365	1.91
628.697	1.79
629.029	1.97
629.361	1.71
629.693	1.71
630.025	1.63
630.357	1.64
630.689	1.38
631.021	1.8
631.353	2
631.684	1.8
632.016	1.73
632.348	1.62
632.679	1.65
633.011	1.66
633.342	1.8
633.674	1.47
634.005	1.54
634.336	1.86
634.668	1.91
634.999	1.86
635.33	1.8
635.661	2.03
635.992	1.82
636.323	1.56
636.654	1.87
636.985	1.65
637.316	1.52
637.647	2.28
637.977	1.69
638.308	1.73
638.639	1.85
638.969	1.37
639.3	1.72
639.63	2.17
639.961	2.02
640.291	1.93
640.622	2.29
640.952	1.96
641.282	1.34
641.612	1.63
641.943	1.98
642.273	1.76
642.603	1.62
642.933	1.86
643.263	1.77
643.592	2.16
643.922	1.82
644.252	1.92
644.582	1.98
644.911	1.61
645.241	1.75
645.571	1.84
645.9	2.27
646.23	2.26
646.559	2.22
646.888	1.77
647.218	1.45
647.547	1.74
647.876	2.01
648.205	1.62
648.534	1.92
648.863	1.79
649.192	1.59
649.521	1.72
649.85	1.95
650.179	1.5
650.508	1.93
650.837	1.9
651.165	1.54
651.494	2.15
651.822	1.67
652.151	1.9
652.479	1.23
652.808	1.68
653.136	1.83
653.465	2.24
653.793	2.07
654.121	1.34
654.449	1.16
654.777	2.3
655.105	1.71
655.433	1.57
655.761	2.11
656.089	2.03
656.417	1.45
656.745	2.28
657.073	1.5
657.4	2.16
657.728	2.03
658.056	1.75
658.383	2.32
658.711	1.53
659.038	1.46
659.365	1.17
659.693	1.71
660.02	2.66
660.347	1.78
660.674	1.94
661.001	1.67
661.329	1.94
661.656	1.9
661.982	2.08
662.309	1.62
662.636	1.81
662.963	2.04
663.29	1.67
663.616	1.46
663.943	2.1
664.27	1.82
664.596	2.35
664.923	2.01
665.249	2.25
665.576	2.25
665.902	2.18
666.228	2.04
666.554	1.5
666.881	1.81
667.207	1.91
667.533	2.54
667.859	1.74
668.185	1.87
668.511	1.41
668.837	2.42
669.162	2.11
669.488	1.92
669.814	2.15
670.139	2.03
670.465	1.79
670.791	1.81
671.116	1.87
671.442	2.05
671.767	2.28
672.092	2.09
672.418	1.58
672.743	1.18
673.068	2.01
673.393	2.28
673.718	1.78
674.043	2.07
674.368	1.87
674.693	1.23
675.018	1.43
675.343	2.24
675.667	1.92
675.992	3.12
676.317	1.66
676.641	1.58
676.966	1.84
677.29	1.6
677.615	1.72
677.939	1.71
678.264	2.2
678.588	2.1
678.912	1.63
679.236	1.68
679.56	2.31
679.885	1.4
680.209	1.43
680.532	2.07
680.856	2.32
681.18	1.88
681.504	1.85
681.828	2.57
682.152	1.7
682.475	2.07
682.799	1.96
683.122	1.85
683.446	2.1
683.769	1.51
684.093	1.6
684.416	1.84
684.739	2.1
685.062	1.92
685.386	1.77
685.709	2.1
686.032	1.62
686.355	2.18
686.678	2.57
687.001	1.58
687.324	1.36
687.646	1.14
687.969	2.21
688.292	2.51
688.614	1.67
688.937	1.7
689.26	1.5
689.582	2.84
689.904	1.86
690.227	2.02
690.549	1.45
690.871	1.63
691.194	1.98
691.516	2.14
691.838	1.61
692.16	1.46
