Data from 20-7_crown_Reflection__4__24.txt Node

Date: Fri Nov 11 20:22:57 CST 2022
User: ToomeyLab
Spectrometer: FLMS14357
Trigger mode: 0
Integration Time (sec): 1.000000E-2
Scans to average: 100
Electric dark correction enabled: true
Nonlinearity correction enabled: false
Boxcar width: 0
XAxis mode: Wavelengths
Number of Pixels in Spectrum: 2048
>>>>>Begin Spectral Data<<<<<
189.047	-58.48
189.435	-58.48
189.823	-58.48
190.211	-98.99
190.599	-138.2
190.987	210.93
191.375	-1080.1
191.763	-112.92
192.151	74.21
192.538	-20.59
192.926	424.05
193.314	77.08
193.702	27.85
194.089	-663.97
194.477	101.07
194.864	73.69
195.252	264.77
195.639	-12.37
196.027	-266.54
196.414	74
196.801	151.11
197.189	-79.76
197.576	-12.93
197.963	-1559.07
198.351	-161.95
198.738	-70.06
199.125	24.86
199.512	4.55
199.899	-34.59
200.286	14.42
200.673	16.12
201.06	48.05
201.447	29.26
201.833	28.91
202.22	44
202.607	44.32
202.994	33.22
203.38	22.28
203.767	43.34
204.154	31.66
204.54	-1.48
204.927	36.5
205.313	8.94
205.699	-16.57
206.086	39.45
206.472	0.78
206.858	32.7
207.245	41.57
207.631	-5.13
208.017	32.18
208.403	-2.48
208.789	16.43
209.175	17.05
209.561	39.85
209.947	22.26
210.333	33.99
210.719	45.09
211.105	52.23
211.491	18.19
211.876	23.62
212.262	23.12
212.648	4.47
213.034	-17.42
213.419	2.99
213.805	-13.82
214.19	-0.71
214.576	4.63
214.961	-51.69
215.346	1.69
215.732	37.38
216.117	37.56
216.502	16.75
216.888	21.54
217.273	9.04
217.658	-15.2
218.043	11.48
218.428	-1.1
218.813	21.77
219.198	1.1
219.583	0.15
219.968	19.72
220.353	-8.54
220.738	-22.97
221.122	7.5
221.507	-2.66
221.892	4.38
222.276	1.31
222.661	16.73
223.046	3.86
223.43	2.62
223.815	1.46
224.199	7.13
224.583	-8.1
224.968	-8.59
225.352	-3.12
225.736	-0.03
226.121	-4.56
226.505	4
226.889	-13.57
227.273	0.35
227.657	-3.88
228.041	1.73
228.425	0.57
228.809	1.86
229.193	4.9
229.577	2.15
229.961	2.28
230.344	2.91
230.728	0.96
231.112	-0
231.495	1.37
231.879	1.43
232.263	0.33
232.646	-0.84
233.03	1.13
233.413	1.52
233.797	4.04
234.18	1.39
234.563	3.51
234.946	1.77
235.33	1.52
235.713	0.75
236.096	0.62
236.479	-0.2
236.862	2.72
237.245	-1.5
237.628	1.35
238.011	2.06
238.394	1.22
238.777	2.48
239.16	4.62
239.543	-1.27
239.925	1.08
240.308	0.36
240.691	1.18
241.073	0.23
241.456	1.99
241.838	1.57
242.221	0.81
242.603	0.97
242.986	1.18
243.368	0.97
243.75	1.66
244.133	1.55
244.515	0.89
244.897	1.22
245.279	1.6
245.661	0.88
246.043	1.19
246.425	1.46
246.807	1.22
247.189	0.4
247.571	0.99
247.953	1.11
248.335	1.42
248.717	1.5
249.098	1.39
249.48	1.01
249.862	1.65
250.243	1.12
250.625	1.52
251.006	2.19
251.388	1.64
251.769	1.96
252.151	1.62
252.532	1.95
252.913	1.59
253.295	1.46
253.676	0.88
254.057	0.74
254.438	1.28
254.819	1.42
255.2	3.03
255.581	1.43
255.962	1.52
256.343	1.15
256.724	0.58
257.105	1.52
257.486	0.66
257.867	2.62
258.247	-0.07
258.628	1.61
259.009	1.01
259.389	1.58
259.77	1.6
260.15	1.3
260.531	1.36
260.911	1.39
261.292	1.46
261.672	1.12
262.052	1.14
262.432	1.28
262.813	1.32
263.193	1.68
263.573	1.45
263.953	1.96
264.333	0.8
264.713	1.35
265.093	1.57
265.473	0.78
265.853	0.85
266.233	1.16
266.612	1.26
266.992	0.92
267.372	1.93
267.752	1.09
268.131	0.59
268.511	1.71
268.89	1.23
269.27	1.72
269.649	0.63
270.029	1.12
270.408	1.19
270.787	1.32
271.167	0.63
271.546	0.84
271.925	1.28
272.304	0.87
272.683	1.08
273.062	1.13
273.441	1.24
273.82	1.27
274.199	0.81
274.578	1.14
274.957	1.48
275.336	1.67
275.715	1.39
276.093	0.76
276.472	0.95
276.851	1.16
277.229	0.61
277.608	1.42
277.986	1.2
278.365	0.91
278.743	1.15
279.122	1.65
279.5	1.12
279.878	1.45
280.257	0.99
280.635	0.92
281.013	0.89
281.391	0.66
281.769	1.02
282.147	0.98
282.525	0.86
282.903	1
283.281	1.54
283.659	1.25
284.037	1.16
284.415	0.91
284.792	1.35
285.17	1.2
285.548	1.15
285.925	0.72
286.303	0.93
286.68	1.39
287.058	1.28
287.435	0.95
287.813	1.48
288.19	1.09
288.567	1.39
288.945	1.06
289.322	1.34
289.699	0.8
290.076	1.74
290.453	1.05
290.83	1.06
291.207	1.42
291.584	1.6
291.961	1.06
292.338	1.13
292.715	1.01
293.092	1.8
293.469	1
293.845	1.17
294.222	0.82
294.599	1.86
294.975	0.88
295.352	1.55
295.728	1.27
296.105	1.04
296.481	0.69
296.858	1.48
297.234	1.33
297.61	0.86
297.986	1.53
298.363	1.4
298.739	1.1
299.115	1.23
299.491	1.27
299.867	1.28
300.243	0.93
300.619	1.45
300.995	1.35
301.371	1.72
301.746	2.23
302.122	1.51
302.498	1.38
302.874	1.39
303.249	1.43
303.625	1
304	0.89
304.376	1.28
304.751	0.93
305.127	1.53
305.502	1.91
305.878	1.51
306.253	1.46
306.628	1.43
307.003	1.21
307.378	1.18
307.754	2
308.129	1.68
308.504	1.88
308.879	1.74
309.254	1.38
309.629	0.94
310.003	1.37
310.378	1.35
310.753	2.11
311.128	1.82
311.502	1.75
311.877	1.21
312.252	1.69
312.626	1.37
313.001	1.09
313.375	1.22
313.75	1.4
314.124	0.94
314.498	1.33
314.873	1.21
315.247	1.62
315.621	1.49
315.995	1.76
316.369	1.45
316.743	1.73
317.117	1.24
317.491	1.09
317.865	1.18
318.239	1.31
318.613	1.37
318.987	1.82
319.361	1.44
319.734	1.71
320.108	1.14
320.482	1.68
320.855	1.45
321.229	1.69
321.602	1.19
321.976	1.34
322.349	1.65
322.723	1.88
323.096	1.86
323.469	1.69
323.843	1.64
324.216	1.12
324.589	2.04
324.962	2.04
325.335	1.41
325.708	1.65
326.081	1.85
326.454	1.38
326.827	1.45
327.2	1.91
327.573	2.58
327.945	1.37
328.318	1.31
328.691	1.71
329.063	1.78
329.436	1.43
329.809	1.22
330.181	1.51
330.553	1.31
330.926	1.63
331.298	1.45
331.671	1.51
332.043	1.73
332.415	1.71
332.787	2.36
333.159	1.58
333.532	1.81
333.904	2.18
334.276	1.52
334.648	1.63
335.02	1.24
335.391	1.94
335.763	1.44
336.135	1.68
336.507	1.65
336.879	1.52
337.25	1.47
337.622	1.53
337.993	1.87
338.365	1.83
338.736	1.98
339.108	2.1
339.479	1.41
339.851	2.32
340.222	1.65
340.593	1.56
340.964	2.04
341.336	2.12
341.707	1.81
342.078	1.62
342.449	1.84
342.82	1.72
343.191	1.95
343.562	1.46
343.933	1.22
344.303	1.59
344.674	1.88
345.045	1.88
345.416	1.69
345.786	1.49
346.157	1.35
346.527	1.55
346.898	1.38
347.268	1.23
347.639	1.78
348.009	1.62
348.38	2.05
348.75	1.72
349.12	2.21
349.49	2.07
349.861	1.47
350.231	1.72
350.601	2
350.971	1.86
351.341	1.92
351.711	1.66
352.081	2.38
352.45	1.9
352.82	1.71
353.19	1.75
353.56	1.68
353.929	1.95
354.299	1.6
354.669	1.45
355.038	1.83
355.408	2.22
355.777	1.97
356.147	2.12
356.516	1.93
356.885	1.96
357.254	1.6
357.624	1.44
357.993	1.81
358.362	2
358.731	1.15
359.1	1.67
359.469	1.29
359.838	1.69
360.207	1.76
360.576	2.06
360.945	1.79
361.314	1.52
361.682	1.81
362.051	1.78
362.42	2.06
362.788	1.61
363.157	1.68
363.525	1.56
363.894	1.73
364.262	1.76
364.631	1.73
364.999	1.63
365.367	1.39
365.735	1.76
366.104	1.56
366.472	1.74
366.84	1.21
367.208	1.68
367.576	2.05
367.944	1.94
368.312	1.65
368.68	1.7
369.048	2
369.416	1.59
369.783	1.86
370.151	1.84
370.519	1.91
370.886	1.76
371.254	2.14
371.621	1.72
371.989	1.74
372.356	1.99
372.724	2.13
373.091	2.07
373.458	1.87
373.826	1.53
374.193	1.38
374.56	1.48
374.927	1.31
375.294	1.76
375.661	2.25
376.028	1.47
376.395	1.87
376.762	1.54
377.129	1.74
377.496	1.52
377.863	1.72
378.229	1.78
378.596	1.65
378.963	1.87
379.329	1.65
379.696	1.86
380.062	1.78
380.429	1.91
380.795	2
381.161	1.87
381.528	1.68
381.894	2.08
382.26	2.12
382.626	1.92
382.993	1.86
383.359	1.93
383.725	1.53
384.091	2.13
384.457	2.17
384.823	1.72
385.188	1.61
385.554	1.85
385.92	1.44
386.286	1.75
386.651	1.86
387.017	1.43
387.383	1.85
387.748	1.7
388.114	1.6
388.479	1.52
388.845	1.81
389.21	1.62
389.575	1.85
389.94	1.65
390.306	1.55
390.671	1.59
391.036	1.72
391.401	1.97
391.766	1.85
392.131	1.74
392.496	2.07
392.861	1.72
393.226	1.71
393.591	1.74
393.956	1.72
394.32	1.67
394.685	1.9
395.05	2.1
395.414	1.83
395.779	1.79
396.143	1.8
396.508	1.93
396.872	1.78
397.236	1.67
397.601	2.03
397.965	1.87
398.329	1.72
398.694	1.89
399.058	2.04
399.422	1.69
399.786	1.89
400.15	1.71
400.514	1.91
400.878	1.89
401.242	1.79
401.605	2.09
401.969	1.69
402.333	1.72
402.697	1.93
403.06	2.16
403.424	1.57
403.787	1.87
404.151	1.93
404.514	1.79
404.878	1.75
405.241	1.72
405.604	1.92
405.968	1.88
406.331	1.63
406.694	1.85
407.057	1.99
407.42	1.9
407.783	1.85
408.146	1.89
408.509	1.8
408.872	1.89
409.235	2.02
409.598	1.84
409.961	2.1
410.323	1.61
410.686	1.94
411.049	1.73
411.411	2.02
411.774	1.97
412.136	1.67
412.499	1.9
412.861	1.91
413.223	1.61
413.586	1.74
413.948	2.25
414.31	1.77
414.672	1.92
415.035	1.86
415.397	1.85
415.759	1.54
416.121	1.73
416.483	1.88
416.845	2.14
417.206	1.93
417.568	1.61
417.93	1.68
418.292	1.74
418.653	1.95
419.015	1.92
419.377	1.94
419.738	1.95
420.1	1.8
420.461	1.93
420.822	1.81
421.184	1.86
421.545	1.78
421.906	1.77
422.267	1.77
422.629	1.75
422.99	1.73
423.351	1.73
423.712	1.68
424.073	1.84
424.434	1.93
424.795	1.91
425.155	1.77
425.516	1.79
425.877	1.81
426.238	1.83
426.598	1.73
426.959	1.77
427.32	1.82
427.68	1.95
428.041	1.95
428.401	1.66
428.761	2.03
429.122	1.94
429.482	1.75
429.842	1.76
430.202	2.04
430.563	1.99
430.923	1.88
431.283	1.78
431.643	1.8
432.003	2.01
432.363	1.84
432.722	1.94
433.082	1.84
433.442	1.92
433.802	1.98
434.161	1.88
434.521	1.87
434.881	1.86
435.24	1.88
435.6	1.8
435.959	1.87
436.319	1.71
436.678	1.98
437.037	1.86
437.396	1.92
437.756	1.91
438.115	1.9
438.474	1.84
438.833	1.91
439.192	1.94
439.551	2.03
439.91	1.83
440.269	1.91
440.628	1.97
440.987	1.8
441.345	1.9
441.704	1.91
442.063	1.95
442.421	1.84
442.78	1.68
443.138	1.97
443.497	1.83
443.855	1.83
444.214	1.88
444.572	1.91
444.93	2
445.288	1.82
445.647	1.92
446.005	1.9
446.363	1.93
446.721	1.86
447.079	1.91
447.437	1.79
447.795	1.86
448.153	1.86
448.51	1.85
448.868	1.86
449.226	1.92
449.584	1.83
449.941	1.86
450.299	1.73
450.656	1.84
451.014	1.9
451.371	2.01
451.729	1.88
452.086	1.9
452.443	1.84
452.801	2
453.158	1.88
453.515	1.88
453.872	1.93
454.229	1.97
454.586	1.88
454.943	1.97
455.3	1.94
455.657	1.89
456.014	2.05
456.371	2.08
456.727	2.03
457.084	1.67
457.441	2.04
457.797	1.87
458.154	1.94
458.51	1.98
458.867	1.88
459.223	1.94
459.58	1.84
459.936	2.01
460.292	1.84
460.648	2.01
461.005	1.84
461.361	1.89
461.717	1.87
462.073	1.95
462.429	1.83
462.785	1.91
463.141	1.86
463.496	2
463.852	2.02
464.208	1.93
464.564	1.91
464.919	1.86
465.275	1.88
465.631	1.98
465.986	1.96
466.342	1.92
466.697	1.87
467.052	1.93
467.408	1.9
467.763	1.9
468.118	1.99
468.473	2.05
468.829	1.98
469.184	1.88
469.539	1.93
469.894	1.97
470.249	2
470.603	1.88
470.958	1.98
471.313	1.98
471.668	2.11
472.023	1.89
472.377	2.09
472.732	1.98
473.086	1.8
473.441	1.98
473.795	1.85
474.15	2.07
474.504	1.96
474.859	2.01
475.213	2.06
475.567	2.05
475.921	2.02
476.275	1.83
476.63	1.9
476.984	2.1
477.338	1.87
477.692	1.91
478.045	1.94
478.399	2.1
478.753	1.84
479.107	2.07
479.461	1.89
479.814	1.93
480.168	2
480.521	2.08
480.875	2
481.228	1.95
481.582	1.93
481.935	1.85
482.289	1.83
482.642	1.98
482.995	1.93
483.348	1.97
483.701	1.94
484.055	1.97
484.408	1.9
484.761	1.81
485.114	1.81
485.466	1.79
485.819	1.79
486.172	1.79
486.525	1.83
486.878	1.84
487.23	1.8
487.583	1.86
487.936	1.83
488.288	1.94
488.641	1.87
488.993	1.83
489.345	1.78
489.698	1.84
490.05	1.81
490.402	1.81
490.754	1.88
491.107	1.87
491.459	1.86
491.811	2
492.163	1.99
492.515	1.86
492.866	1.92
493.218	1.84
493.57	1.84
493.922	1.84
494.274	1.9
494.625	1.88
494.977	1.95
495.328	1.99
495.68	1.94
496.031	1.96
496.383	1.97
496.734	2.02
497.086	1.97
497.437	2
497.788	1.87
498.139	1.85
498.49	1.87
498.842	1.8
499.193	1.97
499.544	1.98
499.894	1.94
500.245	2.05
500.596	1.92
500.947	1.91
501.298	2.02
501.648	2.08
501.999	2
502.35	2.14
502.7	1.94
503.051	1.97
503.401	1.93
503.752	1.94
504.102	1.93
504.452	1.98
504.803	1.96
505.153	1.92
505.503	1.97
505.853	2.01
506.203	2.07
506.553	1.91
506.903	2.04
507.253	2.07
507.603	1.95
507.953	2
508.303	1.82
508.652	1.92
509.002	2.02
509.352	1.96
509.701	2.06
510.051	1.98
510.4	2.04
510.75	1.94
511.099	1.82
511.449	1.99
511.798	1.99
512.147	1.9
512.496	1.91
512.846	1.91
513.195	1.96
513.544	1.95
513.893	1.87
514.242	1.99
514.591	1.98
514.939	1.92
515.288	1.94
515.637	2.03
515.986	1.97
516.334	2.01
516.683	2.05
517.032	2.01
517.38	1.92
517.729	1.93
518.077	1.95
518.426	2
518.774	1.96
519.122	2.02
519.47	1.99
519.819	2
520.167	1.9
520.515	1.91
520.863	1.91
521.211	1.93
521.559	1.91
521.907	2.01
522.255	1.93
522.602	1.97
522.95	1.97
523.298	2.05
523.645	1.89
523.993	1.97
524.341	2.07
524.688	2
525.036	2.15
525.383	1.96
525.73	1.93
526.078	1.99
526.425	1.98
526.772	1.96
527.119	1.9
527.466	1.98
527.814	1.91
528.161	1.92
528.508	1.94
528.854	1.86
529.201	1.94
529.548	1.9
529.895	1.86
530.242	1.85
530.588	1.86
530.935	1.84
531.282	1.87
531.628	1.91
531.975	1.93
532.321	1.87
532.667	1.9
533.014	1.85
533.36	1.91
533.706	2.02
534.052	1.96
534.399	1.88
534.745	1.93
535.091	1.94
535.437	1.86
535.783	1.9
536.129	1.93
536.474	1.9
536.82	1.98
537.166	1.88
537.512	1.88
537.857	1.91
538.203	1.86
538.549	2.02
538.894	1.95
539.239	1.96
539.585	1.94
539.93	2.01
540.276	2.22
540.621	2.03
540.966	1.99
541.311	1.91
541.656	2.06
542.001	1.97
542.346	2.02
542.691	1.9
543.036	1.88
543.381	1.86
543.726	1.81
544.071	1.86
544.415	1.9
544.76	1.92
545.105	1.9
545.449	1.85
545.794	2.01
546.138	1.95
546.483	2
546.827	1.99
547.171	2.05
547.516	1.88
547.86	1.88
548.204	2.01
548.548	2
548.892	1.96
549.236	1.89
549.58	1.94
549.924	2.05
550.268	1.99
550.612	2.05
550.956	2.13
551.3	1.97
551.643	1.99
551.987	2.05
552.33	1.9
552.674	1.84
553.017	2.11
553.361	2.03
553.704	2.08
554.048	2.01
554.391	2.08
554.734	2.05
555.077	2.22
555.42	2.05
555.764	1.94
556.107	2.1
556.45	2.03
556.793	2.02
557.135	1.99
557.478	2.06
557.821	2.22
558.164	2.26
558.507	2.14
558.849	2.08
559.192	1.98
559.534	2.07
559.877	2.2
560.219	2.16
560.562	1.99
560.904	2.1
561.246	1.93
561.589	2.09
561.931	1.96
562.273	1.97
562.615	2.02
562.957	2.1
563.299	2.15
563.641	1.89
563.983	1.98
564.325	1.92
564.667	2.12
565.008	2.06
565.35	2.06
565.692	1.77
566.033	2.11
566.375	1.96
566.716	2.1
567.058	2.06
567.399	2.15
567.741	2.13
568.082	2.09
568.423	2.04
568.764	2.14
569.105	2.05
569.447	2.1
569.788	2.12
570.129	1.94
570.47	2.08
570.811	2.15
571.151	2.34
571.492	2.13
571.833	2.09
572.174	2.16
572.514	2.15
572.855	2.23
573.195	1.92
573.536	2.11
573.876	2.08
574.217	2.08
574.557	2.05
574.898	2.05
575.238	2.08
575.578	2.02
575.918	1.99
576.258	2.07
576.598	1.93
576.938	2.25
577.278	1.94
577.618	2.07
577.958	2.01
578.298	2.14
578.638	2.08
578.977	2.13
579.317	2.1
579.657	2.22
579.996	2
580.336	2.03
580.675	2.28
581.014	2.21
581.354	2.02
581.693	2.03
582.032	2.16
582.372	2.15
582.711	2.25
583.05	2.04
583.389	2.12
583.728	1.95
584.067	2.04
584.406	2.06
584.745	2.12
585.083	2.04
585.422	1.92
585.761	2.13
586.1	2.23
586.438	1.92
586.777	2.05
587.115	2.09
587.454	1.92
587.792	2
588.13	2.04
588.469	2.06
588.807	2.14
589.145	2.16
589.483	2.35
589.821	2.03
590.159	2.1
590.497	2.23
590.835	2.13
591.173	2.12
591.511	2.06
591.849	1.94
592.187	2.13
592.524	1.75
592.862	1.99
593.2	1.93
593.537	2.26
593.875	2.46
594.212	2.13
594.55	2.28
594.887	2
595.224	2.02
595.561	1.94
595.899	2.11
596.236	2.01
596.573	2.09
596.91	2.06
597.247	2.15
597.584	2.01
597.921	2.25
598.258	2.01
598.594	2.11
598.931	1.93
599.268	2.07
599.604	2.19
599.941	1.96
600.277	2.08
600.614	2.3
600.95	1.77
601.287	2.06
601.623	2.46
601.959	2.25
602.296	1.9
602.632	2.12
602.968	2.13
603.304	2.08
603.64	2.3
603.976	2.31
604.312	2.08
604.648	2.06
604.984	2.25
605.319	2.25
605.655	2.2
605.991	2.17
606.326	2.29
606.662	2.1
606.998	2
607.333	2.17
607.668	2.11
608.004	2.09
608.339	1.99
608.674	2.06
609.01	2.16
609.345	2.11
609.68	2.16
610.015	2.19
610.35	1.92
610.685	2.21
611.02	1.99
611.355	2.04
611.689	2.14
612.024	1.87
612.359	1.99
612.694	2.11
613.028	2.08
613.363	2.04
613.697	2.14
614.032	2.01
614.366	2.22
614.7	1.86
615.035	1.96
615.369	2.04
615.703	2.08
616.037	2.28
616.371	2.35
616.705	2.24
617.039	2.2
617.373	1.89
617.707	2.18
618.041	2.33
618.375	1.84
618.709	2.45
619.042	2.21
619.376	2.07
619.71	2.43
620.043	2.29
620.377	1.95
620.71	2.02
621.043	1.97
621.377	1.96
621.71	2.16
622.043	2.02
622.376	2.28
622.709	1.94
623.043	2.07
623.376	2.43
623.709	2.56
624.041	2.32
624.374	1.81
624.707	2.28
625.04	2.06
625.373	1.94
625.705	2.18
626.038	2.11
626.37	2.16
626.703	1.98
627.035	2.18
627.368	2.21
627.7	2.39
628.032	2.12
628.365	2.21
628.697	2.28
629.029	2.19
629.361	2.23
629.693	2.15
630.025	2.17
630.357	2.19
630.689	2.07
631.021	2.21
631.353	2.35
631.684	1.85
632.016	1.89
632.348	2.19
632.679	2.02
633.011	2.29
633.342	2.32
633.674	1.82
634.005	2.18
634.336	1.91
634.668	2.05
634.999	2.02
635.33	2.26
635.661	2.25
635.992	2.06
636.323	2.05
636.654	2.16
636.985	2.22
637.316	2.27
637.647	2.39
637.977	2.24
638.308	2.33
638.639	1.98
638.969	2.01
639.3	2.48
639.63	2.45
639.961	2.17
640.291	2.6
640.622	2.4
640.952	2.31
641.282	2
641.612	2.31
641.943	2.37
642.273	2.14
642.603	2.2
642.933	2.32
643.263	2.29
643.592	2.16
643.922	2.53
644.252	2.37
644.582	2.39
644.911	2.23
645.241	2.15
645.571	1.66
645.9	2.58
646.23	2.37
646.559	2.31
646.888	1.96
647.218	2.16
647.547	1.58
647.876	2.05
648.205	2.43
648.534	1.87
648.863	2.15
649.192	2.07
649.521	2.07
649.85	2.6
650.179	2.3
650.508	2.29
650.837	2.41
651.165	1.9
651.494	2.69
651.822	1.52
652.151	2.1
652.479	1.96
652.808	1.95
653.136	2.03
653.465	2.4
653.793	2.14
654.121	2.07
654.449	1.94
654.777	2.87
655.105	2.36
655.433	2.12
655.761	2.65
656.089	1.92
656.417	1.35
656.745	2.26
657.073	2.08
657.4	1.84
657.728	2.43
658.056	2.28
658.383	2.45
658.711	1.83
659.038	2.18
659.365	1.98
659.693	2.33
660.02	2.43
660.347	2.3
660.674	2.27
661.001	2.49
661.329	2.14
661.656	2.28
661.982	2.4
662.309	2.12
662.636	2.56
662.963	2.32
663.29	2.17
663.616	1.6
663.943	2.02
664.27	2.59
664.596	2.61
664.923	2.62
665.249	2.37
665.576	2.41
665.902	2.3
666.228	2.47
666.554	2.03
666.881	1.95
667.207	2.19
667.533	2.41
667.859	2.35
668.185	2.08
668.511	2.75
668.837	2.3
669.162	2.61
669.488	1.9
669.814	1.99
670.139	1.96
670.465	1.85
670.791	2.43
671.116	2.33
671.442	2.75
671.767	2.28
672.092	2.11
672.418	2.28
672.743	2.24
673.068	2.43
673.393	2.88
673.718	2.34
674.043	1.88
674.368	2.27
674.693	1.47
675.018	2.4
675.343	2.66
675.667	2.79
675.992	1.91
676.317	2.05
676.641	2.74
676.966	2.38
677.29	3.22
677.615	1.48
677.939	1.97
678.264	2.86
678.588	1.92
678.912	1.86
679.236	2.11
679.56	2.69
679.885	2.37
680.209	2.39
680.532	2.63
680.856	2.73
681.18	2.05
681.504	2.03
681.828	2.16
682.152	2.16
682.475	2.38
682.799	2.38
683.122	2.06
683.446	2.43
683.769	2.49
684.093	2.27
684.416	1.96
684.739	2.47
685.062	1.42
685.386	2.8
685.709	2.51
686.032	1.76
686.355	2.02
686.678	2.99
687.001	2.17
687.324	2.16
687.646	1.94
687.969	1.85
688.292	3.11
688.614	2.55
688.937	2.14
689.26	2.01
689.582	3.07
689.904	2.47
690.227	1.97
690.549	2.66
690.871	2.34
691.194	2.32
691.516	2.01
691.838	2.44
692.16	1.42
692.482	2.41
692.804	2.07
693.126	2.58
