Data from 20-7_chest_Reflection__0__15.txt Node

Date: Fri Nov 11 20:19:48 CST 2022
User: ToomeyLab
Spectrometer: FLMS14357
Trigger mode: 0
Integration Time (sec): 1.000000E-2
Scans to average: 100
Electric dark correction enabled: true
Nonlinearity correction enabled: false
Boxcar width: 0
XAxis mode: Wavelengths
Number of Pixels in Spectrum: 2048
>>>>>Begin Spectral Data<<<<<
189.047	-153.2
189.435	-153.2
189.823	-153.2
190.211	-57.68
190.599	-196.25
190.987	121.77
191.375	1819.9
191.763	70.06
192.151	55.51
192.538	-191.61
192.926	371.34
193.314	135.01
193.702	61.38
194.089	-420.89
194.477	-24.16
194.864	284.55
195.252	92.26
195.639	118.48
196.027	245.18
196.414	14.4
196.801	453.12
197.189	-69.96
197.576	17.56
197.963	-1336.79
198.351	-27.15
198.738	28.31
199.125	-6.57
199.512	32.06
199.899	-27.59
200.286	26.95
200.673	2.69
201.06	29.61
201.447	75.39
201.833	34.32
202.22	-39.58
202.607	30.75
202.994	27.22
203.38	26.85
203.767	25.98
204.154	21.62
204.54	39.76
204.927	8.73
205.313	24.97
205.699	-23.78
206.086	45.72
206.472	26.8
206.858	33.17
207.245	42.43
207.631	32.92
208.017	43.05
208.403	12.84
208.789	17.82
209.175	12.46
209.561	40.37
209.947	17.86
210.333	3.38
210.719	17.52
211.105	36.81
211.491	27.3
211.876	19.7
212.262	28.57
212.648	20.38
213.034	-18.38
213.419	3.55
213.805	13.75
214.19	25.81
214.576	8.07
214.961	-45.91
215.346	26.44
215.732	-32.83
216.117	40.99
216.502	18.06
216.888	8.08
217.273	32.94
217.658	11.61
218.043	14.3
218.428	0.62
218.813	11.1
219.198	8.34
219.583	1.92
219.968	-1.39
220.353	-42.51
220.738	-10
221.122	27.64
221.507	-13.88
221.892	6.1
222.276	26.64
222.661	28.61
223.046	-3.09
223.43	3.85
223.815	9.62
224.199	5.43
224.583	3.9
224.968	-6.6
225.352	13.85
225.736	-1.62
226.121	0.28
226.505	7.62
226.889	-6.5
227.273	10.47
227.657	7.23
228.041	4.9
228.425	4.01
228.809	6.72
229.193	7.12
229.577	5.17
229.961	6.15
230.344	6.19
230.728	4.97
231.112	4.53
231.495	4.66
231.879	4.7
232.263	4.69
232.646	4.03
233.03	3.9
233.413	6.86
233.797	6.93
234.18	3.78
234.563	6.77
234.946	5.07
235.33	4.8
235.713	4.99
236.096	5.14
236.479	4.6
236.862	6.21
237.245	4.61
237.628	6.44
238.011	6.05
238.394	5.92
238.777	5.74
239.16	6.58
239.543	6.41
239.925	6.2
240.308	4.28
240.691	7.09
241.073	3.88
241.456	3.72
241.838	4.6
242.221	4.92
242.603	5.88
242.986	4.76
243.368	4.24
243.75	4.41
244.133	4.57
244.515	4.2
244.897	4.53
245.279	3.92
245.661	5.41
246.043	3.92
246.425	5.49
246.807	4.01
247.189	4.38
247.571	4.52
247.953	4.12
248.335	4.55
248.717	4.52
249.098	4.54
249.48	4.07
249.862	4.52
250.243	4.44
250.625	4.31
251.006	5.63
251.388	5.3
251.769	5.3
252.151	5.04
252.532	4.15
252.913	5.19
253.295	4.04
253.676	3.9
254.057	4.21
254.438	4.37
254.819	4.57
255.2	5.14
255.581	3.91
255.962	3.26
256.343	3.97
256.724	2.92
257.105	4.09
257.486	4.58
257.867	4.66
258.247	3.72
258.628	4.16
259.009	4.82
259.389	4.1
259.77	5.02
260.15	3.7
260.531	3.96
260.911	3.94
261.292	4.17
261.672	3.74
262.052	3.91
262.432	4.32
262.813	4.22
263.193	4.23
263.573	4.19
263.953	4.28
264.333	3.89
264.713	3.86
265.093	4.44
265.473	3.38
265.853	4.3
266.233	3.7
266.612	3.79
266.992	3.38
267.372	4.06
267.752	3.59
268.131	3.59
268.511	3.73
268.89	3.46
269.27	3.66
269.649	3.63
270.029	4.28
270.408	4.06
270.787	4.56
271.167	4.13
271.546	4.23
271.925	4.56
272.304	3.9
272.683	3.55
273.062	3.35
273.441	3.92
273.82	3.74
274.199	3.47
274.578	3.5
274.957	3.67
275.336	4.03
275.715	4.28
276.093	3.75
276.472	3.43
276.851	3.68
277.229	3.98
277.608	3.62
277.986	3.61
278.365	3.64
278.743	3.81
279.122	4.3
279.5	3.74
279.878	4.48
280.257	4.42
280.635	3.2
281.013	3.53
281.391	3.41
281.769	3.96
282.147	3.55
282.525	2.97
282.903	3.36
283.281	3.93
283.659	4.33
284.037	3.33
284.415	3.25
284.792	3.56
285.17	3.53
285.548	3.5
285.925	3.35
286.303	3.73
286.68	3.86
287.058	4.02
287.435	3.62
287.813	3.71
288.19	3.38
288.567	3.83
288.945	3.96
289.322	4.2
289.699	3.19
290.076	3.92
290.453	3.8
290.83	3.47
291.207	3.45
291.584	3.65
291.961	3.82
292.338	3.83
292.715	4.14
293.092	3.93
293.469	3.32
293.845	3.72
294.222	3.66
294.599	4.33
294.975	3.87
295.352	4.05
295.728	3.65
296.105	3.9
296.481	3.36
296.858	3.89
297.234	3.97
297.61	3.25
297.986	4.13
298.363	4.26
298.739	3.95
299.115	4.11
299.491	4.11
299.867	3.69
300.243	3.92
300.619	4.05
300.995	3.82
301.371	4.58
301.746	4.26
302.122	3.72
302.498	3.85
302.874	4.37
303.249	3.98
303.625	3.93
304	3.28
304.376	3.88
304.751	3.51
305.127	4.04
305.502	4.2
305.878	4.66
306.253	3.84
306.628	4.09
307.003	4.15
307.378	3.91
307.754	4.69
308.129	4.63
308.504	4.25
308.879	4.55
309.254	3.78
309.629	3.8
310.003	3.65
310.378	4.38
310.753	4.29
311.128	4.36
311.502	4.23
311.877	3.74
312.252	4.03
312.626	3.95
313.001	3.75
313.375	4.21
313.75	3.78
314.124	3.84
314.498	3.83
314.873	3.68
315.247	4.41
315.621	4.32
315.995	4.09
316.369	4.3
316.743	4.14
317.117	4.3
317.491	3.89
317.865	3.31
318.239	3.81
318.613	3.94
318.987	4.42
319.361	3.87
319.734	4.19
320.108	3.88
320.482	4.43
320.855	4.25
321.229	4.06
321.602	4.29
321.976	3.94
322.349	4.72
322.723	4.41
323.096	3.99
323.469	3.69
323.843	4.25
324.216	3.69
324.589	4.36
324.962	4.63
325.335	4.38
325.708	4.25
326.081	4.33
326.454	4.29
326.827	3.88
327.2	4.41
327.573	4.69
327.945	4.21
328.318	4.22
328.691	4.68
329.063	4.04
329.436	4.14
329.809	4.19
330.181	3.9
330.553	3.39
330.926	3.71
331.298	3.55
331.671	3.94
332.043	3.77
332.415	4.3
332.787	4.22
333.159	3.98
333.532	4.12
333.904	4.66
334.276	4.05
334.648	3.66
335.02	4.06
335.391	4.04
335.763	3.83
336.135	3.82
336.507	3.37
336.879	4.29
337.25	3.65
337.622	4.15
337.993	4.46
338.365	4.24
338.736	4.43
339.108	4.15
339.479	3.79
339.851	4.26
340.222	4.03
340.593	4.78
340.964	4.51
341.336	4.14
341.707	3.83
342.078	3.76
342.449	4.25
342.82	4.3
343.191	4.62
343.562	4.2
343.933	4.15
344.303	4.26
344.674	3.65
345.045	4.27
345.416	4.21
345.786	3.93
346.157	3.69
346.527	3.8
346.898	3.54
347.268	4.16
347.639	4.09
348.009	4.29
348.38	4.23
348.75	4.05
349.12	4.77
349.49	4.36
349.861	4.16
350.231	4.12
350.601	4.1
350.971	4.28
351.341	4.42
351.711	4.36
352.081	3.99
352.45	4.37
352.82	3.97
353.19	4.31
353.56	3.93
353.929	4.12
354.299	4.17
354.669	4.38
355.038	4.31
355.408	4.11
355.777	4.21
356.147	4.25
356.516	4.21
356.885	4.26
357.254	3.67
357.624	3.7
357.993	4.2
358.362	4.05
358.731	3.72
359.1	4.09
359.469	3.86
359.838	3.96
360.207	4.22
360.576	4.29
360.945	4.12
361.314	4.02
361.682	4.12
362.051	3.96
362.42	4.43
362.788	4.32
363.157	4.12
363.525	4
363.894	4.05
364.262	4.26
364.631	4.26
364.999	3.9
365.367	4.36
365.735	4.27
366.104	3.95
366.472	4.21
366.84	3.94
367.208	4.16
367.576	4.35
367.944	4.45
368.312	4.1
368.68	4.41
369.048	4.17
369.416	4.05
369.783	4.65
370.151	4.14
370.519	4.38
370.886	4.14
371.254	4.38
371.621	4.08
371.989	4.13
372.356	4.16
372.724	4.53
373.091	4.15
373.458	4.09
373.826	3.86
374.193	4.11
374.56	4.1
374.927	4.35
375.294	4.4
375.661	4.45
376.028	4.03
376.395	4.03
376.762	4.42
377.129	3.87
377.496	4.24
377.863	4.61
378.229	4.2
378.596	4.04
378.963	4.07
379.329	4.57
379.696	4.3
380.062	4.05
380.429	4.31
380.795	4.66
381.161	4.29
381.528	4.25
381.894	4.44
382.26	4.39
382.626	4.57
382.993	4.28
383.359	4.2
383.725	4.36
384.091	4.57
384.457	4.29
384.823	4.16
385.188	4.31
385.554	4.31
385.92	3.76
386.286	4.24
386.651	4.2
387.017	4.25
387.383	4.36
387.748	4.2
388.114	4.15
388.479	3.94
388.845	4.41
389.21	4.25
389.575	4.24
389.94	4.2
390.306	4.48
390.671	4.49
391.036	4.45
391.401	4.23
391.766	4.42
392.131	4.16
392.496	4.34
392.861	4.23
393.226	4.25
393.591	4.19
393.956	4.32
394.32	4.31
394.685	4.29
395.05	4.53
395.414	4.3
395.779	4.46
396.143	4.28
396.508	4.47
396.872	4.31
397.236	4.14
397.601	4.38
397.965	4.47
398.329	4.27
398.694	4.51
399.058	4.38
399.422	4.53
399.786	4.14
400.15	4.36
400.514	4.44
400.878	4.42
401.242	4.44
401.605	4.64
401.969	4.41
402.333	4.22
402.697	4.53
403.06	4.31
403.424	4.32
403.787	4.46
404.151	4.32
404.514	4.08
404.878	4.06
405.241	4.12
405.604	4.1
405.968	4.29
406.331	3.99
406.694	4.17
407.057	4.37
407.42	4.53
407.783	4.28
408.146	4.39
408.509	4.66
408.872	4.29
409.235	4.47
409.598	4.41
409.961	4.33
410.323	4.25
410.686	4.46
411.049	4.44
411.411	4.25
411.774	4.36
412.136	4.33
412.499	4.44
412.861	4.33
413.223	4.22
413.586	4.44
413.948	4.56
414.31	4.54
414.672	4.37
415.035	4.5
415.397	4.29
415.759	4.22
416.121	4.41
416.483	4.18
416.845	4.34
417.206	4.28
417.568	4.25
417.93	4.29
418.292	4.15
418.653	4.56
419.015	4.42
419.377	4.4
419.738	4.29
420.1	4.29
420.461	4.46
420.822	4.27
421.184	4.25
421.545	4.24
421.906	4.35
422.267	4.33
422.629	4.22
422.99	4.29
423.351	4.28
423.712	4.21
424.073	4.45
424.434	4.37
424.795	4.41
425.155	4.18
425.516	4.37
425.877	4.29
426.238	4.36
426.598	4.27
426.959	4.31
427.32	4.38
427.68	4.5
428.041	4.58
428.401	4.29
428.761	4.48
429.122	4.32
429.482	4.38
429.842	4.39
430.202	4.49
430.563	4.61
430.923	4.47
431.283	4.46
431.643	4.29
432.003	4.77
432.363	4.53
432.722	4.64
433.082	4.47
433.442	4.51
433.802	4.6
434.161	4.51
434.521	4.49
434.881	4.45
435.24	4.47
435.6	4.35
435.959	4.48
436.319	4.49
436.678	4.49
437.037	4.49
437.396	4.55
437.756	4.32
438.115	4.54
438.474	4.4
438.833	4.53
439.192	4.51
439.551	4.48
439.91	4.58
440.269	4.54
440.628	4.51
440.987	4.52
441.345	4.38
441.704	4.47
442.063	4.56
442.421	4.44
442.78	4.4
443.138	4.54
443.497	4.46
443.855	4.57
444.214	4.52
444.572	4.65
444.93	4.46
445.288	4.61
445.647	4.8
446.005	4.68
446.363	4.66
446.721	4.57
447.079	4.58
447.437	4.41
447.795	4.51
448.153	4.41
448.51	4.48
448.868	4.53
449.226	4.49
449.584	4.63
449.941	4.58
450.299	4.57
450.656	4.64
451.014	4.79
451.371	4.54
451.729	4.56
452.086	4.65
452.443	4.54
452.801	4.69
453.158	4.59
453.515	4.59
453.872	4.59
454.229	4.7
454.586	4.61
454.943	4.73
455.3	4.58
455.657	4.72
456.014	4.8
456.371	4.67
456.727	4.8
457.084	4.48
457.441	4.93
457.797	4.7
458.154	4.76
458.51	4.71
458.867	4.62
459.223	4.73
459.58	4.6
459.936	4.6
460.292	4.52
460.648	4.64
461.005	4.69
461.361	4.59
461.717	4.51
462.073	4.68
462.429	4.53
462.785	4.6
463.141	4.68
463.496	4.68
463.852	4.73
464.208	4.69
464.564	4.7
464.919	4.7
465.275	4.63
465.631	4.73
465.986	4.97
466.342	4.71
466.697	4.74
467.052	4.83
467.408	4.69
467.763	4.76
468.118	4.74
468.473	4.91
468.829	4.79
469.184	4.75
469.539	4.76
469.894	4.82
470.249	4.97
470.603	4.73
470.958	4.81
471.313	4.92
471.668	4.93
472.023	4.69
472.377	4.95
472.732	4.73
473.086	4.72
473.441	4.71
473.795	4.7
474.15	4.92
474.504	4.97
474.859	4.88
475.213	5.02
475.567	4.78
475.921	4.93
476.275	4.97
476.63	4.91
476.984	4.96
477.338	5
477.692	4.69
478.045	4.72
478.399	4.94
478.753	4.84
479.107	4.98
479.461	4.82
479.814	4.79
480.168	4.81
480.521	4.98
480.875	4.94
481.228	4.83
481.582	4.86
481.935	4.78
482.289	4.78
482.642	4.93
482.995	4.8
483.348	4.9
483.701	4.92
484.055	4.77
484.408	4.78
484.761	4.72
485.114	4.63
485.466	4.55
485.819	4.58
486.172	4.6
486.525	4.67
486.878	4.66
487.23	4.71
487.583	4.73
487.936	4.76
488.288	4.79
488.641	4.72
488.993	4.72
489.345	4.67
489.698	4.73
490.05	4.71
490.402	4.75
490.754	4.8
491.107	4.76
491.459	4.84
491.811	4.97
492.163	4.97
492.515	4.88
492.866	4.85
493.218	4.76
493.57	4.83
493.922	4.77
494.274	4.84
494.625	4.91
494.977	4.93
495.328	4.94
495.68	4.99
496.031	4.91
496.383	5.17
496.734	5.1
497.086	5.07
497.437	5.13
497.788	5.09
498.139	5.09
498.49	5.06
498.842	4.9
499.193	5.06
499.544	5.15
499.894	5.07
500.245	5.14
500.596	5.2
500.947	5.11
501.298	5.18
501.648	5.1
501.999	5.1
502.35	5.26
502.7	5.14
503.051	5.14
503.401	5.1
503.752	5.03
504.102	5.13
504.452	5.22
504.803	5.15
505.153	5.22
505.503	5.22
505.853	5.25
506.203	5.28
506.553	4.98
506.903	5.3
507.253	5.21
507.603	5.25
507.953	5.3
508.303	5.27
508.652	5.14
509.002	5.14
509.352	5.25
509.701	5.26
510.051	5.08
510.4	5.28
510.75	5.12
511.099	5.13
511.449	5.27
511.798	5.23
512.147	5.17
512.496	5.13
512.846	5.42
513.195	5.28
513.544	5.35
513.893	5.24
514.242	5.21
514.591	5.42
514.939	5.38
515.288	5.34
515.637	5.3
515.986	5.35
516.334	5.36
516.683	5.48
517.032	5.41
517.38	5.51
517.729	5.37
518.077	5.29
518.426	5.32
518.774	5.34
519.122	5.46
519.47	5.43
519.819	5.39
520.167	5.36
520.515	5.32
520.863	5.37
521.211	5.38
521.559	5.42
521.907	5.44
522.255	5.46
522.602	5.56
522.95	5.48
523.298	5.65
523.645	5.48
523.993	5.55
524.341	5.58
524.688	5.58
525.036	5.55
525.383	5.63
525.73	5.59
526.078	5.54
526.425	5.56
526.772	5.62
527.119	5.41
527.466	5.51
527.814	5.52
528.161	5.66
528.508	5.53
528.854	5.55
529.201	5.56
529.548	5.53
529.895	5.44
530.242	5.37
530.588	5.36
530.935	5.41
531.282	5.45
531.628	5.49
531.975	5.52
532.321	5.52
532.667	5.6
533.014	5.68
533.36	5.6
533.706	5.78
534.052	5.74
534.399	5.65
534.745	5.63
535.091	5.61
535.437	5.65
535.783	5.64
536.129	5.71
536.474	5.71
536.82	5.76
537.166	5.76
537.512	5.9
537.857	5.82
538.203	5.77
538.549	5.87
538.894	5.85
539.239	5.84
539.585	5.84
539.93	5.98
540.276	5.98
540.621	5.98
540.966	6.06
541.311	5.99
541.656	6
542.001	6.07
542.346	6.02
542.691	5.87
543.036	5.81
543.381	5.85
543.726	5.79
544.071	5.9
544.415	5.93
544.76	6.04
545.105	5.98
545.449	5.93
545.794	6.08
546.138	6.09
546.483	6.27
546.827	6.23
547.171	6.27
547.516	6.06
547.86	6.17
548.204	6.24
548.548	6.21
548.892	6.26
549.236	6.14
549.58	6.32
549.924	6.4
550.268	6.41
550.612	6.55
550.956	6.66
551.3	6.4
551.643	6.39
551.987	6.47
552.33	6.38
552.674	6.42
553.017	6.83
553.361	6.62
553.704	6.68
554.048	6.5
554.391	6.59
554.734	6.61
555.077	6.75
555.42	6.58
555.764	6.69
556.107	6.63
556.45	6.71
556.793	6.55
557.135	6.69
557.478	6.73
557.821	6.95
558.164	6.77
558.507	6.67
558.849	6.63
559.192	6.85
559.534	6.79
559.877	6.92
560.219	6.81
560.562	6.9
560.904	7.04
561.246	6.82
561.589	6.99
561.931	6.86
562.273	6.99
562.615	6.88
562.957	7.03
563.299	7.03
563.641	6.93
563.983	7.05
564.325	7.06
564.667	7.29
565.008	7.18
565.35	7.29
565.692	6.98
566.033	7.17
566.375	7.32
566.716	7.3
567.058	7.13
567.399	7.44
567.741	7.41
568.082	7.37
568.423	7.22
568.764	7.51
569.105	7.28
569.447	7.45
569.788	7.33
570.129	7.33
570.47	7.34
570.811	7.35
571.151	7.61
571.492	7.58
571.833	7.35
572.174	7.46
572.514	7.58
572.855	7.6
573.195	7.29
573.536	7.72
573.876	7.69
574.217	7.77
574.557	7.42
574.898	7.74
575.238	7.76
575.578	7.65
575.918	7.9
576.258	7.73
576.598	7.81
576.938	7.84
577.278	7.75
577.618	7.78
577.958	7.89
578.298	7.88
578.638	8.05
578.977	8.1
579.317	8
579.657	8.04
579.996	8.02
580.336	7.89
580.675	8.27
581.014	8.03
581.354	7.96
581.693	8.18
582.032	8.02
582.372	8.18
582.711	8.25
583.05	8.08
583.389	8.33
583.728	8.49
584.067	8.4
584.406	8.18
584.745	8.59
585.083	8.31
585.422	8.32
585.761	8.23
586.1	8.51
586.438	8.55
586.777	8.58
587.115	8.55
587.454	8.49
587.792	8.66
588.13	8.68
588.469	8.31
588.807	8.75
589.145	8.89
589.483	8.93
589.821	8.87
590.159	8.78
590.497	8.85
590.835	8.77
591.173	9.08
591.511	8.75
591.849	8.72
592.187	8.97
592.524	8.78
592.862	8.58
593.2	9.25
593.537	9.18
593.875	9.15
594.212	8.91
594.55	9.29
594.887	9.16
595.224	8.95
595.561	9.01
595.899	8.87
596.236	9.3
596.573	9.3
596.91	9.39
597.247	9.34
597.584	9.24
597.921	9.4
598.258	9.27
598.594	9.45
598.931	9.18
599.268	9.18
599.604	9.52
599.941	9.26
600.277	9.51
600.614	9.53
600.95	9.33
601.287	9.69
601.623	9.98
601.959	9.83
602.296	9.7
602.632	9.58
602.968	9.77
603.304	9.78
603.64	9.96
603.976	9.93
604.312	9.57
604.648	9.7
604.984	9.86
605.319	9.88
605.655	9.8
605.991	9.88
606.326	10.12
606.662	9.76
606.998	9.88
607.333	10.02
607.668	10.01
608.004	10.32
608.339	9.97
608.674	10.21
609.01	10.35
609.345	10.32
609.68	10.24
610.015	10.41
610.35	10.16
610.685	10.38
611.02	10.31
611.355	10.21
611.689	10.27
612.024	10.29
612.359	9.9
612.694	10.19
613.028	10.55
613.363	10.62
613.697	10.9
614.032	10.61
614.366	10.5
614.7	10.59
615.035	10.46
615.369	10.48
615.703	10.79
616.037	10.69
616.371	10.81
616.705	11.15
617.039	11.01
617.373	10.75
617.707	10.94
618.041	10.9
618.375	10.74
618.709	11.1
619.042	11.48
619.376	11.12
619.71	11.13
620.043	11.23
620.377	11.31
620.71	11.4
621.043	11.19
621.377	11.31
621.71	10.89
622.043	11.46
622.376	11.64
622.709	11.24
623.043	11.3
623.376	11.78
623.709	11.62
624.041	11.79
624.374	11.51
624.707	11.54
625.04	11.4
625.373	11.28
625.705	11.57
626.038	11.56
626.37	11.9
626.703	11.6
627.035	11.71
627.368	11.52
627.7	11.65
628.032	11.83
628.365	11.92
628.697	11.95
629.029	11.97
629.361	12.09
629.693	11.92
630.025	11.92
630.357	12.01
630.689	11.73
631.021	12.17
631.353	12.25
631.684	12.17
632.016	12.41
632.348	11.99
632.679	12.05
633.011	12.59
633.342	12.46
633.674	12.25
634.005	12.4
634.336	12.35
634.668	12.58
634.999	12.35
635.33	12.65
635.661	12.76
635.992	12.6
636.323	12.03
636.654	12.74
636.985	12.38
637.316	12.78
637.647	13.4
637.977	12.77
638.308	12.73
638.639	12.82
638.969	13.22
639.3	13.29
639.63	13.34
639.961	12.91
640.291	13.25
640.622	13.58
640.952	13.04
641.282	12.59
641.612	12.99
641.943	13.71
642.273	13.2
642.603	13.57
642.933	13.42
643.263	13.49
643.592	13.47
643.922	13.26
644.252	13.53
644.582	13.45
644.911	13.18
645.241	13.48
645.571	13.64
645.9	13.56
646.23	14.23
646.559	13.69
646.888	14.51
647.218	13.44
647.547	13.97
647.876	13.71
648.205	13.78
648.534	13.67
648.863	13.78
649.192	13.71
649.521	13.8
649.85	13.79
650.179	14.06
650.508	14.4
650.837	13.98
651.165	14.07
651.494	14.44
651.822	13.9
652.151	13.87
652.479	13.91
652.808	14.57
653.136	14.25
653.465	14.69
653.793	14.11
654.121	14.4
654.449	14.06
654.777	14.57
655.105	14.45
655.433	14.45
655.761	14.37
656.089	14.68
656.417	14.11
656.745	14.72
657.073	14.78
657.4	14.24
657.728	14.79
658.056	15.04
658.383	14.89
658.711	14.84
659.038	15.13
659.365	14.36
659.693	14.86
660.02	15.54
660.347	15.05
660.674	14.93
661.001	14.95
661.329	15.19
661.656	14.93
661.982	15.49
662.309	15.15
662.636	15.3
662.963	15.49
663.29	15.26
663.616	15.35
663.943	15.25
664.27	15.48
664.596	15.57
664.923	16.12
665.249	15.53
665.576	15.98
665.902	16.16
666.228	15.62
666.554	16.02
666.881	15.64
667.207	16.57
667.533	16.17
667.859	16.12
668.185	15.72
668.511	15.83
668.837	15.85
669.162	16.24
669.488	16.44
669.814	16.25
670.139	16.6
670.465	15.58
670.791	15.91
671.116	16.7
671.442	16.28
671.767	16.55
672.092	16.16
672.418	16.85
672.743	16.39
673.068	16.43
673.393	16.87
673.718	16.27
674.043	16.78
674.368	16.42
674.693	16.23
675.018	16.43
675.343	15.96
675.667	16.66
675.992	17.13
676.317	16.51
676.641	16
676.966	17.38
677.29	16.12
677.615	16.71
677.939	17.3
678.264	17.49
678.588	16.42
678.912	17.09
679.236	16.92
679.56	17.57
679.885	16.92
680.209	16.58
680.532	17.72
680.856	17.67
681.18	17.17
681.504	16.99
681.828	17.46
682.152	17.75
682.475	17.51
682.799	17.11
683.122	17.56
683.446	17.87
683.769	17.7
684.093	17.63
684.416	17.24
684.739	18.19
685.062	17.27
685.386	17.63
685.709	18.08
686.032	17.34
686.355	17.64
686.678	17.57
