Data from 20-7_chest_Reflection__3__18.txt Node

Date: Fri Nov 11 20:20:26 CST 2022
User: ToomeyLab
Spectrometer: FLMS14357
Trigger mode: 0
Integration Time (sec): 1.000000E-2
Scans to average: 100
Electric dark correction enabled: true
Nonlinearity correction enabled: false
Boxcar width: 0
XAxis mode: Wavelengths
Number of Pixels in Spectrum: 2048
>>>>>Begin Spectral Data<<<<<
189.047	40.8
189.435	40.8
189.823	40.8
190.211	-1.99
190.599	31.78
190.987	-41.45
191.375	409.95
191.763	103.93
192.151	36.46
192.538	-91.28
192.926	271.95
193.314	58.48
193.702	-24.15
194.089	-1069.71
194.477	39.62
194.864	825.42
195.252	155.51
195.639	136.51
196.027	-2.39
196.414	-9.52
196.801	132.19
197.189	33.06
197.576	299.88
197.963	-1773.58
198.351	-167.6
198.738	35.28
199.125	33.61
199.512	42.7
199.899	-19.64
200.286	-8.83
200.673	-19.86
201.06	25.59
201.447	43.95
201.833	21.9
202.22	15.34
202.607	22.98
202.994	15.26
203.38	6.25
203.767	10.11
204.154	26.62
204.54	11.18
204.927	27.79
205.313	17.33
205.699	-13.3
206.086	19.98
206.472	16.58
206.858	28.78
207.245	35.85
207.631	-3.3
208.017	30.13
208.403	-8.23
208.789	40.21
209.175	24.65
209.561	40.75
209.947	9.73
210.333	7.84
210.719	28.1
211.105	51.28
211.491	21.81
211.876	-0.99
212.262	15.59
212.648	10.98
213.034	-14.03
213.419	-3.31
213.805	-17.45
214.19	12.34
214.576	4.94
214.961	6.93
215.346	-7.06
215.732	2.31
216.117	17.37
216.502	35.43
216.888	16.68
217.273	3.93
217.658	-16.69
218.043	-5.99
218.428	10.95
218.813	10.61
219.198	41.09
219.583	23
219.968	14.5
220.353	-27.71
220.738	9.25
221.122	-12.69
221.507	-18.49
221.892	-9.78
222.276	20.16
222.661	21.14
223.046	-9.38
223.43	-10.16
223.815	6.25
224.199	10.75
224.583	-10.34
224.968	-5.22
225.352	9.27
225.736	2.77
226.121	3.84
226.505	0.9
226.889	-3.21
227.273	-1.52
227.657	0.5
228.041	-0.42
228.425	-1.76
228.809	3.06
229.193	3.8
229.577	4.41
229.961	2.4
230.344	2.64
230.728	1.51
231.112	0.14
231.495	1.66
231.879	2.35
232.263	0.46
232.646	0.88
233.03	1.99
233.413	2.82
233.797	2.33
234.18	1.17
234.563	0.48
234.946	2
235.33	2.7
235.713	1.68
236.096	1.45
236.479	1.64
236.862	3.67
237.245	2.83
237.628	4
238.011	2.75
238.394	3.76
238.777	4.6
239.16	1.94
239.543	2.24
239.925	1.92
240.308	1.4
240.691	2.66
241.073	1.49
241.456	2.21
241.838	2.92
242.221	1.95
242.603	2.64
242.986	1.99
243.368	2.44
243.75	2.43
244.133	2.25
244.515	1.84
244.897	2.82
245.279	2
245.661	2.25
246.043	1.94
246.425	3.21
246.807	2.88
247.189	1.32
247.571	1.75
247.953	2.21
248.335	2.03
248.717	2.47
249.098	2.59
249.48	2.01
249.862	2.65
250.243	1.94
250.625	2.76
251.006	3.56
251.388	2.82
251.769	2.8
252.151	2.5
252.532	2.25
252.913	3.31
253.295	2.22
253.676	1.92
254.057	2.29
254.438	2.23
254.819	2.26
255.2	2.59
255.581	3
255.962	1.76
256.343	3.2
256.724	1.64
257.105	1.73
257.486	2.24
257.867	3.44
258.247	1.15
258.628	2.43
259.009	1.7
259.389	1.98
259.77	2.34
260.15	2.73
260.531	2.35
260.911	2.1
261.292	2.37
261.672	2.12
262.052	1.94
262.432	2.19
262.813	2.13
263.193	2.01
263.573	2.5
263.953	2.8
264.333	1.9
264.713	2.29
265.093	2.47
265.473	1.77
265.853	2.34
266.233	2.83
266.612	2.16
266.992	1.94
267.372	2.87
267.752	2.14
268.131	1.91
268.511	2.13
268.89	1.52
269.27	1.9
269.649	1.7
270.029	2.83
270.408	2.05
270.787	1.88
271.167	0.9
271.546	2.36
271.925	2.31
272.304	1.99
272.683	1.7
273.062	1.83
273.441	2.3
273.82	2.14
274.199	1.77
274.578	1.93
274.957	2.03
275.336	2.72
275.715	2.13
276.093	1.42
276.472	2.25
276.851	1.79
277.229	1.58
277.608	2.05
277.986	2.62
278.365	1.77
278.743	1.59
279.122	2.56
279.5	2.18
279.878	2.21
280.257	2.2
280.635	1.83
281.013	1.51
281.391	1.66
281.769	1.97
282.147	1.91
282.525	1.22
282.903	1.41
283.281	2.05
283.659	1.79
284.037	2.29
284.415	1.99
284.792	2.07
285.17	2.36
285.548	1.68
285.925	1.83
286.303	1.64
286.68	2.11
287.058	2.1
287.435	2.02
287.813	2.25
288.19	1.86
288.567	2.02
288.945	2.27
289.322	2.37
289.699	1.64
290.076	2.87
290.453	2.15
290.83	2.16
291.207	2.3
291.584	2.34
291.961	1.93
292.338	2.32
292.715	2.49
293.092	2.46
293.469	2.36
293.845	2.32
294.222	2.35
294.599	3.05
294.975	2.42
295.352	2.26
295.728	2.65
296.105	2.36
296.481	2.12
296.858	1.94
297.234	2.14
297.61	2.24
297.986	2.88
298.363	2.84
298.739	2.71
299.115	2.98
299.491	2.82
299.867	2.67
300.243	2.83
300.619	2.95
300.995	3.12
301.371	3.24
301.746	2.7
302.122	2.96
302.498	2.99
302.874	3.02
303.249	2.75
303.625	2.59
304	2.51
304.376	2.94
304.751	2.65
305.127	2.87
305.502	3.13
305.878	3.25
306.253	2.73
306.628	2.81
307.003	3.07
307.378	3.34
307.754	3.26
308.129	3.21
308.504	2.83
308.879	2.65
309.254	3.67
309.629	2.82
310.003	2.8
310.378	3.47
310.753	3.31
311.128	3.3
311.502	3.23
311.877	3.13
312.252	3.49
312.626	3.25
313.001	3.29
313.375	3.1
313.75	3.12
314.124	2.63
314.498	3.42
314.873	3.22
315.247	3.17
315.621	3.24
315.995	3.68
316.369	3.37
316.743	3.04
317.117	3.62
317.491	3.08
317.865	2.91
318.239	3.52
318.613	3.29
318.987	3.2
319.361	2.81
319.734	3.32
320.108	3.19
320.482	3.41
320.855	3.45
321.229	3.2
321.602	3.61
321.976	3.33
322.349	3.89
322.723	3.73
323.096	3.89
323.469	2.83
323.843	4.05
324.216	3.24
324.589	3.64
324.962	3.76
325.335	3.25
325.708	3.36
326.081	3.68
326.454	3.21
326.827	3.21
327.2	4.11
327.573	4.31
327.945	3.04
328.318	3.37
328.691	3.71
329.063	3.68
329.436	3.21
329.809	3.08
330.181	3.09
330.553	2.96
330.926	3.18
331.298	3.23
331.671	3.59
332.043	3.16
332.415	3.77
332.787	4.1
333.159	3.21
333.532	3.71
333.904	4.08
334.276	3.15
334.648	3.29
335.02	3.03
335.391	4.03
335.763	3.45
336.135	3.19
336.507	3.18
336.879	3.52
337.25	3.65
337.622	3.87
337.993	3.83
338.365	3.73
338.736	3.26
339.108	3.55
339.479	3.13
339.851	3.74
340.222	3.16
340.593	3.88
340.964	3.4
341.336	3.81
341.707	3.05
342.078	2.74
342.449	3.19
342.82	3.94
343.191	3.64
343.562	3.45
343.933	3.21
344.303	3.37
344.674	3.55
345.045	3.53
345.416	3.82
345.786	3.26
346.157	3.2
346.527	3.35
346.898	2.79
347.268	3.2
347.639	3.39
348.009	3.21
348.38	3.72
348.75	3.36
349.12	4.07
349.49	3.49
349.861	3.48
350.231	3.57
350.601	3.62
350.971	3.83
351.341	3.9
351.711	3.72
352.081	3.56
352.45	3.53
352.82	3.12
353.19	3.57
353.56	3.49
353.929	3.45
354.299	3.13
354.669	3.5
355.038	3.23
355.408	3.13
355.777	3.6
356.147	3.61
356.516	3.68
356.885	3.38
357.254	3.24
357.624	2.93
357.993	3.75
358.362	3.52
358.731	3.25
359.1	3.35
359.469	3.13
359.838	3.24
360.207	3.56
360.576	3.27
360.945	3.72
361.314	3.21
361.682	3.41
362.051	3.38
362.42	3.63
362.788	3.58
363.157	3.17
363.525	3.15
363.894	3.34
364.262	3.55
364.631	3.56
364.999	3.45
365.367	3.58
365.735	3.43
366.104	3.27
366.472	3.39
366.84	2.83
367.208	3.24
367.576	3.64
367.944	3.8
368.312	3.23
368.68	3.34
369.048	3.63
369.416	3.21
369.783	3.52
370.151	3.55
370.519	3.35
370.886	3.43
371.254	3.69
371.621	2.98
371.989	3.46
372.356	3.78
372.724	3.81
373.091	3.71
373.458	3.31
373.826	3.28
374.193	3.37
374.56	3.26
374.927	3.52
375.294	3.58
375.661	3.82
376.028	3.06
376.395	3.69
376.762	3.6
377.129	3.44
377.496	3.51
377.863	3.65
378.229	3.52
378.596	3.51
378.963	3.42
379.329	3.63
379.696	3.45
380.062	3.4
380.429	3.62
380.795	3.78
381.161	3.65
381.528	3.43
381.894	3.45
382.26	3.64
382.626	3.45
382.993	3.35
383.359	3.43
383.725	3.39
384.091	3.96
384.457	3.44
384.823	3.45
385.188	3.65
385.554	3.22
385.92	3.44
386.286	3.52
386.651	3.64
387.017	3.46
387.383	3.5
387.748	3.22
388.114	3.65
388.479	3.43
388.845	3.42
389.21	3.2
389.575	3.63
389.94	3.36
390.306	3.39
390.671	3.68
391.036	3.58
391.401	3.4
391.766	3.72
392.131	3.36
392.496	3.53
392.861	3.35
393.226	3.5
393.591	3.43
393.956	3.61
394.32	3.3
394.685	3.63
395.05	3.64
395.414	3.52
395.779	3.63
396.143	3.44
396.508	3.6
396.872	3.67
397.236	3.43
397.601	3.54
397.965	3.6
398.329	3.54
398.694	3.61
399.058	3.57
399.422	3.53
399.786	3.6
400.15	3.54
400.514	3.77
400.878	3.66
401.242	3.61
401.605	3.74
401.969	3.65
402.333	3.54
402.697	3.57
403.06	4.01
403.424	3.29
403.787	3.8
404.151	3.54
404.514	3.71
404.878	3.62
405.241	3.48
405.604	3.56
405.968	3.69
406.331	3.34
406.694	3.46
407.057	3.6
407.42	3.69
407.783	3.59
408.146	3.77
408.509	3.77
408.872	3.76
409.235	3.73
409.598	3.56
409.961	3.98
410.323	3.55
410.686	3.78
411.049	3.59
411.411	3.6
411.774	3.74
412.136	3.64
412.499	3.76
412.861	3.72
413.223	3.46
413.586	3.84
413.948	3.98
414.31	3.84
414.672	3.91
415.035	3.77
415.397	3.55
415.759	3.65
416.121	3.8
416.483	3.36
416.845	3.76
417.206	3.64
417.568	3.61
417.93	3.66
418.292	3.49
418.653	3.81
419.015	3.79
419.377	3.8
419.738	3.65
420.1	3.63
420.461	3.69
420.822	3.53
421.184	3.65
421.545	3.51
421.906	3.57
422.267	3.51
422.629	3.51
422.99	3.67
423.351	3.64
423.712	3.66
424.073	3.61
424.434	3.72
424.795	3.72
425.155	3.66
425.516	3.72
425.877	3.63
426.238	3.66
426.598	3.63
426.959	3.69
427.32	3.7
427.68	3.72
428.041	3.85
428.401	3.61
428.761	3.93
429.122	3.63
429.482	3.89
429.842	3.69
430.202	3.76
430.563	3.87
430.923	3.9
431.283	3.67
431.643	3.57
432.003	3.86
432.363	3.7
432.722	3.91
433.082	3.97
433.442	3.88
433.802	3.95
434.161	3.87
434.521	3.71
434.881	3.9
435.24	3.71
435.6	3.84
435.959	3.77
436.319	3.7
436.678	3.87
437.037	3.89
437.396	3.86
437.756	3.78
438.115	3.67
438.474	3.77
438.833	3.77
439.192	3.81
439.551	3.64
439.91	3.85
440.269	3.76
440.628	3.85
440.987	3.91
441.345	3.77
441.704	3.86
442.063	3.75
442.421	3.78
442.78	3.74
443.138	3.89
443.497	3.84
443.855	3.82
444.214	3.76
444.572	3.79
444.93	3.73
445.288	3.83
445.647	3.9
446.005	3.83
446.363	3.99
446.721	3.93
447.079	3.89
447.437	3.8
447.795	3.88
448.153	3.72
448.51	3.82
448.868	3.91
449.226	3.83
449.584	3.86
449.941	3.8
450.299	3.79
450.656	3.9
451.014	3.95
451.371	3.88
451.729	3.77
452.086	3.91
452.443	3.9
452.801	4.06
453.158	3.9
453.515	3.86
453.872	3.94
454.229	4.01
454.586	3.96
454.943	3.96
455.3	3.97
455.657	4.01
456.014	4.12
456.371	4.1
456.727	4.14
457.084	3.82
457.441	4.06
457.797	4.01
458.154	3.99
458.51	3.95
458.867	3.95
459.223	3.97
459.58	4
459.936	3.93
460.292	4.02
460.648	4.01
461.005	3.96
461.361	3.91
461.717	3.9
462.073	4.02
462.429	3.93
462.785	3.94
463.141	3.92
463.496	3.97
463.852	4.12
464.208	3.98
464.564	4.08
464.919	3.97
465.275	3.92
465.631	4.13
465.986	4.11
466.342	4.05
466.697	4.09
467.052	4.03
467.408	4.11
467.763	3.91
468.118	4.1
468.473	4.18
468.829	4
469.184	4.16
469.539	4.21
469.894	4.18
470.249	4.21
470.603	4.08
470.958	4.03
471.313	4.23
471.668	4.15
472.023	3.92
472.377	4.23
472.732	4.05
473.086	4.1
473.441	3.98
473.795	4.11
474.15	4.04
474.504	4.14
474.859	4.08
475.213	4.36
475.567	4.28
475.921	4.28
476.275	4.13
476.63	4.27
476.984	4.28
477.338	4.06
477.692	3.92
478.045	4.16
478.399	4.25
478.753	4.1
479.107	4.27
479.461	4.21
479.814	4.27
480.168	4.2
480.521	4.24
480.875	4.23
481.228	4.15
481.582	4.23
481.935	4.08
482.289	4.11
482.642	4.26
482.995	4.18
483.348	4.16
483.701	4.19
484.055	4.07
484.408	4.03
484.761	4.05
485.114	3.93
485.466	3.94
485.819	3.9
486.172	3.95
486.525	3.99
486.878	4.04
487.23	3.99
487.583	4.07
487.936	4.07
488.288	4.12
488.641	4.09
488.993	4.08
489.345	3.97
489.698	4.03
490.05	4
490.402	4.07
490.754	4.09
491.107	4.07
491.459	4.14
491.811	4.19
492.163	4.25
492.515	4.18
492.866	4.14
493.218	4.06
493.57	4.08
493.922	4.07
494.274	4.18
494.625	4.21
494.977	4.28
495.328	4.23
495.68	4.33
496.031	4.21
496.383	4.3
496.734	4.19
497.086	4.32
497.437	4.33
497.788	4.25
498.139	4.21
498.49	4.22
498.842	4.21
499.193	4.28
499.544	4.41
499.894	4.23
500.245	4.36
500.596	4.46
500.947	4.31
501.298	4.41
501.648	4.3
501.999	4.32
502.35	4.43
502.7	4.34
503.051	4.35
503.401	4.36
503.752	4.3
504.102	4.38
504.452	4.33
504.803	4.33
505.153	4.32
505.503	4.42
505.853	4.44
506.203	4.47
506.553	4.28
506.903	4.33
507.253	4.31
507.603	4.42
507.953	4.37
508.303	4.31
508.652	4.39
509.002	4.43
509.352	4.33
509.701	4.39
510.051	4.37
510.4	4.28
510.75	4.34
511.099	4.35
511.449	4.34
511.798	4.41
512.147	4.31
512.496	4.38
512.846	4.51
513.195	4.38
513.544	4.33
513.893	4.33
514.242	4.35
514.591	4.43
514.939	4.46
515.288	4.47
515.637	4.52
515.986	4.34
516.334	4.56
516.683	4.46
517.032	4.57
517.38	4.45
517.729	4.56
518.077	4.46
518.426	4.49
518.774	4.53
519.122	4.66
519.47	4.54
519.819	4.5
520.167	4.43
520.515	4.47
520.863	4.45
521.211	4.49
521.559	4.45
521.907	4.53
522.255	4.5
522.602	4.66
522.95	4.51
523.298	4.67
523.645	4.58
523.993	4.69
524.341	4.72
524.688	4.59
525.036	4.72
525.383	4.63
525.73	4.67
526.078	4.59
526.425	4.61
526.772	4.63
527.119	4.5
527.466	4.49
527.814	4.57
528.161	4.64
528.508	4.51
528.854	4.49
529.201	4.5
529.548	4.46
529.895	4.41
530.242	4.35
530.588	4.41
530.935	4.41
531.282	4.44
531.628	4.41
531.975	4.5
532.321	4.52
532.667	4.63
533.014	4.55
533.36	4.65
533.706	4.55
534.052	4.57
534.399	4.55
534.745	4.51
535.091	4.52
535.437	4.51
535.783	4.54
536.129	4.65
536.474	4.68
536.82	4.6
537.166	4.69
537.512	4.56
537.857	4.62
538.203	4.54
538.549	4.73
538.894	4.68
539.239	4.69
539.585	4.7
539.93	4.73
540.276	4.87
540.621	4.7
540.966	4.8
541.311	4.82
541.656	4.82
542.001	4.74
542.346	4.67
542.691	4.55
543.036	4.57
543.381	4.62
543.726	4.61
544.071	4.61
544.415	4.7
544.76	4.75
545.105	4.62
545.449	4.7
545.794	4.86
546.138	4.75
546.483	4.79
546.827	4.77
547.171	4.83
547.516	4.72
547.86	4.76
548.204	4.77
548.548	4.71
548.892	4.85
549.236	4.84
549.58	4.85
549.924	5
550.268	5.01
550.612	4.99
550.956	5.15
551.3	4.94
551.643	4.94
551.987	5.02
552.33	4.97
552.674	4.89
553.017	5.03
553.361	5.02
553.704	5
554.048	4.9
554.391	4.98
554.734	4.89
555.077	4.97
555.42	5.01
555.764	4.86
556.107	5.01
556.45	5.18
556.793	5.13
557.135	5.03
557.478	5.09
557.821	5.06
558.164	4.88
558.507	5.16
558.849	5.03
559.192	5.09
559.534	5.16
559.877	5.28
560.219	5.09
560.562	4.93
560.904	5.22
561.246	4.91
561.589	5.08
561.931	5.01
562.273	5.06
562.615	5.17
562.957	5.15
563.299	5.04
563.641	4.97
563.983	4.97
564.325	5.05
564.667	5.18
565.008	5.3
565.35	5.2
565.692	5.1
566.033	5.16
566.375	5.26
566.716	5.36
567.058	5.19
567.399	5.33
567.741	5.06
568.082	5.22
568.423	5.17
568.764	5.42
569.105	5.05
569.447	5.23
569.788	5.21
570.129	5.13
570.47	5.19
570.811	5.27
571.151	5.25
571.492	5.25
571.833	5.29
572.174	5.28
572.514	5.37
572.855	5.23
573.195	5.11
573.536	5.28
573.876	5.29
574.217	5.3
574.557	5.31
574.898	5.13
575.238	5.33
575.578	5.42
575.918	5.34
576.258	5.35
576.598	5.47
576.938	5.41
577.278	5.09
577.618	5.3
577.958	5.26
578.298	5.42
578.638	5.45
578.977	5.49
579.317	5.44
579.657	5.39
579.996	5.28
580.336	5.4
580.675	5.62
581.014	5.51
581.354	5.36
581.693	5.47
582.032	5.27
582.372	5.73
582.711	5.39
583.05	5.48
583.389	5.62
583.728	5.44
584.067	5.47
584.406	5.4
584.745	5.7
585.083	5.44
585.422	5.4
585.761	5.53
586.1	5.31
586.438	5.67
586.777	5.56
587.115	5.65
587.454	5.32
587.792	5.48
588.13	5.36
588.469	5.45
588.807	5.57
589.145	5.57
589.483	5.54
589.821	5.66
590.159	5.71
590.497	5.83
590.835	5.74
591.173	5.58
591.511	5.52
591.849	5.61
592.187	5.56
592.524	5.55
592.862	5.43
593.2	5.59
593.537	5.82
593.875	5.83
594.212	5.63
594.55	5.57
594.887	5.85
595.224	5.65
595.561	5.58
595.899	5.5
596.236	5.47
596.573	5.6
596.91	5.69
597.247	5.7
597.584	5.72
597.921	5.94
598.258	5.56
598.594	5.52
598.931	5.45
599.268	5.54
599.604	5.75
599.941	5.75
600.277	5.66
600.614	5.72
600.95	5.36
601.287	5.87
601.623	6.09
601.959	5.75
602.296	5.81
602.632	5.68
602.968	5.79
603.304	5.9
603.64	6.05
603.976	5.91
604.312	5.73
604.648	5.78
604.984	5.74
605.319	5.85
605.655	5.8
605.991	5.66
606.326	5.94
606.662	5.73
606.998	5.58
607.333	5.9
607.668	5.64
608.004	5.72
608.339	5.8
608.674	5.99
609.01	5.93
609.345	6.07
609.68	5.77
610.015	5.87
610.35	5.87
610.685	6.13
611.02	5.75
611.355	5.87
611.689	5.66
612.024	5.94
612.359	5.77
612.694	5.84
613.028	5.93
613.363	5.91
613.697	6.19
614.032	5.9
614.366	6.03
614.7	5.83
615.035	5.86
615.369	6.02
615.703	6.5
616.037	5.97
616.371	6.09
616.705	6.3
617.039	6.24
617.373	5.83
617.707	6.13
618.041	6.15
618.375	5.74
618.709	6.29
619.042	6.56
619.376	6.06
619.71	5.95
620.043	6.25
620.377	6.25
620.71	6.02
621.043	5.9
621.377	6.37
621.71	6.11
622.043	6.45
622.376	6.2
622.709	5.91
623.043	6.06
623.376	6.2
623.709	6.47
624.041	6.5
624.374	5.75
624.707	6.31
625.04	6.07
625.373	6.36
625.705	6.12
626.038	6.32
626.37	6.3
626.703	5.96
627.035	6.09
627.368	6
627.7	5.98
628.032	5.91
628.365	6.47
628.697	6.25
629.029	6.23
629.361	6.08
629.693	6
630.025	6.28
630.357	6.36
630.689	6.25
631.021	6.17
631.353	6.4
631.684	6.17
632.016	6.3
632.348	6.17
632.679	6.37
633.011	6.41
633.342	6.58
633.674	6.25
634.005	6.41
634.336	6.22
634.668	6.21
634.999	6.2
635.33	6.33
635.661	6.64
635.992	6.7
636.323	6.36
636.654	6.52
636.985	6.48
637.316	6.37
637.647	7
637.977	6.92
638.308	6.82
638.639	6.53
638.969	6.39
639.3	6.76
639.63	6.87
639.961	6.81
640.291	6.76
640.622	6.68
640.952	6.38
641.282	6.37
641.612	6.41
641.943	6.73
642.273	6.3
642.603	6.73
642.933	6.66
643.263	6.33
643.592	6.72
643.922	6.55
644.252	6.69
644.582	6.98
644.911	6.22
645.241	6.35
645.571	6.54
645.9	6.63
646.23	6.99
646.559	6.41
646.888	6.68
647.218	6.68
647.547	6.5
647.876	6.87
648.205	6.38
648.534	6.7
648.863	6.91
649.192	6.67
649.521	6.74
649.85	6.74
650.179	6.64
650.508	6.71
650.837	6.88
651.165	6.54
651.494	6.91
651.822	6.49
652.151	5.98
652.479	6.03
652.808	6.4
653.136	6.36
653.465	6.79
653.793	6.78
654.121	6.71
654.449	6.17
654.777	7.32
655.105	6.76
655.433	6.98
655.761	6.66
656.089	6.94
656.417	6.56
656.745	6.68
657.073	6.59
657.4	6.48
657.728	7.14
658.056	7.16
658.383	6.91
658.711	6.67
659.038	6.89
659.365	6.81
659.693	7.12
660.02	7.43
660.347	7.05
660.674	6.67
661.001	6.73
661.329	6.75
661.656	6.85
661.982	6.96
662.309	6.38
662.636	7.24
662.963	6.81
663.29	7.11
663.616	7.04
663.943	6.97
664.27	7.48
664.596	7.46
664.923	7.18
665.249	7.4
665.576	7.28
665.902	7.51
666.228	7.44
666.554	6.93
666.881	6.88
667.207	7.3
667.533	7.22
667.859	7.21
668.185	6.99
668.511	6.48
668.837	6.92
669.162	7.59
669.488	7.12
669.814	6.95
670.139	7.13
670.465	6.82
670.791	6.85
671.116	7.02
671.442	6.85
671.767	7.51
672.092	7.29
672.418	7.19
672.743	6.96
673.068	6.99
673.393	7.36
673.718	6.82
674.043	7.6
674.368	7.21
674.693	7.23
675.018	7.32
675.343	7.47
675.667	7.06
675.992	7.83
676.317	6.62
676.641	6.98
676.966	7.1
677.29	6.6
677.615	6.9
677.939	7.37
678.264	7.24
678.588	6.76
678.912	7.4
679.236	7.43
679.56	7.61
679.885	6.04
680.209	7.08
680.532	8.04
680.856	7.72
681.18	7.84
681.504	7.04
681.828	7.64
682.152	7.21
682.475	7.05
682.799	6.89
683.122	7
683.446	7.74
683.769	7.02
684.093	7.53
684.416	7.26
684.739	8.25
685.062	7.26
685.386	7.32
685.709	7.59
686.032	7.32
686.355	7.13
686.678	7.28
687.001	7.05
687.324	7.36
687.646	7.05
687.969	7.53
688.292	8.19
688.614	7.57
688.937	7.34
689.26	6.35
689.582	7.24
689.904	7.92
690.227	7.75
690.549	7.65
690.871	7.53
691.194	7.85
691.516	7.33
691.838	7.62
692.16	7.57
692.482	8.12
692.804	7.07
693.126	7.69
