Data from 20-7_forehead_Reflection__4__29.txt Node

Date: Fri Nov 11 20:24:09 CST 2022
User: ToomeyLab
Spectrometer: FLMS14357
Trigger mode: 0
Integration Time (sec): 1.000000E-2
Scans to average: 100
Electric dark correction enabled: true
Nonlinearity correction enabled: false
Boxcar width: 0
XAxis mode: Wavelengths
Number of Pixels in Spectrum: 2048
>>>>>Begin Spectral Data<<<<<
189.047	-80.87
189.435	-80.87
189.823	-80.87
190.211	-42
190.599	-49.86
190.987	29.61
191.375	93.72
191.763	-96.14
192.151	35.56
192.538	-37.21
192.926	536.85
193.314	136.25
193.702	-34.11
194.089	598.17
194.477	94.95
194.864	-1.66
195.252	272.17
195.639	62.94
196.027	94.76
196.414	7.56
196.801	1203.42
197.189	-125.64
197.576	-168.4
197.963	-1303.11
198.351	-18.22
198.738	21.44
199.125	36.88
199.512	59.22
199.899	-17.68
200.286	56.21
200.673	54.03
201.06	40.83
201.447	46.43
201.833	50.37
202.22	29.92
202.607	55.83
202.994	34.62
203.38	49.69
203.767	36.57
204.154	37.99
204.54	36.55
204.927	58.47
205.313	41.63
205.699	16.87
206.086	4.88
206.472	22.62
206.858	60.3
207.245	52.66
207.631	29.41
208.017	34.42
208.403	24.88
208.789	9.19
209.175	1.74
209.561	38.14
209.947	24.17
210.333	41.08
210.719	34.48
211.105	56.08
211.491	48.9
211.876	10.13
212.262	47.5
212.648	57.15
213.034	47.54
213.419	3.75
213.805	20.89
214.19	21.61
214.576	38.42
214.961	-32.03
215.346	0.61
215.732	-2.3
216.117	43.04
216.502	9.92
216.888	8.55
217.273	49.48
217.658	25.56
218.043	28.76
218.428	3.58
218.813	3.02
219.198	22
219.583	21.4
219.968	12.98
220.353	4.35
220.738	-8.62
221.122	23.39
221.507	-1.45
221.892	32.47
222.276	23.04
222.661	20.15
223.046	10.07
223.43	6.42
223.815	8.45
224.199	18.73
224.583	11.19
224.968	12.11
225.352	19.96
225.736	15.03
226.121	6.36
226.505	3.31
226.889	4.21
227.273	11.67
227.657	2.38
228.041	4.25
228.425	5.71
228.809	8.83
229.193	8.08
229.577	7.01
229.961	6.05
230.344	5.65
230.728	4.65
231.112	4.43
231.495	6.54
231.879	5.2
232.263	4.49
232.646	5.76
233.03	5.68
233.413	6.85
233.797	6.74
234.18	5.42
234.563	7.33
234.946	6.45
235.33	6.71
235.713	5.05
236.096	5.34
236.479	4.14
236.862	7.35
237.245	5.62
237.628	6.78
238.011	7.07
238.394	7.01
238.777	5.96
239.16	7.7
239.543	5.5
239.925	8.22
240.308	5.21
240.691	7.09
241.073	4.42
241.456	5.59
241.838	6.71
242.221	5.18
242.603	5.73
242.986	4.41
243.368	5.57
243.75	5.13
244.133	4.94
244.515	4.63
244.897	5.53
245.279	4.53
245.661	5.02
246.043	5.24
246.425	6.02
246.807	5.2
247.189	5.54
247.571	5.61
247.953	5.15
248.335	4.95
248.717	4.9
249.098	5.21
249.48	4.91
249.862	4.95
250.243	5.15
250.625	5.56
251.006	5.79
251.388	5.42
251.769	5.5
252.151	5.45
252.532	5.5
252.913	5.71
253.295	5.08
253.676	4.17
254.057	4.62
254.438	5.22
254.819	5.37
255.2	6.06
255.581	5.93
255.962	4.13
256.343	4.3
256.724	5.11
257.105	6.32
257.486	5.82
257.867	6.52
258.247	4.74
258.628	5.84
259.009	4.74
259.389	4.45
259.77	5.33
260.15	5.73
260.531	4.97
260.911	4.99
261.292	4.88
261.672	4.51
262.052	4.75
262.432	5.05
262.813	5.01
263.193	5.1
263.573	5.93
263.953	5.33
264.333	4.83
264.713	4.79
265.093	5.31
265.473	4.61
265.853	5.22
266.233	4.91
266.612	4.55
266.992	4.92
267.372	5.94
267.752	4.86
268.131	4.5
268.511	5.09
268.89	4.69
269.27	4.51
269.649	4.34
270.029	4.68
270.408	4.56
270.787	4.41
271.167	4.66
271.546	4.87
271.925	4.86
272.304	4.79
272.683	4.45
273.062	4.51
273.441	4.79
273.82	4.79
274.199	4.21
274.578	4.18
274.957	5.1
275.336	4.9
275.715	5.36
276.093	5.09
276.472	4.71
276.851	4.75
277.229	4.84
277.608	4.63
277.986	5.05
278.365	4.55
278.743	5.18
279.122	5.52
279.5	4.9
279.878	4.7
280.257	5.12
280.635	4.93
281.013	5.29
281.391	4.69
281.769	4.54
282.147	4.59
282.525	3.85
282.903	4.45
283.281	4.65
283.659	4.69
284.037	5.11
284.415	4.54
284.792	4.67
285.17	5.39
285.548	4.37
285.925	4.17
286.303	4.65
286.68	5.04
287.058	4.68
287.435	4.9
287.813	4.69
288.19	4.62
288.567	4.76
288.945	4.81
289.322	5.18
289.699	4.44
290.076	5.3
290.453	5.03
290.83	4.95
291.207	4.76
291.584	5.13
291.961	4.83
292.338	4.96
292.715	5.28
293.092	5.46
293.469	5.33
293.845	4.86
294.222	4.61
294.599	5.75
294.975	5.16
295.352	5.34
295.728	5.45
296.105	5.06
296.481	5.34
296.858	5.19
297.234	5.36
297.61	5.35
297.986	5.87
298.363	5.53
298.739	5.68
299.115	5.54
299.491	5.65
299.867	5.38
300.243	5.61
300.619	5.65
300.995	5.74
301.371	6.02
301.746	6.25
302.122	5.99
302.498	6.23
302.874	6.11
303.249	5.74
303.625	5.89
304	5.78
304.376	6.15
304.751	5.81
305.127	5.99
305.502	6.52
305.878	6.31
306.253	6.49
306.628	6.25
307.003	6.76
307.378	6.13
307.754	7.2
308.129	6.47
308.504	6.3
308.879	6.8
309.254	6.98
309.629	6.39
310.003	6.9
310.378	6.87
310.753	7.14
311.128	6.97
311.502	6.78
311.877	6.73
312.252	6.82
312.626	6.89
313.001	6.96
313.375	6.83
313.75	6.77
314.124	6.93
314.498	7.4
314.873	6.93
315.247	7.35
315.621	7.8
315.995	7.85
316.369	7.16
316.743	7.23
317.117	7.73
317.491	7.57
317.865	7.45
318.239	7.41
318.613	8.02
318.987	7.9
319.361	7.39
319.734	7.79
320.108	7.89
320.482	8.44
320.855	7.7
321.229	7.75
321.602	7.9
321.976	7.8
322.349	8.19
322.723	8.32
323.096	8.78
323.469	8.62
323.843	8.33
324.216	7.87
324.589	8.21
324.962	8.42
325.335	8.17
325.708	8.4
326.081	8.37
326.454	8.35
326.827	8.35
327.2	8.8
327.573	9.08
327.945	8.47
328.318	8.32
328.691	8.27
329.063	8.84
329.436	9
329.809	8.62
330.181	8.72
330.553	8.13
330.926	9.24
331.298	9.34
331.671	9
332.043	8.66
332.415	9.2
332.787	9.45
333.159	8.46
333.532	9.12
333.904	9.12
334.276	9.16
334.648	8.75
335.02	8.64
335.391	9.31
335.763	9.05
336.135	9.05
336.507	9.38
336.879	9.27
337.25	9.23
337.622	9.68
337.993	9.52
338.365	9.83
338.736	8.97
339.108	9.54
339.479	9.29
339.851	9.99
340.222	9.28
340.593	9.84
340.964	9.53
341.336	9.76
341.707	9.47
342.078	9.51
342.449	9.55
342.82	9.75
343.191	9.71
343.562	9.94
343.933	9.81
344.303	9.6
344.674	9.64
345.045	10.03
345.416	9.78
345.786	9.74
346.157	9.93
346.527	9.7
346.898	9.33
347.268	9.62
347.639	10.01
348.009	10.13
348.38	10.21
348.75	9.99
349.12	10.38
349.49	10.35
349.861	10.32
350.231	10.28
350.601	10.24
350.971	10.36
351.341	10.58
351.711	10.37
352.081	10.17
352.45	10.35
352.82	10.49
353.19	10.6
353.56	10.44
353.929	10.88
354.299	10.5
354.669	10.91
355.038	10.73
355.408	10.61
355.777	10.95
356.147	10.75
356.516	10.5
356.885	10.99
357.254	10.48
357.624	10.84
357.993	10.87
358.362	10.89
358.731	10.42
359.1	10.68
359.469	10.38
359.838	10.79
360.207	10.99
360.576	10.93
360.945	11.06
361.314	10.92
361.682	10.82
362.051	10.81
362.42	11.09
362.788	11.07
363.157	10.87
363.525	10.58
363.894	10.87
364.262	11.3
364.631	11.28
364.999	10.99
365.367	11.22
365.735	11.36
366.104	11.16
366.472	11.23
366.84	10.92
367.208	11.15
367.576	11.86
367.944	11.44
368.312	11.57
368.68	11.52
369.048	11.66
369.416	11.56
369.783	11.72
370.151	11.71
370.519	11.66
370.886	11.66
371.254	12.05
371.621	11.62
371.989	11.79
372.356	11.95
372.724	11.98
373.091	12.1
373.458	11.79
373.826	11.88
374.193	11.78
374.56	11.9
374.927	11.77
375.294	12.04
375.661	12.4
376.028	11.63
376.395	12.44
376.762	12.15
377.129	12.05
377.496	12.19
377.863	12.13
378.229	12.23
378.596	12.16
378.963	12.31
379.329	12.21
379.696	12.2
380.062	12.38
380.429	12.54
380.795	12.63
381.161	12.72
381.528	12.64
381.894	12.7
382.26	12.8
382.626	12.53
382.993	12.77
383.359	13.01
383.725	12.35
384.091	13.1
384.457	12.66
384.823	12.63
385.188	12.59
385.554	12.85
385.92	12.73
386.286	12.75
386.651	12.89
387.017	12.81
387.383	12.76
387.748	12.85
388.114	12.95
388.479	12.86
388.845	13.03
389.21	12.69
389.575	13.13
389.94	13.14
390.306	13.05
390.671	13.26
391.036	13.39
391.401	13.42
391.766	13.32
392.131	13.2
392.496	13.54
392.861	13.21
393.226	13.39
393.591	13.42
393.956	13.34
394.32	13.6
394.685	13.53
395.05	13.66
395.414	13.43
395.779	13.42
396.143	13.45
396.508	13.94
396.872	13.71
397.236	13.72
397.601	13.64
397.965	14.08
398.329	13.84
398.694	13.74
399.058	13.85
399.422	13.83
399.786	13.76
400.15	13.79
400.514	13.88
400.878	14.11
401.242	13.91
401.605	14.09
401.969	13.97
402.333	13.84
402.697	14.16
403.06	14.2
403.424	14.12
403.787	14.43
404.151	14.34
404.514	14.13
404.878	14.14
405.241	14.24
405.604	13.99
405.968	14.2
406.331	14.07
406.694	14.29
407.057	14.43
407.42	14.66
407.783	14.33
408.146	14.48
408.509	14.59
408.872	14.64
409.235	14.71
409.598	14.64
409.961	14.78
410.323	14.88
410.686	14.8
411.049	14.69
411.411	14.81
411.774	14.56
412.136	14.94
412.499	14.93
412.861	14.83
413.223	14.78
413.586	15.08
413.948	15.07
414.31	15.08
414.672	14.96
415.035	14.9
415.397	15.17
415.759	14.98
416.121	15.09
416.483	15.13
416.845	15.23
417.206	15.05
417.568	15.16
417.93	15.05
418.292	14.98
418.653	15.27
419.015	15.21
419.377	15.24
419.738	15.31
420.1	15.09
420.461	15.21
420.822	15.24
421.184	15.25
421.545	15.26
421.906	15.3
422.267	15.12
422.629	15.04
422.99	15.18
423.351	15.28
423.712	15.29
424.073	15.38
424.434	15.53
424.795	15.66
425.155	15.41
425.516	15.3
425.877	15.31
426.238	15.3
426.598	15.4
426.959	15.51
427.32	15.8
427.68	15.87
428.041	16.03
428.401	15.9
428.761	16.2
429.122	16.03
429.482	16.36
429.842	16.4
430.202	16.3
430.563	16.41
430.923	16.47
431.283	16.25
431.643	16.29
432.003	16.55
432.363	16.47
432.722	16.59
433.082	16.34
433.442	16.5
433.802	16.51
434.161	16.41
434.521	16.33
434.881	16.65
435.24	16.39
435.6	16.49
435.959	16.64
436.319	16.68
436.678	16.68
437.037	16.96
437.396	17.03
437.756	16.95
438.115	16.64
438.474	16.8
438.833	16.93
439.192	17.13
439.551	16.86
439.91	17.04
440.269	16.84
440.628	17.02
440.987	16.94
441.345	16.83
441.704	16.85
442.063	17
442.421	16.93
442.78	16.96
443.138	17.17
443.497	17.16
443.855	17.21
444.214	17.38
444.572	17.52
444.93	17.62
445.288	17.41
445.647	17.62
446.005	17.53
446.363	17.48
446.721	17.32
447.079	17.45
447.437	17.33
447.795	17.28
448.153	17.23
448.51	17.24
448.868	17.43
449.226	17.52
449.584	17.67
449.941	17.84
450.299	17.64
450.656	18
451.014	18.08
451.371	18.05
451.729	18.03
452.086	18.24
452.443	18.3
452.801	18.38
453.158	18.29
453.515	18.25
453.872	18.27
454.229	18.21
454.586	18.27
454.943	18.53
455.3	18.46
455.657	18.4
456.014	18.57
456.371	18.51
456.727	18.59
457.084	18.25
457.441	18.58
457.797	18.7
458.154	18.75
458.51	18.88
458.867	18.65
459.223	18.98
459.58	18.66
459.936	18.83
460.292	18.76
460.648	18.75
461.005	18.48
461.361	18.35
461.717	18.35
462.073	18.75
462.429	18.76
462.785	18.86
463.141	18.95
463.496	19.09
463.852	19.15
464.208	19.25
464.564	19.26
464.919	19.35
465.275	19.52
465.631	19.52
465.986	19.42
466.342	19.6
466.697	19.43
467.052	19.37
467.408	19.65
467.763	19.56
468.118	19.64
468.473	19.59
468.829	19.52
469.184	19.47
469.539	19.84
469.894	19.76
470.249	19.87
470.603	19.81
470.958	19.74
471.313	19.91
471.668	20.06
472.023	19.92
472.377	20.04
472.732	20.12
473.086	20.1
473.441	19.94
473.795	20.12
474.15	20.19
474.504	20.33
474.859	20.31
475.213	20.4
475.567	20.52
475.921	20.34
476.275	20.39
476.63	20.31
476.984	20.66
477.338	20.64
477.692	20.35
478.045	20.36
478.399	20.67
478.753	20.3
479.107	20.59
479.461	20.61
479.814	20.57
480.168	20.61
480.521	20.73
480.875	20.66
481.228	20.67
481.582	20.87
481.935	20.79
482.289	20.8
482.642	20.84
482.995	20.71
483.348	20.72
483.701	20.87
484.055	20.75
484.408	20.64
484.761	20.37
485.114	19.97
485.466	19.93
485.819	20.04
486.172	20.17
486.525	20.38
486.878	20.39
487.23	20.68
487.583	20.81
487.936	20.88
488.288	20.81
488.641	20.62
488.993	20.52
489.345	20.52
489.698	20.64
490.05	20.72
490.402	20.81
490.754	21.1
491.107	21.15
491.459	21.39
491.811	21.68
492.163	21.61
492.515	21.56
492.866	21.22
493.218	21
493.57	21.03
493.922	21.23
494.274	21.42
494.625	21.65
494.977	22.02
495.328	22.01
495.68	22.22
496.031	22.24
496.383	22.37
496.734	22.41
497.086	22.45
497.437	22.36
497.788	22.3
498.139	22.24
498.49	22.13
498.842	22.08
499.193	22.44
499.544	22.42
499.894	22.31
500.245	22.65
500.596	22.71
500.947	22.63
501.298	22.72
501.648	22.83
501.999	22.87
502.35	22.85
502.7	22.93
503.051	23.04
503.401	23.24
503.752	23.16
504.102	23.11
504.452	23.29
504.803	23.2
505.153	23.36
505.503	23.43
505.853	23.22
506.203	23.27
506.553	23.33
506.903	23.18
507.253	23.38
507.603	23.56
507.953	23.56
508.303	23.39
508.652	23.67
509.002	23.78
509.352	23.52
509.701	23.43
510.051	23.45
510.4	23.47
510.75	23.42
511.099	23.54
511.449	23.61
511.798	23.76
512.147	23.86
512.496	23.82
512.846	23.99
513.195	24.12
513.544	24
513.893	23.77
514.242	23.93
514.591	24.15
514.939	24.21
515.288	24.18
515.637	24.39
515.986	24.32
516.334	24.5
516.683	24.54
517.032	24.62
517.38	24.6
517.729	24.74
518.077	24.65
518.426	24.69
518.774	24.74
519.122	24.77
519.47	24.58
519.819	24.44
520.167	24.42
520.515	24.49
520.863	24.55
521.211	24.64
521.559	24.58
521.907	24.78
522.255	24.89
522.602	25.06
522.95	25.22
523.298	25.27
523.645	25.27
523.993	25.51
524.341	25.56
524.688	25.52
525.036	25.5
525.383	25.44
525.73	25.57
526.078	25.56
526.425	25.67
526.772	25.35
527.119	25.18
527.466	25.1
527.814	25.31
528.161	25.45
528.508	25.44
528.854	25.49
529.201	25.54
529.548	25.33
529.895	24.98
530.242	24.87
530.588	25.07
530.935	25.09
531.282	25.27
531.628	25.31
531.975	25.51
532.321	25.62
532.667	25.88
533.014	25.97
533.36	26.05
533.706	26.19
534.052	26.14
534.399	25.9
534.745	25.77
535.091	25.75
535.437	25.93
535.783	25.89
536.129	26.21
536.474	26.26
536.82	26.55
537.166	26.59
537.512	26.72
537.857	26.55
538.203	26.41
538.549	26.47
538.894	26.74
539.239	26.83
539.585	26.87
539.93	27.03
540.276	27.25
540.621	27.42
540.966	27.46
541.311	27.4
541.656	27.48
542.001	27.41
542.346	26.91
542.691	26.65
543.036	26.51
543.381	26.58
543.726	26.86
544.071	26.85
544.415	27.01
544.76	27.23
545.105	27.14
545.449	27.41
545.794	27.5
546.138	27.66
546.483	27.55
546.827	27.83
547.171	27.84
547.516	27.82
547.86	28.11
548.204	28.03
548.548	27.82
548.892	27.93
549.236	27.91
549.58	28.15
549.924	28.4
550.268	28.62
550.612	28.57
550.956	28.69
551.3	28.84
551.643	28.92
551.987	28.93
552.33	29.12
552.674	28.75
553.017	29.28
553.361	29.01
553.704	29.05
554.048	28.82
554.391	28.92
554.734	28.97
555.077	29.17
555.42	29.02
555.764	29.19
556.107	29.18
556.45	29.55
556.793	29.56
557.135	29.58
557.478	29.51
557.821	29.79
558.164	29.69
558.507	29.67
558.849	29.57
559.192	29.86
559.534	29.66
559.877	29.99
560.219	29.88
560.562	29.96
560.904	30.08
561.246	29.81
561.589	30.13
561.931	30.13
562.273	30.07
562.615	30.08
562.957	30.13
563.299	30.3
563.641	30.32
563.983	30.18
564.325	30.55
564.667	30.78
565.008	30.43
565.35	30.53
565.692	30.37
566.033	30.8
566.375	30.82
566.716	30.56
567.058	30.75
567.399	30.82
567.741	30.63
568.082	30.57
568.423	30.8
568.764	30.75
569.105	30.73
569.447	31.04
569.788	31.09
570.129	30.9
570.47	31.37
570.811	31.3
571.151	31.42
571.492	31.23
571.833	31.24
572.174	31.45
572.514	31.43
572.855	31.59
573.195	31.06
573.536	31.21
573.876	31.33
574.217	31.54
574.557	31.61
574.898	31.6
575.238	31.7
575.578	31.81
575.918	31.82
576.258	31.85
576.598	31.81
576.938	31.8
577.278	31.94
577.618	32.04
577.958	32.1
578.298	32.17
578.638	32.35
578.977	32.46
579.317	32.5
579.657	32.61
579.996	32.69
580.336	32.34
580.675	32.59
581.014	32.8
581.354	32.64
581.693	32.55
582.032	32.68
582.372	32.97
582.711	32.85
583.05	33.01
583.389	33.42
583.728	33.05
584.067	33.13
584.406	33.25
584.745	33.48
585.083	33.11
585.422	33.4
585.761	33.32
586.1	33.43
586.438	33.34
586.777	33.58
587.115	33.55
587.454	33.01
587.792	33.48
588.13	33.41
588.469	33.43
588.807	33.76
589.145	33.7
589.483	33.95
589.821	33.85
590.159	33.91
590.497	33.82
590.835	33.93
591.173	34.07
591.511	33.88
591.849	33.96
592.187	33.87
592.524	33.96
592.862	34.06
593.2	34.18
593.537	34.3
593.875	34.35
594.212	34.54
594.55	34.33
594.887	34.62
595.224	34.41
595.561	34.44
595.899	34.4
596.236	34.42
596.573	34.59
596.91	34.71
597.247	34.54
597.584	34.64
597.921	35.1
598.258	34.6
598.594	34.67
598.931	34.39
599.268	34.55
599.604	34.72
599.941	34.88
600.277	34.74
600.614	35.22
600.95	34.86
601.287	35.07
601.623	35.48
601.959	35.37
602.296	35.31
602.632	35.02
602.968	35.58
603.304	35.65
603.64	35.82
603.976	35.67
604.312	35.3
604.648	35.8
604.984	35.49
605.319	35.85
605.655	35.42
605.991	35.42
606.326	35.62
606.662	35.37
606.998	35.55
607.333	35.79
607.668	35.7
608.004	35.57
608.339	36.07
608.674	35.99
609.01	36.14
609.345	36.27
609.68	36.19
610.015	36.41
610.35	36.35
610.685	36.3
611.02	35.93
611.355	35.91
611.689	35.93
612.024	35.9
612.359	36
612.694	36.54
613.028	36.55
613.363	36.74
613.697	36.85
614.032	36.44
614.366	36.74
614.7	36.84
615.035	37.31
615.369	36.98
615.703	37.27
616.037	37.33
616.371	36.85
616.705	37.27
617.039	37.45
617.373	37.35
617.707	37.4
618.041	37.29
618.375	37.08
618.709	37.91
619.042	37.41
619.376	37.59
619.71	37.51
620.043	37.72
620.377	37.53
620.71	37.69
621.043	37.64
621.377	37.91
621.71	37.46
622.043	38.09
622.376	38.03
622.709	37.65
623.043	37.93
623.376	38.22
623.709	38.31
624.041	38.15
624.374	37.7
624.707	38.18
625.04	37.95
625.373	37.95
625.705	38.18
626.038	38.45
626.37	38.44
626.703	38.41
627.035	38.49
627.368	38.23
627.7	38.15
628.032	38.61
628.365	38.41
628.697	38.36
629.029	38.16
629.361	38.59
629.693	38.48
630.025	38.59
630.357	38.93
630.689	39.01
631.021	38.75
631.353	38.77
631.684	39.15
632.016	39.22
632.348	38.93
632.679	38.89
633.011	39.21
633.342	39.34
633.674	38.89
634.005	39.24
634.336	39.21
634.668	39.1
634.999	39.15
635.33	39.49
635.661	39.58
635.992	39.6
636.323	39.02
636.654	38.84
636.985	38.93
637.316	39.81
637.647	40.37
637.977	39.8
638.308	39.84
638.639	39.27
638.969	39.93
639.3	40.34
639.63	40.01
639.961	39.96
640.291	40.08
640.622	40.47
640.952	40.31
641.282	39.96
641.612	40.1
641.943	40.52
642.273	39.99
642.603	40.8
642.933	40.41
643.263	40.15
643.592	40.75
643.922	40.21
644.252	40.74
644.582	41.19
644.911	40.35
645.241	40
645.571	40.18
645.9	41.07
646.23	41.05
646.559	41.28
646.888	40.74
647.218	40.35
647.547	40.59
647.876	40.67
648.205	41.15
648.534	40.82
648.863	41.23
649.192	40.95
649.521	40.4
649.85	40.76
650.179	40.9
650.508	41.5
650.837	40.99
651.165	41.18
651.494	41.56
651.822	40.98
652.151	41.32
652.479	41.37
652.808	41.39
653.136	41.29
653.465	41.66
653.793	41.74
654.121	41.42
654.449	41.07
654.777	42.08
655.105	41.43
655.433	41.44
655.761	41.89
656.089	42.32
656.417	41.3
656.745	41.88
657.073	42.15
657.4	41.84
657.728	42.17
658.056	42.28
658.383	42.07
658.711	42.38
659.038	41.96
659.365	42.15
659.693	42.15
660.02	42.39
660.347	42.29
660.674	42.18
661.001	41.72
661.329	42.12
661.656	42.55
661.982	42.52
662.309	42.67
662.636	42.76
662.963	42.65
663.29	42.69
663.616	42.46
663.943	42.64
664.27	42.6
664.596	43.68
664.923	43.34
665.249	42.93
665.576	42.91
665.902	43.52
666.228	42.81
666.554	42.88
666.881	43.18
667.207	43.66
667.533	43.5
667.859	43.61
668.185	43.33
668.511	42.82
668.837	43
669.162	43.41
669.488	43.6
669.814	43.13
670.139	43.15
670.465	42.33
670.791	43.25
671.116	43.71
