Data from 1610-5_crown_Reflection__1__101.txt Node

Date: Fri Nov 11 16:55:09 CST 2022
User: ToomeyLab
Spectrometer: FLMS14357
Trigger mode: 0
Integration Time (sec): 1.000000E-2
Scans to average: 100
Electric dark correction enabled: true
Nonlinearity correction enabled: false
Boxcar width: 0
XAxis mode: Wavelengths
Number of Pixels in Spectrum: 2048
>>>>>Begin Spectral Data<<<<<
189.047	259.67
189.435	259.67
189.823	259.67
190.211	181.04
190.599	6.68
190.987	505.97
191.375	18.36
191.763	53.78
192.151	91.95
192.538	-73.02
192.926	-280.84
193.314	-59.99
193.702	-56.95
194.089	-44.51
194.477	65.42
194.864	298.03
195.252	68.21
195.639	47.88
196.027	108.14
196.414	82.17
196.801	59.29
197.189	53.15
197.576	121.45
197.963	-44.11
198.351	-46.71
198.738	-128.95
199.125	2
199.512	28.55
199.899	-23.13
200.286	5.01
200.673	2.74
201.06	-216.25
201.447	-20.28
201.833	-9.56
202.22	38.23
202.607	18.03
202.994	17.47
203.38	-1.03
203.767	-4.66
204.154	0.95
204.54	38.66
204.927	38.35
205.313	25.87
205.699	-5.86
206.086	2.25
206.472	-9.35
206.858	-12.61
207.245	22.75
207.631	22.83
208.017	9.23
208.403	18.83
208.789	-5.87
209.175	-34.79
209.561	16.49
209.947	-14.7
210.333	17.36
210.719	-0.28
211.105	-8.53
211.491	-179.43
211.876	13.34
212.262	-13.74
212.648	-10.45
213.034	11.06
213.419	-9.83
213.805	9.49
214.19	-45.22
214.576	18.8
214.961	-24.73
215.346	-75.64
215.732	-63.96
216.117	23.68
216.502	31.15
216.888	-19.03
217.273	-25.31
217.658	-13.34
218.043	-12.59
218.428	-66.03
218.813	30.13
219.198	-28.09
219.583	16.01
219.968	-19.91
220.353	-26.98
220.738	-22.12
221.122	-3.94
221.507	6.19
221.892	-1.77
222.276	4.95
222.661	-0.17
223.046	14.45
223.43	0.3
223.815	2.81
224.199	14.98
224.583	-9.01
224.968	12.49
225.352	-7.39
225.736	-3.99
226.121	2.9
226.505	1.47
226.889	2.29
227.273	-0.07
227.657	-4.46
228.041	-1.32
228.425	2.41
228.809	4.99
229.193	0.32
229.577	2.12
229.961	1.46
230.344	2.28
230.728	1.35
231.112	2.38
231.495	1.4
231.879	1.17
232.263	-0.34
232.646	0.43
233.03	0.49
233.413	1.72
233.797	0.32
234.18	1.23
234.563	0.94
234.946	-2
235.33	2.2
235.713	2.27
236.096	-0.21
236.479	2.47
236.862	3.11
237.245	1.11
237.628	1.98
238.011	1.5
238.394	1.29
238.777	0.1
239.16	2.19
239.543	0.99
239.925	3.23
240.308	1.05
240.691	0.3
241.073	1
241.456	1.26
241.838	1.94
242.221	1.83
242.603	1.73
242.986	1.75
243.368	1.84
243.75	1.62
244.133	2.3
244.515	2.31
244.897	1.78
245.279	1.44
245.661	1.69
246.043	1.97
246.425	2.25
246.807	1.65
247.189	1.31
247.571	0.71
247.953	2.1
248.335	2.3
248.717	2.08
249.098	1.98
249.48	2
249.862	1.89
250.243	2.02
250.625	1.73
251.006	2.19
251.388	1.27
251.769	1.92
252.151	1.28
252.532	2.45
252.913	1.31
253.295	1.73
253.676	1.94
254.057	1.84
254.438	2.08
254.819	2.22
255.2	2.57
255.581	2.4
255.962	1.53
256.343	2.07
256.724	2.67
257.105	2.12
257.486	2.88
257.867	1.67
258.247	2.6
258.628	2.37
259.009	1.68
259.389	1.48
259.77	2.26
260.15	2.63
260.531	1.79
260.911	1.76
261.292	2.13
261.672	1.75
262.052	2.15
262.432	2.21
262.813	1.76
263.193	1.59
263.573	2.63
263.953	1.74
264.333	1.99
264.713	1.14
265.093	2.14
265.473	2.93
265.853	0.97
266.233	1.25
266.612	1.93
266.992	1.48
267.372	1.53
267.752	2.03
268.131	2.37
268.511	1.6
268.89	2.01
269.27	1.68
269.649	1.45
270.029	1.35
270.408	2.04
270.787	2.32
271.167	1.61
271.546	1.95
271.925	2.1
272.304	1.99
272.683	2.01
273.062	2.1
273.441	1.57
273.82	1.37
274.199	2.08
274.578	2.4
274.957	1.86
275.336	1.85
275.715	2.25
276.093	2.38
276.472	2.08
276.851	1.66
277.229	2.22
277.608	1.87
277.986	1.91
278.365	2.28
278.743	1.93
279.122	2.1
279.5	1.87
279.878	1.87
280.257	2.37
280.635	1.6
281.013	2.32
281.391	1.74
281.769	2.22
282.147	2.04
282.525	1.46
282.903	2.17
283.281	1.93
283.659	1.91
284.037	1.8
284.415	2.03
284.792	2.28
285.17	2.1
285.548	2.14
285.925	2.17
286.303	1.46
286.68	1.92
287.058	2.16
287.435	2.21
287.813	1.98
288.19	1.97
288.567	1.98
288.945	1.89
289.322	1.7
289.699	2.33
290.076	1.59
290.453	1.68
290.83	2.33
291.207	1.94
291.584	1.88
291.961	1.66
292.338	2.15
292.715	2.01
293.092	2.12
293.469	2.26
293.845	2.33
294.222	2.62
294.599	2.63
294.975	2
295.352	2.06
295.728	1.96
296.105	2.08
296.481	1.86
296.858	2.34
297.234	1.75
297.61	1.75
297.986	1.52
298.363	2.27
298.739	2.13
299.115	1.99
299.491	2.11
299.867	1.9
300.243	2.02
300.619	2.51
300.995	2.18
301.371	1.77
301.746	2.11
302.122	1.72
302.498	1.86
302.874	2.19
303.249	1.99
303.625	2.06
304	1.63
304.376	2.25
304.751	2.62
305.127	2.48
305.502	2.46
305.878	2.75
306.253	2.34
306.628	2.53
307.003	2.54
307.378	2.37
307.754	2.16
308.129	2.34
308.504	1.9
308.879	2.19
309.254	1.61
309.629	2.46
310.003	2.57
310.378	2
310.753	2.17
311.128	2.5
311.502	2.06
311.877	2.37
312.252	1.75
312.626	2.1
313.001	2.12
313.375	2.53
313.75	2.69
314.124	2.26
314.498	2.43
314.873	2.46
315.247	2
315.621	2.2
315.995	2.41
316.369	2.96
316.743	2.12
317.117	2.08
317.491	2.38
317.865	2.29
318.239	2.39
318.613	2.39
318.987	2.4
319.361	2.24
319.734	1.51
320.108	2.43
320.482	1.78
320.855	2.25
321.229	2.15
321.602	2.11
321.976	1.62
322.349	2.28
322.723	2.41
323.096	2.9
323.469	2.45
323.843	2.86
324.216	1.9
324.589	2.53
324.962	2.12
325.335	2.74
325.708	2.23
326.081	2.42
326.454	2.52
326.827	2.68
327.2	1.96
327.573	2.47
327.945	2.19
328.318	2.36
328.691	2.7
329.063	2.49
329.436	2.48
329.809	2.24
330.181	2.81
330.553	2.88
330.926	1.95
331.298	2.58
331.671	2.64
332.043	2.74
332.415	2.71
332.787	2.71
333.159	2.8
333.532	1.79
333.904	1.99
334.276	2.52
334.648	2.17
335.02	2.36
335.391	2.32
335.763	2.4
336.135	2.33
336.507	2.37
336.879	2.47
337.25	1.59
337.622	2.83
337.993	2.76
338.365	2.2
338.736	2.28
339.108	2.54
339.479	2.46
339.851	1.96
340.222	2.41
340.593	2.18
340.964	2.24
341.336	2.56
341.707	2.01
342.078	2.38
342.449	2.61
342.82	2.27
343.191	2.47
343.562	2.79
343.933	1.91
344.303	2.97
344.674	2.52
345.045	2.32
345.416	2.47
345.786	2.75
346.157	2.3
346.527	2.58
346.898	2.66
347.268	2.71
347.639	3.03
348.009	2.58
348.38	2.55
348.75	3
349.12	2.48
349.49	2.47
349.861	2.3
350.231	2.46
350.601	2.98
350.971	3.13
351.341	2.43
351.711	2.12
352.081	1.76
352.45	2.44
352.82	2.86
353.19	2.35
353.56	2.43
353.929	2.54
354.299	2.5
354.669	2.94
355.038	2.67
355.408	2.33
355.777	2.65
356.147	2.42
356.516	2.83
356.885	2.34
357.254	2.54
357.624	2.82
357.993	2.53
358.362	2.34
358.731	2.45
359.1	2.16
359.469	2.48
359.838	2.57
360.207	2.86
360.576	2.73
360.945	2.88
361.314	3.06
361.682	2.86
362.051	2.64
362.42	2.37
362.788	2.69
363.157	2.64
363.525	2.55
363.894	2.47
364.262	2.38
364.631	2.55
364.999	2.65
365.367	2.75
365.735	2.63
366.104	2.19
366.472	2.66
366.84	2.59
367.208	2.52
367.576	2.75
367.944	2.69
368.312	2.59
368.68	2.75
369.048	2.42
369.416	2.34
369.783	2.48
370.151	2.78
370.519	2.96
370.886	2.66
371.254	2.55
371.621	2.84
371.989	2.28
372.356	2.56
372.724	2.54
373.091	2.33
373.458	2.48
373.826	2.69
374.193	2.56
374.56	2.83
374.927	2.57
375.294	2.67
375.661	2.86
376.028	2.43
376.395	2.74
376.762	2.48
377.129	2.87
377.496	2.23
377.863	2.86
378.229	2.87
378.596	2.57
378.963	2.69
379.329	2.73
379.696	2.72
380.062	2.62
380.429	2.46
380.795	2.74
381.161	2.87
381.528	2.82
381.894	2.59
382.26	2.65
382.626	2.58
382.993	2.72
383.359	2.69
383.725	2.7
384.091	2.56
384.457	2.7
384.823	2.62
385.188	2.8
385.554	2.69
385.92	2.52
386.286	2.78
386.651	2.74
387.017	2.48
387.383	2.79
387.748	2.48
388.114	2.67
388.479	2.58
388.845	2.67
389.21	2.75
389.575	2.72
389.94	2.81
390.306	2.71
390.671	2.73
391.036	2.91
391.401	2.51
391.766	2.58
392.131	2.23
392.496	2.74
392.861	2.74
393.226	2.56
393.591	2.59
393.956	2.89
394.32	2.87
394.685	2.88
395.05	2.96
395.414	2.89
395.779	2.54
396.143	2.62
396.508	2.72
396.872	2.89
397.236	2.91
397.601	2.66
397.965	2.71
398.329	2.45
398.694	2.54
399.058	2.61
399.422	2.7
399.786	2.85
400.15	2.63
400.514	2.72
400.878	2.84
401.242	2.87
401.605	2.97
401.969	2.75
402.333	2.72
402.697	2.71
403.06	2.74
403.424	2.44
403.787	2.94
404.151	2.64
404.514	2.66
404.878	2.95
405.241	2.56
405.604	2.63
405.968	2.83
406.331	2.6
406.694	2.73
407.057	2.87
407.42	2.86
407.783	2.71
408.146	2.82
408.509	2.78
408.872	2.96
409.235	2.86
409.598	2.84
409.961	2.58
410.323	2.63
410.686	2.78
411.049	2.73
411.411	2.42
411.774	2.5
412.136	2.77
412.499	2.86
412.861	2.55
413.223	2.69
413.586	2.57
413.948	2.52
414.31	2.93
414.672	2.76
415.035	2.88
415.397	2.89
415.759	2.75
416.121	2.74
416.483	2.81
416.845	2.74
417.206	2.89
417.568	2.63
417.93	2.7
418.292	2.56
418.653	2.76
419.015	2.56
419.377	2.81
419.738	2.83
420.1	2.81
420.461	2.7
420.822	2.69
421.184	2.66
421.545	2.63
421.906	2.78
422.267	2.79
422.629	2.72
422.99	2.68
423.351	2.71
423.712	2.75
424.073	2.77
424.434	2.6
424.795	2.85
425.155	2.83
425.516	2.78
425.877	2.82
426.238	2.71
426.598	2.76
426.959	2.83
427.32	2.77
427.68	2.79
428.041	2.87
428.401	2.72
428.761	2.84
429.122	2.79
429.482	2.81
429.842	2.9
430.202	3
430.563	2.88
430.923	2.75
431.283	2.95
431.643	3.05
432.003	3
432.363	2.86
432.722	2.84
433.082	2.8
433.442	2.91
433.802	2.97
434.161	2.81
434.521	2.89
434.881	2.65
435.24	2.99
435.6	2.88
435.959	2.79
436.319	2.76
436.678	2.83
437.037	2.75
437.396	2.73
437.756	2.82
438.115	2.68
438.474	2.71
438.833	2.79
439.192	2.9
439.551	2.72
439.91	3.02
440.269	2.83
440.628	2.86
440.987	3.03
441.345	2.84
441.704	2.83
442.063	2.96
442.421	2.76
442.78	2.83
443.138	2.73
443.497	2.87
443.855	2.84
444.214	2.78
444.572	2.88
444.93	2.85
445.288	2.99
445.647	2.69
446.005	2.91
446.363	2.84
446.721	2.77
447.079	2.93
447.437	2.79
447.795	2.8
448.153	2.85
448.51	2.79
448.868	2.91
449.226	2.85
449.584	2.91
449.941	2.77
450.299	2.94
450.656	2.98
451.014	3.04
451.371	2.79
451.729	2.94
452.086	2.77
452.443	2.93
452.801	2.87
453.158	2.82
453.515	2.79
453.872	2.92
454.229	2.81
454.586	2.77
454.943	2.97
455.3	2.9
455.657	2.96
456.014	2.84
456.371	2.94
456.727	2.88
457.084	2.86
457.441	2.78
457.797	2.78
458.154	2.97
458.51	2.89
458.867	3.05
459.223	2.85
459.58	2.92
459.936	3.1
460.292	2.88
460.648	2.86
461.005	2.92
461.361	2.88
461.717	2.81
462.073	2.91
462.429	2.93
462.785	2.78
463.141	2.85
463.496	2.9
463.852	2.88
464.208	2.97
464.564	2.93
464.919	2.97
465.275	2.83
465.631	2.94
465.986	2.79
466.342	3.05
466.697	2.94
467.052	2.94
467.408	2.93
467.763	2.95
468.118	2.94
468.473	2.93
468.829	3.07
469.184	3.04
469.539	3.08
469.894	2.89
470.249	3
470.603	2.96
470.958	3.05
471.313	2.95
471.668	3.03
472.023	3.1
472.377	3.13
472.732	3.11
473.086	2.94
473.441	2.98
473.795	3.09
474.15	2.86
474.504	3.07
474.859	3.08
475.213	3.12
475.567	3.04
475.921	3.15
476.275	3
476.63	3.11
476.984	3
477.338	3.09
477.692	3
478.045	2.93
478.399	2.8
478.753	3.01
479.107	2.86
479.461	2.91
479.814	2.91
480.168	3.08
480.521	3.04
480.875	3.01
481.228	3.01
481.582	2.91
481.935	3.12
482.289	3.1
482.642	3
482.995	3.02
483.348	2.94
483.701	2.99
484.055	2.96
484.408	2.94
484.761	2.81
485.114	2.82
485.466	2.7
485.819	2.76
486.172	2.79
486.525	2.84
486.878	2.84
487.23	2.88
487.583	2.93
487.936	2.93
488.288	2.93
488.641	2.84
488.993	2.82
489.345	2.8
489.698	2.83
490.05	2.8
490.402	2.83
490.754	2.97
491.107	2.93
491.459	2.89
491.811	2.92
492.163	2.94
492.515	2.93
492.866	2.83
493.218	2.8
493.57	2.8
493.922	2.89
494.274	2.9
494.625	2.91
494.977	2.9
495.328	3.01
495.68	3.03
496.031	3.11
496.383	2.99
496.734	2.99
497.086	2.96
497.437	2.95
497.788	3.08
498.139	2.98
498.49	2.97
498.842	2.94
499.193	2.91
499.544	2.99
499.894	3.16
500.245	3.01
500.596	3
500.947	2.94
501.298	3.14
501.648	3.06
501.999	2.99
502.35	2.88
502.7	3.14
503.051	3.05
503.401	2.98
503.752	2.97
504.102	3.02
504.452	2.95
504.803	3.02
505.153	3.05
505.503	2.99
505.853	3.04
506.203	3.11
506.553	3.05
506.903	3
507.253	3.16
507.603	3.18
507.953	2.97
508.303	3.08
508.652	2.93
509.002	2.93
509.352	3.13
509.701	3
510.051	2.92
510.4	3.04
510.75	3.06
511.099	3.04
511.449	2.99
511.798	2.98
512.147	2.94
512.496	3.06
512.846	3.07
513.195	2.91
513.544	3.07
513.893	3.09
514.242	3.03
514.591	3.09
514.939	3.03
515.288	3.05
515.637	3.06
515.986	3.16
516.334	2.98
516.683	3.1
517.032	3.04
517.38	3.05
517.729	3.04
518.077	2.9
518.426	3.17
518.774	3.02
519.122	3.03
519.47	2.9
519.819	2.97
520.167	2.99
520.515	2.99
520.863	3.01
521.211	3.03
521.559	3.03
521.907	3.06
522.255	3.11
522.602	3.13
522.95	3.14
523.298	3.05
523.645	3
523.993	3.12
524.341	3.13
524.688	3.08
525.036	3.06
525.383	3.05
525.73	3.02
526.078	3.08
526.425	3.05
526.772	3.07
527.119	3.05
527.466	2.94
527.814	3.01
528.161	3.01
528.508	2.96
528.854	2.93
529.201	2.92
529.548	2.95
529.895	2.86
530.242	2.88
530.588	2.86
530.935	2.85
531.282	2.95
531.628	2.92
531.975	2.93
532.321	2.97
532.667	2.98
533.014	3.04
533.36	3.09
533.706	3.08
534.052	3.06
534.399	2.91
534.745	2.99
535.091	2.91
535.437	2.98
535.783	2.95
536.129	3.02
536.474	3.06
536.82	2.98
537.166	3.04
537.512	3.07
537.857	3.11
538.203	2.98
538.549	2.97
538.894	2.98
539.239	3.05
539.585	2.98
539.93	3.08
540.276	3.12
540.621	3.02
540.966	3.12
541.311	3.1
541.656	2.91
542.001	3.07
542.346	3.02
542.691	2.89
543.036	2.87
543.381	2.87
543.726	2.94
544.071	2.98
544.415	3.02
544.76	2.97
545.105	3.05
545.449	3.07
545.794	3.08
546.138	3.03
546.483	3.05
546.827	3.07
547.171	3.04
547.516	2.9
547.86	3.01
548.204	3.07
548.548	3.01
548.892	2.99
549.236	3.1
549.58	3.12
549.924	3.14
550.268	3.15
550.612	3.13
550.956	3.09
551.3	3.2
551.643	3.22
551.987	3
552.33	3.09
552.674	3.14
553.017	3.04
553.361	3.11
553.704	3.06
554.048	3.04
554.391	3.03
554.734	2.96
555.077	3.14
555.42	3.14
555.764	3.23
556.107	3.06
556.45	3
556.793	3.13
557.135	3.05
557.478	3.08
557.821	3.22
558.164	3.15
558.507	3.12
558.849	2.96
559.192	3.19
559.534	3.12
559.877	3.23
560.219	3.26
560.562	3.24
560.904	3.08
561.246	2.97
561.589	3.15
561.931	3.09
562.273	3.19
562.615	2.97
562.957	3.07
563.299	3.33
563.641	3.1
563.983	2.94
564.325	3.05
564.667	3.14
565.008	3.14
565.35	3.19
565.692	3.1
566.033	3.15
566.375	3.03
566.716	3.2
567.058	2.92
567.399	3.16
567.741	3.24
568.082	3.11
568.423	3.08
568.764	3.1
569.105	3.25
569.447	3.19
569.788	3.23
570.129	3.1
570.47	3.02
570.811	3.14
571.151	3.21
571.492	3.13
571.833	3.17
572.174	3.17
572.514	3.28
572.855	3.18
573.195	3.11
573.536	3.18
573.876	3.17
574.217	3.08
574.557	3.02
574.898	3.16
575.238	3.33
575.578	3.14
575.918	3.05
576.258	3.29
576.598	3.26
576.938	3.06
577.278	3.15
577.618	3.14
577.958	3.15
578.298	3.18
578.638	3.14
578.977	3.23
579.317	3
579.657	3.23
579.996	3.21
580.336	3.34
580.675	3.25
581.014	3.35
581.354	3.23
581.693	3.21
582.032	3.24
582.372	3.39
582.711	3.21
583.05	3.29
583.389	3.42
583.728	3.07
584.067	3.24
584.406	3.18
584.745	3.11
585.083	3.21
585.422	3.34
585.761	3.45
586.1	3.29
586.438	3.32
586.777	3.1
587.115	3.11
587.454	3.47
587.792	3.4
588.13	3.48
588.469	3.33
588.807	3.4
589.145	3.06
589.483	3.22
589.821	3.18
590.159	3.34
590.497	3.35
590.835	3.12
591.173	3.15
591.511	3.25
591.849	3.12
592.187	3.22
592.524	3.4
592.862	3.36
593.2	3.36
593.537	2.85
593.875	3.4
594.212	3.2
594.55	3.17
594.887	3.52
595.224	3.07
595.561	3.28
595.899	3.19
596.236	3.13
596.573	3.13
596.91	3.27
597.247	3.18
597.584	3.24
597.921	3.1
598.258	3.36
598.594	3.15
598.931	3.34
599.268	3.08
599.604	3.25
599.941	3.15
600.277	3.16
600.614	3.3
600.95	3.33
601.287	3.25
601.623	3.23
601.959	2.98
602.296	2.98
602.632	3.18
602.968	3.43
603.304	3.25
603.64	3.16
603.976	3.39
604.312	3.24
604.648	2.89
604.984	3.3
605.319	3.25
605.655	3.18
605.991	3.03
606.326	3.24
606.662	3.17
606.998	3.2
607.333	3.22
607.668	3.28
608.004	3.2
608.339	3.44
608.674	2.99
609.01	2.96
609.345	3.03
609.68	3.36
610.015	3.35
610.35	3.25
610.685	3.34
611.02	3.46
611.355	3.28
611.689	3.38
612.024	3.29
612.359	2.99
612.694	3.28
613.028	3.09
613.363	3.23
613.697	3.27
614.032	3.52
614.366	3.04
614.7	3.17
615.035	3.27
615.369	3.18
615.703	3.24
616.037	3.17
616.371	3.15
616.705	3.39
617.039	3.16
617.373	3.48
617.707	3.16
618.041	3.17
618.375	3.5
618.709	3.08
619.042	3.24
619.376	3.28
619.71	3.28
620.043	3.51
620.377	3.25
620.71	3.15
621.043	3.49
621.377	3.1
621.71	3.15
622.043	2.94
622.376	3.21
622.709	3.43
623.043	3.13
623.376	3.44
623.709	3.16
624.041	3.3
624.374	3.28
624.707	3.24
625.04	3.11
625.373	3.36
625.705	3.09
626.038	3.12
626.37	3.54
626.703	3.56
627.035	3.2
627.368	3.5
627.7	3.02
628.032	3.23
628.365	3.6
628.697	3.43
629.029	3.22
629.361	3.26
629.693	3.26
630.025	3.14
630.357	3.11
630.689	3.47
631.021	3.2
631.353	3.19
631.684	3.39
632.016	3.17
632.348	3.32
632.679	3.45
633.011	3.29
633.342	3.05
633.674	3.4
634.005	3.51
634.336	3.3
634.668	3.23
634.999	2.84
635.33	3.1
635.661	3.23
635.992	3.36
636.323	3.62
636.654	3.84
636.985	3.48
637.316	3.18
637.647	3.36
637.977	3.39
638.308	3.08
638.639	3.21
638.969	3.43
639.3	3.31
639.63	3.47
639.961	3.53
640.291	3.31
640.622	3.14
640.952	3.07
641.282	3.38
641.612	3.34
641.943	3.27
642.273	3.28
642.603	3.48
642.933	3.28
643.263	3.15
643.592	3.59
643.922	2.85
644.252	3.18
644.582	3.1
644.911	3.51
645.241	3.62
645.571	3.75
645.9	3.1
646.23	3.2
646.559	3.16
646.888	3.4
647.218	2.99
647.547	3.51
647.876	3.4
648.205	3.55
648.534	3.22
648.863	3.25
649.192	3.35
649.521	3.62
649.85	3.3
650.179	3.25
650.508	3.79
650.837	3.7
651.165	3.46
651.494	3.33
651.822	3.37
652.151	3.25
652.479	3.18
652.808	3
653.136	3.32
653.465	3.48
653.793	3.6
654.121	3.74
654.449	3.05
654.777	3.06
655.105	3.29
655.433	2.92
655.761	3.21
656.089	2.88
656.417	3.54
656.745	3.76
657.073	3.34
657.4	3.4
657.728	3.62
658.056	3.22
658.383	3.39
658.711	3.65
659.038	3.24
659.365	2.78
659.693	3.03
660.02	3.81
660.347	3.43
660.674	2.83
661.001	3.4
661.329	3.24
661.656	3.43
661.982	3.75
662.309	3.18
662.636	3.25
662.963	3.35
663.29	3.27
663.616	3.53
663.943	3.96
664.27	3.39
664.596	4.08
664.923	3.36
665.249	3.79
665.576	3.27
665.902	2.92
666.228	3.35
666.554	2.92
666.881	3.02
667.207	3.4
667.533	3.73
667.859	2.82
668.185	3.31
668.511	3.62
668.837	3.54
669.162	3.27
669.488	3.41
669.814	2.98
670.139	3.07
670.465	3.41
670.791	3.6
671.116	3.56
671.442	3.86
671.767	3.32
672.092	3.38
672.418	3.05
672.743	2.47
673.068	3.41
673.393	3.31
673.718	3.3
674.043	3.9
674.368	3.41
674.693	3.61
675.018	3.38
675.343	3.42
675.667	2.8
675.992	3.7
676.317	3.47
676.641	3.58
676.966	2.75
677.29	2.7
677.615	4.03
677.939	3.68
678.264	3.3
678.588	4.03
678.912	3.38
679.236	3.55
679.56	3.9
679.885	3.57
680.209	3.25
680.532	2.95
680.856	4.36
681.18	3.55
681.504	3.89
681.828	2.6
682.152	3.96
682.475	3.31
682.799	3.07
683.122	3.52
683.446	3.2
683.769	3.86
684.093	3.18
684.416	3.5
684.739	3.54
685.062	2.96
685.386	3.12
685.709	4.07
686.032	3.11
686.355	2.88
686.678	3.81
687.001	4.18
687.324	3.36
687.646	3.76
687.969	3.12
688.292	3.7
688.614	3.14
688.937	2.91
689.26	3.56
689.582	3.11
689.904	2.65
690.227	3.75
690.549	3.42
690.871	3.02
691.194	3.12
691.516	3.92
691.838	3.7
692.16	2.99
692.482	3.38
692.804	3.48
