Data from 1610-5_chest_Reflection__0__95.txt Node

Date: Fri Nov 11 16:53:21 CST 2022
User: ToomeyLab
Spectrometer: FLMS14357
Trigger mode: 0
Integration Time (sec): 1.000000E-2
Scans to average: 100
Electric dark correction enabled: true
Nonlinearity correction enabled: false
Boxcar width: 0
XAxis mode: Wavelengths
Number of Pixels in Spectrum: 2048
>>>>>Begin Spectral Data<<<<<
189.047	200.23
189.435	200.23
189.823	200.23
190.211	190.68
190.599	83.11
190.987	96.35
191.375	75.5
191.763	-58.29
192.151	80.53
192.538	25.45
192.926	99.19
193.314	-70.15
193.702	-70.32
194.089	-9.8
194.477	-293.62
194.864	-24.23
195.252	87.95
195.639	146.13
196.027	-181.57
196.414	54.93
196.801	57.79
197.189	52.68
197.576	74.99
197.963	15.89
198.351	-5.59
198.738	-286.88
199.125	-31.03
199.512	5.67
199.899	7.2
200.286	62.86
200.673	20.13
201.06	-201.99
201.447	41.59
201.833	7.17
202.22	-24.68
202.607	35.15
202.994	-10.21
203.38	-7.78
203.767	6.66
204.154	14.64
204.54	17.55
204.927	0.14
205.313	38.62
205.699	11.23
206.086	18.8
206.472	26.99
206.858	-0.29
207.245	7.39
207.631	16.09
208.017	-8.09
208.403	3.91
208.789	-137.83
209.175	18.48
209.561	4.16
209.947	5.85
210.333	-10.1
210.719	22.3
211.105	15.29
211.491	-115.87
211.876	15.77
212.262	5.64
212.648	5.78
213.034	-14.54
213.419	7.81
213.805	10.15
214.19	-26.06
214.576	9.22
214.961	-32
215.346	-51.84
215.732	-27.27
216.117	19.94
216.502	7.73
216.888	-12.51
217.273	-7.69
217.658	26.25
218.043	-11.6
218.428	-63.82
218.813	34.03
219.198	-29.4
219.583	8.54
219.968	5.65
220.353	-22.35
220.738	-12.23
221.122	-9.17
221.507	12.71
221.892	21.41
222.276	14.13
222.661	2.8
223.046	1.54
223.43	-5.09
223.815	10.29
224.199	8.07
224.583	3.47
224.968	14.95
225.352	-6.55
225.736	8.45
226.121	11.65
226.505	-0.47
226.889	-2.18
227.273	5.18
227.657	-1.72
228.041	0.46
228.425	9.03
228.809	8.81
229.193	2.92
229.577	6.77
229.961	4.39
230.344	6.09
230.728	6.25
231.112	6
231.495	6.15
231.879	5.54
232.263	4.35
232.646	5.28
233.03	4.84
233.413	3.95
233.797	6.42
234.18	6.31
234.563	7.49
234.946	3.3
235.33	4.4
235.713	6.28
236.096	4.84
236.479	4.96
236.862	7.06
237.245	5.84
237.628	6.69
238.011	6.93
238.394	5.63
238.777	5.56
239.16	6.18
239.543	6.73
239.925	7.58
240.308	4.81
240.691	3.81
241.073	6.02
241.456	5.71
241.838	6.55
242.221	5.22
242.603	5.34
242.986	6.62
243.368	6.69
243.75	6.31
244.133	6.09
244.515	6.54
244.897	6.36
245.279	6.33
245.661	6.11
246.043	6.7
246.425	6.48
246.807	6.49
247.189	4.83
247.571	5.94
247.953	6.73
248.335	6.81
248.717	6.15
249.098	6.21
249.48	6.52
249.862	6.21
250.243	6.17
250.625	5.7
251.006	7.08
251.388	6.33
251.769	6.8
252.151	5.77
252.532	6.05
252.913	5.21
253.295	6.07
253.676	6.34
254.057	6.02
254.438	6.33
254.819	6.65
255.2	6.03
255.581	5.45
255.962	5.52
256.343	6.65
256.724	6.06
257.105	6.3
257.486	6.27
257.867	6.17
258.247	6.53
258.628	4.83
259.009	5.79
259.389	5.95
259.77	6.28
260.15	6.63
260.531	6.07
260.911	5.73
261.292	5.91
261.672	6.01
262.052	5.93
262.432	6.56
262.813	6.16
263.193	6.1
263.573	6.09
263.953	6.15
264.333	6.15
264.713	4.87
265.093	6.23
265.473	6.61
265.853	5.28
266.233	6.14
266.612	5.29
266.992	5.41
267.372	5.79
267.752	5.79
268.131	6.24
268.511	5.91
268.89	5.96
269.27	5.31
269.649	4.91
270.029	4.78
270.408	5.31
270.787	5.99
271.167	5.66
271.546	6.56
271.925	6.02
272.304	5.5
272.683	5.58
273.062	5.74
273.441	5.46
273.82	5.28
274.199	5.87
274.578	5.76
274.957	5.21
275.336	5.99
275.715	5.29
276.093	5.8
276.472	5.52
276.851	5.67
277.229	5.39
277.608	5.84
277.986	5.76
278.365	6.07
278.743	5.22
279.122	5.22
279.5	5.66
279.878	5.86
280.257	6.06
280.635	5.61
281.013	6.23
281.391	5.49
281.769	5.65
282.147	5.53
282.525	5.68
282.903	5.5
283.281	5.44
283.659	5.66
284.037	5.44
284.415	5.51
284.792	5.71
285.17	5.66
285.548	5.32
285.925	5.73
286.303	5.64
286.68	5.43
287.058	5.66
287.435	5.62
287.813	5.69
288.19	5.53
288.567	5.65
288.945	4.99
289.322	5.43
289.699	6.04
290.076	5.37
290.453	5.38
290.83	6.25
291.207	5.74
291.584	5.82
291.961	5.75
292.338	6.04
292.715	5.95
293.092	5.79
293.469	5.97
293.845	6.34
294.222	5.76
294.599	5.63
294.975	5.72
295.352	5.28
295.728	5.62
296.105	5.65
296.481	5.63
296.858	5.91
297.234	5.9
297.61	5.62
297.986	5.59
298.363	6.15
298.739	5.77
299.115	5.76
299.491	5.68
299.867	5.67
300.243	5.8
300.619	6.4
300.995	5.84
301.371	5.41
301.746	5.85
302.122	5.68
302.498	5.19
302.874	5.87
303.249	5.49
303.625	5.98
304	6.19
304.376	6.22
304.751	6.49
305.127	6.06
305.502	6.46
305.878	6.51
306.253	6.26
306.628	5.8
307.003	6.2
307.378	6.35
307.754	6.27
308.129	5.98
308.504	6.37
308.879	6.04
309.254	5.48
309.629	5.52
310.003	5.94
310.378	5.3
310.753	6.13
311.128	5.85
311.502	5.65
311.877	5.95
312.252	5.65
312.626	5.89
313.001	6.17
313.375	6.33
313.75	6.24
314.124	5.98
314.498	6.07
314.873	6.51
315.247	6.28
315.621	5.58
315.995	5.83
316.369	6.4
316.743	6.43
317.117	6.3
317.491	6.41
317.865	5.91
318.239	6.61
318.613	6.77
318.987	6.69
319.361	6.45
319.734	5.77
320.108	6.12
320.482	6
320.855	6.13
321.229	6.76
321.602	6.16
321.976	6.22
322.349	5.85
322.723	6.18
323.096	7.1
323.469	6.16
323.843	6.48
324.216	6.11
324.589	6.38
324.962	6.29
325.335	6.69
325.708	6.28
326.081	6.43
326.454	6.57
326.827	6.67
327.2	5.95
327.573	6.36
327.945	6.3
328.318	6.18
328.691	6.25
329.063	6.65
329.436	6.04
329.809	6.58
330.181	5.89
330.553	6.67
330.926	5.81
331.298	6.21
331.671	6.31
332.043	6.88
332.415	6.09
332.787	6.4
333.159	6.06
333.532	6.33
333.904	6.06
334.276	6.37
334.648	5.98
335.02	6.85
335.391	6.04
335.763	6.7
336.135	6.48
336.507	6.65
336.879	6.12
337.25	5.88
337.622	6.84
337.993	6.34
338.365	6.65
338.736	6.2
339.108	6.39
339.479	6.75
339.851	6.09
340.222	6.3
340.593	6.06
340.964	6.13
341.336	6.47
341.707	6.07
342.078	6.49
342.449	6.37
342.82	6.39
343.191	6.68
343.562	6.61
343.933	6.13
344.303	6.78
344.674	6.51
345.045	6.24
345.416	6.83
345.786	6.6
346.157	6.09
346.527	6.38
346.898	6.31
347.268	6.61
347.639	6.69
348.009	6.24
348.38	6.52
348.75	7.35
349.12	6.73
349.49	6.48
349.861	6.76
350.231	6.28
350.601	7.02
350.971	7.12
351.341	6.72
351.711	6.29
352.081	5.82
352.45	6.57
352.82	6.63
353.19	6.38
353.56	6.64
353.929	6.53
354.299	6.54
354.669	6.79
355.038	6.67
355.408	6.13
355.777	6.95
356.147	6.58
356.516	6.86
356.885	6.43
357.254	6.22
357.624	6.8
357.993	6.86
358.362	6.66
358.731	6.59
359.1	6.11
359.469	6.81
359.838	6.85
360.207	6.49
360.576	6.7
360.945	6.69
361.314	7.12
361.682	6.84
362.051	6.54
362.42	6.3
362.788	6.5
363.157	6.59
363.525	6.72
363.894	6.58
364.262	6.32
364.631	6.4
364.999	6.48
365.367	6.68
365.735	6.86
366.104	6.51
366.472	6.59
366.84	6.48
367.208	6.64
367.576	6.74
367.944	7.09
368.312	6.66
368.68	6.72
369.048	6.57
369.416	6.52
369.783	6.63
370.151	6.82
370.519	7.19
370.886	6.54
371.254	6.66
371.621	6.86
371.989	6.71
372.356	6.56
372.724	6.94
373.091	7.09
373.458	6.54
373.826	7.1
374.193	6.72
374.56	6.82
374.927	6.47
375.294	6.93
375.661	7.35
376.028	6.87
376.395	6.67
376.762	6.92
377.129	6.87
377.496	6.71
377.863	6.77
378.229	6.69
378.596	6.81
378.963	6.72
379.329	6.66
379.696	6.91
380.062	6.7
380.429	6.79
380.795	6.81
381.161	7.19
381.528	6.98
381.894	6.83
382.26	6.7
382.626	6.73
382.993	6.94
383.359	6.76
383.725	6.9
384.091	6.64
384.457	6.79
384.823	6.93
385.188	6.86
385.554	6.82
385.92	6.76
386.286	6.76
386.651	6.68
387.017	6.9
387.383	6.78
387.748	7.04
388.114	6.88
388.479	6.91
388.845	6.87
389.21	7.06
389.575	6.98
389.94	7.05
390.306	6.38
390.671	6.8
391.036	6.9
391.401	6.65
391.766	6.91
392.131	6.77
392.496	7
392.861	6.91
393.226	6.76
393.591	6.88
393.956	6.87
394.32	7.13
394.685	6.97
395.05	7.12
395.414	7.14
395.779	6.92
396.143	6.99
396.508	7.02
396.872	7.03
397.236	6.82
397.601	6.89
397.965	7.18
398.329	7.01
398.694	6.82
399.058	6.89
399.422	7.11
399.786	7.02
400.15	7.1
400.514	6.91
400.878	7.04
401.242	7.05
401.605	7.22
401.969	7
402.333	6.84
402.697	6.77
403.06	6.89
403.424	6.93
403.787	7.06
404.151	6.98
404.514	6.91
404.878	7.18
405.241	6.88
405.604	6.92
405.968	7.36
406.331	6.86
406.694	6.89
407.057	6.74
407.42	6.92
407.783	6.97
408.146	6.97
408.509	7.11
408.872	7.03
409.235	7.02
409.598	6.84
409.961	6.91
410.323	7
410.686	7.24
411.049	6.98
411.411	6.81
411.774	6.94
412.136	6.87
412.499	7.15
412.861	6.94
413.223	6.95
413.586	6.73
413.948	7.11
414.31	7.19
414.672	7.36
415.035	7.26
415.397	7.24
415.759	7
416.121	7.27
416.483	7.01
416.845	6.95
417.206	7.09
417.568	7.2
417.93	7
418.292	6.82
418.653	6.99
419.015	6.93
419.377	7.14
419.738	7.15
420.1	6.94
420.461	6.99
420.822	6.89
421.184	6.88
421.545	6.96
421.906	6.97
422.267	6.99
422.629	6.92
422.99	6.8
423.351	6.89
423.712	6.99
424.073	6.99
424.434	6.94
424.795	7.15
425.155	7.03
425.516	6.96
425.877	7.04
426.238	6.88
426.598	6.99
426.959	6.99
427.32	7.02
427.68	7.04
428.041	7.14
428.401	7
428.761	6.96
429.122	7.35
429.482	7.22
429.842	7.09
430.202	7.04
430.563	7.08
430.923	7.24
431.283	7.3
431.643	7.1
432.003	7.24
432.363	7.27
432.722	7.14
433.082	7.22
433.442	7.24
433.802	7.21
434.161	7.29
434.521	7.34
434.881	7.17
435.24	7.24
435.6	7.16
435.959	7.16
436.319	6.97
436.678	7.05
437.037	7.2
437.396	7.1
437.756	7.08
438.115	7.11
438.474	7.16
438.833	7.17
439.192	7.35
439.551	7.13
439.91	7.21
440.269	7.24
440.628	7.27
440.987	7.2
441.345	7.23
441.704	7.26
442.063	7.25
442.421	7.06
442.78	7.1
443.138	7.14
443.497	7.19
443.855	7.19
444.214	7.23
444.572	7.27
444.93	7.19
445.288	7.33
445.647	6.98
446.005	7.22
446.363	7.25
446.721	7.2
447.079	7.29
447.437	7.24
447.795	7.15
448.153	7.14
448.51	7.1
448.868	7.14
449.226	7.11
449.584	7.22
449.941	7.2
450.299	7.24
450.656	7.28
451.014	7.36
451.371	7.31
451.729	7.33
452.086	7.34
452.443	7.44
452.801	7.35
453.158	7.36
453.515	7.3
453.872	7.4
454.229	7.32
454.586	7.4
454.943	7.27
455.3	7.11
455.657	7.39
456.014	7.21
456.371	7.27
456.727	7.34
457.084	7.26
457.441	7.32
457.797	7.37
458.154	7.29
458.51	7.32
458.867	7.5
459.223	7.29
459.58	7.43
459.936	7.49
460.292	7.28
460.648	7.22
461.005	7.35
461.361	7.4
461.717	7.23
462.073	7.33
462.429	7.34
462.785	7.24
463.141	7.33
463.496	7.39
463.852	7.33
464.208	7.49
464.564	7.38
464.919	7.25
465.275	7.48
465.631	7.61
465.986	7.41
466.342	7.65
466.697	7.54
467.052	7.57
467.408	7.49
467.763	7.38
468.118	7.47
468.473	7.48
468.829	7.57
469.184	7.5
469.539	7.5
469.894	7.33
470.249	7.43
470.603	7.47
470.958	7.51
471.313	7.36
471.668	7.61
472.023	7.58
472.377	7.44
472.732	7.58
473.086	7.44
473.441	7.47
473.795	7.49
474.15	7.48
474.504	7.65
474.859	7.37
475.213	7.56
475.567	7.72
475.921	7.68
476.275	7.64
476.63	7.68
476.984	7.58
477.338	7.51
477.692	7.6
478.045	7.54
478.399	7.67
478.753	7.62
479.107	7.49
479.461	7.56
479.814	7.63
480.168	7.63
480.521	7.6
480.875	7.61
481.228	7.56
481.582	7.51
481.935	7.59
482.289	7.58
482.642	7.51
482.995	7.57
483.348	7.44
483.701	7.49
484.055	7.35
484.408	7.44
484.761	7.33
485.114	7.22
485.466	7.13
485.819	7.14
486.172	7.09
486.525	7.15
486.878	7.18
487.23	7.27
487.583	7.41
487.936	7.4
488.288	7.32
488.641	7.36
488.993	7.28
489.345	7.22
489.698	7.26
490.05	7.22
490.402	7.28
490.754	7.39
491.107	7.38
491.459	7.51
491.811	7.5
492.163	7.48
492.515	7.49
492.866	7.38
493.218	7.34
493.57	7.33
493.922	7.39
494.274	7.4
494.625	7.41
494.977	7.57
495.328	7.56
495.68	7.62
496.031	7.64
496.383	7.72
496.734	7.7
497.086	7.76
497.437	7.59
497.788	7.72
498.139	7.7
498.49	7.63
498.842	7.67
499.193	7.62
499.544	7.55
499.894	7.64
500.245	7.84
500.596	7.65
500.947	7.78
501.298	7.74
501.648	7.71
501.999	7.62
502.35	7.8
502.7	7.83
503.051	7.72
503.401	7.71
503.752	7.82
504.102	7.74
504.452	7.75
504.803	7.8
505.153	7.8
505.503	7.84
505.853	7.87
506.203	7.89
506.553	7.9
506.903	7.83
507.253	7.77
507.603	7.94
507.953	7.9
508.303	7.82
508.652	7.74
509.002	7.8
509.352	7.91
509.701	7.85
510.051	7.87
510.4	7.81
510.75	7.84
511.099	7.86
511.449	7.78
511.798	7.79
512.147	7.84
512.496	7.96
512.846	7.79
513.195	7.87
513.544	7.83
513.893	8.01
514.242	7.93
514.591	7.91
514.939	7.83
515.288	7.88
515.637	7.84
515.986	7.89
516.334	8
516.683	7.93
517.032	7.96
517.38	8.03
517.729	7.99
518.077	7.92
518.426	8.02
518.774	7.88
519.122	7.93
519.47	7.9
519.819	7.96
520.167	7.88
520.515	7.94
520.863	7.8
521.211	7.88
521.559	7.96
521.907	8.05
522.255	8.02
522.602	8.07
522.95	8.03
523.298	7.97
523.645	8.11
523.993	8.1
524.341	8.1
524.688	8.03
525.036	8.21
525.383	8.07
525.73	7.94
526.078	8.11
526.425	8.02
526.772	8.15
527.119	8.06
527.466	8
527.814	7.97
528.161	7.97
528.508	7.96
528.854	8.03
529.201	8.03
529.548	8.04
529.895	7.89
530.242	7.88
530.588	7.82
530.935	7.86
531.282	7.86
531.628	7.89
531.975	7.89
532.321	8
532.667	8.19
533.014	8.12
533.36	8.13
533.706	8.19
534.052	8.13
534.399	8.13
534.745	8.02
535.091	8
535.437	8.09
535.783	8.02
536.129	8.04
536.474	8.22
536.82	8.16
537.166	8.25
537.512	8.3
537.857	8.34
538.203	8.29
538.549	8.21
538.894	8.29
539.239	8.23
539.585	8.3
539.93	8.48
540.276	8.42
540.621	8.46
540.966	8.57
541.311	8.48
541.656	8.33
542.001	8.6
542.346	8.4
542.691	8.37
543.036	8.25
543.381	8.21
543.726	8.24
544.071	8.23
544.415	8.3
544.76	8.31
545.105	8.43
545.449	8.49
545.794	8.47
546.138	8.47
546.483	8.56
546.827	8.62
547.171	8.52
547.516	8.47
547.86	8.57
548.204	8.55
548.548	8.55
548.892	8.66
549.236	8.64
549.58	8.79
549.924	8.75
550.268	8.98
550.612	8.86
550.956	8.87
551.3	8.98
551.643	8.89
551.987	8.8
552.33	8.82
552.674	8.81
553.017	8.85
553.361	8.9
553.704	8.95
554.048	9.02
554.391	8.95
554.734	8.95
555.077	9.04
555.42	8.8
555.764	8.96
556.107	8.93
556.45	9.05
556.793	8.98
557.135	9.01
557.478	9.14
557.821	9.2
558.164	9.24
558.507	8.97
558.849	9.17
559.192	9.25
559.534	9.17
559.877	9.32
560.219	9.27
560.562	9.51
560.904	9.16
561.246	9.19
561.589	9.36
561.931	9.32
562.273	9.36
562.615	9.2
562.957	9.33
563.299	9.53
563.641	9.39
563.983	9.4
564.325	9.31
564.667	9.53
565.008	9.48
565.35	9.63
565.692	9.33
566.033	9.48
566.375	9.52
566.716	9.65
567.058	9.52
567.399	9.7
567.741	9.67
568.082	9.55
568.423	9.6
568.764	9.69
569.105	9.45
569.447	9.53
569.788	9.73
570.129	9.51
570.47	9.57
570.811	9.66
571.151	9.76
571.492	9.76
571.833	9.89
572.174	9.84
572.514	9.75
572.855	9.74
573.195	9.78
573.536	9.75
573.876	9.88
574.217	9.7
574.557	9.68
574.898	9.8
575.238	9.9
575.578	9.93
575.918	9.85
576.258	10.12
576.598	10.09
576.938	10.06
577.278	9.95
577.618	9.86
577.958	9.97
578.298	10.11
578.638	10.1
578.977	10.1
579.317	10.07
579.657	10.33
579.996	10.35
580.336	10.35
580.675	10.29
581.014	10.38
581.354	10.2
581.693	10.46
582.032	10.49
582.372	10.26
582.711	10.53
583.05	10.37
583.389	10.65
583.728	10.58
584.067	10.63
584.406	10.47
584.745	10.58
585.083	10.69
585.422	10.81
585.761	10.73
586.1	10.44
586.438	10.32
586.777	10.67
587.115	10.63
587.454	10.63
587.792	10.88
588.13	10.59
588.469	10.6
588.807	10.92
589.145	10.77
589.483	10.81
589.821	10.65
590.159	11.03
590.497	10.9
590.835	10.6
591.173	10.89
591.511	11
591.849	10.78
592.187	10.98
592.524	11.1
592.862	11.1
593.2	11.05
593.537	10.87
593.875	10.89
594.212	11.14
594.55	10.97
594.887	11.25
595.224	11.07
595.561	11.08
595.899	11
596.236	11.15
596.573	11.14
596.91	10.99
597.247	11.32
597.584	11.24
597.921	11.25
598.258	11.23
598.594	11.29
598.931	11.36
599.268	11.18
599.604	11.38
599.941	11.35
600.277	11.21
600.614	11.5
600.95	11.58
601.287	11.46
601.623	11.67
601.959	11.6
602.296	11.79
602.632	11.63
602.968	11.84
603.304	11.7
603.64	11.59
603.976	11.81
604.312	11.51
604.648	11.59
604.984	11.84
605.319	11.74
605.655	11.82
605.991	11.82
606.326	11.64
606.662	11.58
606.998	11.77
607.333	11.95
607.668	11.82
608.004	11.86
608.339	12.03
608.674	11.9
609.01	11.66
609.345	11.98
609.68	12.28
610.015	12.18
610.35	12.12
610.685	12.2
611.02	12.4
611.355	12.03
611.689	12.34
612.024	12.15
612.359	11.99
612.694	12.02
613.028	12.41
613.363	12.26
613.697	12.32
614.032	12.71
614.366	12.08
614.7	12.57
615.035	12.86
615.369	12.54
615.703	12.6
616.037	12.67
616.371	12.65
616.705	12.84
617.039	12.63
617.373	12.77
617.707	12.73
618.041	12.68
618.375	12.96
618.709	12.83
619.042	12.95
619.376	12.8
619.71	12.5
620.043	12.79
620.377	13.21
620.71	13.11
621.043	12.8
621.377	12.83
621.71	13.28
622.043	12.95
622.376	12.97
622.709	12.86
623.043	12.96
623.376	13.05
623.709	12.9
624.041	13.24
624.374	13.54
624.707	13.22
625.04	13.2
625.373	13.24
625.705	13.28
626.038	13.32
626.37	13.16
626.703	13.25
627.035	13.28
627.368	13.3
627.7	13.23
628.032	13.34
628.365	13.62
628.697	13.53
629.029	13.41
629.361	13.59
629.693	13.36
630.025	13.32
630.357	13.31
630.689	13.77
631.021	13.42
631.353	13.67
631.684	13.71
632.016	13.37
632.348	13.69
632.679	13.63
633.011	13.83
633.342	13.54
633.674	13.94
634.005	13.93
634.336	13.57
634.668	13.89
634.999	13.81
635.33	14.09
635.661	14.04
635.992	14.01
636.323	14.09
636.654	14.08
636.985	14.17
637.316	14.2
637.647	13.97
637.977	13.86
638.308	14
638.639	14.27
638.969	14.36
639.3	14.09
639.63	14.62
639.961	13.7
640.291	14.26
640.622	14.16
640.952	14.22
641.282	14.52
641.612	14.27
641.943	14.76
642.273	14.94
642.603	14.42
642.933	14.43
643.263	14.32
643.592	14.65
643.922	14.4
644.252	14.69
644.582	14.71
644.911	14.71
645.241	14.77
645.571	14.7
645.9	14.68
646.23	15.13
646.559	14.7
646.888	14.68
647.218	14.66
647.547	15.1
647.876	14.77
648.205	15.06
648.534	15.23
648.863	15.17
649.192	15.09
649.521	15.04
649.85	14.63
650.179	15.07
650.508	15.38
650.837	15.18
651.165	15.46
651.494	15.08
651.822	15.32
652.151	15.34
652.479	15.46
652.808	15.36
653.136	15.04
653.465	15.41
653.793	15.79
654.121	15.86
654.449	15.26
654.777	15.5
655.105	15.33
655.433	15.28
655.761	15.47
656.089	15.71
656.417	15.29
656.745	15.63
657.073	15.53
657.4	15.53
657.728	15.3
658.056	15.43
658.383	15.81
658.711	15.88
659.038	15.93
659.365	15.62
659.693	15.96
660.02	16.33
660.347	16.14
660.674	15.62
661.001	16.02
661.329	15.62
661.656	15.91
661.982	16.05
662.309	15.71
662.636	15.84
662.963	15.65
663.29	15.92
663.616	16.54
663.943	16.24
664.27	16.44
664.596	16.27
664.923	16.11
665.249	16.24
665.576	16.28
665.902	16.43
666.228	16.32
666.554	16.64
666.881	15.92
667.207	15.85
667.533	16.88
667.859	16.17
668.185	16.2
668.511	16.05
668.837	16.34
669.162	16.91
669.488	16.87
669.814	16.28
670.139	16.73
670.465	16.51
670.791	16.46
671.116	16.42
671.442	16.93
671.767	17.41
672.092	17.13
672.418	16.52
672.743	16.6
673.068	16.64
673.393	16.62
673.718	17.08
674.043	17.09
674.368	17.13
674.693	17.19
675.018	16.78
675.343	17.18
675.667	17.03
675.992	17.35
676.317	16.99
676.641	17.1
676.966	16.69
677.29	16.91
677.615	17.3
677.939	16.85
678.264	17.08
678.588	17.44
678.912	17.15
679.236	17.38
679.56	17.67
679.885	17.84
680.209	16.96
680.532	17.08
680.856	17.89
681.18	16.91
681.504	17.4
681.828	17.37
682.152	18.4
682.475	17.74
682.799	17.55
683.122	17.54
683.446	17.41
683.769	17.94
684.093	17.76
684.416	18.08
684.739	18.01
685.062	17.38
685.386	17.63
685.709	18.3
