Data from 1610-5_forehead_Reflection__1__106.txt Node

Date: Fri Nov 11 16:56:38 CST 2022
User: ToomeyLab
Spectrometer: FLMS14357
Trigger mode: 0
Integration Time (sec): 1.000000E-2
Scans to average: 100
Electric dark correction enabled: true
Nonlinearity correction enabled: false
Boxcar width: 0
XAxis mode: Wavelengths
Number of Pixels in Spectrum: 2048
>>>>>Begin Spectral Data<<<<<
189.047	363.53
189.435	363.53
189.823	363.53
190.211	-225.62
190.599	374.54
190.987	123.33
191.375	66.94
191.763	-215.3
192.151	180.72
192.538	-30.87
192.926	-6.62
193.314	-29.77
193.702	-50.68
194.089	19.96
194.477	76.24
194.864	962.54
195.252	200.92
195.639	70.3
196.027	-180.35
196.414	71.08
196.801	4.25
197.189	-8.94
197.576	53.95
197.963	31.99
198.351	24.47
198.738	-79.72
199.125	14.9
199.512	19.27
199.899	29.62
200.286	76.09
200.673	29.46
201.06	-84.58
201.447	31.66
201.833	47.78
202.22	29.67
202.607	36.91
202.994	31.66
203.38	25.31
203.767	23.76
204.154	3.91
204.54	33.7
204.927	8.71
205.313	20.85
205.699	4.25
206.086	49.78
206.472	2.09
206.858	-0.29
207.245	24.85
207.631	22.72
208.017	-5.13
208.403	28.56
208.789	-103.8
209.175	16.48
209.561	-9.8
209.947	-8.73
210.333	40.97
210.719	50.49
211.105	30.74
211.491	-51.9
211.876	25.07
212.262	4.22
212.648	39.42
213.034	19.83
213.419	25.85
213.805	23.93
214.19	18.83
214.576	30.84
214.961	28.43
215.346	-25.95
215.732	-0.75
216.117	17.21
216.502	6.19
216.888	11.17
217.273	8.02
217.658	18.98
218.043	-15.45
218.428	-27.91
218.813	26.31
219.198	-4.02
219.583	38.27
219.968	2.24
220.353	-18.07
220.738	-7.47
221.122	-1.68
221.507	18.81
221.892	16.48
222.276	10.05
222.661	-3.34
223.046	17.78
223.43	-3.14
223.815	-0.16
224.199	8.07
224.583	4.04
224.968	18.13
225.352	-0.98
225.736	7.3
226.121	9.2
226.505	10.54
226.889	6.6
227.273	7.72
227.657	1.14
228.041	-0.31
228.425	6.55
228.809	9.82
229.193	2.59
229.577	4.12
229.961	4.27
230.344	4.38
230.728	3.69
231.112	4.03
231.495	4.33
231.879	2.48
232.263	4.22
232.646	5.3
233.03	3.67
233.413	4.09
233.797	2.93
234.18	4.16
234.563	5.2
234.946	2.12
235.33	3.69
235.713	3.61
236.096	2.38
236.479	3.78
236.862	6.39
237.245	4.36
237.628	3.67
238.011	3.57
238.394	4.66
238.777	4.33
239.16	5.03
239.543	4.97
239.925	7.03
240.308	3.01
240.691	3.27
241.073	4.35
241.456	2.78
241.838	4.71
242.221	4.78
242.603	3.34
242.986	3.03
243.368	4.17
243.75	3.95
244.133	3.82
244.515	3.79
244.897	3.5
245.279	4.14
245.661	3.5
246.043	4.82
246.425	4.75
246.807	4.32
247.189	3.05
247.571	3.22
247.953	4.02
248.335	4.03
248.717	4.11
249.098	3.9
249.48	3.97
249.862	3.75
250.243	4.17
250.625	4.11
251.006	4.87
251.388	4.8
251.769	4.79
252.151	4.43
252.532	4.14
252.913	4.18
253.295	3.78
253.676	4.28
254.057	3.85
254.438	4.39
254.819	3.97
255.2	4.47
255.581	4.98
255.962	3.08
256.343	4.79
256.724	4.72
257.105	4.74
257.486	4.95
257.867	4.08
258.247	4.66
258.628	3.66
259.009	4.58
259.389	4.39
259.77	5.07
260.15	4.23
260.531	4.23
260.911	4.15
261.292	4.12
261.672	4
262.052	4.05
262.432	4.58
262.813	4.1
263.193	4.33
263.573	4.6
263.953	4
264.333	3.83
264.713	3.5
265.093	4.14
265.473	4.63
265.853	3.82
266.233	3.9
266.612	3.19
266.992	4.48
267.372	3.94
267.752	4.29
268.131	3.84
268.511	4.21
268.89	4.69
269.27	3.47
269.649	3.85
270.029	3.69
270.408	4.13
270.787	4.87
271.167	3.85
271.546	4.23
271.925	4.24
272.304	4.12
272.683	3.81
273.062	4.05
273.441	3.65
273.82	3.16
274.199	4.2
274.578	4.27
274.957	3.59
275.336	3.93
275.715	4.17
276.093	4.61
276.472	3.69
276.851	4.1
277.229	3.62
277.608	4.04
277.986	3.65
278.365	4.45
278.743	4.16
279.122	3.31
279.5	3.69
279.878	3.74
280.257	4.8
280.635	3.8
281.013	3.98
281.391	3.8
281.769	4.81
282.147	3.76
282.525	3.57
282.903	3.92
283.281	3.81
283.659	3.8
284.037	3.87
284.415	3.83
284.792	4.29
285.17	3.94
285.548	4.19
285.925	4
286.303	3.84
286.68	4.06
287.058	4.03
287.435	3.91
287.813	4.08
288.19	4.27
288.567	4.22
288.945	3.39
289.322	3.82
289.699	4.36
290.076	3.51
290.453	3.99
290.83	4.14
291.207	4.27
291.584	4.13
291.961	4.1
292.338	4.4
292.715	3.84
293.092	4.08
293.469	4.49
293.845	4.49
294.222	4.71
294.599	5.26
294.975	4.74
295.352	4.33
295.728	4.57
296.105	4.67
296.481	4.78
296.858	4.62
297.234	4.55
297.61	4.78
297.986	4.05
298.363	4.78
298.739	4.6
299.115	4.47
299.491	4.92
299.867	4.65
300.243	4.85
300.619	4.96
300.995	5.11
301.371	4.73
301.746	5.16
302.122	4.47
302.498	4.33
302.874	4.85
303.249	5.02
303.625	5.17
304	5.05
304.376	5.56
304.751	5.8
305.127	5.43
305.502	5.23
305.878	5.58
306.253	5.83
306.628	6.13
307.003	5.67
307.378	5.79
307.754	5.64
308.129	5.74
308.504	6.09
308.879	5.85
309.254	5.27
309.629	6.2
310.003	5.66
310.378	5.08
310.753	5.5
311.128	6.02
311.502	5.43
311.877	6.31
312.252	5.58
312.626	5.86
313.001	5.86
313.375	5.94
313.75	6.11
314.124	6.28
314.498	6.08
314.873	6.2
315.247	6.23
315.621	6.17
315.995	6.25
316.369	6.76
316.743	6.14
317.117	6.84
317.491	6.96
317.865	6.49
318.239	6.63
318.613	6.6
318.987	6.71
319.361	6.51
319.734	6.9
320.108	7.24
320.482	6.1
320.855	7.03
321.229	7.07
321.602	6.86
321.976	6.09
322.349	6.91
322.723	7.06
323.096	7.53
323.469	6.77
323.843	7.93
324.216	7.09
324.589	7.06
324.962	7.21
325.335	7.3
325.708	7.21
326.081	7.33
326.454	7.18
326.827	7.38
327.2	7.43
327.573	7.74
327.945	7.39
328.318	7.93
328.691	7.77
329.063	7.71
329.436	7.27
329.809	7.32
330.181	7.71
330.553	8.18
330.926	6.85
331.298	7.4
331.671	7.73
332.043	8.13
332.415	7.9
332.787	8.22
333.159	8.34
333.532	7.8
333.904	7.88
334.276	7.93
334.648	7.86
335.02	8.03
335.391	8.03
335.763	8.12
336.135	8.12
336.507	7.98
336.879	7.8
337.25	7.75
337.622	8.58
337.993	8.34
338.365	8.39
338.736	8.19
339.108	8.4
339.479	8.3
339.851	7.82
340.222	8.37
340.593	7.98
340.964	8.26
341.336	8.48
341.707	8.21
342.078	8.22
342.449	8.97
342.82	8.32
343.191	8.59
343.562	8.54
343.933	8.44
344.303	9.01
344.674	8.59
345.045	9.05
345.416	8.63
345.786	8.83
346.157	8.81
346.527	8.75
346.898	8.78
347.268	8.85
347.639	8.96
348.009	8.83
348.38	8.7
348.75	9.15
349.12	8.8
349.49	8.95
349.861	9.02
350.231	9.1
350.601	9.4
350.971	9.17
351.341	8.83
351.711	9.28
352.081	8.82
352.45	9.13
352.82	9.33
353.19	9.19
353.56	9.64
353.929	9.51
354.299	9.13
354.669	9.46
355.038	9.14
355.408	9.32
355.777	9.59
356.147	9.64
356.516	9.46
356.885	9.46
357.254	9.27
357.624	9.71
357.993	9.72
358.362	9.77
358.731	9.47
359.1	9.63
359.469	9.98
359.838	10
360.207	10.05
360.576	10.09
360.945	10.19
361.314	10.32
361.682	9.9
362.051	10.02
362.42	9.63
362.788	10.09
363.157	10.15
363.525	10.03
363.894	9.88
364.262	9.94
364.631	9.99
364.999	10.3
365.367	10.69
365.735	10.58
366.104	10.18
366.472	10.44
366.84	10.49
367.208	10.35
367.576	10.55
367.944	10.83
368.312	10.29
368.68	10.81
369.048	10.33
369.416	10.39
369.783	10.4
370.151	10.59
370.519	11.03
370.886	10.89
371.254	10.74
371.621	10.75
371.989	10.61
372.356	10.98
372.724	11.08
373.091	11.02
373.458	10.84
373.826	11.16
374.193	10.94
374.56	10.74
374.927	11.1
375.294	11.18
375.661	11.4
376.028	11.17
376.395	11.42
376.762	11.17
377.129	11.18
377.496	11.41
377.863	11.42
378.229	11.45
378.596	11.4
378.963	11.15
379.329	11.5
379.696	11.41
380.062	11.37
380.429	11.36
380.795	11.59
381.161	11.68
381.528	11.8
381.894	11.79
382.26	11.76
382.626	11.98
382.993	11.98
383.359	11.88
383.725	12.02
384.091	11.75
384.457	12.01
384.823	11.82
385.188	11.93
385.554	12.13
385.92	11.68
386.286	11.84
386.651	11.98
387.017	11.84
387.383	11.9
387.748	12.08
388.114	12.11
388.479	12.14
388.845	12.07
389.21	12.28
389.575	12.15
389.94	12.37
390.306	12.26
390.671	12.15
391.036	12.37
391.401	11.97
391.766	12.39
392.131	12.01
392.496	12.47
392.861	12.41
393.226	12.35
393.591	12.35
393.956	12.42
394.32	12.48
394.685	12.65
395.05	12.73
395.414	12.64
395.779	12.63
396.143	12.48
396.508	12.36
396.872	12.72
397.236	12.75
397.601	12.51
397.965	12.53
398.329	12.42
398.694	12.63
399.058	12.67
399.422	12.86
399.786	12.76
400.15	12.71
400.514	12.43
400.878	12.78
401.242	12.96
401.605	12.98
401.969	12.95
402.333	12.86
402.697	12.65
403.06	13.06
403.424	12.79
403.787	12.97
404.151	12.76
404.514	12.87
404.878	13
405.241	12.62
405.604	12.75
405.968	12.81
406.331	12.47
406.694	12.9
407.057	12.9
407.42	12.65
407.783	13.07
408.146	12.96
408.509	12.66
408.872	13.12
409.235	13.04
409.598	12.9
409.961	13.17
410.323	13.1
410.686	13.03
411.049	12.87
411.411	13.02
411.774	12.91
412.136	13.14
412.499	13.12
412.861	13.04
413.223	13.19
413.586	13.09
413.948	13.23
414.31	13.27
414.672	13.35
415.035	13.25
415.397	13.37
415.759	13.18
416.121	13.25
416.483	13.22
416.845	13.26
417.206	13.36
417.568	13.21
417.93	13.27
418.292	13.16
418.653	13.34
419.015	13.26
419.377	13.39
419.738	13.55
420.1	13.42
420.461	13.28
420.822	13.31
421.184	13.34
421.545	13.47
421.906	13.48
422.267	13.59
422.629	13.46
422.99	13.49
423.351	13.62
423.712	13.69
424.073	13.69
424.434	13.74
424.795	13.89
425.155	13.91
425.516	14.03
425.877	13.91
426.238	13.92
426.598	14.06
426.959	14.11
427.32	14.25
427.68	14.32
428.041	14.42
428.401	14.32
428.761	14.54
429.122	14.76
429.482	14.92
429.842	14.86
430.202	15.01
430.563	14.76
430.923	15.08
431.283	15.19
431.643	15.3
432.003	15.4
432.363	15.27
432.722	15.25
433.082	15.27
433.442	15.41
433.802	15.63
434.161	15.6
434.521	15.48
434.881	15.54
435.24	15.4
435.6	15.57
435.959	15.74
436.319	15.54
436.678	15.64
437.037	15.79
437.396	15.69
437.756	15.85
438.115	15.67
438.474	16.15
438.833	16.17
439.192	16.34
439.551	16.12
439.91	16.13
440.269	16.35
440.628	16.25
440.987	16.45
441.345	16.3
441.704	16.29
442.063	16.45
442.421	16.3
442.78	16.38
443.138	16.56
443.497	16.44
443.855	16.52
444.214	16.69
444.572	16.85
444.93	16.8
445.288	16.91
445.647	16.93
446.005	16.94
446.363	17.13
446.721	17.01
447.079	17.09
447.437	17.09
447.795	16.98
448.153	16.89
448.51	17.07
448.868	17.04
449.226	17.08
449.584	17.18
449.941	17.16
450.299	17.39
450.656	17.67
451.014	17.58
451.371	17.77
451.729	17.87
452.086	17.82
452.443	17.93
452.801	18.03
453.158	18.07
453.515	18.1
453.872	17.99
454.229	17.96
454.586	18.09
454.943	18.17
455.3	18.13
455.657	18.22
456.014	18.22
456.371	18.25
456.727	18.5
457.084	18.39
457.441	18.5
457.797	18.56
458.154	18.42
458.51	18.63
458.867	18.86
459.223	18.66
459.58	18.76
459.936	18.92
460.292	18.83
460.648	18.91
461.005	18.79
461.361	18.83
461.717	18.6
462.073	18.72
462.429	18.76
462.785	18.78
463.141	18.98
463.496	19.26
463.852	19.27
464.208	19.64
464.564	19.51
464.919	19.55
465.275	19.64
465.631	19.81
465.986	19.82
466.342	19.97
466.697	19.86
467.052	19.62
467.408	19.75
467.763	19.92
468.118	20.06
468.473	20.11
468.829	20.05
469.184	20.15
469.539	20.24
469.894	20.16
470.249	20.12
470.603	20.23
470.958	20.16
471.313	20.77
471.668	20.57
472.023	20.52
472.377	20.66
472.732	20.61
473.086	20.64
473.441	20.54
473.795	20.67
474.15	20.76
474.504	20.88
474.859	20.8
475.213	20.88
475.567	21.08
475.921	21.02
476.275	20.94
476.63	21
476.984	21.25
477.338	21.2
477.692	21.06
478.045	21.14
478.399	21.17
478.753	21.28
479.107	21.05
479.461	21.27
479.814	21.3
480.168	21.34
480.521	21.49
480.875	21.47
481.228	21.44
481.582	21.55
481.935	21.67
482.289	21.67
482.642	21.72
482.995	21.76
483.348	21.52
483.701	21.51
484.055	21.45
484.408	21.42
484.761	21.19
485.114	21.09
485.466	20.92
485.819	20.87
486.172	20.75
486.525	20.87
486.878	20.95
487.23	21.14
487.583	21.36
487.936	21.51
488.288	21.55
488.641	21.57
488.993	21.37
489.345	21.31
489.698	21.47
490.05	21.4
490.402	21.45
490.754	21.66
491.107	21.73
491.459	22
491.811	22.22
492.163	22.25
492.515	22.26
492.866	22.29
493.218	21.95
493.57	21.9
493.922	21.95
494.274	22.06
494.625	22.27
494.977	22.53
495.328	22.63
495.68	22.95
496.031	23.12
496.383	23.17
496.734	23.22
497.086	23.27
497.437	23.24
497.788	23.25
498.139	23.36
498.49	23.28
498.842	23.15
499.193	23.2
499.544	23.41
499.894	23.31
500.245	23.53
500.596	23.66
500.947	23.66
501.298	23.75
501.648	23.87
501.999	23.84
502.35	23.92
502.7	23.96
503.051	24.18
503.401	24.19
503.752	24.15
504.102	24.07
504.452	24.32
504.803	24.33
505.153	24.23
505.503	24.26
505.853	24.32
506.203	24.49
506.553	24.61
506.903	24.52
507.253	24.57
507.603	24.67
507.953	24.58
508.303	24.63
508.652	24.58
509.002	24.69
509.352	24.84
509.701	24.64
510.051	24.73
510.4	24.55
510.75	24.7
511.099	24.6
511.449	24.56
511.798	24.65
512.147	24.88
512.496	24.86
512.846	24.82
513.195	24.9
513.544	24.92
513.893	25
514.242	24.93
514.591	24.92
514.939	25.16
515.288	25.28
515.637	25.25
515.986	25.31
516.334	25.27
516.683	25.46
517.032	25.58
517.38	25.59
517.729	25.5
518.077	25.53
518.426	25.7
518.774	25.45
519.122	25.55
519.47	25.37
519.819	25.4
520.167	25.32
520.515	25.3
520.863	25.18
521.211	25.33
521.559	25.39
521.907	25.6
522.255	25.69
522.602	25.88
522.95	25.86
523.298	25.88
523.645	26.02
523.993	26.31
524.341	26.12
524.688	26.16
525.036	26.14
525.383	26.19
525.73	26.26
526.078	26.17
526.425	26.15
526.772	26.06
527.119	26.06
527.466	25.79
527.814	25.84
528.161	25.9
528.508	26.01
528.854	26.04
529.201	25.96
529.548	25.97
529.895	25.65
530.242	25.58
530.588	25.65
530.935	25.56
531.282	25.7
531.628	25.73
531.975	25.9
532.321	26.01
532.667	26.31
533.014	26.38
533.36	26.49
533.706	26.69
534.052	26.69
534.399	26.61
534.745	26.38
535.091	26.21
535.437	26.33
535.783	26.36
536.129	26.44
536.474	26.78
536.82	26.76
537.166	26.94
537.512	26.97
537.857	27.07
538.203	27
538.549	26.91
538.894	27.01
539.239	27.19
539.585	27.22
539.93	27.41
540.276	27.58
540.621	27.71
540.966	27.71
541.311	27.68
541.656	27.57
542.001	27.73
542.346	27.68
542.691	27.35
543.036	27.13
543.381	27.12
543.726	27.1
544.071	27.19
544.415	27.2
544.76	27.2
545.105	27.58
545.449	27.61
545.794	27.83
546.138	27.79
546.483	28.11
546.827	28.19
547.171	28.2
547.516	28.11
547.86	28.1
548.204	28.31
548.548	28.1
548.892	28.32
549.236	28.31
549.58	28.6
549.924	28.62
550.268	28.89
550.612	28.75
550.956	29.13
551.3	29.13
551.643	29.2
551.987	29.31
552.33	29.18
552.674	29.42
553.017	29.42
553.361	29.46
553.704	29.32
554.048	29.48
554.391	29.47
554.734	29.34
555.077	29.54
555.42	29.42
555.764	29.46
556.107	29.61
556.45	29.73
556.793	29.79
557.135	30.04
557.478	29.75
557.821	29.97
558.164	30.14
558.507	29.95
558.849	30.05
559.192	30.16
559.534	30.27
559.877	30.22
560.219	30.25
560.562	30.56
560.904	30.26
561.246	30.34
561.589	30.53
561.931	30.47
562.273	30.53
562.615	30.26
562.957	30.48
563.299	30.65
563.641	30.49
563.983	30.75
564.325	30.75
564.667	30.71
565.008	30.72
565.35	30.98
565.692	30.87
566.033	31.04
566.375	31.01
566.716	31.17
567.058	30.92
567.399	31.04
567.741	30.89
568.082	30.67
568.423	30.97
568.764	30.96
569.105	31.01
569.447	30.98
569.788	31.27
570.129	31.17
570.47	30.96
570.811	31.55
571.151	31.33
571.492	31.38
571.833	31.52
572.174	31.6
572.514	31.32
572.855	31.74
573.195	31.36
573.536	31.6
573.876	31.66
574.217	31.39
574.557	31.55
574.898	31.65
575.238	31.76
575.578	31.74
575.918	31.66
576.258	31.73
576.598	32.03
576.938	32.2
577.278	31.9
577.618	32.05
577.958	32.09
578.298	32.11
578.638	32.21
578.977	32.24
579.317	32.43
579.657	32.36
579.996	32.58
580.336	32.4
580.675	32.54
581.014	32.74
581.354	32.71
581.693	32.76
582.032	33.03
582.372	32.86
582.711	33.17
583.05	33.08
583.389	33.18
583.728	33.06
584.067	33.42
584.406	33.35
584.745	32.98
585.083	33.14
585.422	33.26
585.761	33.8
586.1	33.3
586.438	33.34
586.777	33.46
587.115	33.59
587.454	33.87
587.792	33.84
588.13	33.75
588.469	33.67
588.807	33.99
589.145	33.78
589.483	33.81
589.821	33.86
590.159	33.75
590.497	34.09
590.835	33.75
591.173	34.1
591.511	34.18
591.849	33.83
592.187	34.15
592.524	34.05
592.862	34.18
593.2	34.18
593.537	34.12
593.875	34.24
594.212	34.63
594.55	34.47
594.887	34.1
595.224	34.59
595.561	34.64
595.899	34.59
596.236	34.26
596.573	34.33
596.91	34.54
597.247	34.49
597.584	34.48
597.921	34.7
598.258	34.7
598.594	34.43
598.931	34.49
599.268	34.34
599.604	34.64
599.941	34.73
600.277	34.78
600.614	34.94
600.95	34.7
601.287	35.15
601.623	35.24
601.959	34.92
602.296	35.14
602.632	35.14
602.968	35.48
603.304	35.79
603.64	35.71
603.976	35.7
604.312	35.35
604.648	35.27
604.984	35.22
605.319	35.37
605.655	35.27
605.991	35.57
606.326	35.46
606.662	35.36
606.998	35.15
607.333	35.48
607.668	35.63
608.004	35.7
608.339	35.74
608.674	35.99
609.01	35.88
609.345	36.08
609.68	36.42
610.015	36.07
610.35	36.19
610.685	36.43
611.02	36.17
611.355	35.96
611.689	36.05
612.024	36.03
612.359	36.14
612.694	36.26
613.028	36.33
613.363	36.29
613.697	36.73
614.032	36.83
614.366	36.69
614.7	36.65
615.035	36.75
615.369	36.71
615.703	37.03
616.037	36.97
616.371	36.92
616.705	36.98
617.039	37.07
617.373	37.15
617.707	36.83
618.041	36.76
618.375	37.34
618.709	37.09
619.042	37.45
619.376	37.51
619.71	37.62
620.043	37.76
620.377	37.78
620.71	37.86
621.043	37.42
621.377	37.74
621.71	37.95
622.043	37.77
622.376	37.97
622.709	38.02
623.043	37.64
623.376	37.81
623.709	37.68
624.041	38.24
624.374	38.27
624.707	38.27
625.04	38.33
625.373	38.24
625.705	38.27
626.038	38.17
626.37	38.08
626.703	37.89
627.035	38.03
627.368	38.14
627.7	38.01
628.032	38.55
628.365	38.36
628.697	38.43
629.029	38.28
629.361	38.26
629.693	38.68
630.025	38.28
630.357	38.33
630.689	38.64
631.021	38.28
631.353	38.39
631.684	38.69
632.016	38.63
632.348	38.84
632.679	39.06
633.011	38.89
633.342	38.86
633.674	38.79
634.005	39.05
634.336	38.77
634.668	39.07
634.999	38.62
635.33	38.66
635.661	39.71
635.992	39.33
636.323	39.42
636.654	39.48
636.985	39.49
637.316	39.25
637.647	39.39
637.977	39.62
638.308	39.65
638.639	39.46
638.969	39.59
639.3	39.56
639.63	39.61
639.961	39.33
640.291	39.61
640.622	39.67
640.952	39.8
641.282	40.21
641.612	39.75
641.943	40.09
642.273	40.1
642.603	40.29
642.933	39.71
643.263	40.24
643.592	40.13
643.922	40.15
644.252	40.6
644.582	40.04
644.911	40.55
645.241	40.32
645.571	40.02
645.9	40.27
646.23	40.39
646.559	40.46
646.888	40.44
647.218	40.08
647.547	40.66
647.876	41
648.205	40.91
648.534	41.11
648.863	40.56
649.192	40.94
649.521	40.28
649.85	40.88
650.179	40.81
650.508	40.89
650.837	41.26
651.165	41.76
651.494	41.29
651.822	40.98
652.151	41.51
652.479	41.4
652.808	41.68
653.136	40.95
653.465	41.58
653.793	41.51
654.121	41.66
654.449	41.51
654.777	41.52
655.105	41.4
655.433	41.28
655.761	41.53
656.089	41.25
656.417	41.95
656.745	42.02
657.073	41.61
657.4	41.98
657.728	41.68
658.056	41.7
658.383	42.49
658.711	41.85
659.038	42.17
659.365	41.69
659.693	42.03
660.02	42.56
660.347	42.18
660.674	41.5
661.001	41.86
661.329	41.93
661.656	42.04
661.982	42.05
662.309	41.97
662.636	42.2
662.963	42.53
663.29	42.51
663.616	42.82
663.943	42.57
664.27	42.47
664.596	42.64
664.923	42.63
665.249	43.03
665.576	42.29
665.902	42.65
666.228	42.63
666.554	42.73
666.881	42.25
667.207	42.56
667.533	43.41
667.859	42.74
668.185	42.79
668.511	43.26
668.837	43.2
669.162	42.95
669.488	42.93
669.814	42.73
670.139	43.26
670.465	43.58
670.791	42.88
671.116	42.73
671.442	43.01
671.767	42.82
