Data from 1610-5_forehead_Reflection__3__108.txt Node

Date: Fri Nov 11 16:57:00 CST 2022
User: ToomeyLab
Spectrometer: FLMS14357
Trigger mode: 0
Integration Time (sec): 1.000000E-2
Scans to average: 100
Electric dark correction enabled: true
Nonlinearity correction enabled: false
Boxcar width: 0
XAxis mode: Wavelengths
Number of Pixels in Spectrum: 2048
>>>>>Begin Spectral Data<<<<<
189.047	229.15
189.435	229.15
189.823	229.15
190.211	17.35
190.599	315.86
190.987	123.24
191.375	107.36
191.763	130.11
192.151	334.65
192.538	122.34
192.926	214.63
193.314	40.51
193.702	37.59
194.089	53.63
194.477	-132.48
194.864	-326.76
195.252	328.59
195.639	123.02
196.027	-168.75
196.414	63.12
196.801	39.19
197.189	141.58
197.576	-15.64
197.963	55.24
198.351	14.71
198.738	59.55
199.125	34.28
199.512	48.11
199.899	17.44
200.286	48.07
200.673	55.46
201.06	-28.18
201.447	54.85
201.833	40.91
202.22	35.29
202.607	45.84
202.994	21.31
203.38	60.43
203.767	18.04
204.154	31.19
204.54	38.3
204.927	8.92
205.313	41.07
205.699	18.49
206.086	40.97
206.472	13.09
206.858	31.39
207.245	38.94
207.631	55.23
208.017	18.13
208.403	15.01
208.789	-70.75
209.175	33.82
209.561	35.48
209.947	21.19
210.333	75.83
210.719	39.63
211.105	6.88
211.491	-149.28
211.876	41.11
212.262	11.41
212.648	3.11
213.034	34.08
213.419	-15.13
213.805	43.08
214.19	6.17
214.576	40.38
214.961	7.95
215.346	-25.54
215.732	-6.77
216.117	28.09
216.502	33.62
216.888	4.99
217.273	17.63
217.658	29.18
218.043	15.87
218.428	-1.07
218.813	26.11
219.198	3.63
219.583	15.32
219.968	13.71
220.353	-12.49
220.738	-17.06
221.122	11.07
221.507	16.9
221.892	25.5
222.276	30.99
222.661	8.78
223.046	13.65
223.43	-11.63
223.815	8.77
224.199	13.35
224.583	13.58
224.968	16.34
225.352	-0.88
225.736	13.79
226.121	6.06
226.505	4.39
226.889	12.48
227.273	9.86
227.657	0.28
228.041	3.71
228.425	9.17
228.809	9.44
229.193	1.99
229.577	7.56
229.961	3.59
230.344	4.41
230.728	3.82
231.112	4.16
231.495	3.29
231.879	3.97
232.263	4.24
232.646	4.51
233.03	5
233.413	3.41
233.797	3.18
234.18	6.18
234.563	2.62
234.946	1.37
235.33	4.56
235.713	3.12
236.096	1.77
236.479	5.17
236.862	6.51
237.245	4.53
237.628	5.02
238.011	5.78
238.394	5.62
238.777	5.63
239.16	4.82
239.543	5.3
239.925	5.87
240.308	2.37
240.691	3.99
241.073	3.38
241.456	3.39
241.838	4.35
242.221	4.48
242.603	3.8
242.986	3.69
243.368	4.04
243.75	4.07
244.133	3.5
244.515	3.9
244.897	4.11
245.279	3.79
245.661	4.17
246.043	4.73
246.425	4.79
246.807	4.46
247.189	3.11
247.571	3.48
247.953	3.79
248.335	4.26
248.717	3.94
249.098	4.05
249.48	3.91
249.862	3.7
250.243	4.13
250.625	4.48
251.006	4.48
251.388	4.37
251.769	4.27
252.151	4.47
252.532	4.86
252.913	3.28
253.295	4.09
253.676	3.98
254.057	4.14
254.438	4.34
254.819	4.64
255.2	4.78
255.581	5.06
255.962	5.26
256.343	4.42
256.724	4.68
257.105	3.91
257.486	5.87
257.867	4.06
258.247	4.24
258.628	4.51
259.009	4.46
259.389	4.53
259.77	5.58
260.15	4.42
260.531	3.8
260.911	3.82
261.292	4.02
261.672	3.78
262.052	3.99
262.432	4.44
262.813	4.2
263.193	3.79
263.573	4.51
263.953	4.43
264.333	4.78
264.713	3.66
265.093	4.4
265.473	5.57
265.853	3.32
266.233	3.83
266.612	3.59
266.992	4
267.372	4.71
267.752	4.49
268.131	4.26
268.511	4.35
268.89	4.63
269.27	4.15
269.649	3.65
270.029	3.55
270.408	4.31
270.787	4.23
271.167	3.82
271.546	4.06
271.925	4.44
272.304	3.96
272.683	4.37
273.062	4.12
273.441	3.8
273.82	3.85
274.199	4.19
274.578	4.06
274.957	3.37
275.336	4.36
275.715	4.01
276.093	4.41
276.472	3.91
276.851	4
277.229	4.11
277.608	4.13
277.986	4.31
278.365	4.05
278.743	4.03
279.122	3.6
279.5	4.08
279.878	3.64
280.257	4.5
280.635	4.42
281.013	4
281.391	3.87
281.769	4.59
282.147	4.24
282.525	4.3
282.903	4.42
283.281	3.44
283.659	3.7
284.037	3.66
284.415	4.06
284.792	4.37
285.17	3.8
285.548	4.33
285.925	4.17
286.303	3.82
286.68	3.92
287.058	4.2
287.435	4.15
287.813	3.75
288.19	4.02
288.567	4.31
288.945	3.49
289.322	3.98
289.699	4.06
290.076	3.88
290.453	3.86
290.83	4.28
291.207	4.18
291.584	4.06
291.961	3.94
292.338	4.29
292.715	4.28
293.092	3.93
293.469	4.4
293.845	4.53
294.222	4.84
294.599	4.42
294.975	4.39
295.352	4.62
295.728	4.37
296.105	4.27
296.481	4.36
296.858	4.28
297.234	4.51
297.61	4.28
297.986	4.09
298.363	4.28
298.739	4.45
299.115	4.35
299.491	4.78
299.867	4.53
300.243	4.48
300.619	4.56
300.995	4.82
301.371	4.44
301.746	5.37
302.122	4.86
302.498	4.13
302.874	4.49
303.249	4.82
303.625	4.58
304	5.02
304.376	5.08
304.751	6
305.127	5.78
305.502	5.67
305.878	5.69
306.253	5.64
306.628	5.08
307.003	5.05
307.378	5.77
307.754	5.52
308.129	5.28
308.504	5.63
308.879	5.37
309.254	5.03
309.629	5.53
310.003	5.63
310.378	4.61
310.753	5.57
311.128	5.55
311.502	5.14
311.877	6.06
312.252	5.79
312.626	5.83
313.001	5.94
313.375	5.72
313.75	5.76
314.124	5.55
314.498	6.16
314.873	5.97
315.247	5.9
315.621	5.91
315.995	5.65
316.369	6.39
316.743	5.81
317.117	6.33
317.491	6.07
317.865	6.41
318.239	6.8
318.613	6.48
318.987	6.81
319.361	6.66
319.734	6.22
320.108	6.43
320.482	5.92
320.855	6.77
321.229	7.08
321.602	6.65
321.976	6.14
322.349	6.69
322.723	7.08
323.096	7.17
323.469	7.49
323.843	7.45
324.216	6.13
324.589	6.75
324.962	6.96
325.335	7.53
325.708	6.95
326.081	7.03
326.454	7.21
326.827	7.25
327.2	6.97
327.573	7.09
327.945	7.04
328.318	7.69
328.691	8.05
329.063	7.21
329.436	7.39
329.809	7.53
330.181	7.53
330.553	8.05
330.926	7.29
331.298	7.43
331.671	7.63
332.043	8.27
332.415	7.44
332.787	7.88
333.159	8.19
333.532	7.36
333.904	7.95
334.276	7.77
334.648	7.54
335.02	7.4
335.391	8.11
335.763	8.17
336.135	8.09
336.507	7.94
336.879	7.38
337.25	7.36
337.622	8.59
337.993	8.41
338.365	7.7
338.736	8.2
339.108	7.96
339.479	8.37
339.851	8.02
340.222	8.08
340.593	7.85
340.964	8.57
341.336	8.08
341.707	8.01
342.078	7.76
342.449	8.55
342.82	8.15
343.191	8.77
343.562	8.56
343.933	8.11
344.303	9.12
344.674	8.64
345.045	8.54
345.416	8.23
345.786	8.41
346.157	8.5
346.527	8.57
346.898	8.43
347.268	8.73
347.639	8.83
348.009	8.67
348.38	9.09
348.75	9.58
349.12	8.77
349.49	8.98
349.861	8.77
350.231	8.93
350.601	9.68
350.971	9.3
351.341	8.84
351.711	8.98
352.081	8.64
352.45	9.13
352.82	9.25
353.19	9.34
353.56	9.12
353.929	9.21
354.299	9.4
354.669	9.43
355.038	9.51
355.408	9.04
355.777	9.66
356.147	9.56
356.516	9.59
356.885	9.33
357.254	9.42
357.624	9.42
357.993	9.63
358.362	9.49
358.731	9.39
359.1	9.29
359.469	9.6
359.838	9.87
360.207	10.02
360.576	10.22
360.945	10.18
361.314	9.97
361.682	10.09
362.051	9.94
362.42	9.69
362.788	9.77
363.157	9.99
363.525	10.19
363.894	9.93
364.262	9.86
364.631	10.11
364.999	10.35
365.367	10.29
365.735	10.04
366.104	10.3
366.472	10.21
366.84	10.34
367.208	10.53
367.576	10.43
367.944	10.84
368.312	10.64
368.68	10.43
369.048	10.33
369.416	10.41
369.783	10.54
370.151	10.86
370.519	10.69
370.886	10.86
371.254	10.91
371.621	10.59
371.989	10.59
372.356	10.68
372.724	10.97
373.091	11.11
373.458	10.51
373.826	11.04
374.193	11.14
374.56	10.8
374.927	11.28
375.294	11.37
375.661	11.31
376.028	11.22
376.395	11.12
376.762	11.15
377.129	11.12
377.496	11.46
377.863	11.48
378.229	11.92
378.596	11.21
378.963	11.33
379.329	11.4
379.696	11.47
380.062	11.18
380.429	11.35
380.795	11.75
381.161	12.05
381.528	11.53
381.894	11.87
382.26	11.71
382.626	11.8
382.993	11.93
383.359	11.92
383.725	11.71
384.091	11.64
384.457	11.92
384.823	11.77
385.188	12.04
385.554	11.85
385.92	11.76
386.286	11.94
386.651	12
387.017	11.95
387.383	12.04
387.748	11.93
388.114	12.19
388.479	12.27
388.845	12.27
389.21	12.49
389.575	12.46
389.94	12.49
390.306	12.13
390.671	12.44
391.036	12.28
391.401	12.28
391.766	12.69
392.131	11.94
392.496	12.39
392.861	12.49
393.226	12.51
393.591	12.33
393.956	12.63
394.32	12.57
394.685	12.75
395.05	12.66
395.414	12.71
395.779	12.54
396.143	12.74
396.508	12.46
396.872	12.77
397.236	12.67
397.601	12.83
397.965	12.84
398.329	12.83
398.694	12.66
399.058	12.93
399.422	13.11
399.786	12.98
400.15	12.79
400.514	13.06
400.878	13.06
401.242	12.92
401.605	13.03
401.969	13.06
402.333	13.1
402.697	13.2
403.06	12.84
403.424	12.71
403.787	12.99
404.151	13
404.514	13.14
404.878	13.09
405.241	12.99
405.604	12.94
405.968	13.14
406.331	12.92
406.694	12.94
407.057	13.17
407.42	13.05
407.783	13.09
408.146	13.33
408.509	13.01
408.872	13.43
409.235	13.34
409.598	13.31
409.961	13.09
410.323	13.32
410.686	13.4
411.049	13.38
411.411	13.38
411.774	13.07
412.136	13.21
412.499	13.45
412.861	13.25
413.223	13.45
413.586	13.39
413.948	13.34
414.31	13.32
414.672	13.66
415.035	13.39
415.397	13.57
415.759	13.65
416.121	13.55
416.483	13.65
416.845	13.65
417.206	13.71
417.568	13.49
417.93	13.65
418.292	13.56
418.653	13.74
419.015	13.64
419.377	13.82
419.738	13.74
420.1	13.74
420.461	13.56
420.822	13.58
421.184	13.58
421.545	13.79
421.906	13.78
422.267	13.79
422.629	13.96
422.99	13.8
423.351	13.89
423.712	13.98
424.073	14.15
424.434	14.19
424.795	14.32
425.155	14.31
425.516	14.3
425.877	14.32
426.238	14.29
426.598	14.42
426.959	14.47
427.32	14.71
427.68	14.93
428.041	14.95
428.401	14.9
428.761	15.05
429.122	15.24
429.482	15.29
429.842	15.38
430.202	15.4
430.563	15.45
430.923	15.66
431.283	15.59
431.643	15.89
432.003	15.92
432.363	15.84
432.722	15.92
433.082	15.79
433.442	15.97
433.802	16.01
434.161	15.96
434.521	16.07
434.881	15.91
435.24	16.16
435.6	16.21
435.959	16.25
436.319	16.25
436.678	16.34
437.037	16.6
437.396	16.31
437.756	16.59
438.115	16.47
438.474	16.71
438.833	16.69
439.192	17.01
439.551	16.83
439.91	16.79
440.269	16.95
440.628	16.8
440.987	17
441.345	16.99
441.704	17.01
442.063	17.12
442.421	17.07
442.78	17.16
443.138	17.33
443.497	17.4
443.855	17.4
444.214	17.57
444.572	17.79
444.93	17.62
445.288	17.84
445.647	17.61
446.005	17.79
446.363	17.71
446.721	17.81
447.079	17.89
447.437	17.83
447.795	17.73
448.153	17.84
448.51	17.71
448.868	17.89
449.226	18.01
449.584	18.07
449.941	18.2
450.299	18.34
450.656	18.53
451.014	18.52
451.371	18.59
451.729	18.8
452.086	18.83
452.443	18.83
452.801	19.07
453.158	19.05
453.515	19.12
453.872	19.09
454.229	19.14
454.586	19.26
454.943	19
455.3	19.1
455.657	19.43
456.014	19.46
456.371	19.48
456.727	19.87
457.084	19.44
457.441	19.65
457.797	19.8
458.154	19.78
458.51	19.79
458.867	19.88
459.223	20.04
459.58	20.22
459.936	20.14
460.292	19.91
460.648	19.91
461.005	19.9
461.361	19.9
461.717	19.7
462.073	19.9
462.429	20
462.785	20.3
463.141	20.41
463.496	20.57
463.852	20.59
464.208	20.71
464.564	20.81
464.919	20.83
465.275	21.04
465.631	21.09
465.986	21.14
466.342	21.08
466.697	21.08
467.052	21.1
467.408	21.32
467.763	21.33
468.118	21.51
468.473	21.4
468.829	21.53
469.184	21.65
469.539	21.42
469.894	21.76
470.249	21.72
470.603	21.59
470.958	21.85
471.313	22.03
471.668	21.92
472.023	22.08
472.377	22.17
472.732	22.14
473.086	22.18
473.441	22.22
473.795	22.36
474.15	22.33
474.504	22.58
474.859	22.27
475.213	22.37
475.567	22.66
475.921	22.69
476.275	22.82
476.63	23.04
476.984	23.01
477.338	22.8
477.692	22.77
478.045	22.87
478.399	22.81
478.753	22.85
479.107	22.87
479.461	22.95
479.814	22.98
480.168	23.11
480.521	23.27
480.875	23.16
481.228	23.18
481.582	23.41
481.935	23.32
482.289	23.49
482.642	23.21
482.995	23.39
483.348	23.19
483.701	23.27
484.055	23.02
484.408	22.96
484.761	22.76
485.114	22.37
485.466	22.12
485.819	22.35
486.172	22.54
486.525	22.88
486.878	23.01
487.23	23.09
487.583	23.3
487.936	23.36
488.288	23.28
488.641	23.2
488.993	22.99
489.345	22.97
489.698	23.13
490.05	23.21
490.402	23.45
490.754	23.7
491.107	24.01
491.459	24.01
491.811	24.27
492.163	24.24
492.515	24.14
492.866	23.86
493.218	23.61
493.57	23.66
493.922	23.94
494.274	24.29
494.625	24.45
494.977	24.71
495.328	24.96
495.68	25.15
496.031	25.41
496.383	25.36
496.734	25.56
497.086	25.42
497.437	25.38
497.788	25.44
498.139	25.31
498.49	25.29
498.842	25.42
499.193	25.39
499.544	25.65
499.894	25.67
500.245	25.7
500.596	25.9
500.947	25.75
501.298	25.98
501.648	26.1
501.999	26.27
502.35	26.38
502.7	26.33
503.051	26.47
503.401	26.64
503.752	26.47
504.102	26.56
504.452	26.54
504.803	26.55
505.153	26.79
505.503	26.69
505.853	26.38
506.203	26.94
506.553	26.88
506.903	26.98
507.253	27.04
507.603	27.2
507.953	26.99
508.303	27.12
508.652	26.82
509.002	27.03
509.352	27.21
509.701	27.19
510.051	27.12
510.4	26.94
510.75	26.96
511.099	26.97
511.449	27.05
511.798	27.11
512.147	27.41
512.496	27.42
512.846	27.4
513.195	27.49
513.544	27.4
513.893	27.38
514.242	27.5
514.591	27.43
514.939	27.74
515.288	27.81
515.637	27.85
515.986	28.05
516.334	28.2
516.683	28.23
517.032	28.24
517.38	28.17
517.729	28.26
518.077	28.37
518.426	28.3
518.774	28.17
519.122	28.15
519.47	28.04
519.819	27.99
520.167	27.73
520.515	27.77
520.863	27.84
521.211	28.05
521.559	28.17
521.907	28.48
522.255	28.64
522.602	28.64
522.95	28.71
523.298	28.74
523.645	28.8
523.993	28.92
524.341	28.88
524.688	28.9
525.036	28.97
525.383	29.12
525.73	29.08
526.078	28.95
526.425	29.01
526.772	28.79
527.119	28.73
527.466	28.44
527.814	28.45
528.161	28.77
528.508	28.84
528.854	28.83
529.201	28.62
529.548	28.68
529.895	28.1
530.242	28.03
530.588	28.03
530.935	28.29
531.282	28.68
531.628	28.74
531.975	28.9
532.321	28.9
532.667	29.17
533.014	29.34
533.36	29.41
533.706	29.43
534.052	29.44
534.399	29.19
534.745	29.02
535.091	28.86
535.437	29.13
535.783	29.32
536.129	29.5
536.474	29.91
536.82	29.84
537.166	30.1
537.512	30.05
537.857	29.99
538.203	29.91
538.549	29.73
538.894	30.02
539.239	30.3
539.585	30.36
539.93	30.47
540.276	30.7
540.621	30.97
540.966	30.8
541.311	30.94
541.656	30.64
542.001	30.67
542.346	30.47
542.691	30.02
543.036	29.84
543.381	29.97
543.726	30.08
544.071	30.47
544.415	30.46
544.76	30.54
545.105	30.74
545.449	30.81
545.794	31.02
546.138	31.17
546.483	31.47
546.827	31.54
547.171	31.42
547.516	31.44
547.86	31.54
548.204	31.53
548.548	31.29
548.892	31.52
549.236	31.72
549.58	32.01
549.924	32.06
550.268	32.36
550.612	32.4
550.956	32.55
551.3	32.68
551.643	32.74
551.987	32.7
552.33	32.65
552.674	32.73
553.017	32.91
553.361	32.89
553.704	33
554.048	32.68
554.391	32.94
554.734	32.57
555.077	33.05
555.42	33.06
555.764	33.16
556.107	33.25
556.45	33.23
556.793	33.45
557.135	33.45
557.478	33.41
557.821	33.59
558.164	33.74
558.507	33.65
558.849	33.88
559.192	33.74
559.534	33.71
559.877	33.94
560.219	33.98
560.562	34.11
560.904	34.07
561.246	34.15
561.589	34.26
561.931	34.11
562.273	34.16
562.615	34.08
562.957	34.22
563.299	34.12
563.641	34.15
563.983	34.5
564.325	34.65
564.667	34.79
565.008	34.62
565.35	34.66
565.692	34.53
566.033	35.01
566.375	34.66
566.716	34.73
567.058	34.61
567.399	34.67
567.741	34.71
568.082	34.49
568.423	34.72
568.764	34.93
569.105	34.99
569.447	35.01
569.788	35.12
570.129	35.16
570.47	35.06
570.811	35.44
571.151	35.38
571.492	35.59
571.833	35.46
572.174	35.44
572.514	35.49
572.855	35.57
573.195	35.56
573.536	35.39
573.876	35.37
574.217	35.36
574.557	35.32
574.898	35.69
575.238	35.64
575.578	35.71
575.918	35.85
576.258	36.02
576.598	35.84
576.938	36.12
577.278	36.09
577.618	36.06
577.958	36.15
578.298	36.28
578.638	36.49
578.977	36.58
579.317	36.47
579.657	36.49
579.996	36.6
580.336	36.8
580.675	36.88
581.014	37.13
581.354	37.07
581.693	37.34
582.032	37.24
582.372	37.16
582.711	37.34
583.05	37.39
583.389	37.47
583.728	37.35
584.067	37.64
584.406	37.56
584.745	37.8
585.083	37.46
585.422	37.98
585.761	38.11
586.1	37.95
586.438	37.42
586.777	37.98
587.115	37.94
587.454	38.32
587.792	38.32
588.13	38.72
588.469	38.4
588.807	38.48
589.145	38.48
589.483	38.18
589.821	38.27
590.159	38.39
590.497	38.56
590.835	38.26
591.173	38.67
591.511	38.65
591.849	38.48
592.187	38.83
592.524	38.52
592.862	38.82
593.2	39.08
593.537	38.78
593.875	39.11
594.212	39.22
594.55	39.04
594.887	39.18
595.224	39.15
595.561	39.54
595.899	39.08
596.236	39.1
596.573	39.33
596.91	39.24
597.247	39.19
597.584	39.39
597.921	39.27
598.258	39.18
598.594	39.09
598.931	39.06
599.268	38.91
599.604	39.4
599.941	39.58
600.277	39.58
600.614	40
600.95	39.82
601.287	40.11
601.623	40.09
601.959	40.17
602.296	40.08
602.632	39.98
602.968	39.98
603.304	40.57
603.64	40.37
603.976	40.64
604.312	40.36
604.648	40.19
604.984	40.27
605.319	40.09
605.655	39.97
605.991	40.3
606.326	40.13
606.662	40.05
606.998	40.49
607.333	40.36
607.668	40.46
608.004	40.92
608.339	41.14
608.674	41.31
609.01	40.89
609.345	41.41
609.68	41.8
610.015	41.54
610.35	41.32
610.685	41.25
611.02	41.16
611.355	41.09
611.689	41.08
612.024	40.9
612.359	41.19
612.694	41.32
613.028	41.48
613.363	41.82
613.697	41.9
614.032	41.94
614.366	42.1
614.7	42.22
615.035	42.39
615.369	42.51
615.703	42.69
616.037	42.57
616.371	42.92
616.705	42.68
617.039	43.21
617.373	42.77
617.707	42.36
618.041	42.65
618.375	42.9
618.709	42.66
619.042	42.97
619.376	43.11
619.71	42.92
620.043	42.67
620.377	43.03
620.71	43.16
621.043	42.94
621.377	43.35
621.71	43.57
622.043	43.58
622.376	43.76
622.709	43.84
623.043	43.03
623.376	43.33
623.709	43.57
624.041	43.85
624.374	43.67
624.707	43.76
625.04	44.35
625.373	44.29
625.705	44.01
626.038	43.99
626.37	43.59
626.703	43.61
627.035	43.98
627.368	44.1
627.7	43.8
628.032	44.09
628.365	44.29
628.697	44.25
629.029	43.94
629.361	44.1
629.693	44.22
630.025	43.96
630.357	44.47
630.689	44.46
631.021	44.71
631.353	44.48
631.684	44.73
632.016	44.77
632.348	44.46
632.679	44.97
633.011	45.04
633.342	44.66
633.674	45.17
634.005	45.1
634.336	45.15
634.668	45.45
634.999	44.79
635.33	45.19
635.661	45.49
635.992	45.32
636.323	45.67
636.654	45.41
636.985	45.67
637.316	45.8
637.647	45.64
637.977	46.03
638.308	45.9
638.639	46.01
638.969	45.64
639.3	45.96
639.63	46.03
639.961	45.39
640.291	46.3
640.622	46.09
640.952	46.1
641.282	46.56
641.612	46.34
641.943	46.84
642.273	46.57
642.603	45.75
642.933	46.62
643.263	46.36
643.592	46.94
643.922	46.63
644.252	46.64
644.582	46.39
644.911	47.02
645.241	46.38
645.571	46.94
645.9	46.93
646.23	47.08
646.559	47.02
646.888	46.87
647.218	46.36
647.547	46.82
647.876	47.82
648.205	47.77
648.534	47.2
648.863	47.08
649.192	47.55
649.521	47.57
649.85	47.46
650.179	47.22
650.508	47.69
650.837	47.76
651.165	48.46
651.494	47.89
651.822	47.99
652.151	47.4
652.479	48.07
652.808	48.48
653.136	47.86
653.465	48.25
653.793	47.66
654.121	48.53
654.449	48.35
654.777	48.16
655.105	48.2
655.433	47.74
655.761	48.59
656.089	48.75
656.417	48.5
656.745	48.46
657.073	48.58
657.4	48.56
657.728	48.99
658.056	48.48
658.383	49.16
658.711	48.34
659.038	49.29
659.365	48.28
659.693	48.99
660.02	48.89
660.347	48.88
660.674	48.35
661.001	48.75
661.329	48.58
661.656	49.32
661.982	49.1
662.309	48.99
662.636	49.31
662.963	49.71
663.29	48.32
663.616	49.83
663.943	49.85
664.27	49.55
664.596	50.4
664.923	50.03
665.249	49.95
665.576	49.68
665.902	49.69
666.228	49.54
666.554	49.66
666.881	49.92
667.207	50.04
667.533	49.86
667.859	50.41
668.185	50.14
668.511	50.14
668.837	50.07
669.162	49.5
669.488	50.51
669.814	50.31
670.139	50.34
670.465	51.37
670.791	50.3
671.116	50.82
671.442	50.36
