Data from 1610-5_forehead_Reflection__4__109.txt Node

Date: Fri Nov 11 16:57:11 CST 2022
User: ToomeyLab
Spectrometer: FLMS14357
Trigger mode: 0
Integration Time (sec): 1.000000E-2
Scans to average: 100
Electric dark correction enabled: true
Nonlinearity correction enabled: false
Boxcar width: 0
XAxis mode: Wavelengths
Number of Pixels in Spectrum: 2048
>>>>>Begin Spectral Data<<<<<
189.047	315.66
189.435	315.66
189.823	315.66
190.211	49.08
190.599	500.85
190.987	331.7
191.375	48.42
191.763	-342.19
192.151	134.88
192.538	22.01
192.926	455.63
193.314	-6.2
193.702	-31.38
194.089	16.58
194.477	149.03
194.864	810.42
195.252	262.26
195.639	113.37
196.027	-49.32
196.414	66.66
196.801	57.84
197.189	112.14
197.576	85.82
197.963	-46.1
198.351	37.2
198.738	-30.96
199.125	10.09
199.512	25.71
199.899	16.42
200.286	41.42
200.673	58.31
201.06	-95.36
201.447	55.58
201.833	39.22
202.22	73.65
202.607	13.41
202.994	40.16
203.38	24.52
203.767	27.49
204.154	4.12
204.54	41.1
204.927	42.09
205.313	46.02
205.699	33.83
206.086	48.28
206.472	44.87
206.858	45.52
207.245	17.17
207.631	20.52
208.017	14.34
208.403	36.2
208.789	30.5
209.175	28.88
209.561	34.42
209.947	28.09
210.333	52.25
210.719	12.47
211.105	11.7
211.491	-104.51
211.876	34.74
212.262	-27.41
212.648	11.9
213.034	29.07
213.419	16.23
213.805	25.78
214.19	-21.71
214.576	38.08
214.961	1.17
215.346	9.41
215.732	-10.79
216.117	40.14
216.502	4.05
216.888	45.37
217.273	15.6
217.658	-5.02
218.043	16.44
218.428	9.6
218.813	37.54
219.198	-27.29
219.583	28.1
219.968	12.01
220.353	-14.51
220.738	-3.65
221.122	1.03
221.507	18.59
221.892	13.74
222.276	18.03
222.661	12.82
223.046	19.99
223.43	13.82
223.815	4.25
224.199	7.17
224.583	4.26
224.968	19.74
225.352	13.06
225.736	9.68
226.121	2.08
226.505	9.94
226.889	12.12
227.273	-1.14
227.657	-0.68
228.041	5.38
228.425	12.65
228.809	9.15
229.193	1.91
229.577	6.48
229.961	4.86
230.344	4.48
230.728	5.27
231.112	4.81
231.495	4.93
231.879	4.42
232.263	3.51
232.646	3.77
233.03	2.2
233.413	3.66
233.797	4.94
234.18	6.04
234.563	4.41
234.946	3.38
235.33	5.05
235.713	6.22
236.096	3.2
236.479	6.52
236.862	5.49
237.245	6.54
237.628	7.07
238.011	5.17
238.394	5.43
238.777	4.61
239.16	6.56
239.543	5.44
239.925	6.27
240.308	4.32
240.691	4.31
241.073	4.68
241.456	3.72
241.838	4.67
242.221	4.38
242.603	4.28
242.986	4.42
243.368	4.5
243.75	4.49
244.133	4.41
244.515	4.66
244.897	4.49
245.279	4.67
245.661	4.06
246.043	4.13
246.425	5.6
246.807	4.05
247.189	3.64
247.571	3.95
247.953	5.06
248.335	4.78
248.717	4.65
249.098	4.69
249.48	4.55
249.862	4.43
250.243	4.74
250.625	4.59
251.006	5.65
251.388	4.55
251.769	4.65
252.151	5.33
252.532	5.16
252.913	4.19
253.295	4.46
253.676	4.62
254.057	4.87
254.438	4.65
254.819	5.32
255.2	5.07
255.581	4.07
255.962	5.09
256.343	5.1
256.724	3.97
257.105	4.72
257.486	5.61
257.867	4.15
258.247	5.49
258.628	4.17
259.009	5.35
259.389	5.08
259.77	5.72
260.15	4.79
260.531	4.21
260.911	4.42
261.292	4.6
261.672	4.37
262.052	4.43
262.432	4.76
262.813	4.39
263.193	4.4
263.573	4.58
263.953	4.46
264.333	4.84
264.713	3.86
265.093	4.38
265.473	5.1
265.853	4.69
266.233	4.88
266.612	4.56
266.992	4.46
267.372	4.09
267.752	4.81
268.131	4.59
268.511	4.47
268.89	4.8
269.27	4.11
269.649	4.07
270.029	4.13
270.408	4.56
270.787	4.57
271.167	4.3
271.546	4.91
271.925	4.88
272.304	4.54
272.683	4.59
273.062	4.8
273.441	4.38
273.82	4.09
274.199	4.63
274.578	4.73
274.957	4.01
275.336	4.79
275.715	4.49
276.093	5.25
276.472	4.33
276.851	4.51
277.229	4.22
277.608	5.04
277.986	4.71
278.365	4.66
278.743	4.58
279.122	4.27
279.5	4.37
279.878	4.22
280.257	4.62
280.635	4.37
281.013	4.79
281.391	5
281.769	4.63
282.147	4.23
282.525	4.16
282.903	4.61
283.281	4.56
283.659	4.18
284.037	4.39
284.415	4.22
284.792	4.58
285.17	4.51
285.548	4.71
285.925	4.71
286.303	4.34
286.68	4.41
287.058	4.44
287.435	4.72
287.813	4.53
288.19	4.55
288.567	4.67
288.945	4.02
289.322	4.39
289.699	4.72
290.076	4.61
290.453	4.38
290.83	4.93
291.207	4.4
291.584	4.72
291.961	4.37
292.338	4.51
292.715	4.44
293.092	4.43
293.469	4.81
293.845	5.2
294.222	5.83
294.599	5.79
294.975	4.73
295.352	4.58
295.728	4.88
296.105	4.96
296.481	4.71
296.858	5.31
297.234	5.16
297.61	4.73
297.986	4.48
298.363	4.84
298.739	5.44
299.115	5.06
299.491	5.05
299.867	4.92
300.243	4.95
300.619	5.2
300.995	5.32
301.371	4.9
301.746	5.18
302.122	5.41
302.498	4.91
302.874	5.46
303.249	5.33
303.625	5.35
304	5.18
304.376	5.19
304.751	6.11
305.127	6.07
305.502	5.92
305.878	5.68
306.253	5.96
306.628	5.73
307.003	5.6
307.378	5.62
307.754	6.52
308.129	6.29
308.504	6.02
308.879	5.9
309.254	5.96
309.629	5.58
310.003	6.08
310.378	5.38
310.753	5.73
311.128	6.4
311.502	5.93
311.877	6.41
312.252	6.05
312.626	6.02
313.001	5.91
313.375	6.23
313.75	6.42
314.124	6.26
314.498	6.55
314.873	6.24
315.247	6.82
315.621	6.3
315.995	6.64
316.369	6.89
316.743	6.92
317.117	6.96
317.491	7.1
317.865	6.75
318.239	7.03
318.613	6.89
318.987	6.91
319.361	7.23
319.734	6.95
320.108	7.22
320.482	6.96
320.855	6.88
321.229	7.91
321.602	7.44
321.976	6.9
322.349	7.02
322.723	7.77
323.096	7.67
323.469	7.66
323.843	7.65
324.216	7.29
324.589	7.42
324.962	7.25
325.335	8.03
325.708	7.07
326.081	6.82
326.454	7.65
326.827	7.26
327.2	7.39
327.573	7.91
327.945	7.27
328.318	7.7
328.691	8.02
329.063	7.92
329.436	7.68
329.809	7.12
330.181	8.12
330.553	8.68
330.926	7.7
331.298	7.63
331.671	7.99
332.043	8.25
332.415	8.2
332.787	8.15
333.159	8.46
333.532	8.13
333.904	8.15
334.276	7.99
334.648	7.99
335.02	8.44
335.391	8.21
335.763	8.62
336.135	8.21
336.507	8.42
336.879	8.39
337.25	7.49
337.622	8.61
337.993	8.22
338.365	8.48
338.736	8.5
339.108	8.15
339.479	8.72
339.851	8.05
340.222	8.16
340.593	8.27
340.964	8.64
341.336	8.14
341.707	8.26
342.078	8.43
342.449	9.12
342.82	8.69
343.191	9.19
343.562	8.8
343.933	8.44
344.303	9.38
344.674	8.99
345.045	8.77
345.416	9.14
345.786	8.78
346.157	8.8
346.527	9.12
346.898	8.84
347.268	9.01
347.639	9.01
348.009	8.59
348.38	8.99
348.75	9.22
349.12	9.36
349.49	8.95
349.861	8.97
350.231	9.18
350.601	9.77
350.971	9.79
351.341	9.53
351.711	9.41
352.081	8.99
352.45	9.33
352.82	9.63
353.19	9.19
353.56	9.6
353.929	9.8
354.299	9.7
354.669	9.73
355.038	9.72
355.408	9.47
355.777	10.34
356.147	9.85
356.516	9.74
356.885	9.68
357.254	9.64
357.624	9.9
357.993	10.1
358.362	9.78
358.731	9.56
359.1	9.55
359.469	9.95
359.838	10
360.207	10.01
360.576	10.06
360.945	9.83
361.314	10.22
361.682	9.87
362.051	9.77
362.42	9.99
362.788	9.99
363.157	10.14
363.525	10.33
363.894	9.96
364.262	10.03
364.631	10.26
364.999	10.17
365.367	10.34
365.735	10.61
366.104	9.98
366.472	10.57
366.84	10.46
367.208	10.76
367.576	10.33
367.944	10.75
368.312	10.86
368.68	10.78
369.048	10.77
369.416	10.54
369.783	10.8
370.151	10.96
370.519	11.33
370.886	11.13
371.254	10.82
371.621	11.28
371.989	11.22
372.356	10.56
372.724	11.57
373.091	11.1
373.458	10.97
373.826	11.33
374.193	11.4
374.56	11.09
374.927	11.12
375.294	11.34
375.661	11.64
376.028	11.62
376.395	11.67
376.762	11.28
377.129	11.56
377.496	11.37
377.863	11.4
378.229	11.68
378.596	11.36
378.963	11.51
379.329	11.51
379.696	11.7
380.062	11.31
380.429	11.62
380.795	11.52
381.161	11.75
381.528	12.01
381.894	11.96
382.26	11.72
382.626	11.92
382.993	11.92
383.359	12.09
383.725	11.98
384.091	11.94
384.457	11.86
384.823	11.88
385.188	12.05
385.554	11.88
385.92	12.03
386.286	11.97
386.651	11.94
387.017	12.2
387.383	12.07
387.748	11.93
388.114	12.37
388.479	12.04
388.845	12.17
389.21	12.43
389.575	12.22
389.94	12.6
390.306	12.56
390.671	12.21
391.036	12.31
391.401	12.55
391.766	12.66
392.131	12.17
392.496	12.32
392.861	12.56
393.226	12.45
393.591	12.48
393.956	12.47
394.32	12.45
394.685	12.71
395.05	12.78
395.414	12.76
395.779	12.48
396.143	12.55
396.508	12.79
396.872	12.76
397.236	12.92
397.601	12.67
397.965	12.89
398.329	12.89
398.694	12.58
399.058	12.87
399.422	12.84
399.786	12.73
400.15	12.73
400.514	12.66
400.878	12.9
401.242	12.58
401.605	12.88
401.969	12.76
402.333	12.79
402.697	12.88
403.06	12.7
403.424	12.66
403.787	12.73
404.151	12.76
404.514	12.76
404.878	13.09
405.241	12.73
405.604	12.9
405.968	12.88
406.331	12.9
406.694	13
407.057	12.86
407.42	12.69
407.783	12.71
408.146	12.95
408.509	12.66
408.872	13.01
409.235	13.07
409.598	12.8
409.961	13.03
410.323	13.05
410.686	12.92
411.049	13.37
411.411	12.96
411.774	12.99
412.136	13.03
412.499	13.01
412.861	13.02
413.223	13.21
413.586	12.91
413.948	13.06
414.31	13.05
414.672	13.38
415.035	13.13
415.397	13.2
415.759	13.13
416.121	13.33
416.483	13.32
416.845	13.45
417.206	13.31
417.568	13.26
417.93	13.36
418.292	13.04
418.653	13.3
419.015	13.18
419.377	13.53
419.738	13.41
420.1	13.41
420.461	13.43
420.822	13.24
421.184	13.47
421.545	13.34
421.906	13.43
422.267	13.51
422.629	13.45
422.99	13.45
423.351	13.48
423.712	13.62
424.073	13.7
424.434	13.75
424.795	14.05
425.155	13.97
425.516	13.92
425.877	13.97
426.238	14.02
426.598	14.02
426.959	14.09
427.32	14.22
427.68	14.39
428.041	14.61
428.401	14.34
428.761	14.62
429.122	14.9
429.482	14.9
429.842	14.95
430.202	15.06
430.563	15.06
430.923	15.38
431.283	15.29
431.643	15.26
432.003	15.54
432.363	15.41
432.722	15.44
433.082	15.59
433.442	15.58
433.802	15.57
434.161	15.65
434.521	15.81
434.881	15.72
435.24	15.99
435.6	15.74
435.959	15.88
436.319	15.95
436.678	15.99
437.037	16.06
437.396	16.08
437.756	16.15
438.115	16.33
438.474	16.42
438.833	16.63
439.192	16.73
439.551	16.61
439.91	16.82
440.269	16.66
440.628	16.68
440.987	16.75
441.345	16.81
441.704	16.8
442.063	17.06
442.421	16.9
442.78	16.92
443.138	17.03
443.497	16.96
443.855	17.17
444.214	17.36
444.572	17.39
444.93	17.32
445.288	17.53
445.647	17.6
446.005	17.66
446.363	17.64
446.721	17.47
447.079	17.79
447.437	17.62
447.795	17.46
448.153	17.57
448.51	17.69
448.868	17.71
449.226	17.74
449.584	17.81
449.941	17.94
450.299	18.03
450.656	18.29
451.014	18.34
451.371	18.42
451.729	18.5
452.086	18.43
452.443	18.65
452.801	18.86
453.158	18.87
453.515	18.69
453.872	18.96
454.229	18.87
454.586	18.95
454.943	18.85
455.3	19.1
455.657	19.13
456.014	19.09
456.371	19.3
456.727	19.4
457.084	19.46
457.441	19.7
457.797	19.75
458.154	19.83
458.51	19.76
458.867	19.64
459.223	19.68
459.58	19.98
459.936	20.06
460.292	19.98
460.648	19.73
461.005	19.9
461.361	19.81
461.717	19.78
462.073	19.75
462.429	19.81
462.785	19.99
463.141	20.09
463.496	20.33
463.852	20.67
464.208	20.57
464.564	20.73
464.919	20.73
465.275	21.03
465.631	21.11
465.986	21.01
466.342	21.08
466.697	21.03
467.052	20.89
467.408	21.05
467.763	21.12
468.118	21.23
468.473	21.44
468.829	21.48
469.184	21.64
469.539	21.6
469.894	21.42
470.249	21.72
470.603	21.65
470.958	21.91
471.313	22.09
471.668	21.98
472.023	21.97
472.377	22.12
472.732	21.97
473.086	22.03
473.441	22.08
473.795	22.28
474.15	22.16
474.504	22.39
474.859	22.53
475.213	22.5
475.567	22.45
475.921	22.66
476.275	22.58
476.63	22.62
476.984	22.75
477.338	22.72
477.692	22.8
478.045	22.77
478.399	22.83
478.753	22.73
479.107	22.96
479.461	23.1
479.814	22.75
480.168	23.03
480.521	23.15
480.875	23.08
481.228	23.15
481.582	23.29
481.935	23.21
482.289	23.41
482.642	23.23
482.995	23.35
483.348	23.26
483.701	23.32
484.055	23.17
484.408	23.14
484.761	22.8
485.114	22.64
485.466	22.49
485.819	22.54
486.172	22.44
486.525	22.59
486.878	22.58
487.23	22.8
487.583	23.03
487.936	23.27
488.288	23.36
488.641	23.38
488.993	23.11
489.345	23.09
489.698	23.11
490.05	23.17
490.402	23.35
490.754	23.43
491.107	23.75
491.459	23.85
491.811	24.11
492.163	24.17
492.515	24.17
492.866	24.03
493.218	23.81
493.57	23.82
493.922	23.81
494.274	23.95
494.625	24.2
494.977	24.44
495.328	24.72
495.68	24.89
496.031	25.01
496.383	25.46
496.734	25.48
497.086	25.5
497.437	25.47
497.788	25.42
498.139	25.47
498.49	25.46
498.842	25.52
499.193	25.37
499.544	25.47
499.894	25.46
500.245	25.71
500.596	25.99
500.947	25.89
501.298	25.91
501.648	26.02
501.999	26.26
502.35	26.23
502.7	26.44
503.051	26.48
503.401	26.42
503.752	26.49
504.102	26.68
504.452	26.7
504.803	26.55
505.153	26.92
505.503	26.73
505.853	26.67
506.203	26.74
506.553	26.9
506.903	26.79
507.253	26.99
507.603	27.05
507.953	26.89
508.303	27.09
508.652	26.98
509.002	27.14
509.352	27.23
509.701	27.08
510.051	27.11
510.4	26.99
510.75	27.03
511.099	27.11
511.449	27.07
511.798	27.31
512.147	27.32
512.496	27.34
512.846	27.42
513.195	27.43
513.544	27.44
513.893	27.65
514.242	27.55
514.591	27.56
514.939	27.69
515.288	27.8
515.637	27.8
515.986	28.06
516.334	28.12
516.683	28.11
517.032	28.19
517.38	28.31
517.729	28.24
518.077	28.21
518.426	28.26
518.774	28.08
519.122	28.09
519.47	27.91
519.819	28.08
520.167	27.86
520.515	27.86
520.863	27.98
521.211	27.88
521.559	27.93
521.907	28.14
522.255	28.3
522.602	28.58
522.95	28.6
523.298	28.72
523.645	28.56
523.993	28.74
524.341	28.85
524.688	28.82
525.036	28.77
525.383	29.03
525.73	28.95
526.078	28.87
526.425	28.9
526.772	28.63
527.119	28.67
527.466	28.67
527.814	28.43
528.161	28.49
528.508	28.58
528.854	28.5
529.201	28.52
529.548	28.56
529.895	28.26
530.242	28.26
530.588	28.2
530.935	28.05
531.282	28.23
531.628	28.29
531.975	28.47
532.321	28.51
532.667	28.86
533.014	28.94
533.36	29.14
533.706	29.28
534.052	29.31
534.399	29.12
534.745	28.96
535.091	28.84
535.437	28.99
535.783	28.88
536.129	29.2
536.474	29.33
536.82	29.41
537.166	29.68
537.512	29.81
537.857	29.81
538.203	29.63
538.549	29.6
538.894	29.77
539.239	29.78
539.585	30.02
539.93	30.16
540.276	30.3
540.621	30.59
540.966	30.65
541.311	30.45
541.656	30.51
542.001	30.63
542.346	30.34
542.691	30.09
543.036	29.99
543.381	29.92
543.726	29.91
544.071	29.8
544.415	29.98
544.76	30.12
545.105	30.34
545.449	30.38
545.794	30.74
546.138	30.72
546.483	31.01
546.827	31.01
547.171	31.03
547.516	31.06
547.86	31.27
548.204	31.14
548.548	31.15
548.892	31.27
549.236	31.45
549.58	31.43
549.924	31.49
550.268	31.97
550.612	31.84
550.956	32.29
551.3	32.17
551.643	32.32
551.987	32.19
552.33	32.13
552.674	32.21
553.017	32.45
553.361	32.47
553.704	32.82
554.048	32.31
554.391	32.4
554.734	32.47
555.077	32.7
555.42	32.57
555.764	32.83
556.107	32.74
556.45	32.86
556.793	33.23
557.135	33.22
557.478	33.1
557.821	33.3
558.164	33.29
558.507	33.37
558.849	33.32
559.192	33.72
559.534	33.41
559.877	33.5
560.219	33.68
560.562	33.88
560.904	33.74
561.246	33.68
561.589	33.76
561.931	33.65
562.273	33.72
562.615	33.67
562.957	33.92
563.299	33.71
563.641	33.87
563.983	34.1
564.325	33.84
564.667	34.04
565.008	34.09
565.35	34.21
565.692	34.1
566.033	34.43
566.375	34.25
566.716	34.17
567.058	34.29
567.399	34.29
567.741	34.33
568.082	34.18
568.423	34.34
568.764	34.26
569.105	34.18
569.447	34.36
569.788	34.54
570.129	34.81
570.47	34.52
570.811	34.78
571.151	34.9
571.492	35
571.833	34.93
572.174	35.2
572.514	35
572.855	35.1
573.195	35.23
573.536	35.08
573.876	34.93
574.217	35.01
574.557	35.01
574.898	34.97
575.238	35.17
575.578	35.08
575.918	35.39
576.258	35.19
576.598	35.67
576.938	35.61
577.278	35.36
577.618	35.49
577.958	35.67
578.298	35.57
578.638	35.58
578.977	35.95
579.317	35.98
579.657	35.81
579.996	36.05
580.336	36.52
580.675	36.26
581.014	36.36
581.354	36.18
581.693	36.81
582.032	36.83
582.372	36.61
582.711	36.88
583.05	37.15
583.389	36.72
583.728	36.84
584.067	36.76
584.406	37.06
584.745	37.03
585.083	37.08
585.422	37.18
585.761	37.25
586.1	36.96
586.438	37.42
586.777	37.43
587.115	37.41
587.454	37.63
587.792	37.5
588.13	37.77
588.469	37.53
588.807	37.68
589.145	37.74
589.483	37.68
589.821	37.71
590.159	37.86
590.497	37.78
590.835	37.83
591.173	37.57
591.511	37.88
591.849	38.06
592.187	37.78
592.524	37.93
592.862	38.22
593.2	38.11
593.537	38.2
593.875	38.16
594.212	38.59
594.55	38.54
594.887	38.45
595.224	38.2
595.561	38.5
595.899	38.45
596.236	38.54
596.573	38.36
596.91	38.58
597.247	38.47
597.584	38.87
597.921	38.68
598.258	38.67
598.594	38.68
598.931	38.78
599.268	38.55
599.604	38.78
599.941	38.8
600.277	39.08
600.614	39.19
600.95	39.07
601.287	39.23
601.623	39.14
601.959	39.43
602.296	39.53
602.632	39.28
602.968	39.79
603.304	39.85
603.64	39.66
603.976	39.61
604.312	39.62
604.648	39.53
604.984	39.91
605.319	39.58
605.655	39.66
605.991	39.53
606.326	39.56
606.662	39.49
606.998	39.38
607.333	39.5
607.668	39.78
608.004	39.72
608.339	39.95
608.674	40.16
609.01	40.03
609.345	40.43
609.68	40.81
610.015	40.48
610.35	40.63
610.685	40.97
611.02	40.83
611.355	40.4
611.689	40.59
612.024	40.46
612.359	40.65
612.694	40.51
613.028	40.57
613.363	40.63
613.697	41.27
614.032	41.2
614.366	41.31
614.7	41.29
615.035	41.64
615.369	41.61
615.703	41.32
616.037	41.84
616.371	41.59
616.705	41.57
617.039	41.37
617.373	41.92
617.707	41.91
618.041	41.89
618.375	42.25
618.709	42.12
619.042	41.9
619.376	42.1
619.71	42.29
620.043	41.9
620.377	42.46
620.71	42.62
621.043	42.24
621.377	42.75
621.71	42.84
622.043	42.55
622.376	42.8
622.709	42.68
623.043	42.58
623.376	42.91
623.709	42.68
624.041	42.79
624.374	42.82
624.707	42.82
625.04	43.29
625.373	43.1
625.705	42.85
626.038	43.09
626.37	42.92
626.703	43.04
627.035	42.99
627.368	43.1
627.7	43.08
628.032	43.41
628.365	43.59
628.697	43.26
629.029	43.01
629.361	42.82
629.693	43.4
630.025	43.08
630.357	43.53
630.689	43.29
631.021	43.6
631.353	43.48
631.684	43.69
632.016	43.56
632.348	43.82
632.679	43.84
633.011	43.17
633.342	43.72
633.674	44.07
634.005	44.25
634.336	44.15
634.668	44.04
634.999	43.89
635.33	44.35
635.661	44.35
635.992	44.64
636.323	44.23
636.654	44.55
636.985	44.39
637.316	44.44
637.647	44.38
637.977	44.51
638.308	44.92
638.639	44.6
638.969	44.98
639.3	44.57
639.63	45.29
639.961	44.48
640.291	45.25
640.622	44.78
640.952	45.29
641.282	45.39
641.612	45.15
641.943	44.95
642.273	45.94
642.603	45.62
642.933	45.62
643.263	45.62
643.592	45.92
643.922	45.72
644.252	45.8
644.582	45.41
644.911	45.47
645.241	45.69
645.571	46.14
645.9	46.12
646.23	45.82
646.559	46.2
646.888	46.34
647.218	45.86
647.547	46
647.876	46.37
648.205	46.51
648.534	46.37
648.863	46.26
649.192	47.16
649.521	46.59
649.85	46.96
650.179	46.17
650.508	46.76
650.837	46.9
651.165	46.8
651.494	46.59
651.822	46.74
652.151	46.77
652.479	47.34
652.808	46.96
653.136	46.97
653.465	47.28
653.793	47.37
654.121	47.26
654.449	47.46
654.777	47.23
655.105	47.75
655.433	47.09
655.761	47.15
656.089	47.14
656.417	47.7
656.745	47.82
657.073	47.38
657.4	46.66
657.728	47.13
658.056	47.09
658.383	48.24
658.711	47.5
659.038	48.09
659.365	47.25
659.693	47.85
660.02	47.52
660.347	48.73
660.674	48
661.001	47.96
661.329	47.94
661.656	47.93
661.982	48.1
662.309	47.92
662.636	48.07
662.963	48.11
663.29	47.72
663.616	48.37
663.943	48.16
664.27	48.05
664.596	49.01
664.923	48.54
665.249	48.92
665.576	49.1
665.902	47.92
666.228	48.59
666.554	48.72
666.881	48.42
667.207	49.04
667.533	49.06
667.859	49.1
668.185	48.36
668.511	49.6
668.837	49.34
669.162	48.96
669.488	49.64
669.814	49.08
670.139	48.72
670.465	49.2
670.791	49.52
671.116	49.24
671.442	49.41
