Data from 1610-5_crown_Reflection__2__102.txt Node

Date: Fri Nov 11 16:55:21 CST 2022
User: ToomeyLab
Spectrometer: FLMS14357
Trigger mode: 0
Integration Time (sec): 1.000000E-2
Scans to average: 100
Electric dark correction enabled: true
Nonlinearity correction enabled: false
Boxcar width: 0
XAxis mode: Wavelengths
Number of Pixels in Spectrum: 2048
>>>>>Begin Spectral Data<<<<<
189.047	1.99
189.435	1.99
189.823	1.99
190.211	62.73
190.599	305.55
190.987	91.45
191.375	-7.74
191.763	7.25
192.151	174.37
192.538	129.84
192.926	172.47
193.314	-18.21
193.702	-138.66
194.089	-92.3
194.477	-252.95
194.864	546.2
195.252	209.14
195.639	30.98
196.027	-393.02
196.414	88.42
196.801	17.53
197.189	95.29
197.576	8.49
197.963	83.03
198.351	-3.65
198.738	-12.19
199.125	-10.97
199.512	-17.21
199.899	-26.92
200.286	25.99
200.673	31.09
201.06	-181.14
201.447	20.87
201.833	9.77
202.22	23.5
202.607	48.29
202.994	41.2
203.38	34.33
203.767	16.68
204.154	-24.52
204.54	34.7
204.927	28.03
205.313	36.8
205.699	20.31
206.086	41.34
206.472	46.2
206.858	19.6
207.245	3.76
207.631	15.89
208.017	1.1
208.403	9.93
208.789	-167.15
209.175	0.68
209.561	13.57
209.947	-12.85
210.333	37.75
210.719	26.84
211.105	-11.9
211.491	-117.61
211.876	28.77
212.262	15.13
212.648	-0.11
213.034	1.79
213.419	14.94
213.805	19.91
214.19	-27.76
214.576	13.28
214.961	-1.39
215.346	-63.31
215.732	-24.26
216.117	8.2
216.502	10.62
216.888	6.07
217.273	4.66
217.658	14.54
218.043	-10.97
218.428	-19.05
218.813	3.64
219.198	-8.44
219.583	-12.32
219.968	-3.28
220.353	-38.14
220.738	-22.96
221.122	-18.91
221.507	2.42
221.892	3.62
222.276	7.32
222.661	7.25
223.046	6.22
223.43	0.77
223.815	7.58
224.199	1.75
224.583	-1.49
224.968	9.68
225.352	1.82
225.736	1.57
226.121	1.57
226.505	4.04
226.889	3.75
227.273	-1.97
227.657	-2.25
228.041	-0.7
228.425	3.27
228.809	5.4
229.193	-1.73
229.577	3.17
229.961	1.53
230.344	2.76
230.728	2.3
231.112	3.4
231.495	2.79
231.879	2.05
232.263	1.31
232.646	3.23
233.03	2.29
233.413	2.76
233.797	2.08
234.18	2.27
234.563	2.03
234.946	1.37
235.33	2.19
235.713	2.14
236.096	0.71
236.479	3.63
236.862	2.13
237.245	3.05
237.628	2.54
238.011	2.76
238.394	4.25
238.777	3.11
239.16	2.18
239.543	4.14
239.925	4.11
240.308	1.12
240.691	3.3
241.073	2.39
241.456	1.64
241.838	3.26
242.221	2.43
242.603	1.14
242.986	2.76
243.368	2.52
243.75	3.32
244.133	2.59
244.515	2.87
244.897	2.35
245.279	2.55
245.661	2.68
246.043	3.33
246.425	3.37
246.807	3.1
247.189	1.86
247.571	1.53
247.953	2.87
248.335	3.05
248.717	2.88
249.098	2.92
249.48	2.85
249.862	2.81
250.243	2.67
250.625	2.78
251.006	3.57
251.388	3.31
251.769	3.28
252.151	2.37
252.532	3.49
252.913	2.62
253.295	2.56
253.676	3.19
254.057	3.01
254.438	3.1
254.819	3.16
255.2	4.05
255.581	3.6
255.962	1.81
256.343	3.94
256.724	3.47
257.105	4
257.486	3.84
257.867	1.93
258.247	3.31
258.628	2.93
259.009	2.85
259.389	3.24
259.77	3.15
260.15	3.53
260.531	2.59
260.911	2.51
261.292	2.98
261.672	2.7
262.052	3
262.432	3.31
262.813	2.81
263.193	2.73
263.573	3.51
263.953	3.18
264.333	3.39
264.713	2.32
265.093	3.07
265.473	3.85
265.853	1.65
266.233	2.8
266.612	2.32
266.992	2.96
267.372	2.37
267.752	2.68
268.131	3.26
268.511	3.3
268.89	3.34
269.27	2.66
269.649	2.37
270.029	2.48
270.408	2.65
270.787	3.1
271.167	2.28
271.546	3.48
271.925	3.23
272.304	3.26
272.683	2.65
273.062	2.94
273.441	2.7
273.82	2.39
274.199	3.13
274.578	3.35
274.957	2.7
275.336	2.61
275.715	2.62
276.093	3.38
276.472	2.45
276.851	3.1
277.229	2.62
277.608	2.77
277.986	2.85
278.365	3.54
278.743	3.09
279.122	2.85
279.5	2.72
279.878	2.44
280.257	3.14
280.635	3.25
281.013	3.05
281.391	3.61
281.769	3.43
282.147	2.62
282.525	2.74
282.903	2.96
283.281	2.88
283.659	2.55
284.037	2.84
284.415	2.62
284.792	3.28
285.17	2.83
285.548	3.28
285.925	3.03
286.303	3.16
286.68	2.88
287.058	3.35
287.435	3.27
287.813	3
288.19	3.05
288.567	2.85
288.945	2.9
289.322	2.95
289.699	3.06
290.076	3.07
290.453	2.82
290.83	3.05
291.207	2.62
291.584	2.97
291.961	2.34
292.338	3.06
292.715	2.73
293.092	3.13
293.469	3.36
293.845	3.38
294.222	3.61
294.599	3.77
294.975	2.9
295.352	2.87
295.728	3.24
296.105	3.53
296.481	2.89
296.858	3.14
297.234	3.42
297.61	3.16
297.986	3.02
298.363	3.43
298.739	3.18
299.115	3.24
299.491	3.52
299.867	3.21
300.243	3.46
300.619	3.3
300.995	3.38
301.371	3.11
301.746	3.53
302.122	3.13
302.498	3.47
302.874	3.84
303.249	3.34
303.625	3.36
304	3.41
304.376	3.81
304.751	3.85
305.127	3.73
305.502	3.54
305.878	4.25
306.253	3.45
306.628	4.14
307.003	3.38
307.378	4.04
307.754	3.99
308.129	4.14
308.504	3.59
308.879	3.17
309.254	3.15
309.629	3.6
310.003	3.65
310.378	3.61
310.753	3.35
311.128	3.8
311.502	3.03
311.877	3.75
312.252	3.33
312.626	3.53
313.001	3.65
313.375	3.98
313.75	3.89
314.124	3.87
314.498	4.02
314.873	3.88
315.247	3.54
315.621	3.76
315.995	3.02
316.369	4.08
316.743	3.92
317.117	3.74
317.491	3.99
317.865	3.78
318.239	4.45
318.613	4.02
318.987	3.56
319.361	3.59
319.734	3.46
320.108	3.99
320.482	3.66
320.855	3.61
321.229	4.39
321.602	4.14
321.976	3.72
322.349	3.63
322.723	4.02
323.096	4.31
323.469	4.49
323.843	4.35
324.216	4.11
324.589	3.91
324.962	3.77
325.335	4.22
325.708	3.98
326.081	3.58
326.454	4.13
326.827	4.54
327.2	3.53
327.573	3.97
327.945	3.86
328.318	4.61
328.691	4.26
329.063	4.29
329.436	3.95
329.809	4.13
330.181	3.95
330.553	4.43
330.926	4.03
331.298	4.03
331.671	4.3
332.043	4.45
332.415	3.99
332.787	4.66
333.159	4.32
333.532	3.84
333.904	4.09
334.276	4.13
334.648	4.29
335.02	4.6
335.391	4.23
335.763	4.01
336.135	3.95
336.507	4.11
336.879	4.04
337.25	3.62
337.622	4.6
337.993	4.16
338.365	3.99
338.736	4.16
339.108	3.83
339.479	4.25
339.851	3.96
340.222	4.03
340.593	4.26
340.964	3.96
341.336	3.96
341.707	4.53
342.078	4
342.449	4.8
342.82	4.12
343.191	4.56
343.562	4.27
343.933	3.67
344.303	4.96
344.674	4.45
345.045	4.13
345.416	4.07
345.786	4.01
346.157	3.92
346.527	4.31
346.898	4.23
347.268	4.19
347.639	4.37
348.009	4.11
348.38	4.21
348.75	4.66
349.12	4.37
349.49	4.61
349.861	4.39
350.231	4.05
350.601	4.68
350.971	4.63
351.341	4.44
351.711	4.04
352.081	3.93
352.45	3.97
352.82	4.16
353.19	4.07
353.56	4.59
353.929	4.69
354.299	4.59
354.669	4.14
355.038	4.33
355.408	4.35
355.777	4.43
356.147	4.6
356.516	4.2
356.885	4.25
357.254	4.18
357.624	4.22
357.993	4.72
358.362	4.24
358.731	4.39
359.1	4.16
359.469	4.24
359.838	4.71
360.207	4.48
360.576	4.48
360.945	4.71
361.314	4.62
361.682	4.38
362.051	4.45
362.42	4.25
362.788	4.03
363.157	4.4
363.525	4.39
363.894	4.64
364.262	4.4
364.631	4.11
364.999	4.39
365.367	4.79
365.735	4.57
366.104	4.24
366.472	4.75
366.84	4.51
367.208	4.57
367.576	4.44
367.944	4.84
368.312	4.48
368.68	4.65
369.048	4.57
369.416	4.27
369.783	4.39
370.151	4.79
370.519	4.69
370.886	4.63
371.254	4.21
371.621	4.56
371.989	4.26
372.356	4.2
372.724	4.77
373.091	4.72
373.458	4.39
373.826	4.76
374.193	4.69
374.56	4.67
374.927	4.62
375.294	4.67
375.661	4.96
376.028	4.9
376.395	4.66
376.762	4.39
377.129	4.64
377.496	4.55
377.863	4.44
378.229	4.63
378.596	4.43
378.963	4.64
379.329	4.6
379.696	4.58
380.062	4.74
380.429	4.47
380.795	4.7
381.161	4.89
381.528	4.79
381.894	4.62
382.26	4.32
382.626	4.45
382.993	4.7
383.359	4.67
383.725	4.74
384.091	4.49
384.457	4.97
384.823	4.31
385.188	4.62
385.554	4.46
385.92	4.6
386.286	4.64
386.651	4.63
387.017	4.46
387.383	4.69
387.748	4.59
388.114	4.69
388.479	4.84
388.845	4.55
389.21	4.84
389.575	4.67
389.94	4.94
390.306	4.7
390.671	4.59
391.036	5.02
391.401	4.58
391.766	4.89
392.131	4.68
392.496	4.54
392.861	4.51
393.226	4.48
393.591	4.59
393.956	4.85
394.32	4.78
394.685	4.87
395.05	4.9
395.414	4.69
395.779	4.81
396.143	4.71
396.508	4.57
396.872	4.76
397.236	4.88
397.601	4.74
397.965	4.86
398.329	4.69
398.694	4.51
399.058	4.69
399.422	4.8
399.786	5.05
400.15	4.54
400.514	4.66
400.878	4.86
401.242	4.93
401.605	4.75
401.969	5.07
402.333	4.65
402.697	4.57
403.06	4.68
403.424	4.71
403.787	4.74
404.151	4.91
404.514	4.71
404.878	4.91
405.241	4.59
405.604	4.59
405.968	4.76
406.331	4.86
406.694	4.75
407.057	4.67
407.42	4.82
407.783	4.69
408.146	4.98
408.509	4.58
408.872	4.82
409.235	4.87
409.598	4.83
409.961	4.73
410.323	4.72
410.686	5.17
411.049	4.97
411.411	4.81
411.774	4.75
412.136	4.84
412.499	4.97
412.861	4.65
413.223	4.69
413.586	4.69
413.948	4.85
414.31	4.94
414.672	4.83
415.035	4.56
415.397	4.98
415.759	4.89
416.121	5
416.483	4.75
416.845	4.92
417.206	4.89
417.568	4.66
417.93	4.7
418.292	4.66
418.653	4.84
419.015	4.69
419.377	4.9
419.738	4.78
420.1	4.75
420.461	4.59
420.822	4.68
421.184	4.74
421.545	4.67
421.906	4.69
422.267	4.81
422.629	4.71
422.99	4.65
423.351	4.8
423.712	4.68
424.073	4.77
424.434	4.72
424.795	4.86
425.155	4.75
425.516	4.69
425.877	4.73
426.238	4.8
426.598	4.85
426.959	4.8
427.32	4.76
427.68	4.86
428.041	4.91
428.401	4.85
428.761	4.99
429.122	4.98
429.482	4.92
429.842	4.7
430.202	4.85
430.563	4.91
430.923	5.14
431.283	4.91
431.643	5
432.003	5.09
432.363	4.95
432.722	4.95
433.082	4.92
433.442	5.09
433.802	5.19
434.161	5.01
434.521	5.1
434.881	4.82
435.24	5.01
435.6	4.86
435.959	4.88
436.319	4.92
436.678	4.92
437.037	5.02
437.396	4.93
437.756	5
438.115	4.87
438.474	5.06
438.833	5
439.192	5.08
439.551	5
439.91	5
440.269	4.96
440.628	4.93
440.987	5.04
441.345	4.97
441.704	4.94
442.063	5.13
442.421	4.94
442.78	4.84
443.138	4.91
443.497	4.88
443.855	5.02
444.214	5
444.572	5.06
444.93	5.06
445.288	5.15
445.647	4.93
446.005	4.96
446.363	5.07
446.721	4.89
447.079	4.9
447.437	5.04
447.795	4.81
448.153	4.92
448.51	4.96
448.868	4.93
449.226	5.02
449.584	5.01
449.941	4.95
450.299	5.01
450.656	5.13
451.014	5.15
451.371	4.93
451.729	5.25
452.086	5.05
452.443	5.25
452.801	5.32
453.158	5.26
453.515	5.12
453.872	5.26
454.229	5.16
454.586	5.2
454.943	5.24
455.3	5.15
455.657	5.21
456.014	5.13
456.371	5.15
456.727	5.26
457.084	5.3
457.441	5.19
457.797	5.14
458.154	5.15
458.51	5.26
458.867	5.24
459.223	5.07
459.58	5.09
459.936	5.28
460.292	5.06
460.648	5.11
461.005	5.13
461.361	5.15
461.717	5.06
462.073	5.1
462.429	5.16
462.785	5.09
463.141	5.18
463.496	5.15
463.852	5.29
464.208	5.27
464.564	5.32
464.919	5.29
465.275	5.16
465.631	5.38
465.986	5.34
466.342	5.24
466.697	5.26
467.052	5.33
467.408	5.21
467.763	5.15
468.118	5.23
468.473	5.36
468.829	5.32
469.184	5.46
469.539	5.45
469.894	5.27
470.249	5.27
470.603	5.47
470.958	5.35
471.313	5.41
471.668	5.36
472.023	5.57
472.377	5.56
472.732	5.41
473.086	5.32
473.441	5.28
473.795	5.46
474.15	5.41
474.504	5.33
474.859	5.39
475.213	5.4
475.567	5.42
475.921	5.5
476.275	5.29
476.63	5.32
476.984	5.35
477.338	5.32
477.692	5.31
478.045	5.39
478.399	5.27
478.753	5.41
479.107	5.34
479.461	5.39
479.814	5.41
480.168	5.4
480.521	5.39
480.875	5.42
481.228	5.31
481.582	5.38
481.935	5.42
482.289	5.54
482.642	5.4
482.995	5.33
483.348	5.24
483.701	5.31
484.055	5.28
484.408	5.11
484.761	5.13
485.114	4.94
485.466	4.89
485.819	4.92
486.172	5.01
486.525	5.08
486.878	5.12
487.23	5.19
487.583	5.23
487.936	5.21
488.288	5.18
488.641	5.2
488.993	5.09
489.345	5.02
489.698	5.09
490.05	5.06
490.402	5.19
490.754	5.29
491.107	5.28
491.459	5.31
491.811	5.29
492.163	5.31
492.515	5.23
492.866	5.14
493.218	5.07
493.57	5.11
493.922	5.17
494.274	5.26
494.625	5.26
494.977	5.4
495.328	5.45
495.68	5.52
496.031	5.32
496.383	5.62
496.734	5.47
497.086	5.46
497.437	5.48
497.788	5.52
498.139	5.39
498.49	5.36
498.842	5.39
499.193	5.44
499.544	5.46
499.894	5.54
500.245	5.5
500.596	5.49
500.947	5.45
501.298	5.47
501.648	5.67
501.999	5.56
502.35	5.58
502.7	5.64
503.051	5.59
503.401	5.55
503.752	5.61
504.102	5.54
504.452	5.64
504.803	5.62
505.153	5.65
505.503	5.59
505.853	5.61
506.203	5.67
506.553	5.68
506.903	5.53
507.253	5.69
507.603	5.52
507.953	5.69
508.303	5.67
508.652	5.49
509.002	5.49
509.352	5.6
509.701	5.51
510.051	5.54
510.4	5.42
510.75	5.6
511.099	5.52
511.449	5.49
511.798	5.6
512.147	5.66
512.496	5.54
512.846	5.51
513.195	5.47
513.544	5.49
513.893	5.61
514.242	5.63
514.591	5.61
514.939	5.64
515.288	5.56
515.637	5.67
515.986	5.71
516.334	5.69
516.683	5.62
517.032	5.66
517.38	5.61
517.729	5.72
518.077	5.74
518.426	5.61
518.774	5.59
519.122	5.63
519.47	5.53
519.819	5.52
520.167	5.45
520.515	5.48
520.863	5.54
521.211	5.55
521.559	5.62
521.907	5.64
522.255	5.65
522.602	5.8
522.95	5.78
523.298	5.55
523.645	5.7
523.993	5.65
524.341	5.73
524.688	5.63
525.036	5.61
525.383	5.71
525.73	5.52
526.078	5.62
526.425	5.46
526.772	5.59
527.119	5.53
527.466	5.43
527.814	5.4
528.161	5.55
528.508	5.52
528.854	5.48
529.201	5.55
529.548	5.49
529.895	5.28
530.242	5.26
530.588	5.28
530.935	5.32
531.282	5.49
531.628	5.49
531.975	5.52
532.321	5.53
532.667	5.63
533.014	5.66
533.36	5.58
533.706	5.54
534.052	5.62
534.399	5.48
534.745	5.48
535.091	5.41
535.437	5.43
535.783	5.44
536.129	5.61
536.474	5.66
536.82	5.62
537.166	5.69
537.512	5.68
537.857	5.68
538.203	5.57
538.549	5.48
538.894	5.63
539.239	5.69
539.585	5.68
539.93	5.81
540.276	5.75
540.621	5.77
540.966	5.79
541.311	5.83
541.656	5.65
542.001	5.73
542.346	5.61
542.691	5.46
543.036	5.4
543.381	5.44
543.726	5.46
544.071	5.6
544.415	5.66
544.76	5.65
545.105	5.74
545.449	5.64
545.794	5.7
546.138	5.74
546.483	5.84
546.827	5.73
547.171	5.72
547.516	5.74
547.86	5.7
548.204	5.72
548.548	5.67
548.892	5.76
549.236	5.8
549.58	5.84
549.924	5.71
550.268	6.01
550.612	5.77
550.956	5.96
551.3	5.96
551.643	6.01
551.987	5.74
552.33	5.93
552.674	5.79
553.017	5.81
553.361	5.86
553.704	5.92
554.048	5.73
554.391	5.89
554.734	5.78
555.077	5.86
555.42	6
555.764	5.98
556.107	5.86
556.45	5.87
556.793	6
557.135	6.01
557.478	5.83
557.821	6.01
558.164	6.11
558.507	6.09
558.849	5.9
559.192	5.96
559.534	6
559.877	6.03
560.219	6.05
560.562	5.96
560.904	5.88
561.246	6.01
561.589	6.14
561.931	6.03
562.273	6.08
562.615	6.02
562.957	6.08
563.299	6.11
563.641	6.07
563.983	6.05
564.325	6
564.667	6.01
565.008	5.9
565.35	6.27
565.692	5.79
566.033	6.17
566.375	5.96
566.716	6.11
567.058	5.93
567.399	5.97
567.741	6.07
568.082	6.06
568.423	6.16
568.764	6.1
569.105	6.02
569.447	5.98
569.788	6.02
570.129	6.19
570.47	6.09
570.811	6.2
571.151	6.05
571.492	6.07
571.833	6.07
572.174	6.16
572.514	6.1
572.855	6.02
573.195	6.09
573.536	5.99
573.876	6.05
574.217	5.92
574.557	5.92
574.898	6.01
575.238	6.13
575.578	6.21
575.918	6.15
576.258	6.2
576.598	6.12
576.938	6.06
577.278	6.18
577.618	6.15
577.958	6.08
578.298	6.28
578.638	6.16
578.977	6.27
579.317	6.24
579.657	6.1
579.996	6.19
580.336	6.32
580.675	6.22
581.014	6.23
581.354	6.19
581.693	6.16
582.032	6.5
582.372	6.22
582.711	6.32
583.05	6.19
583.389	6.41
583.728	6.29
584.067	6.26
584.406	6.11
584.745	6.33
585.083	6.26
585.422	6.32
585.761	6.6
586.1	6.43
586.438	6.26
586.777	6.56
587.115	6.27
587.454	6.24
587.792	6.36
588.13	6.57
588.469	6.51
588.807	6.42
589.145	6.52
589.483	6.16
589.821	5.99
590.159	6.25
590.497	6.22
590.835	6.23
591.173	6.48
591.511	6.56
591.849	6.3
592.187	6.33
592.524	6.37
592.862	6.62
593.2	6.5
593.537	6.19
593.875	6.32
594.212	6.43
594.55	6.45
594.887	6.41
595.224	6.25
595.561	6.46
595.899	6.23
596.236	6.2
596.573	6.16
596.91	6.47
597.247	6.48
597.584	6.26
597.921	6.21
598.258	6.31
598.594	6.14
598.931	6.3
599.268	6.26
599.604	6.5
599.941	6.26
600.277	6.29
600.614	6.56
600.95	6.63
601.287	6.41
601.623	6.3
601.959	6.47
602.296	6.42
602.632	6.37
602.968	6.25
603.304	6.52
603.64	6.32
603.976	6.43
604.312	6.48
604.648	6.05
604.984	6.3
605.319	6.39
605.655	6.3
605.991	6.26
606.326	6.35
606.662	6.25
606.998	6.34
607.333	6.38
607.668	6.45
608.004	6.39
608.339	6.55
608.674	6.44
609.01	6.19
609.345	6.47
609.68	6.73
610.015	6.65
610.35	6.52
610.685	6.5
611.02	6.78
611.355	6.32
611.689	6.41
612.024	6.42
612.359	6.41
612.694	6.49
613.028	6.48
613.363	6.45
613.697	6.67
614.032	6.58
614.366	6.38
614.7	6.47
615.035	6.84
615.369	6.7
615.703	6.72
616.037	6.75
616.371	6.57
616.705	6.63
617.039	6.38
617.373	6.62
617.707	6.77
618.041	6.46
618.375	6.91
618.709	6.83
619.042	6.6
619.376	6.45
619.71	6.55
620.043	6.72
620.377	6.71
620.71	6.56
621.043	6.46
621.377	6.43
621.71	6.83
622.043	6.74
622.376	6.6
622.709	6.65
623.043	6.49
623.376	6.86
623.709	6.74
624.041	6.44
624.374	6.59
624.707	6.77
625.04	6.79
625.373	6.74
625.705	6.92
626.038	6.58
626.37	6.57
626.703	6.7
627.035	6.69
627.368	6.56
627.7	6.47
628.032	6.49
628.365	6.96
628.697	6.57
629.029	6.6
629.361	6.55
629.693	6.52
630.025	6.47
630.357	6.7
630.689	6.82
631.021	6.79
631.353	6.47
631.684	6.89
632.016	6.84
632.348	6.83
632.679	6.77
633.011	6.74
633.342	6.6
633.674	6.55
634.005	6.88
634.336	6.52
634.668	6.6
634.999	6.59
635.33	6.63
635.661	6.75
635.992	6.97
636.323	6.85
636.654	6.88
636.985	6.68
637.316	6.85
637.647	6.96
637.977	6.79
638.308	6.63
638.639	6.76
638.969	7.11
639.3	6.81
639.63	6.91
639.961	6.68
640.291	6.66
640.622	6.87
640.952	6.96
641.282	7.08
641.612	6.92
641.943	6.96
642.273	7.11
642.603	7.03
642.933	6.64
643.263	6.7
643.592	7.11
643.922	6.69
644.252	6.91
644.582	6.76
644.911	6.92
645.241	7.52
645.571	7.42
645.9	6.77
646.23	7.08
646.559	7.39
646.888	7.13
647.218	7.02
647.547	7.04
647.876	6.78
648.205	6.98
648.534	7.17
648.863	7
649.192	7.19
649.521	6.98
649.85	7.11
650.179	6.79
650.508	6.92
650.837	7.17
651.165	7.24
651.494	7.24
651.822	6.84
652.151	6.86
652.479	6.89
652.808	6.97
653.136	7.03
653.465	6.98
653.793	6.79
654.121	7
654.449	6.87
654.777	7.38
655.105	6.96
655.433	6.65
655.761	7.48
656.089	7.38
656.417	6.81
656.745	7.35
657.073	7.41
657.4	6.93
657.728	7.32
658.056	6.76
658.383	7.26
658.711	7.53
659.038	7.08
659.365	6.98
659.693	7.04
660.02	7.22
660.347	7.12
660.674	6.63
661.001	7.22
661.329	7.22
661.656	7.14
661.982	7.42
662.309	7.12
662.636	7.32
662.963	7.43
663.29	7.09
663.616	7.49
663.943	7.44
664.27	7.42
664.596	7.49
664.923	7.54
665.249	7.31
665.576	7.18
665.902	7.05
666.228	7.28
666.554	7.08
666.881	6.94
667.207	6.25
667.533	7.35
667.859	7.49
668.185	7.15
668.511	7.06
668.837	7.4
669.162	6.8
669.488	7.36
669.814	7.05
670.139	7.79
670.465	7.54
670.791	6.92
671.116	7.05
671.442	7.21
671.767	7.4
672.092	7.31
672.418	7.11
672.743	7.07
673.068	7.35
673.393	6.9
673.718	7.17
674.043	7.39
674.368	7.47
674.693	7.31
675.018	7.11
675.343	7.34
675.667	7.44
675.992	7.07
676.317	7.52
676.641	7.43
676.966	6.7
677.29	6.85
677.615	7.95
677.939	8.16
678.264	6.72
678.588	7.92
678.912	7.47
679.236	7.36
679.56	7.35
679.885	7.69
680.209	6.66
680.532	7.01
680.856	7.68
681.18	7.37
681.504	7.38
681.828	6.78
682.152	7.79
682.475	7.52
682.799	7.3
683.122	7.5
683.446	7.3
683.769	7.28
684.093	6.98
684.416	8.15
684.739	8.1
685.062	6.8
685.386	7.58
685.709	7.4
686.032	7.05
686.355	7.21
686.678	7.52
687.001	7.82
687.324	7.85
687.646	7.69
687.969	7
688.292	7.63
688.614	7.31
688.937	7.45
689.26	7.01
689.582	7.76
689.904	7.66
690.227	7.8
690.549	7.18
690.871	7.73
691.194	7.25
691.516	7.79
691.838	7.64
692.16	7.94
692.482	7.47
692.804	8.1
693.126	7.7
