Data from 1610-5_crown_Reflection__0__100.txt Node

Date: Fri Nov 11 16:54:59 CST 2022
User: ToomeyLab
Spectrometer: FLMS14357
Trigger mode: 0
Integration Time (sec): 1.000000E-2
Scans to average: 100
Electric dark correction enabled: true
Nonlinearity correction enabled: false
Boxcar width: 0
XAxis mode: Wavelengths
Number of Pixels in Spectrum: 2048
>>>>>Begin Spectral Data<<<<<
189.047	-209.13
189.435	-209.13
189.823	-209.13
190.211	300
190.599	164.47
190.987	109.08
191.375	23.25
191.763	73.27
192.151	164.52
192.538	51.35
192.926	-101.39
193.314	-36.39
193.702	-9.3
194.089	-15.19
194.477	22.88
194.864	214.37
195.252	178.47
195.639	130.36
196.027	-446.44
196.414	24.95
196.801	-8.04
197.189	46.69
197.576	55.35
197.963	53.73
198.351	-0.57
198.738	-283.39
199.125	24.97
199.512	7.81
199.899	-5.82
200.286	25.07
200.673	2.42
201.06	21.51
201.447	16.75
201.833	2.35
202.22	-4.94
202.607	22.16
202.994	-20.35
203.38	-0.45
203.767	15.26
204.154	-17.2
204.54	13.11
204.927	-9.65
205.313	-0.54
205.699	-12.02
206.086	46.39
206.472	24.07
206.858	27.26
207.245	-2.4
207.631	17.65
208.017	13.96
208.403	20.02
208.789	-119.67
209.175	-12.78
209.561	20.29
209.947	21.74
210.333	9.84
210.719	8.79
211.105	-8.37
211.491	-146.11
211.876	21.71
212.262	-40.13
212.648	3.49
213.034	7.51
213.419	18.78
213.805	25.8
214.19	-38.72
214.576	9.49
214.961	-31.88
215.346	-38.42
215.732	-65.95
216.117	33.27
216.502	-6.64
216.888	-0.81
217.273	-21.5
217.658	11.36
218.043	-5.01
218.428	-14.94
218.813	36.72
219.198	-19.61
219.583	7.96
219.968	15.15
220.353	-17.47
220.738	-4.22
221.122	-17.79
221.507	12.77
221.892	16.93
222.276	4.27
222.661	-2.17
223.046	4.37
223.43	-11.76
223.815	-7.48
224.199	5.85
224.583	5.56
224.968	5.43
225.352	-6.11
225.736	7.09
226.121	-2.55
226.505	5.63
226.889	-4.28
227.273	-0.83
227.657	-5.92
228.041	-1.03
228.425	2.54
228.809	6.44
229.193	-0.09
229.577	2.8
229.961	2.17
230.344	3.13
230.728	3.12
231.112	3.08
231.495	2.44
231.879	1.81
232.263	0.95
232.646	1.58
233.03	2.05
233.413	1.97
233.797	2.75
234.18	2.67
234.563	3.92
234.946	-0.48
235.33	2.92
235.713	2.14
236.096	3.1
236.479	2.94
236.862	3.66
237.245	2.09
237.628	2.82
238.011	3.48
238.394	3.62
238.777	1.97
239.16	1.98
239.543	3.13
239.925	4.28
240.308	1.92
240.691	2.07
241.073	1.42
241.456	0.97
241.838	2.85
242.221	1.92
242.603	1.78
242.986	2.12
243.368	2.03
243.75	2.91
244.133	2.92
244.515	2.81
244.897	2.5
245.279	2.29
245.661	2.85
246.043	2.53
246.425	3.02
246.807	2.52
247.189	2.38
247.571	1.26
247.953	2.37
248.335	3
248.717	2.75
249.098	2.89
249.48	2.88
249.862	2.37
250.243	2.59
250.625	2.58
251.006	3.4
251.388	2.56
251.769	3.58
252.151	2.31
252.532	2.4
252.913	1.58
253.295	2.43
253.676	2.4
254.057	1.85
254.438	2.49
254.819	2.75
255.2	2.74
255.581	2.26
255.962	3.09
256.343	3.32
256.724	2.23
257.105	2.82
257.486	3.04
257.867	1.86
258.247	3.07
258.628	2.25
259.009	1.86
259.389	3.15
259.77	2.81
260.15	2.79
260.531	2.28
260.911	2.65
261.292	2.79
261.672	2.38
262.052	2.58
262.432	3.23
262.813	2.68
263.193	2.56
263.573	2.52
263.953	2.68
264.333	2.45
264.713	2
265.093	2.88
265.473	3.36
265.853	1.58
266.233	1.67
266.612	2.55
266.992	2.45
267.372	2.35
267.752	2.85
268.131	2.56
268.511	2.6
268.89	2.93
269.27	2.06
269.649	1.89
270.029	1.72
270.408	2.85
270.787	2.99
271.167	2.45
271.546	2.54
271.925	2.74
272.304	3.09
272.683	2.3
273.062	2.84
273.441	2.32
273.82	2.2
274.199	2.64
274.578	2.79
274.957	2.29
275.336	2.93
275.715	2.33
276.093	2.84
276.472	2.33
276.851	2.68
277.229	2.55
277.608	2.6
277.986	2.63
278.365	2.96
278.743	2.54
279.122	1.98
279.5	2.3
279.878	1.44
280.257	2.49
280.635	2.32
281.013	2.48
281.391	2.22
281.769	2.75
282.147	2.47
282.525	2.31
282.903	2.8
283.281	2.13
283.659	2.2
284.037	2.5
284.415	2.53
284.792	2.54
285.17	2.58
285.548	2.47
285.925	2.95
286.303	2.85
286.68	2.57
287.058	2.71
287.435	2.65
287.813	2.77
288.19	2.77
288.567	2.55
288.945	2.44
289.322	2.34
289.699	2.61
290.076	2
290.453	2.3
290.83	2.88
291.207	2.7
291.584	2.42
291.961	2.47
292.338	2.66
292.715	2.55
293.092	2.75
293.469	3.23
293.845	3.17
294.222	3.16
294.599	3.07
294.975	2.37
295.352	2.52
295.728	2.64
296.105	2.52
296.481	2.74
296.858	2.77
297.234	2.38
297.61	2.71
297.986	2.21
298.363	2.72
298.739	2.73
299.115	2.44
299.491	2.51
299.867	2.49
300.243	2.5
300.619	2.58
300.995	2.8
301.371	2.49
301.746	2.38
302.122	2.75
302.498	1.99
302.874	2.61
303.249	2.26
303.625	2.72
304	2.74
304.376	2.91
304.751	2.95
305.127	2.8
305.502	2.98
305.878	3.04
306.253	3.1
306.628	3.03
307.003	2.38
307.378	2.61
307.754	2.82
308.129	2.97
308.504	3.06
308.879	2.53
309.254	2.38
309.629	2.4
310.003	2.79
310.378	2.39
310.753	2.54
311.128	2.75
311.502	2.14
311.877	2.88
312.252	2.69
312.626	2.39
313.001	2.49
313.375	2.92
313.75	2.94
314.124	2.76
314.498	3.12
314.873	2.73
315.247	2.38
315.621	2.57
315.995	2.08
316.369	3.37
316.743	2.38
317.117	2.76
317.491	2.71
317.865	2.61
318.239	2.68
318.613	2.87
318.987	2.52
319.361	2.47
319.734	2.34
320.108	2.98
320.482	2.59
320.855	2.35
321.229	3.08
321.602	2.51
321.976	2.02
322.349	3.06
322.723	2.77
323.096	2.97
323.469	3.07
323.843	3.28
324.216	2.5
324.589	2.71
324.962	2.61
325.335	3.39
325.708	2.96
326.081	2.57
326.454	2.7
326.827	2.81
327.2	2.53
327.573	2.96
327.945	3.07
328.318	2.99
328.691	3.07
329.063	2.75
329.436	2.99
329.809	2.64
330.181	3.07
330.553	2.92
330.926	2.38
331.298	2.95
331.671	2.65
332.043	2.82
332.415	2.4
332.787	3.41
333.159	2.73
333.532	2.43
333.904	2.74
334.276	2.54
334.648	2.64
335.02	2.63
335.391	2.87
335.763	2.84
336.135	3.08
336.507	3.23
336.879	3.18
337.25	2.59
337.622	2.75
337.993	2.62
338.365	2.97
338.736	3.03
339.108	2.77
339.479	2.84
339.851	2.25
340.222	2.54
340.593	2.55
340.964	2.66
341.336	2.44
341.707	2.75
342.078	2.6
342.449	2.95
342.82	2.78
343.191	3.15
343.562	2.95
343.933	2.12
344.303	3.38
344.674	3.17
345.045	2.56
345.416	2.83
345.786	2.59
346.157	2.72
346.527	2.85
346.898	2.68
347.268	2.7
347.639	2.8
348.009	2.91
348.38	3.05
348.75	3.17
349.12	2.73
349.49	2.79
349.861	2.7
350.231	2.94
350.601	3.43
350.971	3
351.341	3.17
351.711	2.71
352.081	2.02
352.45	2.94
352.82	3.02
353.19	3.06
353.56	3.27
353.929	2.96
354.299	3.03
354.669	2.99
355.038	2.94
355.408	2.44
355.777	2.94
356.147	3.05
356.516	3.13
356.885	2.56
357.254	2.87
357.624	2.81
357.993	2.96
358.362	3.08
358.731	2.56
359.1	2.38
359.469	2.85
359.838	3.16
360.207	3.14
360.576	2.78
360.945	2.89
361.314	3.12
361.682	2.76
362.051	2.85
362.42	2.93
362.788	2.78
363.157	3.05
363.525	3.12
363.894	2.82
364.262	2.62
364.631	2.81
364.999	2.77
365.367	3.02
365.735	2.89
366.104	2.56
366.472	2.88
366.84	2.89
367.208	2.96
367.576	3.11
367.944	3.17
368.312	3.31
368.68	3.17
369.048	2.98
369.416	2.71
369.783	2.8
370.151	2.68
370.519	3.13
370.886	2.97
371.254	2.95
371.621	3.17
371.989	2.7
372.356	2.66
372.724	3.12
373.091	2.87
373.458	2.93
373.826	3.28
374.193	3.1
374.56	2.97
374.927	3.1
375.294	3.06
375.661	3.41
376.028	3.2
376.395	3.11
376.762	2.94
377.129	3.09
377.496	3.11
377.863	3.09
378.229	3.1
378.596	2.83
378.963	2.94
379.329	3.04
379.696	2.98
380.062	2.89
380.429	2.8
380.795	2.95
381.161	3.22
381.528	3.02
381.894	3.29
382.26	2.97
382.626	3.19
382.993	3.03
383.359	2.93
383.725	3.21
384.091	2.98
384.457	3.2
384.823	2.81
385.188	3.18
385.554	3
385.92	2.81
386.286	3.05
386.651	2.77
387.017	2.8
387.383	3.44
387.748	2.85
388.114	2.97
388.479	3.13
388.845	3.06
389.21	2.75
389.575	3.02
389.94	3.3
390.306	2.88
390.671	2.92
391.036	3.22
391.401	2.78
391.766	2.85
392.131	2.73
392.496	3.07
392.861	3.16
393.226	3
393.591	3.15
393.956	3.35
394.32	3.07
394.685	3.07
395.05	3.25
395.414	3.31
395.779	3.04
396.143	3.2
396.508	3.04
396.872	3.18
397.236	3.12
397.601	3.27
397.965	3.4
398.329	2.92
398.694	3.08
399.058	3.1
399.422	3.08
399.786	3.44
400.15	2.81
400.514	3.11
400.878	3.22
401.242	3.17
401.605	3.27
401.969	3.09
402.333	3.04
402.697	3.24
403.06	2.95
403.424	2.92
403.787	3.04
404.151	3.13
404.514	3.08
404.878	3.25
405.241	3.01
405.604	3.17
405.968	3.21
406.331	3.04
406.694	3.13
407.057	2.96
407.42	3.16
407.783	3.04
408.146	3.32
408.509	3.19
408.872	3.51
409.235	3.16
409.598	2.93
409.961	3.11
410.323	3.42
410.686	2.98
411.049	3.29
411.411	2.92
411.774	3.08
412.136	3.16
412.499	3.26
412.861	3.23
413.223	3.02
413.586	2.95
413.948	3.07
414.31	3.17
414.672	3.29
415.035	3.04
415.397	3.18
415.759	3.2
416.121	3.06
416.483	3.02
416.845	3.28
417.206	3.24
417.568	3.12
417.93	3.19
418.292	3.06
418.653	2.95
419.015	3.01
419.377	3.07
419.738	3.18
420.1	3.09
420.461	3.02
420.822	3.04
421.184	3.12
421.545	3.08
421.906	2.94
422.267	3.07
422.629	3.11
422.99	3.04
423.351	3.06
423.712	3.1
424.073	3.09
424.434	3.11
424.795	3.32
425.155	3.04
425.516	3.14
425.877	3.08
426.238	3.09
426.598	3.14
426.959	3.06
427.32	3.07
427.68	3.18
428.041	3.29
428.401	3.07
428.761	3.18
429.122	3.32
429.482	3.18
429.842	3.25
430.202	3.14
430.563	3.21
430.923	3.18
431.283	3.29
431.643	3.3
432.003	3.3
432.363	3.46
432.722	3.25
433.082	3.26
433.442	3.25
433.802	3.33
434.161	3.2
434.521	3.25
434.881	3.01
435.24	3.28
435.6	3.1
435.959	3.26
436.319	3.09
436.678	3.08
437.037	3.24
437.396	2.94
437.756	3.14
438.115	3.06
438.474	3.18
438.833	3.1
439.192	3.31
439.551	3.23
439.91	3.33
440.269	3.29
440.628	3.25
440.987	3.38
441.345	3.27
441.704	3.22
442.063	3.34
442.421	3.1
442.78	3.19
443.138	3.23
443.497	3.13
443.855	3.18
444.214	3.23
444.572	3.25
444.93	3.21
445.288	3.38
445.647	3.15
446.005	3.22
446.363	3.17
446.721	3.06
447.079	3.35
447.437	3.19
447.795	3.08
448.153	3.17
448.51	3.19
448.868	3.2
449.226	3.22
449.584	3.22
449.941	3.17
450.299	3.27
450.656	3.27
451.014	3.26
451.371	3.18
451.729	3.31
452.086	3.27
452.443	3.32
452.801	3.29
453.158	3.25
453.515	3.23
453.872	3.31
454.229	3.2
454.586	3.32
454.943	3.29
455.3	3.21
455.657	3.31
456.014	3.21
456.371	3.1
456.727	3.35
457.084	3.32
457.441	3.27
457.797	3.24
458.154	3.33
458.51	3.2
458.867	3.31
459.223	3.26
459.58	3.2
459.936	3.36
460.292	3.25
460.648	3.17
461.005	3.28
461.361	3.21
461.717	3.08
462.073	3.21
462.429	3.22
462.785	3.18
463.141	3.18
463.496	3.18
463.852	3.33
464.208	3.32
464.564	3.32
464.919	3.33
465.275	3.34
465.631	3.39
465.986	3.24
466.342	3.44
466.697	3.38
467.052	3.27
467.408	3.26
467.763	3.31
468.118	3.28
468.473	3.26
468.829	3.33
469.184	3.49
469.539	3.47
469.894	3.31
470.249	3.25
470.603	3.25
470.958	3.48
471.313	3.4
471.668	3.27
472.023	3.48
472.377	3.4
472.732	3.38
473.086	3.26
473.441	3.31
473.795	3.39
474.15	3.37
474.504	3.33
474.859	3.43
475.213	3.39
475.567	3.33
475.921	3.59
476.275	3.29
476.63	3.35
476.984	3.49
477.338	3.41
477.692	3.2
478.045	3.32
478.399	3.26
478.753	3.26
479.107	3.4
479.461	3.44
479.814	3.35
480.168	3.37
480.521	3.38
480.875	3.49
481.228	3.34
481.582	3.39
481.935	3.41
482.289	3.44
482.642	3.3
482.995	3.35
483.348	3.31
483.701	3.2
484.055	3.29
484.408	3.25
484.761	3.13
485.114	3.16
485.466	2.99
485.819	3.09
486.172	3.1
486.525	3.2
486.878	3.21
487.23	3.3
487.583	3.31
487.936	3.3
488.288	3.23
488.641	3.23
488.993	3.12
489.345	3.14
489.698	3.2
490.05	3.12
490.402	3.2
490.754	3.33
491.107	3.31
491.459	3.36
491.811	3.33
492.163	3.41
492.515	3.24
492.866	3.13
493.218	3.08
493.57	3.13
493.922	3.27
494.274	3.29
494.625	3.29
494.977	3.3
495.328	3.33
495.68	3.4
496.031	3.43
496.383	3.33
496.734	3.45
497.086	3.47
497.437	3.44
497.788	3.47
498.139	3.31
498.49	3.36
498.842	3.38
499.193	3.32
499.544	3.25
499.894	3.44
500.245	3.41
500.596	3.52
500.947	3.36
501.298	3.48
501.648	3.55
501.999	3.48
502.35	3.47
502.7	3.49
503.051	3.38
503.401	3.38
503.752	3.44
504.102	3.44
504.452	3.51
504.803	3.34
505.153	3.38
505.503	3.38
505.853	3.38
506.203	3.5
506.553	3.43
506.903	3.42
507.253	3.39
507.603	3.38
507.953	3.48
508.303	3.36
508.652	3.27
509.002	3.34
509.352	3.59
509.701	3.35
510.051	3.38
510.4	3.33
510.75	3.38
511.099	3.4
511.449	3.42
511.798	3.37
512.147	3.5
512.496	3.47
512.846	3.47
513.195	3.39
513.544	3.39
513.893	3.44
514.242	3.51
514.591	3.43
514.939	3.4
515.288	3.49
515.637	3.43
515.986	3.5
516.334	3.56
516.683	3.48
517.032	3.52
517.38	3.5
517.729	3.5
518.077	3.43
518.426	3.45
518.774	3.38
519.122	3.42
519.47	3.36
519.819	3.4
520.167	3.39
520.515	3.43
520.863	3.45
521.211	3.42
521.559	3.36
521.907	3.49
522.255	3.55
522.602	3.53
522.95	3.52
523.298	3.5
523.645	3.5
523.993	3.51
524.341	3.55
524.688	3.44
525.036	3.5
525.383	3.52
525.73	3.35
526.078	3.46
526.425	3.31
526.772	3.42
527.119	3.34
527.466	3.35
527.814	3.3
528.161	3.38
528.508	3.34
528.854	3.35
529.201	3.48
529.548	3.38
529.895	3.17
530.242	3.21
530.588	3.2
530.935	3.28
531.282	3.4
531.628	3.39
531.975	3.39
532.321	3.4
532.667	3.39
533.014	3.44
533.36	3.47
533.706	3.41
534.052	3.32
534.399	3.33
534.745	3.32
535.091	3.21
535.437	3.33
535.783	3.34
536.129	3.41
536.474	3.46
536.82	3.46
537.166	3.41
537.512	3.4
537.857	3.53
538.203	3.39
538.549	3.41
538.894	3.43
539.239	3.42
539.585	3.43
539.93	3.53
540.276	3.44
540.621	3.55
540.966	3.41
541.311	3.51
541.656	3.39
542.001	3.58
542.346	3.46
542.691	3.31
543.036	3.24
543.381	3.28
543.726	3.37
544.071	3.42
544.415	3.4
544.76	3.48
545.105	3.5
545.449	3.51
545.794	3.39
546.138	3.42
546.483	3.62
546.827	3.52
547.171	3.5
547.516	3.43
547.86	3.42
548.204	3.5
548.548	3.4
548.892	3.44
549.236	3.49
549.58	3.57
549.924	3.51
550.268	3.64
550.612	3.51
550.956	3.58
551.3	3.69
551.643	3.6
551.987	3.59
552.33	3.52
552.674	3.46
553.017	3.59
553.361	3.47
553.704	3.61
554.048	3.41
554.391	3.65
554.734	3.51
555.077	3.61
555.42	3.47
555.764	3.5
556.107	3.54
556.45	3.4
556.793	3.64
557.135	3.65
557.478	3.55
557.821	3.79
558.164	3.61
558.507	3.5
558.849	3.63
559.192	3.73
559.534	3.57
559.877	3.73
560.219	3.72
560.562	3.65
560.904	3.6
561.246	3.57
561.589	3.64
561.931	3.75
562.273	3.48
562.615	3.56
562.957	3.57
563.299	3.78
563.641	3.54
563.983	3.54
564.325	3.44
564.667	3.7
565.008	3.55
565.35	3.66
565.692	3.56
566.033	3.69
566.375	3.52
566.716	3.63
567.058	3.45
567.399	3.65
567.741	3.64
568.082	3.54
568.423	3.59
568.764	3.53
569.105	3.53
569.447	3.63
569.788	3.49
570.129	3.5
570.47	3.47
570.811	3.72
571.151	3.65
571.492	3.51
571.833	3.57
572.174	3.77
572.514	3.66
572.855	3.54
573.195	3.7
573.536	3.68
573.876	3.64
574.217	3.56
574.557	3.48
574.898	3.58
575.238	3.56
575.578	3.61
575.918	3.66
576.258	3.55
576.598	3.68
576.938	3.56
577.278	3.58
577.618	3.63
577.958	3.63
578.298	3.75
578.638	3.56
578.977	3.55
579.317	3.45
579.657	3.87
579.996	3.55
580.336	3.79
580.675	3.61
581.014	3.72
581.354	3.77
581.693	3.67
582.032	3.87
582.372	3.76
582.711	3.67
583.05	3.83
583.389	3.72
583.728	3.5
584.067	3.74
584.406	3.61
584.745	3.74
585.083	3.7
585.422	3.5
585.761	3.78
586.1	3.6
586.438	3.68
586.777	3.68
587.115	3.78
587.454	3.79
587.792	3.96
588.13	4.11
588.469	3.77
588.807	3.67
589.145	3.89
589.483	3.56
589.821	3.47
590.159	3.7
590.497	3.75
590.835	3.69
591.173	3.73
591.511	3.94
591.849	3.63
592.187	3.8
592.524	3.65
592.862	3.95
593.2	3.79
593.537	3.3
593.875	3.63
594.212	3.76
594.55	3.84
594.887	3.59
595.224	3.61
595.561	3.8
595.899	3.72
596.236	3.53
596.573	3.6
596.91	3.81
597.247	3.71
597.584	3.64
597.921	3.69
598.258	3.62
598.594	3.68
598.931	3.68
599.268	3.63
599.604	3.7
599.941	3.64
600.277	3.79
600.614	3.83
600.95	3.72
601.287	3.87
601.623	3.7
601.959	3.52
602.296	3.53
602.632	3.58
602.968	3.51
603.304	3.71
603.64	3.9
603.976	3.89
604.312	3.71
604.648	3.31
604.984	3.82
605.319	3.75
605.655	3.6
605.991	3.64
606.326	3.67
606.662	3.58
606.998	3.64
607.333	3.71
607.668	3.79
608.004	3.69
608.339	3.75
608.674	3.79
609.01	3.56
609.345	3.65
609.68	3.78
610.015	3.92
610.35	3.82
610.685	3.74
611.02	3.7
611.355	3.48
611.689	3.66
612.024	3.8
612.359	3.58
612.694	3.58
613.028	3.79
613.363	3.78
613.697	3.81
614.032	3.69
614.366	3.39
614.7	3.83
615.035	3.77
615.369	3.89
615.703	3.85
616.037	3.94
616.371	3.73
616.705	3.82
617.039	3.66
617.373	4.04
617.707	3.73
618.041	3.54
618.375	3.98
618.709	3.52
619.042	3.8
619.376	3.52
619.71	3.86
620.043	4.04
620.377	3.74
620.71	3.91
621.043	3.8
621.377	3.72
621.71	4.01
622.043	3.44
622.376	3.68
622.709	3.91
623.043	3.57
623.376	4.03
623.709	3.48
624.041	3.64
624.374	4.08
624.707	3.59
625.04	3.88
625.373	3.63
625.705	3.68
626.038	3.81
626.37	3.64
626.703	3.86
627.035	3.9
627.368	3.59
627.7	3.47
628.032	3.75
628.365	3.94
628.697	3.99
629.029	3.57
629.361	3.79
629.693	3.69
630.025	3.72
630.357	3.54
630.689	3.91
631.021	3.83
631.353	3.88
631.684	3.96
632.016	3.77
632.348	3.6
632.679	4.12
633.011	3.96
633.342	3.48
633.674	4.02
634.005	4.01
634.336	3.54
634.668	3.82
634.999	3.82
635.33	3.62
635.661	3.85
635.992	3.84
636.323	3.76
636.654	4.09
636.985	3.93
637.316	3.76
637.647	3.92
637.977	3.71
638.308	4
638.639	3.61
638.969	3.75
639.3	3.85
639.63	4.04
639.961	3.85
640.291	3.86
640.622	3.59
640.952	4.49
641.282	3.92
641.612	4.31
641.943	3.87
642.273	4.35
642.603	3.88
642.933	3.71
643.263	3.85
643.592	4
643.922	3.58
644.252	3.78
644.582	3.8
644.911	3.89
645.241	4.33
645.571	4.11
645.9	3.79
646.23	3.64
646.559	3.7
646.888	4.14
647.218	3.59
647.547	3.96
647.876	3.86
648.205	3.72
648.534	3.63
648.863	3.89
649.192	3.73
649.521	4.01
649.85	3.75
650.179	3.63
650.508	3.55
650.837	3.96
651.165	4.02
651.494	4.03
651.822	3.91
652.151	3.71
652.479	4.09
652.808	3.97
653.136	3.66
653.465	4.07
653.793	4.25
654.121	4.18
654.449	3.47
654.777	3.88
655.105	3.9
655.433	3.54
655.761	3.87
656.089	3.94
656.417	3.75
656.745	4.02
657.073	4.28
657.4	3.75
657.728	4.19
658.056	4.01
658.383	3.9
658.711	4.35
659.038	3.75
659.365	3.78
659.693	3.74
660.02	4.57
660.347	4.06
660.674	3.68
661.001	3.76
661.329	3.68
661.656	3.95
661.982	4.21
662.309	3.91
662.636	3.82
662.963	3.97
663.29	4.61
663.616	4.06
663.943	3.72
664.27	3.91
664.596	4.16
664.923	3.98
665.249	4.03
665.576	3.86
665.902	3.6
666.228	4.18
666.554	3.77
666.881	3.87
667.207	3.47
667.533	4.3
667.859	3.82
668.185	4.11
668.511	3.9
668.837	4.61
669.162	3.94
669.488	3.85
669.814	3.75
670.139	4.13
670.465	4
670.791	3.85
671.116	3.98
671.442	3.8
671.767	4.15
672.092	3.67
672.418	4.38
672.743	3.5
673.068	4.09
673.393	3.56
673.718	3.65
674.043	3.8
674.368	3.81
674.693	3.85
675.018	3.99
675.343	4.12
675.667	4.02
675.992	4.25
676.317	4.27
676.641	4.27
676.966	3.7
677.29	3.32
677.615	4.04
677.939	4.44
678.264	4.13
678.588	4.01
678.912	4.5
679.236	3.8
679.56	4.62
679.885	4.4
680.209	3.62
680.532	3.85
680.856	4.09
681.18	4.12
681.504	4.1
681.828	3.51
682.152	4.45
682.475	3.62
682.799	3.64
683.122	4.11
683.446	4.14
683.769	3.98
684.093	3.61
684.416	4.14
684.739	4.18
685.062	3.72
685.386	3.58
685.709	4.25
686.032	3.71
686.355	3.75
686.678	3.71
687.001	5.14
687.324	4.25
687.646	3.93
687.969	3.47
688.292	4.03
688.614	3.36
688.937	3.74
689.26	4.24
689.582	4.68
689.904	4.18
690.227	4.41
690.549	3.88
690.871	4.05
691.194	3.74
691.516	4.11
691.838	3.82
692.16	3.99
692.482	3.36
