Data from 0393_crown_Reflection__2__159.txt Node

Date: Tue Dec 12 19:42:46 CST 2023
User: ToomeyLab
Spectrometer: FLMS14357
Trigger mode: 0
Integration Time (sec): 1.000000E-2
Scans to average: 100
Electric dark correction enabled: true
Nonlinearity correction enabled: false
Boxcar width: 0
XAxis mode: Wavelengths
Number of Pixels in Spectrum: 2048
>>>>>Begin Spectral Data<<<<<
189.047	-108.03
189.435	-108.03
189.823	-108.03
190.211	-29.17
190.599	-27.77
190.987	187.12
191.375	-71.59
191.763	-1119
192.151	105.2
192.538	-26.05
192.926	142.88
193.314	3585.71
193.702	-582.79
194.089	-153.98
194.477	86.98
194.864	66.57
195.252	-8.84
195.639	-78.08
196.027	187.87
196.414	95.74
196.801	-16.97
197.189	-469.11
197.576	75.06
197.963	0.04
198.351	14.34
198.738	29.87
199.125	20.69
199.512	-3.83
199.899	-5.9
200.286	7.99
200.673	-56.58
201.06	18.03
201.447	-114.61
201.833	-38.99
202.22	3.54
202.607	-140.41
202.994	40.64
203.38	24.68
203.767	-3.93
204.154	8.79
204.54	35.75
204.927	4.67
205.313	4.72
205.699	-59.08
206.086	10.38
206.472	30.24
206.858	-1.3
207.245	-1.84
207.631	-7.53
208.017	-15.13
208.403	-36.71
208.789	11.36
209.175	-73.82
209.561	-37.8
209.947	-20.06
210.333	17.03
210.719	-27.55
211.105	-54.07
211.491	29.9
211.876	0.2
212.262	-2.03
212.648	-55.9
213.034	-93.25
213.419	-2.83
213.805	-8.05
214.19	27.39
214.576	36.37
214.961	29.47
215.346	-20.99
215.732	15.22
216.117	-11.16
216.502	-34.53
216.888	-19.76
217.273	-18.34
217.658	-39.36
218.043	-13.08
218.428	1.78
218.813	-5.15
219.198	-94.98
219.583	20.59
219.968	17.54
220.353	-17.01
220.738	-10.79
221.122	8.61
221.507	-16.14
221.892	-23.04
222.276	3.75
222.661	-0.48
223.046	-18.94
223.43	-2.53
223.815	0.99
224.199	12.62
224.583	-5.01
224.968	10.26
225.352	-11.8
225.736	0.58
226.121	-5.02
226.505	2.98
226.889	-7.41
227.273	2.06
227.657	1.7
228.041	3.28
228.425	-3.57
228.809	-5.6
229.193	-1.35
229.577	3.61
229.961	0.25
230.344	2.37
230.728	2.95
231.112	2.61
231.495	2.09
231.879	1.99
232.263	1.81
232.646	2.74
233.03	1.43
233.413	1.78
233.797	2.68
234.18	-2.42
234.563	0.71
234.946	1.59
235.33	4.71
235.713	2.95
236.096	2.04
236.479	0.57
236.862	2.22
237.245	3.71
237.628	1.55
238.011	1.62
238.394	1.98
238.777	3.01
239.16	2.7
239.543	1.95
239.925	2.34
240.308	1.3
240.691	1.2
241.073	2.37
241.456	2.46
241.838	0.82
242.221	2.4
242.603	2.99
242.986	1.96
243.368	2.61
243.75	2.12
244.133	2.42
244.515	2.52
244.897	2.68
245.279	2.95
245.661	0.88
246.043	1.92
246.425	2.81
246.807	1.21
247.189	2.14
247.571	2.32
247.953	2.37
248.335	2.46
248.717	2.19
249.098	2.34
249.48	2.24
249.862	1.92
250.243	2.05
250.625	2.37
251.006	2.15
251.388	2.22
251.769	1.74
252.151	1.38
252.532	1.82
252.913	1.94
253.295	2.95
253.676	1.37
254.057	2.24
254.438	2.68
254.819	2.13
255.2	1.6
255.581	1.73
255.962	0.21
256.343	2.73
256.724	2.45
257.105	2.5
257.486	2.47
257.867	1.09
258.247	0.65
258.628	1.84
259.009	0.3
259.389	2.41
259.77	1.47
260.15	1.85
260.531	2.51
260.911	2.36
261.292	2.04
261.672	2.13
262.052	2.18
262.432	2.27
262.813	2.6
263.193	1.64
263.573	2.25
263.953	3.22
264.333	3.17
264.713	1.58
265.093	1.71
265.473	2.43
265.853	1.32
266.233	1.13
266.612	1.57
266.992	2.3
267.372	1.81
267.752	3.31
268.131	1.59
268.511	2.29
268.89	1.33
269.27	1.6
269.649	1.52
270.029	1.86
270.408	2.24
270.787	1.7
271.167	1.86
271.546	2.5
271.925	2.56
272.304	2.01
272.683	1.23
273.062	1.94
273.441	2.22
273.82	1.41
274.199	1.69
274.578	1.71
274.957	1.87
275.336	1.73
275.715	2.42
276.093	1.34
276.472	2.3
276.851	2.05
277.229	1.61
277.608	1.62
277.986	1.73
278.365	1.7
278.743	2
279.122	1.95
279.5	1.52
279.878	1.4
280.257	1.92
280.635	1.68
281.013	2.18
281.391	2.12
281.769	1.64
282.147	1.68
282.525	0.96
282.903	1.29
283.281	1.33
283.659	1.77
284.037	1.67
284.415	1.66
284.792	2.09
285.17	1.83
285.548	1.72
285.925	1.78
286.303	1.78
286.68	2.05
287.058	2.03
287.435	1.64
287.813	1.59
288.19	1.5
288.567	1.8
288.945	1.73
289.322	1.15
289.699	1.81
290.076	1.8
290.453	2.06
290.83	1.22
291.207	2.26
291.584	1.93
291.961	1.72
292.338	1.71
292.715	1.63
293.092	2.13
293.469	1.9
293.845	1.82
294.222	1.65
294.599	1.91
294.975	1.81
295.352	1.99
295.728	1.31
296.105	1.53
296.481	1.97
296.858	1.7
297.234	2.15
297.61	1.76
297.986	2.35
298.363	1.63
298.739	1.75
299.115	1.64
299.491	1.6
299.867	1.78
300.243	1.98
300.619	1.81
300.995	2.04
301.371	1.86
301.746	1.71
302.122	2.29
302.498	2.11
302.874	1.67
303.249	2.64
303.625	1.19
304	1.7
304.376	1.92
304.751	2.11
305.127	1.93
305.502	2.07
305.878	1.65
306.253	2.07
306.628	1.65
307.003	1.77
307.378	1.79
307.754	2.13
308.129	2.16
308.504	2.42
308.879	1.59
309.254	1.76
309.629	1.77
310.003	2.22
310.378	2.47
310.753	2.24
311.128	2.08
311.502	1.05
311.877	1.81
312.252	1.76
312.626	1.55
313.001	1.68
313.375	1.65
313.75	1.79
314.124	1.86
314.498	1.8
314.873	1.52
315.247	1.7
315.621	1.63
315.995	2.31
316.369	1.58
316.743	1.79
317.117	1.42
317.491	1.43
317.865	1.78
318.239	1.7
318.613	2.5
318.987	2.47
319.361	1.21
319.734	1.84
320.108	1.45
320.482	1.18
320.855	1.24
321.229	1.57
321.602	1.75
321.976	2.3
322.349	2.11
322.723	1.58
323.096	1.3
323.469	2.15
323.843	2.88
324.216	1.93
324.589	1.53
324.962	1.9
325.335	2.49
325.708	2.46
326.081	1.96
326.454	1.93
326.827	1.86
327.2	1.87
327.573	2.04
327.945	1.57
328.318	1.86
328.691	1.39
329.063	2.01
329.436	2.34
329.809	1.9
330.181	1.66
330.553	1.94
330.926	1.67
331.298	2.02
331.671	2.1
332.043	2.11
332.415	2.04
332.787	1.79
333.159	1.86
333.532	1.55
333.904	1.88
334.276	2.3
334.648	1.22
335.02	1.49
335.391	2.37
335.763	1.72
336.135	2.13
336.507	2.33
336.879	1.68
337.25	1.81
337.622	2.19
337.993	1.88
338.365	1.67
338.736	1.82
339.108	2.04
339.479	1.8
339.851	1.3
340.222	1.31
340.593	2.28
340.964	1.8
341.336	1.8
341.707	1.49
342.078	1.55
342.449	1.58
342.82	1.79
343.191	1.81
343.562	1.94
343.933	2.18
344.303	2
344.674	2.28
345.045	2.1
345.416	1.77
345.786	1.58
346.157	1.93
346.527	2.48
346.898	1.59
347.268	1.56
347.639	1.99
348.009	1.65
348.38	1.49
348.75	2.02
349.12	1.91
349.49	2.05
349.861	2.14
350.231	1.74
350.601	2.12
350.971	2.26
351.341	1.72
351.711	2.21
352.081	2.09
352.45	2.01
352.82	2.08
353.19	2.04
353.56	1.76
353.929	1.65
354.299	1.45
354.669	1.52
355.038	1.66
355.408	1.88
355.777	2.17
356.147	1.57
356.516	2.09
356.885	1.74
357.254	1.7
357.624	1.6
357.993	1.81
358.362	2.19
358.731	1.93
359.1	1.6
359.469	1.58
359.838	1.82
360.207	1.92
360.576	2.14
360.945	1.49
361.314	2.01
361.682	2.11
362.051	2.36
362.42	2.28
362.788	1.88
363.157	2.23
363.525	2.22
363.894	1.99
364.262	1.93
364.631	1.67
364.999	1.82
365.367	2.31
365.735	1.95
366.104	1.92
366.472	1.86
366.84	1.88
367.208	2.09
367.576	1.81
367.944	2.22
368.312	2.06
368.68	2.05
369.048	2.04
369.416	2.05
369.783	2.21
370.151	2.32
370.519	1.9
370.886	2.05
371.254	1.7
371.621	2.31
371.989	1.86
372.356	1.96
372.724	2.1
373.091	1.88
373.458	1.76
373.826	2.19
374.193	1.78
374.56	2.01
374.927	2.07
375.294	2.08
375.661	2.26
376.028	2.35
376.395	2.27
376.762	2.34
377.129	2
377.496	1.97
377.863	2.04
378.229	2.01
378.596	1.93
378.963	1.98
379.329	1.99
379.696	2.16
380.062	2.45
380.429	2.19
380.795	2.08
381.161	2.05
381.528	2.03
381.894	2.02
382.26	1.93
382.626	2.13
382.993	2.29
383.359	1.87
383.725	1.95
384.091	1.93
384.457	1.85
384.823	2.31
385.188	2.24
385.554	2.29
385.92	1.96
386.286	2.02
386.651	2.3
387.017	2.22
387.383	2.14
387.748	1.94
388.114	2.21
388.479	2.31
388.845	1.91
389.21	2.23
389.575	1.85
389.94	2.15
390.306	2.19
390.671	1.98
391.036	2.12
391.401	2.19
391.766	2.44
392.131	2.29
392.496	2.17
392.861	2.1
393.226	2.36
393.591	2.09
393.956	1.96
394.32	2.27
394.685	2.1
395.05	2.08
395.414	2.21
395.779	2.36
396.143	2.41
396.508	2.07
396.872	2.01
397.236	2.17
397.601	2.05
397.965	2.11
398.329	2.14
398.694	2.21
399.058	2.26
399.422	2.04
399.786	2.29
400.15	2.03
400.514	2.3
400.878	2.15
401.242	2.1
401.605	2.32
401.969	2.17
402.333	2.35
402.697	2.11
403.06	2.16
403.424	2.38
403.787	1.97
404.151	2.38
404.514	1.91
404.878	1.77
405.241	2.27
405.604	2.13
405.968	2.17
406.331	2.4
406.694	2.36
407.057	2.08
407.42	2.11
407.783	2.2
408.146	2.17
408.509	2.36
408.872	2.26
409.235	2.26
409.598	2.26
409.961	2.34
410.323	2.31
410.686	2.13
411.049	2.23
411.411	2.22
411.774	2.24
412.136	2.27
412.499	2.3
412.861	2.31
413.223	2.28
413.586	2.07
413.948	2.1
414.31	2.37
414.672	2.31
415.035	2.37
415.397	2.28
415.759	2.31
416.121	2.15
416.483	2.23
416.845	2.08
417.206	2.39
417.568	2.14
417.93	2.34
418.292	2.26
418.653	2.4
419.015	2.15
419.377	2.19
419.738	2.26
420.1	2.17
420.461	2.25
420.822	2.33
421.184	2.18
421.545	2.34
421.906	2.2
422.267	2.18
422.629	2.31
422.99	2.3
423.351	2.25
423.712	2.26
424.073	2.2
424.434	2.26
424.795	2.24
425.155	2.21
425.516	2.13
425.877	2.26
426.238	2.19
426.598	2.14
426.959	2.25
427.32	2.19
427.68	2.16
428.041	2.29
428.401	2.2
428.761	2.22
429.122	2.46
429.482	2.46
429.842	2.43
430.202	2.21
430.563	2.27
430.923	2.43
431.283	2.23
431.643	2.36
432.003	2.29
432.363	2.41
432.722	2.35
433.082	2.34
433.442	2.29
433.802	2.39
434.161	2.35
434.521	2.34
434.881	2.26
435.24	2.28
435.6	2.33
435.959	2.34
436.319	2.44
436.678	2.29
437.037	2.24
437.396	2.24
437.756	2.17
438.115	2.31
438.474	2.28
438.833	2.5
439.192	2.46
439.551	2.28
439.91	2.15
440.269	2.27
440.628	2.34
440.987	2.23
441.345	2.44
441.704	2.31
442.063	2.3
442.421	2.3
442.78	2.28
443.138	2.23
443.497	2.26
443.855	2.33
444.214	2.4
444.572	2.32
444.93	2.31
445.288	2.27
445.647	2.3
446.005	2.35
446.363	2.01
446.721	2.24
447.079	2.32
447.437	2.18
447.795	2.26
448.153	2.29
448.51	2.34
448.868	2.33
449.226	2.45
449.584	2.33
449.941	2.27
450.299	2.25
450.656	2.32
451.014	2.28
451.371	2.32
451.729	2.43
452.086	2.34
452.443	2.47
452.801	2.37
453.158	2.21
453.515	2.33
453.872	2.41
454.229	2.47
454.586	2.12
454.943	2.19
455.3	2.3
455.657	2.3
456.014	2.45
456.371	2.51
456.727	2.43
457.084	2.33
457.441	2.38
457.797	2.36
458.154	2.2
458.51	2.24
458.867	2.38
459.223	2.39
459.58	2.29
459.936	2
460.292	2.34
460.648	2.41
461.005	2.3
461.361	2.28
461.717	2.3
462.073	2.27
462.429	2.35
462.785	2.24
463.141	2.34
463.496	2.19
463.852	2.47
464.208	2.36
464.564	2.32
464.919	2.59
465.275	2.34
465.631	2.34
465.986	2.34
466.342	2.18
466.697	2.39
467.052	2.74
467.408	2.52
467.763	2.27
468.118	2.42
468.473	2.42
468.829	2.28
469.184	2.33
469.539	2.42
469.894	2.53
470.249	2.46
470.603	2.38
470.958	2.35
471.313	2.66
471.668	2.56
472.023	2.41
472.377	2.3
472.732	2.44
473.086	2.41
473.441	2.44
473.795	2.38
474.15	2.49
474.504	2.18
474.859	2.29
475.213	2.28
475.567	2.34
475.921	2.44
476.275	2.29
476.63	2.41
476.984	2.3
477.338	2.44
477.692	2.26
478.045	2.32
478.399	2.33
478.753	2.47
479.107	2.34
479.461	2.5
479.814	2.37
480.168	2.4
480.521	2.35
480.875	2.41
481.228	2.45
481.582	2.39
481.935	2.43
482.289	2.39
482.642	2.49
482.995	2.31
483.348	2.38
483.701	2.48
484.055	2.37
484.408	2.4
484.761	2.31
485.114	2.31
485.466	2.2
485.819	2.21
486.172	2.24
486.525	2.29
486.878	2.29
487.23	2.33
487.583	2.31
487.936	2.29
488.288	2.28
488.641	2.35
488.993	2.32
489.345	2.3
489.698	2.25
490.05	2.3
490.402	2.36
490.754	2.35
491.107	2.3
491.459	2.31
491.811	2.37
492.163	2.3
492.515	2.44
492.866	2.26
493.218	2.33
493.57	2.26
493.922	2.3
494.274	2.35
494.625	2.39
494.977	2.43
495.328	2.46
495.68	2.32
496.031	2.53
496.383	2.34
496.734	2.46
497.086	2.37
497.437	2.45
497.788	2.43
498.139	2.32
498.49	2.44
498.842	2.41
499.193	2.33
499.544	2.48
499.894	2.36
500.245	2.47
500.596	2.4
500.947	2.41
501.298	2.48
501.648	2.48
501.999	2.37
502.35	2.44
502.7	2.46
503.051	2.45
503.401	2.34
503.752	2.55
504.102	2.43
504.452	2.44
504.803	2.49
505.153	2.44
505.503	2.56
505.853	2.53
506.203	2.49
506.553	2.38
506.903	2.49
507.253	2.47
507.603	2.55
507.953	2.55
508.303	2.61
508.652	2.4
509.002	2.53
509.352	2.3
509.701	2.47
510.051	2.51
510.4	2.45
510.75	2.38
511.099	2.42
511.449	2.47
511.798	2.48
512.147	2.46
512.496	2.53
512.846	2.45
513.195	2.39
513.544	2.49
513.893	2.49
514.242	2.41
514.591	2.48
514.939	2.58
515.288	2.49
515.637	2.41
515.986	2.43
516.334	2.53
516.683	2.36
517.032	2.54
517.38	2.45
517.729	2.59
518.077	2.4
518.426	2.52
518.774	2.53
519.122	2.45
519.47	2.44
519.819	2.36
520.167	2.42
520.515	2.37
520.863	2.5
521.211	2.41
521.559	2.4
521.907	2.39
522.255	2.52
522.602	2.54
522.95	2.48
523.298	2.48
523.645	2.57
523.993	2.52
524.341	2.54
524.688	2.37
525.036	2.6
525.383	2.49
525.73	2.43
526.078	2.51
526.425	2.43
526.772	2.33
527.119	2.42
527.466	2.48
527.814	2.38
528.161	2.43
528.508	2.5
528.854	2.42
529.201	2.47
529.548	2.43
529.895	2.36
530.242	2.34
530.588	2.35
530.935	2.38
531.282	2.38
531.628	2.44
531.975	2.4
532.321	2.39
532.667	2.37
533.014	2.36
533.36	2.41
533.706	2.39
534.052	2.39
534.399	2.48
534.745	2.37
535.091	2.36
535.437	2.4
535.783	2.36
536.129	2.42
536.474	2.37
536.82	2.41
537.166	2.48
537.512	2.39
537.857	2.51
538.203	2.41
538.549	2.41
538.894	2.49
539.239	2.39
539.585	2.47
539.93	2.5
540.276	2.46
540.621	2.44
540.966	2.37
541.311	2.4
541.656	2.4
542.001	2.47
542.346	2.48
542.691	2.4
543.036	2.34
543.381	2.28
543.726	2.39
544.071	2.43
544.415	2.35
544.76	2.44
545.105	2.42
545.449	2.51
545.794	2.41
546.138	2.32
546.483	2.52
546.827	2.41
547.171	2.55
547.516	2.42
547.86	2.55
548.204	2.47
548.548	2.48
548.892	2.52
549.236	2.5
549.58	2.43
549.924	2.5
550.268	2.53
550.612	2.36
550.956	2.59
551.3	2.73
551.643	2.62
551.987	2.65
552.33	2.47
552.674	2.59
553.017	2.61
553.361	2.61
553.704	2.47
554.048	2.62
554.391	2.47
554.734	2.53
555.077	2.56
555.42	2.48
555.764	2.55
556.107	2.52
556.45	2.45
556.793	2.56
557.135	2.51
557.478	2.55
557.821	2.63
558.164	2.46
558.507	2.54
558.849	2.51
559.192	2.54
559.534	2.48
559.877	2.49
560.219	2.36
560.562	2.52
560.904	2.74
561.246	2.63
561.589	2.44
561.931	2.49
562.273	2.36
562.615	2.57
562.957	2.48
563.299	2.58
563.641	2.6
563.983	2.59
564.325	2.52
564.667	2.64
565.008	2.32
565.35	2.41
565.692	2.5
566.033	2.68
566.375	2.49
566.716	2.42
567.058	2.68
567.399	2.52
567.741	2.61
568.082	2.4
568.423	2.48
568.764	2.61
569.105	2.38
569.447	2.45
569.788	2.62
570.129	2.51
570.47	2.56
570.811	2.53
571.151	2.62
571.492	2.6
571.833	2.58
572.174	2.54
572.514	2.57
572.855	2.45
573.195	2.37
573.536	2.49
573.876	2.55
574.217	2.53
574.557	2.54
574.898	2.48
575.238	2.51
575.578	2.35
575.918	2.57
576.258	2.64
576.598	2.52
576.938	2.53
577.278	2.63
577.618	2.58
577.958	2.36
578.298	2.61
578.638	2.46
578.977	2.51
579.317	2.42
579.657	2.58
579.996	2.59
580.336	2.8
580.675	2.57
581.014	2.68
581.354	2.46
581.693	2.44
582.032	2.24
582.372	2.49
582.711	2.56
583.05	2.46
583.389	2.71
583.728	2.59
584.067	2.8
584.406	2.54
584.745	2.46
585.083	2.3
585.422	2.85
585.761	2.76
586.1	2.59
586.438	2.5
586.777	2.61
587.115	2.55
587.454	2.6
587.792	2.44
588.13	2.75
588.469	2.62
588.807	2.47
589.145	2.7
589.483	2.62
589.821	2.65
590.159	2.55
590.497	2.66
590.835	2.51
591.173	2.64
591.511	2.62
591.849	2.44
592.187	2.59
592.524	2.4
592.862	2.49
593.2	2.61
593.537	2.34
593.875	2.53
594.212	2.39
594.55	2.71
594.887	2.96
595.224	2.69
595.561	2.74
595.899	2.46
596.236	2.49
596.573	2.42
596.91	2.71
597.247	2.54
597.584	2.55
597.921	2.57
598.258	2.66
598.594	2.69
598.931	2.54
599.268	2.45
599.604	2.49
599.941	2.54
600.277	2.47
600.614	2.69
600.95	2.73
601.287	2.69
601.623	2.57
601.959	2.3
602.296	2.39
602.632	2.31
602.968	2.49
603.304	2.36
603.64	2.87
603.976	2.45
604.312	2.5
604.648	2.49
604.984	2.76
605.319	2.64
605.655	2.33
605.991	2.47
606.326	2.52
606.662	2.49
606.998	2.41
607.333	2.42
607.668	2.57
608.004	2.45
608.339	2.61
608.674	2.45
609.01	2.52
609.345	2.63
609.68	2.45
610.015	2.51
610.35	2.46
610.685	2.77
611.02	2.69
611.355	2.63
611.689	2.45
612.024	2.5
612.359	2.63
612.694	2.46
613.028	2.59
613.363	2.53
613.697	2.45
614.032	2.63
614.366	2.83
614.7	2.48
615.035	2.52
615.369	2.36
615.703	2.49
616.037	2.37
616.371	2.41
616.705	2.68
617.039	2.57
617.373	2.56
617.707	2.45
618.041	2.6
618.375	2.22
618.709	2.14
619.042	2.57
619.376	2.49
619.71	2.44
620.043	2.31
620.377	2.35
620.71	2.14
621.043	2.4
621.377	2.36
621.71	2.58
622.043	2.7
622.376	2.62
622.709	2.42
623.043	2.52
623.376	3.05
623.709	2.54
624.041	2.82
624.374	2.45
624.707	2.31
625.04	2.41
625.373	3.13
625.705	2.54
626.038	2.44
626.37	2.74
626.703	2.66
627.035	2.29
627.368	2.67
627.7	2.43
628.032	2.13
628.365	2.4
628.697	2.58
629.029	2.42
629.361	2.36
629.693	2.42
630.025	2.4
630.357	2.63
630.689	2.35
631.021	2.82
631.353	2.66
631.684	2.42
632.016	2.43
632.348	2.68
632.679	2.06
633.011	3.07
633.342	2.7
633.674	2.79
634.005	2.73
634.336	2.61
634.668	2.3
634.999	2.58
635.33	2.83
635.661	2.94
635.992	2.23
636.323	2.05
636.654	2.45
636.985	2.58
637.316	2.44
637.647	2.38
637.977	2.86
638.308	2.61
638.639	2.54
638.969	2.51
639.3	2.41
639.63	2.93
639.961	2.51
640.291	2.34
640.622	2.58
640.952	2.58
641.282	2.48
641.612	2.56
641.943	2.35
642.273	2.48
642.603	3.2
642.933	2.08
643.263	2.14
643.592	2.85
643.922	2.54
644.252	2.77
644.582	2.07
644.911	2.79
645.241	2.08
645.571	3.04
645.9	2.22
646.23	2.4
646.559	2.9
646.888	2.3
647.218	2.36
647.547	2.32
647.876	2.68
648.205	2.7
648.534	2.8
648.863	2.59
649.192	3.09
649.521	3.23
649.85	1.99
650.179	2.75
650.508	2.94
650.837	2.7
651.165	2.24
651.494	2.33
651.822	2.45
652.151	2.53
652.479	2.85
652.808	2.81
653.136	2.82
653.465	2.84
653.793	2.63
654.121	2.36
654.449	2.63
654.777	2.48
655.105	3
655.433	2.81
655.761	2.61
656.089	2.18
656.417	2.76
656.745	2.46
657.073	1.64
657.4	2.63
657.728	2.11
658.056	2.89
658.383	1.86
658.711	2.29
659.038	2.53
659.365	2.49
659.693	2.61
660.02	2.44
660.347	2.56
660.674	2.73
661.001	2.48
661.329	2.68
661.656	2.39
661.982	2.4
662.309	2.57
662.636	2.41
662.963	2.64
663.29	3.06
663.616	2.2
663.943	2.94
664.27	2.59
664.596	2.12
664.923	2.96
665.249	2.23
665.576	2.62
665.902	2.97
666.228	3.1
666.554	2.64
666.881	2.27
667.207	2.48
667.533	2.3
667.859	2.36
668.185	2.55
668.511	3.01
668.837	2.42
669.162	3.66
669.488	2.6
669.814	2.79
670.139	2.37
670.465	2.45
670.791	2.41
671.116	2.24
671.442	2.45
671.767	2.68
672.092	2.8
672.418	2.82
672.743	2.61
673.068	1.8
673.393	2.58
673.718	2.7
674.043	3.32
674.368	2.1
674.693	2.09
675.018	2.44
675.343	2.46
675.667	2.47
675.992	2.35
676.317	2.12
676.641	2.59
676.966	2.47
677.29	3.13
677.615	2.69
677.939	2.76
678.264	2.91
678.588	2.67
678.912	2.36
679.236	2.27
679.56	3.17
679.885	2.58
680.209	2.06
680.532	2.56
680.856	2.4
681.18	2.77
681.504	2.6
681.828	2.81
682.152	2.25
682.475	2.8
682.799	2.43
683.122	2.62
683.446	2.97
683.769	3.27
684.093	2.09
684.416	2.44
684.739	2.6
685.062	2.79
685.386	2.41
685.709	2.89
686.032	2.41
686.355	2.45
686.678	2.77
687.001	2.71
687.324	2.28
687.646	3.39
687.969	2.31
688.292	2.35
688.614	2.41
688.937	2.12
689.26	2.73
689.582	2.43
689.904	1.94
690.227	2.73
690.549	2.89
690.871	2.4
691.194	2.66
691.516	2.72
691.838	2.17
692.16	2.58
