Data from 0393_crown_Reflection__0__157.txt Node

Date: Tue Dec 12 19:42:22 CST 2023
User: ToomeyLab
Spectrometer: FLMS14357
Trigger mode: 0
Integration Time (sec): 1.000000E-2
Scans to average: 100
Electric dark correction enabled: true
Nonlinearity correction enabled: false
Boxcar width: 0
XAxis mode: Wavelengths
Number of Pixels in Spectrum: 2048
>>>>>Begin Spectral Data<<<<<
189.047	-60.84
189.435	-60.84
189.823	-60.84
190.211	86.62
190.599	-122.3
190.987	182.67
191.375	-49.3
191.763	1325.07
192.151	75.05
192.538	-334.79
192.926	343.16
193.314	15323.81
193.702	-691.78
194.089	-123.65
194.477	372.4
194.864	57.3
195.252	-1.59
195.639	78.23
196.027	113.44
196.414	385.93
196.801	19.61
197.189	-560.98
197.576	-11.59
197.963	147.68
198.351	-24.28
198.738	5.5
199.125	18.14
199.512	-49.42
199.899	21.52
200.286	7.16
200.673	24.91
201.06	11.78
201.447	-64.78
201.833	-32.83
202.22	-10.08
202.607	-125.34
202.994	3.76
203.38	-37.84
203.767	-51.7
204.154	-24.51
204.54	0.12
204.927	-8.03
205.313	17.03
205.699	-23.62
206.086	6.81
206.472	41.52
206.858	24.03
207.245	15.16
207.631	32.46
208.017	21.82
208.403	3.59
208.789	5.69
209.175	-40.32
209.561	19.47
209.947	-47.13
210.333	25.97
210.719	-13.85
211.105	-4.56
211.491	13.32
211.876	23.43
212.262	1.82
212.648	-15.7
213.034	-72.07
213.419	-9.78
213.805	0.01
214.19	23.84
214.576	12.1
214.961	-3.84
215.346	-7.52
215.732	1.79
216.117	-15.94
216.502	-70.18
216.888	-45.9
217.273	-21.3
217.658	-14.96
218.043	-0.97
218.428	5.1
218.813	-24.72
219.198	-67.05
219.583	16.59
219.968	13.28
220.353	7.19
220.738	5.73
221.122	7.84
221.507	-0.51
221.892	17
222.276	8.63
222.661	-4.52
223.046	-29.04
223.43	8.67
223.815	-6.94
224.199	4.8
224.583	-7.85
224.968	7.7
225.352	-7.46
225.736	8.93
226.121	-5.6
226.505	5.46
226.889	-2.2
227.273	-0.02
227.657	2.61
228.041	6.36
228.425	4.21
228.809	0.7
229.193	1.18
229.577	1.98
229.961	0.81
230.344	2.86
230.728	3.93
231.112	3.39
231.495	2.76
231.879	2.89
232.263	2.04
232.646	2.43
233.03	1.8
233.413	1.66
233.797	2.02
234.18	2.25
234.563	1.47
234.946	2.7
235.33	4.26
235.713	3.86
236.096	2.58
236.479	3.59
236.862	3.01
237.245	1.85
237.628	2.4
238.011	3.55
238.394	2.04
238.777	3.69
239.16	2.95
239.543	4.37
239.925	2.78
240.308	1.5
240.691	2.38
241.073	3.38
241.456	3.2
241.838	2.65
242.221	3.3
242.603	3.78
242.986	2.51
243.368	2.71
243.75	2.12
244.133	2.77
244.515	2.9
244.897	3.11
245.279	3.07
245.661	2.74
246.043	2.74
246.425	3.61
246.807	1.47
247.189	3.42
247.571	3.05
247.953	2.58
248.335	2.65
248.717	2.79
249.098	2.88
249.48	2.56
249.862	2.6
250.243	2.43
250.625	3.22
251.006	2.62
251.388	3.14
251.769	3.57
252.151	1.74
252.532	2.45
252.913	3.62
253.295	3.33
253.676	2.73
254.057	2.3
254.438	2.72
254.819	1.91
255.2	2.68
255.581	2.31
255.962	1.92
256.343	3.55
256.724	2.5
257.105	3.62
257.486	2.54
257.867	1.87
258.247	1.9
258.628	1.79
259.009	2.19
259.389	2.13
259.77	2.93
260.15	2.34
260.531	3.32
260.911	3.19
261.292	2.29
261.672	2.34
262.052	2.64
262.432	2.67
262.813	2.57
263.193	2.59
263.573	2.2
263.953	3.34
264.333	3
264.713	2.72
265.093	2.36
265.473	2.32
265.853	1.52
266.233	2.27
266.612	2.54
266.992	2.57
267.372	2.9
267.752	2.98
268.131	1.54
268.511	2.09
268.89	1.62
269.27	1.7
269.649	2.36
270.029	1.98
270.408	3.06
270.787	2.35
271.167	2.31
271.546	3.19
271.925	2.84
272.304	3.04
272.683	2.23
273.062	2.35
273.441	2.66
273.82	2.11
274.199	2.19
274.578	2.3
274.957	2.11
275.336	2.33
275.715	2.26
276.093	1.88
276.472	2.58
276.851	2.15
277.229	1.76
277.608	1.95
277.986	2.02
278.365	2.7
278.743	2.2
279.122	2.72
279.5	2.15
279.878	1.75
280.257	2.01
280.635	1.97
281.013	2.37
281.391	2.43
281.769	2.55
282.147	2.48
282.525	1.47
282.903	2.23
283.281	1.85
283.659	2.05
284.037	2.06
284.415	2.27
284.792	2.22
285.17	2.32
285.548	2.68
285.925	1.8
286.303	2.1
286.68	2.15
287.058	2.47
287.435	2.36
287.813	1.96
288.19	2.34
288.567	2.13
288.945	2.32
289.322	1.79
289.699	2.2
290.076	2.16
290.453	2.44
290.83	1.94
291.207	2.57
291.584	2.33
291.961	2.08
292.338	2.13
292.715	2.15
293.092	2.32
293.469	2.28
293.845	2.43
294.222	1.93
294.599	2.73
294.975	1.77
295.352	1.99
295.728	2.51
296.105	2.48
296.481	2.73
296.858	2.54
297.234	2.32
297.61	1.94
297.986	2.5
298.363	2.26
298.739	2.27
299.115	2.18
299.491	2
299.867	2.15
300.243	2.22
300.619	2.09
300.995	2.8
301.371	2.27
301.746	2.83
302.122	2.87
302.498	2.34
302.874	2.24
303.249	2.56
303.625	1.75
304	2.04
304.376	2.34
304.751	2.46
305.127	2.06
305.502	2.61
305.878	2.35
306.253	1.9
306.628	2.23
307.003	2.1
307.378	2.06
307.754	2.38
308.129	2.39
308.504	2.67
308.879	1.76
309.254	2.33
309.629	2.12
310.003	2.25
310.378	2.27
310.753	2.04
311.128	2.5
311.502	1.82
311.877	2.03
312.252	1.5
312.626	1.95
313.001	1.92
313.375	1.96
313.75	2.26
314.124	2.06
314.498	2.13
314.873	1.85
315.247	2.52
315.621	2.17
315.995	2.45
316.369	2.36
316.743	2.5
317.117	1.36
317.491	2.06
317.865	2.37
318.239	2.28
318.613	2.47
318.987	2.49
319.361	2.18
319.734	2.53
320.108	2.56
320.482	1.59
320.855	2.11
321.229	2.24
321.602	2.87
321.976	2.39
322.349	2.27
322.723	2.37
323.096	2.36
323.469	2.5
323.843	3.08
324.216	2.59
324.589	2.46
324.962	3.11
325.335	3.08
325.708	2.12
326.081	2.73
326.454	2.44
326.827	2.56
327.2	2.71
327.573	2.06
327.945	2.49
328.318	2.79
328.691	1.81
329.063	2.33
329.436	2.49
329.809	2.33
330.181	1.98
330.553	2.74
330.926	2.32
331.298	2.23
331.671	2.49
332.043	2.3
332.415	1.99
332.787	2.48
333.159	2.01
333.532	2.32
333.904	2.14
334.276	2.7
334.648	1.68
335.02	2.03
335.391	2.73
335.763	2.19
336.135	2.29
336.507	3.09
336.879	2.53
337.25	2.42
337.622	2.36
337.993	1.83
338.365	1.83
338.736	2.49
339.108	2.4
339.479	2.76
339.851	2.11
340.222	1.76
340.593	2.67
340.964	2.44
341.336	2.18
341.707	1.92
342.078	1.92
342.449	2.23
342.82	2.38
343.191	2.14
343.562	2.13
343.933	2.75
344.303	2.22
344.674	2.2
345.045	2.1
345.416	2.67
345.786	2.2
346.157	2.29
346.527	2.45
346.898	2.08
347.268	2.32
347.639	2.56
348.009	2.21
348.38	2.23
348.75	2.94
349.12	2.67
349.49	1.95
349.861	3.02
350.231	2.41
350.601	2.66
350.971	2.36
351.341	2.76
351.711	2.34
352.081	2.42
352.45	2.3
352.82	2.45
353.19	2.53
353.56	2.05
353.929	2.15
354.299	2.11
354.669	2.42
355.038	1.87
355.408	2.02
355.777	2.77
356.147	2.37
356.516	2.43
356.885	2.34
357.254	2.65
357.624	2.39
357.993	2.33
358.362	2.82
358.731	2.46
359.1	2.37
359.469	2.37
359.838	2.47
360.207	2.35
360.576	2.45
360.945	2.48
361.314	2.56
361.682	2.55
362.051	2.8
362.42	2.71
362.788	2.41
363.157	2.77
363.525	2.49
363.894	2.49
364.262	2.4
364.631	2.37
364.999	2.38
365.367	2.54
365.735	2.35
366.104	2.39
366.472	2.41
366.84	2.48
367.208	2.45
367.576	2.53
367.944	2.43
368.312	2.82
368.68	2.67
369.048	2.74
369.416	2.46
369.783	2.71
370.151	2.74
370.519	2.5
370.886	2.38
371.254	2.29
371.621	2.5
371.989	2.42
372.356	2.64
372.724	2.37
373.091	2.37
373.458	2.45
373.826	2.53
374.193	2.12
374.56	2.73
374.927	2.48
375.294	2.54
375.661	2.72
376.028	2.81
376.395	3
376.762	2.73
377.129	2.58
377.496	2.66
377.863	2.59
378.229	2.7
378.596	2.45
378.963	2.6
379.329	2.49
379.696	2.54
380.062	3.25
380.429	2.53
380.795	2.66
381.161	2.71
381.528	2.64
381.894	2.8
382.26	2.41
382.626	2.65
382.993	2.84
383.359	2.61
383.725	2.6
384.091	2.58
384.457	2.43
384.823	2.77
385.188	2.58
385.554	2.58
385.92	2.62
386.286	2.55
386.651	2.83
387.017	2.84
387.383	2.59
387.748	2.88
388.114	2.74
388.479	2.55
388.845	2.67
389.21	2.58
389.575	2.61
389.94	2.62
390.306	2.66
390.671	2.55
391.036	3.05
391.401	2.66
391.766	2.92
392.131	2.77
392.496	2.59
392.861	2.69
393.226	2.75
393.591	2.71
393.956	2.67
394.32	2.61
394.685	2.8
395.05	2.63
395.414	2.56
395.779	2.54
396.143	2.9
396.508	2.82
396.872	2.7
397.236	2.74
397.601	2.59
397.965	2.62
398.329	2.9
398.694	2.47
399.058	2.89
399.422	2.75
399.786	2.7
400.15	2.45
400.514	2.69
400.878	2.85
401.242	2.81
401.605	2.94
401.969	2.75
402.333	2.72
402.697	2.64
403.06	2.61
403.424	2.83
403.787	2.56
404.151	2.69
404.514	2.49
404.878	2.69
405.241	2.87
405.604	2.57
405.968	2.56
406.331	2.93
406.694	2.88
407.057	2.8
407.42	2.68
407.783	2.6
408.146	2.89
408.509	2.9
408.872	2.72
409.235	2.78
409.598	2.62
409.961	2.82
410.323	2.88
410.686	2.81
411.049	2.73
411.411	2.83
411.774	2.94
412.136	2.81
412.499	2.8
412.861	2.81
413.223	3.1
413.586	2.74
413.948	2.7
414.31	2.89
414.672	2.99
415.035	2.72
415.397	2.62
415.759	2.75
416.121	2.84
416.483	2.66
416.845	2.66
417.206	3.05
417.568	2.73
417.93	2.87
418.292	2.88
418.653	2.85
419.015	2.62
419.377	2.7
419.738	2.64
420.1	2.81
420.461	2.85
420.822	2.75
421.184	2.67
421.545	2.93
421.906	2.71
422.267	2.65
422.629	2.71
422.99	2.7
423.351	2.71
423.712	2.61
424.073	2.74
424.434	2.72
424.795	2.87
425.155	2.65
425.516	2.58
425.877	2.75
426.238	2.73
426.598	2.71
426.959	2.71
427.32	2.79
427.68	2.65
428.041	2.86
428.401	2.87
428.761	2.71
429.122	2.84
429.482	2.97
429.842	2.85
430.202	2.79
430.563	2.76
430.923	2.95
431.283	2.73
431.643	2.82
432.003	2.82
432.363	2.81
432.722	2.75
433.082	2.79
433.442	2.76
433.802	2.93
434.161	2.81
434.521	2.88
434.881	2.83
435.24	2.85
435.6	2.76
435.959	2.72
436.319	2.82
436.678	2.81
437.037	2.85
437.396	2.63
437.756	2.8
438.115	2.83
438.474	2.76
438.833	2.98
439.192	2.93
439.551	2.91
439.91	2.78
440.269	2.8
440.628	2.72
440.987	2.7
441.345	2.86
441.704	2.83
442.063	2.81
442.421	2.79
442.78	2.76
443.138	2.81
443.497	2.94
443.855	2.82
444.214	2.89
444.572	2.79
444.93	2.76
445.288	2.58
445.647	2.82
446.005	2.77
446.363	2.67
446.721	2.75
447.079	2.81
447.437	2.68
447.795	2.89
448.153	2.78
448.51	2.8
448.868	2.84
449.226	2.8
449.584	2.81
449.941	2.81
450.299	2.88
450.656	2.72
451.014	2.82
451.371	2.87
451.729	2.98
452.086	2.9
452.443	2.88
452.801	2.91
453.158	2.88
453.515	2.92
453.872	2.7
454.229	2.83
454.586	2.59
454.943	2.73
455.3	2.89
455.657	2.84
456.014	2.9
456.371	3.01
456.727	2.92
457.084	2.74
457.441	2.87
457.797	3.01
458.154	2.67
458.51	2.78
458.867	2.99
459.223	3.01
459.58	2.81
459.936	2.75
460.292	2.75
460.648	2.81
461.005	2.9
461.361	2.78
461.717	2.78
462.073	2.74
462.429	2.88
462.785	2.78
463.141	2.73
463.496	2.78
463.852	3.08
464.208	2.88
464.564	2.92
464.919	2.95
465.275	2.99
465.631	2.9
465.986	2.76
466.342	2.79
466.697	2.72
467.052	3.05
467.408	2.86
467.763	2.98
468.118	2.93
468.473	2.95
468.829	3.02
469.184	2.71
469.539	3.05
469.894	3.09
470.249	2.91
470.603	2.96
470.958	2.93
471.313	3.07
471.668	2.98
472.023	2.91
472.377	2.74
472.732	2.94
473.086	2.9
473.441	2.98
473.795	2.94
474.15	3.07
474.504	2.74
474.859	2.84
475.213	2.82
475.567	2.92
475.921	2.95
476.275	2.78
476.63	2.88
476.984	2.81
477.338	2.88
477.692	2.83
478.045	2.84
478.399	2.77
478.753	2.83
479.107	2.89
479.461	2.9
479.814	2.86
480.168	2.76
480.521	2.84
480.875	2.85
481.228	3.03
481.582	2.87
481.935	2.9
482.289	3.02
482.642	3.04
482.995	2.83
483.348	2.8
483.701	2.99
484.055	2.87
484.408	2.76
484.761	2.71
485.114	2.72
485.466	2.68
485.819	2.65
486.172	2.65
486.525	2.72
486.878	2.79
487.23	2.73
487.583	2.74
487.936	2.82
488.288	2.74
488.641	2.77
488.993	2.72
489.345	2.73
489.698	2.69
490.05	2.72
490.402	2.73
490.754	2.81
491.107	2.82
491.459	2.83
491.811	2.84
492.163	2.81
492.515	2.78
492.866	2.71
493.218	2.69
493.57	2.7
493.922	2.66
494.274	2.78
494.625	2.88
494.977	2.81
495.328	2.95
495.68	2.83
496.031	2.9
496.383	2.91
496.734	2.88
497.086	2.77
497.437	2.8
497.788	2.88
498.139	2.84
498.49	2.93
498.842	2.86
499.193	2.81
499.544	2.92
499.894	2.81
500.245	2.92
500.596	2.89
500.947	2.96
501.298	2.98
501.648	3.05
501.999	2.93
502.35	3.01
502.7	2.98
503.051	2.87
503.401	2.97
503.752	2.92
504.102	2.85
504.452	2.9
504.803	2.96
505.153	2.94
505.503	2.92
505.853	3.01
506.203	2.84
506.553	2.93
506.903	2.87
507.253	2.87
507.603	2.95
507.953	2.94
508.303	2.94
508.652	2.96
509.002	2.99
509.352	2.86
509.701	2.89
510.051	2.87
510.4	2.81
510.75	2.88
511.099	2.81
511.449	2.83
511.798	2.89
512.147	2.85
512.496	3.02
512.846	2.93
513.195	2.81
513.544	2.88
513.893	2.95
514.242	2.88
514.591	2.86
514.939	2.86
515.288	2.92
515.637	2.84
515.986	2.92
516.334	2.88
516.683	2.83
517.032	2.93
517.38	2.79
517.729	2.98
518.077	2.87
518.426	2.94
518.774	2.99
519.122	2.91
519.47	2.89
519.819	2.74
520.167	2.8
520.515	2.84
520.863	2.88
521.211	2.85
521.559	2.91
521.907	2.82
522.255	2.88
522.602	2.95
522.95	2.81
523.298	2.89
523.645	2.94
523.993	2.92
524.341	3.01
524.688	2.93
525.036	3.06
525.383	2.84
525.73	2.72
526.078	2.95
526.425	2.84
526.772	2.84
527.119	2.86
527.466	2.74
527.814	2.71
528.161	2.83
528.508	2.8
528.854	2.83
529.201	2.8
529.548	2.8
529.895	2.72
530.242	2.65
530.588	2.65
530.935	2.73
531.282	2.78
531.628	2.82
531.975	2.82
532.321	2.77
532.667	2.77
533.014	2.82
533.36	2.79
533.706	2.79
534.052	2.8
534.399	2.84
534.745	2.77
535.091	2.7
535.437	2.75
535.783	2.79
536.129	2.85
536.474	2.85
536.82	2.9
537.166	2.92
537.512	2.88
537.857	2.88
538.203	2.92
538.549	2.82
538.894	2.92
539.239	2.82
539.585	2.84
539.93	2.88
540.276	2.82
540.621	2.91
540.966	2.78
541.311	2.79
541.656	2.94
542.001	2.88
542.346	2.84
542.691	2.85
543.036	2.67
543.381	2.66
543.726	2.79
544.071	2.78
544.415	2.78
544.76	2.79
545.105	2.87
545.449	2.87
545.794	2.9
546.138	2.84
546.483	2.84
546.827	2.92
547.171	2.92
547.516	2.82
547.86	2.88
548.204	2.85
548.548	2.84
548.892	2.86
549.236	2.81
549.58	2.88
549.924	2.91
550.268	2.9
550.612	2.79
550.956	2.96
551.3	3.05
551.643	2.98
551.987	3.08
552.33	2.92
552.674	3.09
553.017	2.82
553.361	2.99
553.704	2.89
554.048	3.03
554.391	2.94
554.734	2.82
555.077	2.95
555.42	2.91
555.764	2.87
556.107	2.95
556.45	2.75
556.793	2.88
557.135	2.91
557.478	2.99
557.821	2.92
558.164	2.99
558.507	3.07
558.849	3.06
559.192	2.79
559.534	2.98
559.877	3.14
560.219	2.96
560.562	2.96
560.904	2.95
561.246	3.04
561.589	2.88
561.931	2.96
562.273	2.87
562.615	2.88
562.957	2.94
563.299	2.94
563.641	2.9
563.983	2.92
564.325	2.99
564.667	2.96
565.008	2.8
565.35	2.85
565.692	3
566.033	3.07
566.375	2.86
566.716	2.79
567.058	2.9
567.399	2.96
567.741	2.92
568.082	3.03
568.423	2.87
568.764	3.04
569.105	2.84
569.447	3.08
569.788	2.94
570.129	2.94
570.47	3.01
570.811	2.99
571.151	2.93
571.492	2.96
571.833	2.99
572.174	3
572.514	3.05
572.855	2.77
573.195	2.84
573.536	2.8
573.876	2.81
574.217	2.91
574.557	2.79
574.898	2.83
575.238	2.91
575.578	2.9
575.918	2.83
576.258	2.96
576.598	2.93
576.938	2.86
577.278	2.87
577.618	2.99
577.958	2.84
578.298	2.94
578.638	2.64
578.977	2.9
579.317	2.77
579.657	2.84
579.996	2.9
580.336	3.03
580.675	2.98
581.014	2.87
581.354	2.81
581.693	2.96
582.032	2.77
582.372	3.08
582.711	2.89
583.05	3.09
583.389	3.13
583.728	3.1
584.067	3.26
584.406	3.17
584.745	3.04
585.083	2.7
585.422	3.07
585.761	3.06
586.1	2.81
586.438	2.99
586.777	2.8
587.115	2.7
587.454	3.07
587.792	2.81
588.13	3.02
588.469	2.95
588.807	2.82
589.145	3.05
589.483	2.9
589.821	3.05
590.159	3.01
590.497	2.92
590.835	2.96
591.173	2.98
591.511	2.94
591.849	2.83
592.187	2.96
592.524	2.61
592.862	2.81
593.2	2.82
593.537	2.81
593.875	3.06
594.212	2.98
594.55	2.94
594.887	3.31
595.224	2.91
595.561	3.04
595.899	2.92
596.236	2.93
596.573	2.87
596.91	3.13
597.247	2.85
597.584	2.86
597.921	2.87
598.258	3.13
598.594	3
598.931	2.83
599.268	2.7
599.604	2.84
599.941	2.77
600.277	2.8
600.614	2.99
600.95	3.02
601.287	2.87
601.623	3.05
601.959	2.84
602.296	3.34
602.632	2.64
602.968	2.94
603.304	2.66
603.64	3.12
603.976	2.77
604.312	2.91
604.648	2.91
604.984	2.78
605.319	2.89
605.655	2.95
605.991	2.91
606.326	2.81
606.662	2.87
606.998	2.76
607.333	2.86
607.668	2.88
608.004	2.75
608.339	2.99
608.674	3.15
609.01	2.9
609.345	2.91
609.68	2.94
610.015	2.73
610.35	3.05
610.685	2.91
611.02	2.91
611.355	2.83
611.689	2.9
612.024	2.78
612.359	2.96
612.694	2.97
613.028	2.8
613.363	2.91
613.697	3.07
614.032	2.96
614.366	3.11
614.7	2.91
615.035	2.9
615.369	2.76
615.703	3.02
616.037	2.87
616.371	2.74
616.705	2.77
617.039	2.79
617.373	2.69
617.707	2.75
618.041	3.23
618.375	2.54
618.709	2.72
619.042	2.88
619.376	2.63
619.71	3.14
620.043	2.84
620.377	2.86
620.71	2.82
621.043	2.61
621.377	2.6
621.71	2.9
622.043	2.86
622.376	3.11
622.709	3.12
623.043	2.84
623.376	3.26
623.709	3.08
624.041	2.86
624.374	3.03
624.707	3.16
625.04	3.02
625.373	3.43
625.705	3.11
626.038	2.97
626.37	3.35
626.703	3.24
627.035	2.6
627.368	3.31
627.7	2.93
628.032	2.73
628.365	2.95
628.697	2.96
629.029	2.79
629.361	2.7
629.693	2.84
630.025	2.44
630.357	3.02
630.689	2.87
631.021	3.04
631.353	2.9
631.684	2.89
632.016	2.8
632.348	3.05
632.679	2.83
633.011	3.35
633.342	3.07
633.674	2.95
634.005	3.03
634.336	3.17
634.668	2.94
634.999	3.1
635.33	2.82
635.661	2.94
635.992	2.82
636.323	2.72
636.654	2.93
636.985	2.85
637.316	3.04
637.647	2.69
637.977	2.94
638.308	3.16
638.639	2.74
638.969	2.88
639.3	2.83
639.63	2.96
639.961	2.84
640.291	2.22
640.622	3.14
640.952	2.9
641.282	3.1
641.612	2.81
641.943	3.11
642.273	3.08
642.603	3.04
642.933	2.89
643.263	2.45
643.592	2.99
643.922	2.9
644.252	3.1
644.582	2.43
644.911	2.92
645.241	2.37
645.571	3.38
645.9	3.11
646.23	2.72
646.559	3.05
646.888	2.98
647.218	2.82
647.547	2.85
647.876	2.9
648.205	2.62
648.534	3.1
648.863	2.73
649.192	3.35
649.521	3.13
649.85	2.73
650.179	3.13
650.508	3.26
650.837	3.07
651.165	2.67
651.494	2.84
651.822	3.12
652.151	3.2
652.479	2.72
652.808	3.4
653.136	2.88
653.465	3.17
653.793	2.59
654.121	2.94
654.449	2.89
654.777	3.14
655.105	2.99
655.433	3.1
655.761	3.25
656.089	2.58
656.417	2.89
656.745	2.73
657.073	2.52
657.4	3.41
657.728	2.71
658.056	3.19
658.383	2.77
658.711	2.8
659.038	2.83
659.365	2.9
659.693	2.9
660.02	2.75
660.347	3.08
660.674	2.65
661.001	2.78
661.329	2.87
661.656	2.65
661.982	2.82
662.309	3.14
662.636	3.12
662.963	2.85
663.29	3.04
663.616	2.77
663.943	2.97
664.27	3.2
664.596	3.16
664.923	3.89
665.249	2.59
665.576	3.25
665.902	2.9
666.228	3.04
666.554	2.53
666.881	2.34
667.207	2.81
667.533	2.74
667.859	3.21
668.185	3.08
668.511	3.15
668.837	2.15
669.162	3.46
669.488	2.72
669.814	2.82
670.139	2.35
670.465	2.14
670.791	3.22
671.116	2.78
671.442	2.83
671.767	2.66
672.092	3.71
672.418	3.03
672.743	3.13
673.068	2.47
673.393	2.81
673.718	2.98
674.043	3.14
674.368	2.06
674.693	2.66
675.018	2.47
675.343	2.79
675.667	2.66
675.992	2.27
676.317	2.4
676.641	3.18
676.966	3.06
677.29	2.69
677.615	2.55
677.939	2.92
678.264	3.52
678.588	2.7
678.912	2.83
679.236	2.73
679.56	3.49
679.885	3.45
680.209	3.47
680.532	3.46
680.856	3.17
681.18	2.51
681.504	2.79
681.828	2.89
682.152	2.52
682.475	3.07
682.799	3.23
683.122	2.5
683.446	2.98
683.769	3.14
684.093	2.25
684.416	2.81
684.739	3.52
685.062	2.82
685.386	2.61
685.709	3.17
686.032	2.61
686.355	2.63
686.678	3.31
687.001	3.53
687.324	2.97
687.646	3.08
687.969	2.9
688.292	2.76
688.614	2.62
688.937	3.01
689.26	2.52
689.582	2.9
689.904	2.85
690.227	2.78
690.549	3.04
690.871	2.99
691.194	3.04
691.516	3.29
691.838	2.59
692.16	3.54
692.482	2.31
