Data from 0393_forehead_Reflection__3__165.txt Node

Date: Tue Dec 12 19:44:15 CST 2023
User: ToomeyLab
Spectrometer: FLMS14357
Trigger mode: 0
Integration Time (sec): 1.000000E-2
Scans to average: 100
Electric dark correction enabled: true
Nonlinearity correction enabled: false
Boxcar width: 0
XAxis mode: Wavelengths
Number of Pixels in Spectrum: 2048
>>>>>Begin Spectral Data<<<<<
189.047	-30.64
189.435	-30.64
189.823	-30.64
190.211	55.26
190.599	-89.76
190.987	292.36
191.375	-81.32
191.763	-139.58
192.151	125.14
192.538	-378.69
192.926	244.56
193.314	23928.57
193.702	-657.21
194.089	-38.23
194.477	-409.15
194.864	85.2
195.252	22.22
195.639	33.3
196.027	148
196.414	610.87
196.801	12.9
197.189	-872.36
197.576	-52.64
197.963	107.45
198.351	42.46
198.738	75.47
199.125	34.13
199.512	57.66
199.899	60.01
200.286	33.53
200.673	4.03
201.06	41.55
201.447	-98.48
201.833	28.87
202.22	98.77
202.607	8.78
202.994	44.88
203.38	43.03
203.767	28.83
204.154	11.18
204.54	51.96
204.927	14.97
205.313	19.59
205.699	9.97
206.086	78.83
206.472	30.79
206.858	42.55
207.245	48.52
207.631	42.73
208.017	42.53
208.403	32.73
208.789	51.35
209.175	-3.23
209.561	15.3
209.947	27.71
210.333	42.04
210.719	81.82
211.105	24.28
211.491	43.84
211.876	20.81
212.262	66.99
212.648	20.75
213.034	21.56
213.419	55.52
213.805	53.81
214.19	48.58
214.576	60.54
214.961	29.15
215.346	13.27
215.732	24.11
216.117	58.76
216.502	9.13
216.888	38.29
217.273	31.52
217.658	11.21
218.043	33.33
218.428	27.54
218.813	42.21
219.198	8.17
219.583	43.8
219.968	21.96
220.353	8.69
220.738	25.86
221.122	42.55
221.507	6.8
221.892	-2.67
222.276	16.44
222.661	12.47
223.046	-2.79
223.43	23.43
223.815	1.5
224.199	17.22
224.583	2.38
224.968	13.29
225.352	11.22
225.736	11.73
226.121	-3.68
226.505	-1.74
226.889	10.49
227.273	6.14
227.657	12.57
228.041	8.37
228.425	5.82
228.809	5.33
229.193	5.26
229.577	6.16
229.961	4.62
230.344	6.36
230.728	5.8
231.112	6.52
231.495	6.29
231.879	6.23
232.263	7.11
232.646	5.05
233.03	6.43
233.413	5.34
233.797	4.06
234.18	5.33
234.563	6.44
234.946	6.27
235.33	6.87
235.713	4.53
236.096	4.29
236.479	5.86
236.862	5.27
237.245	7.04
237.628	4.84
238.011	6.21
238.394	6.37
238.777	7.29
239.16	8.24
239.543	5.97
239.925	5.8
240.308	6.92
240.691	5.18
241.073	8.01
241.456	7.17
241.838	6.23
242.221	6.64
242.603	6.71
242.986	5.36
243.368	5.9
243.75	5.41
244.133	5.68
244.515	5.74
244.897	5.8
245.279	6.27
245.661	5.18
246.043	6.25
246.425	6.65
246.807	4.68
247.189	5.61
247.571	6.15
247.953	5.24
248.335	5.58
248.717	5.6
249.098	5.39
249.48	5.34
249.862	5.05
250.243	5.31
250.625	5.84
251.006	5.95
251.388	6.55
251.769	6.75
252.151	5.38
252.532	6.56
252.913	6.43
253.295	7.33
253.676	5.7
254.057	6.01
254.438	5.76
254.819	4.87
255.2	5.6
255.581	5.81
255.962	5.28
256.343	6.41
256.724	6.47
257.105	7.15
257.486	5.65
257.867	5.58
258.247	6.06
258.628	5.44
259.009	5.68
259.389	6.39
259.77	5.86
260.15	5.15
260.531	6.01
260.911	6.13
261.292	5.45
261.672	5.36
262.052	5.44
262.432	5.8
262.813	5.73
263.193	5.83
263.573	5.61
263.953	6.43
264.333	6.44
264.713	5.86
265.093	5.95
265.473	6.73
265.853	6.16
266.233	5.46
266.612	5.86
266.992	6.34
267.372	6.31
267.752	6.86
268.131	5.05
268.511	5.13
268.89	5.04
269.27	5.38
269.649	6.46
270.029	5.97
270.408	5.95
270.787	5.41
271.167	5.35
271.546	6.47
271.925	6.01
272.304	6.42
272.683	5.46
273.062	5.58
273.441	5.79
273.82	5.01
274.199	5.6
274.578	5.41
274.957	5.72
275.336	5.69
275.715	6.07
276.093	5.01
276.472	6.33
276.851	6.52
277.229	5.21
277.608	5.84
277.986	5.28
278.365	5.56
278.743	5.71
279.122	6.28
279.5	5.43
279.878	5.27
280.257	5.16
280.635	5.41
281.013	6.04
281.391	5.54
281.769	5.59
282.147	5.52
282.525	5.33
282.903	5.64
283.281	5.26
283.659	5.77
284.037	5.95
284.415	5.45
284.792	5.93
285.17	5.67
285.548	5.98
285.925	5.63
286.303	5.65
286.68	5.97
287.058	5.82
287.435	5.6
287.813	5.62
288.19	5.71
288.567	5.78
288.945	5.65
289.322	5.69
289.699	5.95
290.076	5.53
290.453	5.98
290.83	5.99
291.207	6.15
291.584	5.91
291.961	6.39
292.338	6.11
292.715	6.44
293.092	6.4
293.469	6.24
293.845	6.26
294.222	6.91
294.599	7.13
294.975	6.05
295.352	6.88
295.728	7.03
296.105	6.74
296.481	7.03
296.858	7.27
297.234	7.19
297.61	7.18
297.986	7.53
298.363	7.18
298.739	7.2
299.115	6.57
299.491	7.37
299.867	6.99
300.243	7.64
300.619	7.47
300.995	7.68
301.371	7.69
301.746	7.88
302.122	8.34
302.498	8.18
302.874	7.77
303.249	8.47
303.625	8.01
304	8.17
304.376	8.56
304.751	8.27
305.127	8.38
305.502	8.56
305.878	8.39
306.253	8.36
306.628	8.25
307.003	8.43
307.378	9.15
307.754	8.86
308.129	8.12
308.504	9.88
308.879	9.03
309.254	9.85
309.629	9.19
310.003	9.6
310.378	9.86
310.753	9.86
311.128	9.97
311.502	9.62
311.877	9.61
312.252	9.41
312.626	9.7
313.001	9.87
313.375	9.62
313.75	10.12
314.124	10.39
314.498	10.1
314.873	9.93
315.247	10.59
315.621	10.53
315.995	11.1
316.369	11.04
316.743	10.45
317.117	10.85
317.491	10.68
317.865	11.07
318.239	10.89
318.613	11.89
318.987	11.88
319.361	11.15
319.734	11.12
320.108	11.7
320.482	11.59
320.855	11.28
321.229	11.83
321.602	12.04
321.976	11.77
322.349	12.08
322.723	11.93
323.096	12.24
323.469	12.2
323.843	13.08
324.216	12.93
324.589	12.27
324.962	12.83
325.335	13.16
325.708	12.93
326.081	12.66
326.454	12.94
326.827	13.29
327.2	13.43
327.573	12.72
327.945	13.19
328.318	13.7
328.691	12.66
329.063	13.84
329.436	13.88
329.809	13.87
330.181	13.55
330.553	13.85
330.926	14.73
331.298	14.01
331.671	14.48
332.043	14.27
332.415	14.24
332.787	14.24
333.159	14.6
333.532	14.42
333.904	14.35
334.276	15.03
334.648	13.88
335.02	14.62
335.391	14.67
335.763	15.13
336.135	15.02
336.507	15.27
336.879	14.86
337.25	14.85
337.622	14.84
337.993	14.75
338.365	14.73
338.736	15.11
339.108	15.13
339.479	15.76
339.851	15.21
340.222	15.37
340.593	15.81
340.964	15.76
341.336	16.21
341.707	15.85
342.078	15.45
342.449	15.79
342.82	15.99
343.191	16.2
343.562	16.16
343.933	16.34
344.303	16.44
344.674	16.75
345.045	16.62
345.416	16.77
345.786	16.41
346.157	17.03
346.527	17.25
346.898	16.32
347.268	16.92
347.639	17.1
348.009	17.05
348.38	17.03
348.75	17.31
349.12	17.34
349.49	16.89
349.861	17.58
350.231	17.33
350.601	17.65
350.971	17.79
351.341	17.64
351.711	17.91
352.081	17.9
352.45	17.88
352.82	17.95
353.19	18.16
353.56	18.22
353.929	17.88
354.299	18
354.669	18.2
355.038	18.01
355.408	18.19
355.777	18.75
356.147	18.51
356.516	18.82
356.885	18.88
357.254	18.74
357.624	18.59
357.993	18.75
358.362	18.8
358.731	19.03
359.1	18.77
359.469	18.96
359.838	18.94
360.207	19.06
360.576	19.63
360.945	19.39
361.314	19.78
361.682	19.88
362.051	19.76
362.42	19.76
362.788	19.27
363.157	19.57
363.525	19.43
363.894	19.36
364.262	19.88
364.631	19.93
364.999	20.07
365.367	19.93
365.735	19.98
366.104	19.99
366.472	20.42
366.84	20.61
367.208	20.13
367.576	20.65
367.944	21.03
368.312	21.33
368.68	20.83
369.048	20.75
369.416	20.9
369.783	21.23
370.151	21.13
370.519	21.24
370.886	21.63
371.254	21.21
371.621	21.58
371.989	21.21
372.356	21.76
372.724	21.95
373.091	21.79
373.458	21.71
373.826	21.74
374.193	21.61
374.56	22.08
374.927	22.08
375.294	21.66
375.661	22.32
376.028	22.3
376.395	22.3
376.762	22.7
377.129	22.74
377.496	22.59
377.863	22.52
378.229	22.55
378.596	22.66
378.963	22.72
379.329	22.69
379.696	22.8
380.062	23.45
380.429	23.16
380.795	23.38
381.161	23.64
381.528	23.31
381.894	23.28
382.26	23.29
382.626	23.39
382.993	23.83
383.359	23.4
383.725	23.64
384.091	23.9
384.457	24.06
384.823	24.09
385.188	23.99
385.554	24.28
385.92	24.5
386.286	23.92
386.651	24.19
387.017	24.43
387.383	24.59
387.748	24.3
388.114	24.72
388.479	24.92
388.845	24.84
389.21	25.01
389.575	24.79
389.94	24.97
390.306	24.85
390.671	25.07
391.036	25.12
391.401	25.25
391.766	25.45
392.131	25.55
392.496	25.28
392.861	25.39
393.226	25.63
393.591	25.26
393.956	25.38
394.32	25.68
394.685	25.94
395.05	25.73
395.414	25.75
395.779	26
396.143	26.36
396.508	25.82
396.872	25.99
397.236	26.13
397.601	26.33
397.965	26.52
398.329	26.47
398.694	26.41
399.058	26.73
399.422	26.69
399.786	26.62
400.15	26.6
400.514	26.91
400.878	26.88
401.242	26.99
401.605	27.46
401.969	27.12
402.333	27.34
402.697	27.44
403.06	27.36
403.424	27.53
403.787	27.15
404.151	28.09
404.514	27.62
404.878	27.16
405.241	27.54
405.604	27.5
405.968	27.64
406.331	28.06
406.694	28.15
407.057	27.89
407.42	27.92
407.783	28.15
408.146	27.99
408.509	28.09
408.872	28.43
409.235	28.08
409.598	28.51
409.961	28.86
410.323	28.77
410.686	28.88
411.049	28.79
411.411	28.69
411.774	28.93
412.136	29.04
412.499	28.94
412.861	29.16
413.223	29.54
413.586	29.26
413.948	29.27
414.31	29.47
414.672	29.58
415.035	29.56
415.397	29.68
415.759	29.73
416.121	29.98
416.483	29.7
416.845	29.89
417.206	29.96
417.568	29.79
417.93	29.78
418.292	29.8
418.653	29.88
419.015	30.11
419.377	30.17
419.738	30.2
420.1	29.88
420.461	29.94
420.822	30.04
421.184	30.19
421.545	30.27
421.906	30.09
422.267	30.12
422.629	30.26
422.99	30.1
423.351	30.14
423.712	30.26
424.073	30.4
424.434	30.54
424.795	30.68
425.155	30.82
425.516	30.62
425.877	30.65
426.238	30.78
426.598	30.92
426.959	31.11
427.32	30.99
427.68	31.29
428.041	31.33
428.401	31.53
428.761	31.68
429.122	31.81
429.482	32.12
429.842	32.24
430.202	32.14
430.563	32.03
430.923	32.17
431.283	32.36
431.643	32.39
432.003	32.34
432.363	32.64
432.722	32.84
433.082	32.88
433.442	32.97
433.802	33.14
434.161	32.82
434.521	32.89
434.881	32.91
435.24	33.24
435.6	32.99
435.959	33.12
436.319	33.11
436.678	33.55
437.037	33.52
437.396	33.38
437.756	33.41
438.115	33.86
438.474	33.49
438.833	34.16
439.192	33.75
439.551	33.59
439.91	33.82
440.269	33.81
440.628	33.84
440.987	33.76
441.345	33.85
441.704	34.03
442.063	33.91
442.421	34.04
442.78	34.18
443.138	34.12
443.497	34.19
443.855	34.46
444.214	34.68
444.572	34.65
444.93	34.48
445.288	34.95
445.647	34.89
446.005	34.73
446.363	34.83
446.721	34.87
447.079	34.74
447.437	34.84
447.795	34.82
448.153	34.82
448.51	34.85
448.868	34.96
449.226	35.02
449.584	35.15
449.941	35.37
450.299	35.48
450.656	35.42
451.014	35.81
451.371	35.74
451.729	35.9
452.086	35.93
452.443	36.13
452.801	36.35
453.158	36.17
453.515	36.41
453.872	36.17
454.229	36.44
454.586	36.53
454.943	36.42
455.3	36.41
455.657	36.72
456.014	36.81
456.371	36.91
456.727	36.95
457.084	36.84
457.441	37.2
457.797	37.06
458.154	37.17
458.51	37.06
458.867	37.28
459.223	37.24
459.58	37.36
459.936	37.12
460.292	37.33
460.648	37.19
461.005	37.32
461.361	37.06
461.717	37.17
462.073	37.07
462.429	37.12
462.785	37.55
463.141	37.58
463.496	37.88
463.852	38.39
464.208	38.37
464.564	38.3
464.919	38.35
465.275	38.12
465.631	38.52
465.986	38.84
466.342	38.59
466.697	38.86
467.052	38.86
467.408	38.88
467.763	38.9
468.118	38.71
468.473	38.93
468.829	38.77
469.184	39.02
469.539	39.5
469.894	39.28
470.249	39.26
470.603	39.43
470.958	39.36
471.313	39.62
471.668	39.92
472.023	39.55
472.377	39.5
472.732	39.69
473.086	39.77
473.441	39.88
473.795	39.83
474.15	40.32
474.504	39.77
474.859	40.12
475.213	40.02
475.567	40.2
475.921	40.34
476.275	40.38
476.63	40.41
476.984	40.6
477.338	40.41
477.692	40.48
478.045	40.56
478.399	40.54
478.753	40.55
479.107	40.68
479.461	40.55
479.814	40.43
480.168	40.64
480.521	40.6
480.875	40.69
481.228	40.97
481.582	40.96
481.935	41.01
482.289	41.04
482.642	41.16
482.995	40.95
483.348	41.1
483.701	41.01
484.055	40.83
484.408	40.57
484.761	40.47
485.114	40.1
485.466	39.98
485.819	40.22
486.172	40.26
486.525	40.41
486.878	40.58
487.23	40.63
487.583	40.8
487.936	41
488.288	40.98
488.641	40.86
488.993	40.84
489.345	40.78
489.698	40.68
490.05	40.82
490.402	40.97
490.754	41.18
491.107	41.4
491.459	41.57
491.811	41.84
492.163	41.98
492.515	41.97
492.866	41.67
493.218	41.45
493.57	41.48
493.922	41.64
494.274	41.84
494.625	42.09
494.977	42.36
495.328	42.49
495.68	42.79
496.031	43.17
496.383	43.19
496.734	43.39
497.086	43.2
497.437	43.1
497.788	43.29
498.139	43.5
498.49	43.32
498.842	43.09
499.193	43.21
499.544	43.44
499.894	43.37
500.245	43.55
500.596	43.57
500.947	43.83
501.298	43.73
501.648	43.81
501.999	44.04
502.35	43.98
502.7	44.01
503.051	44.15
503.401	44.22
503.752	44.67
504.102	44.34
504.452	44.54
504.803	44.61
505.153	44.39
505.503	44.51
505.853	44.61
506.203	44.69
506.553	44.69
506.903	44.76
507.253	44.86
507.603	44.99
507.953	45.12
508.303	45.14
508.652	45
509.002	45.09
509.352	45.1
509.701	45.07
510.051	45.18
510.4	45.03
510.75	45.21
511.099	45.09
511.449	45.25
511.798	45.14
512.147	45.48
512.496	45.36
512.846	45.5
513.195	45.57
513.544	45.56
513.893	45.58
514.242	45.63
514.591	45.72
514.939	45.61
515.288	45.83
515.637	45.93
515.986	45.89
516.334	46.15
516.683	46.01
517.032	46.24
517.38	46.42
517.729	46.33
518.077	46.39
518.426	46.21
518.774	46.29
519.122	46.44
519.47	46.15
519.819	45.95
520.167	46.01
520.515	45.82
520.863	46.01
521.211	46.13
521.559	46.19
521.907	46.43
522.255	46.24
522.602	46.64
522.95	46.6
523.298	46.99
523.645	46.91
523.993	47.11
524.341	47.1
524.688	46.97
525.036	47.03
525.383	47.19
525.73	47.27
526.078	47.37
526.425	47.01
526.772	46.99
527.119	47.17
527.466	46.74
527.814	46.87
528.161	46.95
528.508	47.12
528.854	47.03
529.201	47.11
529.548	46.86
529.895	46.58
530.242	46.48
530.588	46.84
530.935	47
531.282	46.98
531.628	46.97
531.975	46.98
532.321	47.11
532.667	47.48
533.014	47.6
533.36	47.7
533.706	47.75
534.052	47.93
534.399	47.7
534.745	47.54
535.091	47.3
535.437	47.34
535.783	47.56
536.129	47.61
536.474	48
536.82	48.2
537.166	48.29
537.512	48.39
537.857	48.41
538.203	48.19
538.549	48.34
538.894	48.44
539.239	48.52
539.585	48.63
539.93	48.97
540.276	49.02
540.621	48.93
540.966	49.12
541.311	49.09
541.656	49.28
542.001	49.19
542.346	48.94
542.691	48.76
543.036	48.41
543.381	48.25
543.726	48.5
544.071	48.76
544.415	48.63
544.76	48.97
545.105	49.06
545.449	49.15
545.794	49.56
546.138	49.37
546.483	49.47
546.827	49.78
547.171	49.81
547.516	49.86
547.86	49.98
548.204	49.84
548.548	49.83
548.892	49.82
549.236	49.76
549.58	50.2
549.924	50.18
550.268	50.29
550.612	50.39
550.956	50.67
551.3	51.04
551.643	50.83
551.987	50.79
552.33	51.11
552.674	51.33
553.017	51.13
553.361	51.5
553.704	51.06
554.048	51.23
554.391	51.35
554.734	51.23
555.077	51.37
555.42	51.12
555.764	51.48
556.107	51.34
556.45	51.65
556.793	51.88
557.135	51.63
557.478	51.99
557.821	51.7
558.164	52.01
558.507	52.36
558.849	51.83
559.192	52.12
559.534	52.35
559.877	52.32
560.219	52.4
560.562	52.15
560.904	52.38
561.246	52.41
561.589	52.2
561.931	52.31
562.273	52.06
562.615	52.41
562.957	52.29
563.299	52.48
563.641	52.59
563.983	52.25
564.325	52.62
564.667	52.9
565.008	52.39
565.35	52.6
565.692	52.61
566.033	52.91
566.375	52.53
566.716	52.99
567.058	52.78
567.399	52.87
567.741	52.87
568.082	52.4
568.423	52.56
568.764	52.72
569.105	52.69
569.447	52.96
569.788	52.99
570.129	53.36
570.47	53.29
570.811	53.22
571.151	53.23
571.492	53.35
571.833	53.25
572.174	53.2
572.514	53.44
572.855	53.34
573.195	53.18
573.536	53.19
573.876	53.22
574.217	53.4
574.557	53.25
574.898	53.42
575.238	53.64
575.578	53.92
575.918	53.58
576.258	53.9
576.598	53.53
576.938	53.76
577.278	53.72
577.618	53.84
577.958	53.87
578.298	53.89
578.638	54.04
578.977	54.13
579.317	54.16
579.657	54.34
579.996	54.48
580.336	54.43
580.675	54.48
581.014	54.72
581.354	54.4
581.693	54.92
582.032	54.9
582.372	54.84
582.711	54.92
583.05	55.02
583.389	54.94
583.728	55.06
584.067	55.07
584.406	55.38
584.745	55.58
585.083	54.74
585.422	55.16
585.761	55.13
586.1	55.46
586.438	55.45
586.777	55.26
587.115	55.73
587.454	55.38
587.792	55.28
588.13	55.24
588.469	55.45
588.807	55.54
589.145	55.51
589.483	55.46
589.821	55.63
590.159	55.3
590.497	55.67
590.835	55.49
591.173	55.8
591.511	56
591.849	55.81
592.187	55.38
592.524	55.85
592.862	55.87
593.2	55.56
593.537	55.99
593.875	55.91
594.212	55.84
594.55	56.22
594.887	56.15
595.224	56.52
595.561	56.26
595.899	56.14
596.236	56.31
596.573	55.89
596.91	56.43
597.247	56.4
597.584	56.17
597.921	55.95
598.258	56.05
598.594	56.01
598.931	56.09
599.268	56.05
599.604	56.29
599.941	55.93
600.277	56.25
600.614	56.4
600.95	56.56
601.287	56.6
601.623	57.01
601.959	56.73
602.296	56.77
602.632	56.94
602.968	56.95
603.304	57.13
603.64	57.02
603.976	56.82
604.312	57.02
604.648	56.96
604.984	56.84
605.319	56.86
605.655	56.58
605.991	56.81
606.326	56.72
606.662	56.49
606.998	56.67
607.333	56.25
607.668	56.79
608.004	56.82
608.339	57.21
608.674	57.18
609.01	57.14
609.345	57.03
609.68	57.53
610.015	57.67
610.35	57.33
610.685	57.75
611.02	57.29
611.355	57.18
611.689	57.13
612.024	57.24
612.359	57.59
612.694	57.46
613.028	57.6
613.363	57.53
613.697	57.87
614.032	57.8
614.366	57.77
614.7	58.03
615.035	58.03
615.369	57.96
615.703	58.05
616.037	58.54
616.371	58.15
616.705	58.48
617.039	58.11
617.373	58.16
617.707	58.5
618.041	58.33
618.375	58.27
618.709	58.29
619.042	58.51
619.376	58.31
619.71	58.03
620.043	58.31
620.377	58.54
620.71	58.53
621.043	58.45
621.377	58.23
621.71	58.71
622.043	59.12
622.376	59.27
622.709	58.85
623.043	58.9
623.376	59.02
623.709	58.87
624.041	59.41
624.374	59.11
624.707	59.15
625.04	59.31
625.373	58.94
625.705	59.23
626.038	59.3
626.37	59.23
626.703	58.89
627.035	58.9
627.368	59.46
627.7	59.15
628.032	59.23
628.365	58.7
628.697	58.76
629.029	58.94
629.361	59.15
629.693	59.06
630.025	58.91
630.357	58.98
630.689	59.65
631.021	59.4
631.353	58.88
631.684	59.53
632.016	59.25
632.348	59.67
632.679	59.51
633.011	60.01
633.342	59.77
633.674	59.94
634.005	59.61
634.336	59.49
634.668	60
634.999	60.06
635.33	59.58
635.661	59.95
635.992	59.43
636.323	59.73
636.654	59.64
636.985	60.13
637.316	59.76
637.647	59.88
637.977	59.83
638.308	60.05
638.639	60.47
638.969	60.32
639.3	59.65
639.63	60.18
639.961	60.17
640.291	60.23
640.622	60.42
640.952	60.45
641.282	60.27
641.612	60.21
641.943	60.9
642.273	60.61
642.603	60.35
642.933	60.57
643.263	59.95
643.592	59.83
643.922	60.97
644.252	60.66
644.582	60.04
644.911	60.54
645.241	60.81
645.571	60.85
645.9	60.27
646.23	60.77
646.559	61.1
646.888	60.65
647.218	60.48
647.547	61.31
647.876	61
648.205	60.95
648.534	61.1
648.863	60.61
649.192	61.42
649.521	61.73
649.85	60.64
650.179	61.42
650.508	61.7
650.837	61.29
651.165	61.1
651.494	61.1
651.822	61.12
652.151	61.59
652.479	61.23
652.808	61.18
653.136	61.29
653.465	61.54
653.793	61.37
654.121	61.43
654.449	60.88
654.777	61.13
655.105	61.2
655.433	61.67
655.761	61.25
656.089	61.33
656.417	61.5
656.745	61.74
657.073	61.64
657.4	61.97
657.728	61.03
658.056	61.07
658.383	61.11
658.711	62.04
659.038	61.35
659.365	61.22
659.693	61.51
660.02	61.12
660.347	61.55
660.674	61.31
661.001	61.79
661.329	61.95
661.656	61.36
661.982	61.37
662.309	62.01
662.636	61.4
662.963	61.73
663.29	62.08
663.616	61.85
663.943	62.03
664.27	62.36
664.596	62.09
664.923	62.02
665.249	61.73
665.576	61.87
665.902	61.54
666.228	61.83
666.554	62.03
666.881	61.58
667.207	62.85
667.533	62.09
667.859	61.7
668.185	62.7
668.511	61.92
