Data from 0393_crown_Reflection__4__161.txt Node

Date: Tue Dec 12 19:43:05 CST 2023
User: ToomeyLab
Spectrometer: FLMS14357
Trigger mode: 0
Integration Time (sec): 1.000000E-2
Scans to average: 100
Electric dark correction enabled: true
Nonlinearity correction enabled: false
Boxcar width: 0
XAxis mode: Wavelengths
Number of Pixels in Spectrum: 2048
>>>>>Begin Spectral Data<<<<<
189.047	-42.88
189.435	-42.88
189.823	-42.88
190.211	3.75
190.599	11.68
190.987	45.33
191.375	24.01
191.763	835.62
192.151	120.47
192.538	35.15
192.926	102.96
193.314	-8071.43
193.702	-644.81
194.089	100.67
194.477	-17.21
194.864	32.64
195.252	128.7
195.639	33.3
196.027	292.79
196.414	1358
196.801	86.08
197.189	-2459.35
197.576	8.96
197.963	130.32
198.351	16.88
198.738	36.34
199.125	-2.1
199.512	-92.22
199.899	11.12
200.286	32.68
200.673	-52.77
201.06	-49.21
201.447	-61.68
201.833	31.27
202.22	-1.16
202.607	-108.66
202.994	15.65
203.38	30.41
203.767	39.75
204.154	6.79
204.54	66.62
204.927	-4.93
205.313	30.87
205.699	-15.02
206.086	-40.53
206.472	27.22
206.858	20.23
207.245	24.57
207.631	24.57
208.017	-40.91
208.403	1.13
208.789	22.84
209.175	2.17
209.561	31.33
209.947	-41.13
210.333	9.5
210.719	-9.06
211.105	-60.75
211.491	28.07
211.876	13.36
212.262	31.18
212.648	-42.63
213.034	-43.86
213.419	-28.96
213.805	27.22
214.19	24.29
214.576	29.37
214.961	0.54
215.346	-4.72
215.732	14.58
216.117	12.92
216.502	-11.5
216.888	-6.62
217.273	-14.07
217.658	-7.42
218.043	1
218.428	5.64
218.813	9.75
219.198	-45.64
219.583	-2.09
219.968	0.01
220.353	-9.03
220.738	14.1
221.122	3.1
221.507	-17.85
221.892	-16.76
222.276	9.76
222.661	-2.66
223.046	-3.47
223.43	-0.26
223.815	1.42
224.199	9.09
224.583	1.8
224.968	5.71
225.352	0.04
225.736	7.46
226.121	5.44
226.505	-0.99
226.889	7.62
227.273	4.8
227.657	8.15
228.041	4.37
228.425	3.44
228.809	2.16
229.193	2.96
229.577	4.29
229.961	2.51
230.344	4.4
230.728	5.52
231.112	4.86
231.495	4.26
231.879	3.66
232.263	3.96
232.646	4.49
233.03	3.68
233.413	1.66
233.797	3.84
234.18	0.44
234.563	1.92
234.946	5.92
235.33	3.65
235.713	4.18
236.096	4.26
236.479	5.06
236.862	5.55
237.245	3.68
237.628	4.49
238.011	3.81
238.394	3.71
238.777	4.57
239.16	3.78
239.543	4.54
239.925	4.59
240.308	5.61
240.691	4.18
241.073	5.44
241.456	3.56
241.838	4.24
242.221	4.52
242.603	4.62
242.986	3.74
243.368	4.9
243.75	3.87
244.133	3.68
244.515	4.35
244.897	4.27
245.279	4.11
245.661	3.24
246.043	3.95
246.425	5.06
246.807	3.11
247.189	4.04
247.571	3.74
247.953	3.52
248.335	4.18
248.717	3.85
249.098	4
249.48	3.65
249.862	3.58
250.243	3.51
250.625	4.2
251.006	3.88
251.388	3.48
251.769	3.44
252.151	4.24
252.532	3.82
252.913	4.25
253.295	4.63
253.676	3.13
254.057	3.62
254.438	4.19
254.819	4.04
255.2	3.3
255.581	3.48
255.962	2.51
256.343	3.84
256.724	3.87
257.105	4.29
257.486	1.99
257.867	3.22
258.247	3.81
258.628	4.07
259.009	3.14
259.389	3.3
259.77	3.25
260.15	3.65
260.531	4.07
260.911	3.66
261.292	3.35
261.672	3.27
262.052	3.34
262.432	3.63
262.813	3.42
263.193	3.86
263.573	3.54
263.953	4.64
264.333	4.31
264.713	3.77
265.093	3.23
265.473	4.03
265.853	3.85
266.233	3.2
266.612	2.28
266.992	3.91
267.372	3.6
267.752	4.05
268.131	2.73
268.511	2.88
268.89	2.92
269.27	3.61
269.649	3.25
270.029	3.52
270.408	3.74
270.787	3.6
271.167	3.19
271.546	3.7
271.925	4.05
272.304	4.17
272.683	2.82
273.062	3.36
273.441	3.47
273.82	3.28
274.199	3.63
274.578	3
274.957	3.42
275.336	3.6
275.715	3.58
276.093	2.66
276.472	2.99
276.851	3.37
277.229	3.17
277.608	2.9
277.986	2.8
278.365	3.37
278.743	3.39
279.122	3.5
279.5	2.83
279.878	2.79
280.257	2.96
280.635	2.96
281.013	2.85
281.391	3.1
281.769	3.28
282.147	3.3
282.525	2.91
282.903	2.86
283.281	2.7
283.659	3.23
284.037	2.98
284.415	2.92
284.792	3.1
285.17	2.89
285.548	2.74
285.925	2.48
286.303	3.04
286.68	3
287.058	3.15
287.435	3.23
287.813	2.67
288.19	3.32
288.567	3.32
288.945	3.37
289.322	2.82
289.699	3.15
290.076	3.09
290.453	3.34
290.83	3.28
291.207	3.66
291.584	3.34
291.961	2.79
292.338	2.91
292.715	3.28
293.092	2.93
293.469	2.78
293.845	3.21
294.222	2.91
294.599	2.91
294.975	3.21
295.352	2.87
295.728	2.75
296.105	2.97
296.481	3.52
296.858	2.83
297.234	3.41
297.61	3.08
297.986	3.28
298.363	2.98
298.739	3.01
299.115	2.54
299.491	2.75
299.867	2.83
300.243	2.9
300.619	3.15
300.995	3.06
301.371	3.16
301.746	3.36
302.122	3.43
302.498	3.2
302.874	2.57
303.249	3.49
303.625	2.93
304	3.26
304.376	2.62
304.751	3.11
305.127	2.51
305.502	3.25
305.878	2.91
306.253	2.93
306.628	2.78
307.003	2.67
307.378	3.49
307.754	2.87
308.129	3.13
308.504	3.49
308.879	2.31
309.254	3.47
309.629	2.73
310.003	3.3
310.378	3.12
310.753	3.11
311.128	3.4
311.502	2.27
311.877	2.6
312.252	2.8
312.626	3.04
313.001	2.68
313.375	2.52
313.75	3.2
314.124	3.11
314.498	3.04
314.873	2.97
315.247	3.2
315.621	3.16
315.995	3.21
316.369	2.86
316.743	2.49
317.117	2.41
317.491	2.8
317.865	3.16
318.239	3.25
318.613	2.7
318.987	3.44
319.361	2.38
319.734	2.59
320.108	2.75
320.482	2.93
320.855	2.76
321.229	2.9
321.602	2.82
321.976	2.97
322.349	3.59
322.723	2.6
323.096	2.5
323.469	3.07
323.843	3.89
324.216	3.73
324.589	2.4
324.962	3.09
325.335	3.43
325.708	2.87
326.081	3.05
326.454	3.13
326.827	3
327.2	2.85
327.573	2.81
327.945	2.8
328.318	3.36
328.691	2.45
329.063	3
329.436	3.26
329.809	2.9
330.181	2.69
330.553	2.93
330.926	2.86
331.298	3.49
331.671	2.45
332.043	2.86
332.415	3.37
332.787	2.64
333.159	3.31
333.532	2.88
333.904	2.73
334.276	3.63
334.648	3.28
335.02	2.63
335.391	2.86
335.763	3.27
336.135	3.27
336.507	3.33
336.879	3.06
337.25	3.34
337.622	2.94
337.993	2.94
338.365	2.68
338.736	3.03
339.108	2.63
339.479	3.1
339.851	2.9
340.222	2.69
340.593	3.09
340.964	3.11
341.336	3.42
341.707	3.06
342.078	2.6
342.449	2.77
342.82	3.61
343.191	2.98
343.562	3.12
343.933	3.42
344.303	3.44
344.674	2.96
345.045	3.44
345.416	3.53
345.786	2.81
346.157	2.99
346.527	3.43
346.898	2.77
347.268	2.81
347.639	3.1
348.009	3
348.38	2.79
348.75	2.92
349.12	2.84
349.49	2.94
349.861	3.14
350.231	3.21
350.601	3.31
350.971	3.22
351.341	3.04
351.711	3.37
352.081	2.96
352.45	2.94
352.82	3.1
353.19	2.97
353.56	2.93
353.929	2.79
354.299	2.84
354.669	3.14
355.038	2.96
355.408	2.87
355.777	3.52
356.147	3.08
356.516	3.3
356.885	2.76
357.254	2.78
357.624	2.63
357.993	3
358.362	3.09
358.731	3.34
359.1	2.44
359.469	3.07
359.838	2.97
360.207	2.96
360.576	3.19
360.945	3.09
361.314	3.41
361.682	2.96
362.051	3.48
362.42	3.23
362.788	2.79
363.157	3.24
363.525	3.13
363.894	2.94
364.262	2.97
364.631	2.84
364.999	3.1
365.367	3.21
365.735	2.9
366.104	3.11
366.472	2.91
366.84	3.31
367.208	3.1
367.576	2.92
367.944	3.5
368.312	3.11
368.68	3.13
369.048	3.3
369.416	3.15
369.783	3.15
370.151	3.27
370.519	2.9
370.886	3.33
371.254	2.82
371.621	3.26
371.989	2.85
372.356	2.84
372.724	3.19
373.091	3.13
373.458	2.96
373.826	3.23
374.193	2.96
374.56	3.39
374.927	3.3
375.294	3.25
375.661	3.32
376.028	3.25
376.395	3.36
376.762	3.46
377.129	3.28
377.496	3.17
377.863	3.07
378.229	3.38
378.596	3.07
378.963	3.59
379.329	3.1
379.696	2.99
380.062	3.34
380.429	3.09
380.795	3.4
381.161	3.46
381.528	3.26
381.894	3.32
382.26	3.05
382.626	3.07
382.993	3.54
383.359	3.14
383.725	3.32
384.091	3.11
384.457	3.28
384.823	3.09
385.188	3.37
385.554	3.32
385.92	3.41
386.286	3.18
386.651	3.44
387.017	3.38
387.383	3.23
387.748	3.27
388.114	3.54
388.479	3.44
388.845	3.36
389.21	3.71
389.575	3.16
389.94	3.26
390.306	3.35
390.671	3.34
391.036	3.25
391.401	3.38
391.766	3.41
392.131	3.35
392.496	3.48
392.861	3.06
393.226	3.44
393.591	3.17
393.956	3.22
394.32	3.27
394.685	3.26
395.05	3.22
395.414	3.42
395.779	3.17
396.143	3.5
396.508	3.13
396.872	3.27
397.236	3.33
397.601	3.33
397.965	3.43
398.329	3.42
398.694	3.32
399.058	3.7
399.422	3.27
399.786	3.35
400.15	3.36
400.514	3.47
400.878	3.26
401.242	3.34
401.605	3.36
401.969	3.45
402.333	3.44
402.697	3.29
403.06	3.05
403.424	3.3
403.787	2.97
404.151	3.29
404.514	3.19
404.878	3.32
405.241	3.39
405.604	3.1
405.968	3.24
406.331	3.52
406.694	3.57
407.057	3.36
407.42	3.45
407.783	3.09
408.146	3.28
408.509	3.3
408.872	3.27
409.235	3.32
409.598	3.37
409.961	3.26
410.323	3.21
410.686	3.27
411.049	3.48
411.411	3.44
411.774	3.53
412.136	3.47
412.499	3.38
412.861	3.42
413.223	3.71
413.586	3.4
413.948	3.39
414.31	3.56
414.672	3.42
415.035	3.4
415.397	3.37
415.759	3.52
416.121	3.46
416.483	3.48
416.845	3.23
417.206	3.5
417.568	3.39
417.93	3.41
418.292	3.43
418.653	3.46
419.015	3.43
419.377	3.44
419.738	3.34
420.1	3.33
420.461	3.42
420.822	3.41
421.184	3.33
421.545	3.54
421.906	3.27
422.267	3.36
422.629	3.41
422.99	3.29
423.351	3.39
423.712	3.27
424.073	3.4
424.434	3.44
424.795	3.48
425.155	3.28
425.516	3.32
425.877	3.34
426.238	3.3
426.598	3.34
426.959	3.42
427.32	3.38
427.68	3.42
428.041	3.48
428.401	3.4
428.761	3.36
429.122	3.36
429.482	3.64
429.842	3.46
430.202	3.39
430.563	3.48
430.923	3.59
431.283	3.45
431.643	3.49
432.003	3.38
432.363	3.5
432.722	3.32
433.082	3.5
433.442	3.5
433.802	3.56
434.161	3.37
434.521	3.59
434.881	3.51
435.24	3.46
435.6	3.39
435.959	3.53
436.319	3.53
436.678	3.52
437.037	3.49
437.396	3.35
437.756	3.57
438.115	3.47
438.474	3.35
438.833	3.58
439.192	3.58
439.551	3.42
439.91	3.34
440.269	3.36
440.628	3.42
440.987	3.35
441.345	3.58
441.704	3.5
442.063	3.53
442.421	3.48
442.78	3.44
443.138	3.29
443.497	3.46
443.855	3.47
444.214	3.52
444.572	3.44
444.93	3.52
445.288	3.29
445.647	3.44
446.005	3.53
446.363	3.3
446.721	3.36
447.079	3.49
447.437	3.28
447.795	3.38
448.153	3.38
448.51	3.36
448.868	3.46
449.226	3.45
449.584	3.37
449.941	3.41
450.299	3.5
450.656	3.41
451.014	3.46
451.371	3.5
451.729	3.58
452.086	3.47
452.443	3.59
452.801	3.55
453.158	3.51
453.515	3.65
453.872	3.5
454.229	3.56
454.586	3.27
454.943	3.39
455.3	3.46
455.657	3.48
456.014	3.57
456.371	3.5
456.727	3.56
457.084	3.51
457.441	3.46
457.797	3.42
458.154	3.37
458.51	3.44
458.867	3.59
459.223	3.49
459.58	3.42
459.936	3.29
460.292	3.42
460.648	3.52
461.005	3.42
461.361	3.22
461.717	3.47
462.073	3.42
462.429	3.39
462.785	3.33
463.141	3.44
463.496	3.41
463.852	3.71
464.208	3.41
464.564	3.55
464.919	3.66
465.275	3.67
465.631	3.71
465.986	3.51
466.342	3.41
466.697	3.38
467.052	3.65
467.408	3.45
467.763	3.52
468.118	3.59
468.473	3.44
468.829	3.59
469.184	3.43
469.539	3.67
469.894	3.7
470.249	3.43
470.603	3.75
470.958	3.67
471.313	3.82
471.668	3.73
472.023	3.47
472.377	3.38
472.732	3.44
473.086	3.65
473.441	3.66
473.795	3.49
474.15	3.47
474.504	3.53
474.859	3.59
475.213	3.47
475.567	3.63
475.921	3.58
476.275	3.48
476.63	3.56
476.984	3.5
477.338	3.39
477.692	3.46
478.045	3.62
478.399	3.39
478.753	3.42
479.107	3.47
479.461	3.47
479.814	3.57
480.168	3.48
480.521	3.32
480.875	3.62
481.228	3.62
481.582	3.57
481.935	3.52
482.289	3.54
482.642	3.61
482.995	3.46
483.348	3.52
483.701	3.57
484.055	3.52
484.408	3.39
484.761	3.39
485.114	3.34
485.466	3.26
485.819	3.24
486.172	3.25
486.525	3.32
486.878	3.36
487.23	3.36
487.583	3.36
487.936	3.46
488.288	3.3
488.641	3.39
488.993	3.33
489.345	3.37
489.698	3.32
490.05	3.33
490.402	3.38
490.754	3.41
491.107	3.39
491.459	3.42
491.811	3.47
492.163	3.4
492.515	3.47
492.866	3.34
493.218	3.34
493.57	3.32
493.922	3.36
494.274	3.41
494.625	3.45
494.977	3.53
495.328	3.55
495.68	3.36
496.031	3.52
496.383	3.54
496.734	3.59
497.086	3.42
497.437	3.44
497.788	3.53
498.139	3.53
498.49	3.53
498.842	3.35
499.193	3.51
499.544	3.56
499.894	3.49
500.245	3.48
500.596	3.62
500.947	3.52
501.298	3.61
501.648	3.51
501.999	3.48
502.35	3.52
502.7	3.55
503.051	3.48
503.401	3.6
503.752	3.76
504.102	3.62
504.452	3.65
504.803	3.61
505.153	3.6
505.503	3.6
505.853	3.62
506.203	3.56
506.553	3.53
506.903	3.7
507.253	3.5
507.603	3.57
507.953	3.66
508.303	3.6
508.652	3.45
509.002	3.49
509.352	3.49
509.701	3.5
510.051	3.51
510.4	3.59
510.75	3.42
511.099	3.47
511.449	3.53
511.798	3.51
512.147	3.56
512.496	3.57
512.846	3.58
513.195	3.35
513.544	3.65
513.893	3.46
514.242	3.53
514.591	3.5
514.939	3.54
515.288	3.47
515.637	3.5
515.986	3.58
516.334	3.64
516.683	3.48
517.032	3.59
517.38	3.52
517.729	3.57
518.077	3.4
518.426	3.68
518.774	3.57
519.122	3.62
519.47	3.52
519.819	3.44
520.167	3.48
520.515	3.45
520.863	3.5
521.211	3.48
521.559	3.49
521.907	3.43
522.255	3.54
522.602	3.6
522.95	3.52
523.298	3.57
523.645	3.59
523.993	3.65
524.341	3.58
524.688	3.54
525.036	3.66
525.383	3.49
525.73	3.47
526.078	3.5
526.425	3.52
526.772	3.52
527.119	3.57
527.466	3.56
527.814	3.38
528.161	3.51
528.508	3.54
528.854	3.4
529.201	3.46
529.548	3.41
529.895	3.38
530.242	3.29
530.588	3.31
530.935	3.36
531.282	3.4
531.628	3.43
531.975	3.44
532.321	3.4
532.667	3.4
533.014	3.43
533.36	3.49
533.706	3.43
534.052	3.53
534.399	3.47
534.745	3.43
535.091	3.37
535.437	3.38
535.783	3.42
536.129	3.54
536.474	3.47
536.82	3.56
537.166	3.61
537.512	3.56
537.857	3.47
538.203	3.43
538.549	3.5
538.894	3.59
539.239	3.4
539.585	3.55
539.93	3.51
540.276	3.55
540.621	3.58
540.966	3.42
541.311	3.57
541.656	3.55
542.001	3.55
542.346	3.53
542.691	3.41
543.036	3.33
543.381	3.28
543.726	3.4
544.071	3.45
544.415	3.4
544.76	3.44
545.105	3.46
545.449	3.51
545.794	3.62
546.138	3.4
546.483	3.56
546.827	3.51
547.171	3.58
547.516	3.45
547.86	3.56
548.204	3.55
548.548	3.47
548.892	3.52
549.236	3.5
549.58	3.59
549.924	3.45
550.268	3.66
550.612	3.45
550.956	3.63
551.3	3.81
551.643	3.68
551.987	3.57
552.33	3.59
552.674	3.76
553.017	3.7
553.361	3.75
553.704	3.65
554.048	3.56
554.391	3.4
554.734	3.65
555.077	3.72
555.42	3.63
555.764	3.69
556.107	3.53
556.45	3.52
556.793	3.43
557.135	3.52
557.478	3.58
557.821	3.57
558.164	3.59
558.507	3.59
558.849	3.64
559.192	3.52
559.534	3.56
559.877	3.56
560.219	3.76
560.562	3.72
560.904	3.62
561.246	3.61
561.589	3.66
561.931	3.64
562.273	3.52
562.615	3.44
562.957	3.7
563.299	3.67
563.641	3.52
563.983	3.54
564.325	3.64
564.667	3.59
565.008	3.48
565.35	3.42
565.692	3.52
566.033	3.73
566.375	3.54
566.716	3.49
567.058	3.6
567.399	3.7
567.741	3.65
568.082	3.62
568.423	3.69
568.764	3.55
569.105	3.57
569.447	3.62
569.788	3.58
570.129	3.42
570.47	3.62
570.811	3.53
571.151	3.67
571.492	3.62
571.833	3.7
572.174	3.59
572.514	3.55
572.855	3.66
573.195	3.51
573.536	3.4
573.876	3.6
574.217	3.58
574.557	3.45
574.898	3.62
575.238	3.51
575.578	3.57
575.918	3.59
576.258	3.76
576.598	3.52
576.938	3.53
577.278	3.73
577.618	3.55
577.958	3.56
578.298	3.54
578.638	3.59
578.977	3.58
579.317	3.68
579.657	3.44
579.996	3.67
580.336	3.55
580.675	3.64
581.014	3.73
581.354	3.53
581.693	3.72
582.032	3.46
582.372	3.92
582.711	3.66
583.05	3.72
583.389	3.72
583.728	3.68
584.067	3.74
584.406	3.81
584.745	3.72
585.083	3.6
585.422	3.76
585.761	3.78
586.1	3.55
586.438	3.75
586.777	3.63
587.115	3.46
587.454	3.76
587.792	3.38
588.13	3.97
588.469	3.7
588.807	3.5
589.145	3.46
589.483	3.43
589.821	3.79
590.159	3.84
590.497	3.63
590.835	3.61
591.173	3.51
591.511	3.7
591.849	3.52
592.187	3.5
592.524	3.38
592.862	3.41
593.2	3.57
593.537	3.29
593.875	3.59
594.212	3.73
594.55	3.6
594.887	3.91
595.224	3.68
595.561	3.8
595.899	3.6
596.236	3.64
596.573	3.73
596.91	3.68
597.247	3.63
597.584	3.64
597.921	3.58
598.258	3.66
598.594	3.63
598.931	3.65
599.268	3.56
599.604	3.43
599.941	3.53
600.277	3.45
600.614	3.69
600.95	3.64
601.287	3.77
601.623	3.66
601.959	3.67
602.296	3.55
602.632	3.41
602.968	3.47
603.304	3.49
603.64	3.76
603.976	3.49
604.312	3.67
604.648	3.64
604.984	3.44
605.319	3.56
605.655	3.43
605.991	3.57
606.326	3.48
606.662	3.54
606.998	3.3
607.333	3.57
607.668	3.55
608.004	3.69
608.339	3.64
608.674	3.63
609.01	3.59
609.345	3.68
609.68	3.43
610.015	3.37
610.35	3.76
610.685	3.63
611.02	3.62
611.355	3.54
611.689	3.5
612.024	3.7
612.359	3.76
612.694	3.78
613.028	3.51
613.363	3.6
613.697	3.71
614.032	3.75
614.366	3.64
614.7	3.8
615.035	3.59
615.369	3.48
615.703	3.6
616.037	3.36
616.371	3.7
616.705	3.73
617.039	3.7
617.373	3.49
617.707	3.43
618.041	3.84
618.375	3.33
618.709	3.35
619.042	3.48
619.376	3.34
619.71	3.38
620.043	3.7
620.377	3.64
620.71	3.3
621.043	3.21
621.377	3.53
621.71	3.63
622.043	3.59
622.376	3.69
622.709	3.99
623.043	3.36
623.376	3.97
623.709	3.55
624.041	3.49
624.374	3.37
624.707	3.32
625.04	3.02
625.373	3.96
625.705	3.71
626.038	3.57
626.37	3.91
626.703	3.61
627.035	3.42
627.368	3.86
627.7	3.51
628.032	3.45
628.365	3.5
628.697	3.72
629.029	3.54
629.361	3.37
629.693	3.36
630.025	3.39
630.357	3.41
630.689	3.4
631.021	3.41
631.353	3.91
631.684	3.56
632.016	3.39
632.348	3.29
632.679	3.26
633.011	3.99
633.342	3.21
633.674	3.45
634.005	3.29
634.336	3.57
634.668	3.65
634.999	3.77
635.33	3.73
635.661	3.63
635.992	3.64
636.323	3.56
636.654	3.73
636.985	3.57
637.316	3.6
637.647	3.5
637.977	3.71
638.308	3.72
638.639	3.83
638.969	3.26
639.3	3.55
639.63	3.58
639.961	3.53
640.291	3.14
640.622	3.25
640.952	3.89
641.282	3.61
641.612	3.31
641.943	3.18
642.273	3.67
642.603	4.27
642.933	3.36
643.263	3.36
643.592	3.87
643.922	3.4
644.252	3.73
644.582	3.44
644.911	3.34
645.241	2.97
645.571	3.76
645.9	3.36
646.23	3.33
646.559	3.72
646.888	3.45
647.218	3.24
647.547	3.38
647.876	3.45
648.205	3.69
648.534	3.46
648.863	3.68
649.192	4.09
649.521	4.01
649.85	3.26
650.179	3.57
650.508	3.86
650.837	3.48
651.165	3.25
651.494	3.1
651.822	3.65
652.151	3.45
652.479	3.88
652.808	3.47
653.136	3.83
653.465	3.88
653.793	3.78
654.121	3.6
654.449	3.68
654.777	3.57
655.105	3.54
655.433	3.69
655.761	3.69
656.089	3.51
656.417	3.7
656.745	3.25
657.073	2.82
657.4	3.46
657.728	3.44
658.056	3.35
658.383	2.84
658.711	3.33
659.038	3.57
659.365	3.48
659.693	3.11
660.02	3.38
660.347	3.62
660.674	3.55
661.001	3.52
661.329	3.78
661.656	3.09
661.982	3.44
662.309	3.93
662.636	3.63
662.963	4.03
663.29	3.87
663.616	3.53
663.943	3.62
664.27	4.14
664.596	4.08
664.923	4.35
665.249	3.09
665.576	4.06
665.902	3.77
666.228	4.29
666.554	3.25
666.881	2.91
667.207	3.98
667.533	3.81
667.859	3.74
668.185	3.64
668.511	3.73
668.837	2.85
669.162	4.1
669.488	3.64
669.814	4.22
670.139	2.95
670.465	3.48
670.791	3.52
671.116	3.43
671.442	3.41
671.767	3.3
672.092	4.2
672.418	3.92
672.743	3.91
673.068	3.08
673.393	3.45
673.718	4.07
674.043	3.89
674.368	2.9
674.693	3.07
675.018	3.44
675.343	3.38
675.667	3.49
675.992	3.51
676.317	3.62
676.641	3.48
676.966	3.48
677.29	3.44
677.615	3.42
677.939	3.65
678.264	4.03
678.588	4.09
678.912	3.87
679.236	2.96
679.56	4.12
679.885	4.14
680.209	4.11
680.532	3.95
680.856	3.12
681.18	3.83
681.504	3.26
681.828	3.7
682.152	3.41
682.475	4.02
682.799	3.81
683.122	3.63
683.446	4.1
683.769	4.27
684.093	3.82
684.416	3.62
684.739	3.89
685.062	3.73
685.386	3.52
685.709	3.24
686.032	3.55
686.355	3.54
686.678	3.76
687.001	3.29
687.324	3.97
687.646	3.33
687.969	3.46
688.292	3.97
688.614	3.7
688.937	3.49
689.26	3.5
689.582	3.47
689.904	3.96
690.227	4.13
690.549	4.09
690.871	4.1
691.194	3.55
691.516	3.96
691.838	3.61
692.16	3.86
692.482	3.15
692.804	3.69
