Data from 0393_forehead_Reflection__0__162.txt Node

Date: Tue Dec 12 19:43:41 CST 2023
User: ToomeyLab
Spectrometer: FLMS14357
Trigger mode: 0
Integration Time (sec): 1.000000E-2
Scans to average: 100
Electric dark correction enabled: true
Nonlinearity correction enabled: false
Boxcar width: 0
XAxis mode: Wavelengths
Number of Pixels in Spectrum: 2048
>>>>>Begin Spectral Data<<<<<
189.047	-122.33
189.435	-122.33
189.823	-122.33
190.211	-50.58
190.599	-49.74
190.987	334.78
191.375	-42.22
191.763	461.21
192.151	-71.17
192.538	360.66
192.926	241.25
193.314	20247.62
193.702	-757.21
194.089	-107.96
194.477	125.89
194.864	198.75
195.252	-75.01
195.639	-84.99
196.027	32.26
196.414	323.24
196.801	50.65
197.189	2591.87
197.576	19.97
197.963	174.45
198.351	34.78
198.738	13.87
199.125	23.21
199.512	17.87
199.899	49.75
200.286	35.91
200.673	-14.5
201.06	20.04
201.447	-75.64
201.833	21.57
202.22	15.46
202.607	29.22
202.994	26.13
203.38	57.47
203.767	-1.71
204.154	13.51
204.54	54.11
204.927	16.48
205.313	4.59
205.699	-14.06
206.086	2.22
206.472	51.38
206.858	12.23
207.245	4.44
207.631	31.39
208.017	102.77
208.403	62.93
208.789	44.92
209.175	-21.11
209.561	32.03
209.947	28.25
210.333	34.59
210.719	12.76
211.105	-25.08
211.491	22.58
211.876	12.56
212.262	-12.79
212.648	-12.01
213.034	-45.25
213.419	-18.64
213.805	15.26
214.19	29.72
214.576	38.35
214.961	19.15
215.346	50.01
215.732	10.79
216.117	63.94
216.502	-13.79
216.888	1.85
217.273	2.61
217.658	-34.1
218.043	-21.26
218.428	14.48
218.813	23.08
219.198	-13.16
219.583	31.82
219.968	45.26
220.353	22.4
220.738	30.19
221.122	7.89
221.507	12.98
221.892	27.16
222.276	-10.58
222.661	4.62
223.046	-17.06
223.43	13.33
223.815	7.1
224.199	10.37
224.583	-0.89
224.968	10.79
225.352	-2.93
225.736	6.31
226.121	7.8
226.505	11.91
226.889	-0.24
227.273	6.46
227.657	7.94
228.041	7.51
228.425	2.29
228.809	2.21
229.193	4.59
229.577	5.36
229.961	2.18
230.344	4.4
230.728	3.91
231.112	3.52
231.495	3.75
231.879	4.88
232.263	2.06
232.646	4.18
233.03	4.44
233.413	2.74
233.797	5.03
234.18	4.64
234.563	3.1
234.946	3.77
235.33	4.5
235.713	6.31
236.096	3.97
236.479	4.88
236.862	3.18
237.245	3.98
237.628	4.16
238.011	6.49
238.394	3.44
238.777	4.71
239.16	4.08
239.543	4.65
239.925	5.19
240.308	5
240.691	4.58
241.073	4.61
241.456	4.48
241.838	3.13
242.221	4.3
242.603	4.56
242.986	4.24
243.368	4.78
243.75	3.37
244.133	4.2
244.515	4.25
244.897	4.68
245.279	4.64
245.661	3.88
246.043	4.57
246.425	5.91
246.807	3.86
247.189	4.4
247.571	4.86
247.953	3.66
248.335	3.76
248.717	4.1
249.098	4.06
249.48	4.03
249.862	4.09
250.243	4.29
250.625	4.96
251.006	4.56
251.388	4.46
251.769	4.52
252.151	3.77
252.532	4.27
252.913	4.87
253.295	4.85
253.676	4.06
254.057	3.74
254.438	4.74
254.819	3.92
255.2	4.27
255.581	4.94
255.962	4.59
256.343	4.84
256.724	4.28
257.105	4.61
257.486	3.97
257.867	3.06
258.247	4.27
258.628	4.41
259.009	4.15
259.389	4.33
259.77	3.95
260.15	4.08
260.531	4.78
260.911	4.62
261.292	3.99
261.672	3.98
262.052	4.1
262.432	4.1
262.813	4.27
263.193	4.24
263.573	4.7
263.953	4.47
264.333	4.73
264.713	4.26
265.093	4.32
265.473	4.97
265.853	3.96
266.233	4.08
266.612	3.63
266.992	3.68
267.372	4.13
267.752	4.77
268.131	3.76
268.511	3.89
268.89	3.57
269.27	3.61
269.649	4.46
270.029	3.65
270.408	3.78
270.787	4.17
271.167	3.69
271.546	4.11
271.925	4.26
272.304	4.67
272.683	2.91
273.062	3.95
273.441	4.14
273.82	3.69
274.199	4.16
274.578	4.29
274.957	4.22
275.336	4.3
275.715	4.66
276.093	3.58
276.472	4.46
276.851	4.67
277.229	4.14
277.608	3.58
277.986	3.67
278.365	4.63
278.743	4.41
279.122	4.03
279.5	3.64
279.878	3.48
280.257	4.17
280.635	3.99
281.013	4.4
281.391	4.25
281.769	3.91
282.147	4.12
282.525	3.37
282.903	4.2
283.281	3.97
283.659	4.34
284.037	4.17
284.415	4.18
284.792	3.94
285.17	3.88
285.548	4.24
285.925	4.26
286.303	4.27
286.68	4.07
287.058	4.42
287.435	4.35
287.813	3.63
288.19	3.98
288.567	4.2
288.945	4.51
289.322	3.84
289.699	4.06
290.076	4.44
290.453	4.58
290.83	4.67
291.207	5.13
291.584	4.64
291.961	4.51
292.338	4.58
292.715	4.37
293.092	4.55
293.469	4.71
293.845	5
294.222	4.61
294.599	4.91
294.975	4.97
295.352	5.34
295.728	5.02
296.105	5.29
296.481	5.39
296.858	5.36
297.234	5.79
297.61	5.12
297.986	5.54
298.363	5.26
298.739	5.22
299.115	5.53
299.491	5.21
299.867	5.39
300.243	5.59
300.619	5.76
300.995	5.93
301.371	6.42
301.746	5.86
302.122	6.14
302.498	5.77
302.874	5.91
303.249	6.97
303.625	6.08
304	6.63
304.376	6.46
304.751	7.21
305.127	6.05
305.502	6.31
305.878	6.02
306.253	6.34
306.628	6.44
307.003	6.33
307.378	6.66
307.754	6.71
308.129	6.98
308.504	7.59
308.879	6.76
309.254	7.28
309.629	7.27
310.003	7.41
310.378	7.51
310.753	7.23
311.128	7.12
311.502	7.08
311.877	7.15
312.252	7.05
312.626	7.58
313.001	7.1
313.375	7.4
313.75	7.72
314.124	7.37
314.498	7.83
314.873	7.58
315.247	8.15
315.621	7.4
315.995	7.59
316.369	7.97
316.743	7.66
317.117	7.59
317.491	8.1
317.865	8.18
318.239	8.22
318.613	8.91
318.987	8.77
319.361	7.86
319.734	8.02
320.108	8.74
320.482	8.71
320.855	8.3
321.229	8.61
321.602	9.15
321.976	8.48
322.349	9.27
322.723	8.76
323.096	9.12
323.469	8.9
323.843	9.53
324.216	9.78
324.589	9.68
324.962	8.99
325.335	9.57
325.708	9.46
326.081	9.51
326.454	9.61
326.827	9.68
327.2	9.79
327.573	9.4
327.945	9.81
328.318	9.78
328.691	9.05
329.063	10.2
329.436	9.88
329.809	9.87
330.181	9.36
330.553	10
330.926	9.59
331.298	9.89
331.671	10.48
332.043	10.01
332.415	10.17
332.787	10.58
333.159	10.62
333.532	10.61
333.904	9.79
334.276	10.88
334.648	10.58
335.02	10.2
335.391	9.84
335.763	10.42
336.135	10.6
336.507	11.34
336.879	10.49
337.25	10.95
337.622	10.72
337.993	10.35
338.365	11.11
338.736	11.1
339.108	10.73
339.479	11.12
339.851	10.66
340.222	10.73
340.593	11.08
340.964	11.53
341.336	11.41
341.707	11.16
342.078	10.92
342.449	11.39
342.82	11.54
343.191	11.71
343.562	11.54
343.933	12
344.303	11.5
344.674	11.69
345.045	11.68
345.416	12
345.786	11.94
346.157	11.83
346.527	12.12
346.898	11.54
347.268	11.78
347.639	12.11
348.009	11.7
348.38	12.31
348.75	12.59
349.12	12.01
349.49	12.31
349.861	12.61
350.231	12.57
350.601	13.13
350.971	12.37
351.341	12.62
351.711	12.9
352.081	12.51
352.45	12.43
352.82	12.77
353.19	12.88
353.56	12.95
353.929	12.85
354.299	12.74
354.669	12.86
355.038	12.2
355.408	12.52
355.777	13.33
356.147	13.14
356.516	13.03
356.885	12.84
357.254	13.22
357.624	13
357.993	13.02
358.362	13.47
358.731	13.32
359.1	12.99
359.469	13.4
359.838	13.4
360.207	13.8
360.576	13.46
360.945	13.36
361.314	13.99
361.682	13.54
362.051	14.07
362.42	14.04
362.788	13.66
363.157	13.93
363.525	13.91
363.894	13.77
364.262	13.93
364.631	13.91
364.999	13.96
365.367	14.18
365.735	14.34
366.104	14.13
366.472	14.28
366.84	14.3
367.208	14.46
367.576	14.31
367.944	14.72
368.312	14.9
368.68	14.77
369.048	14.84
369.416	14.66
369.783	15.07
370.151	14.97
370.519	14.65
370.886	15.11
371.254	14.69
371.621	15.15
371.989	15.09
372.356	15.38
372.724	15.37
373.091	15
373.458	15.37
373.826	15.34
374.193	15.34
374.56	15.43
374.927	15.49
375.294	15.38
375.661	15.65
376.028	15.65
376.395	15.84
376.762	16.13
377.129	15.73
377.496	16.2
377.863	15.75
378.229	16
378.596	15.8
378.963	16.05
379.329	15.95
379.696	15.87
380.062	16.41
380.429	16.15
380.795	16.51
381.161	16.47
381.528	16.67
381.894	16.28
382.26	16.2
382.626	16.39
382.993	16.68
383.359	16.37
383.725	16.5
384.091	16.79
384.457	16.84
384.823	16.66
385.188	16.64
385.554	16.87
385.92	16.88
386.286	16.93
386.651	17.21
387.017	17.15
387.383	17.11
387.748	17.29
388.114	17.24
388.479	17.41
388.845	17.11
389.21	17.46
389.575	17.08
389.94	17.42
390.306	17.51
390.671	17.54
391.036	17.68
391.401	17.59
391.766	17.92
392.131	17.79
392.496	17.66
392.861	17.62
393.226	17.79
393.591	17.77
393.956	17.89
394.32	17.98
394.685	18.06
395.05	18.09
395.414	18.05
395.779	18.19
396.143	18.32
396.508	18.25
396.872	18.46
397.236	18.25
397.601	18.72
397.965	18.63
398.329	18.38
398.694	18.66
399.058	18.7
399.422	18.3
399.786	18.89
400.15	18.63
400.514	18.9
400.878	18.79
401.242	18.81
401.605	19.28
401.969	19.07
402.333	19.1
402.697	19.2
403.06	18.99
403.424	19.22
403.787	19.11
404.151	19.15
404.514	19.27
404.878	19.5
405.241	19.65
405.604	19.12
405.968	19.36
406.331	19.64
406.694	19.54
407.057	19.5
407.42	19.75
407.783	19.69
408.146	19.89
408.509	19.92
408.872	19.84
409.235	19.84
409.598	19.93
409.961	19.88
410.323	20.11
410.686	20.39
411.049	20.53
411.411	20.42
411.774	20.14
412.136	20.06
412.499	20.2
412.861	20.35
413.223	20.86
413.586	20.33
413.948	20.61
414.31	20.69
414.672	20.8
415.035	20.93
415.397	20.96
415.759	20.62
416.121	20.85
416.483	20.98
416.845	20.94
417.206	21.11
417.568	21.15
417.93	20.95
418.292	20.92
418.653	21.11
419.015	20.98
419.377	21.17
419.738	21.01
420.1	21.14
420.461	21.25
420.822	21.22
421.184	21.3
421.545	21.25
421.906	21.09
422.267	21.22
422.629	21.24
422.99	21.18
423.351	21.23
423.712	21.28
424.073	21.45
424.434	21.4
424.795	21.68
425.155	21.62
425.516	21.4
425.877	21.58
426.238	21.56
426.598	21.6
426.959	21.79
427.32	21.92
427.68	21.81
428.041	22.05
428.401	22.21
428.761	22.39
429.122	22.41
429.482	22.62
429.842	22.56
430.202	22.74
430.563	22.73
430.923	22.73
431.283	22.75
431.643	22.95
432.003	22.79
432.363	23.01
432.722	22.91
433.082	23.14
433.442	22.95
433.802	23.32
434.161	23.28
434.521	23.21
434.881	23.23
435.24	23.3
435.6	23.08
435.959	23.46
436.319	23.21
436.678	23.47
437.037	23.47
437.396	23.62
437.756	23.66
438.115	23.91
438.474	23.48
438.833	23.85
439.192	24.05
439.551	24.05
439.91	23.79
440.269	24
440.628	23.9
440.987	23.85
441.345	23.96
441.704	23.99
442.063	23.99
442.421	23.91
442.78	23.86
443.138	23.87
443.497	24.19
443.855	24.27
444.214	24.45
444.572	24.44
444.93	24.42
445.288	24.49
445.647	24.71
446.005	24.62
446.363	24.6
446.721	24.64
447.079	24.69
447.437	24.44
447.795	24.62
448.153	24.54
448.51	24.47
448.868	24.67
449.226	24.66
449.584	24.72
449.941	24.85
450.299	25
450.656	24.96
451.014	25.28
451.371	25.25
451.729	25.48
452.086	25.38
452.443	25.77
452.801	25.85
453.158	25.67
453.515	25.93
453.872	25.73
454.229	25.71
454.586	25.64
454.943	25.85
455.3	25.95
455.657	26.14
456.014	26.1
456.371	26.24
456.727	26.25
457.084	26.17
457.441	26.25
457.797	26.33
458.154	26.4
458.51	26.33
458.867	26.58
459.223	26.62
459.58	26.88
459.936	26.31
460.292	26.51
460.648	26.4
461.005	26.63
461.361	26.28
461.717	26.29
462.073	26.21
462.429	26.41
462.785	26.6
463.141	26.78
463.496	26.91
463.852	27.23
464.208	27.19
464.564	27.17
464.919	27.36
465.275	27.43
465.631	27.43
465.986	27.51
466.342	27.33
466.697	27.54
467.052	27.64
467.408	27.62
467.763	27.74
468.118	27.6
468.473	27.79
468.829	27.73
469.184	27.55
469.539	28.2
469.894	28.01
470.249	28.06
470.603	28.19
470.958	28.13
471.313	28.27
471.668	28.42
472.023	28.2
472.377	28.01
472.732	28.27
473.086	28.38
473.441	28.42
473.795	28.34
474.15	28.61
474.504	28.57
474.859	28.62
475.213	28.52
475.567	28.73
475.921	28.94
476.275	28.8
476.63	28.8
476.984	29.03
477.338	28.86
477.692	28.75
478.045	29.16
478.399	29.01
478.753	29.12
479.107	29
479.461	29.21
479.814	29.11
480.168	29.05
480.521	29.04
480.875	29.27
481.228	29.38
481.582	29.37
481.935	29.48
482.289	29.41
482.642	29.47
482.995	29.28
483.348	29.44
483.701	29.5
484.055	29.26
484.408	29.17
484.761	29.01
485.114	28.75
485.466	28.46
485.819	28.5
486.172	28.61
486.525	28.78
486.878	29.01
487.23	29.14
487.583	29.15
487.936	29.36
488.288	29.37
488.641	29.3
488.993	29.24
489.345	29.27
489.698	29.19
490.05	29.29
490.402	29.44
490.754	29.71
491.107	29.73
491.459	29.94
491.811	30.19
492.163	30.21
492.515	30.28
492.866	29.98
493.218	29.85
493.57	29.78
493.922	29.96
494.274	30.08
494.625	30.25
494.977	30.54
495.328	30.73
495.68	30.98
496.031	31.12
496.383	31.24
496.734	31.31
497.086	31.25
497.437	31.23
497.788	31.36
498.139	31.48
498.49	31.41
498.842	31.33
499.193	31.27
499.544	31.48
499.894	31.5
500.245	31.53
500.596	31.63
500.947	31.75
501.298	31.84
501.648	31.93
501.999	32.02
502.35	31.86
502.7	32.07
503.051	32.08
503.401	32.25
503.752	32.51
504.102	32.31
504.452	32.6
504.803	32.51
505.153	32.45
505.503	32.56
505.853	32.65
506.203	32.58
506.553	32.57
506.903	32.67
507.253	32.71
507.603	32.76
507.953	32.99
508.303	32.98
508.652	32.97
509.002	32.96
509.352	32.93
509.701	32.99
510.051	33.08
510.4	32.84
510.75	32.96
511.099	32.9
511.449	33.12
511.798	33.03
512.147	33.19
512.496	33.43
512.846	33.34
513.195	33.21
513.544	33.51
513.893	33.4
514.242	33.26
514.591	33.59
514.939	33.63
515.288	33.61
515.637	33.49
515.986	33.72
516.334	33.86
516.683	34.02
517.032	33.99
517.38	34.07
517.729	34.24
518.077	34.06
518.426	34.36
518.774	34.2
519.122	34.15
519.47	34.02
519.819	34.08
520.167	33.81
520.515	33.79
520.863	34.03
521.211	33.97
521.559	34.18
521.907	34.15
522.255	34.29
522.602	34.5
522.95	34.59
523.298	34.73
523.645	34.87
523.993	34.86
524.341	34.82
524.688	35.05
525.036	34.95
525.383	34.95
525.73	35.06
526.078	35.26
526.425	35.04
526.772	34.87
527.119	34.88
527.466	34.63
527.814	34.71
528.161	34.84
528.508	34.9
528.854	34.98
529.201	35.01
529.548	34.79
529.895	34.58
530.242	34.33
530.588	34.61
530.935	34.7
531.282	34.75
531.628	34.78
531.975	34.99
532.321	35.09
532.667	35.41
533.014	35.42
533.36	35.5
533.706	35.58
534.052	35.55
534.399	35.82
534.745	35.44
535.091	35.42
535.437	35.33
535.783	35.6
536.129	35.74
536.474	35.79
536.82	36.02
537.166	36.16
537.512	36.24
537.857	36.07
538.203	36.16
538.549	36.19
538.894	36.3
539.239	36.44
539.585	36.55
539.93	36.76
540.276	36.86
540.621	37.17
540.966	37.02
541.311	37.02
541.656	37.16
542.001	37.13
542.346	36.78
542.691	36.58
543.036	36.39
543.381	36.31
543.726	36.42
544.071	36.65
544.415	36.76
544.76	36.93
545.105	37.09
545.449	37.13
545.794	37.31
546.138	37.27
546.483	37.49
546.827	37.72
547.171	37.74
547.516	37.84
547.86	37.9
548.204	37.76
548.548	37.65
548.892	37.94
549.236	37.81
549.58	38.21
549.924	38.38
550.268	38.36
550.612	38.35
550.956	38.63
551.3	38.87
551.643	38.82
551.987	38.76
552.33	38.98
552.674	38.73
553.017	39.19
553.361	39.45
553.704	39.17
554.048	39
554.391	38.89
554.734	38.92
555.077	39.17
555.42	38.96
555.764	39.39
556.107	39.27
556.45	39.57
556.793	39.54
557.135	39.67
557.478	39.89
557.821	39.63
558.164	39.86
558.507	39.91
558.849	39.96
559.192	39.93
559.534	40.08
559.877	39.97
560.219	39.97
560.562	40.01
560.904	40.38
561.246	40.09
561.589	40.06
561.931	40.28
562.273	40.16
562.615	40.29
562.957	40.02
563.299	40.21
563.641	40.27
563.983	40.36
564.325	40.37
564.667	40.6
565.008	40.52
565.35	40.43
565.692	40.7
566.033	40.78
566.375	40.79
566.716	40.62
567.058	40.92
567.399	40.64
567.741	40.96
568.082	40.72
568.423	40.95
568.764	40.85
569.105	40.86
569.447	41.11
569.788	41.19
570.129	41.16
570.47	41.42
570.811	41.42
571.151	41.29
571.492	41.29
571.833	41.45
572.174	41.53
572.514	41.72
572.855	41.37
573.195	41.6
573.536	41.33
573.876	41.5
574.217	41.58
574.557	41.38
574.898	41.7
575.238	41.65
575.578	41.93
575.918	41.88
576.258	42.06
576.598	41.73
576.938	42.03
577.278	42.09
577.618	42.11
577.958	42.13
578.298	41.94
578.638	42.27
578.977	42.24
579.317	42.46
579.657	42.42
579.996	42.54
580.336	42.74
580.675	42.55
581.014	42.78
581.354	42.94
581.693	42.96
582.032	43.04
582.372	43.5
582.711	43.08
583.05	43.31
583.389	42.98
583.728	43.07
584.067	43.29
584.406	43.42
584.745	43.44
585.083	43.15
585.422	43.37
585.761	43.39
586.1	43.74
586.438	43.86
586.777	43.4
587.115	43.61
587.454	44.1
587.792	43.69
588.13	44.03
588.469	43.98
588.807	44.2
589.145	44
589.483	43.7
589.821	44.22
590.159	43.83
590.497	43.99
590.835	43.75
591.173	44.02
591.511	43.97
591.849	44.08
592.187	44.46
592.524	44.41
592.862	44.4
593.2	43.93
593.537	44.53
593.875	44.69
594.212	44.51
594.55	44.43
594.887	44.64
595.224	44.58
595.561	44.68
595.899	44.56
596.236	44.83
596.573	44.63
596.91	45.04
597.247	44.54
597.584	44.88
597.921	44.41
598.258	44.97
598.594	44.43
598.931	44.82
599.268	44.69
599.604	44.61
599.941	44.67
600.277	44.82
600.614	45.31
600.95	45.28
601.287	45.18
601.623	45.33
601.959	45.42
602.296	45.51
602.632	45.33
602.968	45.59
603.304	45.44
603.64	45.87
603.976	45.9
604.312	45.4
604.648	45.68
604.984	45.6
605.319	45.41
605.655	45.61
605.991	45.46
606.326	45.45
606.662	45.43
606.998	45.38
607.333	45.2
607.668	45.63
608.004	45.65
608.339	46.11
608.674	46.02
609.01	46.13
609.345	46.23
609.68	46.13
610.015	45.96
610.35	46.24
610.685	46.34
611.02	46.35
611.355	45.76
611.689	46.06
612.024	46.16
612.359	46.37
612.694	46.36
613.028	46.09
613.363	46.63
613.697	46.65
614.032	46.59
614.366	46.53
614.7	46.8
615.035	47.37
615.369	46.75
615.703	47.09
616.037	46.91
616.371	46.7
616.705	47.09
617.039	47.14
617.373	47.34
617.707	47.1
618.041	46.7
618.375	47.69
618.709	47.33
619.042	47.1
619.376	47.23
619.71	46.99
620.043	46.84
620.377	47.19
620.71	47.34
621.043	47.51
621.377	47.28
621.71	47.61
622.043	47.71
622.376	47.83
622.709	47.79
623.043	47.75
623.376	47.95
623.709	47.84
624.041	47.95
624.374	47.86
624.707	47.91
625.04	47.97
625.373	48.03
625.705	47.82
626.038	48.12
626.37	48.19
626.703	48.25
627.035	47.89
627.368	48.24
627.7	48
628.032	47.91
628.365	47.75
628.697	48.09
629.029	47.98
629.361	48.35
629.693	48.06
630.025	48.35
630.357	48.38
630.689	48.65
631.021	48.43
631.353	48.67
631.684	48.68
632.016	48.44
632.348	48.84
632.679	48.81
633.011	49.05
633.342	48.53
633.674	48.69
634.005	48.57
634.336	48.56
634.668	48.87
634.999	48.9
635.33	48.95
635.661	49.18
635.992	48.93
636.323	49.18
636.654	49.22
636.985	49.33
637.316	48.96
637.647	49.42
637.977	49.33
638.308	49.14
638.639	49.11
638.969	49.67
639.3	48.96
639.63	49.41
639.961	49.27
640.291	49.33
640.622	49.77
640.952	49.8
641.282	49.48
641.612	49.23
641.943	50.17
642.273	49.92
642.603	50.2
642.933	49.89
643.263	49.95
643.592	49.85
643.922	50.11
644.252	50.34
644.582	49.41
644.911	50.07
645.241	49.56
645.571	50.23
645.9	50.43
646.23	49.9
646.559	50.41
646.888	49.67
647.218	50.58
647.547	50.24
647.876	50.69
648.205	50.79
648.534	50.8
648.863	49.33
649.192	50.65
649.521	50.77
649.85	50.05
650.179	50.69
650.508	50.75
650.837	50.81
651.165	50.42
651.494	50.32
651.822	50.49
652.151	50.83
652.479	50.83
652.808	50.87
653.136	50.67
653.465	50.5
653.793	51.02
654.121	50.89
654.449	50.61
654.777	50.47
655.105	50.93
655.433	51.16
655.761	50.3
656.089	50.89
656.417	51.33
656.745	51.32
657.073	51.33
657.4	51.86
657.728	50.76
658.056	50.58
658.383	50.51
658.711	51.54
659.038	51.11
659.365	51.29
659.693	51.19
660.02	51.03
660.347	50.83
660.674	51.62
661.001	51.19
661.329	51.18
661.656	51.3
661.982	51.42
662.309	51.18
662.636	51.71
662.963	51.51
663.29	51.36
663.616	51.8
663.943	51.54
664.27	52.06
664.596	51.34
664.923	51.79
665.249	51.05
665.576	51.69
665.902	51.78
666.228	51.94
666.554	51.88
666.881	51.54
667.207	52.37
667.533	51.88
667.859	51.62
668.185	52.33
668.511	52.53
668.837	51.98
669.162	52.63
669.488	51.49
