Data from 0393_crown_Reflection__3__160.txt Node

Date: Tue Dec 12 19:42:55 CST 2023
User: ToomeyLab
Spectrometer: FLMS14357
Trigger mode: 0
Integration Time (sec): 1.000000E-2
Scans to average: 100
Electric dark correction enabled: true
Nonlinearity correction enabled: false
Boxcar width: 0
XAxis mode: Wavelengths
Number of Pixels in Spectrum: 2048
>>>>>Begin Spectral Data<<<<<
189.047	-45.53
189.435	-45.53
189.823	-45.53
190.211	-70.03
190.599	-87.62
190.987	92.56
191.375	19.96
191.763	400.53
192.151	132.75
192.538	-302.73
192.926	251.46
193.314	-2123.81
193.702	-838.14
194.089	-175.29
194.477	283.1
194.864	73.93
195.252	64.96
195.639	138.91
196.027	307.54
196.414	474.63
196.801	23.91
197.189	362.6
197.576	-8.7
197.963	-27.63
198.351	27.23
198.738	27.93
199.125	-14.02
199.512	-49.67
199.899	26.89
200.286	1.95
200.673	-37.1
201.06	1.29
201.447	-124.78
201.833	-4.78
202.22	-3.03
202.607	-103.17
202.994	-40.94
203.38	8.05
203.767	18.67
204.154	65.85
204.54	38.98
204.927	-15.65
205.313	9.75
205.699	-9.43
206.086	-21.28
206.472	19.44
206.858	-7.68
207.245	6.66
207.631	29.95
208.017	-19.9
208.403	26.74
208.789	-27.43
209.175	-35.63
209.561	-8.92
209.947	-32.48
210.333	16.19
210.719	-14.92
211.105	-3.22
211.491	42.84
211.876	-8.89
212.262	7.36
212.648	-24.72
213.034	-1.12
213.419	-6.66
213.805	-2.29
214.19	23.12
214.576	15.81
214.961	10.73
215.346	5.64
215.732	13.59
216.117	-14.05
216.502	-111.12
216.888	-36.77
217.273	-23.93
217.658	-33.46
218.043	-44.07
218.428	-24.29
218.813	-14.6
219.198	-38.49
219.583	-7.32
219.968	6.69
220.353	-25.07
220.738	3.47
221.122	13.11
221.507	-25.17
221.892	7.28
222.276	18.52
222.661	-0.79
223.046	6.27
223.43	-2.35
223.815	-7.67
224.199	10.69
224.583	2.76
224.968	-6.5
225.352	-4.5
225.736	4.36
226.121	2.88
226.505	-9.89
226.889	0.75
227.273	-5.54
227.657	5.92
228.041	2.66
228.425	1.37
228.809	-0.56
229.193	-0.58
229.577	3.09
229.961	2.15
230.344	2.93
230.728	3.84
231.112	2.91
231.495	3.67
231.879	3.38
232.263	3.66
232.646	1.97
233.03	3.86
233.413	2.89
233.797	3.75
234.18	2.87
234.563	2.15
234.946	4.15
235.33	4.94
235.713	3.08
236.096	1.53
236.479	3.04
236.862	3.14
237.245	2.87
237.628	1.41
238.011	2.85
238.394	1.42
238.777	3.94
239.16	3.18
239.543	2.11
239.925	3.57
240.308	2.93
240.691	2.4
241.073	4.27
241.456	2.74
241.838	2.76
242.221	3.29
242.603	2.88
242.986	2.1
243.368	3.2
243.75	2.52
244.133	2.94
244.515	2.91
244.897	2.91
245.279	3.02
245.661	2.62
246.043	4.06
246.425	4.22
246.807	2.27
247.189	2.79
247.571	2.71
247.953	2.08
248.335	3.1
248.717	3.03
249.098	2.87
249.48	2.85
249.862	2.5
250.243	2.46
250.625	3.48
251.006	2.74
251.388	3.36
251.769	3.91
252.151	2.56
252.532	2.72
252.913	2.64
253.295	2.63
253.676	2.06
254.057	2.69
254.438	3.13
254.819	2.73
255.2	2.11
255.581	1.31
255.962	2.21
256.343	2.18
256.724	2.23
257.105	3.96
257.486	0.85
257.867	2.06
258.247	1.67
258.628	2.51
259.009	1.52
259.389	2.02
259.77	2.9
260.15	2.48
260.531	3.25
260.911	3.24
261.292	2.47
261.672	2.56
262.052	2.63
262.432	2.93
262.813	2.59
263.193	3.01
263.573	3.13
263.953	2.95
264.333	3.23
264.713	3.07
265.093	2.48
265.473	3.27
265.853	1.9
266.233	2.31
266.612	2.33
266.992	2.71
267.372	2.53
267.752	3.05
268.131	1.51
268.511	2.03
268.89	1.67
269.27	1.78
269.649	2.6
270.029	2.28
270.408	2.81
270.787	2.11
271.167	2.3
271.546	2.76
271.925	3.24
272.304	2.95
272.683	1.88
273.062	2.04
273.441	2.76
273.82	2.03
274.199	2.13
274.578	2.45
274.957	2.13
275.336	2.78
275.715	2.29
276.093	1.94
276.472	2.3
276.851	2.74
277.229	2.02
277.608	2.66
277.986	2.14
278.365	2.14
278.743	2.32
279.122	2.93
279.5	2.21
279.878	1.77
280.257	2.01
280.635	2.4
281.013	1.77
281.391	2.71
281.769	2.1
282.147	2.32
282.525	2.11
282.903	2.2
283.281	2.04
283.659	2.76
284.037	2.35
284.415	2.47
284.792	2.36
285.17	2.16
285.548	2.59
285.925	2.14
286.303	2.35
286.68	2.07
287.058	2.66
287.435	2.54
287.813	1.91
288.19	2.38
288.567	2.17
288.945	2.25
289.322	2.01
289.699	2.29
290.076	1.8
290.453	2.37
290.83	2.2
291.207	2.92
291.584	1.97
291.961	2.41
292.338	2.07
292.715	2.12
293.092	2.17
293.469	2.04
293.845	2.52
294.222	1.87
294.599	1.85
294.975	2.25
295.352	2.23
295.728	2.37
296.105	2.16
296.481	2.38
296.858	2.15
297.234	2.71
297.61	2.64
297.986	2.52
298.363	2.38
298.739	2.32
299.115	2.05
299.491	2.17
299.867	2.23
300.243	2.39
300.619	2.19
300.995	2.35
301.371	2.39
301.746	2.27
302.122	2.9
302.498	2.57
302.874	2.63
303.249	2.75
303.625	2.11
304	2.55
304.376	2.64
304.751	2.47
305.127	2.4
305.502	2.14
305.878	2.57
306.253	1.8
306.628	2.25
307.003	2.37
307.378	2.15
307.754	2.3
308.129	2.05
308.504	3.1
308.879	1.92
309.254	2.1
309.629	1.96
310.003	2.61
310.378	2.37
310.753	2.35
311.128	2.44
311.502	1.89
311.877	1.9
312.252	1.67
312.626	2.1
313.001	2.09
313.375	2.22
313.75	2.61
314.124	2.42
314.498	2.03
314.873	1.89
315.247	2.57
315.621	1.75
315.995	2.29
316.369	2.19
316.743	2.01
317.117	1.88
317.491	2.35
317.865	2.06
318.239	2.02
318.613	2.51
318.987	2.41
319.361	2.24
319.734	2.12
320.108	2.26
320.482	2.57
320.855	1.65
321.229	2.76
321.602	2.92
321.976	2.5
322.349	2.3
322.723	2.16
323.096	2.26
323.469	2.28
323.843	3.02
324.216	3.08
324.589	2.22
324.962	2.44
325.335	2.48
325.708	2.31
326.081	2.55
326.454	1.97
326.827	2.38
327.2	2.5
327.573	1.74
327.945	2.62
328.318	2.69
328.691	1.78
329.063	2.49
329.436	2.24
329.809	2.22
330.181	1.85
330.553	1.86
330.926	2.15
331.298	2.29
331.671	2
332.043	2.13
332.415	2.43
332.787	2.88
333.159	2.3
333.532	2.16
333.904	1.89
334.276	2.75
334.648	1.84
335.02	1.47
335.391	1.63
335.763	1.96
336.135	2.86
336.507	2.42
336.879	2.02
337.25	2.47
337.622	2.3
337.993	2.4
338.365	1.97
338.736	2.61
339.108	2.13
339.479	2.42
339.851	2.03
340.222	1.98
340.593	2.19
340.964	2.04
341.336	2.59
341.707	1.95
342.078	1.79
342.449	2.15
342.82	2.53
343.191	2.42
343.562	2.2
343.933	2.72
344.303	2.33
344.674	2.28
345.045	2.42
345.416	2.7
345.786	2.33
346.157	2.19
346.527	2.27
346.898	2.06
347.268	2.5
347.639	2.4
348.009	2.12
348.38	2.31
348.75	2.53
349.12	2.09
349.49	2.51
349.861	2.59
350.231	1.94
350.601	2.32
350.971	2.35
351.341	2.35
351.711	2.13
352.081	2.38
352.45	2.22
352.82	2.62
353.19	2.22
353.56	2.02
353.929	2.24
354.299	2.25
354.669	2.43
355.038	1.38
355.408	2.19
355.777	2.73
356.147	2.25
356.516	2.52
356.885	2.18
357.254	2.28
357.624	2.09
357.993	2.2
358.362	2.47
358.731	2.58
359.1	2.02
359.469	2.18
359.838	2.36
360.207	2.27
360.576	2.63
360.945	2.07
361.314	2.62
361.682	2.4
362.051	2.38
362.42	2.36
362.788	2.37
363.157	2.66
363.525	2.34
363.894	2.21
364.262	2.24
364.631	2.17
364.999	2.55
365.367	2.58
365.735	2.08
366.104	2.28
366.472	1.91
366.84	2.51
367.208	2.45
367.576	2.41
367.944	2.33
368.312	2.28
368.68	2.15
369.048	2.45
369.416	2.31
369.783	2.49
370.151	2.67
370.519	2.2
370.886	2.47
371.254	2.23
371.621	2.74
371.989	2.25
372.356	2.55
372.724	2.36
373.091	2.5
373.458	2.16
373.826	2.49
374.193	2.12
374.56	2.67
374.927	2.55
375.294	2.33
375.661	2.68
376.028	2.37
376.395	2.75
376.762	2.56
377.129	2.22
377.496	2.57
377.863	2.48
378.229	2.16
378.596	2.15
378.963	2.59
379.329	2.27
379.696	2.24
380.062	2.68
380.429	2.68
380.795	2.65
381.161	2.83
381.528	2.37
381.894	2.93
382.26	2.4
382.626	2.61
382.993	2.59
383.359	2.33
383.725	1.99
384.091	2.37
384.457	2.45
384.823	2.66
385.188	2.56
385.554	2.63
385.92	2.39
386.286	2.57
386.651	2.75
387.017	2.82
387.383	2.43
387.748	2.76
388.114	2.44
388.479	2.67
388.845	2.67
389.21	2.72
389.575	2.25
389.94	2.58
390.306	2.87
390.671	2.78
391.036	2.91
391.401	2.5
391.766	2.65
392.131	2.53
392.496	2.4
392.861	2.47
393.226	2.48
393.591	2.47
393.956	2.5
394.32	2.51
394.685	2.66
395.05	2.34
395.414	2.68
395.779	2.5
396.143	2.81
396.508	2.51
396.872	2.52
397.236	2.54
397.601	2.48
397.965	2.51
398.329	2.55
398.694	2.41
399.058	2.65
399.422	2.58
399.786	2.67
400.15	2.56
400.514	2.68
400.878	2.72
401.242	2.44
401.605	2.63
401.969	2.53
402.333	2.62
402.697	2.61
403.06	2.56
403.424	2.7
403.787	2.28
404.151	2.94
404.514	2.37
404.878	2.66
405.241	2.67
405.604	2.47
405.968	2.54
406.331	2.81
406.694	2.75
407.057	2.47
407.42	2.55
407.783	2.66
408.146	2.56
408.509	2.38
408.872	2.49
409.235	2.63
409.598	2.48
409.961	2.44
410.323	2.63
410.686	2.63
411.049	2.69
411.411	2.8
411.774	2.66
412.136	2.75
412.499	2.71
412.861	2.51
413.223	2.88
413.586	2.65
413.948	2.65
414.31	2.67
414.672	2.59
415.035	2.56
415.397	2.61
415.759	2.77
416.121	2.4
416.483	2.7
416.845	2.45
417.206	2.68
417.568	2.63
417.93	2.69
418.292	2.62
418.653	2.77
419.015	2.64
419.377	2.64
419.738	2.6
420.1	2.53
420.461	2.65
420.822	2.65
421.184	2.63
421.545	2.81
421.906	2.59
422.267	2.58
422.629	2.6
422.99	2.71
423.351	2.57
423.712	2.58
424.073	2.59
424.434	2.63
424.795	2.71
425.155	2.43
425.516	2.46
425.877	2.55
426.238	2.61
426.598	2.61
426.959	2.55
427.32	2.66
427.68	2.54
428.041	2.63
428.401	2.63
428.761	2.7
429.122	2.73
429.482	2.87
429.842	2.59
430.202	2.66
430.563	2.68
430.923	2.64
431.283	2.71
431.643	2.8
432.003	2.51
432.363	2.86
432.722	2.65
433.082	2.75
433.442	2.51
433.802	2.75
434.161	2.67
434.521	2.7
434.881	2.7
435.24	2.64
435.6	2.59
435.959	2.79
436.319	2.76
436.678	2.78
437.037	2.64
437.396	2.47
437.756	2.7
438.115	2.68
438.474	2.57
438.833	2.81
439.192	2.89
439.551	2.62
439.91	2.58
440.269	2.76
440.628	2.64
440.987	2.59
441.345	2.77
441.704	2.61
442.063	2.68
442.421	2.66
442.78	2.78
443.138	2.61
443.497	2.71
443.855	2.69
444.214	2.71
444.572	2.72
444.93	2.65
445.288	2.55
445.647	2.7
446.005	2.69
446.363	2.62
446.721	2.68
447.079	2.74
447.437	2.54
447.795	2.66
448.153	2.7
448.51	2.68
448.868	2.72
449.226	2.7
449.584	2.62
449.941	2.55
450.299	2.74
450.656	2.69
451.014	2.56
451.371	2.68
451.729	2.86
452.086	2.58
452.443	2.86
452.801	2.76
453.158	2.63
453.515	2.71
453.872	2.78
454.229	2.9
454.586	2.64
454.943	2.66
455.3	2.62
455.657	2.72
456.014	2.81
456.371	2.79
456.727	2.7
457.084	2.71
457.441	2.74
457.797	2.66
458.154	2.58
458.51	2.62
458.867	2.79
459.223	2.87
459.58	2.71
459.936	2.5
460.292	2.73
460.648	2.68
461.005	2.66
461.361	2.71
461.717	2.65
462.073	2.64
462.429	2.68
462.785	2.61
463.141	2.59
463.496	2.66
463.852	2.85
464.208	2.82
464.564	2.73
464.919	2.88
465.275	2.82
465.631	2.76
465.986	2.63
466.342	2.46
466.697	2.72
467.052	2.96
467.408	2.78
467.763	2.7
468.118	2.83
468.473	2.69
468.829	2.83
469.184	2.66
469.539	2.82
469.894	2.86
470.249	2.77
470.603	2.81
470.958	2.74
471.313	2.75
471.668	2.92
472.023	2.61
472.377	2.56
472.732	2.75
473.086	2.81
473.441	2.85
473.795	2.68
474.15	2.75
474.504	2.79
474.859	2.71
475.213	2.65
475.567	2.77
475.921	2.73
476.275	2.6
476.63	2.71
476.984	2.96
477.338	2.76
477.692	2.83
478.045	2.79
478.399	2.69
478.753	2.7
479.107	2.69
479.461	2.78
479.814	2.74
480.168	2.73
480.521	2.68
480.875	2.88
481.228	2.97
481.582	2.77
481.935	2.7
482.289	2.79
482.642	2.77
482.995	2.66
483.348	2.63
483.701	2.91
484.055	2.77
484.408	2.7
484.761	2.68
485.114	2.66
485.466	2.58
485.819	2.52
486.172	2.54
486.525	2.62
486.878	2.65
487.23	2.61
487.583	2.62
487.936	2.69
488.288	2.64
488.641	2.61
488.993	2.63
489.345	2.57
489.698	2.58
490.05	2.62
490.402	2.61
490.754	2.63
491.107	2.64
491.459	2.7
491.811	2.71
492.163	2.63
492.515	2.75
492.866	2.59
493.218	2.6
493.57	2.58
493.922	2.56
494.274	2.66
494.625	2.69
494.977	2.77
495.328	2.72
495.68	2.76
496.031	2.82
496.383	2.66
496.734	2.83
497.086	2.74
497.437	2.83
497.788	2.82
498.139	2.73
498.49	2.87
498.842	2.7
499.193	2.8
499.544	2.86
499.894	2.71
500.245	2.73
500.596	2.72
500.947	2.86
501.298	2.67
501.648	2.89
501.999	2.73
502.35	2.79
502.7	2.71
503.051	2.83
503.401	2.86
503.752	2.9
504.102	2.82
504.452	2.83
504.803	2.91
505.153	2.83
505.503	2.8
505.853	2.9
506.203	2.79
506.553	2.77
506.903	2.92
507.253	2.79
507.603	2.83
507.953	2.72
508.303	2.81
508.652	2.73
509.002	2.87
509.352	2.7
509.701	2.83
510.051	2.79
510.4	2.83
510.75	2.7
511.099	2.77
511.449	2.79
511.798	2.7
512.147	2.91
512.496	2.86
512.846	2.86
513.195	2.66
513.544	2.71
513.893	2.79
514.242	2.66
514.591	2.74
514.939	2.79
515.288	2.7
515.637	2.65
515.986	2.79
516.334	2.87
516.683	2.78
517.032	2.77
517.38	2.67
517.729	2.78
518.077	2.71
518.426	2.87
518.774	2.68
519.122	2.82
519.47	2.82
519.819	2.71
520.167	2.66
520.515	2.73
520.863	2.79
521.211	2.72
521.559	2.73
521.907	2.71
522.255	2.8
522.602	2.84
522.95	2.71
523.298	2.76
523.645	2.91
523.993	2.89
524.341	2.77
524.688	2.77
525.036	2.86
525.383	2.71
525.73	2.75
526.078	2.76
526.425	2.78
526.772	2.72
527.119	2.76
527.466	2.7
527.814	2.67
528.161	2.76
528.508	2.75
528.854	2.74
529.201	2.76
529.548	2.7
529.895	2.67
530.242	2.6
530.588	2.6
530.935	2.67
531.282	2.69
531.628	2.73
531.975	2.7
532.321	2.65
532.667	2.71
533.014	2.7
533.36	2.75
533.706	2.71
534.052	2.75
534.399	2.79
534.745	2.71
535.091	2.66
535.437	2.68
535.783	2.68
536.129	2.8
536.474	2.73
536.82	2.74
537.166	2.9
537.512	2.75
537.857	2.87
538.203	2.71
538.549	2.74
538.894	2.79
539.239	2.77
539.585	2.78
539.93	2.83
540.276	2.8
540.621	2.66
540.966	2.66
541.311	2.81
541.656	2.78
542.001	2.75
542.346	2.78
542.691	2.75
543.036	2.69
543.381	2.57
543.726	2.72
544.071	2.71
544.415	2.71
544.76	2.71
545.105	2.79
545.449	2.76
545.794	2.92
546.138	2.69
546.483	2.73
546.827	2.76
547.171	2.95
547.516	2.75
547.86	2.75
548.204	2.83
548.548	2.78
548.892	2.81
549.236	2.75
549.58	2.79
549.924	2.77
550.268	2.88
550.612	2.7
550.956	2.93
551.3	2.98
551.643	2.91
551.987	2.92
552.33	2.9
552.674	2.86
553.017	3.02
553.361	3.09
553.704	2.87
554.048	2.72
554.391	2.93
554.734	2.91
555.077	2.82
555.42	2.71
555.764	2.99
556.107	2.93
556.45	2.74
556.793	2.72
557.135	2.82
557.478	2.86
557.821	2.72
558.164	3
558.507	2.98
558.849	2.95
559.192	2.85
559.534	2.88
559.877	2.77
560.219	3.04
560.562	2.9
560.904	2.93
561.246	2.78
561.589	2.81
561.931	2.95
562.273	2.72
562.615	2.79
562.957	2.85
563.299	2.89
563.641	2.88
563.983	2.84
564.325	2.76
564.667	3.01
565.008	2.75
565.35	2.59
565.692	2.83
566.033	2.9
566.375	2.86
566.716	2.83
567.058	2.9
567.399	2.85
567.741	2.86
568.082	2.77
568.423	2.85
568.764	2.9
569.105	2.78
569.447	2.91
569.788	2.85
570.129	2.59
570.47	2.97
570.811	3
571.151	2.93
571.492	3.04
571.833	2.87
572.174	2.82
572.514	2.93
572.855	2.76
573.195	2.72
573.536	2.65
573.876	2.78
574.217	2.92
574.557	2.68
574.898	2.88
575.238	2.91
575.578	2.77
575.918	2.69
576.258	2.8
576.598	2.77
576.938	2.8
577.278	2.9
577.618	2.9
577.958	2.85
578.298	2.91
578.638	2.74
578.977	2.72
579.317	2.91
579.657	3.01
579.996	2.96
580.336	2.83
580.675	2.89
581.014	2.89
581.354	2.8
581.693	2.91
582.032	2.73
582.372	2.95
582.711	2.84
583.05	3.1
583.389	2.72
583.728	3.02
584.067	2.92
584.406	3.16
584.745	3.14
585.083	2.84
585.422	3.13
585.761	3.2
586.1	3.17
586.438	2.99
586.777	2.64
587.115	2.72
587.454	2.93
587.792	2.66
588.13	3.19
588.469	3
588.807	2.95
589.145	2.72
589.483	3.15
589.821	3.11
590.159	2.93
590.497	2.81
590.835	2.78
591.173	3.02
591.511	3
591.849	2.76
592.187	2.8
592.524	2.7
592.862	2.66
593.2	2.84
593.537	2.83
593.875	2.88
594.212	2.93
594.55	2.94
594.887	3.17
595.224	2.83
595.561	3.32
595.899	3.05
596.236	2.78
596.573	2.73
596.91	3.09
597.247	2.93
597.584	3.02
597.921	2.75
598.258	3
598.594	2.91
598.931	2.86
599.268	2.82
599.604	2.81
599.941	2.81
600.277	2.87
600.614	3.05
600.95	3.01
601.287	2.81
601.623	3.1
601.959	2.77
602.296	3.29
602.632	2.67
602.968	3.07
603.304	2.79
603.64	3.12
603.976	2.71
604.312	2.81
604.648	2.88
604.984	2.91
605.319	3
605.655	2.87
605.991	2.93
606.326	2.86
606.662	2.82
606.998	2.84
607.333	2.75
607.668	2.96
608.004	2.87
608.339	3.06
608.674	2.91
609.01	2.72
609.345	2.96
609.68	2.8
610.015	2.87
610.35	2.89
610.685	2.86
611.02	2.92
611.355	2.67
611.689	2.84
612.024	2.81
612.359	2.9
612.694	2.78
613.028	2.89
613.363	2.69
613.697	2.83
614.032	3.1
614.366	3.17
614.7	2.71
615.035	2.85
615.369	2.92
615.703	3.07
616.037	2.69
616.371	2.67
616.705	2.95
617.039	2.89
617.373	2.78
617.707	2.83
618.041	2.99
618.375	2.79
618.709	2.73
619.042	2.55
619.376	2.81
619.71	2.68
620.043	2.93
620.377	2.79
620.71	2.66
621.043	2.55
621.377	2.63
621.71	3.02
622.043	3.16
622.376	2.93
622.709	3.02
623.043	2.61
623.376	3.15
623.709	3
624.041	3.03
624.374	2.85
624.707	2.73
625.04	2.9
625.373	3.07
625.705	2.93
626.038	2.82
626.37	2.98
626.703	3.17
627.035	2.89
627.368	3.1
627.7	2.7
628.032	2.77
628.365	2.83
628.697	2.74
629.029	2.71
629.361	2.67
629.693	2.63
630.025	2.7
630.357	2.96
630.689	2.91
631.021	3.03
631.353	3.12
631.684	2.84
632.016	3
632.348	3.14
632.679	2.56
633.011	3.45
633.342	2.99
633.674	3.16
634.005	2.89
634.336	3.11
634.668	2.88
634.999	2.55
635.33	2.9
635.661	2.94
635.992	3.05
636.323	2.95
636.654	2.82
636.985	3.04
637.316	2.96
637.647	2.97
637.977	3.04
638.308	3.02
638.639	3
638.969	2.86
639.3	2.58
639.63	3.35
639.961	2.83
640.291	2.64
640.622	2.91
640.952	3.36
641.282	2.73
641.612	3.03
641.943	2.7
642.273	3.11
642.603	3.07
642.933	3.03
643.263	2.69
643.592	2.87
643.922	3.04
644.252	3.23
644.582	2.41
644.911	2.98
645.241	2.68
645.571	2.98
645.9	2.83
646.23	2.69
646.559	3.24
646.888	2.87
647.218	3.38
647.547	2.67
647.876	2.83
648.205	3.18
648.534	3.15
648.863	3.09
649.192	3.16
649.521	3.24
649.85	2.34
650.179	3.26
650.508	3.39
650.837	2.97
651.165	2.61
651.494	2.63
651.822	2.67
652.151	3.03
652.479	3.28
652.808	3.12
653.136	2.87
653.465	2.64
653.793	3.12
654.121	2.88
654.449	2.84
654.777	3.04
655.105	2.5
655.433	2.85
655.761	2.94
656.089	3.19
656.417	2.8
656.745	2.86
657.073	2.78
657.4	3.23
657.728	2.77
658.056	2.94
658.383	2.16
658.711	2.87
659.038	2.96
659.365	3.1
659.693	2.94
660.02	2.97
660.347	3.11
660.674	3.07
661.001	2.94
661.329	3
661.656	2.85
661.982	2.56
662.309	3.23
662.636	2.96
662.963	3.22
663.29	3.04
663.616	2.45
663.943	3.26
664.27	3.58
664.596	2.74
664.923	3.8
665.249	2.83
665.576	2.93
665.902	2.68
666.228	3.3
666.554	3.11
666.881	2.29
667.207	3.17
667.533	3.29
667.859	3.44
668.185	2.98
668.511	2.9
668.837	2.97
669.162	3.66
669.488	2.91
669.814	3.02
670.139	2.37
670.465	2.45
670.791	2.99
671.116	3.12
671.442	2.95
671.767	2.93
672.092	3.55
672.418	2.95
672.743	2.96
673.068	2.52
673.393	2.91
673.718	3.44
674.043	3
674.368	2.34
674.693	2.74
675.018	2.72
675.343	2.7
675.667	2.42
675.992	2.67
676.317	2.35
676.641	2.47
676.966	2.84
677.29	2.66
677.615	3.04
677.939	2.54
678.264	3.35
678.588	3.1
678.912	3.63
679.236	2.97
679.56	3.17
679.885	3.18
680.209	3.39
680.532	3.45
680.856	2.65
681.18	2.53
681.504	2.7
681.828	3.12
682.152	2.75
682.475	3.12
682.799	2.96
683.122	3.14
683.446	3.12
683.769	3.86
684.093	3.07
684.416	3.16
684.739	3.57
685.062	2.9
685.386	3.08
685.709	3.67
686.032	2.62
686.355	2.89
686.678	3.46
687.001	3.09
687.324	2.83
687.646	3.12
687.969	2.66
688.292	3
688.614	3.01
688.937	2.91
689.26	2.83
689.582	2.94
689.904	2.55
690.227	2.67
690.549	3.22
690.871	2.64
691.194	3.01
691.516	3.2
691.838	2.37
692.16	2.74
692.482	2.65
