Data from 0393_chest_Reflection__2__154.txt Node

Date: Tue Dec 12 19:38:30 CST 2023
User: ToomeyLab
Spectrometer: FLMS14357
Trigger mode: 0
Integration Time (sec): 1.000000E-2
Scans to average: 100
Electric dark correction enabled: true
Nonlinearity correction enabled: false
Boxcar width: 0
XAxis mode: Wavelengths
Number of Pixels in Spectrum: 2048
>>>>>Begin Spectral Data<<<<<
189.047	-57.2
189.435	-57.2
189.823	-57.2
190.211	67.34
190.599	-190.22
190.987	85.82
191.375	-57.71
191.763	840.9
192.151	-0.77
192.538	-160.84
192.926	190.14
193.314	-12433.33
193.702	-712.4
194.089	-155.98
194.477	222.79
194.864	102.99
195.252	60.35
195.639	-176.36
196.027	450.95
196.414	702.13
196.801	45.25
197.189	1784.55
197.576	104.33
197.963	76.79
198.351	-9.65
198.738	48.5
199.125	12.5
199.512	-29.77
199.899	16.09
200.286	13.05
200.673	-24.12
201.06	-33.26
201.447	-126.85
201.833	-17.42
202.22	-26.38
202.607	-151.15
202.994	-12.44
203.38	33.82
203.767	-1.55
204.154	48.24
204.54	15.88
204.927	-27.84
205.313	14.34
205.699	-31.94
206.086	-42.09
206.472	17.12
206.858	-25.6
207.245	37.51
207.631	-3.68
208.017	-37.52
208.403	20.43
208.789	-23.8
209.175	-36.77
209.561	29.34
209.947	6.38
210.333	16.44
210.719	-61.21
211.105	-73.03
211.491	11.28
211.876	5.4
212.262	-2.96
212.648	-33.13
213.034	-75.75
213.419	-5
213.805	-15.09
214.19	10.9
214.576	20.97
214.961	-29.91
215.346	-4.14
215.732	30.42
216.117	35.52
216.502	-18.74
216.888	-37.43
217.273	-25.28
217.658	-47.53
218.043	-75.95
218.428	2.69
218.813	-8.52
219.198	-45.67
219.583	-1.24
219.968	5.86
220.353	-45.39
220.738	11.91
221.122	-10.79
221.507	-31.77
221.892	-1.93
222.276	9.81
222.661	-6.14
223.046	-20.69
223.43	2.35
223.815	0.46
224.199	11.02
224.583	-5.22
224.968	10.03
225.352	-1.71
225.736	3.43
226.121	-7.05
226.505	-3.51
226.889	-3.59
227.273	-7.44
227.657	1.6
228.041	2.8
228.425	1.74
228.809	1.28
229.193	-0.44
229.577	2.13
229.961	0.96
230.344	1.93
230.728	2.76
231.112	2.64
231.495	2.77
231.879	2.47
232.263	1.41
232.646	1.49
233.03	2.78
233.413	1.34
233.797	1.2
234.18	-0.77
234.563	-0.61
234.946	0.86
235.33	3.23
235.713	3.03
236.096	2.01
236.479	2.84
236.862	1.86
237.245	2.89
237.628	0.64
238.011	2.13
238.394	1.4
238.777	3.77
239.16	1.67
239.543	3.12
239.925	3.29
240.308	2.44
240.691	0.97
241.073	4.05
241.456	3.16
241.838	1.77
242.221	3.03
242.603	2.52
242.986	2.13
243.368	2.85
243.75	2.51
244.133	2.75
244.515	2.63
244.897	3.08
245.279	3.01
245.661	1.84
246.043	2.15
246.425	3.16
246.807	1.89
247.189	3.11
247.571	3
247.953	1.99
248.335	2.82
248.717	2.45
249.098	2.88
249.48	2.7
249.862	2.33
250.243	2.43
250.625	2.62
251.006	2.67
251.388	2.9
251.769	2.63
252.151	1.54
252.532	2.9
252.913	2.79
253.295	3.61
253.676	1.78
254.057	2.29
254.438	3.32
254.819	2.2
255.2	2.49
255.581	2.17
255.962	2.09
256.343	2.28
256.724	2.47
257.105	3.04
257.486	3.01
257.867	2.21
258.247	1.88
258.628	1.86
259.009	2.54
259.389	2.23
259.77	2.15
260.15	2.19
260.531	3.06
260.911	2.99
261.292	2.17
261.672	2.48
262.052	2.57
262.432	2.63
262.813	2.96
263.193	2.36
263.573	3.11
263.953	3.21
264.333	3.01
264.713	2.7
265.093	2.22
265.473	3.9
265.853	1.5
266.233	1.79
266.612	1.61
266.992	2.52
267.372	2.16
267.752	3.5
268.131	1.96
268.511	2.28
268.89	1.85
269.27	1.94
269.649	2.02
270.029	2.19
270.408	2.97
270.787	2.51
271.167	2.71
271.546	3.05
271.925	2.86
272.304	3.13
272.683	2.46
273.062	2.9
273.441	2.73
273.82	1.9
274.199	2.02
274.578	2.34
274.957	2.05
275.336	2.4
275.715	2.35
276.093	1.81
276.472	2.76
276.851	2.93
277.229	2.29
277.608	2.37
277.986	1.71
278.365	2.27
278.743	2.24
279.122	2.84
279.5	2.45
279.878	1.86
280.257	2.32
280.635	1.86
281.013	2.69
281.391	2.58
281.769	2.35
282.147	2.81
282.525	1.8
282.903	2.55
283.281	2.47
283.659	2.29
284.037	2.8
284.415	2.47
284.792	2.66
285.17	2.35
285.548	2.56
285.925	2.69
286.303	2.37
286.68	2.31
287.058	2.7
287.435	2.5
287.813	2.39
288.19	2.57
288.567	2.57
288.945	2.6
289.322	1.68
289.699	2.41
290.076	2.56
290.453	3.04
290.83	2.18
291.207	2.97
291.584	2.89
291.961	2.6
292.338	2.66
292.715	2.56
293.092	2.5
293.469	2.97
293.845	2.86
294.222	2.65
294.599	3.11
294.975	2.52
295.352	2.7
295.728	2.89
296.105	2.47
296.481	2.99
296.858	2.67
297.234	3.05
297.61	3.17
297.986	3.31
298.363	2.81
298.739	3.05
299.115	2.84
299.491	2.93
299.867	2.95
300.243	3.1
300.619	3.38
300.995	3.46
301.371	3.16
301.746	2.9
302.122	3.22
302.498	3.28
302.874	3.18
303.249	3.38
303.625	3.15
304	3.13
304.376	3.57
304.751	3.47
305.127	3.47
305.502	4.21
305.878	2.86
306.253	3.46
306.628	3.13
307.003	3.17
307.378	3.16
307.754	3.12
308.129	2.65
308.504	4.31
308.879	3.18
309.254	3.5
309.629	3.26
310.003	3.52
310.378	3.42
310.753	3.58
311.128	3.82
311.502	3.39
311.877	3.35
312.252	3.12
312.626	3.13
313.001	3.48
313.375	3.28
313.75	3.57
314.124	3.69
314.498	3.58
314.873	3.4
315.247	3.78
315.621	3.63
315.995	4.15
316.369	3.68
316.743	3.14
317.117	3.15
317.491	3.71
317.865	3.35
318.239	3.86
318.613	3.52
318.987	3.69
319.361	3.35
319.734	3.12
320.108	3.54
320.482	4.03
320.855	3.21
321.229	3.68
321.602	3.7
321.976	3.94
322.349	3.95
322.723	3.49
323.096	3.2
323.469	4.09
323.843	4.43
324.216	3.87
324.589	3.93
324.962	3.85
325.335	4.01
325.708	3.89
326.081	4
326.454	3.84
326.827	4.23
327.2	4.44
327.573	3.77
327.945	3.55
328.318	3.69
328.691	3.38
329.063	3.72
329.436	3.76
329.809	3.62
330.181	3.21
330.553	3.93
330.926	3.91
331.298	3.81
331.671	4.03
332.043	3.84
332.415	4.06
332.787	3.9
333.159	3.88
333.532	3.63
333.904	4.12
334.276	4.39
334.648	3.75
335.02	4.06
335.391	3.76
335.763	3.44
336.135	4.26
336.507	4.3
336.879	3.73
337.25	4.18
337.622	4.38
337.993	3.87
338.365	4
338.736	3.66
339.108	3.35
339.479	3.95
339.851	3.68
340.222	3.28
340.593	3.89
340.964	3.8
341.336	3.88
341.707	3.54
342.078	3.16
342.449	4.17
342.82	4.11
343.191	3.87
343.562	3.76
343.933	4.2
344.303	4.1
344.674	3.86
345.045	4.2
345.416	4.11
345.786	3.61
346.157	4.17
346.527	4.46
346.898	3.82
347.268	3.96
347.639	3.92
348.009	3.94
348.38	4.15
348.75	4.47
349.12	4.49
349.49	3.84
349.861	4.33
350.231	4.12
350.601	4.47
350.971	4.19
351.341	3.86
351.711	4.4
352.081	4.01
352.45	4.06
352.82	4.24
353.19	3.66
353.56	3.63
353.929	3.94
354.299	3.97
354.669	3.61
355.038	3.47
355.408	3.97
355.777	4.07
356.147	3.97
356.516	4.28
356.885	4.16
357.254	4.09
357.624	3.94
357.993	4.29
358.362	4.26
358.731	4.07
359.1	4.23
359.469	3.94
359.838	3.97
360.207	4.14
360.576	4.31
360.945	4.07
361.314	4.43
361.682	4.18
362.051	4.3
362.42	4.38
362.788	4.17
363.157	4.56
363.525	4.17
363.894	4.21
364.262	4.23
364.631	3.98
364.999	4.29
365.367	4.23
365.735	3.92
366.104	4.27
366.472	3.77
366.84	4.4
367.208	4.24
367.576	3.94
367.944	4.34
368.312	4.11
368.68	4.33
369.048	4.28
369.416	4.25
369.783	4.49
370.151	4.43
370.519	4
370.886	4.61
371.254	3.97
371.621	4.4
371.989	4.35
372.356	4.4
372.724	4.1
373.091	4.1
373.458	4.4
373.826	4.3
374.193	4.29
374.56	4.67
374.927	4.37
375.294	4.25
375.661	4.31
376.028	4.37
376.395	4.58
376.762	5.14
377.129	4.54
377.496	4.47
377.863	4.37
378.229	4.58
378.596	4.19
378.963	4.69
379.329	4.23
379.696	4.08
380.062	4.59
380.429	4.33
380.795	4.68
381.161	4.59
381.528	4.44
381.894	4.46
382.26	4.3
382.626	4.44
382.993	4.75
383.359	4.16
383.725	3.99
384.091	4.45
384.457	4.32
384.823	4.58
385.188	4.5
385.554	4.42
385.92	4.3
386.286	4.52
386.651	4.65
387.017	4.71
387.383	4.19
387.748	4.32
388.114	4.51
388.479	4.83
388.845	4.49
389.21	4.6
389.575	4.48
389.94	4.59
390.306	4.64
390.671	4.42
391.036	4.55
391.401	4.38
391.766	4.65
392.131	4.59
392.496	4.35
392.861	4.43
393.226	4.47
393.591	4.35
393.956	4.36
394.32	4.56
394.685	4.44
395.05	4.54
395.414	4.49
395.779	4.49
396.143	4.59
396.508	4.55
396.872	4.45
397.236	4.66
397.601	4.68
397.965	4.42
398.329	4.5
398.694	4.46
399.058	4.59
399.422	4.35
399.786	4.44
400.15	4.46
400.514	4.63
400.878	4.69
401.242	4.37
401.605	4.83
401.969	4.47
402.333	4.71
402.697	4.52
403.06	4.47
403.424	4.72
403.787	4.55
404.151	4.81
404.514	4.25
404.878	4.37
405.241	4.55
405.604	4.49
405.968	4.57
406.331	4.78
406.694	4.89
407.057	4.62
407.42	4.74
407.783	4.61
408.146	4.7
408.509	4.75
408.872	4.54
409.235	4.65
409.598	4.75
409.961	4.64
410.323	4.52
410.686	4.55
411.049	4.84
411.411	4.68
411.774	4.74
412.136	4.65
412.499	4.63
412.861	4.37
413.223	4.83
413.586	4.82
413.948	4.82
414.31	4.74
414.672	4.65
415.035	4.73
415.397	4.84
415.759	4.7
416.121	4.77
416.483	4.68
416.845	4.86
417.206	5
417.568	4.62
417.93	4.76
418.292	4.95
418.653	4.75
419.015	4.7
419.377	4.66
419.738	4.76
420.1	4.62
420.461	4.77
420.822	4.8
421.184	4.79
421.545	4.93
421.906	4.68
422.267	4.74
422.629	4.69
422.99	4.6
423.351	4.6
423.712	4.63
424.073	4.78
424.434	4.75
424.795	4.79
425.155	4.7
425.516	4.64
425.877	4.73
426.238	4.68
426.598	4.65
426.959	4.75
427.32	4.82
427.68	4.78
428.041	4.96
428.401	4.79
428.761	4.85
429.122	4.86
429.482	5.13
429.842	4.99
430.202	4.74
430.563	4.96
430.923	4.89
431.283	4.78
431.643	4.93
432.003	4.74
432.363	4.91
432.722	4.96
433.082	4.97
433.442	4.98
433.802	5.03
434.161	4.9
434.521	4.97
434.881	4.86
435.24	4.78
435.6	4.87
435.959	4.98
436.319	4.93
436.678	5.11
437.037	4.96
437.396	4.79
437.756	4.92
438.115	5.01
438.474	4.91
438.833	5
439.192	5.1
439.551	5.09
439.91	4.91
440.269	5.04
440.628	4.96
440.987	4.88
441.345	4.99
441.704	4.95
442.063	4.92
442.421	5.01
442.78	5.06
443.138	4.95
443.497	4.98
443.855	5.01
444.214	5.06
444.572	5.08
444.93	5.12
445.288	4.91
445.647	5.08
446.005	4.99
446.363	4.89
446.721	5.04
447.079	5
447.437	4.9
447.795	5.08
448.153	5.03
448.51	5.05
448.868	5.04
449.226	5.11
449.584	5.07
449.941	5.01
450.299	5.13
450.656	5.03
451.014	5.14
451.371	5.22
451.729	5.26
452.086	5.11
452.443	5.29
452.801	5.09
453.158	5.09
453.515	5.15
453.872	5.2
454.229	5.22
454.586	4.95
454.943	5.16
455.3	5.11
455.657	5.09
456.014	5.34
456.371	5.26
456.727	5.2
457.084	5.21
457.441	5.3
457.797	5.14
458.154	5.15
458.51	5.2
458.867	5.28
459.223	5.22
459.58	5.15
459.936	5.02
460.292	5.33
460.648	5.35
461.005	5.15
461.361	5.17
461.717	5.25
462.073	5.09
462.429	5.22
462.785	5.22
463.141	5.22
463.496	5.16
463.852	5.59
464.208	5.35
464.564	5.35
464.919	5.38
465.275	5.43
465.631	5.38
465.986	5.45
466.342	5.39
466.697	5.29
467.052	5.61
467.408	5.41
467.763	5.31
468.118	5.52
468.473	5.52
468.829	5.38
469.184	5.33
469.539	5.47
469.894	5.42
470.249	5.42
470.603	5.42
470.958	5.42
471.313	5.58
471.668	5.59
472.023	5.37
472.377	5.52
472.732	5.47
473.086	5.41
473.441	5.61
473.795	5.41
474.15	5.54
474.504	5.33
474.859	5.52
475.213	5.5
475.567	5.42
475.921	5.42
476.275	5.52
476.63	5.53
476.984	5.59
477.338	5.3
477.692	5.54
478.045	5.55
478.399	5.56
478.753	5.63
479.107	5.47
479.461	5.55
479.814	5.55
480.168	5.4
480.521	5.41
480.875	5.56
481.228	5.59
481.582	5.57
481.935	5.56
482.289	5.6
482.642	5.68
482.995	5.43
483.348	5.47
483.701	5.77
484.055	5.52
484.408	5.47
484.761	5.49
485.114	5.35
485.466	5.27
485.819	5.26
486.172	5.27
486.525	5.35
486.878	5.39
487.23	5.43
487.583	5.33
487.936	5.46
488.288	5.45
488.641	5.54
488.993	5.45
489.345	5.38
489.698	5.42
490.05	5.44
490.402	5.46
490.754	5.46
491.107	5.46
491.459	5.59
491.811	5.6
492.163	5.53
492.515	5.7
492.866	5.55
493.218	5.48
493.57	5.47
493.922	5.46
494.274	5.58
494.625	5.67
494.977	5.72
495.328	5.83
495.68	5.84
496.031	5.83
496.383	5.72
496.734	5.78
497.086	5.82
497.437	5.81
497.788	5.86
498.139	5.81
498.49	5.86
498.842	5.75
499.193	5.8
499.544	5.88
499.894	5.88
500.245	5.79
500.596	5.85
500.947	5.89
501.298	5.93
501.648	5.99
501.999	5.85
502.35	6.02
502.7	5.96
503.051	5.89
503.401	5.88
503.752	6.11
504.102	6.05
504.452	6.12
504.803	6.04
505.153	6.14
505.503	5.97
505.853	6.11
506.203	6.14
506.553	6
506.903	6.15
507.253	6.03
507.603	6.15
507.953	6.04
508.303	6.12
508.652	6.08
509.002	6.23
509.352	6.13
509.701	6.22
510.051	6.21
510.4	6.04
510.75	6.09
511.099	6.06
511.449	6.12
511.798	6.06
512.147	6.06
512.496	6.24
512.846	6.21
513.195	6.06
513.544	6.17
513.893	6.23
514.242	6.2
514.591	6.14
514.939	6.24
515.288	6.2
515.637	6.19
515.986	6.17
516.334	6.34
516.683	6.22
517.032	6.22
517.38	6.36
517.729	6.35
518.077	6.28
518.426	6.42
518.774	6.35
519.122	6.28
519.47	6.34
519.819	6.16
520.167	6.18
520.515	6.21
520.863	6.25
521.211	6.28
521.559	6.26
521.907	6.31
522.255	6.35
522.602	6.49
522.95	6.46
523.298	6.46
523.645	6.52
523.993	6.52
524.341	6.44
524.688	6.38
525.036	6.48
525.383	6.49
525.73	6.46
526.078	6.51
526.425	6.44
526.772	6.36
527.119	6.5
527.466	6.39
527.814	6.38
528.161	6.44
528.508	6.49
528.854	6.47
529.201	6.44
529.548	6.45
529.895	6.39
530.242	6.31
530.588	6.28
530.935	6.39
531.282	6.39
531.628	6.43
531.975	6.48
532.321	6.48
532.667	6.48
533.014	6.59
533.36	6.66
533.706	6.57
534.052	6.58
534.399	6.62
534.745	6.58
535.091	6.5
535.437	6.55
535.783	6.56
536.129	6.69
536.474	6.64
536.82	6.7
537.166	6.83
537.512	6.77
537.857	6.78
538.203	6.78
538.549	6.81
538.894	6.82
539.239	6.85
539.585	6.88
539.93	6.94
540.276	6.95
540.621	7
540.966	6.87
541.311	7.04
541.656	7.04
542.001	7.09
542.346	6.91
542.691	6.9
543.036	6.85
543.381	6.81
543.726	6.82
544.071	6.91
544.415	6.84
544.76	6.97
545.105	7.01
545.449	7
545.794	7.18
546.138	6.99
546.483	7.14
546.827	7.18
547.171	7.16
547.516	7.29
547.86	7.27
548.204	7.28
548.548	7.25
548.892	7.22
549.236	7.25
549.58	7.37
549.924	7.3
550.268	7.36
550.612	7.36
550.956	7.45
551.3	7.56
551.643	7.45
551.987	7.62
552.33	7.66
552.674	7.51
553.017	7.53
553.361	7.93
553.704	7.7
554.048	7.7
554.391	7.58
554.734	7.6
555.077	7.64
555.42	7.52
555.764	7.82
556.107	7.89
556.45	7.58
556.793	7.71
557.135	7.65
557.478	7.88
557.821	7.79
558.164	7.84
558.507	7.96
558.849	7.88
559.192	7.88
559.534	8.03
559.877	7.87
560.219	8.17
560.562	7.86
560.904	8.21
561.246	8
561.589	7.87
561.931	7.97
562.273	8.02
562.615	8.05
562.957	8.01
563.299	8.18
563.641	8.21
563.983	8.2
564.325	8.11
564.667	8.43
565.008	8
565.35	8.19
565.692	8.29
566.033	8.17
566.375	8.28
566.716	8.3
567.058	8.38
567.399	8.31
567.741	8.36
568.082	8.37
568.423	8.39
568.764	8.34
569.105	8.37
569.447	8.54
569.788	8.4
570.129	8.34
570.47	8.56
570.811	8.5
571.151	8.66
571.492	8.5
571.833	8.58
572.174	8.61
572.514	8.63
572.855	8.53
573.195	8.64
573.536	8.64
573.876	8.66
574.217	8.56
574.557	8.61
574.898	8.9
575.238	8.83
575.578	8.79
575.918	8.71
576.258	8.84
576.598	8.91
576.938	8.85
577.278	8.85
577.618	8.99
577.958	9.02
578.298	8.96
578.638	8.89
578.977	9.11
579.317	9.08
579.657	9.07
579.996	9.15
580.336	9.24
580.675	9.12
581.014	9.23
581.354	9.13
581.693	9.26
582.032	9.14
582.372	9.33
582.711	9.27
583.05	9.42
583.389	9.39
583.728	9.26
584.067	9.59
584.406	9.74
584.745	9.67
585.083	9.56
585.422	9.66
585.761	9.58
586.1	9.52
586.438	9.84
586.777	9.79
587.115	9.8
587.454	9.72
587.792	9.37
588.13	9.77
588.469	9.63
588.807	9.62
589.145	9.69
589.483	9.58
589.821	10.02
590.159	9.75
590.497	9.9
590.835	9.91
591.173	9.71
591.511	9.83
591.849	10.12
592.187	10.15
592.524	9.82
592.862	9.9
593.2	9.67
593.537	9.97
593.875	10.22
594.212	10.21
594.55	10.12
594.887	10.51
595.224	10.25
595.561	10.44
595.899	10.07
596.236	10.18
596.573	10.06
596.91	10.44
597.247	10.33
597.584	10.24
597.921	10.45
598.258	10.51
598.594	10.45
598.931	10.22
599.268	10.34
599.604	10.21
599.941	10.25
600.277	10.52
600.614	10.62
600.95	10.55
601.287	10.35
601.623	10.73
601.959	10.66
602.296	10.65
602.632	10.58
602.968	10.89
603.304	10.67
603.64	10.87
603.976	10.67
604.312	10.72
604.648	11.11
604.984	10.89
605.319	10.87
605.655	10.89
605.991	10.85
606.326	10.77
606.662	10.91
606.998	10.89
607.333	10.87
607.668	10.82
608.004	10.95
608.339	11.34
608.674	11.17
609.01	11.13
609.345	11.4
609.68	11.39
610.015	10.98
610.35	11.29
610.685	11.42
611.02	11.3
611.355	11.29
611.689	11.22
612.024	11.16
612.359	11.59
612.694	11.14
613.028	11.47
613.363	11.36
613.697	11.51
614.032	11.54
614.366	11.88
614.7	11.61
615.035	11.54
615.369	11.54
615.703	11.53
616.037	11.51
616.371	11.54
616.705	11.62
617.039	11.89
617.373	11.64
617.707	11.45
618.041	11.67
618.375	11.58
618.709	11.9
619.042	11.53
619.376	11.57
619.71	12.02
620.043	12.09
620.377	11.67
620.71	11.91
621.043	11.87
621.377	11.99
621.71	12.21
622.043	12
622.376	12.02
622.709	12.2
623.043	12.5
623.376	12.93
623.709	12.2
624.041	12.21
624.374	12.1
624.707	12.29
625.04	11.99
625.373	12.55
625.705	12.52
626.038	12.1
626.37	12.43
626.703	12.45
627.035	12.28
627.368	12.62
627.7	12.49
628.032	12.23
628.365	12.78
628.697	12.4
629.029	12.48
629.361	12.67
629.693	12.73
630.025	12.54
630.357	12.69
630.689	12.78
631.021	12.9
631.353	12.81
631.684	12.65
632.016	12.62
632.348	13.01
632.679	12.75
633.011	13.41
633.342	12.76
633.674	12.75
634.005	12.76
634.336	13.14
634.668	13.15
634.999	13.19
635.33	13.28
635.661	13.38
635.992	13.26
636.323	13.08
636.654	13.26
636.985	13.17
637.316	13.4
637.647	13.17
637.977	13.22
638.308	13.73
638.639	13.69
638.969	13.48
639.3	13.04
639.63	13.66
639.961	13.23
640.291	13.16
640.622	13.11
640.952	13.53
641.282	13.32
641.612	13.41
641.943	13.42
642.273	13.75
642.603	13.99
642.933	13.75
643.263	13.41
643.592	13.54
643.922	13.92
644.252	13.95
644.582	13.76
644.911	13.94
645.241	13.77
645.571	14.46
645.9	13.75
646.23	13.42
646.559	13.99
646.888	13.61
647.218	14.05
647.547	13.89
647.876	14.4
648.205	14.42
648.534	14.31
648.863	14
649.192	14.68
649.521	14.3
649.85	13.99
650.179	14.17
650.508	14.43
650.837	13.87
651.165	13.9
651.494	14.09
651.822	14.31
652.151	14.3
652.479	14.59
652.808	14.6
653.136	14.36
653.465	14.74
653.793	14.49
654.121	14.6
654.449	14.44
654.777	14.16
655.105	14.63
655.433	14.73
655.761	14.9
656.089	14.44
656.417	14.66
656.745	14.54
657.073	14.39
657.4	14.73
657.728	14.19
658.056	14.97
658.383	14.97
658.711	14.73
659.038	14.84
659.365	14.84
659.693	14.41
660.02	14.46
660.347	14.75
660.674	14.86
661.001	14.78
661.329	15.01
661.656	14.75
661.982	15.1
662.309	15.06
662.636	14.85
662.963	15.13
663.29	15.13
663.616	14.63
663.943	15
664.27	15.59
664.596	15.57
664.923	15.79
665.249	15.09
665.576	15
665.902	14.85
666.228	15.38
666.554	15.47
666.881	15.15
667.207	15.63
667.533	15.42
667.859	15.6
668.185	15.58
668.511	15.76
668.837	15.1
669.162	15.74
669.488	15.01
669.814	15.19
670.139	15.36
670.465	15.32
670.791	15.74
671.116	15.41
671.442	15.71
671.767	15.79
672.092	16.18
672.418	15.89
672.743	15.47
673.068	15.3
673.393	16.05
673.718	16.03
674.043	16.28
674.368	15.04
674.693	16.06
675.018	16.23
675.343	16.24
675.667	15.84
675.992	15.75
676.317	15.42
676.641	15.67
676.966	16.05
677.29	16.04
677.615	16.62
677.939	16.13
678.264	16.07
678.588	16.28
678.912	16.54
679.236	15.94
679.56	16.62
679.885	16.6
680.209	16.12
680.532	16.64
680.856	15.83
681.18	16.5
681.504	16.11
681.828	16.5
682.152	16.1
682.475	16.73
682.799	16.66
683.122	16.59
683.446	16.86
683.769	17.19
684.093	16.91
684.416	16.94
684.739	17.69
685.062	16.38
685.386	16.19
685.709	17.05
