Data from 0393_chest_Reflection__0__152.txt Node

Date: Tue Dec 12 19:37:59 CST 2023
User: ToomeyLab
Spectrometer: FLMS14357
Trigger mode: 0
Integration Time (sec): 1.000000E-2
Scans to average: 100
Electric dark correction enabled: true
Nonlinearity correction enabled: false
Boxcar width: 0
XAxis mode: Wavelengths
Number of Pixels in Spectrum: 2048
>>>>>Begin Spectral Data<<<<<
189.047	91.31
189.435	91.31
189.823	91.31
190.211	-37.6
190.599	-147.9
190.987	166.88
191.375	-3.54
191.763	341.16
192.151	186.61
192.538	-553.19
192.926	209.08
193.314	14947.62
193.702	-193.02
194.089	-290.98
194.477	975.35
194.864	177.75
195.252	193.66
195.639	-84.62
196.027	242.56
196.414	341.79
196.801	106.76
197.189	-2486.99
197.576	-30.22
197.963	-50.45
198.351	22.71
198.738	53.66
199.125	-42.25
199.512	-49.91
199.899	4.87
200.286	-2.88
200.673	-13.81
201.06	23.8
201.447	-49.2
201.833	37.99
202.22	-31.93
202.607	-99.59
202.994	4.62
203.38	24.84
203.767	3.67
204.154	22.58
204.54	57.17
204.927	-8.59
205.313	15.3
205.699	38.86
206.086	-21.46
206.472	38.5
206.858	19.6
207.245	38.03
207.631	21.39
208.017	27.69
208.403	-9.53
208.789	29.12
209.175	-21.22
209.561	38.07
209.947	-4.78
210.333	-0.45
210.719	-32.69
211.105	-18.69
211.491	6.31
211.876	12.7
212.262	31.42
212.648	-35.27
213.034	-53.18
213.419	-17.44
213.805	-13.38
214.19	28.94
214.576	25.14
214.961	-11.87
215.346	-10.23
215.732	15.66
216.117	-9.11
216.502	-9.25
216.888	-31.38
217.273	-10.27
217.658	-57.98
218.043	-37.43
218.428	5.11
218.813	16.92
219.198	-19.99
219.583	-0.51
219.968	13.37
220.353	-16.2
220.738	28.69
221.122	1.8
221.507	-4.92
221.892	-8.79
222.276	5.76
222.661	8.91
223.046	-4.52
223.43	2.36
223.815	-9.16
224.199	9.17
224.583	-6.27
224.968	4.48
225.352	-9.19
225.736	8.21
226.121	4.1
226.505	1.4
226.889	4.44
227.273	4.04
227.657	15.76
228.041	2.43
228.425	1.07
228.809	3.04
229.193	4.45
229.577	5.96
229.961	4.3
230.344	5.2
230.728	4.77
231.112	4.81
231.495	4.68
231.879	5.5
232.263	3.31
232.646	3.9
233.03	3.95
233.413	3.78
233.797	4.68
234.18	2.29
234.563	2.46
234.946	6.74
235.33	5.98
235.713	5.22
236.096	4.13
236.479	3.66
236.862	3.47
237.245	2.75
237.628	3.32
238.011	5.21
238.394	3.35
238.777	4.32
239.16	3.37
239.543	3.56
239.925	5.78
240.308	3.52
240.691	3.46
241.073	4.24
241.456	6.37
241.838	3.74
242.221	4.26
242.603	5.16
242.986	3.57
243.368	4.81
243.75	4.14
244.133	4.11
244.515	4.68
244.897	4.09
245.279	4.76
245.661	3.49
246.043	4
246.425	4.24
246.807	2.6
247.189	4.4
247.571	4.29
247.953	3.74
248.335	4.21
248.717	4.45
249.098	4.25
249.48	4.15
249.862	3.77
250.243	3.76
250.625	4.38
251.006	4.68
251.388	4.39
251.769	3.57
252.151	3.4
252.532	3.3
252.913	3.83
253.295	4.31
253.676	3.78
254.057	4.04
254.438	4.23
254.819	4.23
255.2	4.25
255.581	3.38
255.962	3.94
256.343	3.1
256.724	3.7
257.105	3.55
257.486	2.36
257.867	2.74
258.247	2.68
258.628	3.48
259.009	3.16
259.389	3.97
259.77	3.27
260.15	3.89
260.531	4.3
260.911	4.1
261.292	3.75
261.672	3.89
262.052	3.79
262.432	3.79
262.813	3.63
263.193	3.78
263.573	3.76
263.953	4.06
264.333	4.45
264.713	3.96
265.093	4.19
265.473	3.49
265.853	3.78
266.233	3.45
266.612	3.32
266.992	3.59
267.372	3.67
267.752	4.19
268.131	3.43
268.511	3.8
268.89	3.54
269.27	2.73
269.649	3.79
270.029	3.89
270.408	4.3
270.787	3.58
271.167	3.57
271.546	3.95
271.925	3.66
272.304	4.02
272.683	3.57
273.062	3.52
273.441	4.09
273.82	3.08
274.199	3.92
274.578	3.82
274.957	3.83
275.336	3.85
275.715	3.65
276.093	3.54
276.472	3.58
276.851	4.13
277.229	3.71
277.608	2.81
277.986	3.5
278.365	3.41
278.743	3.57
279.122	3.8
279.5	3.29
279.878	2.6
280.257	3.75
280.635	3.21
281.013	3.25
281.391	3.58
281.769	3.17
282.147	3.26
282.525	2.84
282.903	3.94
283.281	3.33
283.659	3.22
284.037	3.53
284.415	3.52
284.792	3.46
285.17	3.3
285.548	3.4
285.925	3.1
286.303	3.77
286.68	3.98
287.058	3.92
287.435	3.42
287.813	3.06
288.19	3.63
288.567	3.7
288.945	3.32
289.322	3.08
289.699	3.5
290.076	3.38
290.453	3.96
290.83	3.5
291.207	3.92
291.584	3.79
291.961	3.97
292.338	3
292.715	3.53
293.092	3.28
293.469	3.75
293.845	3.48
294.222	3.93
294.599	3.66
294.975	3.62
295.352	3.61
295.728	3.72
296.105	3.79
296.481	4.27
296.858	3.95
297.234	3.73
297.61	3.53
297.986	3.59
298.363	3.93
298.739	3.88
299.115	3.38
299.491	3.76
299.867	3.64
300.243	3.61
300.619	3.78
300.995	3.34
301.371	3.76
301.746	3.35
302.122	4
302.498	3.77
302.874	3.93
303.249	4.14
303.625	3.05
304	3.66
304.376	3.12
304.751	3.83
305.127	3.62
305.502	3.93
305.878	3.18
306.253	3.66
306.628	3.26
307.003	3.6
307.378	3.31
307.754	3.8
308.129	3.1
308.504	4.47
308.879	3.32
309.254	3.74
309.629	3.08
310.003	3.73
310.378	3.66
310.753	3.89
311.128	3.93
311.502	3.42
311.877	3.25
312.252	3.42
312.626	3.24
313.001	3.66
313.375	3.32
313.75	3.69
314.124	3.88
314.498	3.64
314.873	3.68
315.247	3.93
315.621	3.6
315.995	3.97
316.369	4.06
316.743	3.62
317.117	3.47
317.491	3.41
317.865	3.7
318.239	3.27
318.613	3.68
318.987	4.07
319.361	3.34
319.734	3.69
320.108	3.49
320.482	3.95
320.855	3.61
321.229	3.75
321.602	3.75
321.976	3.81
322.349	3.61
322.723	3.4
323.096	3.76
323.469	3.7
323.843	4.29
324.216	3.59
324.589	3.96
324.962	4.06
325.335	4.47
325.708	3.19
326.081	3.94
326.454	3.11
326.827	3.81
327.2	3.73
327.573	3.38
327.945	3.46
328.318	3.48
328.691	3.17
329.063	4.04
329.436	3.91
329.809	4.19
330.181	3.23
330.553	3.62
330.926	3.73
331.298	3.44
331.671	3.32
332.043	3.96
332.415	3.84
332.787	3.7
333.159	3.44
333.532	3.68
333.904	3.7
334.276	4.7
334.648	2.95
335.02	3.24
335.391	3.48
335.763	3.2
336.135	3.8
336.507	3.44
336.879	3.58
337.25	3.49
337.622	3.57
337.993	3.66
338.365	3.19
338.736	3.43
339.108	3.81
339.479	4.21
339.851	3.3
340.222	3.33
340.593	3.81
340.964	3.62
341.336	3.77
341.707	3.26
342.078	3.28
342.449	3.4
342.82	3.86
343.191	3.45
343.562	3.89
343.933	4.55
344.303	3.71
344.674	3.08
345.045	3.56
345.416	3.71
345.786	3.36
346.157	3.49
346.527	3.9
346.898	3.88
347.268	3.9
347.639	3.84
348.009	3.38
348.38	3.42
348.75	4.15
349.12	3.99
349.49	3.4
349.861	3.8
350.231	3.43
350.601	4.02
350.971	3.72
351.341	3.87
351.711	3.82
352.081	3.56
352.45	3.88
352.82	3.79
353.19	3.31
353.56	3.5
353.929	3.29
354.299	3.23
354.669	3.58
355.038	3.49
355.408	3.32
355.777	3.87
356.147	3.72
356.516	3.66
356.885	3.52
357.254	3.75
357.624	3.42
357.993	3.69
358.362	3.8
358.731	3.83
359.1	3.34
359.469	3.78
359.838	3.84
360.207	3.51
360.576	3.84
360.945	3.58
361.314	3.84
361.682	3.91
362.051	3.97
362.42	3.87
362.788	3.73
363.157	3.86
363.525	3.71
363.894	3.62
364.262	3.64
364.631	3.62
364.999	3.94
365.367	3.71
365.735	3.54
366.104	3.79
366.472	3.66
366.84	3.91
367.208	3.89
367.576	3.61
367.944	3.82
368.312	3.71
368.68	3.78
369.048	3.79
369.416	3.66
369.783	3.67
370.151	3.87
370.519	3.38
370.886	4.01
371.254	3.69
371.621	3.71
371.989	3.81
372.356	4.01
372.724	3.71
373.091	3.66
373.458	3.72
373.826	3.76
374.193	3.51
374.56	3.91
374.927	3.55
375.294	3.63
375.661	3.85
376.028	3.83
376.395	4.1
376.762	4.08
377.129	4.07
377.496	3.83
377.863	4.15
378.229	3.9
378.596	3.79
378.963	3.78
379.329	3.77
379.696	3.97
380.062	4.22
380.429	3.86
380.795	4.04
381.161	3.74
381.528	3.71
381.894	4.07
382.26	3.76
382.626	3.49
382.993	4.12
383.359	3.67
383.725	3.72
384.091	3.87
384.457	3.73
384.823	3.87
385.188	3.62
385.554	3.81
385.92	3.8
386.286	3.92
386.651	3.82
387.017	3.98
387.383	3.84
387.748	4.01
388.114	4.18
388.479	4.11
388.845	3.88
389.21	3.68
389.575	3.68
389.94	3.96
390.306	4.12
390.671	3.78
391.036	4.08
391.401	4.03
391.766	3.93
392.131	4.15
392.496	3.7
392.861	3.59
393.226	4.06
393.591	3.86
393.956	3.84
394.32	3.82
394.685	3.91
395.05	3.69
395.414	3.81
395.779	3.95
396.143	4.14
396.508	3.9
396.872	3.75
397.236	3.8
397.601	3.72
397.965	3.89
398.329	3.8
398.694	4
399.058	4.22
399.422	3.95
399.786	3.75
400.15	3.74
400.514	4.07
400.878	3.93
401.242	3.91
401.605	3.92
401.969	3.81
402.333	3.96
402.697	3.9
403.06	3.71
403.424	4.16
403.787	3.73
404.151	3.91
404.514	3.78
404.878	3.72
405.241	4.06
405.604	3.86
405.968	3.81
406.331	4.23
406.694	4.28
407.057	3.96
407.42	3.93
407.783	3.65
408.146	3.95
408.509	3.86
408.872	4.03
409.235	4.01
409.598	3.81
409.961	3.87
410.323	3.81
410.686	4.04
411.049	3.95
411.411	4.15
411.774	3.97
412.136	4.09
412.499	3.78
412.861	4.07
413.223	4.21
413.586	3.9
413.948	4.01
414.31	3.92
414.672	4.21
415.035	4.02
415.397	3.97
415.759	3.98
416.121	3.97
416.483	4.08
416.845	4.1
417.206	3.97
417.568	4.08
417.93	4.09
418.292	4.04
418.653	4.08
419.015	3.96
419.377	3.84
419.738	3.85
420.1	3.89
420.461	3.97
420.822	4.02
421.184	4.01
421.545	4.11
421.906	3.99
422.267	3.87
422.629	3.92
422.99	3.83
423.351	3.87
423.712	3.88
424.073	3.93
424.434	3.94
424.795	4.15
425.155	3.89
425.516	3.78
425.877	3.83
426.238	3.9
426.598	3.94
426.959	3.92
427.32	4.02
427.68	4
428.041	3.95
428.401	4.08
428.761	3.99
429.122	4.01
429.482	4.16
429.842	4.08
430.202	3.86
430.563	4.02
430.923	4.04
431.283	4.06
431.643	4.11
432.003	3.92
432.363	4.04
432.722	3.77
433.082	4.08
433.442	4
433.802	4.09
434.161	4
434.521	4.11
434.881	4.06
435.24	4.17
435.6	4.02
435.959	4.1
436.319	4.06
436.678	4.25
437.037	3.92
437.396	4
437.756	4
438.115	4.2
438.474	4.05
438.833	4.11
439.192	4.08
439.551	4.06
439.91	3.92
440.269	3.91
440.628	4.07
440.987	3.88
441.345	4.18
441.704	4.06
442.063	4.12
442.421	4.03
442.78	4.12
443.138	4.01
443.497	4.08
443.855	4.06
444.214	4.05
444.572	4.26
444.93	4.24
445.288	4.02
445.647	4.06
446.005	4
446.363	3.98
446.721	3.9
447.079	4.12
447.437	4.04
447.795	4.01
448.153	3.99
448.51	4.07
448.868	4.12
449.226	4.09
449.584	4.06
449.941	4.02
450.299	4.12
450.656	4.11
451.014	4.05
451.371	4.08
451.729	4.12
452.086	4.05
452.443	4.22
452.801	4.18
453.158	4.05
453.515	4.2
453.872	4.18
454.229	4.13
454.586	4.03
454.943	4.05
455.3	4.07
455.657	4.32
456.014	4.39
456.371	4.22
456.727	4.25
457.084	4.16
457.441	4.19
457.797	4.08
458.154	4.16
458.51	4.16
458.867	4.31
459.223	4.3
459.58	4.06
459.936	3.94
460.292	4.12
460.648	4.26
461.005	4.14
461.361	4.17
461.717	4.17
462.073	4.07
462.429	4.18
462.785	4.06
463.141	4.11
463.496	4
463.852	4.35
464.208	4.13
464.564	4.26
464.919	4.33
465.275	4.26
465.631	4.26
465.986	4.17
466.342	4.08
466.697	4.29
467.052	4.29
467.408	4.29
467.763	4.29
468.118	4.28
468.473	4.3
468.829	4.25
469.184	4.16
469.539	4.29
469.894	4.31
470.249	4.24
470.603	4.21
470.958	4.37
471.313	4.42
471.668	4.27
472.023	4.24
472.377	4.25
472.732	4.36
473.086	4.39
473.441	4.43
473.795	4.39
474.15	4.44
474.504	4.23
474.859	4.41
475.213	4.12
475.567	4.25
475.921	4.37
476.275	4.28
476.63	4.35
476.984	4.34
477.338	4.33
477.692	4.28
478.045	4.34
478.399	4.27
478.753	4.37
479.107	4.31
479.461	4.32
479.814	4.39
480.168	4.14
480.521	4.1
480.875	4.39
481.228	4.32
481.582	4.23
481.935	4.36
482.289	4.47
482.642	4.37
482.995	4.23
483.348	4.23
483.701	4.31
484.055	4.23
484.408	4.22
484.761	4.28
485.114	4.17
485.466	4.09
485.819	4.07
486.172	4.06
486.525	4.1
486.878	4.13
487.23	4.15
487.583	4.17
487.936	4.24
488.288	4.18
488.641	4.24
488.993	4.22
489.345	4.16
489.698	4.17
490.05	4.19
490.402	4.17
490.754	4.23
491.107	4.22
491.459	4.33
491.811	4.35
492.163	4.29
492.515	4.38
492.866	4.28
493.218	4.21
493.57	4.19
493.922	4.19
494.274	4.28
494.625	4.35
494.977	4.45
495.328	4.47
495.68	4.29
496.031	4.55
496.383	4.38
496.734	4.53
497.086	4.47
497.437	4.36
497.788	4.41
498.139	4.42
498.49	4.5
498.842	4.34
499.193	4.53
499.544	4.42
499.894	4.43
500.245	4.6
500.596	4.5
500.947	4.45
501.298	4.46
501.648	4.63
501.999	4.46
502.35	4.38
502.7	4.56
503.051	4.49
503.401	4.52
503.752	4.71
504.102	4.56
504.452	4.52
504.803	4.51
505.153	4.52
505.503	4.59
505.853	4.67
506.203	4.54
506.553	4.58
506.903	4.64
507.253	4.54
507.603	4.62
507.953	4.59
508.303	4.63
508.652	4.54
509.002	4.7
509.352	4.6
509.701	4.62
510.051	4.53
510.4	4.55
510.75	4.56
511.099	4.58
511.449	4.63
511.798	4.6
512.147	4.66
512.496	4.64
512.846	4.62
513.195	4.58
513.544	4.71
513.893	4.75
514.242	4.59
514.591	4.53
514.939	4.68
515.288	4.68
515.637	4.69
515.986	4.71
516.334	4.77
516.683	4.74
517.032	4.77
517.38	4.73
517.729	4.67
518.077	4.77
518.426	4.94
518.774	4.65
519.122	4.68
519.47	4.7
519.819	4.67
520.167	4.66
520.515	4.6
520.863	4.71
521.211	4.7
521.559	4.67
521.907	4.68
522.255	4.81
522.602	4.81
522.95	4.73
523.298	4.82
523.645	4.94
523.993	4.96
524.341	4.96
524.688	4.74
525.036	5.02
525.383	4.8
525.73	4.89
526.078	4.94
526.425	4.83
526.772	4.89
527.119	4.94
527.466	4.88
527.814	4.75
528.161	4.82
528.508	4.83
528.854	4.78
529.201	4.81
529.548	4.8
529.895	4.76
530.242	4.73
530.588	4.72
530.935	4.75
531.282	4.77
531.628	4.79
531.975	4.79
532.321	4.82
532.667	4.8
533.014	4.86
533.36	4.9
533.706	4.9
534.052	4.96
534.399	4.9
534.745	4.97
535.091	4.88
535.437	4.85
535.783	4.91
536.129	4.98
536.474	4.93
536.82	5.03
537.166	5.19
537.512	5.04
537.857	5.08
538.203	5.08
538.549	5.12
538.894	5.07
539.239	5
539.585	5.08
539.93	5.17
540.276	5.05
540.621	5.17
540.966	5.19
541.311	5.17
541.656	5.24
542.001	5.17
542.346	5.12
542.691	5.17
543.036	5.08
543.381	5.05
543.726	5.12
544.071	5.14
544.415	5.13
544.76	5.18
545.105	5.27
545.449	5.3
545.794	5.35
546.138	5.23
546.483	5.36
546.827	5.35
547.171	5.49
547.516	5.46
547.86	5.42
548.204	5.46
548.548	5.44
548.892	5.5
549.236	5.44
549.58	5.46
549.924	5.46
550.268	5.46
550.612	5.44
550.956	5.56
551.3	5.67
551.643	5.72
551.987	5.74
552.33	5.68
552.674	5.68
553.017	5.69
553.361	5.67
553.704	5.65
554.048	5.82
554.391	5.78
554.734	5.72
555.077	5.75
555.42	5.67
555.764	5.91
556.107	5.75
556.45	5.65
556.793	5.64
557.135	5.77
557.478	5.83
557.821	5.8
558.164	5.85
558.507	5.88
558.849	5.85
559.192	5.79
559.534	5.99
559.877	5.87
560.219	5.87
560.562	5.97
560.904	6
561.246	6.02
561.589	5.83
561.931	5.9
562.273	5.79
562.615	6
562.957	6.03
563.299	6.12
563.641	6.09
563.983	6.09
564.325	6.24
564.667	6.15
565.008	5.98
565.35	6.22
565.692	6.3
566.033	6.23
566.375	6.14
566.716	6.07
567.058	6.34
567.399	6.26
567.741	6.32
568.082	6.19
568.423	6.39
568.764	6.31
569.105	6.38
569.447	6.42
569.788	6.28
570.129	6.16
570.47	6.53
570.811	6.43
571.151	6.49
571.492	6.56
571.833	6.54
572.174	6.49
572.514	6.52
572.855	6.53
573.195	6.41
573.536	6.42
573.876	6.6
574.217	6.38
574.557	6.64
574.898	6.69
575.238	6.66
575.578	6.73
575.918	6.68
576.258	6.79
576.598	6.58
576.938	6.75
577.278	6.8
577.618	6.72
577.958	6.75
578.298	6.87
578.638	6.68
578.977	6.78
579.317	6.91
579.657	7.07
579.996	6.91
580.336	6.86
580.675	6.91
581.014	6.93
581.354	6.86
581.693	6.88
582.032	6.99
582.372	7.05
582.711	7.13
583.05	7.23
583.389	7.17
583.728	7.05
584.067	7.3
584.406	7.37
584.745	7.31
585.083	7.2
585.422	7.39
585.761	7.45
586.1	7.32
586.438	7.48
586.777	7.48
587.115	7.51
587.454	7.46
587.792	7.1
588.13	7.67
588.469	7.39
588.807	7.4
589.145	7.56
589.483	7.45
589.821	7.86
590.159	7.59
590.497	7.61
590.835	7.6
591.173	7.63
591.511	7.78
591.849	7.54
592.187	7.71
592.524	7.43
592.862	7.63
593.2	7.39
593.537	7.4
593.875	7.87
594.212	7.81
594.55	7.9
594.887	8.15
595.224	7.9
595.561	8.06
595.899	8
596.236	8.2
596.573	7.9
596.91	8.02
597.247	8.2
597.584	8.11
597.921	8.03
598.258	8.24
598.594	8.21
598.931	8.09
599.268	8
599.604	8.09
599.941	8.02
600.277	8.16
600.614	8.4
600.95	8.2
601.287	8.56
601.623	8.47
601.959	8.41
602.296	8.49
602.632	8.47
602.968	8.51
603.304	8.4
603.64	8.59
603.976	8.35
604.312	8.51
604.648	8.45
604.984	8.62
605.319	8.43
605.655	8.41
605.991	8.55
606.326	8.56
606.662	8.72
606.998	8.59
607.333	8.59
607.668	8.66
608.004	8.83
608.339	8.79
608.674	8.86
609.01	9.01
609.345	8.94
609.68	8.91
610.015	9.04
610.35	8.87
610.685	9.12
611.02	9.04
611.355	8.96
611.689	9.08
612.024	8.92
612.359	9.25
612.694	9.05
613.028	9.34
613.363	9.16
613.697	9.05
614.032	9.2
614.366	9.28
614.7	9.11
615.035	9.36
615.369	9.17
615.703	9.14
616.037	9.17
616.371	9.38
616.705	9.37
617.039	9.34
617.373	9.34
617.707	9.55
618.041	9.55
618.375	9.71
618.709	9.55
619.042	9.65
619.376	9.67
619.71	9.28
620.043	9.49
620.377	9.72
620.71	9.62
621.043	9.47
621.377	9.64
621.71	10.11
622.043	10.15
622.376	10.36
622.709	9.89
623.043	9.81
623.376	10.25
623.709	9.84
624.041	10.62
624.374	10.05
624.707	10
625.04	9.88
625.373	10.07
625.705	10.19
626.038	10.18
626.37	10.22
626.703	10.37
627.035	10.23
627.368	10.39
627.7	10.33
628.032	10.34
628.365	10.67
628.697	10.31
629.029	10.45
629.361	10.34
629.693	10.44
630.025	10.35
630.357	10.44
630.689	10.38
631.021	10.32
631.353	10.92
631.684	10.82
632.016	10.73
632.348	10.9
632.679	10.46
633.011	10.79
633.342	11.02
633.674	11.02
634.005	10.85
634.336	11
634.668	11
634.999	11.42
635.33	11.05
635.661	11.1
635.992	11.21
636.323	11.02
636.654	11.12
636.985	11.13
637.316	11.03
637.647	11.59
637.977	11.35
638.308	11.4
638.639	11.53
638.969	11.39
639.3	11.13
639.63	11.7
639.961	11.17
640.291	11.03
640.622	11.39
640.952	11.71
641.282	11.77
641.612	11.73
641.943	11.59
642.273	11.89
642.603	11.73
642.933	11.49
643.263	11.35
643.592	11.7
643.922	11.9
644.252	11.87
644.582	11.63
644.911	11.71
645.241	11.39
645.571	12.37
645.9	12.11
646.23	12.02
646.559	12.15
646.888	12.01
647.218	12.13
647.547	12.07
647.876	11.74
648.205	12.46
648.534	12.56
648.863	12.14
649.192	12.72
649.521	12.71
649.85	11.95
650.179	12.43
650.508	12.34
650.837	12.29
651.165	12.2
651.494	11.78
651.822	12.86
652.151	12.78
652.479	12.22
652.808	12.75
653.136	12.54
653.465	12.54
653.793	13.06
654.121	12.94
654.449	12.77
654.777	12.85
655.105	13.17
655.433	12.98
655.761	12.74
656.089	12.28
656.417	13.06
656.745	12.91
657.073	12.78
657.4	12.83
657.728	12.49
658.056	13.3
658.383	12.86
658.711	13.34
659.038	12.89
659.365	13.03
659.693	12.8
660.02	13.2
660.347	13.32
660.674	13.19
661.001	13.33
661.329	13.42
661.656	13.43
661.982	13.39
662.309	13.85
662.636	13.32
662.963	13.36
663.29	13.95
663.616	13.34
663.943	13.62
664.27	14.07
664.596	13.95
664.923	14.2
665.249	13.49
665.576	14.02
665.902	13.58
666.228	13.96
666.554	13.61
666.881	13.29
667.207	13.38
667.533	13.8
667.859	13.3
668.185	14.24
668.511	13.94
668.837	13.65
669.162	14.08
669.488	13.48
669.814	14.5
670.139	13.93
670.465	13.37
670.791	14.08
671.116	14.13
671.442	14.61
671.767	13.87
672.092	14.61
672.418	13.97
672.743	14.68
673.068	14.11
673.393	14.43
673.718	14.43
674.043	14.75
674.368	14.38
674.693	14.88
675.018	13.72
675.343	14.84
675.667	14.84
675.992	14.69
676.317	14.02
676.641	14.77
676.966	14.84
677.29	14.37
677.615	14.78
677.939	14.9
678.264	15.22
678.588	14.92
678.912	15.28
679.236	14.58
679.56	15.11
679.885	14.74
680.209	15.55
680.532	15.39
680.856	14.52
681.18	14.9
681.504	14.98
681.828	15.37
682.152	15.23
682.475	15.19
682.799	15.26
683.122	15.52
683.446	15.53
683.769	16.13
684.093	15.03
684.416	15.18
684.739	15.44
685.062	14.83
685.386	15.66
685.709	15.53
686.032	15.39
686.355	15.45
686.678	15.59
687.001	15.81
687.324	15.72
687.646	16.76
687.969	15.41
