Data from 0393_forehead_Reflection__4__166.txt Node

Date: Tue Dec 12 19:44:25 CST 2023
User: ToomeyLab
Spectrometer: FLMS14357
Trigger mode: 0
Integration Time (sec): 1.000000E-2
Scans to average: 100
Electric dark correction enabled: true
Nonlinearity correction enabled: false
Boxcar width: 0
XAxis mode: Wavelengths
Number of Pixels in Spectrum: 2048
>>>>>Begin Spectral Data<<<<<
189.047	-2.41
189.435	-2.41
189.823	-2.41
190.211	-28.94
190.599	1.52
190.987	273.81
191.375	27.76
191.763	-483.38
192.151	47.31
192.538	53.92
192.926	241.72
193.314	16038.1
193.702	-1050.54
194.089	105.51
194.477	-266.67
194.864	40.25
195.252	-31.33
195.639	87.69
196.027	59.28
196.414	789.77
196.801	32.69
197.189	760.98
197.576	103.15
197.963	292.07
198.351	55.23
198.738	20.18
199.125	29.67
199.512	-20.11
199.899	46.48
200.286	10.83
200.673	22.58
201.06	14.38
201.447	45.99
201.833	14.83
202.22	64.78
202.607	-64.47
202.994	51.59
203.38	37.5
203.767	17.67
204.154	77.9
204.54	59.39
204.927	20.82
205.313	2.51
205.699	-49.55
206.086	-21.03
206.472	44.76
206.858	23.82
207.245	-0.54
207.631	51.47
208.017	62.32
208.403	6.12
208.789	15.91
209.175	-20.08
209.561	26.24
209.947	53.08
210.333	31.83
210.719	26.76
211.105	-45.58
211.491	28.75
211.876	3.63
212.262	24.12
212.648	8.31
213.034	-11.92
213.419	1.77
213.805	29.68
214.19	46.98
214.576	37.79
214.961	13.88
215.346	-9.49
215.732	22.01
216.117	-32.57
216.502	7.6
216.888	-7.69
217.273	8.19
217.658	-29.53
218.043	7.38
218.428	14.31
218.813	12.75
219.198	-9.5
219.583	35.29
219.968	28.35
220.353	8.38
220.738	3.34
221.122	26.7
221.507	34.33
221.892	12.59
222.276	4.44
222.661	4.29
223.046	-7.5
223.43	7.62
223.815	11.42
224.199	11.12
224.583	18.13
224.968	10.89
225.352	5.94
225.736	4.42
226.121	4.02
226.505	7.37
226.889	5.78
227.273	4.74
227.657	4.89
228.041	10.02
228.425	7.6
228.809	7.78
229.193	4.03
229.577	6.9
229.961	5.39
230.344	6.43
230.728	6.57
231.112	6.34
231.495	5.63
231.879	6.64
232.263	5.83
232.646	6.38
233.03	5.33
233.413	4.53
233.797	6.51
234.18	3.31
234.563	4.74
234.946	5.16
235.33	8.08
235.713	7.54
236.096	4.77
236.479	6
236.862	5.99
237.245	4.96
237.628	4.52
238.011	6.89
238.394	5.87
238.777	6.84
239.16	6.3
239.543	6.62
239.925	5.85
240.308	7.18
240.691	5.94
241.073	6.41
241.456	6.74
241.838	5.44
242.221	7.4
242.603	6.34
242.986	5.52
243.368	6.81
243.75	5.74
244.133	5.84
244.515	6.16
244.897	5.89
245.279	6.66
245.661	5.9
246.043	6.16
246.425	7.8
246.807	5.55
247.189	6.1
247.571	6.12
247.953	6.13
248.335	6.23
248.717	6.05
249.098	6.28
249.48	5.92
249.862	5.87
250.243	6.28
250.625	6.42
251.006	5.96
251.388	6.68
251.769	7.04
252.151	4.89
252.532	7.39
252.913	7.1
253.295	6.06
253.676	6.09
254.057	6.36
254.438	6.64
254.819	5.74
255.2	6.32
255.581	7.28
255.962	6.69
256.343	6.37
256.724	7.56
257.105	7.06
257.486	5.16
257.867	6.01
258.247	6.24
258.628	5.52
259.009	5.27
259.389	6.7
259.77	6.15
260.15	6.26
260.531	6.64
260.911	6.47
261.292	6
261.672	5.81
262.052	5.88
262.432	6.04
262.813	6.07
263.193	6.66
263.573	6.49
263.953	7.05
264.333	6.62
264.713	6.35
265.093	5.92
265.473	6.67
265.853	5.24
266.233	6.34
266.612	6
266.992	6.48
267.372	6.05
267.752	6.91
268.131	5.66
268.511	5.67
268.89	5.22
269.27	5.04
269.649	5.96
270.029	5.97
270.408	6.05
270.787	5.61
271.167	6.21
271.546	5.85
271.925	6.9
272.304	6.4
272.683	5.09
273.062	5.82
273.441	6.26
273.82	5.33
274.199	5.93
274.578	5.6
274.957	5.8
275.336	6.06
275.715	6.02
276.093	5.65
276.472	6.41
276.851	6.04
277.229	5.21
277.608	5.97
277.986	5.51
278.365	5.96
278.743	6.31
279.122	6.39
279.5	6.12
279.878	5.6
280.257	5.74
280.635	5.53
281.013	5.9
281.391	6.08
281.769	5.53
282.147	6.16
282.525	5.99
282.903	5.93
283.281	5.33
283.659	5.87
284.037	5.99
284.415	5.8
284.792	6.19
285.17	5.64
285.548	5.82
285.925	6.31
286.303	6.04
286.68	6.24
287.058	6.37
287.435	6
287.813	6.14
288.19	6.13
288.567	5.95
288.945	5.89
289.322	5.95
289.699	6.68
290.076	6.24
290.453	6.51
290.83	6.47
291.207	6.9
291.584	6.76
291.961	6.5
292.338	6.69
292.715	6.29
293.092	6.3
293.469	7.46
293.845	6.85
294.222	6.99
294.599	7
294.975	7.26
295.352	7.56
295.728	7.56
296.105	7.67
296.481	7.84
296.858	7.39
297.234	8.27
297.61	7.32
297.986	7.61
298.363	7.65
298.739	7.6
299.115	7.59
299.491	7.76
299.867	7.71
300.243	8
300.619	8.19
300.995	8.61
301.371	8.23
301.746	8.21
302.122	8.63
302.498	8.42
302.874	8.26
303.249	8.89
303.625	8.45
304	8.87
304.376	8.84
304.751	9.76
305.127	9.24
305.502	9.49
305.878	8.91
306.253	8.87
306.628	9.13
307.003	9.16
307.378	9.33
307.754	9.08
308.129	9.09
308.504	10.28
308.879	9.66
309.254	9.63
309.629	9.24
310.003	9.65
310.378	9.94
310.753	9.61
311.128	10.06
311.502	9.77
311.877	9.54
312.252	9.93
312.626	9.9
313.001	10.02
313.375	10.23
313.75	10.26
314.124	10.49
314.498	10.33
314.873	10.12
315.247	10.99
315.621	10.72
315.995	10.91
316.369	10.77
316.743	10.57
317.117	10.03
317.491	10.73
317.865	10.4
318.239	10.61
318.613	11.16
318.987	11.5
319.361	10.73
319.734	11.47
320.108	11.35
320.482	11.61
320.855	11.22
321.229	11.53
321.602	11.75
321.976	11.33
322.349	11.84
322.723	11.57
323.096	12.16
323.469	11.9
323.843	12.52
324.216	12.44
324.589	12.32
324.962	12.86
325.335	12.44
325.708	12.43
326.081	12.88
326.454	12.84
326.827	12.87
327.2	12.64
327.573	12.68
327.945	13.02
328.318	12.81
328.691	12.36
329.063	12.9
329.436	13.23
329.809	13.19
330.181	12.58
330.553	12.62
330.926	13.38
331.298	13.45
331.671	13.58
332.043	13.35
332.415	13.9
332.787	13.21
333.159	13.48
333.532	13.25
333.904	13.28
334.276	14.26
334.648	13.65
335.02	13.52
335.391	14.04
335.763	13.91
336.135	14.26
336.507	14.23
336.879	13.84
337.25	13.8
337.622	14.07
337.993	14.05
338.365	13.98
338.736	14.05
339.108	14.39
339.479	14.49
339.851	14.02
340.222	14.05
340.593	14.46
340.964	14.65
341.336	14.57
341.707	14.54
342.078	14.26
342.449	14.57
342.82	15.26
343.191	14.86
343.562	14.41
343.933	15.31
344.303	14.89
344.674	15.1
345.045	15.23
345.416	15.42
345.786	14.56
346.157	15.08
346.527	15.89
346.898	14.79
347.268	15.23
347.639	15.42
348.009	15.35
348.38	15.26
348.75	15.76
349.12	15.72
349.49	15.25
349.861	16.09
350.231	15.61
350.601	15.9
350.971	15.72
351.341	15.7
351.711	15.96
352.081	16.14
352.45	15.74
352.82	15.9
353.19	16.35
353.56	16.03
353.929	15.97
354.299	16
354.669	16.57
355.038	16.15
355.408	16.67
355.777	16.78
356.147	16.44
356.516	16.51
356.885	16.54
357.254	16.63
357.624	16.3
357.993	16.86
358.362	16.9
358.731	16.93
359.1	16.64
359.469	16.71
359.838	16.95
360.207	17.31
360.576	17.14
360.945	17.07
361.314	17.09
361.682	16.99
362.051	17.39
362.42	17.46
362.788	17.32
363.157	17.49
363.525	17.38
363.894	17.18
364.262	17.52
364.631	17.4
364.999	17.93
365.367	17.92
365.735	17.88
366.104	17.8
366.472	17.66
366.84	18.16
367.208	18.08
367.576	17.98
367.944	18.33
368.312	18.27
368.68	17.99
369.048	18.38
369.416	18.43
369.783	18.5
370.151	18.66
370.519	18.8
370.886	18.62
371.254	18.4
371.621	18.89
371.989	18.3
372.356	18.8
372.724	18.5
373.091	18.78
373.458	18.65
373.826	19.08
374.193	18.65
374.56	19.4
374.927	18.87
375.294	19.04
375.661	19.39
376.028	19.17
376.395	19.55
376.762	19.91
377.129	19.28
377.496	19.71
377.863	19.4
378.229	19.43
378.596	19.29
378.963	19.7
379.329	19.79
379.696	19.58
380.062	20.22
380.429	19.54
380.795	19.9
381.161	20.09
381.528	19.97
381.894	20.04
382.26	20.18
382.626	19.98
382.993	20.45
383.359	20.3
383.725	20.37
384.091	20.32
384.457	20.45
384.823	20.51
385.188	20.29
385.554	20.52
385.92	20.62
386.286	20.78
386.651	20.9
387.017	20.88
387.383	20.78
387.748	21.11
388.114	20.85
388.479	21.28
388.845	20.97
389.21	21.27
389.575	20.87
389.94	21.3
390.306	21.52
390.671	21.41
391.036	21.64
391.401	21.3
391.766	21.42
392.131	21.58
392.496	21.34
392.861	21.71
393.226	21.7
393.591	21.64
393.956	21.75
394.32	21.6
394.685	21.69
395.05	21.92
395.414	21.97
395.779	22.02
396.143	22.14
396.508	22.1
396.872	22.18
397.236	22.22
397.601	22.22
397.965	22.5
398.329	22.29
398.694	22.61
399.058	22.52
399.422	22.36
399.786	22.73
400.15	22.65
400.514	22.94
400.878	22.91
401.242	22.96
401.605	22.96
401.969	22.74
402.333	23.07
402.697	22.97
403.06	22.56
403.424	23.02
403.787	22.83
404.151	23.41
404.514	23.17
404.878	23.23
405.241	23.22
405.604	23.06
405.968	23.25
406.331	23.45
406.694	23.35
407.057	23.32
407.42	23.43
407.783	23.66
408.146	23.63
408.509	23.66
408.872	23.69
409.235	23.95
409.598	23.94
409.961	24.25
410.323	24.08
410.686	24.05
411.049	24.14
411.411	24.41
411.774	24.21
412.136	24.37
412.499	24.17
412.861	24.51
413.223	24.69
413.586	24.33
413.948	24.3
414.31	24.65
414.672	24.49
415.035	24.5
415.397	24.58
415.759	24.71
416.121	24.54
416.483	24.79
416.845	24.65
417.206	24.94
417.568	25.07
417.93	24.78
418.292	24.9
418.653	25.02
419.015	25
419.377	25.03
419.738	24.85
420.1	24.98
420.461	25.1
420.822	24.95
421.184	24.97
421.545	25.3
421.906	25.07
422.267	25
422.629	25.15
422.99	24.95
423.351	24.99
423.712	25.3
424.073	25.24
424.434	25.31
424.795	25.67
425.155	25.52
425.516	25.47
425.877	25.47
426.238	25.51
426.598	25.44
426.959	25.73
427.32	25.68
427.68	25.77
428.041	26.08
428.401	25.99
428.761	26.36
429.122	26.26
429.482	26.51
429.842	26.47
430.202	26.56
430.563	26.83
430.923	26.66
431.283	26.45
431.643	26.7
432.003	26.62
432.363	26.76
432.722	26.83
433.082	26.92
433.442	26.93
433.802	27.03
434.161	26.89
434.521	26.91
434.881	27.21
435.24	27.09
435.6	27.18
435.959	27.04
436.319	27.3
436.678	27.35
437.037	27.46
437.396	27.21
437.756	27.41
438.115	27.41
438.474	27.3
438.833	27.4
439.192	27.76
439.551	27.77
439.91	27.74
440.269	27.82
440.628	27.74
440.987	27.71
441.345	27.86
441.704	27.91
442.063	27.91
442.421	27.92
442.78	28.02
443.138	27.78
443.497	27.84
443.855	28.01
444.214	28.26
444.572	28.15
444.93	28.3
445.288	28.31
445.647	28.34
446.005	28.2
446.363	28.5
446.721	28.43
447.079	28.3
447.437	28.35
447.795	28.56
448.153	28.47
448.51	28.44
448.868	28.44
449.226	28.64
449.584	28.53
449.941	28.61
450.299	28.81
450.656	29.03
451.014	29.22
451.371	29.17
451.729	29.34
452.086	29.21
452.443	29.49
452.801	29.33
453.158	29.4
453.515	29.34
453.872	29.49
454.229	29.54
454.586	29.47
454.943	29.56
455.3	29.52
455.657	29.8
456.014	29.88
456.371	29.7
456.727	29.81
457.084	29.97
457.441	30.13
457.797	30.02
458.154	30.12
458.51	29.98
458.867	30.57
459.223	30.27
459.58	30.33
459.936	30.21
460.292	30.42
460.648	30.23
461.005	30.27
461.361	30.12
461.717	30.17
462.073	30.14
462.429	30.15
462.785	30.35
463.141	30.46
463.496	30.51
463.852	30.98
464.208	30.76
464.564	30.82
464.919	30.81
465.275	31.04
465.631	31.04
465.986	31.42
466.342	31.34
466.697	31.16
467.052	31.18
467.408	31.21
467.763	31.47
468.118	31.35
468.473	31.45
468.829	31.47
469.184	31.3
469.539	31.69
469.894	31.48
470.249	31.65
470.603	31.78
470.958	31.66
471.313	31.9
471.668	32.17
472.023	31.81
472.377	31.78
472.732	32.21
473.086	31.86
473.441	32.18
473.795	32.11
474.15	32.39
474.504	32.08
474.859	32.25
475.213	32.3
475.567	32.26
475.921	32.42
476.275	32.27
476.63	32.46
476.984	32.57
477.338	32.63
477.692	32.48
478.045	32.93
478.399	32.57
478.753	32.66
479.107	32.62
479.461	32.74
479.814	32.58
480.168	32.72
480.521	32.86
480.875	32.95
481.228	32.87
481.582	32.99
481.935	33.08
482.289	33
482.642	33.16
482.995	33.02
483.348	33.19
483.701	33.11
484.055	32.91
484.408	32.72
484.761	32.59
485.114	32.41
485.466	32.17
485.819	32.4
486.172	32.31
486.525	32.29
486.878	32.43
487.23	32.59
487.583	32.77
487.936	33.01
488.288	32.88
488.641	32.94
488.993	32.88
489.345	32.8
489.698	32.86
490.05	32.88
490.402	32.86
490.754	33.06
491.107	33.35
491.459	33.55
491.811	33.71
492.163	33.68
492.515	33.74
492.866	33.6
493.218	33.45
493.57	33.42
493.922	33.45
494.274	33.55
494.625	33.68
494.977	33.95
495.328	34.06
495.68	34.61
496.031	34.62
496.383	34.58
496.734	34.76
497.086	34.94
497.437	34.79
497.788	34.93
498.139	35.13
498.49	35.05
498.842	34.69
499.193	34.84
499.544	34.84
499.894	34.9
500.245	35.17
500.596	35.07
500.947	35.25
501.298	35.13
501.648	35.43
501.999	35.45
502.35	35.44
502.7	35.5
503.051	35.57
503.401	35.5
503.752	36.03
504.102	35.98
504.452	35.88
504.803	35.86
505.153	35.69
505.503	36.06
505.853	35.84
506.203	35.82
506.553	35.93
506.903	36.16
507.253	36.29
507.603	36.22
507.953	36.22
508.303	36.43
508.652	36.25
509.002	36.3
509.352	36.23
509.701	36.51
510.051	36.4
510.4	36.29
510.75	36.31
511.099	36.18
511.449	36.49
511.798	36.38
512.147	36.66
512.496	36.72
512.846	36.56
513.195	36.77
513.544	36.92
513.893	36.7
514.242	36.62
514.591	36.8
514.939	37.04
515.288	36.96
515.637	36.91
515.986	36.87
516.334	37.15
516.683	37.23
517.032	37.09
517.38	37.47
517.729	37.3
518.077	37.15
518.426	37.21
518.774	37.57
519.122	37.59
519.47	37.38
519.819	37.39
520.167	37.16
520.515	37.01
520.863	37.23
521.211	37.19
521.559	37.26
521.907	37.47
522.255	37.54
522.602	37.65
522.95	37.7
523.298	37.85
523.645	37.99
523.993	38.07
524.341	37.94
524.688	38.04
525.036	38.08
525.383	38.1
525.73	38.49
526.078	38.36
526.425	38.36
526.772	38.03
527.119	38.15
527.466	38.07
527.814	37.96
528.161	38.09
528.508	38.05
528.854	38.05
529.201	38.2
529.548	38.18
529.895	37.91
530.242	37.77
530.588	37.95
530.935	38.08
531.282	37.97
531.628	37.89
531.975	38.27
532.321	38.23
532.667	38.57
533.014	38.52
533.36	38.75
533.706	38.93
534.052	38.79
534.399	38.87
534.745	38.77
535.091	38.52
535.437	38.65
535.783	38.7
536.129	38.77
536.474	38.96
536.82	39.05
537.166	39.22
537.512	39.4
537.857	39.26
538.203	39.31
538.549	39.39
538.894	39.39
539.239	39.54
539.585	39.54
539.93	39.76
540.276	39.95
540.621	39.92
540.966	39.95
541.311	40.13
541.656	40.18
542.001	40.21
542.346	40.05
542.691	39.97
543.036	39.66
543.381	39.5
543.726	39.64
544.071	39.73
544.415	39.75
544.76	39.93
545.105	40.02
545.449	40.18
545.794	40.27
546.138	40.35
546.483	40.42
546.827	40.72
547.171	40.54
547.516	40.88
547.86	40.79
548.204	40.85
548.548	40.7
548.892	40.86
549.236	40.82
549.58	41.11
549.924	40.97
550.268	41.23
550.612	41.3
550.956	41.5
551.3	41.69
551.643	41.74
551.987	41.8
552.33	41.67
552.674	42.06
553.017	41.91
553.361	42.12
553.704	42.08
554.048	42
554.391	41.81
554.734	42.06
555.077	41.88
555.42	42.05
555.764	42.28
556.107	42.15
556.45	42.35
556.793	42.37
557.135	42.33
557.478	42.35
557.821	42.56
558.164	42.51
558.507	42.8
558.849	42.56
559.192	42.8
559.534	43.1
559.877	42.75
560.219	42.9
560.562	42.84
560.904	43.04
561.246	42.91
561.589	42.89
561.931	42.94
562.273	43.12
562.615	43.02
562.957	43.2
563.299	43.15
563.641	43
563.983	43.13
564.325	43.29
564.667	43.3
565.008	43.27
565.35	43.08
565.692	43.67
566.033	43.4
566.375	43.65
566.716	43.67
567.058	43.56
567.399	43.58
567.741	43.67
568.082	43.35
568.423	43.5
568.764	43.75
569.105	43.77
569.447	43.84
569.788	43.92
570.129	43.62
570.47	44.19
570.811	43.87
571.151	44.25
571.492	44.09
571.833	44.25
572.174	44.06
572.514	44.09
572.855	44.13
573.195	44.37
573.536	44.18
573.876	44.29
574.217	44.22
574.557	44.11
574.898	44.33
575.238	44.26
575.578	44.58
575.918	44.39
576.258	44.75
576.598	44.59
576.938	44.85
577.278	44.81
577.618	44.96
577.958	44.84
578.298	44.69
578.638	44.87
578.977	44.83
579.317	44.95
579.657	45.06
579.996	45.06
580.336	45
580.675	45.31
581.014	45.59
581.354	45.25
581.693	45.79
582.032	45.67
582.372	45.72
582.711	45.79
583.05	45.61
583.389	45.96
583.728	45.72
584.067	45.7
584.406	46.1
584.745	46.24
585.083	45.79
585.422	45.68
585.761	46.27
586.1	45.96
586.438	46.05
586.777	46.35
587.115	46.18
587.454	46.46
587.792	45.86
588.13	46.07
588.469	46.39
588.807	46.65
589.145	46.28
589.483	46.18
589.821	46.91
590.159	46.46
590.497	46.53
590.835	46.62
591.173	46.85
591.511	46.57
591.849	46.75
592.187	46.84
592.524	46.69
592.862	46.78
593.2	46.71
593.537	46.58
593.875	46.82
594.212	46.77
594.55	46.92
594.887	47.14
595.224	47.29
595.561	46.88
595.899	47.12
596.236	47.06
596.573	47.16
596.91	47.6
597.247	47.25
597.584	47.03
597.921	47.16
598.258	47.17
598.594	47.3
598.931	47.24
599.268	47.12
599.604	47.17
599.941	47.13
600.277	47.37
600.614	47.36
600.95	47.81
601.287	47.64
601.623	47.68
601.959	47.49
602.296	47.78
602.632	47.98
602.968	47.59
603.304	47.82
603.64	48.35
603.976	48.21
604.312	48.29
604.648	48.18
604.984	48.07
605.319	47.98
605.655	47.79
605.991	48.03
606.326	48.01
606.662	48.04
606.998	47.98
607.333	47.69
607.668	47.95
608.004	48.16
608.339	48.66
608.674	48.33
609.01	48.37
609.345	48.34
609.68	48.63
610.015	48.18
610.35	48.48
610.685	48.93
611.02	48.62
611.355	48.7
611.689	48.46
612.024	48.63
612.359	48.74
612.694	48.56
613.028	48.6
613.363	48.68
613.697	48.94
614.032	49.02
614.366	48.92
614.7	48.59
615.035	49.33
615.369	49.1
615.703	49.28
616.037	49.23
616.371	49.16
616.705	49.46
617.039	49.38
617.373	49.52
617.707	49.17
618.041	49.28
618.375	49.66
618.709	49.52
619.042	49.23
619.376	49.57
619.71	49.53
620.043	49.48
620.377	49.66
620.71	49.18
621.043	49.5
621.377	49.65
621.71	49.79
622.043	49.76
622.376	50.17
622.709	49.84
623.043	49.85
623.376	50.11
623.709	50.06
624.041	50.24
624.374	49.98
624.707	50.27
625.04	50.14
625.373	50.2
625.705	50.06
626.038	49.85
626.37	50.11
626.703	50.13
627.035	50.73
627.368	50.38
627.7	50.3
628.032	50.26
628.365	50.47
628.697	50.01
629.029	50.18
629.361	50.79
629.693	50.46
630.025	50.33
630.357	50.55
630.689	50.5
631.021	50.75
631.353	50.22
631.684	51.41
632.016	50.85
632.348	51.06
632.679	50.68
633.011	51.51
633.342	50.9
633.674	51.24
634.005	51.06
634.336	50.95
634.668	51.35
634.999	51.07
635.33	50.95
635.661	51.51
635.992	51.15
636.323	51.16
636.654	51.19
636.985	51.01
637.316	51.35
637.647	50.97
637.977	51.32
638.308	51.03
638.639	51.58
638.969	51.78
639.3	50.82
639.63	51.59
639.961	51.51
640.291	51.33
640.622	51.79
640.952	51.69
641.282	51.48
641.612	51.29
641.943	51.96
642.273	52.12
642.603	51.91
642.933	51.9
643.263	51.75
643.592	51.54
643.922	52.08
644.252	52.32
644.582	51.72
644.911	51.66
645.241	51.95
645.571	52.56
645.9	51.97
646.23	51.73
646.559	52.1
646.888	51.66
647.218	52.42
647.547	52.59
647.876	52.61
648.205	52.67
648.534	52.85
648.863	51.69
649.192	52.94
649.521	53.15
649.85	52.32
650.179	52.49
650.508	52.93
650.837	52.3
651.165	52.47
651.494	52.65
651.822	52.29
652.151	53.15
652.479	53.06
652.808	53.13
653.136	52.33
653.465	52.92
653.793	52.31
654.121	53.48
654.449	52.55
654.777	52.69
655.105	52.63
655.433	53.53
655.761	53.23
656.089	52.85
656.417	52.99
656.745	53.34
657.073	52.87
657.4	53.65
657.728	52.65
658.056	52.91
658.383	52.5
658.711	52.99
659.038	53.44
659.365	53.06
659.693	53.22
660.02	53.2
660.347	53.04
660.674	53.63
661.001	53.54
661.329	53.69
661.656	53.41
661.982	53.54
662.309	53.7
662.636	53.66
662.963	53.88
663.29	53.26
663.616	53.39
663.943	53.53
664.27	54.31
664.596	53.75
664.923	54.32
665.249	53.04
665.576	53.36
665.902	53.47
666.228	54
666.554	53.7
666.881	53.23
667.207	53.79
667.533	53.55
667.859	53.62
668.185	54.46
668.511	54
668.837	53.73
669.162	53.67
669.488	53.85
