Data from 0393_chest_Reflection__4__156.txt Node

Date: Tue Dec 12 19:39:17 CST 2023
User: ToomeyLab
Spectrometer: FLMS14357
Trigger mode: 0
Integration Time (sec): 1.000000E-2
Scans to average: 100
Electric dark correction enabled: true
Nonlinearity correction enabled: false
Boxcar width: 0
XAxis mode: Wavelengths
Number of Pixels in Spectrum: 2048
>>>>>Begin Spectral Data<<<<<
189.047	-88.93
189.435	-88.93
189.823	-88.93
190.211	192.96
190.599	-40.04
190.987	130.84
191.375	98.82
191.763	-18.47
192.151	116.95
192.538	15.66
192.926	168.03
193.314	104.76
193.702	65.43
194.089	-7.68
194.477	-408.37
194.864	147.28
195.252	52.34
195.639	-8.83
196.027	136.79
196.414	697.23
196.801	31.65
197.189	1985.37
197.576	5.98
197.963	-37.16
198.351	61.38
198.738	-23.73
199.125	0.36
199.512	-31.67
199.899	-32.35
200.286	24.37
200.673	-4.14
201.06	-21.81
201.447	-60.46
201.833	41.24
202.22	17.02
202.607	-58.75
202.994	-52.46
203.38	21.85
203.767	-20.27
204.154	17.83
204.54	-19.08
204.927	10.92
205.313	33.46
205.699	-12.09
206.086	-23.69
206.472	20.1
206.858	14.14
207.245	8.25
207.631	24.38
208.017	-87.86
208.403	-54
208.789	4.78
209.175	-37.03
209.561	13.87
209.947	-37.25
210.333	23.17
210.719	-41.9
211.105	-24.39
211.491	10.06
211.876	7.1
212.262	-0.18
212.648	-7.29
213.034	-33.31
213.419	7.72
213.805	14.28
214.19	19.05
214.576	27.81
214.961	-21.82
215.346	-9.71
215.732	28.33
216.117	25.15
216.502	-12.09
216.888	-16.34
217.273	-10.01
217.658	-15.75
218.043	18.46
218.428	-3.29
218.813	-5.6
219.198	-20.35
219.583	7.1
219.968	-18.07
220.353	8.01
220.738	11.07
221.122	7
221.507	6.98
221.892	-10.31
222.276	3.77
222.661	-3.87
223.046	2.39
223.43	2.91
223.815	-18.11
224.199	7.35
224.583	1.7
224.968	5.72
225.352	-3.93
225.736	4.39
226.121	-4.89
226.505	2.03
226.889	-5.12
227.273	5.23
227.657	4.6
228.041	-2.83
228.425	2.25
228.809	-0.09
229.193	0.36
229.577	0.71
229.961	-0.58
230.344	1.83
230.728	1.79
231.112	1.68
231.495	2.16
231.879	1.19
232.263	0.49
232.646	2.39
233.03	0.8
233.413	0.54
233.797	0.52
234.18	0.8
234.563	-2.56
234.946	0.91
235.33	3.02
235.713	1.93
236.096	-0.63
236.479	-0.19
236.862	1
237.245	2.61
237.628	1.77
238.011	0.35
238.394	0.84
238.777	2.14
239.16	1.98
239.543	2
239.925	2.55
240.308	2.27
240.691	2.47
241.073	2.58
241.456	2.49
241.838	0.6
242.221	2.44
242.603	1.4
242.986	1.48
243.368	1.94
243.75	1.75
244.133	2.03
244.515	2.13
244.897	1.31
245.279	2.05
245.661	1.32
246.043	1.91
246.425	1.56
246.807	1.36
247.189	1.44
247.571	2.1
247.953	1.89
248.335	1.62
248.717	1.65
249.098	1.77
249.48	1.59
249.862	1.35
250.243	1.75
250.625	2.05
251.006	1.81
251.388	1.52
251.769	0.87
252.151	0.39
252.532	2
252.913	2.07
253.295	1.93
253.676	1.56
254.057	1.33
254.438	1.95
254.819	0.72
255.2	1.87
255.581	2.04
255.962	0.73
256.343	1.47
256.724	1.47
257.105	2.02
257.486	0.72
257.867	1.1
258.247	1.22
258.628	1.93
259.009	0.68
259.389	1.33
259.77	1.49
260.15	1.73
260.531	2.06
260.911	2.22
261.292	1.56
261.672	1.6
262.052	1.71
262.432	1.79
262.813	1.38
263.193	1.82
263.573	2.32
263.953	2.69
264.333	2.49
264.713	1.93
265.093	1.83
265.473	2.34
265.853	1.36
266.233	0.15
266.612	1.35
266.992	1.28
267.372	1.23
267.752	2.1
268.131	1.02
268.511	1.7
268.89	0.89
269.27	1.01
269.649	1.31
270.029	1.26
270.408	1.85
270.787	1.78
271.167	1.51
271.546	1.35
271.925	2.46
272.304	1.85
272.683	0.97
273.062	1.42
273.441	1.62
273.82	1.25
274.199	1.62
274.578	1.39
274.957	1.62
275.336	1.58
275.715	1.96
276.093	1.24
276.472	1.7
276.851	1.39
277.229	1.2
277.608	1.62
277.986	0.74
278.365	1.67
278.743	1.94
279.122	2
279.5	1.6
279.878	0.88
280.257	1.73
280.635	1.24
281.013	1.23
281.391	1.37
281.769	1.1
282.147	1.47
282.525	1.29
282.903	1.73
283.281	1.58
283.659	1.4
284.037	1.98
284.415	1.71
284.792	1.85
285.17	1.51
285.548	1.77
285.925	1.43
286.303	1.62
286.68	1.66
287.058	1.88
287.435	1.58
287.813	1.48
288.19	1.66
288.567	1.78
288.945	1.89
289.322	1.01
289.699	1.32
290.076	1.48
290.453	1.67
290.83	1.27
291.207	1.92
291.584	1.8
291.961	1.77
292.338	1.33
292.715	1.74
293.092	1.28
293.469	1.35
293.845	2.19
294.222	1.56
294.599	1.42
294.975	1.63
295.352	1.86
295.728	1.77
296.105	1.4
296.481	1.81
296.858	1.95
297.234	1.84
297.61	1.51
297.986	1.67
298.363	1.95
298.739	1.73
299.115	1.42
299.491	1.5
299.867	1.74
300.243	1.54
300.619	1.98
300.995	1.68
301.371	1.54
301.746	1.72
302.122	2.03
302.498	1.82
302.874	2.18
303.249	2.39
303.625	1.4
304	2.39
304.376	1.65
304.751	1.83
305.127	1.86
305.502	2.16
305.878	1.69
306.253	1.94
306.628	1.96
307.003	1.82
307.378	1.71
307.754	1.67
308.129	1.66
308.504	2.48
308.879	1.74
309.254	2.26
309.629	1.61
310.003	1.89
310.378	1.6
310.753	2.06
311.128	2.1
311.502	1.62
311.877	1.92
312.252	1.7
312.626	1.64
313.001	1.73
313.375	1.54
313.75	2.11
314.124	1.94
314.498	1.91
314.873	2.05
315.247	2.36
315.621	2.17
315.995	2.08
316.369	1.89
316.743	0.95
317.117	1.72
317.491	1.8
317.865	1.74
318.239	1.6
318.613	2.53
318.987	2.73
319.361	1.66
319.734	1.56
320.108	2.44
320.482	2.26
320.855	1.97
321.229	2
321.602	2.25
321.976	2.23
322.349	1.88
322.723	1.43
323.096	1.87
323.469	1.93
323.843	2.34
324.216	1.96
324.589	2.1
324.962	1.98
325.335	2.8
325.708	2.37
326.081	2.51
326.454	1.63
326.827	2.37
327.2	2.14
327.573	1.94
327.945	2.06
328.318	2.37
328.691	1.74
329.063	2.12
329.436	2.01
329.809	2.29
330.181	1.58
330.553	1.54
330.926	2.3
331.298	1.84
331.671	2.45
332.043	1.94
332.415	2.63
332.787	2.65
333.159	2.37
333.532	2.21
333.904	2.25
334.276	2.49
334.648	1.7
335.02	1.79
335.391	1.94
335.763	1.86
336.135	2.28
336.507	2.04
336.879	2.24
337.25	1.98
337.622	1.67
337.993	1.85
338.365	1.72
338.736	2.16
339.108	2.08
339.479	2.54
339.851	1.81
340.222	1.7
340.593	2.17
340.964	2.19
341.336	2.23
341.707	1.94
342.078	1.49
342.449	2.23
342.82	1.93
343.191	1.9
343.562	2.46
343.933	2.42
344.303	2.51
344.674	2.54
345.045	1.8
345.416	2.05
345.786	2.28
346.157	2.15
346.527	2.5
346.898	1.8
347.268	1.69
347.639	2.15
348.009	2.29
348.38	2.13
348.75	2.48
349.12	2.25
349.49	1.94
349.861	2.17
350.231	1.81
350.601	2.43
350.971	1.97
351.341	1.89
351.711	2.63
352.081	2.28
352.45	2.17
352.82	2.27
353.19	1.95
353.56	2.03
353.929	1.58
354.299	1.82
354.669	1.72
355.038	1.96
355.408	1.85
355.777	2.41
356.147	2.11
356.516	2.42
356.885	1.85
357.254	2.02
357.624	2.27
357.993	2.01
358.362	2.3
358.731	2.33
359.1	1.78
359.469	1.77
359.838	2.2
360.207	2.04
360.576	2.25
360.945	1.8
361.314	2.31
361.682	2.27
362.051	2.43
362.42	2.17
362.788	1.95
363.157	2.4
363.525	2.33
363.894	1.99
364.262	2.1
364.631	2.04
364.999	2.23
365.367	2.11
365.735	2
366.104	2
366.472	1.89
366.84	2.22
367.208	1.98
367.576	2.21
367.944	2.35
368.312	2.49
368.68	1.97
369.048	2.26
369.416	2.27
369.783	2.33
370.151	2.23
370.519	1.94
370.886	2.18
371.254	2.34
371.621	2.45
371.989	1.98
372.356	2.12
372.724	2.22
373.091	2.43
373.458	2.13
373.826	2.36
374.193	1.79
374.56	2.39
374.927	2.26
375.294	2.3
375.661	2.42
376.028	2.5
376.395	2.51
376.762	2.56
377.129	2.04
377.496	2.06
377.863	2.08
378.229	2.21
378.596	2.11
378.963	2.48
379.329	2.03
379.696	1.9
380.062	2.64
380.429	2.28
380.795	2.28
381.161	2.36
381.528	2.22
381.894	2.45
382.26	2.16
382.626	2.27
382.993	2.44
383.359	1.96
383.725	2.1
384.091	2.23
384.457	2.46
384.823	2.36
385.188	2.32
385.554	2.49
385.92	2.23
386.286	2.33
386.651	2.65
387.017	2.55
387.383	2.21
387.748	2.52
388.114	2.4
388.479	2.47
388.845	2.24
389.21	2.39
389.575	2.18
389.94	2.26
390.306	2.16
390.671	2.43
391.036	2.59
391.401	2.26
391.766	2.36
392.131	2.39
392.496	2.25
392.861	2.11
393.226	2.55
393.591	2.26
393.956	2.17
394.32	2.32
394.685	2.45
395.05	2.23
395.414	2.28
395.779	2.21
396.143	2.41
396.508	2.21
396.872	2.35
397.236	2.34
397.601	2.18
397.965	2.33
398.329	2.48
398.694	2.31
399.058	2.59
399.422	2.34
399.786	2.28
400.15	2.16
400.514	2.47
400.878	2.13
401.242	2.23
401.605	2.63
401.969	2.49
402.333	2.47
402.697	2.32
403.06	2.22
403.424	2.57
403.787	2.24
404.151	2.38
404.514	2.15
404.878	2.25
405.241	2.53
405.604	2.19
405.968	2.28
406.331	2.45
406.694	2.59
407.057	2.38
407.42	2.2
407.783	2.11
408.146	2.2
408.509	2.34
408.872	2.33
409.235	2.31
409.598	2.45
409.961	2.27
410.323	2.16
410.686	2.62
411.049	2.28
411.411	2.6
411.774	2.51
412.136	2.58
412.499	2.35
412.861	2.35
413.223	2.62
413.586	2.32
413.948	2.35
414.31	2.5
414.672	2.5
415.035	2.25
415.397	2.32
415.759	2.38
416.121	2.46
416.483	2.33
416.845	2.4
417.206	2.28
417.568	2.62
417.93	2.49
418.292	2.27
418.653	2.47
419.015	2.33
419.377	2.44
419.738	2.37
420.1	2.35
420.461	2.36
420.822	2.53
421.184	2.44
421.545	2.53
421.906	2.41
422.267	2.3
422.629	2.32
422.99	2.39
423.351	2.38
423.712	2.36
424.073	2.41
424.434	2.39
424.795	2.43
425.155	2.31
425.516	2.3
425.877	2.43
426.238	2.42
426.598	2.31
426.959	2.48
427.32	2.43
427.68	2.48
428.041	2.51
428.401	2.55
428.761	2.4
429.122	2.57
429.482	2.47
429.842	2.6
430.202	2.37
430.563	2.55
430.923	2.47
431.283	2.5
431.643	2.59
432.003	2.45
432.363	2.52
432.722	2.38
433.082	2.6
433.442	2.58
433.802	2.58
434.161	2.63
434.521	2.58
434.881	2.46
435.24	2.58
435.6	2.68
435.959	2.58
436.319	2.54
436.678	2.67
437.037	2.66
437.396	2.36
437.756	2.5
438.115	2.56
438.474	2.41
438.833	2.68
439.192	2.5
439.551	2.52
439.91	2.36
440.269	2.4
440.628	2.49
440.987	2.38
441.345	2.58
441.704	2.48
442.063	2.52
442.421	2.53
442.78	2.48
443.138	2.5
443.497	2.55
443.855	2.55
444.214	2.7
444.572	2.64
444.93	2.52
445.288	2.4
445.647	2.59
446.005	2.44
446.363	2.31
446.721	2.4
447.079	2.49
447.437	2.35
447.795	2.57
448.153	2.53
448.51	2.56
448.868	2.52
449.226	2.61
449.584	2.55
449.941	2.51
450.299	2.65
450.656	2.46
451.014	2.56
451.371	2.66
451.729	2.61
452.086	2.64
452.443	2.74
452.801	2.6
453.158	2.49
453.515	2.63
453.872	2.69
454.229	2.77
454.586	2.42
454.943	2.67
455.3	2.4
455.657	2.57
456.014	2.88
456.371	2.63
456.727	2.69
457.084	2.59
457.441	2.6
457.797	2.5
458.154	2.68
458.51	2.47
458.867	2.77
459.223	2.52
459.58	2.63
459.936	2.43
460.292	2.69
460.648	2.57
461.005	2.65
461.361	2.57
461.717	2.63
462.073	2.52
462.429	2.6
462.785	2.53
463.141	2.65
463.496	2.62
463.852	2.81
464.208	2.62
464.564	2.69
464.919	2.75
465.275	2.71
465.631	2.96
465.986	2.64
466.342	2.39
466.697	2.77
467.052	2.89
467.408	2.7
467.763	2.74
468.118	2.67
468.473	2.7
468.829	2.66
469.184	2.78
469.539	2.83
469.894	2.63
470.249	2.71
470.603	2.84
470.958	2.71
471.313	2.94
471.668	2.91
472.023	2.72
472.377	2.65
472.732	2.76
473.086	2.79
473.441	2.71
473.795	2.78
474.15	2.86
474.504	2.58
474.859	2.78
475.213	2.6
475.567	2.67
475.921	2.7
476.275	2.56
476.63	2.79
476.984	2.75
477.338	2.59
477.692	2.66
478.045	2.82
478.399	2.63
478.753	2.67
479.107	2.73
479.461	2.83
479.814	2.71
480.168	2.6
480.521	2.64
480.875	2.8
481.228	2.84
481.582	2.81
481.935	2.89
482.289	2.76
482.642	2.83
482.995	2.68
483.348	2.65
483.701	2.92
484.055	2.75
484.408	2.7
484.761	2.67
485.114	2.65
485.466	2.59
485.819	2.58
486.172	2.55
486.525	2.61
486.878	2.65
487.23	2.66
487.583	2.67
487.936	2.76
488.288	2.6
488.641	2.69
488.993	2.69
489.345	2.65
489.698	2.68
490.05	2.65
490.402	2.72
490.754	2.67
491.107	2.68
491.459	2.72
491.811	2.75
492.163	2.69
492.515	2.81
492.866	2.75
493.218	2.68
493.57	2.66
493.922	2.64
494.274	2.73
494.625	2.8
494.977	2.87
495.328	2.87
495.68	2.81
496.031	2.88
496.383	2.85
496.734	2.85
497.086	2.76
497.437	2.82
497.788	2.85
498.139	2.91
498.49	3.03
498.842	2.82
499.193	2.79
499.544	2.8
499.894	2.79
500.245	2.9
500.596	2.93
500.947	2.97
501.298	2.94
501.648	3.09
501.999	2.88
502.35	2.8
502.7	2.9
503.051	2.91
503.401	2.88
503.752	3
504.102	3.04
504.452	2.89
504.803	2.97
505.153	3.11
505.503	3.13
505.853	3.1
506.203	3.07
506.553	3
506.903	3.07
507.253	3.06
507.603	2.96
507.953	3
508.303	3.03
508.652	3.07
509.002	2.98
509.352	3
509.701	3
510.051	2.92
510.4	3
510.75	2.92
511.099	3.05
511.449	3.05
511.798	2.95
512.147	3.02
512.496	3.1
512.846	3.02
513.195	2.98
513.544	3.07
513.893	3.03
514.242	2.98
514.591	2.96
514.939	3.07
515.288	3
515.637	3
515.986	3.06
516.334	3.17
516.683	2.95
517.032	3.04
517.38	3.02
517.729	3.15
518.077	3.03
518.426	3.22
518.774	3.14
519.122	3.09
519.47	3.1
519.819	2.96
520.167	3.02
520.515	2.96
520.863	3.13
521.211	3.07
521.559	3.13
521.907	3.04
522.255	3.05
522.602	3.25
522.95	3.1
523.298	3.15
523.645	3.27
523.993	3.25
524.341	3.15
524.688	3.1
525.036	3.22
525.383	3.18
525.73	3.13
526.078	3.17
526.425	3.15
526.772	3.15
527.119	3.11
527.466	3.14
527.814	3.02
528.161	3.11
528.508	3.22
528.854	3.16
529.201	3.11
529.548	3.15
529.895	3.06
530.242	3.01
530.588	3.06
530.935	3.11
531.282	3.12
531.628	3.13
531.975	3.16
532.321	3.07
532.667	3.14
533.014	3.17
533.36	3.19
533.706	3.18
534.052	3.19
534.399	3.32
534.745	3.22
535.091	3.18
535.437	3.25
535.783	3.2
536.129	3.29
536.474	3.27
536.82	3.25
537.166	3.33
537.512	3.4
537.857	3.31
538.203	3.26
538.549	3.2
538.894	3.37
539.239	3.32
539.585	3.38
539.93	3.36
540.276	3.38
540.621	3.31
540.966	3.35
541.311	3.48
541.656	3.49
542.001	3.42
542.346	3.25
542.691	3.26
543.036	3.29
543.381	3.27
543.726	3.3
544.071	3.33
544.415	3.31
544.76	3.37
545.105	3.39
545.449	3.49
545.794	3.53
546.138	3.34
546.483	3.53
546.827	3.55
547.171	3.57
547.516	3.55
547.86	3.57
548.204	3.52
548.548	3.5
548.892	3.56
549.236	3.49
549.58	3.64
549.924	3.62
550.268	3.61
550.612	3.56
550.956	3.67
551.3	3.73
551.643	3.55
551.987	3.88
552.33	3.88
552.674	3.97
553.017	3.84
553.361	3.9
553.704	3.7
554.048	3.72
554.391	3.72
554.734	3.69
555.077	3.84
555.42	3.64
555.764	3.94
556.107	3.84
556.45	3.79
556.793	3.73
557.135	3.78
557.478	3.87
557.821	3.82
558.164	4.03
558.507	3.96
558.849	3.9
559.192	3.91
559.534	4.08
559.877	3.91
560.219	3.96
560.562	3.95
560.904	3.88
561.246	4.01
561.589	3.91
561.931	3.96
562.273	3.85
562.615	4.15
562.957	3.97
563.299	4.09
563.641	4.14
563.983	4.05
564.325	4
564.667	4.09
565.008	3.96
565.35	3.96
565.692	4.05
566.033	4.18
566.375	4.16
566.716	3.99
567.058	4.08
567.399	4.13
567.741	4.12
568.082	4.09
568.423	4.19
568.764	4.21
569.105	4.23
569.447	4.34
569.788	4.22
570.129	4.21
570.47	4.17
570.811	4.09
571.151	4.27
571.492	4.17
571.833	4.39
572.174	4.23
572.514	4.27
572.855	4.35
573.195	4.28
573.536	4.28
573.876	4.34
574.217	4.4
574.557	4.26
574.898	4.33
575.238	4.46
575.578	4.36
575.918	4.43
576.258	4.33
576.598	4.36
576.938	4.53
577.278	4.46
577.618	4.4
577.958	4.42
578.298	4.57
578.638	4.34
578.977	4.46
579.317	4.67
579.657	4.5
579.996	4.53
580.336	4.48
580.675	4.45
581.014	4.49
581.354	4.44
581.693	4.5
582.032	4.39
582.372	4.6
582.711	4.53
583.05	4.9
583.389	4.8
583.728	4.68
584.067	4.8
584.406	4.89
584.745	4.91
585.083	4.57
585.422	5.06
585.761	4.96
586.1	4.93
586.438	5.09
586.777	4.81
587.115	4.76
587.454	4.99
587.792	4.58
588.13	4.96
588.469	4.93
588.807	4.84
589.145	5.1
589.483	4.88
589.821	5.05
590.159	5.1
590.497	5.01
590.835	5.11
591.173	5.12
591.511	5.16
591.849	4.83
592.187	4.92
592.524	4.94
592.862	5.18
593.2	4.93
593.537	4.83
593.875	5.21
594.212	5.02
594.55	5.25
594.887	5.38
595.224	5.26
595.561	5.28
595.899	5.05
596.236	5.34
596.573	5.21
596.91	5.47
597.247	5.27
597.584	5.39
597.921	5.27
598.258	5.36
598.594	5.4
598.931	5.3
599.268	5.14
599.604	5.4
599.941	5.27
600.277	5.32
600.614	5.45
600.95	5.55
601.287	5.53
601.623	5.62
601.959	5.31
602.296	5.46
602.632	5.33
602.968	5.45
603.304	5.3
603.64	5.79
603.976	5.54
604.312	5.53
604.648	5.51
604.984	5.6
605.319	5.69
605.655	5.48
605.991	5.59
606.326	5.51
606.662	5.72
606.998	5.51
607.333	5.64
607.668	5.73
608.004	5.74
608.339	5.96
608.674	6.01
609.01	5.79
609.345	6.01
609.68	5.77
610.015	5.53
610.35	5.53
610.685	6
611.02	5.82
611.355	5.77
611.689	5.85
612.024	5.57
612.359	5.93
612.694	5.82
613.028	5.75
613.363	5.95
613.697	6.07
614.032	6.01
614.366	6.03
614.7	5.93
615.035	5.97
615.369	5.93
615.703	5.86
616.037	5.83
616.371	5.45
616.705	6.21
617.039	6.29
617.373	6.15
617.707	6.2
618.041	6.1
618.375	5.9
618.709	6.15
619.042	6.29
619.376	5.98
619.71	6.1
620.043	6.16
620.377	6.34
620.71	6.1
621.043	6.19
621.377	6.18
621.71	6.64
622.043	6.09
622.376	6.49
622.709	6.48
623.043	6.18
623.376	6.52
623.709	6.72
624.041	6.38
624.374	6.24
624.707	6.58
625.04	6.7
625.373	6.66
625.705	6.79
626.038	6.51
626.37	6.86
626.703	6.64
627.035	6.52
627.368	6.67
627.7	6.39
628.032	6.4
628.365	6.55
628.697	6.59
629.029	6.22
629.361	6.58
629.693	6.6
630.025	6.44
630.357	6.74
630.689	6.6
631.021	7.03
631.353	6.69
631.684	6.71
632.016	6.68
632.348	6.96
632.679	6.53
633.011	7.14
633.342	7.07
633.674	7.03
634.005	6.93
634.336	7.07
634.668	7.12
634.999	7.12
635.33	7.17
635.661	6.95
635.992	7.25
636.323	6.99
636.654	7.01
636.985	7.15
637.316	7.26
637.647	6.91
637.977	7.03
638.308	7.29
638.639	7.47
638.969	7.14
639.3	6.71
639.63	7.24
639.961	7.06
640.291	7.19
640.622	7.1
640.952	7.6
641.282	7.64
641.612	7.31
641.943	7.45
642.273	7.11
642.603	7.55
642.933	7.87
643.263	7.35
643.592	7.59
643.922	7.79
644.252	7.44
644.582	6.98
644.911	7.73
645.241	7.06
645.571	7.78
645.9	7.12
646.23	7.18
646.559	7.85
646.888	7.53
647.218	7.75
647.547	7.83
647.876	7.77
648.205	7.69
648.534	7.84
648.863	7.42
649.192	8.03
649.521	8.06
649.85	7.64
650.179	7.79
650.508	8.08
650.837	7.59
651.165	7.63
651.494	7.53
651.822	7.59
652.151	7.99
652.479	8.22
652.808	7.87
653.136	7.64
653.465	7.9
653.793	7.98
654.121	8.17
654.449	7.49
654.777	8.1
655.105	8.29
655.433	8.38
655.761	8.05
656.089	8.05
656.417	8.2
656.745	7.99
657.073	7.77
657.4	8.18
657.728	7.77
658.056	8
658.383	7.32
658.711	8
659.038	8.28
659.365	8.38
659.693	8.08
660.02	8.54
660.347	8.34
660.674	7.68
661.001	8.29
661.329	8.4
661.656	8.33
661.982	8.07
662.309	8.57
662.636	8.5
662.963	8.54
663.29	8.53
663.616	8.59
663.943	8.76
664.27	8.43
664.596	8.68
664.923	9.29
665.249	8.38
665.576	8.73
665.902	8.36
666.228	8.62
666.554	8.61
666.881	8.39
667.207	8.94
667.533	8.7
667.859	8.72
668.185	8.65
668.511	9.07
668.837	8.94
669.162	9.51
669.488	8.59
669.814	8.98
670.139	8.62
670.465	8.31
670.791	9.2
671.116	9.15
671.442	8.85
671.767	8.78
672.092	9.58
672.418	8.67
672.743	8.92
673.068	8.79
673.393	8.9
673.718	9.1
674.043	9.51
674.368	8.14
674.693	8.55
675.018	9.17
675.343	9.45
675.667	9.15
675.992	9.36
676.317	8.34
676.641	9.18
676.966	9.49
677.29	8.99
677.615	8.99
677.939	9.08
678.264	9.17
678.588	10.07
678.912	10.02
679.236	8.83
679.56	8.96
679.885	9.48
680.209	9.81
680.532	9.22
680.856	9.02
681.18	9.12
681.504	9.52
681.828	9
682.152	9.86
682.475	9.33
682.799	9.4
683.122	9.65
683.446	9.53
683.769	10.28
684.093	9.1
684.416	9.33
684.739	9.94
685.062	9.36
685.386	9.99
685.709	9.66
686.032	9.46
686.355	8.83
686.678	9.64
687.001	9.87
687.324	10.28
687.646	10.37
687.969	9.34
688.292	9.78
688.614	9.86
688.937	9.67
689.26	10.35
689.582	9.9
689.904	9.51
690.227	9.85
690.549	10.43
690.871	10.29
691.194	10.35
691.516	10.33
691.838	9.8
692.16	10.29
692.482	9.44
692.804	9.4
693.126	10.16
