Data from 0393_chest_Reflection__1__153.txt Node

Date: Tue Dec 12 19:38:08 CST 2023
User: ToomeyLab
Spectrometer: FLMS14357
Trigger mode: 0
Integration Time (sec): 1.000000E-2
Scans to average: 100
Electric dark correction enabled: true
Nonlinearity correction enabled: false
Boxcar width: 0
XAxis mode: Wavelengths
Number of Pixels in Spectrum: 2048
>>>>>Begin Spectral Data<<<<<
189.047	-100.82
189.435	-100.82
189.823	-100.82
190.211	36.41
190.599	-130.72
190.987	55.73
191.375	-8.34
191.763	-78.36
192.151	142.32
192.538	383.42
192.926	156.3
193.314	7052.38
193.702	-807.29
194.089	0.5
194.477	413.18
194.864	150.73
195.252	74.07
195.639	-15.32
196.027	-134.75
196.414	223.67
196.801	55
197.189	734.15
197.576	85.8
197.963	229.06
198.351	-54.49
198.738	39.81
199.125	-1.42
199.512	-77.74
199.899	-5.63
200.286	1.16
200.673	-44.24
201.06	-20.51
201.447	-86.45
201.833	-74.12
202.22	24.35
202.607	-120.84
202.994	16.75
203.38	54.58
203.767	21.17
204.154	7.49
204.54	26.35
204.927	-14.6
205.313	10.11
205.699	-0.92
206.086	-68.34
206.472	23.23
206.858	-4.1
207.245	16.15
207.631	17.66
208.017	42.93
208.403	-52.4
208.789	25.03
209.175	-32.13
209.561	7.53
209.947	-14.14
210.333	4.47
210.719	-4.52
211.105	-40.79
211.491	31.04
211.876	6.54
212.262	52.36
212.648	-29.43
213.034	-50.82
213.419	3.35
213.805	16.28
214.19	45.81
214.576	9.28
214.961	34.03
215.346	0.26
215.732	17.46
216.117	-24.15
216.502	-48.05
216.888	-64.49
217.273	-17.48
217.658	-44.96
218.043	-30.24
218.428	1.12
218.813	5.4
219.198	-57.69
219.583	-12.08
219.968	-14.83
220.353	-5.36
220.738	-10.02
221.122	-7.32
221.507	-18.64
221.892	-1.03
222.276	7.92
222.661	-5.94
223.046	-18.07
223.43	2.34
223.815	-8.42
224.199	6.26
224.583	6.84
224.968	-2.4
225.352	-0.18
225.736	7.61
226.121	-6.29
226.505	2.28
226.889	8.5
227.273	-3.63
227.657	8.21
228.041	-0.63
228.425	3.33
228.809	4.41
229.193	-0.62
229.577	2.95
229.961	2.03
230.344	4.47
230.728	4.79
231.112	4.46
231.495	4.38
231.879	4.23
232.263	4.33
232.646	4.25
233.03	3.04
233.413	2.96
233.797	5.08
234.18	1.7
234.563	3.75
234.946	6.21
235.33	5.36
235.713	4.83
236.096	3.07
236.479	4.34
236.862	5.66
237.245	4.06
237.628	3.62
238.011	5.26
238.394	3.31
238.777	5.76
239.16	3.11
239.543	3.29
239.925	4.26
240.308	4.39
240.691	3.63
241.073	4.38
241.456	4.35
241.838	3.97
242.221	4.69
242.603	4.32
242.986	3.04
243.368	4.69
243.75	4.16
244.133	4.28
244.515	4.62
244.897	4.69
245.279	5.14
245.661	3.22
246.043	2.41
246.425	4.73
246.807	3.29
247.189	3.9
247.571	4.26
247.953	4.46
248.335	4.31
248.717	4.15
249.098	4.3
249.48	3.89
249.862	4.13
250.243	3.98
250.625	4.75
251.006	4.74
251.388	4.55
251.769	3.67
252.151	3.05
252.532	4.85
252.913	4.11
253.295	4.74
253.676	3.86
254.057	3.74
254.438	4.44
254.819	3.93
255.2	3.21
255.581	4.43
255.962	3.77
256.343	2.31
256.724	2.79
257.105	4.34
257.486	2.87
257.867	3.29
258.247	4.31
258.628	3.78
259.009	3.45
259.389	3.79
259.77	3.61
260.15	4.27
260.531	4.51
260.911	4.39
261.292	3.84
261.672	4.17
262.052	4.1
262.432	3.87
262.813	3.98
263.193	4.03
263.573	3.92
263.953	5.03
264.333	4.53
264.713	4.28
265.093	4.14
265.473	4.59
265.853	3.01
266.233	2.81
266.612	3.46
266.992	3.19
267.372	4.17
267.752	4.06
268.131	3.13
268.511	3.44
268.89	2.68
269.27	3.4
269.649	3.75
270.029	3.24
270.408	3.71
270.787	3.44
271.167	3.93
271.546	3.47
271.925	4.28
272.304	4.41
272.683	2.98
273.062	3.97
273.441	3.95
273.82	3.3
274.199	3.8
274.578	3.68
274.957	3.44
275.336	3.46
275.715	3.84
276.093	3.36
276.472	3.64
276.851	4.42
277.229	3.26
277.608	3.29
277.986	3.37
278.365	3.91
278.743	4.3
279.122	4.05
279.5	3.26
279.878	2.71
280.257	3.35
280.635	3.88
281.013	4.19
281.391	3.17
281.769	3.82
282.147	3.44
282.525	3.53
282.903	3.67
283.281	3.58
283.659	3.98
284.037	4.03
284.415	3.67
284.792	3.73
285.17	3.43
285.548	4.18
285.925	3.85
286.303	3.42
286.68	3.66
287.058	4.09
287.435	3.76
287.813	3.6
288.19	3.77
288.567	3.62
288.945	3.83
289.322	3.64
289.699	3.7
290.076	3.58
290.453	3.66
290.83	3.47
291.207	4.04
291.584	3.86
291.961	4.11
292.338	3.81
292.715	3.77
293.092	3.57
293.469	3.77
293.845	3.79
294.222	3.68
294.599	3.94
294.975	3.28
295.352	3.95
295.728	3.97
296.105	4.26
296.481	4.24
296.858	4.08
297.234	4.4
297.61	3.91
297.986	4.33
298.363	4.15
298.739	3.83
299.115	3.83
299.491	4.17
299.867	4.09
300.243	3.73
300.619	4.3
300.995	4.39
301.371	4.78
301.746	4.62
302.122	4.81
302.498	4.13
302.874	4.14
303.249	4.82
303.625	4.3
304	4.61
304.376	3.86
304.751	4.75
305.127	4.13
305.502	4.71
305.878	4.33
306.253	4.48
306.628	4.22
307.003	4.8
307.378	4.07
307.754	4.18
308.129	4.41
308.504	5.1
308.879	3.85
309.254	4.78
309.629	4.02
310.003	4.47
310.378	4.64
310.753	4.98
311.128	4.9
311.502	4.38
311.877	4.59
312.252	4.52
312.626	4.49
313.001	4.28
313.375	4.29
313.75	4.71
314.124	4.79
314.498	4.63
314.873	4.41
315.247	4.99
315.621	4.14
315.995	4.83
316.369	4.91
316.743	4.29
317.117	4.05
317.491	4.25
317.865	4.8
318.239	4.9
318.613	4.99
318.987	5.06
319.361	4.31
319.734	4.66
320.108	5.22
320.482	4.43
320.855	4.25
321.229	5.31
321.602	4.82
321.976	4.32
322.349	4.53
322.723	4.78
323.096	4.67
323.469	4.03
323.843	5.27
324.216	5.35
324.589	4.76
324.962	5.1
325.335	5.73
325.708	5.28
326.081	5.19
326.454	5.01
326.827	5.13
327.2	4.89
327.573	4.8
327.945	5.11
328.318	5.2
328.691	4.41
329.063	5
329.436	5.08
329.809	5.03
330.181	4.49
330.553	4.76
330.926	4.83
331.298	4.61
331.671	5.11
332.043	4.91
332.415	5.46
332.787	4.24
333.159	4.69
333.532	4.73
333.904	5.23
334.276	5.62
334.648	4.78
335.02	4.59
335.391	4.99
335.763	4.57
336.135	5.1
336.507	5.15
336.879	4.75
337.25	5.04
337.622	4.83
337.993	4.78
338.365	4.98
338.736	5.11
339.108	4.64
339.479	5
339.851	4.52
340.222	4.73
340.593	4.95
340.964	5.37
341.336	5.26
341.707	4.67
342.078	4.46
342.449	5.13
342.82	5.01
343.191	4.95
343.562	4.74
343.933	5.61
344.303	4.91
344.674	4.75
345.045	5.13
345.416	5.24
345.786	5.17
346.157	4.74
346.527	5.34
346.898	4.68
347.268	4.77
347.639	5.23
348.009	4.99
348.38	5.28
348.75	5.12
349.12	5.04
349.49	4.91
349.861	5.33
350.231	5.31
350.601	5.54
350.971	4.88
351.341	5.33
351.711	5.17
352.081	4.98
352.45	4.94
352.82	5.16
353.19	5.02
353.56	5.05
353.929	4.31
354.299	4.83
354.669	5.27
355.038	5.01
355.408	5.3
355.777	5.41
356.147	5.05
356.516	5.44
356.885	5.44
357.254	5.29
357.624	4.68
357.993	5.01
358.362	5.15
358.731	5.17
359.1	4.76
359.469	5.36
359.838	5.26
360.207	4.98
360.576	5.48
360.945	4.82
361.314	5.43
361.682	5.12
362.051	5.47
362.42	5.56
362.788	5.3
363.157	5.44
363.525	5.27
363.894	5
364.262	5.17
364.631	5.04
364.999	5.33
365.367	5.48
365.735	4.88
366.104	5.1
366.472	5.15
366.84	5.34
367.208	5.15
367.576	5.34
367.944	5.36
368.312	5.27
368.68	5.17
369.048	5.46
369.416	5.3
369.783	5.27
370.151	5.41
370.519	5.37
370.886	5.48
371.254	4.99
371.621	5.57
371.989	5.01
372.356	5.6
372.724	5.48
373.091	5.27
373.458	5.29
373.826	5.38
374.193	5.05
374.56	5.52
374.927	5.54
375.294	5.41
375.661	5.66
376.028	5.58
376.395	5.63
376.762	6.03
377.129	5.45
377.496	5.38
377.863	5.5
378.229	5.47
378.596	5.03
378.963	5.33
379.329	5.2
379.696	5.36
380.062	5.69
380.429	5.42
380.795	5.5
381.161	5.59
381.528	5.39
381.894	5.27
382.26	5.35
382.626	5.37
382.993	5.81
383.359	5.28
383.725	5.42
384.091	5.52
384.457	5.32
384.823	5.58
385.188	5.53
385.554	5.67
385.92	5.29
386.286	5.62
386.651	5.77
387.017	5.67
387.383	5.35
387.748	5.67
388.114	5.65
388.479	5.52
388.845	5.43
389.21	5.5
389.575	5.36
389.94	5.7
390.306	5.76
390.671	5.57
391.036	5.6
391.401	5.51
391.766	5.61
392.131	5.75
392.496	5.55
392.861	5.38
393.226	5.77
393.591	5.5
393.956	5.39
394.32	5.32
394.685	5.69
395.05	5.5
395.414	5.74
395.779	5.43
396.143	5.64
396.508	5.57
396.872	5.53
397.236	5.64
397.601	5.69
397.965	5.53
398.329	5.62
398.694	5.63
399.058	5.97
399.422	5.42
399.786	5.55
400.15	5.34
400.514	5.74
400.878	5.58
401.242	5.44
401.605	5.67
401.969	5.68
402.333	5.81
402.697	5.63
403.06	5.52
403.424	5.55
403.787	5.49
404.151	5.86
404.514	5.53
404.878	5.47
405.241	5.43
405.604	5.4
405.968	5.42
406.331	5.75
406.694	5.74
407.057	5.51
407.42	5.87
407.783	5.66
408.146	5.69
408.509	5.59
408.872	5.62
409.235	5.41
409.598	5.57
409.961	5.67
410.323	5.77
410.686	5.76
411.049	5.61
411.411	5.84
411.774	5.58
412.136	5.72
412.499	5.62
412.861	5.7
413.223	5.95
413.586	5.4
413.948	5.8
414.31	5.72
414.672	5.82
415.035	5.67
415.397	5.66
415.759	5.64
416.121	5.62
416.483	5.92
416.845	5.77
417.206	5.76
417.568	5.64
417.93	5.72
418.292	5.9
418.653	5.83
419.015	5.79
419.377	5.81
419.738	5.6
420.1	5.65
420.461	5.72
420.822	5.71
421.184	5.69
421.545	5.81
421.906	5.71
422.267	5.6
422.629	5.73
422.99	5.74
423.351	5.57
423.712	5.65
424.073	5.68
424.434	5.67
424.795	5.82
425.155	5.68
425.516	5.57
425.877	5.73
426.238	5.76
426.598	5.62
426.959	5.71
427.32	5.72
427.68	5.68
428.041	5.85
428.401	5.74
428.761	5.77
429.122	5.84
429.482	5.93
429.842	5.81
430.202	5.82
430.563	5.93
430.923	5.88
431.283	5.65
431.643	6
432.003	5.77
432.363	5.8
432.722	5.7
433.082	5.73
433.442	5.86
433.802	5.99
434.161	5.76
434.521	6.05
434.881	5.86
435.24	5.89
435.6	5.91
435.959	5.8
436.319	5.88
436.678	6.03
437.037	5.82
437.396	5.78
437.756	5.98
438.115	5.93
438.474	5.73
438.833	6.05
439.192	6.04
439.551	5.89
439.91	5.85
440.269	5.83
440.628	5.85
440.987	5.6
441.345	5.95
441.704	5.87
442.063	5.89
442.421	5.96
442.78	5.91
443.138	5.86
443.497	5.95
443.855	5.92
444.214	5.92
444.572	6.01
444.93	5.95
445.288	5.74
445.647	5.92
446.005	5.85
446.363	5.75
446.721	5.89
447.079	5.96
447.437	5.88
447.795	6.03
448.153	5.88
448.51	5.94
448.868	5.92
449.226	5.96
449.584	5.98
449.941	5.92
450.299	6.06
450.656	5.91
451.014	6
451.371	6.08
451.729	6.17
452.086	5.96
452.443	6.17
452.801	5.97
453.158	6.1
453.515	6.12
453.872	6.04
454.229	6.11
454.586	5.94
454.943	5.97
455.3	5.98
455.657	6
456.014	6.36
456.371	6.21
456.727	6.2
457.084	6.15
457.441	6.13
457.797	6.32
458.154	6
458.51	5.96
458.867	6.1
459.223	6.14
459.58	6.09
459.936	6.01
460.292	6.1
460.648	6.08
461.005	6.05
461.361	6.02
461.717	6.03
462.073	5.96
462.429	5.99
462.785	6.05
463.141	6.05
463.496	6.1
463.852	6.37
464.208	6.13
464.564	6.14
464.919	6.38
465.275	6.19
465.631	6.11
465.986	6.27
466.342	5.98
466.697	6.34
467.052	6.29
467.408	6.16
467.763	6.29
468.118	6.31
468.473	6.09
468.829	6.32
469.184	6.2
469.539	6.38
469.894	6.37
470.249	6.21
470.603	6.24
470.958	6.33
471.313	6.49
471.668	6.39
472.023	6.15
472.377	6.24
472.732	6.41
473.086	6.32
473.441	6.41
473.795	6.42
474.15	6.39
474.504	6.34
474.859	6.3
475.213	6.33
475.567	6.34
475.921	6.22
476.275	6.24
476.63	6.23
476.984	6.42
477.338	6.39
477.692	6.18
478.045	6.38
478.399	6.11
478.753	6.22
479.107	6.24
479.461	6.42
479.814	6.4
480.168	6.24
480.521	6.31
480.875	6.45
481.228	6.46
481.582	6.47
481.935	6.38
482.289	6.57
482.642	6.49
482.995	6.25
483.348	6.36
483.701	6.42
484.055	6.28
484.408	6.25
484.761	6.2
485.114	6.14
485.466	6.07
485.819	6.05
486.172	6
486.525	6.05
486.878	6.15
487.23	6.17
487.583	6.19
487.936	6.3
488.288	6.24
488.641	6.24
488.993	6.17
489.345	6.15
489.698	6.12
490.05	6.2
490.402	6.23
490.754	6.26
491.107	6.29
491.459	6.34
491.811	6.4
492.163	6.35
492.515	6.33
492.866	6.27
493.218	6.23
493.57	6.25
493.922	6.2
494.274	6.28
494.625	6.29
494.977	6.49
495.328	6.59
495.68	6.39
496.031	6.65
496.383	6.55
496.734	6.73
497.086	6.49
497.437	6.54
497.788	6.55
498.139	6.59
498.49	6.58
498.842	6.47
499.193	6.53
499.544	6.58
499.894	6.52
500.245	6.62
500.596	6.67
500.947	6.62
501.298	6.57
501.648	6.74
501.999	6.53
502.35	6.58
502.7	6.68
503.051	6.61
503.401	6.6
503.752	6.87
504.102	6.71
504.452	6.7
504.803	6.76
505.153	6.75
505.503	6.81
505.853	6.86
506.203	6.78
506.553	6.75
506.903	6.88
507.253	6.69
507.603	6.92
507.953	6.82
508.303	6.75
508.652	6.79
509.002	6.81
509.352	6.88
509.701	6.81
510.051	6.75
510.4	6.78
510.75	6.8
511.099	6.72
511.449	6.85
511.798	6.73
512.147	6.86
512.496	6.89
512.846	6.85
513.195	6.75
513.544	6.85
513.893	6.87
514.242	6.79
514.591	6.77
514.939	6.91
515.288	6.85
515.637	6.8
515.986	6.81
516.334	7.01
516.683	6.89
517.032	7.06
517.38	6.98
517.729	7.02
518.077	6.93
518.426	7.09
518.774	6.96
519.122	7.03
519.47	6.96
519.819	7.02
520.167	6.86
520.515	6.86
520.863	7.02
521.211	6.85
521.559	6.99
521.907	7.07
522.255	7.06
522.602	7.01
522.95	7.08
523.298	7.16
523.645	7.2
523.993	7.16
524.341	7.05
524.688	7.17
525.036	7.12
525.383	7.17
525.73	7.04
526.078	7.22
526.425	7.15
526.772	7.15
527.119	7.18
527.466	7.07
527.814	7.07
528.161	7.17
528.508	7.12
528.854	7.13
529.201	7.15
529.548	7.08
529.895	7
530.242	6.97
530.588	6.96
530.935	6.96
531.282	6.99
531.628	7.08
531.975	7.07
532.321	7.07
532.667	7.11
533.014	7.16
533.36	7.29
533.706	7.28
534.052	7.28
534.399	7.36
534.745	7.21
535.091	7.21
535.437	7.28
535.783	7.2
536.129	7.22
536.474	7.29
536.82	7.41
537.166	7.48
537.512	7.4
537.857	7.53
538.203	7.49
538.549	7.45
538.894	7.42
539.239	7.39
539.585	7.44
539.93	7.57
540.276	7.59
540.621	7.55
540.966	7.51
541.311	7.63
541.656	7.7
542.001	7.72
542.346	7.63
542.691	7.55
543.036	7.52
543.381	7.36
543.726	7.43
544.071	7.51
544.415	7.45
544.76	7.56
545.105	7.61
545.449	7.77
545.794	7.81
546.138	7.65
546.483	7.73
546.827	7.82
547.171	7.79
547.516	7.83
547.86	7.93
548.204	7.84
548.548	7.82
548.892	7.83
549.236	7.83
549.58	7.97
549.924	7.85
550.268	8.04
550.612	8.02
550.956	8.14
551.3	8.26
551.643	8.1
551.987	8.23
552.33	8.18
552.674	8.17
553.017	8.26
553.361	8.41
553.704	8.38
554.048	8.18
554.391	8.09
554.734	8.23
555.077	8.38
555.42	8.2
555.764	8.32
556.107	8.42
556.45	8.28
556.793	8.39
557.135	8.3
557.478	8.25
557.821	8.45
558.164	8.63
558.507	8.39
558.849	8.66
559.192	8.54
559.534	8.55
559.877	8.66
560.219	8.56
560.562	8.56
560.904	8.72
561.246	8.48
561.589	8.51
561.931	8.48
562.273	8.53
562.615	8.71
562.957	8.69
563.299	8.81
563.641	8.73
563.983	8.74
564.325	8.77
564.667	8.85
565.008	8.7
565.35	8.6
565.692	8.78
566.033	8.81
566.375	8.82
566.716	8.62
567.058	8.95
567.399	9.04
567.741	8.95
568.082	8.8
568.423	8.98
568.764	8.9
569.105	8.85
569.447	9.22
569.788	9
570.129	9.08
570.47	9.06
570.811	9.04
571.151	9.21
571.492	9.2
571.833	9.01
572.174	9.15
572.514	9.18
572.855	9.11
573.195	9.18
573.536	9.08
573.876	9.17
574.217	9.22
574.557	9.1
574.898	9.29
575.238	9.22
575.578	9.31
575.918	9.2
576.258	9.52
576.598	9.4
576.938	9.4
577.278	9.59
577.618	9.49
577.958	9.42
578.298	9.62
578.638	9.63
578.977	9.52
579.317	9.73
579.657	9.57
579.996	9.61
580.336	9.54
580.675	9.6
581.014	9.9
581.354	10.01
581.693	9.8
582.032	9.69
582.372	9.81
582.711	9.97
583.05	9.87
583.389	9.98
583.728	9.96
584.067	10.24
584.406	10.18
584.745	10.15
585.083	9.61
585.422	10
585.761	10.14
586.1	10.13
586.438	10.16
586.777	10.2
587.115	10.27
587.454	10.4
587.792	10.04
588.13	10.52
588.469	10.25
588.807	10.23
589.145	10.23
589.483	10.16
589.821	10.7
590.159	10.23
590.497	10.22
590.835	10.44
591.173	10.41
591.511	10.55
591.849	10.44
592.187	10.35
592.524	10.47
592.862	10.39
593.2	10.25
593.537	10.39
593.875	10.79
594.212	10.66
594.55	10.66
594.887	11.07
595.224	10.83
595.561	11.02
595.899	10.42
596.236	10.84
596.573	10.78
596.91	10.82
597.247	10.75
597.584	10.94
597.921	10.81
598.258	10.96
598.594	10.96
598.931	10.99
599.268	10.92
599.604	10.82
599.941	10.84
600.277	11.07
600.614	11.06
600.95	11.23
601.287	11.06
601.623	11.25
601.959	11.23
602.296	11.07
602.632	11.36
602.968	11.28
603.304	11.17
603.64	11.22
603.976	11.12
604.312	11.3
604.648	11.43
604.984	11.39
605.319	11.58
605.655	11.37
605.991	11.5
606.326	11.2
606.662	11.53
606.998	11.47
607.333	11.35
607.668	11.46
608.004	11.6
608.339	11.89
608.674	11.6
609.01	11.7
609.345	11.66
609.68	11.8
610.015	11.64
610.35	11.65
610.685	11.93
611.02	11.73
611.355	11.55
611.689	11.95
612.024	11.86
612.359	11.68
612.694	11.54
613.028	12.02
613.363	12.12
613.697	12.04
614.032	12.02
614.366	12.28
614.7	11.96
615.035	12.25
615.369	12.17
615.703	12.78
616.037	12.12
616.371	12.23
616.705	12.34
617.039	12.02
617.373	12.35
617.707	12.27
618.041	12.35
618.375	12.16
618.709	12.22
619.042	12.55
619.376	12.29
619.71	12.61
620.043	12.37
620.377	12.36
620.71	12.61
621.043	12.64
621.377	12.49
621.71	13.19
622.043	12.64
622.376	12.91
622.709	12.82
623.043	12.67
623.376	12.69
623.709	13.17
624.041	12.88
624.374	12.81
624.707	13.16
625.04	13
625.373	13.17
625.705	12.85
626.038	13.12
626.37	13.11
626.703	13.12
627.035	13.09
627.368	13.05
627.7	12.89
628.032	13.03
628.365	13.19
628.697	13.06
629.029	12.98
629.361	13.09
629.693	13.28
630.025	12.93
630.357	13.19
630.689	13.35
631.021	13.39
631.353	13.45
631.684	13.31
632.016	13.6
632.348	13.29
632.679	13.29
633.011	14.1
633.342	13.72
633.674	13.63
634.005	13.69
634.336	14.05
634.668	13.82
634.999	13.75
635.33	13.83
635.661	13.77
635.992	14.02
636.323	13.58
636.654	13.96
636.985	14.08
637.316	13.99
637.647	13.81
637.977	13.83
638.308	13.93
638.639	14.01
638.969	14.32
639.3	13.9
639.63	14.33
639.961	14.06
640.291	13.97
640.622	14.47
640.952	14.48
641.282	14.33
641.612	14.41
641.943	14.33
642.273	14.54
642.603	14.77
642.933	14.42
643.263	14.4
643.592	14.5
643.922	14.1
644.252	14.37
644.582	14.1
644.911	14.24
645.241	14.23
645.571	14.95
645.9	14.4
646.23	14.37
646.559	14.98
646.888	14.5
647.218	14.59
647.547	14.62
647.876	14.92
648.205	14.72
648.534	15.08
648.863	14.54
649.192	15.14
649.521	15.27
649.85	14.41
650.179	14.82
650.508	15.51
650.837	14.91
651.165	14.35
651.494	15.18
651.822	15.26
652.151	15.38
652.479	15.35
652.808	15.27
653.136	15.13
653.465	15.3
653.793	15.23
654.121	15.12
654.449	15.16
654.777	15.52
655.105	15.29
655.433	15.61
655.761	14.9
656.089	15.38
656.417	15.51
656.745	15.33
657.073	14.84
657.4	15.34
657.728	15.03
658.056	15.33
658.383	15.13
658.711	15.98
659.038	15.5
659.365	15.74
659.693	15.26
660.02	15.46
660.347	16.09
660.674	15.9
661.001	16.13
661.329	16.03
661.656	15.82
661.982	15.81
662.309	16.09
662.636	15.71
662.963	15.86
663.29	16.08
663.616	15.87
663.943	15.97
664.27	16.43
664.596	16.33
664.923	16.6
665.249	15.99
665.576	16.01
665.902	16.01
666.228	16.72
666.554	15.47
666.881	15.72
667.207	15.97
667.533	16.37
667.859	16.47
668.185	17.02
668.511	16.47
668.837	16.28
669.162	17.06
669.488	15.95
669.814	16.25
670.139	15.97
670.465	16.24
670.791	16.27
671.116	16.29
671.442	17.06
671.767	16.52
672.092	17.18
672.418	16.75
672.743	17.03
673.068	15.91
673.393	16.77
673.718	16.79
674.043	17.02
674.368	16.82
674.693	16.84
675.018	16.66
675.343	16.37
675.667	17.05
675.992	17.27
676.317	16.82
676.641	17.14
676.966	17.09
677.29	17.08
677.615	17.07
677.939	16.73
678.264	17.38
678.588	17.8
678.912	16.91
679.236	17.12
679.56	17
679.885	17.56
680.209	17.58
680.532	17.89
680.856	16.8
681.18	17.19
681.504	17.67
681.828	17.18
682.152	17.12
682.475	17.54
682.799	17.43
683.122	17.72
683.446	17.66
683.769	17.84
684.093	17.21
684.416	17.95
684.739	17.92
685.062	17.65
