Data from 0393_forehead_Reflection__1__163.txt Node

Date: Tue Dec 12 19:43:54 CST 2023
User: ToomeyLab
Spectrometer: FLMS14357
Trigger mode: 0
Integration Time (sec): 1.000000E-2
Scans to average: 100
Electric dark correction enabled: true
Nonlinearity correction enabled: false
Boxcar width: 0
XAxis mode: Wavelengths
Number of Pixels in Spectrum: 2048
>>>>>Begin Spectral Data<<<<<
189.047	-111.31
189.435	-111.31
189.823	-111.31
190.211	-21.47
190.599	-73.07
190.987	113.71
191.375	-169.19
191.763	-344.33
192.151	73.16
192.538	-88.71
192.926	22.18
193.314	5452.38
193.702	-613.8
194.089	112.69
194.477	447.91
194.864	-77.46
195.252	-87.31
195.639	112.68
196.027	69.84
196.414	80.38
196.801	30.25
197.189	2191.06
197.576	71.04
197.963	88.39
198.351	60.14
198.738	74.31
199.125	42.51
199.512	-20.35
199.899	5.12
200.286	11.56
200.673	-25.98
201.06	-8.62
201.447	-49.66
201.833	-27.63
202.22	55.86
202.607	-36.8
202.994	40.04
203.38	58.16
203.767	3.12
204.154	90.08
204.54	66.25
204.927	-1.47
205.313	33.07
205.699	-28.1
206.086	21.79
206.472	41.47
206.858	15.73
207.245	57.09
207.631	-9.76
208.017	-33.07
208.403	52.43
208.789	36.98
209.175	24.23
209.561	19.4
209.947	6.74
210.333	-2.96
210.719	20.91
211.105	-30.28
211.491	29.85
211.876	9.73
212.262	45.81
212.648	-34.96
213.034	-64.74
213.419	29.75
213.805	13.98
214.19	38.44
214.576	34.62
214.961	38.85
215.346	19.45
215.732	27.49
216.117	44.76
216.502	19.12
216.888	46.36
217.273	10.74
217.658	17.16
218.043	-12.34
218.428	10.61
218.813	2.73
219.198	-0.31
219.583	20.81
219.968	30.21
220.353	2.44
220.738	45
221.122	25.85
221.507	8.86
221.892	-1.18
222.276	30.18
222.661	8.98
223.046	3.77
223.43	12.43
223.815	-3.02
224.199	11.5
224.583	3.7
224.968	0.74
225.352	2.47
225.736	12.77
226.121	8.47
226.505	8.24
226.889	-6.22
227.273	3.54
227.657	13.49
228.041	3.93
228.425	5.15
228.809	4.49
229.193	4.57
229.577	6.71
229.961	3.66
230.344	6.16
230.728	6.11
231.112	5.13
231.495	4.81
231.879	5.82
232.263	5.94
232.646	4.27
233.03	5.72
233.413	2.3
233.797	2.58
234.18	4.67
234.563	4.78
234.946	8.46
235.33	6.74
235.713	5.72
236.096	3.7
236.479	4.62
236.862	6.82
237.245	4.61
237.628	5.74
238.011	5.37
238.394	5.15
238.777	5.02
239.16	6.53
239.543	6.21
239.925	6
240.308	6.28
240.691	4.92
241.073	5.64
241.456	6.86
241.838	5.98
242.221	6.54
242.603	5.81
242.986	5.3
243.368	5.75
243.75	5.04
244.133	5.47
244.515	5.65
244.897	5.91
245.279	6.72
245.661	5.2
246.043	4.93
246.425	5.76
246.807	4.64
247.189	6.04
247.571	6.38
247.953	5.28
248.335	5.76
248.717	5.72
249.098	5.67
249.48	5.6
249.862	5.25
250.243	5.8
250.625	5.62
251.006	6.04
251.388	5.86
251.769	5.78
252.151	5.04
252.532	5.16
252.913	5.93
253.295	6.36
253.676	6.11
254.057	5.41
254.438	6.21
254.819	5.38
255.2	6.07
255.581	5.84
255.962	4.78
256.343	5.55
256.724	5.5
257.105	6.6
257.486	5.53
257.867	4.81
258.247	4.17
258.628	6.21
259.009	5.49
259.389	6.37
259.77	5.64
260.15	4.92
260.531	5.79
260.911	6.07
261.292	5.29
261.672	5.44
262.052	5.47
262.432	5.56
262.813	5.58
263.193	5.17
263.573	6.22
263.953	6.73
264.333	6.09
264.713	5.63
265.093	5.37
265.473	5.54
265.853	5.36
266.233	5.71
266.612	5.82
266.992	5.27
267.372	6.3
267.752	6.59
268.131	4.79
268.511	5.26
268.89	4.04
269.27	4.96
269.649	5.09
270.029	4.89
270.408	5.88
270.787	5.42
271.167	5.91
271.546	5.89
271.925	6.1
272.304	5.82
272.683	5
273.062	5.54
273.441	5.61
273.82	5.03
274.199	5.54
274.578	5.2
274.957	5.07
275.336	5.23
275.715	5.2
276.093	4.85
276.472	5.17
276.851	5.94
277.229	5.39
277.608	5.52
277.986	5.11
278.365	5.5
278.743	5.7
279.122	5.43
279.5	5.01
279.878	4.74
280.257	5.3
280.635	5.54
281.013	4.95
281.391	5.39
281.769	5.55
282.147	5.4
282.525	5.1
282.903	5.7
283.281	5.43
283.659	5.17
284.037	5.58
284.415	5.28
284.792	5.52
285.17	5.49
285.548	5.17
285.925	5.51
286.303	5.27
286.68	5.57
287.058	5.96
287.435	5.23
287.813	5.44
288.19	5.32
288.567	5.32
288.945	5.68
289.322	5.25
289.699	5.55
290.076	5.61
290.453	5.79
290.83	5.62
291.207	6.09
291.584	6.11
291.961	5.82
292.338	5.8
292.715	6.06
293.092	5.6
293.469	5.86
293.845	6.44
294.222	6.41
294.599	6.72
294.975	6.32
295.352	6.66
295.728	6.8
296.105	6.19
296.481	7.01
296.858	6.63
297.234	7.03
297.61	6.87
297.986	6.93
298.363	6.63
298.739	6.77
299.115	6.57
299.491	6.56
299.867	6.85
300.243	6.9
300.619	7.04
300.995	7.26
301.371	7.4
301.746	7.2
302.122	7.45
302.498	7.46
302.874	7.65
303.249	8.35
303.625	7
304	7.93
304.376	7.51
304.751	7.82
305.127	7.98
305.502	8.11
305.878	7.41
306.253	7.73
306.628	8.16
307.003	7.56
307.378	7.54
307.754	7.74
308.129	8.22
308.504	8.63
308.879	8
309.254	8.01
309.629	7.87
310.003	8.62
310.378	8.29
310.753	8.7
311.128	8.84
311.502	8.13
311.877	8.19
312.252	8.63
312.626	8.37
313.001	8.41
313.375	8.15
313.75	8.49
314.124	8.59
314.498	8.61
314.873	8.35
315.247	9
315.621	8.97
315.995	9.33
316.369	9.62
316.743	8.9
317.117	8.11
317.491	8.88
317.865	9.23
318.239	8.93
318.613	9.39
318.987	9.83
319.361	9.12
319.734	9.11
320.108	9.61
320.482	9.77
320.855	8.76
321.229	9.55
321.602	9.85
321.976	10.02
322.349	10
322.723	9.7
323.096	9.99
323.469	10.15
323.843	10.55
324.216	9.69
324.589	10.09
324.962	9.95
325.335	10.27
325.708	10.32
326.081	10.19
326.454	9.98
326.827	10.57
327.2	10.24
327.573	9.75
327.945	10.55
328.318	10.35
328.691	10.15
329.063	10.46
329.436	10.65
329.809	10.75
330.181	10.24
330.553	10.44
330.926	10.76
331.298	10.44
331.671	10.73
332.043	10.96
332.415	10.89
332.787	10.58
333.159	10.53
333.532	10.81
333.904	10.78
334.276	11.52
334.648	10.51
335.02	10.76
335.391	11.1
335.763	10.58
336.135	11.02
336.507	11.21
336.879	10.83
337.25	10.97
337.622	11.02
337.993	11.52
338.365	10.86
338.736	11.3
339.108	11.24
339.479	11.45
339.851	11.28
340.222	11.08
340.593	11.41
340.964	11.58
341.336	11.79
341.707	11.82
342.078	11.13
342.449	11.11
342.82	11.99
343.191	11.62
343.562	11.87
343.933	11.85
344.303	11.57
344.674	11.43
345.045	12.07
345.416	12.15
345.786	11.91
346.157	11.81
346.527	12.26
346.898	12.05
347.268	11.92
347.639	12.29
348.009	11.88
348.38	12.01
348.75	12.62
349.12	12.08
349.49	12.13
349.861	12.68
350.231	12.41
350.601	12.69
350.971	12.56
351.341	12.18
351.711	12.93
352.081	12.6
352.45	12.31
352.82	12.73
353.19	12.72
353.56	12.87
353.929	12.71
354.299	12.44
354.669	12.68
355.038	12.46
355.408	12.87
355.777	13.24
356.147	13.26
356.516	13.02
356.885	13.29
357.254	13.03
357.624	12.88
357.993	12.97
358.362	13.08
358.731	13.47
359.1	12.8
359.469	13.17
359.838	13.06
360.207	13.63
360.576	13.41
360.945	13.33
361.314	13.53
361.682	13.59
362.051	13.7
362.42	13.33
362.788	13.58
363.157	13.83
363.525	13.3
363.894	13.56
364.262	13.57
364.631	13.31
364.999	13.87
365.367	14.19
365.735	13.62
366.104	14.08
366.472	13.51
366.84	13.95
367.208	14.21
367.576	13.94
367.944	14.11
368.312	14.08
368.68	13.96
369.048	14.64
369.416	14.15
369.783	14.3
370.151	14.32
370.519	14.23
370.886	14.41
371.254	14.47
371.621	14.69
371.989	14.52
372.356	14.38
372.724	14.56
373.091	14.41
373.458	14.6
373.826	14.68
374.193	14.56
374.56	14.66
374.927	15.17
375.294	14.76
375.661	14.85
376.028	15.14
376.395	15.2
376.762	15.42
377.129	15.34
377.496	15.18
377.863	14.99
378.229	15.18
378.596	15.32
378.963	15.33
379.329	15.3
379.696	14.78
380.062	15.41
380.429	15.56
380.795	15.56
381.161	15.54
381.528	15.41
381.894	15.97
382.26	15.71
382.626	15.47
382.993	15.98
383.359	15.47
383.725	15.34
384.091	15.62
384.457	15.69
384.823	15.93
385.188	15.91
385.554	16.14
385.92	15.83
386.286	15.87
386.651	16.03
387.017	16.16
387.383	16
387.748	16.24
388.114	15.98
388.479	16.41
388.845	16.24
389.21	16.07
389.575	16.2
389.94	16.45
390.306	16.29
390.671	16.45
391.036	16.46
391.401	16.59
391.766	16.84
392.131	16.57
392.496	16.48
392.861	16.76
393.226	16.6
393.591	16.39
393.956	16.59
394.32	16.73
394.685	16.91
395.05	16.92
395.414	16.85
395.779	17.22
396.143	17.01
396.508	17.05
396.872	17.07
397.236	17.22
397.601	17.06
397.965	17.04
398.329	17.5
398.694	17.18
399.058	17.49
399.422	17.4
399.786	17.69
400.15	17.35
400.514	17.44
400.878	17.51
401.242	17.48
401.605	17.54
401.969	17.61
402.333	17.82
402.697	17.67
403.06	17.48
403.424	17.66
403.787	17.68
404.151	17.92
404.514	17.75
404.878	17.78
405.241	17.81
405.604	18
405.968	17.94
406.331	17.96
406.694	18.17
407.057	17.86
407.42	18.19
407.783	18.32
408.146	18.17
408.509	18.29
408.872	18.26
409.235	18.11
409.598	18.41
409.961	18.32
410.323	18.66
410.686	18.68
411.049	18.52
411.411	18.64
411.774	18.67
412.136	18.62
412.499	18.46
412.861	18.59
413.223	19.01
413.586	18.77
413.948	18.75
414.31	18.86
414.672	18.89
415.035	18.84
415.397	19.01
415.759	19.09
416.121	18.81
416.483	18.99
416.845	19.01
417.206	19.33
417.568	19.1
417.93	19.06
418.292	19.12
418.653	19.19
419.015	19.17
419.377	19.16
419.738	19.41
420.1	19.19
420.461	19.3
420.822	19.12
421.184	19.34
421.545	19.37
421.906	19.14
422.267	19.24
422.629	19.23
422.99	19.12
423.351	19.25
423.712	19.27
424.073	19.44
424.434	19.51
424.795	19.65
425.155	19.37
425.516	19.63
425.877	19.69
426.238	19.57
426.598	19.55
426.959	19.79
427.32	19.75
427.68	19.92
428.041	19.89
428.401	20
428.761	20.07
429.122	20.28
429.482	20.61
429.842	20.45
430.202	20.36
430.563	20.55
430.923	20.47
431.283	20.55
431.643	20.8
432.003	20.62
432.363	21.01
432.722	20.72
433.082	20.95
433.442	20.74
433.802	20.97
434.161	20.9
434.521	20.84
434.881	20.62
435.24	20.89
435.6	20.85
435.959	21.02
436.319	20.99
436.678	21.22
437.037	21.27
437.396	21.14
437.756	21.28
438.115	21.23
438.474	21.17
438.833	21.46
439.192	21.31
439.551	21.53
439.91	21.35
440.269	21.51
440.628	21.38
440.987	21.3
441.345	21.6
441.704	21.56
442.063	21.51
442.421	21.55
442.78	21.47
443.138	21.56
443.497	21.68
443.855	21.82
444.214	21.91
444.572	21.92
444.93	22.05
445.288	21.98
445.647	22.08
446.005	21.98
446.363	22.11
446.721	22.06
447.079	21.85
447.437	21.98
447.795	22.02
448.153	21.96
448.51	21.92
448.868	22.04
449.226	22.07
449.584	22.13
449.941	22.22
450.299	22.46
450.656	22.4
451.014	22.4
451.371	22.47
451.729	22.83
452.086	22.79
452.443	22.96
452.801	22.88
453.158	22.93
453.515	23.02
453.872	23.05
454.229	23.05
454.586	22.91
454.943	23.1
455.3	23.03
455.657	23.31
456.014	23.42
456.371	23.24
456.727	23.37
457.084	23.25
457.441	23.39
457.797	23.43
458.154	23.5
458.51	23.37
458.867	23.69
459.223	23.57
459.58	23.57
459.936	23.42
460.292	23.76
460.648	23.77
461.005	23.63
461.361	23.5
461.717	23.46
462.073	23.36
462.429	23.46
462.785	23.77
463.141	23.71
463.496	23.98
463.852	24.2
464.208	24.08
464.564	24.38
464.919	24.46
465.275	24.34
465.631	24.39
465.986	24.57
466.342	24.46
466.697	24.51
467.052	24.73
467.408	24.64
467.763	24.7
468.118	24.66
468.473	24.87
468.829	24.86
469.184	24.6
469.539	24.9
469.894	24.96
470.249	24.87
470.603	24.96
470.958	25.09
471.313	25.18
471.668	25.15
472.023	25.17
472.377	25.18
472.732	25.31
473.086	25.35
473.441	25.38
473.795	25.37
474.15	25.44
474.504	25.37
474.859	25.31
475.213	25.34
475.567	25.58
475.921	25.61
476.275	25.45
476.63	25.7
476.984	25.45
477.338	25.71
477.692	25.62
478.045	25.82
478.399	25.6
478.753	25.8
479.107	25.85
479.461	25.92
479.814	25.84
480.168	25.92
480.521	26.09
480.875	25.99
481.228	26.1
481.582	26.16
481.935	25.99
482.289	26.22
482.642	26.17
482.995	26.01
483.348	26.05
483.701	26.17
484.055	25.88
484.408	25.81
484.761	25.71
485.114	25.39
485.466	25.23
485.819	25.27
486.172	25.32
486.525	25.6
486.878	25.83
487.23	25.81
487.583	25.88
487.936	26.12
488.288	25.99
488.641	26.05
488.993	25.97
489.345	25.96
489.698	25.92
490.05	25.99
490.402	26.16
490.754	26.31
491.107	26.36
491.459	26.61
491.811	26.8
492.163	26.76
492.515	26.86
492.866	26.63
493.218	26.4
493.57	26.32
493.922	26.55
494.274	26.66
494.625	26.9
494.977	27.14
495.328	27.28
495.68	27.59
496.031	27.61
496.383	27.67
496.734	27.89
497.086	27.73
497.437	27.89
497.788	27.86
498.139	28.07
498.49	27.96
498.842	27.63
499.193	27.93
499.544	28.08
499.894	27.99
500.245	28.14
500.596	28.24
500.947	28.2
501.298	28.27
501.648	28.39
501.999	28.49
502.35	28.38
502.7	28.49
503.051	28.59
503.401	28.6
503.752	28.83
504.102	28.82
504.452	28.81
504.803	28.81
505.153	28.59
505.503	28.88
505.853	28.78
506.203	28.96
506.553	29.06
506.903	29.1
507.253	29.18
507.603	29.13
507.953	29.22
508.303	29.29
508.652	29.34
509.002	29.45
509.352	29.39
509.701	29.41
510.051	29.45
510.4	29.29
510.75	29.45
511.099	29.37
511.449	29.52
511.798	29.38
512.147	29.45
512.496	29.67
512.846	29.65
513.195	29.67
513.544	29.95
513.893	29.8
514.242	29.74
514.591	29.8
514.939	29.98
515.288	29.94
515.637	30.04
515.986	29.94
516.334	30.26
516.683	30.1
517.032	30.22
517.38	30.29
517.729	30.48
518.077	30.54
518.426	30.38
518.774	30.58
519.122	30.49
519.47	30.28
519.819	30.37
520.167	30.21
520.515	30.19
520.863	30.24
521.211	30.38
521.559	30.45
521.907	30.59
522.255	30.68
522.602	30.66
522.95	30.91
523.298	30.92
523.645	31.34
523.993	31.16
524.341	31.11
524.688	31.25
525.036	31.21
525.383	31.24
525.73	31.44
526.078	31.57
526.425	31.26
526.772	31.16
527.119	30.96
527.466	30.92
527.814	31
528.161	31.19
528.508	31.24
528.854	31.1
529.201	31.26
529.548	31.03
529.895	30.8
530.242	30.67
530.588	30.76
530.935	30.92
531.282	31.06
531.628	31.14
531.975	31.36
532.321	31.37
532.667	31.49
533.014	31.65
533.36	31.88
533.706	31.8
534.052	31.9
534.399	31.75
534.745	31.77
535.091	31.5
535.437	31.64
535.783	31.78
536.129	31.95
536.474	32.01
536.82	32.38
537.166	32.35
537.512	32.39
537.857	32.46
538.203	32.25
538.549	32.4
538.894	32.47
539.239	32.62
539.585	32.62
539.93	32.9
540.276	32.96
540.621	33.14
540.966	33.2
541.311	33.12
541.656	33.17
542.001	33.14
542.346	32.96
542.691	32.7
543.036	32.53
543.381	32.49
543.726	32.66
544.071	32.95
544.415	32.98
544.76	33.09
545.105	33.16
545.449	33.23
545.794	33.36
546.138	33.56
546.483	33.63
546.827	33.84
547.171	33.94
547.516	33.93
547.86	33.99
548.204	33.91
548.548	33.84
548.892	33.76
549.236	33.94
549.58	34.28
549.924	34.35
550.268	34.59
550.612	34.55
550.956	34.52
551.3	34.79
551.643	34.99
551.987	34.98
552.33	34.93
552.674	35.38
553.017	35.24
553.361	35.3
553.704	35.1
554.048	35.12
554.391	34.94
554.734	35.03
555.077	35.32
555.42	35.2
555.764	35.41
556.107	35.42
556.45	35.43
556.793	35.59
557.135	35.58
557.478	35.44
557.821	35.92
558.164	35.75
558.507	35.93
558.849	35.93
559.192	35.79
559.534	35.96
559.877	35.98
560.219	36.17
560.562	36.07
560.904	36.13
561.246	36.29
561.589	36.35
561.931	36.32
562.273	36.11
562.615	36.48
562.957	36.2
563.299	36.56
563.641	36.59
563.983	36.44
564.325	36.71
564.667	36.56
565.008	36.63
565.35	36.62
565.692	36.88
566.033	36.83
566.375	36.81
566.716	36.62
567.058	36.58
567.399	36.85
567.741	36.81
568.082	36.6
568.423	36.79
568.764	36.98
569.105	36.82
569.447	37.22
569.788	37.23
570.129	37.12
570.47	37.37
570.811	37.27
571.151	37.39
571.492	37.76
571.833	37.35
572.174	37.62
572.514	37.94
572.855	37.76
573.195	37.56
573.536	37.46
573.876	37.42
574.217	37.7
574.557	37.54
574.898	37.91
575.238	37.81
575.578	37.97
575.918	37.93
576.258	37.93
576.598	37.91
576.938	38.24
577.278	38.09
577.618	38.23
577.958	38.38
578.298	38.28
578.638	38.47
578.977	38.2
579.317	38.59
579.657	38.48
579.996	38.36
580.336	38.7
580.675	39.04
581.014	38.96
581.354	38.96
581.693	39.09
582.032	39.01
582.372	39.29
582.711	39.43
583.05	39.27
583.389	39.39
583.728	39.44
584.067	39.56
584.406	39.59
584.745	39.61
585.083	39.57
585.422	39.62
585.761	40.05
586.1	39.86
586.438	39.99
586.777	39.59
587.115	39.9
587.454	40.15
587.792	39.66
588.13	40.17
588.469	39.72
588.807	40.16
589.145	40.31
589.483	39.88
589.821	40.31
590.159	40.12
590.497	40.25
590.835	40.29
591.173	40.12
591.511	40.33
591.849	40.29
592.187	40.38
592.524	40.31
592.862	40.49
593.2	40.38
593.537	40.47
593.875	40.68
594.212	40.59
594.55	40.78
594.887	40.78
595.224	40.91
595.561	40.98
595.899	40.37
596.236	40.71
596.573	40.79
596.91	40.94
597.247	40.85
597.584	41.17
597.921	40.77
598.258	40.92
598.594	40.76
598.931	40.89
599.268	40.64
599.604	40.84
599.941	41
600.277	41.02
600.614	41.15
600.95	41.26
601.287	41.44
601.623	41.75
601.959	41.41
602.296	41.73
602.632	41.68
602.968	41.76
603.304	41.86
603.64	42.05
603.976	41.73
604.312	42.08
604.648	41.82
604.984	41.93
605.319	41.93
605.655	41.8
605.991	41.81
606.326	41.61
606.662	41.65
606.998	41.88
607.333	41.61
607.668	42.1
608.004	41.96
608.339	42.41
608.674	42.24
609.01	42.43
609.345	42.64
609.68	42.38
610.015	42.5
610.35	42.55
610.685	42.59
611.02	42.54
611.355	42.4
611.689	42.37
612.024	42.81
612.359	42.67
612.694	42.6
613.028	42.68
613.363	42.55
613.697	42.79
614.032	42.94
614.366	42.95
614.7	42.87
615.035	43.38
615.369	42.99
615.703	43.51
616.037	43.07
616.371	43.43
616.705	43.64
617.039	43.2
617.373	43.24
617.707	43.39
618.041	43.27
618.375	43.68
618.709	43.27
619.042	43.54
619.376	43.48
619.71	43.54
620.043	43.5
620.377	43.67
620.71	43.34
621.043	43.36
621.377	43.37
621.71	43.97
622.043	43.81
622.376	43.86
622.709	44.35
623.043	44.01
623.376	44.27
623.709	43.91
624.041	44.38
624.374	44.18
624.707	43.88
625.04	44.06
625.373	44.56
625.705	44.61
626.038	43.94
626.37	44.34
626.703	44.31
627.035	44.33
627.368	44.51
627.7	44.69
628.032	44.36
628.365	44.65
628.697	44.22
629.029	44.47
629.361	44.59
629.693	44.39
630.025	44.35
630.357	44.73
630.689	44.79
631.021	44.75
631.353	44.75
631.684	45.17
632.016	45.13
632.348	45.03
632.679	45.26
633.011	45.35
633.342	45.22
633.674	45.37
634.005	44.88
634.336	44.91
634.668	45.08
634.999	45.51
635.33	45.35
635.661	45.67
635.992	45.68
636.323	45.61
636.654	45.58
636.985	45.46
637.316	46.06
637.647	45.46
637.977	45.89
638.308	45.55
638.639	45.73
638.969	45.35
639.3	45.29
639.63	46.32
639.961	45.81
640.291	45.81
640.622	45.91
640.952	46.01
641.282	45.64
641.612	46.37
641.943	46.58
642.273	45.88
642.603	46.55
642.933	46.51
643.263	46.2
643.592	45.85
643.922	46.48
644.252	46.35
644.582	45.79
644.911	46.09
645.241	46.12
645.571	46.59
645.9	46.65
646.23	46.42
646.559	47.28
646.888	46.3
647.218	46.39
647.547	46.57
647.876	46.81
648.205	46.64
648.534	46.56
648.863	46.03
649.192	47.27
649.521	47.73
649.85	46.54
650.179	47.14
650.508	46.83
650.837	47.06
651.165	47.18
651.494	47.3
651.822	47.13
652.151	47.62
652.479	47.23
652.808	47.36
653.136	47.72
653.465	47.28
653.793	47.03
654.121	47.72
654.449	47.04
654.777	47.26
655.105	47.79
655.433	47.69
655.761	47.26
656.089	47.27
656.417	48.21
656.745	47.71
657.073	47.36
657.4	48.05
657.728	47.78
658.056	47.49
658.383	47.14
658.711	48.39
659.038	47.21
659.365	47.36
659.693	47.18
660.02	47.04
660.347	47.5
660.674	47.68
661.001	48.24
661.329	47.67
661.656	47.67
661.982	48.03
662.309	47.71
662.636	47.61
662.963	48.18
663.29	47.88
663.616	47.71
663.943	47.84
664.27	48.7
664.596	48.56
664.923	48.73
665.249	47.74
665.576	48.29
665.902	48.31
666.228	48
666.554	47.92
666.881	47.93
667.207	48.91
667.533	48.56
667.859	48.53
668.185	48.03
668.511	48.66
668.837	48.41
669.162	48.75
