Data from 18WF-1_crown_Reflection__3__54.txt Node

Date: Fri Sep 30 18:11:00 CDT 2022
User: ToomeyLab
Spectrometer: FLMS14357
Trigger mode: 0
Integration Time (sec): 1.000000E-2
Scans to average: 100
Electric dark correction enabled: true
Nonlinearity correction enabled: false
Boxcar width: 0
XAxis mode: Wavelengths
Number of Pixels in Spectrum: 2048
>>>>>Begin Spectral Data<<<<<
189.047	-34.79
189.435	-34.79
189.823	-34.79
190.211	92.32
190.599	124.19
190.987	31.03
191.375	78.6
191.763	3430.34
192.151	-72.42
192.538	-107.33
192.926	70.08
193.314	106.57
193.702	-55.31
194.089	-57.22
194.477	1592.96
194.864	137.13
195.252	18.04
195.639	500
196.027	-180.42
196.414	54.74
196.801	222.71
197.189	-81.33
197.576	35.71
197.963	168.62
198.351	-18.3
198.738	31.74
199.125	31.89
199.512	37.64
199.899	-0.06
200.286	-25.82
200.673	12.94
201.06	-8.52
201.447	-4.17
201.833	57.95
202.22	3.82
202.607	56.51
202.994	34.18
203.38	8.32
203.767	-3.23
204.154	45.72
204.54	43.31
204.927	48.36
205.313	-7.7
205.699	28.23
206.086	-14.62
206.472	-9.25
206.858	51
207.245	37.44
207.631	-3.22
208.017	19.93
208.403	5.14
208.789	-4.37
209.175	5.25
209.561	5.96
209.947	6.67
210.333	34.07
210.719	9.03
211.105	-11.11
211.491	-2.84
211.876	1.87
212.262	22.72
212.648	19.38
213.034	-14.67
213.419	10.11
213.805	5.28
214.19	23.29
214.576	6.78
214.961	18.29
215.346	18.15
215.732	14.92
216.117	-23.82
216.502	39.27
216.888	15.78
217.273	2.34
217.658	14.4
218.043	6.53
218.428	20.78
218.813	-0.03
219.198	0.37
219.583	23.82
219.968	0.31
220.353	18.75
220.738	17.78
221.122	0.53
221.507	9.44
221.892	0.85
222.276	-3.6
222.661	2.16
223.046	-1.85
223.43	-0.05
223.815	-0.67
224.199	1.86
224.583	-3.08
224.968	1.45
225.352	6.46
225.736	4.02
226.121	7.73
226.505	0.67
226.889	3.87
227.273	-5.61
227.657	8.14
228.041	3.27
228.425	3.6
228.809	4.19
229.193	3.97
229.577	0.36
229.961	2.1
230.344	1.54
230.728	1.2
231.112	2.47
231.495	1.2
231.879	3.53
232.263	0.23
232.646	0.34
233.03	3.42
233.413	1.95
233.797	1.32
234.18	2.1
234.563	2.58
234.946	1.65
235.33	2.39
235.713	4.43
236.096	2.41
236.479	2.01
236.862	1.47
237.245	3.04
237.628	2.5
238.011	2.89
238.394	0.83
238.777	1.2
239.16	1.28
239.543	1.33
239.925	1.67
240.308	0.89
240.691	1.9
241.073	2.02
241.456	2.12
241.838	1.65
242.221	1.07
242.603	2.7
242.986	2.35
243.368	1.3
243.75	1.86
244.133	2.06
244.515	1.75
244.897	2.17
245.279	2.42
245.661	2.41
246.043	1.03
246.425	1.92
246.807	1.97
247.189	2.09
247.571	1.7
247.953	2.13
248.335	1.61
248.717	1.79
249.098	1.94
249.48	1.48
249.862	1.61
250.243	1.91
250.625	2.16
251.006	1.85
251.388	0.86
251.769	2.88
252.151	1.88
252.532	1.95
252.913	1.56
253.295	1.15
253.676	1.45
254.057	1.79
254.438	1.76
254.819	2.61
255.2	2.2
255.581	2.97
255.962	2.69
256.343	1.9
256.724	2.39
257.105	2.05
257.486	1.92
257.867	2.73
258.247	1.91
258.628	2
259.009	2.78
259.389	1.32
259.77	1.67
260.15	1.33
260.531	2.26
260.911	1.74
261.292	1.68
261.672	1.59
262.052	1.77
262.432	1.85
262.813	2.48
263.193	1.92
263.573	2.2
263.953	1.32
264.333	2.29
264.713	1.46
265.093	1.29
265.473	2.05
265.853	1.97
266.233	1.2
266.612	1.94
266.992	1.98
267.372	1.07
267.752	1.8
268.131	2
268.511	1.55
268.89	1.43
269.27	1.74
269.649	1.57
270.029	2.18
270.408	1.82
270.787	1.83
271.167	1.62
271.546	1.99
271.925	2.22
272.304	2.14
272.683	1.83
273.062	1.77
273.441	1.7
273.82	1.42
274.199	1.74
274.578	1.32
274.957	1.85
275.336	1.5
275.715	1.73
276.093	2.32
276.472	1.5
276.851	1.93
277.229	1.8
277.608	1.63
277.986	2.16
278.365	2.05
278.743	1.03
279.122	1.56
279.5	1.86
279.878	1.68
280.257	1.74
280.635	1.88
281.013	1.86
281.391	1.27
281.769	1.35
282.147	1.49
282.525	2.07
282.903	1.38
283.281	1.12
283.659	1.85
284.037	1.42
284.415	1.82
284.792	1.83
285.17	1.2
285.548	1.87
285.925	1.82
286.303	1.65
286.68	1.12
287.058	1.61
287.435	1.49
287.813	1.69
288.19	1.37
288.567	1.33
288.945	1.11
289.322	1.34
289.699	1.65
290.076	1.4
290.453	1.78
290.83	1.34
291.207	1.57
291.584	1.38
291.961	1.66
292.338	1.87
292.715	1.99
293.092	1.08
293.469	1.62
293.845	2.04
294.222	1.47
294.599	2.28
294.975	2.59
295.352	1.73
295.728	2.07
296.105	1.57
296.481	1.67
296.858	1.65
297.234	1.89
297.61	1.6
297.986	1.37
298.363	1.79
298.739	1.51
299.115	1.32
299.491	1.73
299.867	1.94
300.243	1.46
300.619	1.16
300.995	1.9
301.371	1.84
301.746	1.61
302.122	2.16
302.498	1.76
302.874	1.72
303.249	1.7
303.625	1.57
304	1.58
304.376	1.58
304.751	1.98
305.127	1.66
305.502	1.47
305.878	1.97
306.253	1.54
306.628	1.82
307.003	1.64
307.378	1.82
307.754	1.71
308.129	2.1
308.504	1.71
308.879	1.86
309.254	2.13
309.629	1.62
310.003	1.39
310.378	1.51
310.753	1.48
311.128	1.81
311.502	1.81
311.877	1.78
312.252	2.02
312.626	1.68
313.001	1.86
313.375	1.66
313.75	2.06
314.124	2
314.498	1.46
314.873	1.63
315.247	1.41
315.621	1.91
315.995	2.09
316.369	1.63
316.743	1.76
317.117	2.05
317.491	2.64
317.865	2.09
318.239	2.28
318.613	1.53
318.987	1.68
319.361	1.81
319.734	2.02
320.108	2.09
320.482	2.22
320.855	2.19
321.229	1.69
321.602	1.88
321.976	2.34
322.349	1.95
322.723	1.56
323.096	2
323.469	1.74
323.843	1.94
324.216	1.79
324.589	2.12
324.962	2.05
325.335	1.97
325.708	1.76
326.081	2.06
326.454	2.26
326.827	1.78
327.2	1.88
327.573	1.83
327.945	1.75
328.318	1.93
328.691	2.16
329.063	2
329.436	1.36
329.809	2.45
330.181	2.36
330.553	2.22
330.926	2.34
331.298	1.97
331.671	2.04
332.043	1.78
332.415	1.85
332.787	1.81
333.159	2
333.532	2.18
333.904	1.52
334.276	2.47
334.648	1.46
335.02	2.14
335.391	2
335.763	2.26
336.135	2.15
336.507	2.1
336.879	2.38
337.25	1.49
337.622	2.02
337.993	1.82
338.365	1.73
338.736	1.94
339.108	2.07
339.479	2.33
339.851	1.92
340.222	2.4
340.593	1.8
340.964	2
341.336	1.91
341.707	1.85
342.078	2.18
342.449	1.83
342.82	1.93
343.191	1.93
343.562	1.99
343.933	2
344.303	1.76
344.674	2
345.045	2.03
345.416	1.98
345.786	2.3
346.157	2.46
346.527	1.83
346.898	1.98
347.268	1.84
347.639	1.48
348.009	1.97
348.38	2.46
348.75	2.24
349.12	2.26
349.49	2.26
349.861	1.76
350.231	2.06
350.601	2.2
350.971	1.93
351.341	1.77
351.711	1.67
352.081	2.11
352.45	2.23
352.82	2.16
353.19	2.06
353.56	1.81
353.929	1.39
354.299	2.35
354.669	2.07
355.038	1.97
355.408	2.22
355.777	1.63
356.147	1.85
356.516	2.15
356.885	1.84
357.254	2.5
357.624	1.93
357.993	1.49
358.362	2.05
358.731	1.82
359.1	1.9
359.469	1.88
359.838	1.93
360.207	2.05
360.576	1.92
360.945	1.94
361.314	1.95
361.682	2.18
362.051	2.09
362.42	2
362.788	1.76
363.157	2.01
363.525	1.7
363.894	2.02
364.262	2.16
364.631	2.33
364.999	2.06
365.367	2.2
365.735	1.9
366.104	1.86
366.472	2.15
366.84	2.43
367.208	2.09
367.576	2.41
367.944	2.2
368.312	1.81
368.68	1.96
369.048	1.71
369.416	2.09
369.783	1.95
370.151	2.07
370.519	2.12
370.886	2.3
371.254	1.99
371.621	2.38
371.989	2.29
372.356	1.91
372.724	2.04
373.091	1.85
373.458	1.85
373.826	2.35
374.193	2
374.56	2.41
374.927	2.45
375.294	2.26
375.661	1.87
376.028	1.97
376.395	1.99
376.762	2.32
377.129	2.49
377.496	2.28
377.863	2.03
378.229	2.35
378.596	2.23
378.963	2.23
379.329	2.09
379.696	2.3
380.062	2.29
380.429	2.25
380.795	2.18
381.161	2.14
381.528	2.15
381.894	2.06
382.26	1.92
382.626	2.21
382.993	2.13
383.359	1.69
383.725	1.98
384.091	2.07
384.457	2.28
384.823	2.22
385.188	2.37
385.554	2.32
385.92	2.42
386.286	2.21
386.651	2.42
387.017	2.23
387.383	2.02
387.748	1.86
388.114	2.19
388.479	2.13
388.845	2
389.21	2.27
389.575	2.14
389.94	1.86
390.306	2.2
390.671	2.03
391.036	2.14
391.401	2
391.766	2.35
392.131	2.2
392.496	2.32
392.861	2.38
393.226	2.21
393.591	2.28
393.956	2.22
394.32	2.25
394.685	1.85
395.05	2.44
395.414	2.07
395.779	2.1
396.143	2.32
396.508	2.11
396.872	2.27
397.236	2.15
397.601	2.3
397.965	2.27
398.329	2.18
398.694	2.28
399.058	2.05
399.422	2.5
399.786	2.12
400.15	2.16
400.514	2.22
400.878	2.08
401.242	2.11
401.605	2.22
401.969	2.14
402.333	2.38
402.697	2.42
403.06	2.15
403.424	2.05
403.787	2.28
404.151	2.52
404.514	2.34
404.878	2.25
405.241	2.12
405.604	2.28
405.968	2.22
406.331	2.1
406.694	2.29
407.057	2.26
407.42	2.17
407.783	1.99
408.146	2.23
408.509	2.3
408.872	2.18
409.235	2.19
409.598	2.58
409.961	2.18
410.323	2.45
410.686	2.38
411.049	2.17
411.411	2.24
411.774	2.33
412.136	2.37
412.499	2.26
412.861	2.01
413.223	2.19
413.586	2.21
413.948	2.52
414.31	2.26
414.672	2.32
415.035	2.51
415.397	2.38
415.759	2.38
416.121	2.31
416.483	2.04
416.845	2.33
417.206	2.48
417.568	2.3
417.93	2.13
418.292	2.27
418.653	2.18
419.015	2.41
419.377	2.27
419.738	2.19
420.1	2.37
420.461	2.28
420.822	2.24
421.184	2.36
421.545	2.19
421.906	2.07
422.267	2.15
422.629	2.24
422.99	2.27
423.351	2.19
423.712	2.2
424.073	2.18
424.434	2.24
424.795	2.26
425.155	2.31
425.516	2.3
425.877	2.3
426.238	2.24
426.598	2.25
426.959	2.14
427.32	2.34
427.68	2.25
428.041	2.26
428.401	2.37
428.761	2.37
429.122	2.37
429.482	2.25
429.842	2.25
430.202	2.34
430.563	2.38
430.923	2.24
431.283	2.25
431.643	2.34
432.003	2.31
432.363	2.26
432.722	2.4
433.082	2.41
433.442	2.3
433.802	2.27
434.161	2.32
434.521	2.41
434.881	2.33
435.24	2.24
435.6	2.35
435.959	2.37
436.319	2.33
436.678	2.27
437.037	2.45
437.396	2.38
437.756	2.3
438.115	2.18
438.474	2.34
438.833	2.33
439.192	2.41
439.551	2.31
439.91	2.28
440.269	2.14
440.628	2.36
440.987	2.43
441.345	2.34
441.704	2.34
442.063	2.36
442.421	2.31
442.78	2.29
443.138	2.17
443.497	2.34
443.855	2.44
444.214	2.38
444.572	2.39
444.93	2.34
445.288	2.32
445.647	2.34
446.005	2.36
446.363	2.49
446.721	2.18
447.079	2.3
447.437	2.4
447.795	2.3
448.153	2.3
448.51	2.35
448.868	2.35
449.226	2.3
449.584	2.3
449.941	2.36
450.299	2.45
450.656	2.44
451.014	2.5
451.371	2.4
451.729	2.41
452.086	2.46
452.443	2.44
452.801	2.54
453.158	2.31
453.515	2.38
453.872	2.54
454.229	2.44
454.586	2.56
454.943	2.35
455.3	2.4
455.657	2.43
456.014	2.15
456.371	2.39
456.727	2.38
457.084	2.28
457.441	2.39
457.797	2.51
458.154	2.38
458.51	2.29
458.867	2.46
459.223	2.43
459.58	2.51
459.936	2.46
460.292	2.4
460.648	2.3
461.005	2.36
461.361	2.38
461.717	2.35
462.073	2.43
462.429	2.36
462.785	2.46
463.141	2.5
463.496	2.38
463.852	2.43
464.208	2.59
464.564	2.39
464.919	2.57
465.275	2.62
465.631	2.62
465.986	2.33
466.342	2.48
466.697	2.48
467.052	2.51
467.408	2.51
467.763	2.4
468.118	2.62
468.473	2.48
468.829	2.51
469.184	2.39
469.539	2.5
469.894	2.52
470.249	2.6
470.603	2.56
470.958	2.52
471.313	2.43
471.668	2.54
472.023	2.5
472.377	2.58
472.732	2.43
473.086	2.47
473.441	2.47
473.795	2.47
474.15	2.36
474.504	2.58
474.859	2.51
475.213	2.53
475.567	2.48
475.921	2.51
476.275	2.44
476.63	2.43
476.984	2.52
477.338	2.53
477.692	2.57
478.045	2.52
478.399	2.44
478.753	2.51
479.107	2.52
479.461	2.6
479.814	2.35
480.168	2.59
480.521	2.52
480.875	2.58
481.228	2.47
481.582	2.47
481.935	2.53
482.289	2.52
482.642	2.53
482.995	2.46
483.348	2.51
483.701	2.54
484.055	2.46
484.408	2.46
484.761	2.38
485.114	2.35
485.466	2.3
485.819	2.29
486.172	2.36
486.525	2.38
486.878	2.43
487.23	2.42
487.583	2.44
487.936	2.45
488.288	2.42
488.641	2.39
488.993	2.42
489.345	2.37
489.698	2.37
490.05	2.4
490.402	2.42
490.754	2.45
491.107	2.43
491.459	2.44
491.811	2.52
492.163	2.59
492.515	2.45
492.866	2.43
493.218	2.43
493.57	2.43
493.922	2.36
494.274	2.45
494.625	2.54
494.977	2.52
495.328	2.61
495.68	2.48
496.031	2.7
496.383	2.59
496.734	2.6
497.086	2.52
497.437	2.65
497.788	2.5
498.139	2.53
498.49	2.43
498.842	2.56
499.193	2.49
499.544	2.44
499.894	2.56
500.245	2.56
500.596	2.48
500.947	2.56
501.298	2.68
501.648	2.51
501.999	2.56
502.35	2.59
502.7	2.57
503.051	2.66
503.401	2.66
503.752	2.54
504.102	2.64
504.452	2.5
504.803	2.56
505.153	2.78
505.503	2.6
505.853	2.59
506.203	2.43
506.553	2.63
506.903	2.66
507.253	2.62
507.603	2.72
507.953	2.73
508.303	2.63
508.652	2.58
509.002	2.75
509.352	2.77
509.701	2.65
510.051	2.62
510.4	2.51
510.75	2.55
511.099	2.53
511.449	2.57
511.798	2.54
512.147	2.64
512.496	2.58
512.846	2.63
513.195	2.7
513.544	2.63
513.893	2.6
514.242	2.56
514.591	2.62
514.939	2.58
515.288	2.51
515.637	2.56
515.986	2.71
516.334	2.61
516.683	2.49
517.032	2.53
517.38	2.48
517.729	2.74
518.077	2.61
518.426	2.65
518.774	2.65
519.122	2.62
519.47	2.69
519.819	2.68
520.167	2.61
520.515	2.57
520.863	2.68
521.211	2.62
521.559	2.64
521.907	2.67
522.255	2.57
522.602	2.65
522.95	2.62
523.298	2.79
523.645	2.53
523.993	2.71
524.341	2.69
524.688	2.7
525.036	2.56
525.383	2.47
525.73	2.65
526.078	2.66
526.425	2.64
526.772	2.7
527.119	2.51
527.466	2.53
527.814	2.57
528.161	2.52
528.508	2.56
528.854	2.56
529.201	2.57
529.548	2.49
529.895	2.51
530.242	2.46
530.588	2.46
530.935	2.5
531.282	2.54
531.628	2.48
531.975	2.54
532.321	2.53
532.667	2.58
533.014	2.62
533.36	2.53
533.706	2.57
534.052	2.54
534.399	2.56
534.745	2.57
535.091	2.53
535.437	2.56
535.783	2.54
536.129	2.61
536.474	2.55
536.82	2.58
537.166	2.65
537.512	2.52
537.857	2.69
538.203	2.62
538.549	2.56
538.894	2.58
539.239	2.56
539.585	2.64
539.93	2.72
540.276	2.77
540.621	2.64
540.966	2.73
541.311	2.62
541.656	2.68
542.001	2.62
542.346	2.67
542.691	2.58
543.036	2.53
543.381	2.54
543.726	2.56
544.071	2.63
544.415	2.63
544.76	2.66
545.105	2.61
545.449	2.69
545.794	2.59
546.138	2.67
546.483	2.77
546.827	2.59
547.171	2.68
547.516	2.65
547.86	2.66
548.204	2.66
548.548	2.62
548.892	2.66
549.236	2.63
549.58	2.68
549.924	2.69
550.268	2.78
550.612	2.71
550.956	2.85
551.3	2.76
551.643	2.76
551.987	2.72
552.33	2.82
552.674	2.78
553.017	2.66
553.361	2.71
553.704	2.79
554.048	2.74
554.391	2.83
554.734	2.69
555.077	2.69
555.42	2.87
555.764	2.76
556.107	2.75
556.45	2.8
556.793	2.65
557.135	2.78
557.478	2.78
557.821	2.92
558.164	2.82
558.507	2.86
558.849	2.76
559.192	2.88
559.534	2.9
559.877	2.85
560.219	2.83
560.562	2.88
560.904	2.72
561.246	2.81
561.589	2.82
561.931	2.75
562.273	2.9
562.615	2.75
562.957	2.78
563.299	2.86
563.641	2.8
563.983	2.86
564.325	2.72
564.667	2.87
565.008	2.84
565.35	2.79
565.692	2.87
566.033	2.77
566.375	2.59
566.716	2.94
567.058	2.69
567.399	2.8
567.741	2.73
568.082	2.84
568.423	2.79
568.764	2.9
569.105	2.64
569.447	2.8
569.788	2.8
570.129	2.85
570.47	2.86
570.811	2.86
571.151	2.8
571.492	2.89
571.833	2.72
572.174	2.5
572.514	3.01
572.855	2.66
573.195	2.85
573.536	2.84
573.876	2.81
574.217	2.68
574.557	2.86
574.898	2.78
575.238	2.87
575.578	2.88
575.918	2.69
576.258	2.94
576.598	2.78
576.938	2.73
577.278	2.85
577.618	3.06
577.958	2.91
578.298	2.83
578.638	2.87
578.977	2.87
579.317	2.82
579.657	2.83
579.996	2.76
580.336	2.98
580.675	2.91
581.014	2.74
581.354	2.78
581.693	2.93
582.032	2.93
582.372	2.81
582.711	2.73
583.05	2.89
583.389	2.77
583.728	2.87
584.067	3
584.406	2.89
584.745	2.83
585.083	2.82
585.422	3.06
585.761	2.79
586.1	2.84
586.438	3.11
586.777	3.15
587.115	2.93
587.454	2.91
587.792	2.6
588.13	2.78
588.469	2.76
588.807	2.75
589.145	2.8
589.483	2.96
589.821	3.07
590.159	3.14
590.497	2.97
590.835	3.05
591.173	2.84
591.511	2.66
591.849	2.85
592.187	3.05
592.524	2.82
592.862	2.87
593.2	2.91
593.537	3.03
593.875	3.21
594.212	3.01
594.55	2.85
594.887	3.23
595.224	2.87
595.561	2.82
595.899	2.78
596.236	2.99
596.573	2.9
596.91	2.85
597.247	2.67
597.584	2.71
597.921	2.87
598.258	2.78
598.594	2.76
598.931	2.86
599.268	2.72
599.604	2.76
599.941	2.75
600.277	2.77
600.614	3
600.95	3
601.287	2.87
601.623	2.99
601.959	2.94
602.296	2.9
602.632	2.91
602.968	3.05
603.304	2.98
603.64	2.97
603.976	2.81
604.312	2.76
604.648	2.92
604.984	3.04
605.319	2.83
605.655	3.01
605.991	2.77
606.326	2.82
606.662	2.87
606.998	2.81
607.333	2.85
607.668	2.93
608.004	2.98
608.339	2.87
608.674	2.94
609.01	2.8
609.345	2.81
609.68	2.88
610.015	3.1
610.35	2.77
610.685	2.52
611.02	2.76
611.355	2.66
611.689	2.51
612.024	2.87
612.359	2.95
612.694	3.08
613.028	2.88
613.363	2.64
613.697	2.85
614.032	2.97
614.366	2.94
614.7	2.84
615.035	3
615.369	2.68
615.703	2.93
616.037	3.12
616.371	2.85
616.705	2.87
617.039	3.09
617.373	3.07
617.707	2.82
618.041	3.08
618.375	2.94
618.709	2.88
619.042	2.89
619.376	3.23
619.71	3.14
620.043	3.13
620.377	3.01
620.71	2.72
621.043	3.11
621.377	3.14
621.71	2.77
622.043	2.84
622.376	2.81
622.709	2.83
623.043	3.01
623.376	2.85
623.709	3.05
624.041	3.15
624.374	2.96
624.707	2.84
625.04	3.09
625.373	3.11
625.705	3.02
626.038	2.98
626.37	3.05
626.703	3.34
627.035	3.04
627.368	2.75
627.7	2.92
628.032	2.99
628.365	2.96
628.697	3.12
629.029	2.82
629.361	3
629.693	3.23
630.025	3.13
630.357	3
630.689	2.98
631.021	3.02
631.353	2.96
631.684	2.94
632.016	3.34
632.348	3.22
632.679	3.07
633.011	3.06
633.342	3.21
633.674	3.41
634.005	3.04
634.336	3.06
634.668	3.17
634.999	3.12
635.33	3.35
635.661	3.03
635.992	2.96
636.323	3.27
636.654	2.98
636.985	2.99
637.316	3.42
637.647	2.87
637.977	3.04
638.308	2.82
638.639	2.88
638.969	2.81
639.3	2.97
639.63	2.81
639.961	3.23
640.291	2.87
640.622	3.49
640.952	3.56
641.282	3.23
641.612	3.29
641.943	3.06
642.273	3.22
642.603	2.79
642.933	2.46
643.263	3.27
643.592	3.06
643.922	3.1
644.252	3.22
644.582	3.42
644.911	3.25
645.241	2.98
645.571	2.91
645.9	3.03
646.23	3.19
646.559	2.73
646.888	3.08
647.218	2.89
647.547	3.21
647.876	3.05
648.205	2.65
648.534	2.97
648.863	3.2
649.192	2.66
649.521	3.31
649.85	2.59
650.179	3.02
650.508	2.87
650.837	3.1
651.165	3.06
651.494	3.24
651.822	3.51
652.151	2.99
652.479	3.24
652.808	3.44
653.136	2.77
653.465	2.94
653.793	2.74
654.121	3.07
654.449	3.41
654.777	3.09
655.105	3.28
655.433	2.82
655.761	3.05
656.089	3.26
656.417	2.93
656.745	2.96
657.073	2.73
657.4	3.61
657.728	3.35
658.056	3.06
658.383	3.36
658.711	2.89
659.038	2.4
659.365	2.8
659.693	2.84
660.02	2.89
660.347	3.05
660.674	3.13
661.001	3.32
661.329	3.11
661.656	3.05
661.982	3.18
662.309	3.27
662.636	3.42
662.963	3.04
663.29	2.86
663.616	2.96
663.943	3.23
664.27	2.97
664.596	2.86
664.923	3.43
665.249	3.58
665.576	3.12
665.902	3.32
666.228	3.48
666.554	3.42
666.881	3.22
667.207	2.83
667.533	3.15
667.859	3.37
668.185	3.31
668.511	3.1
668.837	3.23
669.162	3.67
669.488	3.15
669.814	3
670.139	2.78
670.465	4.14
670.791	2.7
671.116	2.94
671.442	3.33
671.767	3.56
672.092	3
672.418	3.11
672.743	3.51
673.068	3.59
673.393	3.26
673.718	2.57
674.043	3.25
674.368	3.14
674.693	2.76
675.018	3.07
675.343	2.94
675.667	3.82
675.992	3.34
676.317	3.39
676.641	2.84
676.966	2.9
677.29	2.43
677.615	2.89
677.939	3.61
678.264	2.82
678.588	3.35
678.912	3.28
679.236	2.96
679.56	3.21
679.885	3.21
680.209	2.67
680.532	3.15
680.856	3.43
681.18	3.18
681.504	3.2
681.828	3.1
682.152	2.49
682.475	2.73
682.799	2.96
683.122	3.49
683.446	3.22
683.769	3.29
684.093	3.78
684.416	3.79
684.739	3.31
685.062	3.48
685.386	3.58
685.709	3.41
686.032	3.36
686.355	2.88
686.678	2.9
687.001	3.36
687.324	4.5
687.646	3.48
687.969	2.99
688.292	3.25
688.614	3.11
688.937	3.69
689.26	2.71
689.582	3.34
689.904	3.14
690.227	3.02
690.549	2.64
690.871	3.13
691.194	3.18
691.516	3.32
691.838	2.56
692.16	3.47
692.482	3.97
692.804	4.01
693.126	3.84
693.448	2.55
