Data from 18WF-1_chest_Reflection__4__50.txt Node

Date: Fri Sep 30 18:09:24 CDT 2022
User: ToomeyLab
Spectrometer: FLMS14357
Trigger mode: 0
Integration Time (sec): 1.000000E-2
Scans to average: 100
Electric dark correction enabled: true
Nonlinearity correction enabled: false
Boxcar width: 0
XAxis mode: Wavelengths
Number of Pixels in Spectrum: 2048
>>>>>Begin Spectral Data<<<<<
189.047	3.07
189.435	3.07
189.823	3.07
190.211	20.32
190.599	-22.15
190.987	62.2
191.375	32.08
191.763	1255.62
192.151	4.94
192.538	-137
192.926	57.48
193.314	88.33
193.702	-464.9
194.089	-75.76
194.477	916.2
194.864	-96.65
195.252	38.29
195.639	214.31
196.027	108.75
196.414	94.43
196.801	269.84
197.189	-167.61
197.576	61.69
197.963	-49.53
198.351	16.47
198.738	-33.18
199.125	78.05
199.512	18.93
199.899	-3.56
200.286	28.35
200.673	36.06
201.06	18.93
201.447	9.02
201.833	28.47
202.22	35.6
202.607	36.54
202.994	55.28
203.38	8.22
203.767	8.48
204.154	13.23
204.54	42.88
204.927	31.9
205.313	7.31
205.699	42.53
206.086	7.79
206.472	1.35
206.858	30.91
207.245	30.04
207.631	6.35
208.017	-4.89
208.403	20.96
208.789	22.8
209.175	18.13
209.561	1.11
209.947	-6.88
210.333	0.64
210.719	-39.34
211.105	-12.34
211.491	31.12
211.876	16.87
212.262	22.53
212.648	41.48
213.034	16.35
213.419	5.49
213.805	3.79
214.19	14.22
214.576	13.79
214.961	12.54
215.346	4.09
215.732	13.25
216.117	-19.46
216.502	30.4
216.888	10.09
217.273	4.01
217.658	23.24
218.043	22.58
218.428	16.58
218.813	12.02
219.198	28.33
219.583	25.19
219.968	28.22
220.353	12.17
220.738	9.86
221.122	23.34
221.507	-0.8
221.892	-5.13
222.276	7.51
222.661	19.05
223.046	1.57
223.43	-4.73
223.815	1.88
224.199	12.19
224.583	-2.76
224.968	0.27
225.352	10.4
225.736	5.76
226.121	2.49
226.505	5.17
226.889	-1.12
227.273	-1.08
227.657	7.57
228.041	3.28
228.425	5.55
228.809	6.52
229.193	3.96
229.577	1.26
229.961	3.16
230.344	1.67
230.728	1.51
231.112	2.15
231.495	2.15
231.879	4.22
232.263	2.27
232.646	1.87
233.03	3.89
233.413	1.88
233.797	2.28
234.18	5.78
234.563	3.34
234.946	4.86
235.33	1.86
235.713	3.41
236.096	2.99
236.479	2.43
236.862	2.79
237.245	3.62
237.628	0.46
238.011	4.8
238.394	2.29
238.777	0.59
239.16	0.61
239.543	2.63
239.925	2.79
240.308	2.57
240.691	2.95
241.073	2.79
241.456	1.49
241.838	2.35
242.221	2.52
242.603	3.03
242.986	2.55
243.368	1.57
243.75	1.8
244.133	2.34
244.515	2.3
244.897	2.31
245.279	2.41
245.661	1.92
246.043	2.36
246.425	1.66
246.807	2.73
247.189	3.24
247.571	2.9
247.953	2.29
248.335	2.12
248.717	2.32
249.098	2.37
249.48	2.12
249.862	2.48
250.243	2.1
250.625	2.17
251.006	2.17
251.388	1.5
251.769	3.05
252.151	2.49
252.532	2.86
252.913	2.88
253.295	2.26
253.676	1.66
254.057	2.25
254.438	2.43
254.819	3.53
255.2	2.33
255.581	3.07
255.962	3.23
256.343	2.19
256.724	2.72
257.105	2.67
257.486	3.18
257.867	2.9
258.247	2.32
258.628	3.24
259.009	2.61
259.389	1.88
259.77	2.81
260.15	2.05
260.531	2.43
260.911	2.35
261.292	1.89
261.672	2.06
262.052	2.08
262.432	1.99
262.813	2.94
263.193	2.04
263.573	1.52
263.953	1.68
264.333	2.59
264.713	1.74
265.093	1.34
265.473	2
265.853	2.56
266.233	1.99
266.612	2.25
266.992	1.86
267.372	1.93
267.752	1.82
268.131	2.25
268.511	1.63
268.89	2.06
269.27	2.35
269.649	2.12
270.029	2.75
270.408	2.38
270.787	2.47
271.167	1.79
271.546	2.31
271.925	2.83
272.304	2.49
272.683	1.91
273.062	2.15
273.441	2.27
273.82	1.85
274.199	1.79
274.578	1.97
274.957	2.16
275.336	2.12
275.715	1.95
276.093	2.06
276.472	1.82
276.851	2
277.229	2.25
277.608	2.38
277.986	1.7
278.365	2.24
278.743	2.22
279.122	2.14
279.5	2.23
279.878	1.72
280.257	2.11
280.635	1.83
281.013	2.73
281.391	1.83
281.769	2.23
282.147	1.83
282.525	2.06
282.903	1.78
283.281	1.51
283.659	1.88
284.037	1.65
284.415	2.18
284.792	2
285.17	1.57
285.548	1.69
285.925	2.05
286.303	2.04
286.68	1.91
287.058	1.86
287.435	1.97
287.813	1.91
288.19	1.86
288.567	1.55
288.945	1.34
289.322	1.64
289.699	2.17
290.076	1.75
290.453	2.25
290.83	1.95
291.207	1.78
291.584	1.87
291.961	2.02
292.338	1.85
292.715	2.45
293.092	1.59
293.469	2.07
293.845	2.41
294.222	2.39
294.599	2.56
294.975	2.52
295.352	2.33
295.728	2.39
296.105	2.11
296.481	1.92
296.858	2.11
297.234	2.23
297.61	2.26
297.986	1.76
298.363	2.09
298.739	2.18
299.115	1.94
299.491	2.36
299.867	2.2
300.243	2.06
300.619	2
300.995	2.9
301.371	2.14
301.746	2.14
302.122	2.68
302.498	1.98
302.874	2.62
303.249	2.25
303.625	2.67
304	2.57
304.376	2.79
304.751	2.81
305.127	2.68
305.502	2.39
305.878	2.63
306.253	2.02
306.628	2.25
307.003	2.66
307.378	2.73
307.754	1.84
308.129	2.39
308.504	2.62
308.879	2.48
309.254	2.42
309.629	2.58
310.003	2.35
310.378	2.41
310.753	2.4
311.128	2.3
311.502	2.56
311.877	2.81
312.252	2.62
312.626	2.69
313.001	2.49
313.375	2.54
313.75	2.75
314.124	2.77
314.498	2.42
314.873	2.49
315.247	2.29
315.621	3.11
315.995	3.36
316.369	2.52
316.743	2.39
317.117	3
317.491	3.35
317.865	3.07
318.239	3.86
318.613	2.68
318.987	2.89
319.361	2.69
319.734	2.56
320.108	2.94
320.482	2.86
320.855	2.95
321.229	2.83
321.602	3.04
321.976	2.9
322.349	2.75
322.723	2.86
323.096	3.27
323.469	3.63
323.843	3.03
324.216	2.9
324.589	3.45
324.962	2.82
325.335	2.61
325.708	2.84
326.081	3.08
326.454	3.18
326.827	2.81
327.2	3.03
327.573	2.93
327.945	2.95
328.318	2.65
328.691	3.57
329.063	2.99
329.436	2.99
329.809	3.37
330.181	3.19
330.553	3.13
330.926	3.21
331.298	2.98
331.671	3.27
332.043	2.87
332.415	3.34
332.787	3.15
333.159	2.87
333.532	3.18
333.904	2.87
334.276	3.31
334.648	2.87
335.02	3.17
335.391	3.41
335.763	2.93
336.135	3.21
336.507	3.34
336.879	2.86
337.25	2.56
337.622	3.53
337.993	3.04
338.365	3.25
338.736	3.27
339.108	3.31
339.479	3.23
339.851	3.02
340.222	3.01
340.593	2.88
340.964	2.64
341.336	3.16
341.707	2.96
342.078	3.06
342.449	2.9
342.82	2.77
343.191	3.22
343.562	3.17
343.933	3.06
344.303	3.16
344.674	3.21
345.045	2.94
345.416	3.34
345.786	2.63
346.157	3.27
346.527	2.8
346.898	3.21
347.268	2.68
347.639	2.74
348.009	2.89
348.38	3.44
348.75	3.79
349.12	3.03
349.49	3.63
349.861	3.17
350.231	3.21
350.601	3.25
350.971	2.79
351.341	3.22
351.711	2.9
352.081	3.17
352.45	3.21
352.82	2.86
353.19	3.68
353.56	3.13
353.929	2.77
354.299	3.3
354.669	3.14
355.038	3.12
355.408	3.38
355.777	3.23
356.147	2.77
356.516	3.13
356.885	2.91
357.254	3.12
357.624	3.14
357.993	2.72
358.362	3.4
358.731	2.9
359.1	2.97
359.469	3.05
359.838	3.36
360.207	3.26
360.576	2.71
360.945	3.09
361.314	3.08
361.682	3.12
362.051	2.99
362.42	3.11
362.788	2.94
363.157	3.11
363.525	2.73
363.894	3.02
364.262	3.2
364.631	3.38
364.999	2.9
365.367	3.3
365.735	3.22
366.104	2.98
366.472	3.46
366.84	3.46
367.208	3.29
367.576	3.8
367.944	3.29
368.312	3.06
368.68	3.19
369.048	2.75
369.416	3.26
369.783	3.1
370.151	3.28
370.519	3.36
370.886	3.34
371.254	2.81
371.621	3.6
371.989	3.44
372.356	3.54
372.724	3.19
373.091	2.89
373.458	3.02
373.826	3.39
374.193	3.31
374.56	3.55
374.927	3.41
375.294	3.42
375.661	2.92
376.028	3.08
376.395	3.33
376.762	3.19
377.129	3.09
377.496	3.6
377.863	3.02
378.229	3.64
378.596	3.5
378.963	3.22
379.329	3.29
379.696	3.58
380.062	3.66
380.429	3.51
380.795	2.94
381.161	3.15
381.528	3.14
381.894	3
382.26	3.23
382.626	3.25
382.993	3.15
383.359	3.03
383.725	3.17
384.091	3.12
384.457	3.41
384.823	3.38
385.188	3.4
385.554	3.52
385.92	3.37
386.286	3.62
386.651	3.33
387.017	3.44
387.383	3.31
387.748	3.03
388.114	3.43
388.479	3.09
388.845	3.16
389.21	3.5
389.575	3.18
389.94	3.1
390.306	3.36
390.671	3.22
391.036	3.58
391.401	3.41
391.766	3.53
392.131	3.39
392.496	3.55
392.861	3.53
393.226	3.31
393.591	3.3
393.956	3.4
394.32	3.43
394.685	3.31
395.05	3.55
395.414	3.5
395.779	3.43
396.143	3.42
396.508	3.19
396.872	3.57
397.236	3.33
397.601	3.48
397.965	3.22
398.329	3.1
398.694	3.46
399.058	3.33
399.422	3.47
399.786	3.47
400.15	3.38
400.514	3.25
400.878	3.45
401.242	3.1
401.605	3.33
401.969	3.57
402.333	3.29
402.697	3.45
403.06	3.3
403.424	3.37
403.787	3.45
404.151	3.29
404.514	3.65
404.878	3.26
405.241	3.58
405.604	3.41
405.968	3.34
406.331	3.27
406.694	3.56
407.057	3.41
407.42	3.61
407.783	3.43
408.146	3.32
408.509	3.42
408.872	3.35
409.235	3.46
409.598	3.47
409.961	3.22
410.323	3.64
410.686	3.57
411.049	3.29
411.411	3.54
411.774	3.61
412.136	3.63
412.499	3.37
412.861	3.41
413.223	3.09
413.586	3.36
413.948	3.59
414.31	3.79
414.672	3.47
415.035	3.63
415.397	3.7
415.759	3.54
416.121	3.56
416.483	3.49
416.845	3.54
417.206	3.54
417.568	3.46
417.93	3.36
418.292	3.39
418.653	3.41
419.015	3.54
419.377	3.46
419.738	3.33
420.1	3.49
420.461	3.51
420.822	3.48
421.184	3.41
421.545	3.27
421.906	3.19
422.267	3.32
422.629	3.43
422.99	3.38
423.351	3.4
423.712	3.32
424.073	3.35
424.434	3.45
424.795	3.37
425.155	3.43
425.516	3.55
425.877	3.46
426.238	3.41
426.598	3.49
426.959	3.38
427.32	3.42
427.68	3.55
428.041	3.38
428.401	3.43
428.761	3.6
429.122	3.54
429.482	3.52
429.842	3.61
430.202	3.59
430.563	3.52
430.923	3.49
431.283	3.45
431.643	3.6
432.003	3.58
432.363	3.68
432.722	3.68
433.082	3.75
433.442	3.45
433.802	3.61
434.161	3.53
434.521	3.56
434.881	3.45
435.24	3.59
435.6	3.59
435.959	3.58
436.319	3.49
436.678	3.53
437.037	3.69
437.396	3.58
437.756	3.6
438.115	3.45
438.474	3.65
438.833	3.66
439.192	3.58
439.551	3.75
439.91	3.65
440.269	3.45
440.628	3.71
440.987	3.66
441.345	3.72
441.704	3.57
442.063	3.64
442.421	3.66
442.78	3.59
443.138	3.52
443.497	3.65
443.855	3.61
444.214	3.69
444.572	3.63
444.93	3.52
445.288	3.7
445.647	3.64
446.005	3.75
446.363	3.79
446.721	3.66
447.079	3.56
447.437	3.69
447.795	3.55
448.153	3.52
448.51	3.52
448.868	3.57
449.226	3.56
449.584	3.59
449.941	3.56
450.299	3.66
450.656	3.61
451.014	3.85
451.371	3.91
451.729	3.84
452.086	3.69
452.443	3.81
452.801	3.77
453.158	3.76
453.515	3.59
453.872	3.75
454.229	3.74
454.586	3.86
454.943	3.87
455.3	3.88
455.657	3.94
456.014	3.58
456.371	3.73
456.727	3.78
457.084	3.73
457.441	3.74
457.797	3.8
458.154	3.63
458.51	3.76
458.867	3.75
459.223	3.84
459.58	3.76
459.936	3.67
460.292	3.76
460.648	3.6
461.005	3.73
461.361	3.63
461.717	3.67
462.073	3.76
462.429	3.82
462.785	3.72
463.141	3.79
463.496	3.74
463.852	3.87
464.208	3.89
464.564	3.7
464.919	3.87
465.275	3.82
465.631	3.9
465.986	3.89
466.342	3.96
466.697	3.81
467.052	3.94
467.408	3.79
467.763	3.83
468.118	3.9
468.473	3.99
468.829	3.84
469.184	3.96
469.539	3.93
469.894	3.88
470.249	3.93
470.603	3.89
470.958	3.84
471.313	3.92
471.668	3.88
472.023	3.8
472.377	4.01
472.732	3.89
473.086	3.75
473.441	4
473.795	3.84
474.15	3.96
474.504	3.92
474.859	4
475.213	3.9
475.567	4
475.921	3.88
476.275	3.84
476.63	3.91
476.984	3.87
477.338	3.76
477.692	4.04
478.045	3.97
478.399	3.98
478.753	3.97
479.107	3.79
479.461	3.85
479.814	3.89
480.168	3.88
480.521	3.93
480.875	4
481.228	3.87
481.582	3.93
481.935	4.02
482.289	3.89
482.642	3.76
482.995	3.92
483.348	3.82
483.701	4.02
484.055	3.84
484.408	3.82
484.761	3.69
485.114	3.62
485.466	3.56
485.819	3.62
486.172	3.68
486.525	3.76
486.878	3.89
487.23	3.89
487.583	3.79
487.936	3.93
488.288	3.86
488.641	3.72
488.993	3.75
489.345	3.72
489.698	3.77
490.05	3.8
490.402	3.88
490.754	3.9
491.107	3.94
491.459	3.9
491.811	3.96
492.163	3.98
492.515	3.92
492.866	3.87
493.218	3.75
493.57	3.76
493.922	3.81
494.274	3.89
494.625	3.96
494.977	4.01
495.328	4.05
495.68	3.88
496.031	4.01
496.383	4.21
496.734	4.11
497.086	4.07
497.437	4.1
497.788	4.13
498.139	4.04
498.49	3.98
498.842	3.95
499.193	4.04
499.544	4.05
499.894	4.09
500.245	4.03
500.596	4.06
500.947	4.09
501.298	4.12
501.648	4.02
501.999	4.08
502.35	4.15
502.7	4.15
503.051	4.2
503.401	4.3
503.752	4.09
504.102	4.25
504.452	4.2
504.803	4.26
505.153	4.16
505.503	4.16
505.853	4.25
506.203	4.02
506.553	4.06
506.903	4.24
507.253	4.19
507.603	4.19
507.953	4.26
508.303	4.41
508.652	4.14
509.002	4.28
509.352	4.18
509.701	4.12
510.051	4.29
510.4	4.14
510.75	4.23
511.099	4.15
511.449	4.23
511.798	4.22
512.147	4.17
512.496	4.24
512.846	4.2
513.195	4.3
513.544	4.25
513.893	4.22
514.242	4.27
514.591	4.43
514.939	4.2
515.288	4.26
515.637	4.17
515.986	4.43
516.334	4.34
516.683	4.29
517.032	4.34
517.38	4.41
517.729	4.39
518.077	4.42
518.426	4.34
518.774	4.45
519.122	4.26
519.47	4.27
519.819	4.35
520.167	4.32
520.515	4.25
520.863	4.24
521.211	4.35
521.559	4.31
521.907	4.43
522.255	4.35
522.602	4.44
522.95	4.39
523.298	4.48
523.645	4.4
523.993	4.38
524.341	4.49
524.688	4.48
525.036	4.3
525.383	4.3
525.73	4.53
526.078	4.52
526.425	4.28
526.772	4.45
527.119	4.23
527.466	4.25
527.814	4.35
528.161	4.3
528.508	4.33
528.854	4.32
529.201	4.38
529.548	4.21
529.895	4.14
530.242	4.16
530.588	4.21
530.935	4.33
531.282	4.32
531.628	4.34
531.975	4.38
532.321	4.38
532.667	4.52
533.014	4.41
533.36	4.46
533.706	4.56
534.052	4.41
534.399	4.37
534.745	4.33
535.091	4.38
535.437	4.44
535.783	4.42
536.129	4.54
536.474	4.54
536.82	4.47
537.166	4.62
537.512	4.43
537.857	4.63
538.203	4.55
538.549	4.42
538.894	4.58
539.239	4.56
539.585	4.55
539.93	4.64
540.276	4.65
540.621	4.68
540.966	4.74
541.311	4.71
541.656	4.69
542.001	4.64
542.346	4.58
542.691	4.45
543.036	4.44
543.381	4.46
543.726	4.56
544.071	4.66
544.415	4.66
544.76	4.7
545.105	4.65
545.449	4.71
545.794	4.68
546.138	4.77
546.483	4.83
546.827	4.68
547.171	4.86
547.516	4.75
547.86	4.79
548.204	4.81
548.548	4.7
548.892	4.86
549.236	4.92
549.58	4.85
549.924	5
550.268	5
550.612	5.07
550.956	5.05
551.3	5.14
551.643	5.02
551.987	4.93
552.33	5.06
552.674	5.26
553.017	5.03
553.361	4.98
553.704	5.12
554.048	5.03
554.391	5.06
554.734	4.96
555.077	5
555.42	5.22
555.764	5.11
556.107	5.1
556.45	5.21
556.793	4.93
557.135	5.2
557.478	5.15
557.821	5.18
558.164	5.27
558.507	5.17
558.849	5.17
559.192	5.1
559.534	5.15
559.877	5.27
560.219	5.24
560.562	5.29
560.904	5.17
561.246	5.22
561.589	5.27
561.931	5.39
562.273	5.48
562.615	5.22
562.957	5.2
563.299	5.47
563.641	5.15
563.983	5.31
564.325	5.39
564.667	5.44
565.008	5.4
565.35	5.25
565.692	5.48
566.033	5.22
566.375	5.24
566.716	5.6
567.058	5.45
567.399	5.36
567.741	5.48
568.082	5.39
568.423	5.46
568.764	5.38
569.105	5.48
569.447	5.49
569.788	5.48
570.129	5.61
570.47	5.63
570.811	5.47
571.151	5.64
571.492	5.6
571.833	5.49
572.174	5.36
572.514	5.65
572.855	5.5
573.195	5.5
573.536	5.63
573.876	5.64
574.217	5.57
574.557	5.56
574.898	5.53
575.238	5.82
575.578	5.81
575.918	5.7
576.258	5.89
576.598	5.6
576.938	5.75
577.278	5.71
577.618	5.85
577.958	5.83
578.298	5.77
578.638	5.96
578.977	5.84
579.317	5.73
579.657	6.03
579.996	5.79
580.336	5.86
580.675	5.87
581.014	5.77
581.354	5.91
581.693	5.96
582.032	5.85
582.372	5.62
582.711	5.89
583.05	6.07
583.389	5.82
583.728	6.08
584.067	6.09
584.406	5.65
584.745	6.17
585.083	6.07
585.422	6.18
585.761	5.88
586.1	6.05
586.438	6.24
586.777	6.21
587.115	6.36
587.454	6.03
587.792	5.93
588.13	6.13
588.469	5.96
588.807	6.17
589.145	5.99
589.483	6.38
589.821	6.61
590.159	6.22
590.497	6.14
590.835	6.33
591.173	5.98
591.511	6.18
591.849	6.32
592.187	6.44
592.524	6.17
592.862	6.36
593.2	6.26
593.537	6.13
593.875	6.49
594.212	6.12
594.55	6.34
594.887	6.49
595.224	6.42
595.561	6.54
595.899	6.28
596.236	6.56
596.573	6.37
596.91	6.61
597.247	6.28
597.584	6.53
597.921	6.3
598.258	6.4
598.594	6.29
598.931	6.41
599.268	6.38
599.604	6.48
599.941	6.24
600.277	6.37
600.614	6.67
600.95	6.76
601.287	6.66
601.623	6.62
601.959	6.44
602.296	6.44
602.632	6.55
602.968	7.07
603.304	6.47
603.64	6.89
603.976	6.6
604.312	6.82
604.648	6.73
604.984	6.75
605.319	6.68
605.655	6.59
605.991	6.68
606.326	6.72
606.662	6.76
606.998	6.71
607.333	6.73
607.668	6.8
608.004	6.9
608.339	6.97
608.674	6.98
609.01	6.82
609.345	6.44
609.68	6.98
610.015	7.03
610.35	6.75
610.685	6.76
611.02	6.81
611.355	6.73
611.689	6.75
612.024	6.93
612.359	7.13
612.694	7.24
613.028	6.97
613.363	7.1
613.697	7.06
614.032	7.16
614.366	7.2
614.7	6.79
615.035	7.24
615.369	7.14
615.703	7.36
616.037	7.21
616.371	6.88
616.705	7.08
617.039	7.51
617.373	7.23
617.707	6.96
618.041	7.05
618.375	7.09
618.709	7.26
619.042	6.92
619.376	7.68
619.71	7.32
620.043	7.72
620.377	7.4
620.71	7.22
621.043	7.2
621.377	7.27
621.71	7.2
622.043	7.01
622.376	7.24
622.709	7.4
623.043	7.54
623.376	7.29
623.709	7.56
624.041	7.4
624.374	7.56
624.707	7.27
625.04	7.66
625.373	7.77
625.705	7.43
626.038	7.77
626.37	7.34
626.703	7.71
627.035	7.56
627.368	7.92
627.7	7.76
628.032	7.44
628.365	7.49
628.697	7.76
629.029	7.41
629.361	7.78
629.693	7.92
630.025	7.74
630.357	7.66
630.689	7.54
631.021	7.37
631.353	7.97
631.684	7.84
632.016	7.82
632.348	7.69
632.679	7.56
633.011	7.92
633.342	7.97
633.674	8
634.005	7.74
634.336	8.14
634.668	8.14
634.999	8.15
635.33	8.04
635.661	8.1
635.992	7.81
636.323	8.17
636.654	7.66
636.985	7.99
637.316	8.29
637.647	7.7
637.977	7.9
638.308	7.32
638.639	7.79
638.969	8.11
639.3	8.02
639.63	7.69
639.961	8.25
640.291	7.74
640.622	8.16
640.952	8.25
641.282	8.15
641.612	7.91
641.943	8.25
642.273	8.37
642.603	8.04
642.933	7.79
643.263	8.05
643.592	8.17
643.922	7.85
644.252	8.38
644.582	8.63
644.911	8.69
645.241	8.5
645.571	8.29
645.9	8.27
646.23	8
646.559	8.13
646.888	8.56
647.218	7.97
647.547	8.21
647.876	8.17
648.205	8.69
648.534	8.15
648.863	8.4
649.192	8.14
649.521	7.96
649.85	8.6
650.179	8.6
650.508	8.58
650.837	8.36
651.165	8.56
651.494	8.74
651.822	9
652.151	8.2
652.479	8.93
652.808	8.93
653.136	8.71
653.465	8.43
653.793	8.58
654.121	8.38
654.449	9
654.777	8.72
655.105	8.47
655.433	8.76
655.761	9
656.089	8.66
656.417	8.29
656.745	8.79
657.073	8.38
657.4	8.69
657.728	8.89
658.056	8.69
658.383	9.1
658.711	8.9
659.038	8.25
659.365	8.48
659.693	8.65
660.02	9.06
660.347	8.76
660.674	8.93
661.001	8.91
661.329	9.04
661.656	8.72
661.982	9.17
662.309	9.42
662.636	9.12
662.963	8.74
663.29	8.48
663.616	8.72
663.943	9.02
664.27	9.22
664.596	8.92
664.923	8.93
665.249	9.34
665.576	9.31
665.902	9.14
666.228	9.35
666.554	8.96
666.881	9.2
667.207	9.11
667.533	9.21
667.859	9.84
668.185	9.63
668.511	9.1
668.837	9.03
669.162	9.41
669.488	9.1
669.814	8.73
670.139	8.76
670.465	9.61
670.791	8.84
671.116	9.52
671.442	9.92
671.767	9.66
672.092	8.97
672.418	9.07
672.743	9.26
673.068	9.93
673.393	10.02
673.718	9.01
674.043	9.12
674.368	9.72
674.693	8.73
675.018	9.35
675.343	9.71
675.667	9.74
675.992	9.29
676.317	10.23
676.641	9.07
676.966	9.35
677.29	8.78
677.615	9.32
677.939	9.98
678.264	8.7
678.588	9.08
678.912	9.75
679.236	9.39
679.56	9.19
679.885	9.37
680.209	9.66
680.532	9.18
680.856	9.81
681.18	9.49
681.504	9.44
681.828	9.57
682.152	9.16
682.475	9.19
682.799	9.55
683.122	9.52
683.446	10.06
683.769	10.57
684.093	10.06
684.416	9.9
684.739	10.19
685.062	9.92
685.386	10.14
685.709	9.97
686.032	9.13
686.355	9.96
686.678	9.76
687.001	10.1
687.324	10.45
687.646	9.48
687.969	9.49
688.292	9.82
688.614	9.46
688.937	9.66
689.26	9.57
689.582	9.57
689.904	9.81
690.227	9.99
690.549	9.65
690.871	10.09
691.194	10.2
691.516	10.26
691.838	9.4
692.16	9.93
692.482	10.15
692.804	11.3
693.126	10.14
