Data from 18WF-1_forehead_Reflection__3__59.txt Node

Date: Fri Sep 30 18:12:14 CDT 2022
User: ToomeyLab
Spectrometer: FLMS14357
Trigger mode: 0
Integration Time (sec): 1.000000E-2
Scans to average: 100
Electric dark correction enabled: true
Nonlinearity correction enabled: false
Boxcar width: 0
XAxis mode: Wavelengths
Number of Pixels in Spectrum: 2048
>>>>>Begin Spectral Data<<<<<
189.047	29.75
189.435	29.75
189.823	29.75
190.211	37.85
190.599	-263.01
190.987	90.15
191.375	69.89
191.763	-496.63
192.151	-89.69
192.538	-107.68
192.926	50.38
193.314	112.35
193.702	-88.43
194.089	67.56
194.477	-4098.59
194.864	67.31
195.252	65.67
195.639	-50.8
196.027	-143.45
196.414	-16.74
196.801	172.91
197.189	75.65
197.576	47.65
197.963	6.8
198.351	13.81
198.738	95.19
199.125	41.02
199.512	25.18
199.899	14.62
200.286	21.19
200.673	13.86
201.06	35.3
201.447	82.3
201.833	38.7
202.22	76.85
202.607	51.61
202.994	56.21
203.38	34.24
203.767	22.99
204.154	28.18
204.54	29.99
204.927	49.56
205.313	-29.72
205.699	35.72
206.086	24.6
206.472	13.89
206.858	53.49
207.245	24.83
207.631	25.32
208.017	-0.38
208.403	28.83
208.789	10.33
209.175	16.44
209.561	7.38
209.947	-16.7
210.333	1.68
210.719	36.04
211.105	-13.05
211.491	4
211.876	29
212.262	22.08
212.648	50.02
213.034	10.76
213.419	39.21
213.805	14.67
214.19	29.87
214.576	22.46
214.961	13.12
215.346	20.03
215.732	-0.69
216.117	13.77
216.502	30.06
216.888	47.25
217.273	11.4
217.658	22.51
218.043	10.57
218.428	32.56
218.813	41.27
219.198	21.66
219.583	16.06
219.968	3.55
220.353	27.65
220.738	33.43
221.122	18.13
221.507	21.76
221.892	23.91
222.276	-11.57
222.661	15.38
223.046	8.46
223.43	12.25
223.815	6.88
224.199	16.54
224.583	-2.72
224.968	10.61
225.352	3.69
225.736	13.43
226.121	13.35
226.505	5.58
226.889	4.92
227.273	2.65
227.657	9.5
228.041	4.16
228.425	8.28
228.809	4.23
229.193	3.73
229.577	1.55
229.961	3.93
230.344	2.44
230.728	2.07
231.112	2.43
231.495	2.04
231.879	3.7
232.263	1.87
232.646	0.53
233.03	2.56
233.413	2.45
233.797	3.66
234.18	1.66
234.563	3.38
234.946	3.68
235.33	1.94
235.713	4.17
236.096	4.15
236.479	3.07
236.862	2.22
237.245	4.17
237.628	3.72
238.011	5.01
238.394	3.54
238.777	1.07
239.16	2.65
239.543	2.92
239.925	3.36
240.308	2.48
240.691	3.69
241.073	4.52
241.456	2.89
241.838	3.26
242.221	2.27
242.603	3.39
242.986	3.12
243.368	1.92
243.75	2.59
244.133	3.04
244.515	2.61
244.897	2.98
245.279	3.1
245.661	2.67
246.043	2.47
246.425	2.39
246.807	3.41
247.189	3.42
247.571	2.83
247.953	2.68
248.335	2.47
248.717	2.48
249.098	2.79
249.48	2.52
249.862	2.29
250.243	2.49
250.625	2.75
251.006	3.03
251.388	2.25
251.769	3.62
252.151	3.49
252.532	4.2
252.913	2.54
253.295	2.96
253.676	2.76
254.057	2.83
254.438	2.72
254.819	3.52
255.2	1.86
255.581	3.28
255.962	3.08
256.343	2.62
256.724	4.16
257.105	4.15
257.486	3.48
257.867	3.76
258.247	3.54
258.628	3.37
259.009	4.13
259.389	2.81
259.77	2.99
260.15	2.88
260.531	2.92
260.911	2.84
261.292	2.51
261.672	2.39
262.052	2.47
262.432	2.56
262.813	3.09
263.193	2.9
263.573	3.01
263.953	2.37
264.333	3.39
264.713	2.36
265.093	3.24
265.473	2.74
265.853	2.59
266.233	3.13
266.612	3.01
266.992	2.83
267.372	1.88
267.752	2.29
268.131	2.5
268.511	2.97
268.89	1.94
269.27	2.51
269.649	2.52
270.029	2.88
270.408	2.06
270.787	2.98
271.167	2.95
271.546	3.06
271.925	3.26
272.304	2.92
272.683	2.43
273.062	2.58
273.441	2.49
273.82	2.16
274.199	2.75
274.578	2.58
274.957	2.56
275.336	2.85
275.715	3.03
276.093	2.84
276.472	2.18
276.851	2.25
277.229	2.5
277.608	2.69
277.986	2.15
278.365	2.56
278.743	2.12
279.122	2.6
279.5	3.05
279.878	2.39
280.257	2.69
280.635	2.23
281.013	2.88
281.391	2.68
281.769	2.8
282.147	2.43
282.525	2.53
282.903	2.01
283.281	2.24
283.659	2.35
284.037	2.19
284.415	2.68
284.792	2.59
285.17	1.74
285.548	2.58
285.925	2.47
286.303	2.32
286.68	2.09
287.058	2.3
287.435	2.42
287.813	2.56
288.19	2.56
288.567	2.29
288.945	2.32
289.322	2.62
289.699	2.46
290.076	2.51
290.453	2.78
290.83	2.64
291.207	2.77
291.584	2.74
291.961	2.59
292.338	2.67
292.715	2.54
293.092	2.47
293.469	3.07
293.845	2.79
294.222	2.84
294.599	2.95
294.975	2.87
295.352	3.11
295.728	3.04
296.105	2.8
296.481	2.68
296.858	3.03
297.234	2.93
297.61	2.62
297.986	2.39
298.363	2.69
298.739	2.8
299.115	2.92
299.491	3.03
299.867	3.15
300.243	3.05
300.619	2.99
300.995	3.61
301.371	3.52
301.746	3.44
302.122	3.61
302.498	3.13
302.874	3.62
303.249	3.61
303.625	3.49
304	3.42
304.376	3.68
304.751	3.42
305.127	3.28
305.502	3.74
305.878	3.78
306.253	3.86
306.628	3.45
307.003	3.49
307.378	3.48
307.754	3.65
308.129	3.74
308.504	3.85
308.879	3.73
309.254	3.68
309.629	4.5
310.003	3.77
310.378	3.84
310.753	3.63
311.128	4.05
311.502	4.1
311.877	4.37
312.252	4.21
312.626	4.4
313.001	4.35
313.375	4.22
313.75	4.62
314.124	4.53
314.498	4.25
314.873	4.5
315.247	4.33
315.621	4.97
315.995	5.37
316.369	4.44
316.743	5.2
317.117	5.09
317.491	5.7
317.865	5.38
318.239	5.55
318.613	5.46
318.987	5.42
319.361	5.06
319.734	5.07
320.108	5.34
320.482	5.37
320.855	5.27
321.229	5.88
321.602	5.55
321.976	5.64
322.349	5.77
322.723	5.83
323.096	5.69
323.469	5.69
323.843	5.69
324.216	5.66
324.589	6.36
324.962	5.78
325.335	5.54
325.708	5.81
326.081	6.01
326.454	5.89
326.827	5.84
327.2	5.81
327.573	5.77
327.945	5.64
328.318	6.25
328.691	6.25
329.063	6.09
329.436	6.5
329.809	6.71
330.181	6.75
330.553	6.42
330.926	6.49
331.298	6
331.671	6.51
332.043	6.68
332.415	6.6
332.787	6.46
333.159	6.04
333.532	6.6
333.904	6.44
334.276	6.71
334.648	6.72
335.02	6.75
335.391	6.74
335.763	6.77
336.135	6.66
336.507	7.03
336.879	6.83
337.25	6.41
337.622	6.59
337.993	6.84
338.365	6.65
338.736	6.89
339.108	6.63
339.479	6.96
339.851	6.91
340.222	7.53
340.593	7.13
340.964	6.57
341.336	7.32
341.707	7.06
342.078	7.15
342.449	7.27
342.82	7.1
343.191	6.97
343.562	7.24
343.933	7.39
344.303	7.17
344.674	7.03
345.045	7.37
345.416	7.52
345.786	7.38
346.157	7.86
346.527	7.21
346.898	7.43
347.268	6.9
347.639	7
348.009	7.52
348.38	7.67
348.75	8.18
349.12	7.63
349.49	7.81
349.861	7.4
350.231	7.51
350.601	7.83
350.971	7.75
351.341	7.92
351.711	7.69
352.081	8.05
352.45	8.18
352.82	7.97
353.19	8.23
353.56	7.92
353.929	7.65
354.299	8.21
354.669	7.69
355.038	8.24
355.408	8.23
355.777	7.98
356.147	8.14
356.516	8.44
356.885	7.9
357.254	8.23
357.624	8.36
357.993	7.83
358.362	8.18
358.731	8.22
359.1	8.17
359.469	7.9
359.838	8.54
360.207	8.16
360.576	8.06
360.945	8.61
361.314	8.56
361.682	8.29
362.051	8.36
362.42	8.91
362.788	8.46
363.157	8.61
363.525	8.29
363.894	8.61
364.262	8.44
364.631	8.93
364.999	8.79
365.367	9.17
365.735	8.62
366.104	8.62
366.472	8.95
366.84	9.14
367.208	8.94
367.576	9.39
367.944	9.08
368.312	8.83
368.68	8.73
369.048	9.13
369.416	9.08
369.783	9.32
370.151	8.7
370.519	9.32
370.886	9.65
371.254	9.27
371.621	9.6
371.989	9.33
372.356	9.29
372.724	9.47
373.091	9.16
373.458	9.2
373.826	9.53
374.193	9.81
374.56	9.63
374.927	9.89
375.294	10
375.661	9.62
376.028	9.75
376.395	9.51
376.762	9.83
377.129	9.71
377.496	9.9
377.863	9.27
378.229	9.86
378.596	9.68
378.963	9.93
379.329	9.68
379.696	10
380.062	10
380.429	10.19
380.795	10.03
381.161	9.7
381.528	10.18
381.894	9.77
382.26	9.97
382.626	9.82
382.993	9.92
383.359	10.28
383.725	10.05
384.091	9.89
384.457	10.48
384.823	10.34
385.188	10.3
385.554	10.56
385.92	10.45
386.286	10.87
386.651	10.74
387.017	10.44
387.383	10.56
387.748	10.25
388.114	10.45
388.479	10.55
388.845	10.36
389.21	10.82
389.575	10.78
389.94	10.84
390.306	10.75
390.671	10.66
391.036	11.09
391.401	10.45
391.766	10.8
392.131	10.63
392.496	10.81
392.861	10.97
393.226	11.01
393.591	10.72
393.956	11.12
394.32	10.94
394.685	10.86
395.05	11.14
395.414	11.07
395.779	10.93
396.143	11
396.508	10.82
396.872	11.19
397.236	11.18
397.601	11.13
397.965	11.36
398.329	11.11
398.694	11.48
399.058	11.38
399.422	11.42
399.786	11.26
400.15	11.68
400.514	11.37
400.878	11.42
401.242	11.04
401.605	11.61
401.969	11.54
402.333	11.19
402.697	11.61
403.06	11.49
403.424	11.67
403.787	11.9
404.151	11.71
404.514	11.6
404.878	11.93
405.241	11.75
405.604	11.88
405.968	11.78
406.331	11.54
406.694	11.67
407.057	11.76
407.42	11.97
407.783	11.7
408.146	11.8
408.509	11.8
408.872	12.11
409.235	12.08
409.598	12.31
409.961	11.96
410.323	12.28
410.686	12.19
411.049	12
411.411	12.41
411.774	12.1
412.136	12.37
412.499	12.06
412.861	12.03
413.223	12.05
413.586	12.08
413.948	12.38
414.31	12.31
414.672	12.35
415.035	12.42
415.397	12.67
415.759	12.53
416.121	12.41
416.483	12.44
416.845	12.47
417.206	12.5
417.568	12.4
417.93	12.37
418.292	12.51
418.653	12.39
419.015	12.58
419.377	12.46
419.738	12.41
420.1	12.44
420.461	12.36
420.822	12.52
421.184	12.45
421.545	12.45
421.906	12.41
422.267	12.43
422.629	12.47
422.99	12.38
423.351	12.5
423.712	12.46
424.073	12.66
424.434	12.73
424.795	12.63
425.155	12.74
425.516	12.73
425.877	12.72
426.238	12.64
426.598	12.86
426.959	12.86
427.32	12.96
427.68	13.02
428.041	13.15
428.401	13.07
428.761	13.39
429.122	13.35
429.482	13.26
429.842	13.34
430.202	13.11
430.563	13.41
430.923	13.2
431.283	13.5
431.643	13.66
432.003	13.39
432.363	13.55
432.722	13.8
433.082	13.62
433.442	13.41
433.802	13.55
434.161	13.6
434.521	13.61
434.881	13.42
435.24	13.51
435.6	13.76
435.959	13.6
436.319	13.71
436.678	13.75
437.037	13.85
437.396	14
437.756	13.86
438.115	13.88
438.474	14.04
438.833	14.16
439.192	14.15
439.551	14.18
439.91	14.02
440.269	13.89
440.628	14.06
440.987	14.16
441.345	14.06
441.704	14.1
442.063	14.12
442.421	13.95
442.78	14.07
443.138	14.1
443.497	14.22
443.855	14.36
444.214	14.31
444.572	14.44
444.93	14.39
445.288	14.45
445.647	14.41
446.005	14.55
446.363	14.5
446.721	14.42
447.079	14.35
447.437	14.37
447.795	14.24
448.153	14.28
448.51	14.26
448.868	14.31
449.226	14.42
449.584	14.45
449.941	14.6
450.299	14.72
450.656	14.86
451.014	14.88
451.371	14.82
451.729	14.94
452.086	14.96
452.443	15.09
452.801	15.04
453.158	14.88
453.515	15.1
453.872	15.15
454.229	15.12
454.586	15.2
454.943	15.15
455.3	15.1
455.657	15.31
456.014	15.12
456.371	15.24
456.727	15.45
457.084	15.28
457.441	15.39
457.797	15.39
458.154	15.19
458.51	15.42
458.867	15.45
459.223	15.45
459.58	15.56
459.936	15.67
460.292	15.51
460.648	15.21
461.005	15.41
461.361	15.27
461.717	15.28
462.073	15.3
462.429	15.37
462.785	15.58
463.141	15.62
463.496	15.73
463.852	15.73
464.208	15.86
464.564	15.8
464.919	15.84
465.275	16.11
465.631	16.17
465.986	16.01
466.342	15.93
466.697	16.12
467.052	16.34
467.408	16.16
467.763	16.02
468.118	16.37
468.473	16.24
468.829	16.17
469.184	16.15
469.539	16.32
469.894	16.28
470.249	16.3
470.603	16.19
470.958	16.43
471.313	16.22
471.668	16.49
472.023	16.58
472.377	16.51
472.732	16.71
473.086	16.6
473.441	16.73
473.795	16.51
474.15	16.57
474.504	16.86
474.859	16.75
475.213	16.76
475.567	16.87
475.921	16.92
476.275	16.71
476.63	17.11
476.984	16.91
477.338	16.95
477.692	17.07
478.045	17.05
478.399	17.09
478.753	17.13
479.107	16.93
479.461	17.09
479.814	16.87
480.168	17.05
480.521	17.02
480.875	17.14
481.228	17.18
481.582	17.41
481.935	17.22
482.289	17.26
482.642	17.18
482.995	17.12
483.348	17.06
483.701	17.27
484.055	17.08
484.408	16.83
484.761	16.74
485.114	16.54
485.466	16.45
485.819	16.49
486.172	16.45
486.525	16.53
486.878	16.65
487.23	16.88
487.583	16.89
487.936	17.17
488.288	17.05
488.641	16.9
488.993	16.9
489.345	16.91
489.698	16.91
490.05	16.89
490.402	17.03
490.754	17.21
491.107	17.31
491.459	17.51
491.811	17.59
492.163	17.67
492.515	17.55
492.866	17.55
493.218	17.32
493.57	17.21
493.922	17.26
494.274	17.4
494.625	17.68
494.977	17.88
495.328	18.02
495.68	18.12
496.031	18.24
496.383	18.26
496.734	18.37
497.086	18.37
497.437	18.6
497.788	18.39
498.139	18.31
498.49	18.16
498.842	18.26
499.193	18.3
499.544	18.35
499.894	18.32
500.245	18.35
500.596	18.58
500.947	18.62
501.298	18.73
501.648	18.67
501.999	18.79
502.35	18.87
502.7	18.8
503.051	18.93
503.401	18.96
503.752	19.03
504.102	19.13
504.452	18.89
504.803	19.22
505.153	19.24
505.503	19.08
505.853	19.1
506.203	18.94
506.553	19.07
506.903	19.23
507.253	19.34
507.603	19.27
507.953	19.26
508.303	19.48
508.652	19.36
509.002	19.43
509.352	19.27
509.701	19.27
510.051	19.35
510.4	19.31
510.75	19.27
511.099	19.16
511.449	19.3
511.798	19.21
512.147	19.45
512.496	19.51
512.846	19.43
513.195	19.56
513.544	19.46
513.893	19.61
514.242	19.62
514.591	19.64
514.939	19.65
515.288	19.77
515.637	19.7
515.986	19.93
516.334	19.86
516.683	19.8
517.032	19.93
517.38	19.99
517.729	20.09
518.077	20.1
518.426	20.06
518.774	20.16
519.122	19.95
519.47	19.92
519.819	19.86
520.167	19.78
520.515	19.77
520.863	19.95
521.211	19.85
521.559	20.01
521.907	20.02
522.255	20.07
522.602	20.17
522.95	20.31
523.298	20.5
523.645	20.32
523.993	20.62
524.341	20.5
524.688	20.58
525.036	20.57
525.383	20.46
525.73	20.69
526.078	20.65
526.425	20.35
526.772	20.36
527.119	20.28
527.466	20.18
527.814	20.37
528.161	20.2
528.508	20.47
528.854	20.3
529.201	20.39
529.548	20.26
529.895	19.98
530.242	20.03
530.588	20.01
530.935	20.05
531.282	20.02
531.628	20.03
531.975	20.31
532.321	20.43
532.667	20.57
533.014	20.72
533.36	20.77
533.706	20.86
534.052	20.86
534.399	20.72
534.745	20.54
535.091	20.59
535.437	20.63
535.783	20.71
536.129	20.84
536.474	20.83
536.82	21.06
537.166	21.17
537.512	21.23
537.857	21.27
538.203	21.03
538.549	21.03
538.894	21.12
539.239	21.27
539.585	21.35
539.93	21.48
540.276	21.48
540.621	21.62
540.966	21.74
541.311	21.73
541.656	21.88
542.001	21.62
542.346	21.51
542.691	21.33
543.036	21.14
543.381	21.13
543.726	21.23
544.071	21.27
544.415	21.33
544.76	21.47
545.105	21.54
545.449	21.76
545.794	21.75
546.138	21.86
546.483	22.07
546.827	21.87
547.171	22.1
547.516	22.02
547.86	22.13
548.204	22.08
548.548	22.02
548.892	22.26
549.236	22.19
549.58	22.26
549.924	22.33
550.268	22.56
550.612	22.64
550.956	22.78
551.3	22.68
551.643	22.89
551.987	22.8
552.33	22.93
552.674	23.04
553.017	22.79
553.361	22.88
553.704	23.08
554.048	23.06
554.391	23.05
554.734	22.79
555.077	22.93
555.42	23.13
555.764	23.21
556.107	23.19
556.45	23.15
556.793	23.19
557.135	23.07
557.478	23.35
557.821	23.36
558.164	23.5
558.507	23.53
558.849	23.38
559.192	23.27
559.534	23.47
559.877	23.75
560.219	23.63
560.562	23.63
560.904	23.59
561.246	23.66
561.589	23.53
561.931	23.69
562.273	23.81
562.615	23.64
562.957	23.63
563.299	23.72
563.641	23.67
563.983	23.54
564.325	23.74
564.667	24.08
565.008	23.72
565.35	23.83
565.692	24.07
566.033	23.97
566.375	23.67
566.716	24.19
567.058	24.14
567.399	24.01
567.741	23.91
568.082	23.92
568.423	23.98
568.764	24.11
569.105	23.87
569.447	23.99
569.788	24.13
570.129	24.26
570.47	24.39
570.811	24.37
571.151	24.35
571.492	24.37
571.833	24.23
572.174	24.17
572.514	24.53
572.855	24.36
573.195	24.22
573.536	24.49
573.876	24.47
574.217	24.41
574.557	24.39
574.898	24.46
575.238	24.52
575.578	24.64
575.918	24.41
576.258	24.58
576.598	24.67
576.938	24.53
577.278	24.6
577.618	24.87
577.958	24.86
578.298	24.81
578.638	25.06
578.977	25.02
579.317	25.01
579.657	25.19
579.996	24.96
580.336	25.15
580.675	25.08
581.014	25.26
581.354	25.06
581.693	25.35
582.032	25.39
582.372	25.57
582.711	25.35
583.05	25.52
583.389	25.31
583.728	25.78
584.067	25.6
584.406	25.68
584.745	25.89
585.083	25.33
585.422	25.7
585.761	25.52
586.1	25.82
586.438	25.85
586.777	25.58
587.115	25.88
587.454	26.08
587.792	25.97
588.13	25.85
588.469	25.81
588.807	26.1
589.145	25.83
589.483	26.12
589.821	25.99
590.159	26.02
590.497	25.92
590.835	26.1
591.173	25.77
591.511	25.95
591.849	26.11
592.187	26.1
592.524	26
592.862	26.34
593.2	26.2
593.537	26.21
593.875	26.34
594.212	26.37
594.55	26.36
594.887	26.43
595.224	26.42
595.561	26.53
595.899	26.47
596.236	26.68
596.573	26.44
596.91	26.16
597.247	26.2
597.584	26.47
597.921	26.29
598.258	26.42
598.594	26.2
598.931	26.31
599.268	26.46
599.604	26.33
599.941	26.29
600.277	26.38
600.614	26.47
600.95	26.56
601.287	26.67
601.623	26.74
601.959	26.72
602.296	26.89
602.632	27.07
602.968	27.15
603.304	26.48
603.64	26.91
603.976	26.93
604.312	26.92
604.648	27.2
604.984	26.87
605.319	26.96
605.655	26.88
605.991	26.74
606.326	26.79
606.662	26.94
606.998	26.69
607.333	26.9
607.668	26.98
608.004	27.25
608.339	27.24
608.674	27.28
609.01	27.23
609.345	27.13
609.68	27.11
610.015	27.57
610.35	27.38
610.685	27.27
611.02	27.13
611.355	27.35
611.689	27.22
612.024	27.35
612.359	27.26
612.694	27.54
613.028	27.4
613.363	27.33
613.697	27.59
614.032	27.61
614.366	27.78
614.7	27.61
615.035	27.93
615.369	27.8
615.703	27.92
616.037	27.88
616.371	27.36
616.705	27.64
617.039	28.1
617.373	28.24
617.707	27.82
618.041	28.05
618.375	27.92
618.709	28.39
619.042	27.94
619.376	28.19
619.71	28.09
620.043	28.44
620.377	28.13
620.71	28.16
621.043	28.12
621.377	28.45
621.71	27.99
622.043	28.33
622.376	28.15
622.709	28.17
623.043	28.66
623.376	28.02
623.709	27.97
624.041	28.61
624.374	28.58
624.707	28.28
625.04	28.74
625.373	28.57
625.705	28.66
626.038	28.31
626.37	28.53
626.703	28.97
627.035	28.59
627.368	28.72
627.7	28.82
628.032	28.72
628.365	28.54
628.697	28.73
629.029	28.57
629.361	28.86
629.693	28.66
630.025	28.68
630.357	28.57
630.689	28.7
631.021	28.94
631.353	28.76
631.684	28.92
632.016	29.3
632.348	28.46
632.679	28.8
633.011	29.38
633.342	29.03
633.674	29.06
634.005	29.13
634.336	29.06
634.668	29.3
634.999	29.16
635.33	29.63
635.661	29.09
635.992	29.23
636.323	29.27
636.654	28.77
636.985	29.12
637.316	29.45
637.647	28.96
637.977	29.35
638.308	29.11
638.639	29.27
638.969	29.59
639.3	29.81
639.63	29.37
639.961	29.73
640.291	29.16
640.622	29.9
640.952	29.68
641.282	29.96
641.612	29.23
641.943	30.02
642.273	30.12
642.603	29.96
642.933	29.3
643.263	30.2
643.592	29.87
643.922	29.57
644.252	29.63
644.582	30
644.911	30.47
645.241	30.01
645.571	29.75
645.9	29.91
646.23	30.29
646.559	29.78
646.888	29.89
647.218	29.48
647.547	30.04
647.876	30.26
648.205	29.51
648.534	30.06
648.863	30.22
649.192	29.82
649.521	30.39
649.85	30.33
650.179	30.24
650.508	30.15
650.837	30.67
651.165	30.43
651.494	30.28
651.822	31.11
652.151	30.03
652.479	30.84
652.808	30.72
653.136	30.41
653.465	30.55
653.793	30.25
654.121	30.37
654.449	30.44
654.777	30.8
655.105	31.04
655.433	30.36
655.761	30.77
656.089	31.32
656.417	29.95
656.745	30.3
657.073	30.36
657.4	30.86
657.728	31.57
658.056	30.99
658.383	30.69
658.711	31.03
659.038	30.79
659.365	30.82
659.693	30.6
660.02	31.19
660.347	30.85
660.674	30.77
661.001	30.82
661.329	30.65
661.656	31.1
661.982	30.53
662.309	30.84
662.636	31.06
662.963	30.68
663.29	30.31
663.616	31.01
663.943	31.5
664.27	31.21
664.596	31.16
664.923	31.23
665.249	31.47
665.576	31.33
665.902	31.56
666.228	31.48
666.554	31.21
666.881	31.25
667.207	31.11
667.533	31.29
667.859	31.91
668.185	31.87
668.511	31.29
668.837	31.48
669.162	31.54
669.488	30.58
669.814	31.66
670.139	31.56
670.465	31.56
670.791	31.56
671.116	31.61
671.442	31.65
671.767	31.38
672.092	31.55
672.418	31.38
672.743	31.9
