Data from 815657_crown_Reflection__1__121.txt Node

Date: Fri Sep 16 15:37:58 CDT 2022
User: ToomeyLab
Spectrometer: FLMS14357
Trigger mode: 0
Integration Time (sec): 1.000000E-2
Scans to average: 100
Electric dark correction enabled: true
Nonlinearity correction enabled: false
Boxcar width: 0
XAxis mode: Wavelengths
Number of Pixels in Spectrum: 2048
>>>>>Begin Spectral Data<<<<<
189.047	164.74
189.435	164.74
189.823	164.74
190.211	43
190.599	86.4
190.987	81.49
191.375	86.68
191.763	77.72
192.151	-414.66
192.538	7450
192.926	-68.79
193.314	404.45
193.702	381.27
194.089	212.93
194.477	-42.12
194.864	-651
195.252	-19.52
195.639	654.83
196.027	-268.23
196.414	156.04
196.801	133.17
197.189	-38.23
197.576	115.65
197.963	126.92
198.351	-26.63
198.738	-35.83
199.125	27.48
199.512	-70.36
199.899	3.45
200.286	-20.43
200.673	-56.06
201.06	7.84
201.447	-16.48
201.833	-6.06
202.22	-6.14
202.607	-74.75
202.994	1.05
203.38	18.8
203.767	5.52
204.154	0.44
204.54	6.68
204.927	-38.48
205.313	22.95
205.699	21.85
206.086	24
206.472	31.69
206.858	12.76
207.245	3.61
207.631	6.33
208.017	14.96
208.403	-15.26
208.789	-17.64
209.175	15.26
209.561	-2.05
209.947	-5.06
210.333	-9.55
210.719	-7.63
211.105	7.14
211.491	15.74
211.876	28.24
212.262	27.56
212.648	-5.8
213.034	16.57
213.419	-18.25
213.805	11.92
214.19	14.21
214.576	-37.19
214.961	0.1
215.346	-11.47
215.732	-65.1
216.117	26.61
216.502	8.37
216.888	-4.04
217.273	-5.02
217.658	10.35
218.043	-51.24
218.428	2.82
218.813	0.76
219.198	-0.96
219.583	3.18
219.968	15.3
220.353	-9.87
220.738	-14.97
221.122	-22.39
221.507	10.08
221.892	2.64
222.276	13.45
222.661	3.4
223.046	26.54
223.43	1.84
223.815	-18.73
224.199	3.09
224.583	1.36
224.968	5.18
225.352	-0.49
225.736	8.56
226.121	10.19
226.505	2.4
226.889	2.63
227.273	5.17
227.657	8.78
228.041	1.85
228.425	-2.36
228.809	6.8
229.193	3.78
229.577	4.66
229.961	5.12
230.344	5.83
230.728	5.44
231.112	6.08
231.495	4.62
231.879	6.26
232.263	4.53
232.646	4.02
233.03	6.47
233.413	5.74
233.797	3.6
234.18	7.26
234.563	5.34
234.946	4.11
235.33	5.59
235.713	4.44
236.096	5.4
236.479	5.78
236.862	4.79
237.245	4.05
237.628	5.51
238.011	6.4
238.394	6.11
238.777	4.64
239.16	3.87
239.543	7.48
239.925	6.83
240.308	3.47
240.691	4.58
241.073	4.36
241.456	4.92
241.838	4.69
242.221	4.6
242.603	5.15
242.986	4.72
243.368	4.68
243.75	4.65
244.133	5.37
244.515	5.24
244.897	5.53
245.279	5.25
245.661	5.01
246.043	4.32
246.425	4.6
246.807	4.58
247.189	4.71
247.571	4.43
247.953	5.01
248.335	5.09
248.717	5.06
249.098	5.14
249.48	4.97
249.862	5.02
250.243	5.23
250.625	5.24
251.006	5.83
251.388	5.79
251.769	4.02
252.151	4.81
252.532	4.05
252.913	6.07
253.295	4.45
253.676	5.04
254.057	4.93
254.438	4.36
254.819	4.24
255.2	3.99
255.581	5.57
255.962	4.62
256.343	5.11
256.724	4.5
257.105	3.64
257.486	4.67
257.867	4.42
258.247	4.7
258.628	4.89
259.009	4.77
259.389	5.02
259.77	3.78
260.15	4.64
260.531	4.54
260.911	4.53
261.292	4.53
261.672	4.69
262.052	4.6
262.432	4.66
262.813	5.22
263.193	4.52
263.573	4.74
263.953	4.51
264.333	4.58
264.713	4.64
265.093	4.71
265.473	4.53
265.853	5.17
266.233	4.33
266.612	4.82
266.992	3.8
267.372	4.78
267.752	4.16
268.131	4.27
268.511	4.98
268.89	4.85
269.27	4.43
269.649	4.38
270.029	4.46
270.408	4.69
270.787	4.35
271.167	4.4
271.546	4.82
271.925	4.55
272.304	4.95
272.683	3.89
273.062	4.53
273.441	4.42
273.82	4.22
274.199	4.66
274.578	4.35
274.957	5.05
275.336	4.29
275.715	4.79
276.093	4.09
276.472	4.8
276.851	4.65
277.229	4.44
277.608	4.91
277.986	4.49
278.365	3.83
278.743	4.56
279.122	3.88
279.5	4.75
279.878	4.54
280.257	4.52
280.635	4.55
281.013	3.74
281.391	4.43
281.769	4.46
282.147	4.37
282.525	4.31
282.903	4.33
283.281	3.89
283.659	4.39
284.037	4.55
284.415	4.25
284.792	4.79
285.17	4.62
285.548	3.87
285.925	3.91
286.303	4.54
286.68	4.2
287.058	4.09
287.435	4.59
287.813	4.75
288.19	3.88
288.567	4.45
288.945	4.36
289.322	4.17
289.699	4.44
290.076	3.99
290.453	4.4
290.83	4.58
291.207	4.19
291.584	4.13
291.961	4.13
292.338	4.51
292.715	4.44
293.092	4.28
293.469	4.11
293.845	3.68
294.222	4.29
294.599	4.15
294.975	3.79
295.352	4.54
295.728	4.41
296.105	4.48
296.481	4
296.858	4.25
297.234	3.86
297.61	4.59
297.986	4.43
298.363	3.82
298.739	3.79
299.115	4.5
299.491	4.34
299.867	4.21
300.243	4.16
300.619	4.51
300.995	4.22
301.371	4
301.746	4.11
302.122	4.17
302.498	3.96
302.874	4.25
303.249	4.27
303.625	4.32
304	3.78
304.376	3.88
304.751	4.31
305.127	3.81
305.502	3.85
305.878	4.3
306.253	4.14
306.628	4.31
307.003	4.49
307.378	4.5
307.754	4.5
308.129	4.82
308.504	4.46
308.879	4.58
309.254	3.95
309.629	3.73
310.003	4.06
310.378	4.31
310.753	4.29
311.128	4.3
311.502	4
311.877	4.11
312.252	4.35
312.626	4.24
313.001	4.36
313.375	4.37
313.75	4.04
314.124	4.09
314.498	4.43
314.873	4.86
315.247	4
315.621	4.28
315.995	4.27
316.369	4.54
316.743	4.31
317.117	4.02
317.491	4.06
317.865	4.68
318.239	4.19
318.613	3.78
318.987	3.41
319.361	3.83
319.734	4.45
320.108	3.98
320.482	4.41
320.855	4.15
321.229	3.67
321.602	4.78
321.976	4.38
322.349	4.16
322.723	3.62
323.096	4.09
323.469	3.87
323.843	4.45
324.216	4.51
324.589	4.32
324.962	4.07
325.335	4.15
325.708	3.93
326.081	4.08
326.454	4.15
326.827	3.95
327.2	4.26
327.573	3.6
327.945	4.06
328.318	3.89
328.691	4.16
329.063	4.16
329.436	3.9
329.809	3.29
330.181	4.41
330.553	4.35
330.926	4.02
331.298	4.37
331.671	3.99
332.043	3.42
332.415	3.95
332.787	3.9
333.159	3.79
333.532	4.19
333.904	3.74
334.276	4.19
334.648	3.76
335.02	4.3
335.391	4.23
335.763	3.91
336.135	3.52
336.507	4.31
336.879	4.55
337.25	3.35
337.622	4.6
337.993	4.47
338.365	4.21
338.736	4.63
339.108	4.37
339.479	4.45
339.851	4.1
340.222	4.09
340.593	4.24
340.964	4.17
341.336	3.99
341.707	4.06
342.078	4.2
342.449	4.09
342.82	3.82
343.191	4
343.562	4.28
343.933	4.17
344.303	4.24
344.674	3.64
345.045	4.37
345.416	3.94
345.786	4.55
346.157	4.34
346.527	4.22
346.898	3.7
347.268	4.1
347.639	4.06
348.009	4.06
348.38	4.33
348.75	3.71
349.12	3.86
349.49	4.36
349.861	4.58
350.231	3.79
350.601	3.52
350.971	4.09
351.341	4.64
351.711	4.34
352.081	4.03
352.45	4.26
352.82	4.63
353.19	3.7
353.56	4.18
353.929	4.3
354.299	4.28
354.669	4.16
355.038	3.93
355.408	4.38
355.777	4.54
356.147	4.22
356.516	4.6
356.885	4.3
357.254	4.11
357.624	4.13
357.993	4
358.362	3.88
358.731	4.35
359.1	4.27
359.469	4.02
359.838	4.36
360.207	4.28
360.576	4.16
360.945	4.38
361.314	4.36
361.682	3.95
362.051	4.4
362.42	4.36
362.788	4.36
363.157	4.12
363.525	4.13
363.894	4.3
364.262	4.18
364.631	4.29
364.999	4.35
365.367	4.26
365.735	4.46
366.104	4.44
366.472	4.51
366.84	4.24
367.208	4.45
367.576	4.19
367.944	4.05
368.312	4.05
368.68	4.42
369.048	4.5
369.416	4.35
369.783	4.19
370.151	4.19
370.519	4.41
370.886	4.34
371.254	4.35
371.621	4.53
371.989	3.98
372.356	4.28
372.724	4.4
373.091	4.34
373.458	4.24
373.826	4.11
374.193	4.69
374.56	4.02
374.927	4.14
375.294	4.34
375.661	4.23
376.028	4.6
376.395	3.83
376.762	4.82
377.129	4.13
377.496	4.26
377.863	4.29
378.229	4.46
378.596	4.32
378.963	4.43
379.329	4.25
379.696	4.54
380.062	4.57
380.429	4.2
380.795	4.63
381.161	4.4
381.528	4.33
381.894	4.32
382.26	4.46
382.626	4.12
382.993	4.08
383.359	4.35
383.725	4.6
384.091	4.52
384.457	4.01
384.823	4.25
385.188	4.27
385.554	4.3
385.92	4.24
386.286	4.35
386.651	4.44
387.017	4.36
387.383	4.17
387.748	4.28
388.114	4.14
388.479	4.45
388.845	4.27
389.21	4.54
389.575	4.29
389.94	4.71
390.306	4.38
390.671	4.36
391.036	4.34
391.401	4.52
391.766	4.5
392.131	4.73
392.496	4.35
392.861	4.26
393.226	4.45
393.591	4.38
393.956	4.4
394.32	4.54
394.685	4.4
395.05	4.71
395.414	4.17
395.779	4.37
396.143	4.55
396.508	4.39
396.872	4.47
397.236	4.49
397.601	4.35
397.965	4.24
398.329	4.19
398.694	4.55
399.058	4.61
399.422	4.44
399.786	4.49
400.15	4.52
400.514	4.43
400.878	4.71
401.242	4.49
401.605	4.5
401.969	4.51
402.333	4.64
402.697	4.41
403.06	4.74
403.424	4.41
403.787	4.41
404.151	4.82
404.514	4.39
404.878	4.29
405.241	4.51
405.604	4.47
405.968	4.59
406.331	4.44
406.694	4.4
407.057	4.56
407.42	4.38
407.783	4.53
408.146	4.91
408.509	4.67
408.872	4.41
409.235	4.78
409.598	4.45
409.961	4.5
410.323	4.57
410.686	4.69
411.049	4.53
411.411	4.47
411.774	4.56
412.136	4.47
412.499	4.68
412.861	4.53
413.223	4.63
413.586	4.89
413.948	4.47
414.31	4.84
414.672	4.22
415.035	4.88
415.397	4.46
415.759	4.66
416.121	4.5
416.483	4.56
416.845	4.71
417.206	4.79
417.568	4.69
417.93	4.85
418.292	4.62
418.653	4.41
419.015	4.51
419.377	4.51
419.738	4.41
420.1	4.64
420.461	4.52
420.822	4.4
421.184	4.64
421.545	4.45
421.906	4.59
422.267	4.55
422.629	4.48
422.99	4.42
423.351	4.46
423.712	4.4
424.073	4.6
424.434	4.59
424.795	4.61
425.155	4.6
425.516	4.65
425.877	4.44
426.238	4.66
426.598	4.5
426.959	4.59
427.32	4.49
427.68	4.68
428.041	4.53
428.401	4.58
428.761	4.75
429.122	4.8
429.482	4.6
429.842	4.64
430.202	4.63
430.563	4.8
430.923	4.8
431.283	4.86
431.643	4.68
432.003	4.63
432.363	4.86
432.722	4.76
433.082	4.79
433.442	4.85
433.802	4.63
434.161	4.65
434.521	4.71
434.881	4.61
435.24	4.71
435.6	4.8
435.959	4.72
436.319	4.8
436.678	4.7
437.037	4.6
437.396	4.65
437.756	4.82
438.115	4.59
438.474	4.75
438.833	4.7
439.192	4.5
439.551	4.63
439.91	4.71
440.269	4.72
440.628	4.66
440.987	4.69
441.345	4.6
441.704	4.7
442.063	4.8
442.421	4.65
442.78	4.64
443.138	4.66
443.497	4.72
443.855	4.74
444.214	4.64
444.572	4.88
444.93	4.72
445.288	4.8
445.647	4.67
446.005	4.59
446.363	4.65
446.721	4.72
447.079	4.64
447.437	4.7
447.795	4.49
448.153	4.7
448.51	4.64
448.868	4.67
449.226	4.66
449.584	4.68
449.941	4.61
450.299	4.77
450.656	4.77
451.014	4.77
451.371	4.75
451.729	4.77
452.086	4.8
452.443	4.89
452.801	4.74
453.158	4.7
453.515	4.67
453.872	4.67
454.229	4.63
454.586	4.63
454.943	4.68
455.3	4.96
455.657	4.61
456.014	4.85
456.371	4.61
456.727	4.67
457.084	4.89
457.441	4.78
457.797	4.92
458.154	4.72
458.51	4.79
458.867	4.62
459.223	4.77
459.58	4.77
459.936	4.71
460.292	4.77
460.648	4.64
461.005	4.64
461.361	4.54
461.717	4.61
462.073	4.72
462.429	4.8
462.785	4.88
463.141	4.83
463.496	4.82
463.852	4.78
464.208	4.84
464.564	4.93
464.919	4.76
465.275	4.83
465.631	4.84
465.986	4.77
466.342	4.79
466.697	4.93
467.052	4.78
467.408	4.9
467.763	4.9
468.118	4.81
468.473	4.95
468.829	4.78
469.184	4.79
469.539	4.85
469.894	4.92
470.249	4.82
470.603	4.88
470.958	4.73
471.313	4.94
471.668	4.91
472.023	4.86
472.377	4.95
472.732	4.79
473.086	4.85
473.441	4.72
473.795	5.01
474.15	4.95
474.504	4.78
474.859	4.81
475.213	4.88
475.567	4.7
475.921	4.95
476.275	4.95
476.63	5.03
476.984	4.87
477.338	4.85
477.692	4.68
478.045	4.79
478.399	4.86
478.753	4.77
479.107	4.84
479.461	4.76
479.814	4.72
480.168	4.8
480.521	4.76
480.875	4.91
481.228	4.82
481.582	4.93
481.935	4.85
482.289	4.91
482.642	4.85
482.995	4.84
483.348	4.84
483.701	4.8
484.055	4.77
484.408	4.75
484.761	4.62
485.114	4.46
485.466	4.45
485.819	4.49
486.172	4.58
486.525	4.69
486.878	4.74
487.23	4.76
487.583	4.74
487.936	4.75
488.288	4.73
488.641	4.65
488.993	4.62
489.345	4.57
489.698	4.61
490.05	4.65
490.402	4.68
490.754	4.8
491.107	4.72
491.459	4.86
491.811	4.79
492.163	4.79
492.515	4.67
492.866	4.69
493.218	4.56
493.57	4.6
493.922	4.72
494.274	4.81
494.625	4.82
494.977	4.88
495.328	4.88
495.68	4.93
496.031	4.92
496.383	4.96
496.734	4.86
497.086	4.91
497.437	4.88
497.788	4.96
498.139	4.78
498.49	4.76
498.842	4.8
499.193	4.81
499.544	4.91
499.894	4.85
500.245	4.78
500.596	4.92
500.947	4.92
501.298	4.86
501.648	4.86
501.999	4.88
502.35	4.81
502.7	5.04
503.051	4.95
503.401	4.81
503.752	4.98
504.102	5.02
504.452	4.86
504.803	5.09
505.153	4.92
505.503	5.02
505.853	4.96
506.203	5
506.553	4.74
506.903	4.95
507.253	4.9
507.603	4.95
507.953	4.81
508.303	4.87
508.652	4.76
509.002	4.98
509.352	4.92
509.701	4.94
510.051	4.91
510.4	4.88
510.75	4.91
511.099	4.91
511.449	4.86
511.798	4.9
512.147	4.86
512.496	4.97
512.846	4.91
513.195	4.92
513.544	4.95
513.893	4.87
514.242	4.92
514.591	4.98
514.939	4.97
515.288	5.03
515.637	4.98
515.986	4.97
516.334	4.89
516.683	5.13
517.032	5.01
517.38	5.02
517.729	5.05
518.077	4.91
518.426	4.97
518.774	4.91
519.122	4.91
519.47	4.94
519.819	4.87
520.167	4.83
520.515	4.81
520.863	4.91
521.211	4.94
521.559	4.99
521.907	4.99
522.255	4.88
522.602	4.97
522.95	5.02
523.298	5.01
523.645	5.18
523.993	4.98
524.341	5.14
524.688	5.1
525.036	5.08
525.383	5
525.73	4.93
526.078	4.89
526.425	4.9
526.772	4.9
527.119	4.83
527.466	4.9
527.814	4.92
528.161	4.92
528.508	4.97
528.854	4.98
529.201	4.9
529.548	4.81
529.895	4.76
530.242	4.68
530.588	4.75
530.935	4.82
531.282	4.86
531.628	4.92
531.975	4.97
532.321	5.06
532.667	5.08
533.014	5
533.36	4.95
533.706	4.9
534.052	4.96
534.399	4.82
534.745	4.85
535.091	4.88
535.437	4.86
535.783	4.96
536.129	5
536.474	4.99
536.82	5.01
537.166	4.94
537.512	5.01
537.857	5.03
538.203	4.92
538.549	4.94
538.894	4.91
539.239	5.1
539.585	5.03
539.93	5.04
540.276	5.22
540.621	5.25
540.966	5.05
541.311	5.08
541.656	5.04
542.001	4.87
542.346	4.98
542.691	4.86
543.036	4.82
543.381	4.77
543.726	4.9
544.071	4.94
544.415	5
544.76	5.03
545.105	5.02
545.449	5.07
545.794	5.06
546.138	5.04
546.483	5.14
546.827	5.17
547.171	5.08
547.516	4.97
547.86	5.11
548.204	5.12
548.548	5.05
548.892	4.96
549.236	5.01
549.58	5.18
549.924	5.24
550.268	5.29
550.612	5.16
550.956	5.02
551.3	5.26
551.643	5.31
551.987	5.4
552.33	5.03
552.674	5.12
553.017	5.18
553.361	5.2
553.704	5.26
554.048	5.16
554.391	5.21
554.734	5.2
555.077	5.19
555.42	5.17
555.764	5.23
556.107	5.33
556.45	5.16
556.793	5.26
557.135	5.41
557.478	5.12
557.821	5.17
558.164	5.33
558.507	5.2
558.849	5.19
559.192	5.21
559.534	5.26
559.877	5.19
560.219	5.07
560.562	5.31
560.904	5.2
561.246	5.3
561.589	5.29
561.931	5.49
562.273	5.36
562.615	5.26
562.957	5.08
563.299	5.18
563.641	5.33
563.983	5.5
564.325	5.31
564.667	5.16
565.008	5.29
565.35	5.25
565.692	5.19
566.033	5.24
566.375	5.2
566.716	5.23
567.058	5.27
567.399	5.29
567.741	5.22
568.082	5.31
568.423	5.08
568.764	5.12
569.105	5.24
569.447	5.27
569.788	5.31
570.129	5.3
570.47	5.39
570.811	5.38
571.151	5.41
571.492	5.32
571.833	5.34
572.174	5.43
572.514	5.3
572.855	5.23
573.195	5.26
573.536	5.16
573.876	5.33
574.217	5.29
574.557	5.28
574.898	5.22
575.238	5.34
575.578	5.26
575.918	5.37
576.258	5.24
576.598	5.26
576.938	5.31
577.278	5.33
577.618	5.27
577.958	5.28
578.298	5.16
578.638	5.22
578.977	5.35
579.317	5.45
579.657	5.39
579.996	5.28
580.336	5.56
580.675	5.25
581.014	5.44
581.354	5.2
581.693	5.2
582.032	5.4
582.372	5.39
582.711	5.48
583.05	5.57
583.389	5.34
583.728	5.42
584.067	5.42
584.406	5.57
584.745	5.45
585.083	5.45
585.422	5.49
585.761	5.58
586.1	5.25
586.438	5.53
586.777	5.19
587.115	5.43
587.454	5.37
587.792	5.41
588.13	5.44
588.469	5.41
588.807	5.28
589.145	5.41
589.483	5.53
589.821	5.49
590.159	5.18
590.497	5.5
590.835	5.46
591.173	5.61
591.511	5.39
591.849	5.54
592.187	5.4
592.524	5.2
592.862	5.53
593.2	5.36
593.537	5.64
593.875	5.46
594.212	5.51
594.55	5.25
594.887	5.62
595.224	5.29
595.561	5.44
595.899	5.65
596.236	5.23
596.573	5.27
596.91	5.5
597.247	5.39
597.584	5.65
597.921	5.48
598.258	5.44
598.594	5.25
598.931	5.3
599.268	5.39
599.604	5.15
599.941	5.51
600.277	5.36
600.614	5.55
600.95	5.54
601.287	5.39
601.623	5.34
601.959	5.45
602.296	5.54
602.632	5.54
602.968	5.54
603.304	5.35
603.64	5.24
603.976	5.44
604.312	5.38
604.648	5.62
604.984	5.61
605.319	5.59
605.655	5.58
605.991	5.47
606.326	5.57
606.662	5.44
606.998	5.52
607.333	5.53
607.668	5.7
608.004	5.55
608.339	5.43
608.674	5.66
609.01	5.48
609.345	5.72
609.68	5.47
610.015	5.36
610.35	5.45
610.685	5.53
611.02	5.56
611.355	5.66
611.689	5.59
612.024	5.6
612.359	5.59
612.694	5.53
613.028	5.45
613.363	5.3
613.697	5.51
614.032	5.55
614.366	5.4
614.7	5.61
615.035	5.52
615.369	5.66
615.703	5.45
616.037	5.45
616.371	5.6
616.705	5.62
617.039	5.56
617.373	5.35
617.707	5.46
618.041	5.67
618.375	5.81
618.709	5.46
619.042	5.5
619.376	5.63
619.71	5.68
620.043	5.81
620.377	5.61
620.71	5.94
621.043	5.77
621.377	5.71
621.71	5.36
622.043	5.56
622.376	5.56
622.709	5.55
623.043	5.68
623.376	5.54
623.709	5.43
624.041	5.77
624.374	5.76
624.707	5.7
625.04	5.6
625.373	5.55
625.705	5.82
626.038	5.79
626.37	6.38
626.703	5.4
627.035	5.47
627.368	5.83
627.7	5.9
628.032	5.42
628.365	5.49
628.697	5.58
629.029	5.62
629.361	5.69
629.693	5.66
630.025	5.61
630.357	5.9
630.689	5.63
631.021	5.76
631.353	5.51
631.684	5.45
632.016	5.85
632.348	5.99
632.679	5.7
633.011	5.51
633.342	5.53
633.674	5.95
634.005	5.64
634.336	5.98
634.668	5.68
634.999	5.75
635.33	5.72
635.661	5.56
635.992	5.46
636.323	5.7
636.654	5.68
636.985	5.96
637.316	5.93
637.647	5.46
637.977	5.55
638.308	6.03
638.639	5.69
638.969	5.82
639.3	5.9
639.63	5.24
639.961	5.84
640.291	5.84
640.622	5.71
640.952	5.83
641.282	6.15
641.612	5.44
641.943	5.71
642.273	5.72
642.603	6.19
642.933	5.61
643.263	5.51
643.592	5.36
643.922	5.81
644.252	5.51
644.582	5.51
644.911	5.89
645.241	5.62
645.571	6.22
645.9	6.19
646.23	5.65
646.559	5.63
646.888	5.53
647.218	6.24
647.547	6.24
647.876	6.1
648.205	5.99
648.534	5.43
648.863	5.47
649.192	5.68
649.521	5.59
649.85	5.74
650.179	5.78
650.508	5.73
650.837	6.06
651.165	5.44
651.494	6.27
651.822	5.84
652.151	5.71
652.479	6.19
652.808	5.99
653.136	5.91
653.465	5.77
653.793	5.88
654.121	6
654.449	5.7
654.777	6.13
655.105	5.71
655.433	5.72
655.761	5.66
656.089	5.82
656.417	6.11
656.745	6.07
657.073	5.72
657.4	5.83
657.728	6.04
658.056	5.13
658.383	5.75
658.711	5.75
659.038	5.81
659.365	6
659.693	5.65
660.02	5.99
660.347	5.75
660.674	5.41
661.001	5.56
661.329	5.59
661.656	5.82
661.982	5.93
662.309	5.64
662.636	5.9
662.963	6.02
663.29	5.98
663.616	6.09
663.943	5.6
664.27	5.35
664.596	6.14
664.923	5.53
665.249	6.1
665.576	6.37
665.902	5.74
666.228	5.46
666.554	5.83
666.881	5.93
667.207	5.94
667.533	5.77
667.859	5.84
668.185	5.97
668.511	5.86
668.837	5.84
669.162	5.86
669.488	6.32
669.814	5.93
670.139	5.74
670.465	5.73
670.791	5.7
671.116	5.81
671.442	6.18
671.767	5.92
672.092	5.88
672.418	6
672.743	5.7
673.068	6.3
673.393	5.19
673.718	6.24
674.043	5.68
674.368	6.01
674.693	6.57
675.018	6.12
675.343	6.16
675.667	6.07
675.992	5.52
676.317	5.7
676.641	4.91
676.966	5.61
677.29	5.98
677.615	6.09
677.939	5.75
678.264	6.39
678.588	5.32
678.912	5.82
679.236	5.87
679.56	6.5
679.885	5.98
680.209	5.91
680.532	6.52
680.856	6.18
681.18	6.32
681.504	5.37
681.828	5.87
682.152	5.91
682.475	6.02
682.799	5.6
683.122	5.49
683.446	6.47
683.769	6.11
684.093	5.72
684.416	5.94
684.739	5.83
685.062	6.28
685.386	5.67
685.709	5.61
686.032	6.25
686.355	6.2
686.678	5.68
687.001	5.85
687.324	6.25
687.646	6.75
687.969	6.55
688.292	6.21
688.614	6.12
688.937	5.84
689.26	6.19
689.582	5.8
689.904	5.96
690.227	6.36
690.549	5.71
690.871	6.34
691.194	5.94
691.516	5.69
691.838	6.03
692.16	6.39
692.482	5.23
692.804	6.01
693.126	6.54
693.448	6.37
