Data from 815657_forehead_Reflection__5__119.txt Node

Date: Fri Sep 16 15:37:11 CDT 2022
User: ToomeyLab
Spectrometer: FLMS14357
Trigger mode: 0
Integration Time (sec): 1.000000E-2
Scans to average: 100
Electric dark correction enabled: true
Nonlinearity correction enabled: false
Boxcar width: 0
XAxis mode: Wavelengths
Number of Pixels in Spectrum: 2048
>>>>>Begin Spectral Data<<<<<
189.047	9.62
189.435	9.62
189.823	9.62
190.211	3.08
190.599	-0.06
190.987	42.17
191.375	73.44
191.763	187.47
192.151	2080.45
192.538	-3761.54
192.926	33.13
193.314	345.12
193.702	919.2
194.089	227.89
194.477	-274.7
194.864	271.14
195.252	187.63
195.639	-6.95
196.027	315.76
196.414	-6.54
196.801	301.55
197.189	55.83
197.576	-463.36
197.963	203.3
198.351	12.8
198.738	-29.71
199.125	37.48
199.512	-10.73
199.899	29.64
200.286	-6.94
200.673	61.22
201.06	1.3
201.447	29.37
201.833	-3.36
202.22	38.07
202.607	44.21
202.994	56.41
203.38	36.79
203.767	19.94
204.154	4.08
204.54	51.9
204.927	13.31
205.313	19.92
205.699	70.95
206.086	30.54
206.472	39.13
206.858	22.58
207.245	52.22
207.631	12
208.017	27.08
208.403	27.04
208.789	8.56
209.175	39.81
209.561	23.78
209.947	-0.67
210.333	48.78
210.719	12.59
211.105	42.43
211.491	16.23
211.876	41.43
212.262	18.05
212.648	-10.36
213.034	-10.36
213.419	20.39
213.805	25.31
214.19	38.38
214.576	27.7
214.961	-0.66
215.346	-8.51
215.732	-32.06
216.117	30.6
216.502	3.53
216.888	-4.5
217.273	21.61
217.658	24.09
218.043	-18.73
218.428	20.83
218.813	-3.13
219.198	18.5
219.583	0.01
219.968	13.69
220.353	3.07
220.738	25.79
221.122	-23.23
221.507	17.16
221.892	12.02
222.276	32.73
222.661	13.94
223.046	12.56
223.43	11.24
223.815	9.34
224.199	14.41
224.583	5.71
224.968	9.69
225.352	0.8
225.736	17.98
226.121	12
226.505	10.98
226.889	8.35
227.273	9.48
227.657	7.57
228.041	2.84
228.425	1.54
228.809	10.38
229.193	5.53
229.577	5.25
229.961	2.65
230.344	4.74
230.728	3.62
231.112	4.25
231.495	3.29
231.879	5.02
232.263	2.09
232.646	3.61
233.03	3.41
233.413	4.75
233.797	4.84
234.18	5.33
234.563	4.63
234.946	4.37
235.33	4.99
235.713	3.51
236.096	3.05
236.479	4.98
236.862	4.05
237.245	4.16
237.628	6.12
238.011	4.47
238.394	3.82
238.777	5.13
239.16	3.73
239.543	6.78
239.925	3.79
240.308	3.57
240.691	5.99
241.073	5.47
241.456	3.74
241.838	3.74
242.221	3.57
242.603	4.75
242.986	3.27
243.368	4.23
243.75	3.31
244.133	3.83
244.515	3.6
244.897	4.06
245.279	3.78
245.661	3.9
246.043	4.49
246.425	4.21
246.807	4.99
247.189	4.36
247.571	4
247.953	3.54
248.335	3.94
248.717	3.78
249.098	3.97
249.48	3.77
249.862	3.79
250.243	4.47
250.625	4.39
251.006	4.74
251.388	4.92
251.769	3.02
252.151	3.49
252.532	3.24
252.913	4.31
253.295	4.26
253.676	4.55
254.057	3.8
254.438	3.6
254.819	2.66
255.2	3.6
255.581	3.89
255.962	4.49
256.343	4.85
256.724	2.98
257.105	3.94
257.486	3.96
257.867	4.08
258.247	3.99
258.628	4.73
259.009	4.41
259.389	4.48
259.77	3.81
260.15	4.21
260.531	3.85
260.911	3.83
261.292	3.79
261.672	3.78
262.052	3.66
262.432	3.9
262.813	4.19
263.193	3.84
263.573	4.48
263.953	3.87
264.333	3.85
264.713	3.69
265.093	3.57
265.473	3.66
265.853	4.53
266.233	4.43
266.612	4.94
266.992	3.7
267.372	4.6
267.752	3.44
268.131	3.7
268.511	4.52
268.89	4.47
269.27	3.72
269.649	3.76
270.029	4.06
270.408	4.23
270.787	3.91
271.167	3.86
271.546	4.5
271.925	4.2
272.304	4.5
272.683	3.69
273.062	3.94
273.441	3.92
273.82	3.94
274.199	3.75
274.578	3.88
274.957	4.27
275.336	4.18
275.715	4.4
276.093	3.28
276.472	4.01
276.851	3.3
277.229	3.96
277.608	4.22
277.986	3.82
278.365	3.43
278.743	4.69
279.122	3.9
279.5	3.72
279.878	4.04
280.257	3.62
280.635	4.09
281.013	3.81
281.391	4.3
281.769	4.34
282.147	4.02
282.525	3.75
282.903	4.11
283.281	3.41
283.659	4.08
284.037	3.92
284.415	4.13
284.792	4.05
285.17	4.23
285.548	3.5
285.925	3.81
286.303	4.2
286.68	3.85
287.058	3.91
287.435	3.57
287.813	4.49
288.19	3.86
288.567	3.77
288.945	3.73
289.322	4.19
289.699	3.68
290.076	3.99
290.453	4.28
290.83	4.28
291.207	4.28
291.584	3.8
291.961	4.31
292.338	4.16
292.715	3.81
293.092	4.51
293.469	4.47
293.845	4.65
294.222	4.83
294.599	4.3
294.975	3.79
295.352	4.85
295.728	4.32
296.105	4.45
296.481	4.18
296.858	4.32
297.234	4.43
297.61	4.81
297.986	4.57
298.363	4.69
298.739	4.4
299.115	4.79
299.491	4.84
299.867	4.39
300.243	4.58
300.619	4.78
300.995	4.81
301.371	5.05
301.746	4.74
302.122	5.33
302.498	4.84
302.874	4.89
303.249	5.18
303.625	4.89
304	4.88
304.376	4.5
304.751	5.06
305.127	5.21
305.502	5.11
305.878	5.25
306.253	5.34
306.628	4.92
307.003	5.25
307.378	5.85
307.754	5.61
308.129	6.04
308.504	5.72
308.879	5.61
309.254	5.63
309.629	5.04
310.003	5.81
310.378	5.38
310.753	5.18
311.128	5.43
311.502	5.34
311.877	5.54
312.252	5.6
312.626	5.84
313.001	5.67
313.375	5.91
313.75	5.92
314.124	5.73
314.498	5.94
314.873	6.29
315.247	6.61
315.621	5.91
315.995	5.67
316.369	6.22
316.743	7.08
317.117	6.11
317.491	6.35
317.865	6.18
318.239	6.38
318.613	6.57
318.987	6.6
319.361	6.58
319.734	6.93
320.108	6
320.482	7
320.855	6.37
321.229	6.83
321.602	7.21
321.976	7.01
322.349	6.21
322.723	6.91
323.096	6.76
323.469	6.48
323.843	7.65
324.216	7.17
324.589	7.5
324.962	6.94
325.335	7.43
325.708	7.21
326.081	7.3
326.454	7.42
326.827	7.07
327.2	7.67
327.573	6.96
327.945	7.66
328.318	7.4
328.691	7.57
329.063	7.29
329.436	7.48
329.809	7.03
330.181	8.09
330.553	8.02
330.926	7.96
331.298	7.71
331.671	7.55
332.043	7.35
332.415	8.01
332.787	8.24
333.159	7.47
333.532	8.45
333.904	8.5
334.276	7.79
334.648	8.03
335.02	8.37
335.391	8.53
335.763	8.53
336.135	8.16
336.507	8.35
336.879	8.24
337.25	7.96
337.622	8.45
337.993	8.81
338.365	8.51
338.736	8.6
339.108	8.68
339.479	8.61
339.851	8.75
340.222	8.77
340.593	8.81
340.964	9.19
341.336	9.01
341.707	9.03
342.078	9.25
342.449	9.26
342.82	9.26
343.191	8.99
343.562	9.22
343.933	9.48
344.303	9.7
344.674	9.32
345.045	9.77
345.416	9.48
345.786	9.54
346.157	9.49
346.527	9.9
346.898	9.34
347.268	9.73
347.639	9.79
348.009	9.65
348.38	9.89
348.75	9.3
349.12	9.64
349.49	9.9
349.861	10.23
350.231	9.95
350.601	10.08
350.971	10.27
351.341	10.38
351.711	9.88
352.081	10.16
352.45	10.91
352.82	10.69
353.19	10.37
353.56	10.63
353.929	10.31
354.299	10.39
354.669	10.52
355.038	10.46
355.408	10.96
355.777	11
356.147	10.67
356.516	10.85
356.885	11.02
357.254	10.73
357.624	11
357.993	11.06
358.362	11.13
358.731	11.27
359.1	11.02
359.469	11.07
359.838	11.11
360.207	11.5
360.576	11.55
360.945	11.47
361.314	11.4
361.682	11.27
362.051	11.71
362.42	12.24
362.788	11.8
363.157	11.72
363.525	11.56
363.894	11.74
364.262	11.75
364.631	12.09
364.999	11.88
365.367	11.95
365.735	12.12
366.104	12.1
366.472	12.19
366.84	12.27
367.208	12.54
367.576	12.71
367.944	12.23
368.312	12.43
368.68	12.64
369.048	12.62
369.416	12.65
369.783	12.88
370.151	13.02
370.519	12.86
370.886	12.85
371.254	12.58
371.621	13.03
371.989	12.81
372.356	13.33
372.724	13.47
373.091	13
373.458	13.13
373.826	13.45
374.193	13.79
374.56	13.05
374.927	13.56
375.294	13.5
375.661	13.7
376.028	14.12
376.395	13.41
376.762	14.32
377.129	13.64
377.496	13.98
377.863	13.82
378.229	14.39
378.596	13.9
378.963	14.25
379.329	14.42
379.696	14.27
380.062	14.38
380.429	14.49
380.795	14.64
381.161	14.88
381.528	14.81
381.894	14.5
382.26	14.89
382.626	14.85
382.993	14.56
383.359	14.88
383.725	14.72
384.091	15.1
384.457	14.94
384.823	15.29
385.188	15.38
385.554	15.19
385.92	15.47
386.286	15.25
386.651	15.17
387.017	15.1
387.383	15.31
387.748	15.41
388.114	15.23
388.479	15.73
388.845	15.54
389.21	16
389.575	15.87
389.94	16.29
390.306	15.9
390.671	16.02
391.036	16.04
391.401	16.09
391.766	16.23
392.131	16.38
392.496	16.28
392.861	16.42
393.226	16.49
393.591	16.44
393.956	16.41
394.32	16.9
394.685	16.43
395.05	16.64
395.414	16.48
395.779	16.84
396.143	16.98
396.508	16.67
396.872	17.15
397.236	17.05
397.601	16.87
397.965	17.24
398.329	17.2
398.694	17.25
399.058	17.53
399.422	17.27
399.786	17.6
400.15	17.56
400.514	17.68
400.878	17.57
401.242	17.62
401.605	17.71
401.969	17.77
402.333	17.86
402.697	17.81
403.06	17.93
403.424	17.63
403.787	18.17
404.151	18.35
404.514	17.92
404.878	17.93
405.241	18.39
405.604	18.37
405.968	18.42
406.331	18.39
406.694	18.47
407.057	18.54
407.42	18.21
407.783	18.88
408.146	19.01
408.509	18.72
408.872	18.92
409.235	19.09
409.598	19
409.961	19.12
410.323	19.21
410.686	19.42
411.049	19.4
411.411	19.37
411.774	19.45
412.136	19.54
412.499	19.59
412.861	19.47
413.223	19.43
413.586	19.75
413.948	19.79
414.31	19.9
414.672	19.84
415.035	19.96
415.397	19.69
415.759	20.16
416.121	20.04
416.483	20.09
416.845	20.27
417.206	20.34
417.568	20.14
417.93	20.32
418.292	20.27
418.653	20.3
419.015	20.2
419.377	20.27
419.738	20.44
420.1	20.39
420.461	20.46
420.822	20.38
421.184	20.48
421.545	20.52
421.906	20.48
422.267	20.59
422.629	20.46
422.99	20.41
423.351	20.63
423.712	20.78
424.073	20.81
424.434	20.82
424.795	20.9
425.155	21.01
425.516	21.01
425.877	20.98
426.238	21.12
426.598	21.26
426.959	21.24
427.32	21.39
427.68	21.58
428.041	21.62
428.401	21.8
428.761	21.95
429.122	22.1
429.482	22.05
429.842	22.18
430.202	22.37
430.563	22.47
430.923	22.57
431.283	22.8
431.643	22.66
432.003	22.57
432.363	22.83
432.722	22.96
433.082	22.8
433.442	23.07
433.802	22.89
434.161	22.88
434.521	22.94
434.881	22.8
435.24	22.99
435.6	23.02
435.959	23.29
436.319	23.28
436.678	23.22
437.037	23.43
437.396	23.62
437.756	23.62
438.115	23.7
438.474	23.58
438.833	23.73
439.192	23.84
439.551	23.83
439.91	23.75
440.269	24
440.628	24.11
440.987	23.96
441.345	23.95
441.704	24.11
442.063	24
442.421	23.96
442.78	24.15
443.138	24.26
443.497	24.27
443.855	24.53
444.214	24.53
444.572	24.66
444.93	24.78
445.288	24.65
445.647	24.79
446.005	24.74
446.363	25.03
446.721	24.9
447.079	24.78
447.437	24.89
447.795	24.72
448.153	24.95
448.51	24.73
448.868	24.87
449.226	25.12
449.584	25.17
449.941	25.4
450.299	25.57
450.656	25.65
451.014	25.52
451.371	25.95
451.729	25.85
452.086	26.02
452.443	26.28
452.801	26.26
453.158	26.04
453.515	26.31
453.872	26.34
454.229	26.26
454.586	26.38
454.943	26.33
455.3	26.52
455.657	26.56
456.014	26.59
456.371	26.83
456.727	26.91
457.084	27.16
457.441	27.03
457.797	27.02
458.154	27.23
458.51	27.24
458.867	27.1
459.223	27.4
459.58	27.53
459.936	27.45
460.292	27.34
460.648	27.19
461.005	27.26
461.361	26.93
461.717	27.03
462.073	27.21
462.429	27.27
462.785	27.7
463.141	27.7
463.496	27.99
463.852	27.98
464.208	28.03
464.564	28.38
464.919	28.34
465.275	28.48
465.631	28.5
465.986	28.55
466.342	28.64
466.697	28.65
467.052	28.63
467.408	28.88
467.763	28.76
468.118	28.82
468.473	28.94
468.829	29.12
469.184	29.05
469.539	28.99
469.894	29
470.249	29.2
470.603	29.45
470.958	29.24
471.313	29.42
471.668	29.31
472.023	29.53
472.377	29.61
472.732	29.62
473.086	29.78
473.441	29.76
473.795	29.65
474.15	29.85
474.504	30.08
474.859	29.98
475.213	29.97
475.567	30
475.921	30.37
476.275	30.33
476.63	30.49
476.984	30.71
477.338	30.56
477.692	30.6
478.045	30.38
478.399	30.65
478.753	30.68
479.107	30.71
479.461	30.51
479.814	30.52
480.168	30.87
480.521	30.8
480.875	30.79
481.228	30.98
481.582	30.94
481.935	31.09
482.289	31
482.642	31.22
482.995	30.97
483.348	31.05
483.701	31.01
484.055	30.83
484.408	30.76
484.761	30.59
485.114	30.25
485.466	30.16
485.819	30.29
486.172	30.42
486.525	30.54
486.878	30.71
487.23	30.91
487.583	31.11
487.936	31.23
488.288	31.18
488.641	31.07
488.993	30.91
489.345	30.93
489.698	31.03
490.05	31.19
490.402	31.21
490.754	31.61
491.107	31.82
491.459	32.01
491.811	32.17
492.163	32.24
492.515	32.08
492.866	31.81
493.218	31.77
493.57	31.7
493.922	31.86
494.274	32.14
494.625	32.37
494.977	32.51
495.328	32.8
495.68	33.06
496.031	33.22
496.383	33.42
496.734	33.41
497.086	33.43
497.437	33.57
497.788	33.7
498.139	33.55
498.49	33.46
498.842	33.28
499.193	33.7
499.544	33.56
499.894	33.68
500.245	33.98
500.596	34
500.947	34.06
501.298	34.25
501.648	34.38
501.999	34.31
502.35	34.36
502.7	34.69
503.051	34.89
503.401	34.7
503.752	34.81
504.102	34.94
504.452	34.91
504.803	35.03
505.153	35.09
505.503	35.09
505.853	35.21
506.203	35.17
506.553	35.2
506.903	35.35
507.253	35.21
507.603	35.42
507.953	35.52
508.303	35.55
508.652	35.38
509.002	35.59
509.352	35.62
509.701	35.6
510.051	35.69
510.4	35.5
510.75	35.73
511.099	35.7
511.449	35.68
511.798	35.62
512.147	35.73
512.496	35.9
512.846	36.03
513.195	36.1
513.544	36.14
513.893	36.05
514.242	35.94
514.591	36.21
514.939	36.35
515.288	36.68
515.637	36.82
515.986	36.75
516.334	36.67
516.683	36.82
517.032	36.89
517.38	37.1
517.729	37.05
518.077	37.23
518.426	37.25
518.774	37
519.122	36.76
519.47	36.57
519.819	36.64
520.167	36.52
520.515	36.63
520.863	36.69
521.211	36.86
521.559	36.95
521.907	37.12
522.255	37.36
522.602	37.35
522.95	37.6
523.298	37.76
523.645	37.78
523.993	37.84
524.341	38.24
524.688	37.9
525.036	38.18
525.383	38.21
525.73	38.14
526.078	38.08
526.425	37.8
526.772	37.64
527.119	37.58
527.466	37.67
527.814	37.68
528.161	37.83
528.508	37.91
528.854	37.94
529.201	37.95
529.548	37.73
529.895	37.45
530.242	37.43
530.588	37.65
530.935	37.62
531.282	37.69
531.628	37.85
531.975	37.96
532.321	38.25
532.667	38.42
533.014	38.74
533.36	38.64
533.706	38.63
534.052	38.79
534.399	38.77
534.745	38.48
535.091	38.34
535.437	38.4
535.783	38.65
536.129	38.86
536.474	39.07
536.82	39.22
537.166	39.31
537.512	39.42
537.857	39.46
538.203	39.53
538.549	39.2
538.894	39.34
539.239	39.73
539.585	39.83
539.93	39.8
540.276	40.31
540.621	40.36
540.966	40.51
541.311	40.49
541.656	40.45
542.001	40.12
542.346	40.14
542.691	39.74
543.036	39.46
543.381	39.64
543.726	39.63
544.071	39.9
544.415	39.99
544.76	40.19
545.105	40.38
545.449	40.58
545.794	40.57
546.138	40.83
546.483	40.82
546.827	41.08
547.171	41.24
547.516	41.09
547.86	41.3
548.204	41.1
548.548	40.89
548.892	40.99
549.236	41.32
549.58	41.44
549.924	41.87
550.268	41.93
550.612	41.94
550.956	42.4
551.3	42.42
551.643	42.55
551.987	42.58
552.33	42.38
552.674	42.44
553.017	42.67
553.361	42.84
553.704	42.87
554.048	42.56
554.391	42.64
554.734	42.76
555.077	42.8
555.42	42.87
555.764	42.86
556.107	43.04
556.45	43.14
556.793	43.22
557.135	43.49
557.478	43.27
557.821	43.31
558.164	43.62
558.507	43.65
558.849	43.54
559.192	43.69
559.534	43.85
559.877	43.73
560.219	43.94
560.562	44.25
560.904	44.08
561.246	43.95
561.589	43.96
561.931	44.18
562.273	43.96
562.615	44.22
562.957	44.29
563.299	44.2
563.641	44.35
563.983	44.48
564.325	44.29
564.667	44.66
565.008	44.55
565.35	44.74
565.692	44.45
566.033	44.7
566.375	44.59
566.716	44.8
567.058	44.94
567.399	44.51
567.741	44.63
568.082	44.69
568.423	44.66
568.764	44.78
569.105	44.86
569.447	44.84
569.788	45.01
570.129	44.97
570.47	45.17
570.811	45.24
571.151	45.51
571.492	45.45
571.833	45.62
572.174	45.66
572.514	45.35
572.855	45.31
573.195	45.58
573.536	45.31
573.876	45.19
574.217	45.66
574.557	45.43
574.898	45.62
575.238	45.85
575.578	45.82
575.918	45.76
576.258	45.86
576.598	45.88
576.938	45.92
577.278	46.03
577.618	46.14
577.958	46.31
578.298	46.39
578.638	46.14
578.977	46.39
579.317	46.42
579.657	46.68
579.996	46.51
580.336	46.83
580.675	46.75
581.014	47.07
581.354	46.96
581.693	47.01
582.032	47.24
582.372	47.07
582.711	47.48
583.05	47.46
583.389	47.16
583.728	47.27
584.067	47.36
584.406	47.23
584.745	47.62
585.083	47.47
585.422	47.63
585.761	47.79
586.1	47.55
586.438	47.8
586.777	47.57
587.115	47.72
587.454	48.28
587.792	47.76
588.13	48.02
588.469	48.04
588.807	47.76
589.145	48.03
589.483	48.17
589.821	48.52
590.159	48.06
590.497	48.01
590.835	48.41
591.173	48.16
591.511	48.17
591.849	48.42
592.187	48.52
592.524	48.2
592.862	48.27
593.2	48.33
593.537	48.64
593.875	48.77
594.212	48.73
594.55	48.85
594.887	48.59
595.224	48.78
595.561	48.92
595.899	48.67
596.236	48.74
596.573	48.78
596.91	49.04
597.247	49.08
597.584	49.2
597.921	48.81
598.258	48.76
598.594	48.67
598.931	48.76
599.268	48.93
599.604	48.74
599.941	48.92
600.277	49.15
600.614	49.35
600.95	49.5
601.287	49.77
601.623	49.88
601.959	49.78
602.296	49.91
602.632	50
602.968	50.05
603.304	49.63
603.64	49.79
603.976	49.58
604.312	49.78
604.648	50.2
604.984	49.7
605.319	49.77
605.655	49.95
605.991	49.89
606.326	49.62
606.662	49.68
606.998	49.81
607.333	50.11
607.668	50.04
608.004	50.13
608.339	50.12
608.674	50.18
609.01	50.38
609.345	50.61
609.68	50.48
610.015	50.84
610.35	50.75
610.685	50.79
611.02	50.4
611.355	50.64
611.689	50.47
612.024	50.61
612.359	50.57
612.694	50.92
613.028	50.98
613.363	51.06
613.697	50.95
614.032	51.41
614.366	51.06
614.7	51.53
615.035	51.4
615.369	51.34
615.703	51.35
616.037	51.53
616.371	51.64
616.705	51.47
617.039	52.19
617.373	51.94
617.707	52.15
618.041	51.81
618.375	51.54
618.709	52.01
619.042	51.94
619.376	52.16
619.71	52.14
620.043	51.83
620.377	52.01
620.71	51.96
621.043	51.86
621.377	52.25
621.71	52.02
622.043	52.41
622.376	52.35
622.709	52.53
623.043	52.06
623.376	52.53
623.709	52.57
624.041	52.8
624.374	52.31
624.707	52.65
625.04	52.86
625.373	52.9
625.705	52.79
626.038	52.64
626.37	53.03
626.703	52.42
627.035	52.96
627.368	52.86
627.7	53.42
628.032	52.7
628.365	52.71
628.697	52.88
629.029	52.79
629.361	52.8
629.693	53.02
630.025	52.84
630.357	53.31
630.689	52.92
631.021	53.05
631.353	53.39
631.684	53.54
632.016	53.64
632.348	53.91
632.679	53.29
633.011	53.42
633.342	53.46
633.674	53.95
634.005	53.81
634.336	53.91
634.668	53.84
634.999	53.66
635.33	53.52
635.661	54.02
635.992	53.71
636.323	53.87
636.654	54.2
636.985	54.05
637.316	54.13
637.647	53.89
637.977	53.99
638.308	54.17
638.639	54.75
638.969	54.14
639.3	54.2
639.63	54.1
639.961	54.53
640.291	54.55
640.622	54.91
640.952	54.57
641.282	54.87
641.612	54.38
641.943	54.83
642.273	54.76
642.603	54.82
642.933	54.92
643.263	55.04
643.592	55.06
643.922	55.15
644.252	55.16
644.582	55.24
644.911	55.5
645.241	55.1
645.571	55.15
645.9	55.66
646.23	55.37
646.559	55.09
646.888	54.63
647.218	55.56
647.547	55.34
647.876	55.33
648.205	55.65
648.534	55.96
648.863	55.62
649.192	55.45
649.521	55.28
649.85	55.53
650.179	55.42
650.508	55.26
650.837	55.56
651.165	55.75
651.494	55.72
651.822	55.24
652.151	56.06
652.479	56.27
652.808	56
653.136	55.47
653.465	55.84
653.793	55.69
654.121	56.49
654.449	56.13
654.777	56.34
655.105	55.96
655.433	55.93
655.761	55.56
656.089	56.48
656.417	57.09
656.745	56.28
657.073	56.27
657.4	56.28
657.728	56.5
658.056	56.04
658.383	56.34
658.711	56.27
659.038	56.05
659.365	56.54
659.693	56.06
660.02	56.54
660.347	56.61
660.674	56.41
661.001	56.32
661.329	55.66
661.656	56.12
661.982	56.57
662.309	56.44
662.636	56.71
662.963	56.65
663.29	56.74
663.616	56.46
663.943	56.71
664.27	56.48
664.596	57
664.923	57.3
665.249	57.92
665.576	57.51
665.902	57.4
666.228	56.92
666.554	57.53
666.881	57.04
667.207	57.59
667.533	57.6
667.859	56.47
668.185	57.56
668.511	56.78
668.837	57.55
669.162	57.47
669.488	58.01
669.814	56.83
670.139	57.21
670.465	57.31
670.791	57.47
671.116	57.59
671.442	57.19
671.767	57.27
