Data from 815657_chest_Reflection__3__112.txt Node

Date: Fri Sep 16 15:34:32 CDT 2022
User: ToomeyLab
Spectrometer: FLMS14357
Trigger mode: 0
Integration Time (sec): 1.000000E-2
Scans to average: 100
Electric dark correction enabled: true
Nonlinearity correction enabled: false
Boxcar width: 0
XAxis mode: Wavelengths
Number of Pixels in Spectrum: 2048
>>>>>Begin Spectral Data<<<<<
189.047	-8.22
189.435	-8.22
189.823	-8.22
190.211	5.25
190.599	-40.19
190.987	71.86
191.375	66.98
191.763	129.08
192.151	352.26
192.538	7665.38
192.926	-2.08
193.314	374.08
193.702	640.09
194.089	76.45
194.477	-201.55
194.864	127.35
195.252	66.59
195.639	196.83
196.027	-656.4
196.414	27.2
196.801	130.85
197.189	84.07
197.576	1333.97
197.963	205.42
198.351	-17.43
198.738	21.39
199.125	48.21
199.512	-52.32
199.899	13.24
200.286	-39.23
200.673	14.99
201.06	0.52
201.447	25.18
201.833	-2.44
202.22	4.66
202.607	-48.17
202.994	26.8
203.38	-32.89
203.767	-7.43
204.154	30.4
204.54	-0.21
204.927	-41.75
205.313	27.24
205.699	40.59
206.086	6.82
206.472	9.9
206.858	8.72
207.245	1.86
207.631	-0.4
208.017	22.51
208.403	29.84
208.789	-18.99
209.175	0.86
209.561	12.33
209.947	7.63
210.333	23.08
210.719	20
211.105	10.62
211.491	-11.06
211.876	10.71
212.262	-0.06
212.648	11.24
213.034	8.53
213.419	-15.68
213.805	-19.97
214.19	35.88
214.576	34.45
214.961	-1.18
215.346	-9.72
215.732	-70.26
216.117	27.54
216.502	13.75
216.888	-2.8
217.273	18.94
217.658	26.18
218.043	-22.55
218.428	-0.49
218.813	10.81
219.198	18.08
219.583	-14.96
219.968	17.14
220.353	-17.86
220.738	8.58
221.122	-11.05
221.507	12.07
221.892	1.17
222.276	7.87
222.661	8.08
223.046	6.04
223.43	11.05
223.815	-9.64
224.199	12.52
224.583	6.12
224.968	14.6
225.352	-0.21
225.736	7.99
226.121	-0.55
226.505	4.83
226.889	4.17
227.273	3.84
227.657	6.1
228.041	2.33
228.425	-3.13
228.809	6.12
229.193	3.87
229.577	5.74
229.961	2.88
230.344	4.08
230.728	3.69
231.112	3.93
231.495	3.41
231.879	4.13
232.263	2.92
232.646	4.63
233.03	4.11
233.413	3.91
233.797	2.37
234.18	5.41
234.563	2.6
234.946	4.27
235.33	4.82
235.713	2.08
236.096	3.85
236.479	3.11
236.862	2.78
237.245	2.44
237.628	4.6
238.011	4.78
238.394	3.14
238.777	3.94
239.16	3.06
239.543	5.78
239.925	3.7
240.308	3.77
240.691	4.89
241.073	4.49
241.456	3.55
241.838	3.05
242.221	3.47
242.603	3.27
242.986	3.05
243.368	3.25
243.75	3.24
244.133	3.79
244.515	3.43
244.897	3.71
245.279	3.12
245.661	3.39
246.043	3.68
246.425	3.6
246.807	3.52
247.189	3.63
247.571	3.06
247.953	3.02
248.335	3.5
248.717	3.17
249.098	3.46
249.48	3.03
249.862	3.16
250.243	3.27
250.625	3.48
251.006	3.32
251.388	4.23
251.769	2.43
252.151	3.06
252.532	2.67
252.913	3.16
253.295	3.49
253.676	4.21
254.057	3.14
254.438	2.49
254.819	2.51
255.2	2.37
255.581	3.8
255.962	2.6
256.343	3.28
256.724	1.82
257.105	2.08
257.486	3.72
257.867	3.07
258.247	3.34
258.628	3.75
259.009	3.85
259.389	3.19
259.77	3.08
260.15	3.04
260.531	3.16
260.911	2.94
261.292	3.06
261.672	3.07
262.052	2.8
262.432	3.24
262.813	3.37
263.193	3.38
263.573	3.02
263.953	2.83
264.333	3.5
264.713	2.86
265.093	2.88
265.473	3.35
265.853	4.29
266.233	2.83
266.612	3.84
266.992	2.5
267.372	3.45
267.752	2.92
268.131	3.08
268.511	3.37
268.89	3.25
269.27	2.29
269.649	2.95
270.029	2.96
270.408	3.7
270.787	2.97
271.167	3.6
271.546	3.28
271.925	3.24
272.304	2.99
272.683	2.58
273.062	2.74
273.441	3.27
273.82	3.06
274.199	2.98
274.578	2.99
274.957	3.1
275.336	2.63
275.715	3.59
276.093	3.32
276.472	3.13
276.851	3.03
277.229	2.81
277.608	3.1
277.986	3.38
278.365	2.48
278.743	3.33
279.122	2.93
279.5	2.79
279.878	2.93
280.257	3.34
280.635	3.02
281.013	2.52
281.391	3.37
281.769	2.78
282.147	3.06
282.525	2.65
282.903	2.77
283.281	2.86
283.659	3.05
284.037	2.92
284.415	3.05
284.792	3.15
285.17	2.99
285.548	2.69
285.925	2.95
286.303	2.89
286.68	2.71
287.058	2.87
287.435	2.68
287.813	3.28
288.19	2.76
288.567	2.49
288.945	2.86
289.322	2.92
289.699	2.85
290.076	3.12
290.453	2.95
290.83	3.45
291.207	2.72
291.584	2.63
291.961	3
292.338	3.13
292.715	2.78
293.092	2.99
293.469	3.12
293.845	2.97
294.222	3.21
294.599	2.8
294.975	2.41
295.352	3.06
295.728	2.52
296.105	3.33
296.481	2.7
296.858	2.73
297.234	2.71
297.61	3.33
297.986	3.33
298.363	3.14
298.739	2.88
299.115	3.27
299.491	3.2
299.867	2.71
300.243	2.72
300.619	3.16
300.995	2.91
301.371	2.96
301.746	3.01
302.122	3.54
302.498	2.65
302.874	2.69
303.249	3.02
303.625	2.85
304	3.08
304.376	2.69
304.751	2.78
305.127	2.83
305.502	2.93
305.878	2.93
306.253	2.91
306.628	2.87
307.003	3.42
307.378	3.35
307.754	3
308.129	3.78
308.504	3.18
308.879	3.33
309.254	2.98
309.629	2.78
310.003	3
310.378	2.66
310.753	2.73
311.128	3.03
311.502	2.63
311.877	3.19
312.252	3.16
312.626	2.86
313.001	2.99
313.375	3.05
313.75	2.98
314.124	2.88
314.498	2.71
314.873	3.25
315.247	2.94
315.621	2.64
315.995	2.6
316.369	2.9
316.743	3.56
317.117	2.88
317.491	2.58
317.865	3.22
318.239	2.41
318.613	2.74
318.987	2.73
319.361	2.63
319.734	3.22
320.108	2.57
320.482	3.48
320.855	2.92
321.229	2.92
321.602	3.45
321.976	3.08
322.349	2.67
322.723	2.67
323.096	2.77
323.469	2.77
323.843	3.77
324.216	3.36
324.589	2.85
324.962	3.17
325.335	3.19
325.708	3.4
326.081	3.39
326.454	3.3
326.827	3.12
327.2	3.23
327.573	2.87
327.945	2.95
328.318	2.96
328.691	3.35
329.063	2.74
329.436	3.23
329.809	2.72
330.181	3.33
330.553	3.35
330.926	2.91
331.298	3.59
331.671	3.07
332.043	2.73
332.415	3.14
332.787	2.66
333.159	3.31
333.532	3.38
333.904	3.22
334.276	2.63
334.648	3.19
335.02	2.82
335.391	3.51
335.763	2.65
336.135	2.34
336.507	3.38
336.879	3.19
337.25	2.64
337.622	3.18
337.993	3.47
338.365	3.47
338.736	3.66
339.108	3.55
339.479	3.07
339.851	3.24
340.222	3.13
340.593	2.93
340.964	3.08
341.336	2.91
341.707	3.15
342.078	3.27
342.449	3.11
342.82	3.27
343.191	3.04
343.562	3.42
343.933	3.26
344.303	3.59
344.674	2.61
345.045	3.64
345.416	3.33
345.786	3.66
346.157	3.22
346.527	3.06
346.898	3.45
347.268	3.4
347.639	3.15
348.009	3.38
348.38	3.4
348.75	3.28
349.12	3.58
349.49	3.61
349.861	3.21
350.231	3.27
350.601	3.2
350.971	3.19
351.341	3.38
351.711	3.05
352.081	3.03
352.45	3.52
352.82	3.28
353.19	3.06
353.56	3.39
353.929	3.78
354.299	3.5
354.669	3.14
355.038	3.55
355.408	3.33
355.777	3.22
356.147	3.13
356.516	3.63
356.885	3.59
357.254	3.67
357.624	3.25
357.993	3.65
358.362	3.13
358.731	3.47
359.1	3.1
359.469	3.06
359.838	3.61
360.207	3.45
360.576	3.02
360.945	3.27
361.314	2.92
361.682	2.88
362.051	3.57
362.42	3.44
362.788	3.43
363.157	3.37
363.525	3.33
363.894	3.3
364.262	3.24
364.631	3.27
364.999	3.25
365.367	3.33
365.735	3.6
366.104	3.35
366.472	3.54
366.84	3.61
367.208	3.65
367.576	3.16
367.944	3.36
368.312	3.21
368.68	3.42
369.048	3.72
369.416	3.45
369.783	3.41
370.151	3.61
370.519	3.5
370.886	3.39
371.254	3.39
371.621	3.54
371.989	3.26
372.356	3.47
372.724	3.53
373.091	3.26
373.458	3.18
373.826	3.51
374.193	3.82
374.56	3.03
374.927	3.55
375.294	3.56
375.661	3.53
376.028	3.79
376.395	3.14
376.762	3.75
377.129	2.96
377.496	3.48
377.863	3.41
378.229	3.63
378.596	3.41
378.963	3.32
379.329	3.66
379.696	3.65
380.062	3.23
380.429	3.4
380.795	3.67
381.161	3.79
381.528	3.55
381.894	3.9
382.26	3.43
382.626	3.58
382.993	3.53
383.359	3.45
383.725	3.36
384.091	3.77
384.457	3.18
384.823	3.68
385.188	3.43
385.554	3.39
385.92	3.35
386.286	3.61
386.651	3.41
387.017	3.55
387.383	3.31
387.748	3.35
388.114	3.27
388.479	3.57
388.845	3.54
389.21	3.76
389.575	3.51
389.94	3.82
390.306	3.63
390.671	3.5
391.036	3.64
391.401	3.68
391.766	3.6
392.131	3.7
392.496	3.48
392.861	3.57
393.226	3.63
393.591	3.57
393.956	3.6
394.32	3.77
394.685	3.24
395.05	3.93
395.414	3.56
395.779	3.4
396.143	3.72
396.508	3.37
396.872	3.5
397.236	3.65
397.601	3.4
397.965	3.22
398.329	3.37
398.694	3.84
399.058	3.73
399.422	3.71
399.786	3.86
400.15	3.81
400.514	3.64
400.878	3.77
401.242	3.55
401.605	3.63
401.969	3.64
402.333	3.76
402.697	3.5
403.06	3.81
403.424	3.81
403.787	3.6
404.151	3.61
404.514	3.64
404.878	3.43
405.241	3.54
405.604	3.78
405.968	3.87
406.331	3.81
406.694	3.69
407.057	3.67
407.42	3.51
407.783	3.75
408.146	3.7
408.509	3.86
408.872	3.74
409.235	3.75
409.598	3.45
409.961	3.53
410.323	3.9
410.686	3.84
411.049	3.56
411.411	3.48
411.774	3.68
412.136	3.71
412.499	3.72
412.861	3.86
413.223	3.78
413.586	3.7
413.948	3.79
414.31	3.77
414.672	3.73
415.035	3.89
415.397	3.55
415.759	3.8
416.121	3.77
416.483	3.85
416.845	3.8
417.206	3.74
417.568	3.85
417.93	3.87
418.292	3.86
418.653	3.73
419.015	3.53
419.377	3.77
419.738	3.74
420.1	3.8
420.461	3.71
420.822	3.61
421.184	3.71
421.545	3.67
421.906	3.63
422.267	3.66
422.629	3.56
422.99	3.67
423.351	3.74
423.712	3.6
424.073	3.74
424.434	3.75
424.795	3.63
425.155	3.72
425.516	3.75
425.877	3.62
426.238	3.75
426.598	3.77
426.959	3.68
427.32	3.76
427.68	3.8
428.041	3.75
428.401	3.77
428.761	3.97
429.122	3.91
429.482	3.64
429.842	3.72
430.202	4
430.563	4
430.923	3.85
431.283	4.02
431.643	3.96
432.003	3.75
432.363	3.89
432.722	3.95
433.082	3.89
433.442	3.87
433.802	3.81
434.161	3.84
434.521	3.94
434.881	3.79
435.24	3.76
435.6	3.87
435.959	3.98
436.319	3.79
436.678	3.91
437.037	3.7
437.396	3.99
437.756	4.13
438.115	3.95
438.474	4.02
438.833	3.93
439.192	3.85
439.551	3.89
439.91	3.77
440.269	3.94
440.628	3.88
440.987	3.83
441.345	3.76
441.704	3.86
442.063	3.91
442.421	3.82
442.78	3.78
443.138	3.93
443.497	3.93
443.855	3.83
444.214	3.9
444.572	3.84
444.93	3.88
445.288	3.92
445.647	3.97
446.005	3.79
446.363	3.98
446.721	3.9
447.079	3.86
447.437	3.94
447.795	3.9
448.153	3.94
448.51	3.81
448.868	3.91
449.226	3.85
449.584	3.93
449.941	3.82
450.299	3.82
450.656	3.94
451.014	3.92
451.371	3.91
451.729	3.93
452.086	3.91
452.443	3.97
452.801	3.98
453.158	3.96
453.515	3.98
453.872	3.82
454.229	3.81
454.586	3.86
454.943	3.84
455.3	4.09
455.657	3.87
456.014	4.12
456.371	3.97
456.727	4.01
457.084	4.04
457.441	3.96
457.797	4.14
458.154	4.05
458.51	3.99
458.867	4.05
459.223	3.98
459.58	4.04
459.936	4.08
460.292	3.98
460.648	3.97
461.005	4
461.361	3.79
461.717	3.92
462.073	3.95
462.429	3.9
462.785	4.09
463.141	4.09
463.496	4.02
463.852	3.96
464.208	4.11
464.564	4.16
464.919	4.04
465.275	4.08
465.631	4.22
465.986	4.01
466.342	4.2
466.697	4.1
467.052	4.13
467.408	4.18
467.763	4.09
468.118	4.12
468.473	4.13
468.829	4.08
469.184	4
469.539	4.19
469.894	4.05
470.249	4.24
470.603	4.18
470.958	4.04
471.313	4.24
471.668	4.2
472.023	4.12
472.377	4.1
472.732	4.17
473.086	4.16
473.441	4
473.795	4.11
474.15	4.18
474.504	4.32
474.859	4.21
475.213	4.17
475.567	3.92
475.921	4.1
476.275	4.11
476.63	4.23
476.984	4.24
477.338	4.3
477.692	4.12
478.045	4.12
478.399	4.3
478.753	4.12
479.107	4.22
479.461	4.02
479.814	4.05
480.168	4.14
480.521	4.21
480.875	4.17
481.228	4.22
481.582	4.22
481.935	4.14
482.289	4.21
482.642	4.13
482.995	4.11
483.348	4.07
483.701	4.1
484.055	4.03
484.408	4.12
484.761	3.96
485.114	3.91
485.466	3.84
485.819	3.85
486.172	3.87
486.525	3.99
486.878	3.98
487.23	4.03
487.583	4.12
487.936	4.04
488.288	4.05
488.641	4.01
488.993	3.99
489.345	3.96
489.698	3.96
490.05	4
490.402	4.06
490.754	4.17
491.107	4.14
491.459	4.25
491.811	4.09
492.163	4.19
492.515	4.18
492.866	4.09
493.218	3.94
493.57	3.93
493.922	4.11
494.274	4.16
494.625	4.15
494.977	4.19
495.328	4.26
495.68	4.23
496.031	4.26
496.383	4.32
496.734	4.4
497.086	4.27
497.437	4.29
497.788	4.27
498.139	4.25
498.49	4.34
498.842	4.33
499.193	4.26
499.544	4.28
499.894	4.3
500.245	4.32
500.596	4.3
500.947	4.23
501.298	4.3
501.648	4.34
501.999	4.4
502.35	4.38
502.7	4.5
503.051	4.35
503.401	4.37
503.752	4.48
504.102	4.41
504.452	4.48
504.803	4.4
505.153	4.46
505.503	4.48
505.853	4.5
506.203	4.42
506.553	4.36
506.903	4.4
507.253	4.29
507.603	4.49
507.953	4.44
508.303	4.54
508.652	4.38
509.002	4.48
509.352	4.41
509.701	4.45
510.051	4.41
510.4	4.41
510.75	4.31
511.099	4.43
511.449	4.34
511.798	4.41
512.147	4.37
512.496	4.47
512.846	4.41
513.195	4.5
513.544	4.52
513.893	4.51
514.242	4.49
514.591	4.5
514.939	4.62
515.288	4.56
515.637	4.61
515.986	4.49
516.334	4.55
516.683	4.55
517.032	4.63
517.38	4.69
517.729	4.75
518.077	4.55
518.426	4.65
518.774	4.61
519.122	4.68
519.47	4.61
519.819	4.5
520.167	4.5
520.515	4.51
520.863	4.5
521.211	4.56
521.559	4.61
521.907	4.49
522.255	4.53
522.602	4.54
522.95	4.66
523.298	4.69
523.645	4.8
523.993	4.74
524.341	4.71
524.688	4.78
525.036	4.76
525.383	4.83
525.73	4.65
526.078	4.67
526.425	4.63
526.772	4.57
527.119	4.57
527.466	4.68
527.814	4.64
528.161	4.62
528.508	4.64
528.854	4.73
529.201	4.69
529.548	4.57
529.895	4.52
530.242	4.48
530.588	4.52
530.935	4.53
531.282	4.62
531.628	4.64
531.975	4.65
532.321	4.73
532.667	4.82
533.014	4.84
533.36	4.78
533.706	4.75
534.052	4.71
534.399	4.81
534.745	4.69
535.091	4.64
535.437	4.68
535.783	4.71
536.129	4.83
536.474	4.86
536.82	4.82
537.166	4.87
537.512	4.9
537.857	4.91
538.203	4.83
538.549	4.85
538.894	4.78
539.239	4.97
539.585	4.98
539.93	4.92
540.276	5.03
540.621	5.17
540.966	5.11
541.311	5.02
541.656	5.04
542.001	4.94
542.346	5
542.691	4.92
543.036	4.83
543.381	4.8
543.726	4.93
544.071	5.01
544.415	4.94
544.76	4.98
545.105	5.11
545.449	5.04
545.794	5.09
546.138	5.11
546.483	5.2
546.827	5.23
547.171	5.3
547.516	5.08
547.86	5.24
548.204	5.27
548.548	5.09
548.892	5.09
549.236	5.12
549.58	5.33
549.924	5.35
550.268	5.3
550.612	5.43
550.956	5.36
551.3	5.48
551.643	5.46
551.987	5.71
552.33	5.34
552.674	5.41
553.017	5.46
553.361	5.58
553.704	5.59
554.048	5.52
554.391	5.56
554.734	5.56
555.077	5.59
555.42	5.55
555.764	5.61
556.107	5.76
556.45	5.57
556.793	5.73
557.135	5.61
557.478	5.77
557.821	5.5
558.164	5.69
558.507	5.79
558.849	5.64
559.192	5.71
559.534	5.81
559.877	5.48
560.219	5.69
560.562	5.86
560.904	5.78
561.246	5.76
561.589	5.9
561.931	5.77
562.273	5.74
562.615	5.85
562.957	5.94
563.299	5.93
563.641	5.97
563.983	6.14
564.325	5.92
564.667	5.92
565.008	5.98
565.35	5.92
565.692	5.96
566.033	5.9
566.375	5.98
566.716	5.92
567.058	5.98
567.399	6.1
567.741	5.95
568.082	6.14
568.423	5.98
568.764	6.04
569.105	6.12
569.447	6.06
569.788	6.32
570.129	6.35
570.47	6.22
570.811	6.18
571.151	6.28
571.492	6.48
571.833	6.23
572.174	6.32
572.514	6.34
572.855	6.18
573.195	6.35
573.536	6.33
573.876	6.22
574.217	6.28
574.557	6.32
574.898	6.44
575.238	6.43
575.578	6.46
575.918	6.43
576.258	6.56
576.598	6.31
576.938	6.42
577.278	6.5
577.618	6.54
577.958	6.48
578.298	6.57
578.638	6.39
578.977	6.41
579.317	6.63
579.657	6.64
579.996	6.75
580.336	6.85
580.675	6.58
581.014	6.91
581.354	6.82
581.693	6.48
582.032	6.94
582.372	6.91
582.711	6.75
583.05	6.94
583.389	6.95
583.728	6.84
584.067	6.99
584.406	7.24
584.745	7.23
585.083	6.89
585.422	7.08
585.761	7.05
586.1	6.74
586.438	7.24
586.777	6.99
587.115	7.45
587.454	7.42
587.792	7.12
588.13	7.27
588.469	7.32
588.807	7.15
589.145	7.18
589.483	7.28
589.821	7.52
590.159	7.17
590.497	7.41
590.835	7.42
591.173	7.37
591.511	7.41
591.849	7.4
592.187	7.45
592.524	7.3
592.862	7.56
593.2	7.38
593.537	7.47
593.875	7.43
594.212	7.67
594.55	7.34
594.887	7.75
595.224	7.73
595.561	7.68
595.899	7.68
596.236	7.72
596.573	7.53
596.91	7.92
597.247	7.63
597.584	7.83
597.921	7.8
598.258	7.72
598.594	7.59
598.931	7.73
599.268	7.88
599.604	7.62
599.941	7.87
600.277	7.8
600.614	8.05
600.95	7.81
601.287	8
601.623	8.03
601.959	8.19
602.296	8.02
602.632	8.02
602.968	8.13
603.304	8.27
603.64	8.07
603.976	8.38
604.312	8.28
604.648	8.29
604.984	8.19
605.319	8.37
605.655	8.42
605.991	8.29
606.326	8.18
606.662	8.25
606.998	8.17
607.333	8.49
607.668	8.33
608.004	8.45
608.339	8.66
608.674	8.64
609.01	8.78
609.345	8.83
609.68	8.53
610.015	8.36
610.35	8.79
610.685	8.74
611.02	8.73
611.355	8.52
611.689	8.66
612.024	8.76
612.359	8.72
612.694	8.5
613.028	8.69
613.363	8.79
613.697	9.03
614.032	8.84
614.366	8.74
614.7	8.86
615.035	9.03
615.369	9.06
615.703	9.19
616.037	8.89
616.371	9.35
616.705	8.88
617.039	9.38
617.373	9.22
617.707	9.05
618.041	9.2
618.375	9.16
618.709	9.22
619.042	9.22
619.376	9.4
619.71	9.56
620.043	9.33
620.377	9.41
620.71	9.54
621.043	9.38
621.377	9.88
621.71	9.26
622.043	9.09
622.376	9.34
622.709	9.51
623.043	9.66
623.376	9.47
623.709	9.25
624.041	9.82
624.374	9.68
624.707	9.77
625.04	9.6
625.373	9.58
625.705	10
626.038	10.29
626.37	10.05
626.703	9.74
627.035	9.78
627.368	10.34
627.7	10.12
628.032	9.64
628.365	9.86
628.697	9.94
629.029	9.87
629.361	9.99
629.693	10.31
630.025	10.19
630.357	10.05
630.689	10.08
631.021	9.82
631.353	10.18
631.684	10.07
632.016	10.32
632.348	10.4
632.679	9.96
633.011	10.16
633.342	10.24
633.674	10.66
634.005	10.65
634.336	10.31
634.668	10.36
634.999	10.2
635.33	10.57
635.661	10.31
635.992	10.45
636.323	10.59
636.654	10.7
636.985	10.62
637.316	10.73
637.647	10.52
637.977	10.62
638.308	10.77
638.639	10.73
638.969	10.78
639.3	10.83
639.63	10.67
639.961	10.84
640.291	10.74
640.622	10.69
640.952	11.32
641.282	11
641.612	10.92
641.943	11.1
642.273	10.81
642.603	11.28
642.933	10.81
643.263	11.07
643.592	10.91
643.922	10.85
644.252	10.92
644.582	11.39
644.911	11.1
645.241	11.07
645.571	11.37
645.9	11.5
646.23	11.47
646.559	11.18
646.888	11.02
647.218	11.56
647.547	11.24
647.876	11.8
648.205	11.37
648.534	11.82
648.863	12.09
649.192	11.68
649.521	11.95
649.85	11.78
650.179	11.38
650.508	11.38
650.837	11.78
651.165	11.6
651.494	11.96
651.822	11.4
652.151	11.49
652.479	11.93
652.808	11.92
653.136	12.19
653.465	12.48
653.793	11.67
654.121	12.25
654.449	12.34
654.777	12.15
655.105	11.88
655.433	12.11
655.761	12.39
656.089	11.92
656.417	12.57
656.745	12.28
657.073	12.26
657.4	12.02
657.728	12.56
658.056	11.85
658.383	12.18
658.711	12.11
659.038	12.45
659.365	12.45
659.693	12.77
660.02	12.43
660.347	12.22
660.674	12.37
661.001	12.67
661.329	12.35
661.656	12.38
661.982	12.56
662.309	12.6
662.636	12.6
662.963	12.66
663.29	12.91
663.616	12.85
663.943	12.74
664.27	12.82
664.596	12.83
664.923	12.57
665.249	12.73
665.576	12.69
665.902	12.9
666.228	12.56
666.554	13.57
666.881	13.07
667.207	12.61
667.533	13.55
667.859	13.33
668.185	13.02
668.511	13.29
668.837	12.88
669.162	13.69
669.488	13.86
669.814	13.13
670.139	12.94
670.465	13.73
670.791	13.54
671.116	13.2
671.442	13.6
671.767	12.98
672.092	12.98
672.418	13.21
672.743	13.59
673.068	14.17
673.393	13.03
673.718	13.69
674.043	14.12
674.368	13.49
674.693	14.34
675.018	14.03
675.343	14.09
675.667	13.23
675.992	13.65
676.317	13.69
676.641	13.4
676.966	13.63
677.29	13.89
677.615	13.93
677.939	13.93
678.264	14.07
678.588	13.6
678.912	13.62
679.236	14.2
679.56	14.57
679.885	14.06
680.209	13.55
680.532	14.82
680.856	14.09
681.18	14.17
681.504	14.12
681.828	14.21
682.152	13.85
682.475	14.28
682.799	14.05
683.122	14.02
683.446	14.04
683.769	14.34
684.093	14.29
684.416	14.35
684.739	14.01
685.062	15.16
685.386	14.36
685.709	14.62
686.032	14.63
686.355	13.89
686.678	15.44
687.001	14.64
687.324	14.84
687.646	15.1
687.969	15.14
688.292	14.84
688.614	15.14
