Data from 815657_forehead_Reflection__4__118.txt Node

Date: Fri Sep 16 15:36:56 CDT 2022
User: ToomeyLab
Spectrometer: FLMS14357
Trigger mode: 0
Integration Time (sec): 1.000000E-2
Scans to average: 100
Electric dark correction enabled: true
Nonlinearity correction enabled: false
Boxcar width: 0
XAxis mode: Wavelengths
Number of Pixels in Spectrum: 2048
>>>>>Begin Spectral Data<<<<<
189.047	103.35
189.435	103.35
189.823	103.35
190.211	-20.91
190.599	155.98
190.987	17.77
191.375	127.77
191.763	117.42
192.151	156.77
192.538	-7750
192.926	42.3
193.314	409.65
193.702	386.22
194.089	134.08
194.477	-150.95
194.864	238.78
195.252	-83.44
195.639	386.56
196.027	-382.51
196.414	89.75
196.801	156.38
197.189	-7.71
197.576	1324.81
197.963	-85.32
198.351	-29.37
198.738	92.04
199.125	6.22
199.512	-63.19
199.899	60.61
200.286	22.11
200.673	53.47
201.06	79.91
201.447	73.52
201.833	29.15
202.22	56.59
202.607	77.29
202.994	66.85
203.38	46.42
203.767	33.35
204.154	58.55
204.54	33.85
204.927	27.15
205.313	46.26
205.699	68.03
206.086	20.55
206.472	79.11
206.858	22.15
207.245	40.14
207.631	32.67
208.017	36.5
208.403	-46.5
208.789	31.37
209.175	44.42
209.561	9.09
209.947	38.6
210.333	27.55
210.719	45.21
211.105	25.43
211.491	22.85
211.876	39.52
212.262	29.38
212.648	25.59
213.034	26.44
213.419	1.45
213.805	55.37
214.19	42.57
214.576	46.96
214.961	25.26
215.346	-11.47
215.732	-37.33
216.117	39.24
216.502	39.03
216.888	15.07
217.273	19.76
217.658	34.25
218.043	-12.29
218.428	12.7
218.813	18.48
219.198	-0.15
219.583	14.62
219.968	21.83
220.353	10.03
220.738	27.96
221.122	1.81
221.507	22.64
221.892	25.83
222.276	15.7
222.661	27.09
223.046	25.9
223.43	17.4
223.815	11.4
224.199	11.39
224.583	16.25
224.968	12.89
225.352	8.94
225.736	20.54
226.121	7.01
226.505	6.37
226.889	10.73
227.273	8.63
227.657	5.83
228.041	6.14
228.425	0.6
228.809	12.3
229.193	6.95
229.577	7.01
229.961	5.46
230.344	4.34
230.728	5.86
231.112	5.75
231.495	4.77
231.879	6.66
232.263	5.15
232.646	6.75
233.03	6.99
233.413	7.02
233.797	5.69
234.18	9.31
234.563	5.25
234.946	5.73
235.33	6.49
235.713	5.53
236.096	5.28
236.479	5.77
236.862	5.38
237.245	5.79
237.628	7.94
238.011	6.35
238.394	5.74
238.777	7.21
239.16	6.46
239.543	5.31
239.925	7.03
240.308	5.78
240.691	7.93
241.073	6.13
241.456	4.22
241.838	5.71
242.221	5.3
242.603	5.46
242.986	4.46
243.368	5.81
243.75	5.31
244.133	5.7
244.515	5.32
244.897	6
245.279	5.94
245.661	6.27
246.043	5.16
246.425	5.59
246.807	6.23
247.189	6.43
247.571	5.4
247.953	5.01
248.335	5.57
248.717	5.28
249.098	5.3
249.48	5.25
249.862	5.32
250.243	5.44
250.625	6.04
251.006	5.91
251.388	5.94
251.769	4.94
252.151	5.71
252.532	5.46
252.913	5.74
253.295	5.61
253.676	5.52
254.057	4.98
254.438	4.94
254.819	4.85
255.2	5.23
255.581	5.87
255.962	5.2
256.343	6.36
256.724	5.08
257.105	5.05
257.486	5.32
257.867	5.74
258.247	6.3
258.628	5.47
259.009	5.3
259.389	5.91
259.77	5.2
260.15	5.28
260.531	4.93
260.911	5.26
261.292	4.86
261.672	5.07
262.052	4.87
262.432	5.3
262.813	5.4
263.193	4.99
263.573	5.9
263.953	5.77
264.333	5.21
264.713	5.35
265.093	5.58
265.473	4.93
265.853	5.81
266.233	5.59
266.612	6.55
266.992	5.51
267.372	5.4
267.752	5.48
268.131	5.35
268.511	5.86
268.89	5.83
269.27	4.9
269.649	5.56
270.029	5.52
270.408	5.82
270.787	5.19
271.167	5.22
271.546	5.56
271.925	5.38
272.304	4.96
272.683	4.88
273.062	5.1
273.441	5.37
273.82	5.31
274.199	5.62
274.578	5.32
274.957	5.21
275.336	5.17
275.715	5.74
276.093	5.39
276.472	4.73
276.851	4.56
277.229	4.77
277.608	5.51
277.986	5.23
278.365	4.47
278.743	5.56
279.122	5.06
279.5	4.67
279.878	5.62
280.257	5.15
280.635	5.7
281.013	5.42
281.391	5.4
281.769	5.56
282.147	5.46
282.525	4.8
282.903	5.28
283.281	5.04
283.659	5.81
284.037	5.43
284.415	5.58
284.792	5.92
285.17	5.61
285.548	5.12
285.925	5.03
286.303	5.26
286.68	5.28
287.058	4.93
287.435	5.06
287.813	5.39
288.19	5
288.567	5.15
288.945	5.15
289.322	5.45
289.699	5.41
290.076	5.24
290.453	5.5
290.83	5.36
291.207	5.44
291.584	5.05
291.961	5.52
292.338	5.54
292.715	5.08
293.092	5.82
293.469	5.55
293.845	5.77
294.222	6.09
294.599	5.48
294.975	5.28
295.352	6.2
295.728	5.89
296.105	6.2
296.481	5.85
296.858	5.7
297.234	5.98
297.61	6.09
297.986	5.97
298.363	6.11
298.739	5.69
299.115	6.1
299.491	6.09
299.867	5.79
300.243	5.73
300.619	6.03
300.995	5.85
301.371	6.55
301.746	6.15
302.122	6.45
302.498	5.83
302.874	6.13
303.249	6.54
303.625	6.1
304	6.29
304.376	6.07
304.751	6.88
305.127	6.36
305.502	6.74
305.878	6.59
306.253	6.46
306.628	6.35
307.003	6.67
307.378	7.25
307.754	6.83
308.129	7.26
308.504	6.86
308.879	7.2
309.254	6.96
309.629	6.47
310.003	6.9
310.378	7.05
310.753	7.17
311.128	7.27
311.502	6.73
311.877	7.43
312.252	7.33
312.626	6.88
313.001	7.35
313.375	7.63
313.75	7.24
314.124	7.14
314.498	7.29
314.873	7.68
315.247	7.73
315.621	8.25
315.995	8.11
316.369	7.91
316.743	8.03
317.117	7.93
317.491	8.56
317.865	7.71
318.239	8.43
318.613	8.01
318.987	7.41
319.361	7.59
319.734	7.98
320.108	8.67
320.482	8.4
320.855	8.14
321.229	7.82
321.602	8.79
321.976	8.5
322.349	8.6
322.723	8.32
323.096	8.33
323.469	8.42
323.843	9.76
324.216	8.87
324.589	9.1
324.962	8.36
325.335	8.64
325.708	8.74
326.081	9.29
326.454	9.1
326.827	9.09
327.2	8.84
327.573	8.79
327.945	9.16
328.318	8.89
328.691	9.14
329.063	9.21
329.436	8.97
329.809	8.63
330.181	9.63
330.553	9.49
330.926	9.71
331.298	9.81
331.671	9.45
332.043	9.45
332.415	9.03
332.787	8.94
333.159	9.35
333.532	10.17
333.904	9.93
334.276	9.56
334.648	9.7
335.02	10.26
335.391	10.09
335.763	9.72
336.135	9.46
336.507	10.38
336.879	10.34
337.25	10.05
337.622	10.09
337.993	10.77
338.365	10.52
338.736	10.53
339.108	10.28
339.479	10.51
339.851	10.3
340.222	10.33
340.593	10.92
340.964	10.73
341.336	10.45
341.707	10.91
342.078	11.19
342.449	10.82
342.82	10.62
343.191	10.94
343.562	11.07
343.933	10.87
344.303	11.28
344.674	10.69
345.045	11.81
345.416	10.97
345.786	11.5
346.157	11.53
346.527	11.26
346.898	11.25
347.268	11.65
347.639	10.91
348.009	11.3
348.38	11.68
348.75	11.13
349.12	11.45
349.49	11.83
349.861	11.86
350.231	11.64
350.601	11.48
350.971	12.11
351.341	12.18
351.711	11.68
352.081	12.23
352.45	12.18
352.82	12.25
353.19	12.09
353.56	12.3
353.929	12.47
354.299	12.63
354.669	12.37
355.038	12.34
355.408	12.97
355.777	12.61
356.147	12.35
356.516	12.75
356.885	12.74
357.254	13.15
357.624	13.06
357.993	12.67
358.362	12.65
358.731	13.02
359.1	13.04
359.469	13.05
359.838	13.08
360.207	13.23
360.576	13.22
360.945	13.21
361.314	13.17
361.682	12.99
362.051	13.21
362.42	13.56
362.788	13.74
363.157	13.47
363.525	13.3
363.894	13.59
364.262	13.61
364.631	13.78
364.999	13.82
365.367	13.75
365.735	14.17
366.104	14.08
366.472	14.07
366.84	14.27
367.208	14.12
367.576	14.18
367.944	14.38
368.312	14.49
368.68	14.75
369.048	14.57
369.416	14.45
369.783	14.58
370.151	15.12
370.519	14.82
370.886	14.28
371.254	14.91
371.621	15.01
371.989	14.68
372.356	15.34
372.724	15.08
373.091	15.14
373.458	14.73
373.826	15.08
374.193	15.59
374.56	15.33
374.927	15.2
375.294	15.35
375.661	15.54
376.028	15.87
376.395	15.6
376.762	16.09
377.129	15.58
377.496	15.78
377.863	15.94
378.229	16.09
378.596	15.69
378.963	16.21
379.329	15.63
379.696	16.42
380.062	16.27
380.429	16.22
380.795	16.3
381.161	16.88
381.528	16.54
381.894	16.73
382.26	16.47
382.626	16.76
382.993	16.5
383.359	17.02
383.725	16.69
384.091	16.91
384.457	16.9
384.823	16.82
385.188	17.13
385.554	16.97
385.92	17.09
386.286	17.16
386.651	17.42
387.017	17.6
387.383	16.89
387.748	17.3
388.114	17.22
388.479	17.36
388.845	17.47
389.21	17.87
389.575	17.56
389.94	17.85
390.306	17.83
390.671	17.78
391.036	17.65
391.401	17.84
391.766	17.95
392.131	18.07
392.496	17.98
392.861	18.17
393.226	18.46
393.591	18.19
393.956	18.13
394.32	18.53
394.685	18.51
395.05	18.54
395.414	18.57
395.779	18.59
396.143	18.87
396.508	18.78
396.872	18.8
397.236	18.75
397.601	18.91
397.965	18.85
398.329	19.02
398.694	19.16
399.058	19.24
399.422	19.42
399.786	19.49
400.15	19.45
400.514	19.53
400.878	19.58
401.242	19.48
401.605	19.56
401.969	19.73
402.333	19.98
402.697	19.84
403.06	20.05
403.424	19.89
403.787	19.99
404.151	20.03
404.514	19.92
404.878	20.11
405.241	20.25
405.604	20.38
405.968	20.2
406.331	20.17
406.694	20.15
407.057	20.42
407.42	20.17
407.783	20.67
408.146	20.54
408.509	20.68
408.872	20.78
409.235	20.95
409.598	20.78
409.961	21.03
410.323	21.09
410.686	21.4
411.049	21
411.411	21.14
411.774	21.32
412.136	21.11
412.499	21.44
412.861	21.3
413.223	21.41
413.586	21.59
413.948	21.9
414.31	21.9
414.672	21.58
415.035	21.87
415.397	21.71
415.759	21.65
416.121	21.88
416.483	22.09
416.845	21.89
417.206	22.24
417.568	22.04
417.93	22.35
418.292	22.25
418.653	22.03
419.015	22.09
419.377	22.23
419.738	22.2
420.1	22.23
420.461	22.39
420.822	22.33
421.184	22.5
421.545	22.34
421.906	22.49
422.267	22.4
422.629	22.21
422.99	22.37
423.351	22.34
423.712	22.41
424.073	22.58
424.434	22.97
424.795	22.96
425.155	22.91
425.516	22.94
425.877	22.83
426.238	23.02
426.598	23.02
426.959	23.23
427.32	23.19
427.68	23.42
428.041	23.56
428.401	23.55
428.761	24.08
429.122	23.95
429.482	24.17
429.842	24.06
430.202	24.33
430.563	24.06
430.923	24.45
431.283	24.68
431.643	24.53
432.003	24.35
432.363	24.45
432.722	24.69
433.082	24.62
433.442	24.8
433.802	24.86
434.161	24.68
434.521	24.79
434.881	24.67
435.24	24.91
435.6	24.98
435.959	25.05
436.319	25.17
436.678	25.05
437.037	25.07
437.396	25.69
437.756	25.45
438.115	25.6
438.474	25.65
438.833	25.61
439.192	25.49
439.551	25.78
439.91	25.77
440.269	25.81
440.628	25.67
440.987	25.77
441.345	25.92
441.704	25.9
442.063	25.82
442.421	25.88
442.78	25.79
443.138	26.03
443.497	26.08
443.855	26.35
444.214	26.35
444.572	26.69
444.93	26.58
445.288	26.65
445.647	26.64
446.005	26.7
446.363	26.9
446.721	26.6
447.079	26.57
447.437	26.51
447.795	26.39
448.153	26.66
448.51	26.68
448.868	26.79
449.226	26.77
449.584	27.04
449.941	27.18
450.299	27.2
450.656	27.31
451.014	27.44
451.371	27.7
451.729	27.77
452.086	27.76
452.443	27.97
452.801	28.01
453.158	27.82
453.515	27.99
453.872	27.95
454.229	27.99
454.586	28.15
454.943	28.12
455.3	28.4
455.657	28.26
456.014	28.31
456.371	28.55
456.727	28.5
457.084	28.78
457.441	28.66
457.797	28.92
458.154	28.79
458.51	29.07
458.867	28.81
459.223	29.16
459.58	29.2
459.936	29.03
460.292	29.17
460.648	28.75
461.005	28.97
461.361	28.79
461.717	28.8
462.073	28.83
462.429	28.99
462.785	29.31
463.141	29.47
463.496	29.43
463.852	29.62
464.208	29.85
464.564	29.89
464.919	30.14
465.275	30.12
465.631	30.37
465.986	30.31
466.342	30.26
466.697	30.25
467.052	30.24
467.408	30.56
467.763	30.61
468.118	30.47
468.473	30.54
468.829	30.54
469.184	30.41
469.539	30.57
469.894	30.75
470.249	30.92
470.603	31
470.958	30.81
471.313	30.96
471.668	31.04
472.023	31.2
472.377	31.33
472.732	31.22
473.086	31.5
473.441	31.3
473.795	31.5
474.15	31.56
474.504	31.61
474.859	31.6
475.213	31.73
475.567	31.52
475.921	31.86
476.275	32.04
476.63	32.15
476.984	32.19
477.338	32.19
477.692	31.99
478.045	32.07
478.399	32.16
478.753	32.07
479.107	32.34
479.461	32.25
479.814	32.34
480.168	32.27
480.521	32.37
480.875	32.51
481.228	32.44
481.582	32.7
481.935	32.72
482.289	32.75
482.642	32.57
482.995	32.51
483.348	32.58
483.701	32.58
484.055	32.31
484.408	32.42
484.761	32.17
485.114	31.78
485.466	31.82
485.819	31.92
486.172	31.98
486.525	32.06
486.878	32.2
487.23	32.3
487.583	32.62
487.936	32.75
488.288	32.77
488.641	32.6
488.993	32.46
489.345	32.52
489.698	32.62
490.05	32.79
490.402	32.8
490.754	33.08
491.107	33.24
491.459	33.51
491.811	33.68
492.163	33.79
492.515	33.66
492.866	33.49
493.218	33.27
493.57	33.28
493.922	33.34
494.274	33.7
494.625	33.95
494.977	33.97
495.328	34.4
495.68	34.58
496.031	34.8
496.383	34.93
496.734	34.92
497.086	35.13
497.437	34.99
497.788	35.21
498.139	34.94
498.49	34.89
498.842	34.97
499.193	35.05
499.544	35.26
499.894	35.06
500.245	35.18
500.596	35.42
500.947	35.51
501.298	35.67
501.648	35.74
501.999	35.84
502.35	35.84
502.7	36
503.051	36.04
503.401	36.1
503.752	36.32
504.102	36.37
504.452	36.23
504.803	36.49
505.153	36.64
505.503	36.34
505.853	36.38
506.203	36.47
506.553	36.4
506.903	36.69
507.253	36.8
507.603	36.81
507.953	36.68
508.303	36.91
508.652	36.65
509.002	36.93
509.352	36.85
509.701	37.04
510.051	36.96
510.4	36.97
510.75	36.92
511.099	36.87
511.449	36.81
511.798	36.83
512.147	37
512.496	37.17
512.846	37.4
513.195	37.31
513.544	37.61
513.893	37.26
514.242	37.4
514.591	37.63
514.939	37.54
515.288	37.88
515.637	38.06
515.986	37.94
516.334	37.94
516.683	38.28
517.032	38.3
517.38	38.34
517.729	38.2
518.077	38.36
518.426	38.44
518.774	38.35
519.122	38.25
519.47	38.09
519.819	38.01
520.167	37.95
520.515	38.07
520.863	38.19
521.211	38.21
521.559	38.26
521.907	38.31
522.255	38.41
522.602	38.62
522.95	38.94
523.298	38.95
523.645	39.13
523.993	39.24
524.341	39.35
524.688	39.17
525.036	39.46
525.383	39.3
525.73	39.51
526.078	39.25
526.425	39.23
526.772	38.96
527.119	38.99
527.466	39.02
527.814	39.01
528.161	39.1
528.508	39.16
528.854	39.25
529.201	39.28
529.548	38.9
529.895	38.78
530.242	38.83
530.588	38.96
530.935	39.03
531.282	38.94
531.628	39.05
531.975	39.19
532.321	39.42
532.667	39.63
533.014	39.97
533.36	39.7
533.706	40.12
534.052	39.98
534.399	39.92
534.745	39.8
535.091	39.69
535.437	39.7
535.783	39.77
536.129	40.12
536.474	40.33
536.82	40.39
537.166	40.38
537.512	40.54
537.857	40.68
538.203	40.63
538.549	40.51
538.894	40.45
539.239	40.75
539.585	40.92
539.93	41.04
540.276	41.29
540.621	41.42
540.966	41.43
541.311	41.74
541.656	41.65
542.001	41.26
542.346	41.35
542.691	40.96
543.036	40.64
543.381	40.68
543.726	40.92
544.071	40.93
544.415	41.11
544.76	41.28
545.105	41.38
545.449	41.63
545.794	41.69
546.138	41.77
546.483	41.98
546.827	42.22
547.171	42.2
547.516	42.09
547.86	42.28
548.204	42.14
548.548	42
548.892	42.07
549.236	42.44
549.58	42.52
549.924	42.72
550.268	42.81
550.612	42.91
550.956	43.27
551.3	43.21
551.643	43.55
551.987	43.35
552.33	43.44
552.674	43.69
553.017	43.56
553.361	43.7
553.704	43.81
554.048	43.66
554.391	43.6
554.734	43.64
555.077	43.56
555.42	43.94
555.764	43.76
556.107	43.84
556.45	44
556.793	44.22
557.135	44.46
557.478	44.36
557.821	44.35
558.164	44.65
558.507	44.61
558.849	44.44
559.192	44.63
559.534	44.75
559.877	44.72
560.219	44.88
560.562	45
560.904	45.35
561.246	44.9
561.589	45.23
561.931	44.9
562.273	45.03
562.615	45.17
562.957	44.92
563.299	44.81
563.641	45.18
563.983	45.41
564.325	45.12
564.667	45.56
565.008	45.1
565.35	45.5
565.692	45.42
566.033	45.6
566.375	45.35
566.716	45.5
567.058	45.61
567.399	45.45
567.741	45.63
568.082	45.41
568.423	45.47
568.764	45.56
569.105	45.59
569.447	45.73
569.788	46.03
570.129	45.96
570.47	46.07
570.811	46.19
571.151	46.3
571.492	46.26
571.833	46.22
572.174	46.2
572.514	46.16
572.855	46.23
573.195	46.38
573.536	46.16
573.876	46.21
574.217	46.15
574.557	46.21
574.898	46.47
575.238	46.64
575.578	46.39
575.918	46.5
576.258	46.67
576.598	46.67
576.938	46.78
577.278	46.83
577.618	46.86
577.958	46.99
578.298	47
578.638	47.1
578.977	47.09
579.317	47.41
579.657	47.39
579.996	47.27
580.336	47.53
580.675	47.46
581.014	47.54
581.354	47.91
581.693	47.58
582.032	48.04
582.372	47.93
582.711	47.97
583.05	47.91
583.389	47.89
583.728	47.74
584.067	47.84
584.406	48.14
584.745	48.87
585.083	48.12
585.422	48.42
585.761	48.02
586.1	48.02
586.438	48.57
586.777	48.13
587.115	48.91
587.454	48.69
587.792	48.67
588.13	48.72
588.469	48.33
588.807	48.6
589.145	48.86
589.483	48.78
589.821	48.92
590.159	48.93
590.497	48.6
590.835	49.34
591.173	48.64
591.511	48.69
591.849	48.96
592.187	48.86
592.524	48.76
592.862	48.78
593.2	48.93
593.537	49.02
593.875	49.17
594.212	49.1
594.55	48.96
594.887	49.53
595.224	49.38
595.561	49.62
595.899	49.41
596.236	49.03
596.573	49.64
596.91	49.48
597.247	49.58
597.584	49.7
597.921	49.38
598.258	49.4
598.594	49.37
598.931	49.47
599.268	49.22
599.604	49.38
599.941	49.66
600.277	49.49
600.614	49.88
600.95	49.98
601.287	50.23
601.623	50.28
601.959	50.32
602.296	50.53
602.632	50.62
602.968	50.71
603.304	50.47
603.64	50.3
603.976	50.38
604.312	50.48
604.648	50.67
604.984	50.24
605.319	50.57
605.655	50.67
605.991	50.31
606.326	50.34
606.662	50.41
606.998	50.27
607.333	50.31
607.668	50.58
608.004	50.53
608.339	50.67
608.674	50.7
609.01	51.02
609.345	51.17
609.68	51.06
610.015	51.14
610.35	51.14
610.685	51.07
611.02	51.07
611.355	51.23
611.689	50.96
612.024	51.32
612.359	51.05
612.694	51.07
613.028	51.61
613.363	51.33
613.697	51.34
614.032	51.53
614.366	51.81
614.7	51.64
615.035	52.12
615.369	51.54
615.703	51.72
616.037	52.05
616.371	52.07
616.705	52.16
617.039	52.27
617.373	51.85
617.707	52.2
618.041	52.39
618.375	52.36
618.709	52.1
619.042	51.97
619.376	52.79
619.71	52.13
620.043	52
620.377	52.35
620.71	52.63
621.043	52.58
621.377	52.32
621.71	52.1
622.043	52.42
622.376	53.01
622.709	52.42
623.043	52.64
623.376	53.09
623.709	52.86
624.041	52.98
624.374	52.99
624.707	53.22
625.04	53.05
625.373	52.98
625.705	52.97
626.038	53.28
626.37	53.69
626.703	53.36
627.035	52.78
627.368	53.61
627.7	53.86
628.032	53.05
628.365	53.33
628.697	53.27
629.029	53.56
629.361	53.07
629.693	53.25
630.025	53.13
630.357	53.34
630.689	53.6
631.021	53.41
631.353	53.71
631.684	53.3
632.016	53.55
632.348	53.82
632.679	53.35
633.011	53.81
633.342	53.51
633.674	54.01
634.005	53.4
634.336	54.08
634.668	53.95
634.999	54.2
635.33	53.81
635.661	54.28
635.992	53.87
636.323	54.26
636.654	54.48
636.985	54.49
637.316	54.22
637.647	54.2
637.977	54.49
638.308	54.6
638.639	54.74
638.969	54.57
639.3	54.78
639.63	54.31
639.961	54.73
640.291	54.68
640.622	54.59
640.952	54.47
641.282	54.87
641.612	54.9
641.943	54.89
642.273	54.55
642.603	55.28
642.933	54.85
643.263	54.95
643.592	55.43
643.922	55.13
644.252	55.53
644.582	55.41
644.911	56.24
645.241	55.76
645.571	55.63
645.9	55.76
646.23	55.25
646.559	54.81
646.888	55.09
647.218	55.72
647.547	55.33
647.876	55.53
648.205	55.32
648.534	55.26
648.863	55.49
649.192	55.86
649.521	55.99
649.85	55.63
650.179	56.12
650.508	55.81
650.837	55.55
651.165	55.59
651.494	55.24
651.822	56.15
652.151	55.93
652.479	55.65
652.808	56.47
653.136	56.05
653.465	55.74
653.793	55.79
654.121	56.23
654.449	55.88
654.777	56.36
655.105	56.05
655.433	56.14
655.761	56.16
656.089	56.38
656.417	56.65
656.745	56.28
657.073	56.34
657.4	56.51
657.728	56.77
658.056	55.61
658.383	56.31
658.711	56.23
659.038	56.83
659.365	56.56
659.693	56.25
660.02	56.78
660.347	56.43
660.674	56.4
661.001	56.42
661.329	56.62
661.656	56.73
661.982	56.41
662.309	56.07
662.636	56.8
662.963	56.78
663.29	56.81
663.616	56.69
663.943	56.57
664.27	57.01
664.596	57.25
664.923	56.99
665.249	57.91
665.576	57.64
665.902	57.19
666.228	56.73
666.554	57.87
666.881	57.07
667.207	57.55
667.533	58.41
667.859	57.52
668.185	57.71
668.511	57.46
668.837	57.14
669.162	57.85
669.488	57.76
669.814	57.98
670.139	57.1
