Data from 815657_chest_Reflection__0__109.txt Node

Date: Fri Sep 16 15:33:47 CDT 2022
User: ToomeyLab
Spectrometer: FLMS14357
Trigger mode: 0
Integration Time (sec): 1.000000E-2
Scans to average: 100
Electric dark correction enabled: true
Nonlinearity correction enabled: false
Boxcar width: 0
XAxis mode: Wavelengths
Number of Pixels in Spectrum: 2048
>>>>>Begin Spectral Data<<<<<
189.047	70.58
189.435	70.58
189.823	70.58
190.211	-43.99
190.599	-92.07
190.987	70.56
191.375	90.8
191.763	160.23
192.151	-869.55
192.538	-5265.38
192.926	59.43
193.314	675.81
193.702	523.99
194.089	46.88
194.477	-21.84
194.864	117.94
195.252	36.41
195.639	276.89
196.027	-659.85
196.414	130.81
196.801	115.18
197.189	-78.91
197.576	217.18
197.963	-5.73
198.351	-75.82
198.738	-10.82
199.125	29.55
199.512	-13.54
199.899	51.88
200.286	40
200.673	42.78
201.06	40.49
201.447	68.4
201.833	13.64
202.22	45.66
202.607	-60.21
202.994	8.68
203.38	37.9
203.767	26.05
204.154	31.77
204.54	30.12
204.927	-7.82
205.313	13.93
205.699	42.9
206.086	-1.28
206.472	38.93
206.858	1.59
207.245	18.03
207.631	21.1
208.017	19.76
208.403	-33.77
208.789	43.77
209.175	67.74
209.561	4.95
209.947	-12.57
210.333	42.33
210.719	10.1
211.105	6.09
211.491	29.17
211.876	6.51
212.262	34.78
212.648	-15.15
213.034	17.53
213.419	-17.12
213.805	12.92
214.19	4.4
214.576	4.27
214.961	13.59
215.346	-35.15
215.732	-16.11
216.117	16
216.502	-11.09
216.888	2.56
217.273	35.24
217.658	-20.2
218.043	-21.91
218.428	34.55
218.813	-14.34
219.198	12.05
219.583	-7.26
219.968	22.87
220.353	3.63
220.738	27.21
221.122	-26.44
221.507	17.96
221.892	1.96
222.276	12.46
222.661	20.13
223.046	9.11
223.43	9.75
223.815	1.31
224.199	10.22
224.583	12.19
224.968	4.46
225.352	3.31
225.736	13.51
226.121	3.37
226.505	9.44
226.889	9.6
227.273	8.44
227.657	8.1
228.041	5.64
228.425	2.12
228.809	10.94
229.193	4.86
229.577	6.86
229.961	3.98
230.344	6.8
230.728	6.18
231.112	5.51
231.495	5.07
231.879	6.44
232.263	6.95
232.646	5.53
233.03	6.16
233.413	6.94
233.797	3.77
234.18	7.23
234.563	6.64
234.946	5.63
235.33	6.41
235.713	4.75
236.096	4.17
236.479	5.55
236.862	6.64
237.245	6.17
237.628	7.11
238.011	6.16
238.394	6.08
238.777	4.96
239.16	6.37
239.543	6.88
239.925	5.65
240.308	4.73
240.691	6.2
241.073	5.88
241.456	4.59
241.838	5.26
242.221	5.24
242.603	5.29
242.986	4.37
243.368	4.96
243.75	5.17
244.133	5.22
244.515	4.78
244.897	5.44
245.279	5.42
245.661	5.63
246.043	4.46
246.425	4.58
246.807	5.81
247.189	4.49
247.571	4.93
247.953	5.14
248.335	5.16
248.717	5.15
249.098	4.84
249.48	4.65
249.862	4.76
250.243	5.23
250.625	4.94
251.006	5.5
251.388	4.91
251.769	4.8
252.151	5
252.532	4.06
252.913	4.73
253.295	5.04
253.676	5.5
254.057	4.61
254.438	4.21
254.819	4.15
255.2	4.13
255.581	5.28
255.962	4.9
256.343	5.73
256.724	4.94
257.105	4.48
257.486	5.54
257.867	3.6
258.247	5.31
258.628	4.4
259.009	4.73
259.389	4.36
259.77	5.12
260.15	5.2
260.531	4.71
260.911	4.76
261.292	4.64
261.672	4.6
262.052	4.41
262.432	4.39
262.813	4.99
263.193	4.49
263.573	4.98
263.953	4.54
264.333	4.96
264.713	4.21
265.093	4.24
265.473	4.48
265.853	5.48
266.233	4.68
266.612	5.79
266.992	4.3
267.372	4.47
267.752	4.38
268.131	4.14
268.511	5.05
268.89	4.58
269.27	4.1
269.649	4.82
270.029	5.06
270.408	4.87
270.787	4.69
271.167	4.68
271.546	5.07
271.925	4.19
272.304	5.02
272.683	4.27
273.062	4.06
273.441	4.6
273.82	4.45
274.199	4.88
274.578	4.5
274.957	4.66
275.336	4.88
275.715	4.61
276.093	4.5
276.472	4.31
276.851	4.55
277.229	4.47
277.608	4.82
277.986	4.61
278.365	3.59
278.743	4.55
279.122	4.34
279.5	4.42
279.878	4.55
280.257	5
280.635	4.82
281.013	4.52
281.391	4.27
281.769	4.59
282.147	4.63
282.525	4.57
282.903	4.68
283.281	4.3
283.659	4.72
284.037	4.73
284.415	5.02
284.792	4.6
285.17	4.71
285.548	4.56
285.925	4.55
286.303	4.65
286.68	4.4
287.058	4.35
287.435	4.69
287.813	4.61
288.19	4.15
288.567	4.3
288.945	4.27
289.322	4.58
289.699	4.39
290.076	4.11
290.453	4.87
290.83	4.69
291.207	4.72
291.584	4.07
291.961	4.39
292.338	4.46
292.715	4.29
293.092	4.4
293.469	4.42
293.845	4.41
294.222	4.43
294.599	4.68
294.975	4.24
295.352	4.49
295.728	4.34
296.105	4.71
296.481	4.27
296.858	4.5
297.234	4.75
297.61	4.49
297.986	4.81
298.363	4.42
298.739	4.4
299.115	4.5
299.491	4.54
299.867	4.51
300.243	4.61
300.619	4.37
300.995	4.62
301.371	4.56
301.746	4.37
302.122	4.84
302.498	4.84
302.874	4.47
303.249	4.68
303.625	4.34
304	4.41
304.376	4.23
304.751	4.83
305.127	4.65
305.502	5.05
305.878	4.54
306.253	4.56
306.628	4.32
307.003	4.41
307.378	4.97
307.754	4.81
308.129	5.32
308.504	4.84
308.879	5.03
309.254	4.75
309.629	4.14
310.003	4.15
310.378	4.14
310.753	4.37
311.128	4.4
311.502	4.18
311.877	4.8
312.252	5.03
312.626	4.39
313.001	4.59
313.375	4.9
313.75	4.61
314.124	4.41
314.498	4.44
314.873	4.91
315.247	5.19
315.621	4.77
315.995	4.71
316.369	4.87
316.743	4.88
317.117	4.55
317.491	4.23
317.865	4.9
318.239	4.9
318.613	4.39
318.987	4.27
319.361	4.3
319.734	4.86
320.108	4.87
320.482	4.92
320.855	4.8
321.229	4.8
321.602	5.12
321.976	5.21
322.349	4.58
322.723	5.01
323.096	4.91
323.469	5.11
323.843	5.04
324.216	5.2
324.589	4.51
324.962	4.77
325.335	5.57
325.708	4.91
326.081	4.92
326.454	4.87
326.827	4.45
327.2	4.41
327.573	4.4
327.945	5
328.318	4.56
328.691	4.89
329.063	4.43
329.436	4.36
329.809	4.49
330.181	4.36
330.553	4.56
330.926	4.76
331.298	4.79
331.671	4.5
332.043	4.77
332.415	4.62
332.787	4.71
333.159	4.92
333.532	4.94
333.904	4.9
334.276	4.71
334.648	4.99
335.02	4.6
335.391	5.04
335.763	4.59
336.135	4.42
336.507	5.08
336.879	4.74
337.25	4.26
337.622	4.82
337.993	4.61
338.365	4.72
338.736	5.13
339.108	4.57
339.479	4.98
339.851	4.77
340.222	5.12
340.593	4.79
340.964	4.44
341.336	4.84
341.707	4.61
342.078	5.07
342.449	4.5
342.82	4.8
343.191	4.84
343.562	4.55
343.933	4.91
344.303	5.03
344.674	4.25
345.045	5.03
345.416	4.43
345.786	5.01
346.157	4.77
346.527	4.66
346.898	4.7
347.268	4.61
347.639	4.76
348.009	4.76
348.38	4.99
348.75	4.51
349.12	5.11
349.49	5
349.861	4.97
350.231	4.69
350.601	4.88
350.971	5.05
351.341	5.36
351.711	4.66
352.081	4.71
352.45	5.29
352.82	5.21
353.19	4.78
353.56	5.15
353.929	5.17
354.299	5.03
354.669	4.96
355.038	5.03
355.408	5
355.777	4.73
356.147	5.09
356.516	5.29
356.885	4.77
357.254	5.17
357.624	4.89
357.993	4.71
358.362	4.85
358.731	5.22
359.1	5
359.469	4.83
359.838	4.72
360.207	5.2
360.576	5.14
360.945	4.85
361.314	4.56
361.682	4.69
362.051	4.93
362.42	5.05
362.788	5.05
363.157	4.95
363.525	4.89
363.894	4.86
364.262	4.9
364.631	4.96
364.999	4.87
365.367	4.99
365.735	5.15
366.104	5.34
366.472	5.22
366.84	5.24
367.208	5.36
367.576	4.96
367.944	4.89
368.312	4.98
368.68	5.1
369.048	5.5
369.416	4.94
369.783	5.26
370.151	5.23
370.519	5.2
370.886	5.15
371.254	4.78
371.621	5.2
371.989	5.12
372.356	5.27
372.724	5.19
373.091	4.92
373.458	4.87
373.826	4.97
374.193	5.69
374.56	4.98
374.927	5.19
375.294	5.1
375.661	5.02
376.028	5.35
376.395	5.14
376.762	5.53
377.129	5.02
377.496	5.09
377.863	4.97
378.229	5.22
378.596	5.03
378.963	5.28
379.329	5.1
379.696	5.26
380.062	5.06
380.429	5.23
380.795	5.46
381.161	5.27
381.528	5.36
381.894	5.33
382.26	5.33
382.626	5.36
382.993	5.01
383.359	5.09
383.725	5.31
384.091	5.47
384.457	4.88
384.823	4.97
385.188	5.13
385.554	5.27
385.92	5.19
386.286	5.36
386.651	5.21
387.017	5.09
387.383	4.87
387.748	4.94
388.114	4.72
388.479	5.19
388.845	5.17
389.21	5.45
389.575	5.32
389.94	5.33
390.306	5.02
390.671	5.21
391.036	5.38
391.401	5.2
391.766	5.45
392.131	5.21
392.496	4.97
392.861	5.46
393.226	5.37
393.591	5.36
393.956	5.12
394.32	5.45
394.685	5.01
395.05	5.57
395.414	5.25
395.779	5.43
396.143	5.46
396.508	5.19
396.872	5.43
397.236	5.43
397.601	5.17
397.965	5.17
398.329	5.36
398.694	5.33
399.058	5.67
399.422	5.34
399.786	5.44
400.15	5.59
400.514	5.27
400.878	5.36
401.242	5.16
401.605	5.3
401.969	5.17
402.333	5.53
402.697	5.4
403.06	5.59
403.424	5.41
403.787	5.45
404.151	5.21
404.514	5.18
404.878	5.26
405.241	5.31
405.604	5.8
405.968	5.6
406.331	5.49
406.694	5.29
407.057	5.38
407.42	5.18
407.783	5.43
408.146	5.64
408.509	5.51
408.872	5.52
409.235	5.61
409.598	5.2
409.961	5.44
410.323	5.4
410.686	5.59
411.049	5.38
411.411	5.33
411.774	5.47
412.136	5.34
412.499	5.57
412.861	5.53
413.223	5.51
413.586	5.54
413.948	5.47
414.31	5.61
414.672	5.44
415.035	5.6
415.397	5.39
415.759	5.56
416.121	5.63
416.483	5.48
416.845	5.68
417.206	5.52
417.568	5.63
417.93	5.68
418.292	5.6
418.653	5.36
419.015	5.51
419.377	5.48
419.738	5.42
420.1	5.59
420.461	5.5
420.822	5.37
421.184	5.57
421.545	5.46
421.906	5.51
422.267	5.54
422.629	5.3
422.99	5.44
423.351	5.34
423.712	5.33
424.073	5.48
424.434	5.38
424.795	5.52
425.155	5.44
425.516	5.65
425.877	5.37
426.238	5.51
426.598	5.4
426.959	5.39
427.32	5.47
427.68	5.57
428.041	5.43
428.401	5.61
428.761	5.75
429.122	5.73
429.482	5.72
429.842	5.62
430.202	5.69
430.563	5.86
430.923	5.8
431.283	5.87
431.643	5.91
432.003	5.83
432.363	5.78
432.722	5.82
433.082	5.79
433.442	5.78
433.802	5.76
434.161	5.61
434.521	5.72
434.881	5.61
435.24	5.6
435.6	5.71
435.959	5.79
436.319	5.62
436.678	5.72
437.037	5.67
437.396	5.84
437.756	5.78
438.115	5.66
438.474	5.79
438.833	5.68
439.192	5.8
439.551	5.7
439.91	5.84
440.269	5.85
440.628	5.65
440.987	5.7
441.345	5.8
441.704	5.97
442.063	5.77
442.421	5.76
442.78	5.78
443.138	5.82
443.497	5.8
443.855	5.68
444.214	5.75
444.572	5.94
444.93	5.9
445.288	5.76
445.647	5.91
446.005	5.84
446.363	5.8
446.721	5.86
447.079	5.76
447.437	5.77
447.795	5.71
448.153	5.86
448.51	5.76
448.868	5.77
449.226	5.74
449.584	5.81
449.941	5.74
450.299	5.79
450.656	5.82
451.014	5.91
451.371	5.91
451.729	5.89
452.086	5.93
452.443	5.9
452.801	5.91
453.158	6
453.515	6.03
453.872	5.94
454.229	5.98
454.586	5.97
454.943	5.85
455.3	6.02
455.657	5.88
456.014	6.02
456.371	5.86
456.727	5.89
457.084	6.15
457.441	6.03
457.797	6.02
458.154	6.14
458.51	6.15
458.867	5.99
459.223	6
459.58	6.12
459.936	6.04
460.292	6.21
460.648	5.93
461.005	6
461.361	5.87
461.717	5.9
462.073	5.83
462.429	5.97
462.785	5.97
463.141	6.1
463.496	6.03
463.852	5.97
464.208	5.94
464.564	6.17
464.919	6.09
465.275	6.07
465.631	6.27
465.986	6.22
466.342	6.21
466.697	6.23
467.052	6.03
467.408	6.16
467.763	6.24
468.118	6.37
468.473	6.28
468.829	6.1
469.184	6.15
469.539	6.21
469.894	6.14
470.249	6.4
470.603	6.27
470.958	6.15
471.313	6.27
471.668	6.36
472.023	6.15
472.377	6.26
472.732	6.19
473.086	6.21
473.441	6.11
473.795	6.3
474.15	6.13
474.504	6.37
474.859	6.35
475.213	6.32
475.567	6.03
475.921	6.33
476.275	6.29
476.63	6.41
476.984	6.33
477.338	6.43
477.692	6.27
478.045	6.39
478.399	6.43
478.753	6.36
479.107	6.39
479.461	6.29
479.814	6.25
480.168	6.33
480.521	6.41
480.875	6.53
481.228	6.34
481.582	6.46
481.935	6.47
482.289	6.42
482.642	6.39
482.995	6.32
483.348	6.38
483.701	6.33
484.055	6.22
484.408	6.37
484.761	6.16
485.114	6.12
485.466	6.07
485.819	6.03
486.172	5.95
486.525	6
486.878	6.03
487.23	6.13
487.583	6.2
487.936	6.28
488.288	6.29
488.641	6.23
488.993	6.24
489.345	6.14
489.698	6.12
490.05	6.18
490.402	6.16
490.754	6.27
491.107	6.28
491.459	6.36
491.811	6.3
492.163	6.42
492.515	6.38
492.866	6.38
493.218	6.38
493.57	6.25
493.922	6.24
494.274	6.31
494.625	6.39
494.977	6.41
495.328	6.42
495.68	6.52
496.031	6.51
496.383	6.63
496.734	6.64
497.086	6.66
497.437	6.63
497.788	6.73
498.139	6.69
498.49	6.71
498.842	6.64
499.193	6.67
499.544	6.67
499.894	6.55
500.245	6.68
500.596	6.63
500.947	6.85
501.298	6.75
501.648	6.71
501.999	6.7
502.35	6.74
502.7	6.91
503.051	6.97
503.401	6.79
503.752	6.81
504.102	6.86
504.452	6.77
504.803	6.93
505.153	6.94
505.503	6.97
505.853	6.91
506.203	6.96
506.553	6.76
506.903	6.85
507.253	6.93
507.603	6.9
507.953	6.91
508.303	6.95
508.652	6.85
509.002	6.98
509.352	7
509.701	6.96
510.051	7.02
510.4	6.95
510.75	6.93
511.099	6.86
511.449	6.77
511.798	6.86
512.147	6.96
512.496	7.03
512.846	6.99
513.195	6.96
513.544	7.05
513.893	6.99
514.242	7.08
514.591	7.12
514.939	7.14
515.288	7.23
515.637	7.2
515.986	7.1
516.334	7.07
516.683	7.32
517.032	7.15
517.38	7.32
517.729	7.3
518.077	7.27
518.426	7.22
518.774	7.32
519.122	7.34
519.47	7.13
519.819	7.18
520.167	7.11
520.515	7.13
520.863	7.21
521.211	7.07
521.559	7.14
521.907	7.14
522.255	7.19
522.602	7.26
522.95	7.41
523.298	7.36
523.645	7.41
523.993	7.36
524.341	7.42
524.688	7.54
525.036	7.47
525.383	7.54
525.73	7.51
526.078	7.46
526.425	7.45
526.772	7.43
527.119	7.35
527.466	7.37
527.814	7.38
528.161	7.33
528.508	7.36
528.854	7.48
529.201	7.33
529.548	7.35
529.895	7.26
530.242	7.25
530.588	7.26
530.935	7.28
531.282	7.2
531.628	7.26
531.975	7.28
532.321	7.43
532.667	7.55
533.014	7.6
533.36	7.57
533.706	7.6
534.052	7.55
534.399	7.61
534.745	7.54
535.091	7.56
535.437	7.5
535.783	7.55
536.129	7.56
536.474	7.61
536.82	7.72
537.166	7.75
537.512	7.83
537.857	7.82
538.203	7.75
538.549	7.75
538.894	7.7
539.239	7.91
539.585	7.89
539.93	7.85
540.276	8.03
540.621	8.12
540.966	8.1
541.311	8.16
541.656	8.06
542.001	7.94
542.346	8.06
542.691	7.97
543.036	7.83
543.381	7.82
543.726	7.84
544.071	7.89
544.415	7.87
544.76	7.99
545.105	8.1
545.449	8.04
545.794	8.08
546.138	8.2
546.483	8.33
546.827	8.42
547.171	8.33
547.516	8.27
547.86	8.38
548.204	8.48
548.548	8.33
548.892	8.27
549.236	8.34
549.58	8.51
549.924	8.51
550.268	8.51
550.612	8.58
550.956	8.63
551.3	8.8
551.643	8.82
551.987	8.94
552.33	8.68
552.674	8.53
553.017	8.7
553.361	8.84
553.704	8.97
554.048	8.88
554.391	8.89
554.734	8.82
555.077	8.87
555.42	8.88
555.764	8.99
556.107	9.06
556.45	8.95
556.793	9.17
557.135	9.12
557.478	8.87
557.821	8.93
558.164	9.29
558.507	9.17
558.849	8.99
559.192	9.18
559.534	9.33
559.877	9.12
560.219	9.15
560.562	9.2
560.904	9.28
561.246	9.31
561.589	9.5
561.931	9.41
562.273	9.46
562.615	9.48
562.957	9.43
563.299	9.56
563.641	9.45
563.983	9.59
564.325	9.46
564.667	9.5
565.008	9.45
565.35	9.54
565.692	9.48
566.033	9.61
566.375	9.73
566.716	9.65
567.058	9.76
567.399	9.7
567.741	9.71
568.082	9.78
568.423	9.58
568.764	9.72
569.105	9.79
569.447	9.75
569.788	9.86
570.129	9.96
570.47	10
570.811	9.91
571.151	10.17
571.492	9.91
571.833	9.94
572.174	10.09
572.514	10.01
572.855	9.88
573.195	10.21
573.536	10.12
573.876	10.1
574.217	10.11
574.557	10.1
574.898	10.16
575.238	10.26
575.578	10.32
575.918	10.27
576.258	10.23
576.598	10.32
576.938	10.32
577.278	10.46
577.618	10.39
577.958	10.49
578.298	10.46
578.638	10.34
578.977	10.5
579.317	10.75
579.657	10.7
579.996	10.64
580.336	10.78
580.675	10.71
581.014	10.92
581.354	10.72
581.693	10.58
582.032	10.93
582.372	10.98
582.711	11.01
583.05	10.95
583.389	11.02
583.728	11.12
584.067	10.99
584.406	11.08
584.745	11.29
585.083	11.23
585.422	11.5
585.761	11.29
586.1	11.15
586.438	11.66
586.777	11.06
587.115	11.26
587.454	11.45
587.792	11.54
588.13	11.5
588.469	11.2
588.807	11.28
589.145	11.49
589.483	11.69
589.821	11.76
590.159	11.6
590.497	11.5
590.835	11.64
591.173	11.74
591.511	11.66
591.849	11.98
592.187	11.98
592.524	11.55
592.862	11.71
593.2	11.66
593.537	12.01
593.875	11.88
594.212	12.03
594.55	11.79
594.887	12.16
595.224	12.15
595.561	11.99
595.899	12.23
596.236	11.96
596.573	11.84
596.91	12.22
597.247	12.05
597.584	12.3
597.921	12.29
598.258	12.06
598.594	12.11
598.931	12.18
599.268	12.23
599.604	12.15
599.941	12.07
600.277	12.23
600.614	12.34
600.95	12.1
601.287	12.3
601.623	12.64
601.959	12.85
602.296	12.59
602.632	12.83
602.968	12.7
603.304	12.86
603.64	12.47
603.976	12.86
604.312	12.91
604.648	12.91
604.984	12.78
605.319	13.11
605.655	13.15
605.991	12.88
606.326	12.88
606.662	13.1
606.998	12.95
607.333	13
607.668	12.89
608.004	12.88
608.339	12.93
608.674	12.97
609.01	13.18
609.345	13.31
609.68	13.25
610.015	13.33
610.35	13.2
610.685	13.47
611.02	13.42
611.355	13.6
611.689	13.49
612.024	13.49
612.359	13.52
612.694	13.53
613.028	13.52
613.363	13.4
613.697	13.69
614.032	13.74
614.366	13.7
614.7	13.9
615.035	13.77
615.369	13.86
615.703	13.8
616.037	13.98
616.371	14.1
616.705	14.06
617.039	14.18
617.373	14.17
617.707	14.28
618.041	14.34
618.375	14.35
618.709	14.07
619.042	14.21
619.376	14.26
619.71	14.36
620.043	14.15
620.377	14.62
620.71	14.48
621.043	14.59
621.377	14.63
621.71	14.59
622.043	14.59
622.376	14.77
622.709	14.63
623.043	14.71
623.376	14.39
623.709	14.44
624.041	14.84
624.374	14.95
624.707	14.75
625.04	14.84
625.373	14.96
625.705	15.29
626.038	15.36
626.37	15.37
626.703	14.8
627.035	14.91
627.368	15.45
627.7	15.06
628.032	15.1
628.365	15.05
628.697	15.1
629.029	15.21
629.361	15.22
629.693	15.28
630.025	15.44
630.357	15.38
630.689	15.48
631.021	15.3
631.353	15.57
631.684	15.38
632.016	15.48
632.348	15.41
632.679	15.18
633.011	15.39
633.342	15.28
633.674	15.74
634.005	16.01
634.336	15.76
634.668	15.65
634.999	15.72
635.33	15.68
635.661	15.81
635.992	15.87
636.323	15.88
636.654	15.94
636.985	15.99
637.316	15.84
637.647	16.24
637.977	15.87
638.308	16.29
638.639	16.03
638.969	16.16
639.3	16.22
639.63	15.79
639.961	16.14
640.291	16.09
640.622	16.49
640.952	16.71
641.282	16.5
641.612	16.44
641.943	16.59
642.273	16.06
642.603	16.95
642.933	16.51
643.263	16.89
643.592	16.61
643.922	16.3
644.252	17.04
644.582	16.95
644.911	16.61
645.241	16.84
645.571	16.9
645.9	17.51
646.23	16.65
646.559	16.83
646.888	16.89
647.218	17.19
647.547	17.22
647.876	17.32
648.205	17.47
648.534	16.93
648.863	17.24
649.192	16.89
649.521	17.01
649.85	17.36
650.179	17.48
650.508	17.55
650.837	17.7
651.165	17.22
651.494	17.76
651.822	17.29
652.151	17.65
652.479	17.29
652.808	17.86
653.136	17.26
653.465	17.13
653.793	17.63
654.121	18.03
654.449	17.43
654.777	18
655.105	18.13
655.433	17.76
655.761	17.58
656.089	17.63
656.417	17.99
656.745	17.92
657.073	18.17
657.4	17.51
657.728	18.27
658.056	17.85
658.383	18.33
658.711	17.83
659.038	17.81
659.365	18.52
659.693	18.06
660.02	18.86
660.347	18.05
660.674	18.16
661.001	18.14
661.329	17.92
661.656	17.92
661.982	18.41
662.309	18.42
662.636	18.47
662.963	18.44
663.29	19.08
663.616	18.52
663.943	18.91
664.27	18.57
664.596	18.94
664.923	18.6
665.249	18.96
665.576	18.9
665.902	18.96
666.228	18.4
666.554	18.98
666.881	19.6
667.207	19.34
667.533	19.22
667.859	18.68
668.185	19
668.511	19.38
668.837	19.23
669.162	19.4
669.488	19.84
669.814	19.57
670.139	19.22
670.465	19.37
670.791	19.71
671.116	18.9
671.442	19.42
671.767	18.86
672.092	19.22
672.418	19.15
672.743	19.42
673.068	19.65
673.393	19.1
673.718	20.51
674.043	19.31
674.368	19.56
674.693	20.36
675.018	19.78
675.343	19.97
675.667	19.98
675.992	19.62
676.317	20.04
676.641	19.54
676.966	20.16
677.29	19.7
677.615	20.09
677.939	19.44
678.264	20.1
678.588	19.42
678.912	20.25
679.236	19.97
679.56	20.54
679.885	20.11
680.209	19.75
680.532	20.36
680.856	19.92
681.18	20.8
681.504	20.07
681.828	20.3
682.152	20.25
682.475	20.8
682.799	20.51
683.122	20.41
683.446	20.4
683.769	21.12
684.093	20.66
684.416	19.92
684.739	20.55
685.062	20.73
685.386	20.96
