Data from 815657_forehead_Reflection__0__114.txt Node

Date: Fri Sep 16 15:35:40 CDT 2022
User: ToomeyLab
Spectrometer: FLMS14357
Trigger mode: 0
Integration Time (sec): 1.000000E-2
Scans to average: 100
Electric dark correction enabled: true
Nonlinearity correction enabled: false
Boxcar width: 0
XAxis mode: Wavelengths
Number of Pixels in Spectrum: 2048
>>>>>Begin Spectral Data<<<<<
189.047	173.08
189.435	173.08
189.823	173.08
190.211	32.7
190.599	-42.13
190.987	39.41
191.375	99.15
191.763	18.57
192.151	490.98
192.538	-146.15
192.926	26.94
193.314	507.81
193.702	1145.2
194.089	348.69
194.477	-789.74
194.864	-63.53
195.252	-35.17
195.639	-187.61
196.027	-22.17
196.414	-52.52
196.801	58.22
197.189	47.13
197.576	-309.16
197.963	393.88
198.351	11.92
198.738	15.65
199.125	42.8
199.512	-23.66
199.899	70.56
200.286	8.26
200.673	74.8
201.06	39.77
201.447	41.96
201.833	12.33
202.22	15.8
202.607	26.55
202.994	56.71
203.38	1.62
203.767	42.49
204.154	45.06
204.54	32.68
204.927	-9.05
205.313	36.37
205.699	42.63
206.086	63.19
206.472	51.3
206.858	5.04
207.245	46.47
207.631	43.35
208.017	48.75
208.403	-8.81
208.789	25.79
209.175	33.02
209.561	31.31
209.947	39.22
210.333	45.64
210.719	6.02
211.105	38.18
211.491	15.12
211.876	39.21
212.262	19.56
212.648	13.25
213.034	30.29
213.419	3.05
213.805	57.38
214.19	38.78
214.576	9
214.961	6.19
215.346	30.67
215.732	0.83
216.117	26.25
216.502	37.83
216.888	-18.59
217.273	16.62
217.658	34.1
218.043	-49.42
218.428	25.09
218.813	43.59
219.198	15.13
219.583	21.88
219.968	20.24
220.353	10.25
220.738	21.5
221.122	-3.03
221.507	26.42
221.892	5.91
222.276	16.69
222.661	38.33
223.046	30.6
223.43	18.93
223.815	0.25
224.199	19.67
224.583	11.79
224.968	17.88
225.352	22.55
225.736	21.99
226.121	8.77
226.505	9.54
226.889	11.76
227.273	10.32
227.657	11.88
228.041	4.16
228.425	1.17
228.809	11.3
229.193	5.98
229.577	8.12
229.961	4.81
230.344	6.7
230.728	5.87
231.112	5.88
231.495	4.93
231.879	8.56
232.263	7.02
232.646	6.73
233.03	5.29
233.413	7.68
233.797	4.59
234.18	7.87
234.563	5.7
234.946	8.3
235.33	6.39
235.713	6.6
236.096	5.39
236.479	6.48
236.862	7.48
237.245	6.43
237.628	7.95
238.011	7.61
238.394	6.74
238.777	7.49
239.16	6.92
239.543	8.64
239.925	7.21
240.308	6.73
240.691	7.09
241.073	7.13
241.456	6.3
241.838	5.88
242.221	6.87
242.603	6.26
242.986	6.04
243.368	6.1
243.75	6.1
244.133	6.19
244.515	5.96
244.897	6.43
245.279	5.93
245.661	7.17
246.043	6.47
246.425	6.82
246.807	6.65
247.189	6.03
247.571	5.51
247.953	5.94
248.335	6.15
248.717	5.99
249.098	5.99
249.48	5.97
249.862	6.03
250.243	6.44
250.625	6.37
251.006	6.18
251.388	6.64
251.769	5.58
252.151	6.43
252.532	5.65
252.913	6.57
253.295	6.11
253.676	6.83
254.057	5.89
254.438	5.46
254.819	5.7
255.2	5.1
255.581	7.45
255.962	7.15
256.343	6.3
256.724	6.08
257.105	5.96
257.486	6.96
257.867	6.58
258.247	6.32
258.628	6.4
259.009	7.03
259.389	6.3
259.77	6.06
260.15	6.35
260.531	5.93
260.911	6.01
261.292	5.82
261.672	5.84
262.052	5.92
262.432	5.63
262.813	6.68
263.193	5.87
263.573	6.41
263.953	6.36
264.333	6.35
264.713	6.15
265.093	5.83
265.473	5.73
265.853	6.87
266.233	5.67
266.612	6.72
266.992	5.61
267.372	5.95
267.752	6.02
268.131	6.03
268.511	6.09
268.89	6.53
269.27	6.11
269.649	5.95
270.029	6.5
270.408	6.29
270.787	6.05
271.167	6.22
271.546	6.64
271.925	6.77
272.304	6.26
272.683	5.49
273.062	5.89
273.441	6.05
273.82	5.73
274.199	5.86
274.578	5.82
274.957	6.31
275.336	5.84
275.715	6.44
276.093	6.32
276.472	5.59
276.851	5.58
277.229	6.33
277.608	6.08
277.986	6.12
278.365	5.3
278.743	6.21
279.122	6.27
279.5	5.94
279.878	6.35
280.257	6.47
280.635	6.39
281.013	5.36
281.391	6.58
281.769	6.33
282.147	6.55
282.525	5.71
282.903	5.95
283.281	5.86
283.659	6.31
284.037	6.13
284.415	6.79
284.792	6.79
285.17	6.5
285.548	6.04
285.925	5.56
286.303	6.14
286.68	5.54
287.058	6.05
287.435	6.21
287.813	6.09
288.19	5.71
288.567	5.95
288.945	5.86
289.322	6.31
289.699	6.14
290.076	6.33
290.453	6.36
290.83	6.52
291.207	6.09
291.584	6.14
291.961	6.26
292.338	6.64
292.715	6.45
293.092	6.09
293.469	6.45
293.845	6.29
294.222	6.66
294.599	6.38
294.975	6.15
295.352	6.34
295.728	6.49
296.105	6.8
296.481	6.25
296.858	6.63
297.234	6.93
297.61	6.77
297.986	6.63
298.363	6.76
298.739	6.27
299.115	6.96
299.491	6.89
299.867	6.5
300.243	6.78
300.619	6.98
300.995	7.14
301.371	7.3
301.746	7
302.122	7.46
302.498	6.75
302.874	7.17
303.249	7.45
303.625	7.08
304	7.27
304.376	6.68
304.751	7.83
305.127	7.48
305.502	7.49
305.878	7.24
306.253	7.98
306.628	7.3
307.003	7.44
307.378	8.28
307.754	8.38
308.129	8.43
308.504	8.14
308.879	8.02
309.254	8.68
309.629	8.04
310.003	8.19
310.378	7.79
310.753	7.9
311.128	8.51
311.502	8.18
311.877	8.09
312.252	8.38
312.626	8.21
313.001	8.27
313.375	8.56
313.75	8.47
314.124	8.12
314.498	9.07
314.873	9.32
315.247	8.77
315.621	9.09
315.995	8.95
316.369	8.68
316.743	9.18
317.117	8.64
317.491	8.92
317.865	9.37
318.239	9.02
318.613	8.51
318.987	8.77
319.361	8.94
319.734	9.52
320.108	9.05
320.482	9.78
320.855	9.39
321.229	9.06
321.602	10.31
321.976	9.58
322.349	10.17
322.723	9.39
323.096	9.95
323.469	10.04
323.843	10.12
324.216	10.25
324.589	10.04
324.962	9.86
325.335	10.51
325.708	10.08
326.081	10.48
326.454	10.4
326.827	10.06
327.2	10.72
327.573	10
327.945	10.44
328.318	10.22
328.691	10.58
329.063	10.83
329.436	10.19
329.809	9.87
330.181	11.06
330.553	10.82
330.926	11.29
331.298	10.73
331.671	10.87
332.043	10.65
332.415	10.82
332.787	10.7
333.159	11.01
333.532	11.29
333.904	11.21
334.276	11.42
334.648	11.51
335.02	11.64
335.391	11.63
335.763	10.91
336.135	10.8
336.507	11.69
336.879	11.86
337.25	11.19
337.622	11.69
337.993	11.79
338.365	11.98
338.736	12.06
339.108	12.06
339.479	12.21
339.851	11.74
340.222	11.9
340.593	12.37
340.964	12.27
341.336	12.04
341.707	12.44
342.078	12.69
342.449	12.46
342.82	12.34
343.191	12.41
343.562	12.82
343.933	12.33
344.303	13.05
344.674	12.24
345.045	13.44
345.416	12.86
345.786	12.91
346.157	13.12
346.527	12.81
346.898	12.86
347.268	13.28
347.639	12.92
348.009	13.13
348.38	13.43
348.75	12.87
349.12	13.2
349.49	13.46
349.861	13.53
350.231	13.47
350.601	13.88
350.971	13.73
351.341	13.73
351.711	13.72
352.081	14.11
352.45	14.17
352.82	14.4
353.19	14.05
353.56	14.45
353.929	14.34
354.299	13.98
354.669	13.93
355.038	14.08
355.408	14.46
355.777	14.35
356.147	14.45
356.516	14.46
356.885	14.57
357.254	14.88
357.624	14.45
357.993	14.78
358.362	14.59
358.731	14.9
359.1	14.56
359.469	14.56
359.838	14.82
360.207	15.18
360.576	15.12
360.945	14.94
361.314	15.09
361.682	14.98
362.051	15.14
362.42	15.76
362.788	15.58
363.157	15.54
363.525	15.33
363.894	15.53
364.262	15.54
364.631	15.69
364.999	15.87
365.367	15.58
365.735	16.15
366.104	15.92
366.472	16.12
366.84	16.3
367.208	16.28
367.576	16.28
367.944	16.2
368.312	16.35
368.68	16.41
369.048	16.56
369.416	16.94
369.783	16.85
370.151	16.69
370.519	16.78
370.886	17.07
371.254	16.88
371.621	17.26
371.989	16.79
372.356	17.34
372.724	17.28
373.091	17.15
373.458	17.11
373.826	17.54
374.193	17.95
374.56	17.4
374.927	17.42
375.294	17.87
375.661	17.8
376.028	18.18
376.395	17.88
376.762	18.24
377.129	18.16
377.496	18.08
377.863	18.24
378.229	18.6
378.596	18.09
378.963	18.13
379.329	18.02
379.696	18.49
380.062	18.46
380.429	18.62
380.795	18.83
381.161	18.94
381.528	18.73
381.894	18.78
382.26	18.99
382.626	19.32
382.993	19.26
383.359	18.98
383.725	19.14
384.091	19.39
384.457	19.32
384.823	19.48
385.188	19.51
385.554	19.49
385.92	19.59
386.286	19.53
386.651	19.8
387.017	19.35
387.383	19.34
387.748	19.81
388.114	19.87
388.479	19.93
388.845	20.21
389.21	20.19
389.575	20.27
389.94	20.51
390.306	20.46
390.671	20.52
391.036	20.47
391.401	20.73
391.766	20.92
392.131	20.82
392.496	20.57
392.861	20.81
393.226	21.13
393.591	20.61
393.956	21.03
394.32	21.05
394.685	20.97
395.05	21.45
395.414	21.23
395.779	21.42
396.143	21.61
396.508	21.08
396.872	21.51
397.236	21.72
397.601	21.66
397.965	21.86
398.329	21.89
398.694	21.59
399.058	22.01
399.422	21.85
399.786	22.18
400.15	22.29
400.514	22.27
400.878	22.26
401.242	22.38
401.605	22.49
401.969	22.43
402.333	22.5
402.697	22.57
403.06	22.91
403.424	22.74
403.787	22.77
404.151	23.12
404.514	22.7
404.878	22.95
405.241	23.14
405.604	23
405.968	22.89
406.331	23.08
406.694	23.1
407.057	23.21
407.42	23.19
407.783	23.58
408.146	23.5
408.509	23.78
408.872	23.58
409.235	23.91
409.598	24.01
409.961	24.09
410.323	24.09
410.686	24.31
411.049	23.89
411.411	24.27
411.774	24.49
412.136	24.13
412.499	24.46
412.861	24.42
413.223	24.38
413.586	24.73
413.948	24.36
414.31	25.09
414.672	24.64
415.035	25.05
415.397	24.77
415.759	25.11
416.121	25.02
416.483	25.16
416.845	25.2
417.206	25.2
417.568	25.29
417.93	25.27
418.292	25.33
418.653	25.03
419.015	25.32
419.377	25.28
419.738	25.48
420.1	25.36
420.461	25.37
420.822	25.25
421.184	25.53
421.545	25.5
421.906	25.52
422.267	25.63
422.629	25.49
422.99	25.52
423.351	25.64
423.712	25.57
424.073	25.95
424.434	25.84
424.795	25.97
425.155	26.09
425.516	26.12
425.877	26.06
426.238	26.15
426.598	26.26
426.959	26.38
427.32	26.53
427.68	26.66
428.041	26.64
428.401	26.88
428.761	27.23
429.122	27.23
429.482	27.55
429.842	27.54
430.202	27.64
430.563	27.69
430.923	27.78
431.283	28.14
431.643	27.79
432.003	27.79
432.363	28.04
432.722	28.16
433.082	27.99
433.442	28.46
433.802	28.22
434.161	28.5
434.521	28.34
434.881	28.25
435.24	28.13
435.6	28.38
435.959	28.43
436.319	28.67
436.678	28.71
437.037	28.63
437.396	28.87
437.756	29.01
438.115	29.11
438.474	29.16
438.833	29.06
439.192	29.1
439.551	29.25
439.91	29.28
440.269	29.34
440.628	29.22
440.987	29.26
441.345	29.23
441.704	29.48
442.063	29.57
442.421	29.49
442.78	29.43
443.138	29.52
443.497	29.58
443.855	29.7
444.214	29.94
444.572	30.17
444.93	30.22
445.288	30.24
445.647	30.44
446.005	30.21
446.363	30.4
446.721	30.41
447.079	30.65
447.437	30.53
447.795	30.31
448.153	30.42
448.51	30.17
448.868	30.35
449.226	30.47
449.584	30.7
449.941	30.83
450.299	31.02
450.656	30.96
451.014	31.11
451.371	31.55
451.729	31.61
452.086	31.51
452.443	31.71
452.801	31.71
453.158	31.73
453.515	32.01
453.872	31.93
454.229	31.81
454.586	31.9
454.943	31.91
455.3	32.2
455.657	32.11
456.014	32.3
456.371	32.54
456.727	32.55
457.084	32.62
457.441	32.61
457.797	32.8
458.154	32.9
458.51	33.01
458.867	32.93
459.223	33.05
459.58	33.06
459.936	33.08
460.292	33.08
460.648	33.06
461.005	33.05
461.361	32.89
461.717	32.69
462.073	32.86
462.429	32.88
462.785	33.23
463.141	33.38
463.496	33.57
463.852	33.62
464.208	33.88
464.564	33.98
464.919	34.17
465.275	34.35
465.631	34.44
465.986	34.41
466.342	34.52
466.697	34.59
467.052	34.32
467.408	34.6
467.763	34.82
468.118	34.69
468.473	34.74
468.829	34.89
469.184	34.96
469.539	34.96
469.894	34.98
470.249	35.26
470.603	35.5
470.958	35.19
471.313	35.34
471.668	35.33
472.023	35.54
472.377	35.46
472.732	35.76
473.086	35.75
473.441	35.75
473.795	35.79
474.15	35.81
474.504	35.99
474.859	36.05
475.213	36.11
475.567	36
475.921	36.38
476.275	36.33
476.63	36.49
476.984	36.63
477.338	36.74
477.692	36.59
478.045	36.56
478.399	36.67
478.753	36.55
479.107	36.8
479.461	36.81
479.814	36.86
480.168	36.92
480.521	37
480.875	37.13
481.228	37.12
481.582	37.08
481.935	37.21
482.289	37.23
482.642	37.21
482.995	37.11
483.348	37.09
483.701	37.06
484.055	37.02
484.408	36.88
484.761	36.8
485.114	36.54
485.466	36.66
485.819	36.53
486.172	36.39
486.525	36.49
486.878	36.42
487.23	36.73
487.583	37.09
487.936	37.17
488.288	37.33
488.641	37.28
488.993	37.12
489.345	37.02
489.698	37.14
490.05	37.17
490.402	37.13
490.754	37.55
491.107	37.68
491.459	38.13
491.811	38.07
492.163	38.39
492.515	38.28
492.866	38.11
493.218	37.95
493.57	37.93
493.922	37.95
494.274	38.1
494.625	38.45
494.977	38.75
495.328	38.84
495.68	39.32
496.031	39.5
496.383	39.94
496.734	39.83
497.086	40.03
497.437	39.86
497.788	40.08
498.139	39.87
498.49	39.65
498.842	39.91
499.193	39.7
499.544	39.79
499.894	39.9
500.245	39.97
500.596	40.23
500.947	40.26
501.298	40.56
501.648	40.75
501.999	40.67
502.35	40.91
502.7	40.99
503.051	41.27
503.401	41.25
503.752	41.47
504.102	41.47
504.452	41.48
504.803	41.66
505.153	41.53
505.503	41.36
505.853	41.43
506.203	41.54
506.553	41.55
506.903	41.64
507.253	41.75
507.603	41.85
507.953	41.88
508.303	41.94
508.652	42.04
509.002	42.03
509.352	42
509.701	42.19
510.051	42.27
510.4	42.01
510.75	42.01
511.099	41.96
511.449	42.07
511.798	42.21
512.147	42.11
512.496	42.26
512.846	42.37
513.195	42.52
513.544	42.68
513.893	42.51
514.242	42.51
514.591	42.66
514.939	42.74
515.288	43.19
515.637	43.16
515.986	43.25
516.334	43.18
516.683	43.43
517.032	43.47
517.38	43.56
517.729	43.44
518.077	43.68
518.426	43.76
518.774	43.63
519.122	43.58
519.47	43.34
519.819	43.42
520.167	43.45
520.515	43.18
520.863	43.32
521.211	43.45
521.559	43.56
521.907	43.55
522.255	43.87
522.602	43.93
522.95	44.37
523.298	44.18
523.645	44.26
523.993	44.54
524.341	44.64
524.688	44.54
525.036	44.7
525.383	44.76
525.73	44.69
526.078	44.85
526.425	44.59
526.772	44.52
527.119	44.34
527.466	44.45
527.814	44.42
528.161	44.34
528.508	44.53
528.854	44.5
529.201	44.62
529.548	44.52
529.895	44.28
530.242	44.35
530.588	44.45
530.935	44.38
531.282	44.37
531.628	44.28
531.975	44.36
532.321	44.7
532.667	45.15
533.014	45.27
533.36	45.19
533.706	45.51
534.052	45.43
534.399	45.59
534.745	45.28
535.091	45.24
535.437	45.13
535.783	45.16
536.129	45.38
536.474	45.58
536.82	45.74
537.166	46.05
537.512	46.01
537.857	46.38
538.203	46.18
538.549	46.11
538.894	46.16
539.239	46.33
539.585	46.55
539.93	46.5
540.276	47
540.621	46.97
540.966	47.07
541.311	47.27
541.656	47.16
542.001	47.13
542.346	46.95
542.691	46.84
543.036	46.52
543.381	46.47
543.726	46.58
544.071	46.44
544.415	46.69
544.76	46.92
545.105	47.22
545.449	47.13
545.794	47.41
546.138	47.6
546.483	47.65
546.827	47.89
547.171	47.87
547.516	47.95
547.86	48.11
548.204	48.06
548.548	47.9
548.892	47.87
549.236	48.03
549.58	48.42
549.924	48.64
550.268	48.71
550.612	48.88
550.956	48.99
551.3	49.08
551.643	49.48
551.987	49.55
552.33	49.43
552.674	49.56
553.017	49.65
553.361	49.8
553.704	49.68
554.048	49.55
554.391	49.62
554.734	49.69
555.077	49.65
555.42	49.59
555.764	49.68
556.107	50.03
556.45	49.89
556.793	50.03
557.135	50.58
557.478	50.31
557.821	50.39
558.164	50.53
558.507	50.67
558.849	50.4
559.192	50.92
559.534	50.99
559.877	51.02
560.219	51.07
560.562	51.11
560.904	51.26
561.246	51.26
561.589	51.16
561.931	51.15
562.273	51.01
562.615	51.52
562.957	51.25
563.299	50.86
563.641	51.23
563.983	51.68
564.325	51.44
564.667	51.77
565.008	51.26
565.35	51.63
565.692	51.57
566.033	51.63
566.375	51.71
566.716	51.73
567.058	51.88
567.399	51.52
567.741	51.6
568.082	51.59
568.423	51.63
568.764	51.69
569.105	52.01
569.447	51.5
569.788	52.05
570.129	51.97
570.47	51.98
570.811	52.35
571.151	52.32
571.492	52.47
571.833	52.72
572.174	52.41
572.514	52.68
572.855	52.71
573.195	52.69
573.536	52.41
573.876	52.42
574.217	52.47
574.557	52.47
574.898	52.49
575.238	52.79
575.578	52.73
575.918	52.81
576.258	52.81
576.598	52.99
576.938	53.11
577.278	52.93
577.618	53.18
577.958	53.06
578.298	53.36
578.638	53.33
578.977	53.54
579.317	53.8
579.657	53.81
579.996	53.54
580.336	53.94
580.675	53.77
581.014	54.36
581.354	54.16
581.693	54.22
582.032	54.32
582.372	54.33
582.711	54.51
583.05	54.41
583.389	54.26
583.728	54.93
584.067	54.67
584.406	54.49
584.745	54.58
585.083	54.54
585.422	55.34
585.761	54.96
586.1	54.61
586.438	55.16
586.777	54.66
587.115	54.82
587.454	55.38
587.792	54.9
588.13	55.15
588.469	55.37
588.807	55.12
589.145	55.49
589.483	55.45
589.821	55.71
590.159	55.41
590.497	55.23
590.835	55.69
591.173	55.74
591.511	55.65
591.849	55.77
592.187	55.95
592.524	55.44
592.862	55.96
593.2	55.67
593.537	55.99
593.875	56
594.212	55.61
594.55	56.01
594.887	56.46
595.224	55.87
595.561	56.4
595.899	56.23
596.236	56.06
596.573	56.38
596.91	56.82
597.247	56.53
597.584	56.61
597.921	56.43
598.258	56.31
598.594	56.15
598.931	56.03
599.268	56.28
599.604	56.43
599.941	56.32
600.277	56.48
600.614	56.58
600.95	56.75
601.287	56.79
601.623	57.24
601.959	57.05
602.296	57.5
602.632	57.37
602.968	57.43
603.304	57.38
603.64	57.3
603.976	57.51
604.312	57.51
604.648	57.67
604.984	57.36
605.319	57.38
605.655	57.24
605.991	57.31
606.326	57.23
606.662	57.52
606.998	57.11
607.333	57.5
607.668	57.37
608.004	57.66
608.339	57.59
608.674	57.43
609.01	57.86
609.345	58.21
609.68	57.92
610.015	58.19
610.35	58.05
610.685	58.48
611.02	58.37
611.355	58.13
611.689	58.42
612.024	58.25
612.359	58.21
612.694	58.37
613.028	58.5
613.363	58.43
613.697	58.49
614.032	58.48
614.366	58.9
614.7	59.08
615.035	58.83
615.369	58.99
615.703	58.94
616.037	58.97
616.371	59.33
616.705	59.06
617.039	59.47
617.373	59.54
617.707	59.15
618.041	59.67
618.375	59.54
618.709	59.48
619.042	59.03
619.376	59.68
619.71	59.77
620.043	59.51
620.377	59.7
620.71	60.06
621.043	59.84
621.377	59.74
621.71	59.78
622.043	60.24
622.376	60.19
622.709	60.22
623.043	60.29
623.376	60.38
623.709	60.11
624.041	60.27
624.374	60.35
624.707	60.54
625.04	60.45
625.373	60.35
625.705	60.09
626.038	60.43
626.37	60.71
626.703	60.19
627.035	60.24
627.368	60.72
627.7	60.92
628.032	60.85
628.365	60.37
628.697	60.67
629.029	60.55
629.361	60.07
629.693	60.47
630.025	60.4
630.357	60.86
630.689	60.92
631.021	61.08
631.353	61.06
631.684	60.97
632.016	61.32
632.348	61.38
632.679	60.99
633.011	61.27
633.342	61.46
633.674	62.15
634.005	61.69
634.336	61.65
634.668	61.2
634.999	61.54
635.33	61.79
635.661	61.53
635.992	61.31
636.323	61.57
636.654	61.67
636.985	61.99
637.316	61.86
637.647	61.66
637.977	62.21
638.308	62.35
638.639	62.37
638.969	61.85
639.3	62.17
639.63	61.28
639.961	62.15
640.291	62.27
640.622	62.46
640.952	62.46
641.282	62.89
641.612	62.21
641.943	62.57
642.273	62.77
642.603	62.78
642.933	62.83
643.263	62.67
643.592	63.05
643.922	63.18
644.252	63.24
644.582	62.65
644.911	63.27
645.241	63.31
645.571	63.5
645.9	63.5
646.23	62.65
646.559	63.1
646.888	62.45
647.218	64
647.547	63.1
647.876	63.28
648.205	64.33
648.534	63.59
648.863	63.64
649.192	63.15
649.521	63.72
649.85	63.82
650.179	63.34
650.508	64.19
650.837	63.68
651.165	63.84
651.494	63.61
651.822	63.94
652.151	64.18
652.479	63.48
652.808	64.52
653.136	63.68
653.465	64.36
653.793	63.75
654.121	64.41
654.449	63.62
654.777	63.97
655.105	63.89
655.433	64.28
655.761	64.25
656.089	64.4
656.417	64.62
656.745	64.34
657.073	64.71
657.4	64.49
657.728	64.48
658.056	64.44
658.383	64.93
658.711	64.75
659.038	64.83
659.365	64.2
659.693	64.89
660.02	65.39
660.347	64.36
660.674	65.05
661.001	64.79
661.329	64.62
661.656	64.59
661.982	64.55
662.309	64.18
662.636	64.42
662.963	65.43
663.29	64.51
663.616	64.54
663.943	64.71
664.27	64.55
664.596	65.23
664.923	65.67
665.249	66.39
665.576	65.51
665.902	65.78
666.228	65.59
666.554	66.14
666.881	65.77
667.207	66.16
667.533	66.65
667.859	64.68
668.185	65.86
668.511	65.66
668.837	65.92
