Data from 815657_chest_Reflection__2__111.txt Node

Date: Fri Sep 16 15:34:20 CDT 2022
User: ToomeyLab
Spectrometer: FLMS14357
Trigger mode: 0
Integration Time (sec): 1.000000E-2
Scans to average: 100
Electric dark correction enabled: true
Nonlinearity correction enabled: false
Boxcar width: 0
XAxis mode: Wavelengths
Number of Pixels in Spectrum: 2048
>>>>>Begin Spectral Data<<<<<
189.047	-4.81
189.435	-4.81
189.823	-4.81
190.211	46.11
190.599	-80.91
190.987	81.82
191.375	64.32
191.763	155.47
192.151	-168.05
192.538	13542.31
192.926	89.4
193.314	404.45
193.702	-64.55
194.089	146.21
194.477	116.35
194.864	139.38
195.252	-6.9
195.639	553.32
196.027	-1080.05
196.414	67.32
196.801	273.98
197.189	130.71
197.576	-1319.47
197.963	118.13
198.351	-54.92
198.738	-11.29
199.125	1.28
199.512	-72.82
199.899	4.84
200.286	9.12
200.673	54.84
201.06	0.11
201.447	-35.39
201.833	21.22
202.22	25.5
202.607	-104.29
202.994	25.81
203.38	-63.18
203.767	-6.83
204.154	-37.58
204.54	2.18
204.927	-37.88
205.313	10.41
205.699	18.52
206.086	29.78
206.472	12.52
206.858	-0.01
207.245	27.24
207.631	50.88
208.017	-3.12
208.403	-19.48
208.789	-6.61
209.175	19.66
209.561	4.31
209.947	-29.99
210.333	-12.88
210.719	4.18
211.105	15.77
211.491	15.36
211.876	11.53
212.262	34.48
212.648	5.78
213.034	-20.63
213.419	-14.27
213.805	-6.33
214.19	18.19
214.576	-1.97
214.961	-19.91
215.346	-6.16
215.732	-75.74
216.117	6.34
216.502	-17.14
216.888	-2.74
217.273	7.13
217.658	14.18
218.043	-34.89
218.428	-6.45
218.813	-14.49
219.198	19.74
219.583	-9.76
219.968	-8.34
220.353	-13.1
220.738	-2.71
221.122	-30.23
221.507	14.01
221.892	-2.53
222.276	7.27
222.661	3.4
223.046	3.7
223.43	-3.52
223.815	-15.89
224.199	2.45
224.583	5.11
224.968	1.3
225.352	1.24
225.736	7.27
226.121	3.85
226.505	0.7
226.889	6.2
227.273	6.83
227.657	9.51
228.041	0.06
228.425	-4.99
228.809	6.6
229.193	2.06
229.577	4.6
229.961	2.13
230.344	5.78
230.728	4.44
231.112	4.38
231.495	3.92
231.879	4.27
232.263	3.68
232.646	2.15
233.03	5.26
233.413	5.44
233.797	2.82
234.18	6.09
234.563	2.38
234.946	3.64
235.33	3.4
235.713	3.96
236.096	3.06
236.479	4.2
236.862	3.24
237.245	3.28
237.628	4.55
238.011	5.75
238.394	3.45
238.777	4.03
239.16	3.04
239.543	4.34
239.925	4.95
240.308	2.83
240.691	3.75
241.073	4.35
241.456	2.17
241.838	3.1
242.221	4.5
242.603	4.41
242.986	3.24
243.368	4.06
243.75	3.96
244.133	3.81
244.515	4.01
244.897	4.6
245.279	3.81
245.661	4.01
246.043	3.93
246.425	3.32
246.807	4.81
247.189	3.97
247.571	3.75
247.953	3.94
248.335	4.08
248.717	4.06
249.098	4.12
249.48	4.23
249.862	3.95
250.243	4.19
250.625	4.08
251.006	4.37
251.388	4.94
251.769	2.9
252.151	4.28
252.532	2.96
252.913	4.62
253.295	3.89
253.676	4.27
254.057	3.75
254.438	3.15
254.819	3.19
255.2	3.82
255.581	4.18
255.962	3.92
256.343	4.53
256.724	3.28
257.105	2.03
257.486	3.65
257.867	3.29
258.247	3.26
258.628	4.82
259.009	4.07
259.389	3.9
259.77	3.52
260.15	4.36
260.531	3.51
260.911	3.41
261.292	3.6
261.672	3.83
262.052	3.89
262.432	3.95
262.813	4.27
263.193	3.83
263.573	3.81
263.953	3.51
264.333	3.79
264.713	3.87
265.093	3.8
265.473	3.9
265.853	3.81
266.233	3.81
266.612	4.51
266.992	2.77
267.372	3.83
267.752	2.82
268.131	3.79
268.511	4.08
268.89	4.11
269.27	3.72
269.649	3.64
270.029	4.11
270.408	4.64
270.787	3.61
271.167	3.24
271.546	4.06
271.925	3.78
272.304	3.83
272.683	3.38
273.062	3.65
273.441	3.47
273.82	3.89
274.199	3.62
274.578	3.45
274.957	3.86
275.336	4.09
275.715	4.1
276.093	3.5
276.472	3.68
276.851	3.2
277.229	3.71
277.608	3.69
277.986	3.98
278.365	3.35
278.743	3.35
279.122	2.98
279.5	3.38
279.878	3.55
280.257	3.95
280.635	3.99
281.013	3.74
281.391	3.89
281.769	4.01
282.147	3.72
282.525	3.44
282.903	3.7
283.281	3.33
283.659	3.68
284.037	4.16
284.415	4.07
284.792	4.17
285.17	3.77
285.548	3.85
285.925	3.4
286.303	3.9
286.68	3.57
287.058	3.43
287.435	3.5
287.813	4.09
288.19	3.34
288.567	3.37
288.945	3.82
289.322	3.82
289.699	3.74
290.076	3.31
290.453	4.3
290.83	4.16
291.207	4.08
291.584	3.16
291.961	3.95
292.338	3.82
292.715	3.63
293.092	3.53
293.469	3.47
293.845	3.69
294.222	3.55
294.599	3.27
294.975	3.13
295.352	3.87
295.728	3.45
296.105	3.68
296.481	3.45
296.858	3.93
297.234	3.85
297.61	4.12
297.986	3.9
298.363	3.74
298.739	3.65
299.115	4.26
299.491	4.09
299.867	3.79
300.243	4.07
300.619	3.9
300.995	3.65
301.371	4.13
301.746	3.73
302.122	4.07
302.498	4.33
302.874	3.99
303.249	4.33
303.625	3.85
304	3.85
304.376	3.63
304.751	4.36
305.127	3.49
305.502	3.67
305.878	3.89
306.253	3.55
306.628	3.94
307.003	3.66
307.378	4.07
307.754	4.42
308.129	4.69
308.504	4.18
308.879	3.98
309.254	3.72
309.629	4.01
310.003	3.97
310.378	3.46
310.753	3.62
311.128	4.11
311.502	3.73
311.877	4.06
312.252	4.12
312.626	4.04
313.001	4.06
313.375	4.16
313.75	3.97
314.124	3.93
314.498	3.61
314.873	4.35
315.247	3.9
315.621	4.06
315.995	4.28
316.369	4.36
316.743	4.18
317.117	3.83
317.491	3.75
317.865	4.9
318.239	4.58
318.613	4.1
318.987	3.84
319.361	4
319.734	4.15
320.108	3.8
320.482	4.45
320.855	3.97
321.229	4.35
321.602	4.68
321.976	4.13
322.349	4.09
322.723	3.97
323.096	3.91
323.469	3.99
323.843	4.6
324.216	4.78
324.589	4.5
324.962	4.03
325.335	4.99
325.708	4.11
326.081	4.09
326.454	4.45
326.827	4.13
327.2	4.22
327.573	3.89
327.945	3.93
328.318	4.21
328.691	4.21
329.063	4.28
329.436	4.18
329.809	3.75
330.181	4
330.553	4.4
330.926	4.38
331.298	4.6
331.671	4.12
332.043	4.19
332.415	4.35
332.787	4.35
333.159	3.98
333.532	4.51
333.904	4.39
334.276	4.33
334.648	4.27
335.02	4.63
335.391	4.87
335.763	4.43
336.135	4.26
336.507	4.6
336.879	4.4
337.25	3.77
337.622	4.45
337.993	4.78
338.365	4.44
338.736	4.56
339.108	4.45
339.479	4.72
339.851	4.55
340.222	4.39
340.593	4.49
340.964	4.54
341.336	4.49
341.707	4.28
342.078	4.77
342.449	4.81
342.82	4.47
343.191	4.2
343.562	4.87
343.933	4.87
344.303	5.15
344.674	4.3
345.045	4.63
345.416	4.36
345.786	4.83
346.157	4.41
346.527	4.47
346.898	4.5
347.268	4.85
347.639	4.48
348.009	4.63
348.38	4.77
348.75	4.17
349.12	4.54
349.49	4.96
349.861	4.96
350.231	4.52
350.601	4.68
350.971	4.41
351.341	4.96
351.711	4.61
352.081	4.62
352.45	5.13
352.82	4.9
353.19	4.31
353.56	4.94
353.929	4.82
354.299	4.65
354.669	4.72
355.038	4.71
355.408	4.85
355.777	4.54
356.147	4.91
356.516	4.92
356.885	4.93
357.254	4.66
357.624	4.9
357.993	4.63
358.362	4.53
358.731	5.16
359.1	4.7
359.469	4.52
359.838	4.39
360.207	4.76
360.576	4.74
360.945	4.81
361.314	4.76
361.682	4.71
362.051	4.94
362.42	4.85
362.788	4.96
363.157	4.85
363.525	4.66
363.894	4.81
364.262	4.63
364.631	5.1
364.999	4.76
365.367	4.79
365.735	5.09
366.104	5.1
366.472	4.93
366.84	4.87
367.208	4.99
367.576	4.68
367.944	4.83
368.312	4.99
368.68	5.16
369.048	5.11
369.416	4.79
369.783	4.75
370.151	5.17
370.519	4.82
370.886	5.02
371.254	4.91
371.621	5.11
371.989	4.86
372.356	5.25
372.724	5.16
373.091	4.96
373.458	4.74
373.826	5.11
374.193	5.54
374.56	5.09
374.927	4.94
375.294	4.95
375.661	4.86
376.028	5.43
376.395	4.66
376.762	5.42
377.129	4.93
377.496	5.08
377.863	4.9
378.229	5.42
378.596	4.78
378.963	4.89
379.329	4.98
379.696	5.27
380.062	5.08
380.429	5.13
380.795	5.16
381.161	5.4
381.528	5.25
381.894	5.19
382.26	4.94
382.626	5.1
382.993	5.16
383.359	5.14
383.725	5.14
384.091	5.04
384.457	4.82
384.823	5.19
385.188	4.92
385.554	4.96
385.92	5.28
386.286	5.2
386.651	5.27
387.017	4.98
387.383	4.74
387.748	4.88
388.114	5.03
388.479	5.35
388.845	5.29
389.21	5.39
389.575	5.19
389.94	5.36
390.306	4.97
390.671	5.31
391.036	4.98
391.401	5.19
391.766	5.47
392.131	5.29
392.496	5
392.861	5.24
393.226	5.32
393.591	5.15
393.956	5.16
394.32	5.41
394.685	5.04
395.05	5.41
395.414	5.12
395.779	5.33
396.143	5.26
396.508	5.12
396.872	5.27
397.236	5.55
397.601	5.01
397.965	4.98
398.329	5.2
398.694	5.44
399.058	5.36
399.422	5.17
399.786	5.18
400.15	5.34
400.514	5.37
400.878	5.42
401.242	5.3
401.605	5.3
401.969	5.2
402.333	5.33
402.697	5.19
403.06	5.35
403.424	5.35
403.787	5.25
404.151	5.44
404.514	5.36
404.878	5.21
405.241	5.27
405.604	5.53
405.968	5.41
406.331	5.32
406.694	5.43
407.057	5.34
407.42	5.23
407.783	5.29
408.146	5.61
408.509	5.45
408.872	5.52
409.235	5.38
409.598	5.29
409.961	5.29
410.323	5.55
410.686	5.42
411.049	5.25
411.411	5.31
411.774	5.46
412.136	5.29
412.499	5.47
412.861	5.4
413.223	5.4
413.586	5.33
413.948	5.51
414.31	5.66
414.672	5.44
415.035	5.48
415.397	5.26
415.759	5.48
416.121	5.55
416.483	5.47
416.845	5.46
417.206	5.46
417.568	5.45
417.93	5.66
418.292	5.5
418.653	5.47
419.015	5.31
419.377	5.47
419.738	5.47
420.1	5.38
420.461	5.46
420.822	5.29
421.184	5.46
421.545	5.4
421.906	5.38
422.267	5.43
422.629	5.22
422.99	5.22
423.351	5.39
423.712	5.32
424.073	5.41
424.434	5.37
424.795	5.44
425.155	5.41
425.516	5.41
425.877	5.31
426.238	5.39
426.598	5.41
426.959	5.41
427.32	5.34
427.68	5.47
428.041	5.55
428.401	5.48
428.761	5.57
429.122	5.7
429.482	5.44
429.842	5.59
430.202	5.55
430.563	5.49
430.923	5.73
431.283	5.71
431.643	5.73
432.003	5.52
432.363	5.49
432.722	5.66
433.082	5.67
433.442	5.68
433.802	5.52
434.161	5.52
434.521	5.48
434.881	5.5
435.24	5.4
435.6	5.51
435.959	5.6
436.319	5.62
436.678	5.69
437.037	5.54
437.396	5.59
437.756	5.83
438.115	5.66
438.474	5.56
438.833	5.54
439.192	5.6
439.551	5.58
439.91	5.52
440.269	5.72
440.628	5.58
440.987	5.53
441.345	5.68
441.704	5.56
442.063	5.64
442.421	5.53
442.78	5.57
443.138	5.62
443.497	5.67
443.855	5.65
444.214	5.6
444.572	5.69
444.93	5.83
445.288	5.62
445.647	5.57
446.005	5.58
446.363	5.69
446.721	5.7
447.079	5.52
447.437	5.52
447.795	5.54
448.153	5.62
448.51	5.46
448.868	5.62
449.226	5.63
449.584	5.66
449.941	5.49
450.299	5.65
450.656	5.57
451.014	5.67
451.371	5.77
451.729	5.67
452.086	5.65
452.443	5.69
452.801	5.71
453.158	5.73
453.515	5.66
453.872	5.51
454.229	5.59
454.586	5.68
454.943	5.52
455.3	5.65
455.657	5.7
456.014	5.69
456.371	5.82
456.727	5.83
457.084	5.94
457.441	5.71
457.797	5.81
458.154	5.68
458.51	5.66
458.867	5.62
459.223	5.75
459.58	5.81
459.936	5.65
460.292	5.81
460.648	5.72
461.005	5.7
461.361	5.64
461.717	5.68
462.073	5.62
462.429	5.7
462.785	5.84
463.141	5.84
463.496	5.81
463.852	5.85
464.208	5.86
464.564	5.86
464.919	5.81
465.275	5.93
465.631	5.93
465.986	5.72
466.342	5.88
466.697	5.83
467.052	5.81
467.408	5.98
467.763	5.96
468.118	5.93
468.473	5.77
468.829	5.87
469.184	5.69
469.539	5.93
469.894	5.95
470.249	5.99
470.603	5.98
470.958	5.76
471.313	5.91
471.668	5.77
472.023	5.7
472.377	5.91
472.732	6
473.086	5.77
473.441	5.77
473.795	5.94
474.15	5.85
474.504	6
474.859	5.86
475.213	5.94
475.567	5.65
475.921	5.88
476.275	5.91
476.63	6.06
476.984	6.06
477.338	6.08
477.692	5.84
478.045	5.98
478.399	5.9
478.753	5.99
479.107	5.98
479.461	5.87
479.814	5.85
480.168	5.85
480.521	5.92
480.875	6.05
481.228	5.83
481.582	5.95
481.935	5.91
482.289	6.01
482.642	5.9
482.995	5.83
483.348	5.88
483.701	5.84
484.055	5.79
484.408	5.8
484.761	5.59
485.114	5.49
485.466	5.45
485.819	5.48
486.172	5.56
486.525	5.7
486.878	5.73
487.23	5.76
487.583	5.82
487.936	5.8
488.288	5.8
488.641	5.63
488.993	5.67
489.345	5.56
489.698	5.62
490.05	5.7
490.402	5.72
490.754	5.88
491.107	5.88
491.459	5.89
491.811	5.83
492.163	5.89
492.515	5.75
492.866	5.67
493.218	5.57
493.57	5.66
493.922	5.72
494.274	5.83
494.625	5.87
494.977	6.02
495.328	5.97
495.68	5.98
496.031	5.98
496.383	6.03
496.734	6.05
497.086	6.1
497.437	6.03
497.788	6.14
498.139	6.07
498.49	6.02
498.842	6.05
499.193	5.98
499.544	6.04
499.894	5.91
500.245	6.07
500.596	6.01
500.947	6.04
501.298	6.1
501.648	6.14
501.999	6.17
502.35	6.11
502.7	6.2
503.051	6.12
503.401	6.14
503.752	6.13
504.102	6.21
504.452	6.16
504.803	6.24
505.153	6.18
505.503	6.13
505.853	6.1
506.203	6.02
506.553	6.05
506.903	6.21
507.253	6.27
507.603	6.2
507.953	6.23
508.303	6.16
508.652	6.13
509.002	6.23
509.352	6.12
509.701	6.06
510.051	6.14
510.4	6.07
510.75	6.14
511.099	6.1
511.449	6.04
511.798	6.13
512.147	6.18
512.496	6.14
512.846	6.16
513.195	6.25
513.544	6.24
513.893	6.15
514.242	6.16
514.591	6.19
514.939	6.25
515.288	6.29
515.637	6.22
515.986	6.29
516.334	6.16
516.683	6.31
517.032	6.36
517.38	6.35
517.729	6.36
518.077	6.31
518.426	6.3
518.774	6.24
519.122	6.39
519.47	6.21
519.819	6.14
520.167	6.1
520.515	6.17
520.863	6.26
521.211	6.27
521.559	6.24
521.907	6.25
522.255	6.26
522.602	6.33
522.95	6.36
523.298	6.31
523.645	6.41
523.993	6.36
524.341	6.42
524.688	6.51
525.036	6.49
525.383	6.5
525.73	6.43
526.078	6.52
526.425	6.3
526.772	6.21
527.119	6.15
527.466	6.27
527.814	6.31
528.161	6.26
528.508	6.24
528.854	6.3
529.201	6.17
529.548	6.21
529.895	6.15
530.242	6.08
530.588	6.12
530.935	6.2
531.282	6.26
531.628	6.29
531.975	6.37
532.321	6.36
532.667	6.46
533.014	6.5
533.36	6.49
533.706	6.45
534.052	6.4
534.399	6.38
534.745	6.27
535.091	6.25
535.437	6.33
535.783	6.45
536.129	6.58
536.474	6.47
536.82	6.52
537.166	6.6
537.512	6.44
537.857	6.53
538.203	6.47
538.549	6.41
538.894	6.45
539.239	6.64
539.585	6.69
539.93	6.61
540.276	6.8
540.621	6.72
540.966	6.59
541.311	6.68
541.656	6.73
542.001	6.59
542.346	6.54
542.691	6.48
543.036	6.37
543.381	6.43
543.726	6.53
544.071	6.57
544.415	6.63
544.76	6.63
545.105	6.69
545.449	6.72
545.794	6.71
546.138	6.76
546.483	6.84
546.827	6.93
547.171	6.83
547.516	6.7
547.86	6.75
548.204	6.81
548.548	6.69
548.892	6.59
549.236	6.81
549.58	7
549.924	6.99
550.268	6.97
550.612	6.98
550.956	7.03
551.3	7.05
551.643	7.14
551.987	7.2
552.33	7.05
552.674	7.07
553.017	7
553.361	7.15
553.704	7.18
554.048	7.22
554.391	7.19
554.734	7.17
555.077	7.13
555.42	7.24
555.764	7.2
556.107	7.36
556.45	7.23
556.793	7.35
557.135	7.35
557.478	7.19
557.821	7.19
558.164	7.33
558.507	7.19
558.849	7.21
559.192	7.33
559.534	7.42
559.877	7.18
560.219	7.39
560.562	7.44
560.904	7.49
561.246	7.35
561.589	7.46
561.931	7.4
562.273	7.44
562.615	7.57
562.957	7.59
563.299	7.48
563.641	7.48
563.983	7.58
564.325	7.52
564.667	7.47
565.008	7.61
565.35	7.44
565.692	7.57
566.033	7.47
566.375	7.59
566.716	7.61
567.058	7.71
567.399	7.61
567.741	7.39
568.082	7.66
568.423	7.44
568.764	7.71
569.105	7.72
569.447	7.71
569.788	7.87
570.129	7.74
570.47	7.97
570.811	7.8
571.151	7.74
571.492	7.73
571.833	7.73
572.174	7.87
572.514	7.88
572.855	7.76
573.195	7.81
573.536	7.8
573.876	7.78
574.217	7.83
574.557	7.86
574.898	7.81
575.238	7.99
575.578	7.93
575.918	8.02
576.258	7.92
576.598	7.89
576.938	8.11
577.278	8.09
577.618	8.01
577.958	8.02
578.298	8.08
578.638	7.93
578.977	8.06
579.317	8.08
579.657	8.05
579.996	8.2
580.336	8.29
580.675	8.23
581.014	8.49
581.354	8.31
581.693	8.04
582.032	8.61
582.372	8.38
582.711	8.54
583.05	8.35
583.389	8.29
583.728	8.32
584.067	8.46
584.406	8.67
584.745	8.64
585.083	8.56
585.422	8.72
585.761	8.77
586.1	8.47
586.438	8.65
586.777	8.42
587.115	8.79
587.454	8.65
587.792	8.69
588.13	8.7
588.469	8.76
588.807	8.65
589.145	8.71
589.483	8.86
589.821	8.87
590.159	8.68
590.497	8.66
590.835	8.77
591.173	9
591.511	8.79
591.849	8.65
592.187	9.03
592.524	8.57
592.862	8.9
593.2	8.8
593.537	9.06
593.875	9.1
594.212	8.98
594.55	8.96
594.887	9.01
595.224	9.04
595.561	9.08
595.899	9.29
596.236	9.06
596.573	9.09
596.91	9.1
597.247	9.24
597.584	9.15
597.921	9.16
598.258	8.96
598.594	8.84
598.931	9.05
599.268	9.26
599.604	9.04
599.941	9.17
600.277	9.35
600.614	9.46
600.95	9.33
601.287	9.35
601.623	9.3
601.959	9.54
602.296	9.4
602.632	9.53
602.968	9.58
603.304	9.44
603.64	9.43
603.976	9.91
604.312	9.7
604.648	9.54
604.984	9.56
605.319	9.66
605.655	9.7
605.991	9.65
606.326	9.44
606.662	9.59
606.998	9.49
607.333	9.73
607.668	9.66
608.004	9.64
608.339	9.87
608.674	9.79
609.01	9.81
609.345	10.21
609.68	9.96
610.015	9.93
610.35	9.85
610.685	10.23
611.02	10.06
611.355	10.04
611.689	9.98
612.024	10.07
612.359	10.26
612.694	10.18
613.028	10.24
613.363	10.21
613.697	10.28
614.032	10.26
614.366	10.03
614.7	10.28
615.035	10.23
615.369	10.43
615.703	10.46
616.037	10.36
616.371	10.8
616.705	10.27
617.039	10.44
617.373	10.23
617.707	10.32
618.041	10.47
618.375	10.36
618.709	10.27
619.042	10.21
619.376	10.32
619.71	10.72
620.043	10.6
620.377	10.82
620.71	10.77
621.043	10.54
621.377	10.55
621.71	10.63
622.043	10.53
622.376	10.61
622.709	10.77
623.043	10.82
623.376	10.68
623.709	10.63
624.041	11.26
624.374	11.17
624.707	10.7
625.04	11.05
625.373	10.8
625.705	11.11
626.038	11.32
626.37	11.26
626.703	10.63
627.035	10.92
627.368	11.54
627.7	11.14
628.032	10.9
628.365	11.08
628.697	11.13
629.029	11.35
629.361	11.23
629.693	11.33
630.025	11.31
630.357	11.3
630.689	11.31
631.021	11.03
631.353	11.96
631.684	11.47
632.016	11.59
632.348	11.51
632.679	11.5
633.011	11.4
633.342	11.29
633.674	11.52
634.005	11.65
634.336	11.5
634.668	11.64
634.999	11.37
635.33	11.35
635.661	11.51
635.992	11.4
636.323	11.85
636.654	11.85
636.985	12.17
637.316	11.64
637.647	11.42
637.977	11.77
638.308	11.72
638.639	12.34
638.969	11.75
639.3	12.09
639.63	11.49
639.961	12.02
640.291	12.15
640.622	11.75
640.952	12.22
641.282	11.98
641.612	11.97
641.943	12.34
642.273	12.29
642.603	12.68
642.933	12.1
643.263	12.22
643.592	12.25
643.922	11.84
644.252	12.52
644.582	12.42
644.911	12.55
645.241	12.45
645.571	12.77
645.9	12.97
646.23	12.39
646.559	12.27
646.888	12.23
647.218	12.5
647.547	12.92
647.876	12.95
648.205	12.52
648.534	12.45
648.863	12.64
649.192	13.12
649.521	12.75
649.85	12.87
650.179	12.73
650.508	12.97
650.837	12.88
651.165	12.61
651.494	13.11
651.822	12.8
652.151	12.99
652.479	12.93
652.808	12.97
653.136	12.63
653.465	13.16
653.793	12.64
654.121	13.61
654.449	13.05
654.777	13.27
655.105	13.43
655.433	13.01
655.761	13.27
656.089	13.36
656.417	13.76
656.745	13.62
657.073	13.17
657.4	13.3
657.728	13.47
658.056	13.39
658.383	13.65
658.711	13.49
659.038	13.13
659.365	13.77
659.693	13.14
660.02	13.79
660.347	13.13
660.674	13.6
661.001	13.71
661.329	13.55
661.656	13.43
661.982	13.91
662.309	13.65
662.636	13.5
662.963	13.9
663.29	13.82
663.616	13.66
663.943	13.85
664.27	13.41
664.596	13.95
664.923	13.79
665.249	14.43
665.576	13.95
665.902	14.1
666.228	13.17
666.554	14.27
666.881	14
667.207	14.13
667.533	13.98
667.859	14.05
668.185	14.36
668.511	14.38
668.837	14.38
669.162	14.52
669.488	14.83
669.814	14.13
670.139	14.11
670.465	14.41
670.791	14.17
671.116	14.14
671.442	14.73
671.767	14.67
672.092	14.4
672.418	14.39
672.743	14.5
673.068	15.01
673.393	14.11
673.718	14.81
674.043	14.73
674.368	14.59
674.693	15.36
675.018	14.87
675.343	14.9
675.667	14.43
675.992	14.87
676.317	14.78
676.641	14.92
676.966	15.21
677.29	15.38
677.615	14.76
677.939	14.55
678.264	14.99
678.588	14.97
678.912	14.69
679.236	14.8
679.56	15.13
679.885	14.82
680.209	15.12
680.532	15.81
680.856	15.07
681.18	15.13
681.504	15.2
681.828	15.17
682.152	14.8
682.475	15.34
682.799	14.77
683.122	15.11
683.446	15.9
683.769	15.4
684.093	15.17
684.416	15.09
684.739	15.63
685.062	16.12
685.386	15.09
685.709	15.18
686.032	16
686.355	15.84
686.678	15.65
687.001	15.42
687.324	16.24
