Data from 815657_chest_Reflection__4__113.txt Node

Date: Fri Sep 16 15:34:42 CDT 2022
User: ToomeyLab
Spectrometer: FLMS14357
Trigger mode: 0
Integration Time (sec): 1.000000E-2
Scans to average: 100
Electric dark correction enabled: true
Nonlinearity correction enabled: false
Boxcar width: 0
XAxis mode: Wavelengths
Number of Pixels in Spectrum: 2048
>>>>>Begin Spectral Data<<<<<
189.047	86.66
189.435	86.66
189.823	86.66
190.211	80.86
190.599	-27.17
190.987	89.25
191.375	83.46
191.763	159.62
192.151	-12.41
192.538	5226.92
192.926	-138.91
193.314	-67.79
193.702	208.2
194.089	167.86
194.477	-838.07
194.864	-169.84
195.252	-29.34
195.639	-355.14
196.027	-1079.56
196.414	66.26
196.801	50.97
197.189	61.88
197.576	433.97
197.963	218.45
198.351	-71.49
198.738	50.69
199.125	1.77
199.512	-69.88
199.899	27.38
200.286	23.68
200.673	5.5
201.06	-14.87
201.447	24.79
201.833	15.38
202.22	40.85
202.607	-27.46
202.994	50.31
203.38	22.45
203.767	-4.22
204.154	35.88
204.54	-25.12
204.927	0.61
205.313	16.73
205.699	61.64
206.086	56.63
206.472	19.05
206.858	0.41
207.245	-12.77
207.631	22.73
208.017	31.1
208.403	-5.08
208.789	14.5
209.175	16.2
209.561	-15.12
209.947	6.56
210.333	24.09
210.719	17.53
211.105	14.02
211.491	11.86
211.876	41.08
212.262	9.76
212.648	-6.46
213.034	6.33
213.419	-38.62
213.805	-11.61
214.19	6.42
214.576	-28.09
214.961	-13.3
215.346	-33.82
215.732	-70.63
216.117	12.83
216.502	-6.09
216.888	-20.29
217.273	-18.02
217.658	1.13
218.043	-23.73
218.428	8.03
218.813	22.4
219.198	4.2
219.583	18.01
219.968	21.41
220.353	-17.19
220.738	12.93
221.122	-33.57
221.507	16.31
221.892	-3.12
222.276	7.41
222.661	-5.82
223.046	12.65
223.43	15.41
223.815	-6.59
224.199	-2.79
224.583	2.16
224.968	8.88
225.352	1.63
225.736	18.79
226.121	8.73
226.505	5.07
226.889	-3.32
227.273	6.18
227.657	6.65
228.041	2.45
228.425	0.27
228.809	7.36
229.193	1.05
229.577	3.56
229.961	1.24
230.344	2.96
230.728	3.09
231.112	3.57
231.495	2.03
231.879	3.82
232.263	2.92
232.646	2.94
233.03	3.24
233.413	4.41
233.797	1.96
234.18	4.46
234.563	3.41
234.946	2.77
235.33	4.23
235.713	3.44
236.096	2.59
236.479	2.01
236.862	3.13
237.245	2.98
237.628	3.84
238.011	2.77
238.394	1.31
238.777	3.76
239.16	2.8
239.543	5.07
239.925	4.37
240.308	2.73
240.691	3.8
241.073	2.36
241.456	1.89
241.838	1.52
242.221	2.96
242.603	3.02
242.986	2.53
243.368	3.01
243.75	3.01
244.133	3.28
244.515	2.62
244.897	3.13
245.279	2.52
245.661	3.04
246.043	2.56
246.425	2.62
246.807	3.19
247.189	2.26
247.571	2.71
247.953	2.73
248.335	2.76
248.717	2.84
249.098	2.75
249.48	2.78
249.862	2.92
250.243	3.09
250.625	3.36
251.006	3.14
251.388	2.87
251.769	2.76
252.151	1.95
252.532	2.36
252.913	3.12
253.295	2.7
253.676	3.22
254.057	2.77
254.438	2.12
254.819	1.42
255.2	2.74
255.581	2.81
255.962	2.4
256.343	3.88
256.724	2.4
257.105	2.49
257.486	3.91
257.867	2.07
258.247	3.35
258.628	2.71
259.009	3.04
259.389	2.81
259.77	1.69
260.15	2.77
260.531	2.21
260.911	2.7
261.292	2.37
261.672	2.51
262.052	2.36
262.432	2.77
262.813	2.82
263.193	2.36
263.573	2.69
263.953	3.17
264.333	3.37
264.713	2.15
265.093	2.32
265.473	2.2
265.853	2.84
266.233	2.15
266.612	3.73
266.992	2.56
267.372	2.63
267.752	2.45
268.131	2.66
268.511	3.23
268.89	3.13
269.27	2.45
269.649	2.47
270.029	2.88
270.408	3.31
270.787	2.43
271.167	1.7
271.546	3.05
271.925	2.39
272.304	2.7
272.683	2.36
273.062	2.76
273.441	2.7
273.82	2.02
274.199	2.37
274.578	2.66
274.957	3.12
275.336	2.71
275.715	2.98
276.093	2.76
276.472	2.72
276.851	2.8
277.229	2.63
277.608	3.07
277.986	2.55
278.365	1.77
278.743	2.76
279.122	2.53
279.5	2.72
279.878	2.65
280.257	2.73
280.635	3.38
281.013	2.53
281.391	2.67
281.769	2.77
282.147	2.93
282.525	2.18
282.903	2.9
283.281	2.35
283.659	2.72
284.037	2.78
284.415	2.94
284.792	3.19
285.17	2.8
285.548	2.16
285.925	2.15
286.303	3.21
286.68	2.38
287.058	2.59
287.435	2.58
287.813	3.06
288.19	2.51
288.567	2.69
288.945	2.73
289.322	3.06
289.699	2.78
290.076	2.15
290.453	2.99
290.83	2.71
291.207	2.42
291.584	2.48
291.961	2.54
292.338	2.59
292.715	2.6
293.092	2.79
293.469	2.55
293.845	2.75
294.222	2.94
294.599	2.43
294.975	2.34
295.352	2.66
295.728	2.39
296.105	2.55
296.481	2.48
296.858	2.47
297.234	2.66
297.61	2.88
297.986	2.85
298.363	2.69
298.739	2.6
299.115	2.97
299.491	2.84
299.867	2.59
300.243	2.92
300.619	2.55
300.995	2.91
301.371	2.72
301.746	2.71
302.122	3.06
302.498	2.74
302.874	2.39
303.249	2.87
303.625	2.66
304	2.62
304.376	2.18
304.751	3.18
305.127	2.67
305.502	2.61
305.878	2.94
306.253	3.14
306.628	2.62
307.003	2.89
307.378	3.46
307.754	2.96
308.129	3.27
308.504	2.79
308.879	2.98
309.254	2.78
309.629	2.49
310.003	2.71
310.378	2.63
310.753	2.45
311.128	3.36
311.502	2.65
311.877	2.76
312.252	2.92
312.626	3.17
313.001	2.88
313.375	3.28
313.75	3.19
314.124	2.84
314.498	2.47
314.873	3.29
315.247	2.71
315.621	2.97
315.995	2.83
316.369	2.99
316.743	3.35
317.117	2.48
317.491	2.66
317.865	3.13
318.239	2.74
318.613	2.96
318.987	2.71
319.361	2.86
319.734	3.28
320.108	2.91
320.482	3.66
320.855	2.74
321.229	3.16
321.602	3.48
321.976	2.97
322.349	2.85
322.723	2.85
323.096	2.88
323.469	3.09
323.843	3.6
324.216	3.01
324.589	3.27
324.962	3.1
325.335	3.51
325.708	3.62
326.081	3.21
326.454	3.45
326.827	2.76
327.2	3.11
327.573	2.89
327.945	3.25
328.318	3.72
328.691	3.1
329.063	3
329.436	2.95
329.809	2.92
330.181	3.47
330.553	3.1
330.926	3.26
331.298	2.98
331.671	2.87
332.043	2.92
332.415	2.82
332.787	3.5
333.159	3.02
333.532	3.59
333.904	3.22
334.276	2.72
334.648	3.07
335.02	3.65
335.391	3.63
335.763	2.85
336.135	3
336.507	3.17
336.879	3.39
337.25	2.8
337.622	3.31
337.993	3.58
338.365	3.26
338.736	3.96
339.108	3.3
339.479	3.39
339.851	3.42
340.222	2.66
340.593	3.34
340.964	3.37
341.336	3.36
341.707	2.98
342.078	3.65
342.449	3.57
342.82	3.12
343.191	3.12
343.562	3.28
343.933	3.12
344.303	3.76
344.674	2.84
345.045	3.35
345.416	3.52
345.786	3.4
346.157	3.8
346.527	3.3
346.898	2.86
347.268	3.38
347.639	3.31
348.009	3.03
348.38	3.56
348.75	3.08
349.12	3.41
349.49	3.53
349.861	3.68
350.231	3.58
350.601	3.21
350.971	3.33
351.341	3.74
351.711	3.17
352.081	2.98
352.45	3.75
352.82	3.62
353.19	3.44
353.56	3.66
353.929	3.25
354.299	3.17
354.669	3.52
355.038	3.11
355.408	3.59
355.777	3.18
356.147	3.16
356.516	3.49
356.885	3.47
357.254	3.37
357.624	3.29
357.993	3.38
358.362	3.17
358.731	3.48
359.1	3.48
359.469	3.42
359.838	3.58
360.207	3.77
360.576	3.34
360.945	3.43
361.314	3.22
361.682	3.05
362.051	3.28
362.42	3.68
362.788	3.64
363.157	3.55
363.525	3.36
363.894	3.58
364.262	3.28
364.631	3.25
364.999	3.28
365.367	3.31
365.735	3.61
366.104	3.59
366.472	3.62
366.84	3.82
367.208	3.58
367.576	3.68
367.944	3.4
368.312	3.33
368.68	3.56
369.048	3.97
369.416	3.36
369.783	3.62
370.151	3.44
370.519	3.42
370.886	3.49
371.254	3.45
371.621	3.8
371.989	3.38
372.356	3.97
372.724	3.84
373.091	3.42
373.458	3.53
373.826	3.58
374.193	3.76
374.56	3.43
374.927	3.54
375.294	3.45
375.661	3.6
376.028	3.62
376.395	3.38
376.762	4.09
377.129	3.55
377.496	3.69
377.863	3.97
378.229	3.99
378.596	3.23
378.963	3.7
379.329	3.39
379.696	3.86
380.062	3.45
380.429	3.56
380.795	3.81
381.161	3.94
381.528	3.98
381.894	3.63
382.26	3.75
382.626	3.83
382.993	3.61
383.359	3.77
383.725	3.63
384.091	3.88
384.457	3.55
384.823	3.6
385.188	3.68
385.554	3.57
385.92	3.59
386.286	3.59
386.651	3.79
387.017	3.74
387.383	3.36
387.748	3.24
388.114	3.31
388.479	3.82
388.845	3.53
389.21	3.75
389.575	3.77
389.94	3.68
390.306	3.67
390.671	3.6
391.036	3.51
391.401	3.68
391.766	3.76
392.131	3.88
392.496	3.52
392.861	3.45
393.226	3.7
393.591	3.63
393.956	3.75
394.32	3.94
394.685	3.61
395.05	4.04
395.414	3.65
395.779	3.78
396.143	3.82
396.508	3.63
396.872	3.79
397.236	3.79
397.601	3.82
397.965	3.75
398.329	3.67
398.694	3.97
399.058	3.9
399.422	3.81
399.786	3.73
400.15	3.85
400.514	3.78
400.878	4.09
401.242	3.48
401.605	3.69
401.969	3.54
402.333	3.85
402.697	3.83
403.06	3.98
403.424	3.81
403.787	3.57
404.151	3.75
404.514	3.9
404.878	3.74
405.241	3.6
405.604	3.9
405.968	3.98
406.331	3.85
406.694	3.8
407.057	3.81
407.42	3.68
407.783	3.87
408.146	4.08
408.509	3.85
408.872	4.02
409.235	3.91
409.598	3.85
409.961	3.86
410.323	4.03
410.686	4.15
411.049	3.84
411.411	3.64
411.774	4.02
412.136	3.75
412.499	4.05
412.861	4.02
413.223	3.96
413.586	4.09
413.948	3.98
414.31	3.98
414.672	3.86
415.035	3.95
415.397	3.77
415.759	3.94
416.121	3.93
416.483	3.84
416.845	4.09
417.206	3.8
417.568	4.06
417.93	4.13
418.292	3.82
418.653	3.84
419.015	4.03
419.377	3.94
419.738	3.86
420.1	3.99
420.461	3.92
420.822	3.8
421.184	3.91
421.545	3.9
421.906	3.85
422.267	3.94
422.629	3.76
422.99	3.8
423.351	3.85
423.712	3.88
424.073	3.94
424.434	3.95
424.795	3.86
425.155	3.93
425.516	3.99
425.877	3.8
426.238	3.83
426.598	3.93
426.959	3.93
427.32	3.89
427.68	3.97
428.041	3.92
428.401	3.98
428.761	4.07
429.122	3.98
429.482	3.95
429.842	3.9
430.202	3.98
430.563	4.01
430.923	4.15
431.283	4.18
431.643	4.01
432.003	3.97
432.363	3.98
432.722	4.05
433.082	3.98
433.442	4.1
433.802	3.92
434.161	3.92
434.521	4.09
434.881	4.02
435.24	4
435.6	4.01
435.959	4.03
436.319	3.95
436.678	4.07
437.037	4.04
437.396	4.06
437.756	4.12
438.115	3.95
438.474	3.94
438.833	4.08
439.192	3.89
439.551	3.99
439.91	3.97
440.269	4.13
440.628	4.03
440.987	3.96
441.345	4.01
441.704	4.02
442.063	4.08
442.421	4.01
442.78	4.04
443.138	4.12
443.497	4.02
443.855	4.05
444.214	4.03
444.572	4.31
444.93	4.24
445.288	3.9
445.647	4.03
446.005	3.98
446.363	4.11
446.721	4.07
447.079	3.98
447.437	4.04
447.795	3.97
448.153	4.02
448.51	4.04
448.868	4.07
449.226	4.16
449.584	4.13
449.941	3.99
450.299	4.1
450.656	3.97
451.014	4.1
451.371	4.1
451.729	4.21
452.086	4.11
452.443	4.1
452.801	4.23
453.158	4.03
453.515	4.08
453.872	3.95
454.229	4.16
454.586	4.08
454.943	4.11
455.3	4.21
455.657	3.94
456.014	4.15
456.371	4.19
456.727	4.2
457.084	4.23
457.441	4.17
457.797	4.25
458.154	4.15
458.51	4.31
458.867	4.02
459.223	4.25
459.58	4.31
459.936	4.16
460.292	4.19
460.648	4.07
461.005	4.14
461.361	4.01
461.717	4.11
462.073	4.12
462.429	4.16
462.785	4.22
463.141	4.2
463.496	4.26
463.852	4.24
464.208	4.37
464.564	4.32
464.919	4.26
465.275	4.38
465.631	4.4
465.986	4.31
466.342	4.25
466.697	4.34
467.052	4.27
467.408	4.38
467.763	4.26
468.118	4.24
468.473	4.21
468.829	4.24
469.184	4.38
469.539	4.31
469.894	4.34
470.249	4.37
470.603	4.39
470.958	4.25
471.313	4.36
471.668	4.29
472.023	4.23
472.377	4.37
472.732	4.25
473.086	4.4
473.441	4.15
473.795	4.29
474.15	4.28
474.504	4.35
474.859	4.35
475.213	4.34
475.567	4.13
475.921	4.54
476.275	4.37
476.63	4.23
476.984	4.42
477.338	4.32
477.692	4.33
478.045	4.25
478.399	4.37
478.753	4.3
479.107	4.24
479.461	4.32
479.814	4.26
480.168	4.4
480.521	4.42
480.875	4.43
481.228	4.32
481.582	4.42
481.935	4.34
482.289	4.39
482.642	4.32
482.995	4.37
483.348	4.34
483.701	4.33
484.055	4.19
484.408	4.3
484.761	4.18
485.114	4.04
485.466	4.03
485.819	4.01
486.172	4.11
486.525	4.17
486.878	4.15
487.23	4.26
487.583	4.28
487.936	4.26
488.288	4.25
488.641	4.24
488.993	4.2
489.345	4.12
489.698	4.18
490.05	4.16
490.402	4.17
490.754	4.31
491.107	4.33
491.459	4.33
491.811	4.4
492.163	4.29
492.515	4.25
492.866	4.23
493.218	4.19
493.57	4.14
493.922	4.24
494.274	4.33
494.625	4.38
494.977	4.32
495.328	4.41
495.68	4.46
496.031	4.42
496.383	4.49
496.734	4.51
497.086	4.44
497.437	4.5
497.788	4.5
498.139	4.47
498.49	4.45
498.842	4.49
499.193	4.38
499.544	4.51
499.894	4.35
500.245	4.6
500.596	4.39
500.947	4.49
501.298	4.42
501.648	4.51
501.999	4.5
502.35	4.65
502.7	4.61
503.051	4.69
503.401	4.58
503.752	4.62
504.102	4.67
504.452	4.52
504.803	4.58
505.153	4.67
505.503	4.7
505.853	4.62
506.203	4.7
506.553	4.51
506.903	4.61
507.253	4.57
507.603	4.68
507.953	4.67
508.303	4.75
508.652	4.57
509.002	4.62
509.352	4.6
509.701	4.73
510.051	4.77
510.4	4.66
510.75	4.61
511.099	4.61
511.449	4.54
511.798	4.55
512.147	4.54
512.496	4.63
512.846	4.61
513.195	4.69
513.544	4.65
513.893	4.65
514.242	4.72
514.591	4.71
514.939	4.67
515.288	4.73
515.637	4.81
515.986	4.72
516.334	4.73
516.683	4.65
517.032	4.71
517.38	4.89
517.729	4.93
518.077	4.72
518.426	4.82
518.774	4.79
519.122	4.82
519.47	4.75
519.819	4.68
520.167	4.7
520.515	4.64
520.863	4.68
521.211	4.79
521.559	4.82
521.907	4.69
522.255	4.79
522.602	4.9
522.95	4.87
523.298	4.83
523.645	4.86
523.993	4.9
524.341	4.95
524.688	4.89
525.036	4.95
525.383	4.89
525.73	4.91
526.078	4.88
526.425	4.85
526.772	4.88
527.119	4.8
527.466	4.8
527.814	4.83
528.161	4.84
528.508	4.81
528.854	4.93
529.201	4.79
529.548	4.73
529.895	4.7
530.242	4.65
530.588	4.66
530.935	4.69
531.282	4.8
531.628	4.83
531.975	4.83
532.321	4.92
532.667	4.97
533.014	5.06
533.36	5.04
533.706	4.87
534.052	4.96
534.399	4.97
534.745	4.88
535.091	4.86
535.437	4.86
535.783	4.91
536.129	5
536.474	5.04
536.82	5.07
537.166	5.11
537.512	5.14
537.857	5.13
538.203	4.95
538.549	4.98
538.894	4.98
539.239	5.19
539.585	5.12
539.93	5.01
540.276	5.34
540.621	5.29
540.966	5.16
541.311	5.25
541.656	5.15
542.001	5.13
542.346	5.11
542.691	5.09
543.036	4.98
543.381	5
543.726	5.08
544.071	5.12
544.415	5.21
544.76	5.16
545.105	5.27
545.449	5.19
545.794	5.32
546.138	5.27
546.483	5.41
546.827	5.37
547.171	5.37
547.516	5.2
547.86	5.33
548.204	5.38
548.548	5.24
548.892	5.25
549.236	5.37
549.58	5.5
549.924	5.54
550.268	5.47
550.612	5.58
550.956	5.52
551.3	5.59
551.643	5.75
551.987	5.77
552.33	5.43
552.674	5.33
553.017	5.75
553.361	5.67
553.704	5.81
554.048	5.65
554.391	5.63
554.734	5.59
555.077	5.62
555.42	5.89
555.764	5.84
556.107	5.68
556.45	5.61
556.793	5.88
557.135	5.8
557.478	5.77
557.821	5.7
558.164	5.86
558.507	5.78
558.849	5.78
559.192	5.92
559.534	6.04
559.877	5.75
560.219	5.76
560.562	6
560.904	5.93
561.246	5.93
561.589	5.93
561.931	6.02
562.273	6.02
562.615	5.98
562.957	5.94
563.299	6.06
563.641	5.93
563.983	5.98
564.325	5.99
564.667	6.07
565.008	6.2
565.35	6
565.692	6.1
566.033	6.1
566.375	6.13
566.716	6.02
567.058	6.02
567.399	6.34
567.741	6
568.082	6.36
568.423	6
568.764	6.05
569.105	6.23
569.447	6.2
569.788	6.26
570.129	6.31
570.47	6.39
570.811	6.4
571.151	6.5
571.492	6.2
571.833	6.29
572.174	6.49
572.514	6.41
572.855	6.36
573.195	6.48
573.536	6.32
573.876	6.37
574.217	6.49
574.557	6.55
574.898	6.54
575.238	6.54
575.578	6.52
575.918	6.65
576.258	6.48
576.598	6.39
576.938	6.62
577.278	6.46
577.618	6.73
577.958	6.64
578.298	6.6
578.638	6.68
578.977	6.66
579.317	6.59
579.657	6.74
579.996	6.77
580.336	6.87
580.675	6.57
581.014	6.92
581.354	6.95
581.693	6.76
582.032	6.95
582.372	6.77
582.711	7.1
583.05	6.92
583.389	7.15
583.728	7.03
584.067	6.98
584.406	7.33
584.745	7.28
585.083	7.1
585.422	7.17
585.761	7.26
586.1	6.74
586.438	7.41
586.777	6.8
587.115	7.18
587.454	7.44
587.792	7.08
588.13	7.25
588.469	7.23
588.807	7.2
589.145	7.08
589.483	7.5
589.821	7.44
590.159	7.23
590.497	7.22
590.835	7.52
591.173	7.41
591.511	7.24
591.849	7.48
592.187	7.39
592.524	7.38
592.862	7.47
593.2	7.39
593.537	7.72
593.875	7.66
594.212	7.47
594.55	7.49
594.887	7.75
595.224	7.56
595.561	7.66
595.899	7.77
596.236	7.51
596.573	7.46
596.91	7.82
597.247	7.61
597.584	7.64
597.921	7.76
598.258	7.57
598.594	7.49
598.931	7.66
599.268	7.69
599.604	7.66
599.941	7.71
600.277	7.71
600.614	8.02
600.95	8
601.287	8.03
601.623	8.04
601.959	8.03
602.296	7.93
602.632	8.16
602.968	8.05
603.304	8.05
603.64	7.98
603.976	8.07
604.312	8.23
604.648	8.17
604.984	8.15
605.319	8.28
605.655	8.2
605.991	8.09
606.326	8.12
606.662	8.17
606.998	8.29
607.333	8.25
607.668	8.41
608.004	8.1
608.339	8.2
608.674	8.43
609.01	8.24
609.345	8.66
609.68	8.63
610.015	8.32
610.35	8.56
610.685	8.48
611.02	8.46
611.355	8.66
611.689	8.63
612.024	8.67
612.359	8.64
612.694	8.58
613.028	8.49
613.363	8.53
613.697	8.89
614.032	8.96
614.366	8.52
614.7	8.96
615.035	8.91
615.369	8.51
615.703	8.86
616.037	8.73
616.371	8.85
616.705	9.15
617.039	8.89
617.373	8.77
617.707	9.11
618.041	8.92
618.375	9
618.709	9.06
619.042	8.92
619.376	9.17
619.71	9.2
620.043	8.98
620.377	9.28
620.71	9.41
621.043	9.58
621.377	9.02
621.71	9.11
622.043	9.05
622.376	9.16
622.709	9.29
623.043	9.23
623.376	9.18
623.709	9.17
624.041	9.54
624.374	9.5
624.707	9.49
625.04	9.14
625.373	9.62
625.705	9.62
626.038	9.68
626.37	9.7
626.703	9.24
627.035	9.31
627.368	9.99
627.7	10.12
628.032	9.82
628.365	9.46
628.697	9.68
629.029	9.91
629.361	9.49
629.693	9.77
630.025	9.94
630.357	9.84
630.689	9.99
631.021	9.82
631.353	9.95
631.684	9.66
632.016	9.95
632.348	10.09
632.679	9.74
633.011	9.98
633.342	9.75
633.674	10.46
634.005	10.28
634.336	9.96
634.668	9.96
634.999	9.76
635.33	10.25
635.661	10.04
635.992	10.13
636.323	10.2
636.654	10.21
636.985	10.62
637.316	10.52
637.647	10.26
637.977	10.02
638.308	10.6
638.639	10.39
638.969	10.47
639.3	10.85
639.63	10.02
639.961	10.91
640.291	10.45
640.622	10.46
640.952	10.98
641.282	10.97
641.612	10.38
641.943	10.33
642.273	10.21
642.603	11.05
642.933	10.94
643.263	10.56
643.592	10.92
643.922	10.51
644.252	10.74
644.582	10.73
644.911	11.23
645.241	11.23
645.571	11.26
645.9	11.18
646.23	10.97
646.559	10.37
646.888	10.27
647.218	10.85
647.547	11.28
647.876	11.54
648.205	11.4
648.534	11.03
648.863	10.93
649.192	11.34
649.521	11.38
649.85	11.51
650.179	11.41
650.508	11.67
650.837	11.63
651.165	11.03
651.494	11.76
651.822	11.27
652.151	11.43
652.479	11.53
652.808	11.94
653.136	11.33
653.465	11.47
653.793	11.21
654.121	11.62
654.449	11.25
654.777	11.41
655.105	11.25
655.433	11.06
655.761	11.96
656.089	11.95
656.417	11.51
656.745	11.53
657.073	11.64
657.4	11.57
657.728	11.76
658.056	11.69
658.383	11.7
658.711	11.93
659.038	11.89
659.365	11.79
659.693	11.54
660.02	11.86
660.347	11.64
660.674	11.8
661.001	12.02
661.329	11.88
661.656	11.84
661.982	12.27
662.309	11.87
662.636	12.39
662.963	12.18
663.29	12.54
663.616	12.32
663.943	12.55
664.27	12.18
664.596	12.12
664.923	12.08
665.249	12.49
665.576	12.53
665.902	12.35
666.228	12.08
666.554	12.74
666.881	12.52
667.207	12.59
667.533	13.11
667.859	12.62
668.185	12.22
668.511	12.77
668.837	12.55
669.162	13.06
669.488	13.19
669.814	12.46
670.139	12.32
670.465	12.82
670.791	12.84
671.116	12.66
671.442	13.31
671.767	12.81
672.092	12.72
672.418	13.11
672.743	12.94
673.068	13.39
673.393	12.96
673.718	13.35
674.043	12.79
674.368	13.03
674.693	13.93
675.018	12.62
675.343	13.03
675.667	13.11
675.992	13.11
676.317	13.23
676.641	12.53
676.966	13.17
677.29	13.1
677.615	13.25
677.939	13.53
678.264	13.48
678.588	12.67
678.912	13.1
679.236	13.15
679.56	13.35
679.885	13.54
680.209	13.06
680.532	13.49
680.856	12.96
681.18	13.61
681.504	13.52
681.828	13.42
682.152	13.27
682.475	13.56
682.799	13.4
683.122	13.26
683.446	14.14
683.769	14.18
684.093	13.84
684.416	13.38
684.739	13.45
685.062	14.35
685.386	13.96
685.709	14.38
686.032	14.17
686.355	14.6
686.678	13.99
687.001	13.28
687.324	13.3
687.646	14.02
687.969	14.38
688.292	14.21
