Data from 815657_crown_Reflection__4__124.txt Node

Date: Fri Sep 16 15:38:37 CDT 2022
User: ToomeyLab
Spectrometer: FLMS14357
Trigger mode: 0
Integration Time (sec): 1.000000E-2
Scans to average: 100
Electric dark correction enabled: true
Nonlinearity correction enabled: false
Boxcar width: 0
XAxis mode: Wavelengths
Number of Pixels in Spectrum: 2048
>>>>>Begin Spectral Data<<<<<
189.047	-92.81
189.435	-92.81
189.823	-92.81
190.211	65.82
190.599	-27.27
190.987	20.13
191.375	99.17
191.763	46.34
192.151	-603.01
192.538	1830.77
192.926	-107.62
193.314	724.95
193.702	795.67
194.089	379.61
194.477	-652.51
194.864	-31.66
195.252	-21.27
195.639	326.89
196.027	-838.42
196.414	27.29
196.801	67.7
197.189	48.47
197.576	160.31
197.963	355.1
198.351	2.17
198.738	-28.07
199.125	4.26
199.512	-143.55
199.899	-23.17
200.286	10.71
200.673	-11.78
201.06	2.72
201.447	25.47
201.833	19.16
202.22	42.69
202.607	-73.39
202.994	43.32
203.38	-3.06
203.767	1.98
204.154	0.25
204.54	-34.1
204.927	-15.81
205.313	23.26
205.699	37.5
206.086	9.88
206.472	-20.42
206.858	7.58
207.245	-4.79
207.631	-10.6
208.017	16.38
208.403	-37.73
208.789	12.79
209.175	18.19
209.561	-21.81
209.947	-45.7
210.333	32.9
210.719	-10.13
211.105	22.95
211.491	12.64
211.876	35.93
212.262	-1.9
212.648	-0.77
213.034	-53.23
213.419	-17.15
213.805	26.26
214.19	7.97
214.576	-31.7
214.961	-38.77
215.346	-12.27
215.732	-53.79
216.117	14.32
216.502	6.97
216.888	-28.11
217.273	1.47
217.658	12.34
218.043	-24.44
218.428	10.87
218.813	2.03
219.198	16.3
219.583	-0.91
219.968	-6.27
220.353	4.74
220.738	0.38
221.122	-43.79
221.507	26.3
221.892	-11.58
222.276	-10.66
222.661	0.89
223.046	-1.33
223.43	8.63
223.815	-5.53
224.199	-0.7
224.583	14.64
224.968	9.52
225.352	13.71
225.736	8.66
226.121	5.86
226.505	-2.2
226.889	2.77
227.273	6.77
227.657	7.39
228.041	6.71
228.425	-1.66
228.809	9.55
229.193	5.55
229.577	7.26
229.961	6.38
230.344	5.88
230.728	5.86
231.112	5.98
231.495	5.59
231.879	7.43
232.263	4.56
232.646	5.82
233.03	5.73
233.413	6.62
233.797	5.52
234.18	7.2
234.563	7.38
234.946	5.23
235.33	4.78
235.713	4.94
236.096	6.24
236.479	5.7
236.862	3.88
237.245	4.31
237.628	6.32
238.011	6.39
238.394	5.52
238.777	6.84
239.16	4.54
239.543	7.21
239.925	5.41
240.308	6.3
240.691	5.53
241.073	7.12
241.456	7.34
241.838	4.7
242.221	6.13
242.603	5.66
242.986	5.37
243.368	6.53
243.75	5.6
244.133	5.85
244.515	5.78
244.897	5.99
245.279	5.71
245.661	6.02
246.043	5.68
246.425	4.96
246.807	6.12
247.189	5.62
247.571	5.42
247.953	5.47
248.335	5.59
248.717	5.67
249.098	5.76
249.48	5.6
249.862	5.54
250.243	6.12
250.625	6
251.006	5.95
251.388	5.98
251.769	4.88
252.151	5.64
252.532	5.33
252.913	6.06
253.295	5.9
253.676	5.82
254.057	5.4
254.438	4.72
254.819	4.7
255.2	4.51
255.581	6.37
255.962	5.82
256.343	5.99
256.724	4.96
257.105	5.02
257.486	5.67
257.867	5.66
258.247	5.43
258.628	6.03
259.009	5.76
259.389	5.49
259.77	4.89
260.15	4.96
260.531	4.79
260.911	5.53
261.292	5.36
261.672	5.38
262.052	4.91
262.432	5.15
262.813	5.75
263.193	5.07
263.573	5.83
263.953	5.79
264.333	5.22
264.713	5.02
265.093	4.86
265.473	5.12
265.853	6.01
266.233	5
266.612	6.13
266.992	4.81
267.372	5.17
267.752	4.87
268.131	5.27
268.511	5.58
268.89	6.02
269.27	4.76
269.649	4.9
270.029	5.4
270.408	5.42
270.787	5.17
271.167	4.78
271.546	5.95
271.925	5.21
272.304	5.42
272.683	4.87
273.062	5.27
273.441	5.48
273.82	4.88
274.199	5.24
274.578	5.15
274.957	5.4
275.336	4.96
275.715	5.18
276.093	4.87
276.472	5.24
276.851	5.31
277.229	4.98
277.608	5.06
277.986	5.03
278.365	4.37
278.743	5.02
279.122	4.94
279.5	4.57
279.878	4.77
280.257	5.26
280.635	5.18
281.013	4.64
281.391	5.2
281.769	5.34
282.147	5.53
282.525	5.09
282.903	4.77
283.281	4.92
283.659	5.41
284.037	5.19
284.415	5.61
284.792	5.54
285.17	4.9
285.548	4.99
285.925	4.44
286.303	5.07
286.68	4.72
287.058	4.83
287.435	4.86
287.813	5.18
288.19	4.57
288.567	4.58
288.945	5.04
289.322	4.93
289.699	4.74
290.076	4.68
290.453	5.34
290.83	4.88
291.207	4.66
291.584	4.6
291.961	4.72
292.338	4.69
292.715	4.68
293.092	4.94
293.469	4.76
293.845	4.67
294.222	4.73
294.599	4.67
294.975	4.66
295.352	5.03
295.728	4.86
296.105	4.84
296.481	4.71
296.858	4.69
297.234	4.86
297.61	4.92
297.986	4.88
298.363	4.69
298.739	4.48
299.115	4.74
299.491	5.03
299.867	4.32
300.243	4.7
300.619	4.34
300.995	4.5
301.371	4.68
301.746	4.43
302.122	4.9
302.498	4.92
302.874	4.6
303.249	4.94
303.625	4.39
304	4.73
304.376	4.74
304.751	4.62
305.127	4.54
305.502	4.91
305.878	4.46
306.253	4.66
306.628	4.58
307.003	4.78
307.378	4.67
307.754	4.85
308.129	5.15
308.504	4.88
308.879	4.94
309.254	4.43
309.629	4.26
310.003	4.86
310.378	4.14
310.753	4.3
311.128	4.58
311.502	3.59
311.877	4.47
312.252	4.76
312.626	4.28
313.001	4.34
313.375	4.85
313.75	4.6
314.124	4.39
314.498	4.23
314.873	5.01
315.247	4.22
315.621	4.93
315.995	4.13
316.369	4.49
316.743	4.59
317.117	4.38
317.491	4.47
317.865	5.02
318.239	4.58
318.613	4.33
318.987	3.77
319.361	3.96
319.734	4.21
320.108	4.31
320.482	4.55
320.855	4.21
321.229	3.79
321.602	4.95
321.976	4.28
322.349	4.27
322.723	4.1
323.096	4.24
323.469	3.76
323.843	4.72
324.216	4.55
324.589	4.59
324.962	4.62
325.335	5.02
325.708	4.66
326.081	4.36
326.454	4.44
326.827	4.22
327.2	4.46
327.573	3.72
327.945	4.51
328.318	4.07
328.691	4.39
329.063	3.92
329.436	3.98
329.809	3.5
330.181	4.27
330.553	4.22
330.926	3.94
331.298	3.77
331.671	3.87
332.043	4.73
332.415	4.08
332.787	4.01
333.159	4.3
333.532	4.65
333.904	4.15
334.276	3.94
334.648	4.11
335.02	4.17
335.391	4.67
335.763	4.42
336.135	3.88
336.507	4.21
336.879	4.22
337.25	3.48
337.622	4.37
337.993	4.34
338.365	4.32
338.736	4.45
339.108	4.28
339.479	4.58
339.851	4.18
340.222	4.27
340.593	4.03
340.964	4.37
341.336	4.77
341.707	4.01
342.078	4.9
342.449	4.43
342.82	4.13
343.191	4.26
343.562	4.42
343.933	4.31
344.303	4.79
344.674	3.7
345.045	4.38
345.416	3.83
345.786	4.56
346.157	4.41
346.527	4.05
346.898	4.32
347.268	4.26
347.639	3.86
348.009	4.25
348.38	4.28
348.75	4.26
349.12	4.52
349.49	4.45
349.861	4.29
350.231	3.93
350.601	4.44
350.971	4.51
351.341	4.63
351.711	4.25
352.081	4.21
352.45	4.56
352.82	4.61
353.19	4.35
353.56	4.49
353.929	4.33
354.299	4.36
354.669	4.33
355.038	4.52
355.408	4.1
355.777	4.54
356.147	4.57
356.516	4.37
356.885	4.38
357.254	4.48
357.624	4.32
357.993	4.2
358.362	4.12
358.731	4.5
359.1	4.37
359.469	4.25
359.838	4.42
360.207	4.46
360.576	4.56
360.945	4.24
361.314	4.38
361.682	4.1
362.051	4.47
362.42	4.46
362.788	4.76
363.157	4.59
363.525	4.42
363.894	4.58
364.262	4.28
364.631	4.18
364.999	4.39
365.367	4.71
365.735	4.91
366.104	4.55
366.472	4.77
366.84	4.52
367.208	4.43
367.576	4.61
367.944	4.27
368.312	4.3
368.68	4.51
369.048	4.94
369.416	4.64
369.783	4.53
370.151	4.73
370.519	4.49
370.886	4.58
371.254	4.59
371.621	4.8
371.989	4.7
372.356	4.65
372.724	4.7
373.091	4.27
373.458	4.59
373.826	4.42
374.193	5.09
374.56	3.94
374.927	4.2
375.294	4.41
375.661	4.62
376.028	4.77
376.395	4.14
376.762	4.97
377.129	4.28
377.496	4.58
377.863	4.61
378.229	4.95
378.596	4.52
378.963	4.62
379.329	4.15
379.696	4.9
380.062	4.45
380.429	4.78
380.795	4.64
381.161	4.85
381.528	4.55
381.894	4.58
382.26	4.83
382.626	4.55
382.993	4.28
383.359	4.64
383.725	4.81
384.091	5.07
384.457	4.39
384.823	4.5
385.188	4.64
385.554	4.3
385.92	4.81
386.286	4.65
386.651	4.57
387.017	4.5
387.383	4.53
387.748	4.38
388.114	4.29
388.479	4.85
388.845	4.73
389.21	4.82
389.575	4.62
389.94	4.78
390.306	4.42
390.671	4.62
391.036	4.74
391.401	4.48
391.766	4.77
392.131	4.69
392.496	4.75
392.861	4.69
393.226	5.08
393.591	4.66
393.956	4.75
394.32	4.88
394.685	4.75
395.05	4.97
395.414	4.65
395.779	4.69
396.143	4.85
396.508	4.76
396.872	4.97
397.236	4.8
397.601	4.63
397.965	4.7
398.329	4.59
398.694	5.01
399.058	4.77
399.422	4.79
399.786	4.9
400.15	4.93
400.514	4.81
400.878	4.88
401.242	4.94
401.605	4.74
401.969	4.92
402.333	4.67
402.697	4.88
403.06	4.89
403.424	4.9
403.787	5.01
404.151	4.84
404.514	4.87
404.878	4.75
405.241	4.86
405.604	4.86
405.968	4.89
406.331	4.81
406.694	4.9
407.057	4.75
407.42	4.82
407.783	4.99
408.146	5.04
408.509	5.05
408.872	4.99
409.235	5.02
409.598	4.73
409.961	4.89
410.323	5
410.686	5.15
411.049	5.12
411.411	4.67
411.774	4.78
412.136	4.73
412.499	4.89
412.861	4.82
413.223	5.1
413.586	4.91
413.948	4.83
414.31	4.97
414.672	4.78
415.035	4.67
415.397	4.71
415.759	4.98
416.121	4.77
416.483	5.02
416.845	5.01
417.206	5.08
417.568	5.09
417.93	5.21
418.292	5.07
418.653	4.87
419.015	4.88
419.377	5.02
419.738	4.94
420.1	4.98
420.461	5.16
420.822	4.96
421.184	5.04
421.545	4.86
421.906	5.07
422.267	4.98
422.629	4.81
422.99	4.91
423.351	4.8
423.712	4.82
424.073	4.97
424.434	4.97
424.795	4.95
425.155	5.08
425.516	5
425.877	4.95
426.238	4.97
426.598	4.9
426.959	5
427.32	4.86
427.68	5
428.041	5.02
428.401	5.01
428.761	5.24
429.122	5.05
429.482	5.04
429.842	5.16
430.202	5.13
430.563	5.08
430.923	5.23
431.283	5.35
431.643	5.3
432.003	5.08
432.363	5.31
432.722	5.17
433.082	5.12
433.442	5.28
433.802	5.22
434.161	5.09
434.521	5.06
434.881	5.09
435.24	5.2
435.6	5.21
435.959	5.2
436.319	4.96
436.678	5.13
437.037	4.99
437.396	5.17
437.756	5.15
438.115	5.15
438.474	5.23
438.833	5.09
439.192	5.21
439.551	5.14
439.91	5.22
440.269	5.2
440.628	5.21
440.987	5.15
441.345	5.14
441.704	5.17
442.063	5.24
442.421	5.11
442.78	5.09
443.138	5.13
443.497	5.07
443.855	5.11
444.214	5.12
444.572	5.16
444.93	5.29
445.288	5.32
445.647	5.3
446.005	5.19
446.363	5.18
446.721	5.29
447.079	5.17
447.437	5.09
447.795	5.12
448.153	5.13
448.51	5.02
448.868	5.06
449.226	5.19
449.584	5.14
449.941	5.17
450.299	5.15
450.656	5.24
451.014	5.16
451.371	5.29
451.729	5.17
452.086	5.18
452.443	5.2
452.801	5.12
453.158	5.21
453.515	5.12
453.872	5.14
454.229	5.3
454.586	5.15
454.943	5.2
455.3	5.27
455.657	5.16
456.014	5.29
456.371	5.07
456.727	5.21
457.084	5.34
457.441	5.25
457.797	5.4
458.154	5.22
458.51	5.36
458.867	5.31
459.223	5.22
459.58	5.25
459.936	5.38
460.292	5.28
460.648	5.23
461.005	5.33
461.361	5.11
461.717	5.12
462.073	5.21
462.429	5.19
462.785	5.22
463.141	5.21
463.496	5.3
463.852	5.26
464.208	5.21
464.564	5.27
464.919	5.3
465.275	5.36
465.631	5.34
465.986	5.22
466.342	5.26
466.697	5.4
467.052	5.12
467.408	5.35
467.763	5.24
468.118	5.37
468.473	5.37
468.829	5.29
469.184	5.28
469.539	5.27
469.894	5.44
470.249	5.48
470.603	5.34
470.958	5.19
471.313	5.32
471.668	5.38
472.023	5.37
472.377	5.3
472.732	5.24
473.086	5.33
473.441	5.18
473.795	5.15
474.15	5.15
474.504	5.42
474.859	5.19
475.213	5.35
475.567	5.2
475.921	5.52
476.275	5.38
476.63	5.37
476.984	5.46
477.338	5.43
477.692	5.3
478.045	5.47
478.399	5.32
478.753	5.37
479.107	5.33
479.461	5.27
479.814	5.31
480.168	5.29
480.521	5.27
480.875	5.33
481.228	5.35
481.582	5.31
481.935	5.34
482.289	5.46
482.642	5.28
482.995	5.26
483.348	5.38
483.701	5.35
484.055	5.29
484.408	5.26
484.761	5.19
485.114	5.15
485.466	5.11
485.819	5.06
486.172	5
486.525	5.04
486.878	5.07
487.23	5.16
487.583	5.21
487.936	5.21
488.288	5.18
488.641	5.22
488.993	5.16
489.345	5.09
489.698	5.09
490.05	5.09
490.402	5.07
490.754	5.2
491.107	5.13
491.459	5.23
491.811	5.15
492.163	5.29
492.515	5.3
492.866	5.28
493.218	5.12
493.57	5.15
493.922	5.16
494.274	5.15
494.625	5.18
494.977	5.22
495.328	5.27
495.68	5.19
496.031	5.27
496.383	5.35
496.734	5.32
497.086	5.38
497.437	5.43
497.788	5.44
498.139	5.42
498.49	5.39
498.842	5.31
499.193	5.33
499.544	5.38
499.894	5.26
500.245	5.35
500.596	5.31
500.947	5.4
501.298	5.41
501.648	5.41
501.999	5.49
502.35	5.5
502.7	5.39
503.051	5.35
503.401	5.36
503.752	5.48
504.102	5.63
504.452	5.43
504.803	5.55
505.153	5.47
505.503	5.43
505.853	5.45
506.203	5.38
506.553	5.34
506.903	5.4
507.253	5.55
507.603	5.41
507.953	5.51
508.303	5.43
508.652	5.33
509.002	5.42
509.352	5.47
509.701	5.47
510.051	5.46
510.4	5.35
510.75	5.43
511.099	5.38
511.449	5.4
511.798	5.26
512.147	5.36
512.496	5.49
512.846	5.46
513.195	5.45
513.544	5.44
513.893	5.42
514.242	5.49
514.591	5.48
514.939	5.44
515.288	5.49
515.637	5.45
515.986	5.5
516.334	5.43
516.683	5.55
517.032	5.51
517.38	5.6
517.729	5.55
518.077	5.61
518.426	5.52
518.774	5.57
519.122	5.54
519.47	5.54
519.819	5.45
520.167	5.46
520.515	5.39
520.863	5.46
521.211	5.38
521.559	5.42
521.907	5.37
522.255	5.41
522.602	5.38
522.95	5.51
523.298	5.53
523.645	5.56
523.993	5.48
524.341	5.59
524.688	5.62
525.036	5.57
525.383	5.51
525.73	5.53
526.078	5.52
526.425	5.58
526.772	5.48
527.119	5.42
527.466	5.49
527.814	5.48
528.161	5.47
528.508	5.44
528.854	5.48
529.201	5.42
529.548	5.39
529.895	5.41
530.242	5.39
530.588	5.37
530.935	5.32
531.282	5.25
531.628	5.26
531.975	5.36
532.321	5.37
532.667	5.39
533.014	5.57
533.36	5.43
533.706	5.51
534.052	5.54
534.399	5.51
534.745	5.49
535.091	5.5
535.437	5.35
535.783	5.43
536.129	5.45
536.474	5.4
536.82	5.39
537.166	5.58
537.512	5.59
537.857	5.58
538.203	5.49
538.549	5.48
538.894	5.44
539.239	5.56
539.585	5.53
539.93	5.41
540.276	5.67
540.621	5.78
540.966	5.64
541.311	5.66
541.656	5.58
542.001	5.56
542.346	5.57
542.691	5.54
543.036	5.49
543.381	5.39
543.726	5.44
544.071	5.42
544.415	5.42
544.76	5.47
545.105	5.6
545.449	5.52
545.794	5.58
546.138	5.56
546.483	5.64
546.827	5.76
547.171	5.7
547.516	5.54
547.86	5.54
548.204	5.56
548.548	5.55
548.892	5.58
549.236	5.54
549.58	5.72
549.924	5.66
550.268	5.69
550.612	5.76
550.956	5.7
551.3	5.74
551.643	5.8
551.987	5.76
552.33	5.59
552.674	5.7
553.017	5.75
553.361	5.88
553.704	5.82
554.048	5.77
554.391	5.88
554.734	5.75
555.077	5.7
555.42	5.73
555.764	5.79
556.107	5.81
556.45	5.76
556.793	5.84
557.135	5.69
557.478	5.66
557.821	5.73
558.164	5.87
558.507	5.84
558.849	5.66
559.192	5.79
559.534	5.97
559.877	5.67
560.219	5.72
560.562	5.71
560.904	5.74
561.246	5.79
561.589	5.94
561.931	5.79
562.273	5.92
562.615	5.86
562.957	5.95
563.299	5.84
563.641	5.93
563.983	5.91
564.325	5.81
564.667	5.84
565.008	5.86
565.35	5.69
565.692	5.76
566.033	5.78
566.375	5.79
566.716	5.66
567.058	5.81
567.399	6.02
567.741	5.81
568.082	5.96
568.423	5.72
568.764	5.75
569.105	5.84
569.447	5.82
569.788	5.78
570.129	5.72
570.47	5.94
570.811	6.01
571.151	5.97
571.492	5.93
571.833	5.83
572.174	5.84
572.514	5.91
572.855	5.86
573.195	5.95
573.536	5.74
573.876	5.87
574.217	5.93
574.557	5.87
574.898	5.76
575.238	6.01
575.578	5.9
575.918	5.83
576.258	5.81
576.598	5.73
576.938	5.81
577.278	6
577.618	5.72
577.958	5.9
578.298	5.9
578.638	5.78
578.977	5.86
579.317	5.92
579.657	5.92
579.996	5.91
580.336	6.03
580.675	5.6
581.014	6.01
581.354	5.9
581.693	5.68
582.032	6.06
582.372	6
582.711	6.05
583.05	5.85
583.389	6
583.728	5.92
584.067	5.89
584.406	6.01
584.745	5.88
585.083	6.11
585.422	5.87
585.761	6.08
586.1	5.77
586.438	6.03
586.777	5.8
587.115	6.15
587.454	6.09
587.792	5.99
588.13	6.09
588.469	6.05
588.807	5.96
589.145	5.99
589.483	6.25
589.821	6.2
590.159	6
590.497	6.1
590.835	5.94
591.173	6.2
591.511	5.96
591.849	6.1
592.187	6.05
592.524	5.91
592.862	6
593.2	5.84
593.537	5.96
593.875	6.09
594.212	6.08
594.55	5.97
594.887	5.99
595.224	5.83
595.561	6.16
595.899	6.14
596.236	6.17
596.573	5.98
596.91	6.23
597.247	5.83
597.584	6.13
597.921	6
598.258	5.92
598.594	5.84
598.931	5.92
599.268	6.06
599.604	5.72
599.941	5.92
600.277	6
600.614	5.86
600.95	6
601.287	5.76
601.623	5.97
601.959	6.05
602.296	6.04
602.632	6.03
602.968	5.93
603.304	5.83
603.64	5.94
603.976	6.13
604.312	6.16
604.648	6.14
604.984	6.08
605.319	6.15
605.655	6.2
605.991	6.09
606.326	5.92
606.662	6.04
606.998	6.07
607.333	6.04
607.668	6.09
608.004	5.9
608.339	6.06
608.674	6.11
609.01	6.04
609.345	6.2
609.68	6.02
610.015	6.05
610.35	6.21
610.685	6.18
611.02	5.93
611.355	6.09
611.689	6.13
612.024	6.07
612.359	5.98
612.694	5.91
613.028	6.08
613.363	5.82
613.697	6.25
614.032	6
614.366	5.59
614.7	6.17
615.035	6.38
615.369	5.93
615.703	6.18
616.037	6.07
616.371	6.13
616.705	6.17
617.039	6.54
617.373	6.05
617.707	5.98
618.041	5.97
618.375	6.22
618.709	6.06
619.042	6.21
619.376	6
619.71	6.44
620.043	6.06
620.377	6.1
620.71	5.86
621.043	6.27
621.377	5.99
621.71	5.83
622.043	5.91
622.376	6.08
622.709	6.21
623.043	6.21
623.376	6.07
623.709	5.67
624.041	6.29
624.374	6.25
624.707	6.24
625.04	6.14
625.373	5.86
625.705	6.32
626.038	6.37
626.37	6.54
626.703	5.68
627.035	6.09
627.368	6.5
627.7	6.26
628.032	6.07
628.365	5.97
628.697	5.99
629.029	5.92
629.361	6.19
629.693	6.2
630.025	6.19
630.357	6.02
630.689	6.19
631.021	6.09
631.353	6.36
631.684	6.4
632.016	6.24
632.348	6.4
632.679	6.12
633.011	6.26
633.342	5.92
633.674	6.31
634.005	6.33
634.336	6.18
634.668	6.05
634.999	5.83
635.33	6.07
635.661	6.12
635.992	6.1
636.323	6.31
636.654	6.01
636.985	6.18
637.316	6.26
637.647	6.26
637.977	5.94
638.308	6.09
638.639	6.38
638.969	6.22
639.3	6.43
639.63	6.18
639.961	6.37
640.291	6.35
640.622	6.34
640.952	6.18
641.282	6.17
641.612	6.28
641.943	6.32
642.273	6.35
642.603	6.54
642.933	6.17
643.263	5.88
643.592	5.95
643.922	5.77
644.252	6.11
644.582	6.15
644.911	6.65
645.241	6.33
645.571	6.5
645.9	6.67
646.23	6.28
646.559	5.81
646.888	5.98
647.218	6.37
647.547	6.71
647.876	6.86
648.205	6.57
648.534	6.49
648.863	6.38
649.192	6.15
649.521	6.24
649.85	6.52
650.179	6.12
650.508	6.22
650.837	6.19
651.165	5.94
651.494	6.34
651.822	6.23
652.151	5.7
652.479	6.36
652.808	6.54
653.136	6.26
653.465	6.42
653.793	6.41
654.121	6.49
654.449	6.16
654.777	6.56
655.105	6.43
655.433	5.99
655.761	6.21
656.089	6.23
656.417	6.36
656.745	6.47
657.073	6.48
657.4	5.91
657.728	6.52
658.056	5.87
658.383	6.35
658.711	6.43
659.038	6.35
659.365	6.59
659.693	6.15
660.02	6.46
660.347	6.21
660.674	6.34
661.001	6.09
661.329	6.1
661.656	5.99
661.982	6.53
662.309	6.18
662.636	6.16
662.963	6.59
663.29	6.38
663.616	6.49
663.943	6.31
664.27	5.69
664.596	6.24
664.923	5.94
665.249	6.37
665.576	6.35
665.902	6.11
666.228	5.85
666.554	6.87
666.881	6.52
667.207	6.35
667.533	6.57
667.859	6.37
668.185	6.69
668.511	6.3
668.837	6.24
669.162	6.64
669.488	7.15
669.814	6.56
670.139	5.81
670.465	6.44
670.791	6.44
671.116	6.32
671.442	6.38
671.767	6.5
672.092	6.08
672.418	6.36
672.743	6.58
673.068	6.61
673.393	6.11
673.718	6.9
674.043	6.38
674.368	6.21
674.693	7.16
675.018	6.55
675.343	6.36
675.667	6.45
675.992	6.11
676.317	6.12
676.641	5.88
676.966	6.37
677.29	6.41
677.615	6.81
677.939	6.12
678.264	6.52
678.588	5.99
678.912	5.38
679.236	6.47
679.56	6.71
679.885	6.46
680.209	6.22
680.532	6.81
680.856	6.24
681.18	6.46
681.504	6.18
681.828	6.55
682.152	6.59
682.475	6.62
682.799	5.92
683.122	6.36
683.446	6.77
683.769	6.46
684.093	6.17
684.416	6.36
684.739	5.96
685.062	7.04
685.386	6.56
685.709	6.25
686.032	6.77
686.355	6.07
686.678	6.88
687.001	6.06
687.324	6.75
687.646	6.8
687.969	6.73
688.292	6.41
688.614	6.1
688.937	6.3
689.26	7.2
689.582	6.43
689.904	6.71
690.227	6.68
690.549	6.52
690.871	6.27
691.194	6.3
691.516	6.51
691.838	6.02
692.16	6.24
692.482	6.27
