Data from 815657_crown_Reflection__0__120.txt Node

Date: Fri Sep 16 15:37:50 CDT 2022
User: ToomeyLab
Spectrometer: FLMS14357
Trigger mode: 0
Integration Time (sec): 1.000000E-2
Scans to average: 100
Electric dark correction enabled: true
Nonlinearity correction enabled: false
Boxcar width: 0
XAxis mode: Wavelengths
Number of Pixels in Spectrum: 2048
>>>>>Begin Spectral Data<<<<<
189.047	147.02
189.435	147.02
189.823	147.02
190.211	82.54
190.599	39.42
190.987	56.16
191.375	111.55
191.763	114.63
192.151	161.65
192.538	-13792.31
192.926	40.38
193.314	241
193.702	-91.33
194.089	189.47
194.477	-93.32
194.864	213.43
195.252	66.31
195.639	952.57
196.027	-488.18
196.414	165.92
196.801	296.91
197.189	106.99
197.576	-243.51
197.963	176.92
198.351	-36.49
198.738	-17.89
199.125	20.8
199.512	-112.88
199.899	16.82
200.286	3.58
200.673	7.74
201.06	-13.23
201.447	-35.85
201.833	9.43
202.22	54.94
202.607	-18.2
202.994	44.1
203.38	-43.65
203.767	-31.93
204.154	0.92
204.54	21.59
204.927	-3.74
205.313	17.65
205.699	62.16
206.086	9.86
206.472	20.72
206.858	-20.82
207.245	20.63
207.631	22.06
208.017	28
208.403	4.96
208.789	-7.02
209.175	11.81
209.561	3.77
209.947	-2.28
210.333	-3.77
210.719	7.64
211.105	-5.93
211.491	-6.53
211.876	19.13
212.262	-1.69
212.648	-24.23
213.034	7.86
213.419	-12.31
213.805	6.65
214.19	7.27
214.576	-33.53
214.961	-6.25
215.346	-11.58
215.732	-23.12
216.117	2.19
216.502	-11.98
216.888	0.73
217.273	-11.07
217.658	0.76
218.043	-42.26
218.428	11.66
218.813	-8.18
219.198	7.38
219.583	-7.58
219.968	22.09
220.353	-3.22
220.738	18.7
221.122	-15.48
221.507	18.89
221.892	-11.47
222.276	16.1
222.661	5.06
223.046	13.26
223.43	8.46
223.815	-6.08
224.199	13.29
224.583	2.62
224.968	6.91
225.352	-12.41
225.736	-0.73
226.121	0.93
226.505	4.49
226.889	1.51
227.273	3.18
227.657	5.18
228.041	0.31
228.425	-2.74
228.809	8.37
229.193	3.49
229.577	3.19
229.961	1.57
230.344	2.99
230.728	2.65
231.112	2.52
231.495	1.69
231.879	2.79
232.263	1.44
232.646	0.96
233.03	3.8
233.413	3.65
233.797	2.32
234.18	3.17
234.563	3.64
234.946	2.68
235.33	3.2
235.713	0.69
236.096	2.23
236.479	2.7
236.862	1.62
237.245	1.59
237.628	4.48
238.011	3.89
238.394	3.22
238.777	3.24
239.16	2
239.543	4.43
239.925	3.06
240.308	1.65
240.691	3.06
241.073	2.38
241.456	3.53
241.838	1.82
242.221	2.78
242.603	2.54
242.986	2.06
243.368	2.35
243.75	2.06
244.133	2.81
244.515	2.15
244.897	2.98
245.279	2.73
245.661	3.19
246.043	2
246.425	2.46
246.807	3.5
247.189	1.68
247.571	1.76
247.953	2.08
248.335	2.6
248.717	2.52
249.098	2.54
249.48	2.51
249.862	2.56
250.243	2.64
250.625	2.69
251.006	2.69
251.388	2.89
251.769	1.78
252.151	2.49
252.532	1.55
252.913	2.5
253.295	2.25
253.676	2.88
254.057	2.24
254.438	2.63
254.819	1.37
255.2	1.68
255.581	2.25
255.962	1.75
256.343	2.31
256.724	0.57
257.105	1.42
257.486	2.46
257.867	1.48
258.247	2.51
258.628	3.13
259.009	2.53
259.389	2.64
259.77	1.84
260.15	2.67
260.531	2.52
260.911	2.17
261.292	2.32
261.672	2.39
262.052	2.29
262.432	2.29
262.813	3.01
263.193	2.26
263.573	2.34
263.953	2.7
264.333	2.31
264.713	2.17
265.093	1.92
265.473	1.77
265.853	2.47
266.233	2.4
266.612	1.97
266.992	1.29
267.372	2.99
267.752	2.08
268.131	2.4
268.511	2.83
268.89	2.41
269.27	2.18
269.649	2.3
270.029	2.09
270.408	2.34
270.787	2.23
271.167	2.45
271.546	2.53
271.925	2.38
272.304	2.31
272.683	1.77
273.062	2.01
273.441	2.22
273.82	2.37
274.199	2.63
274.578	2.22
274.957	2.31
275.336	2.58
275.715	2.95
276.093	2.42
276.472	2.15
276.851	2.25
277.229	2.5
277.608	2.67
277.986	2.69
278.365	1.67
278.743	2.2
279.122	2.08
279.5	2.2
279.878	2.42
280.257	2.46
280.635	2.63
281.013	2.42
281.391	2.42
281.769	2.32
282.147	2.51
282.525	1.54
282.903	2.46
283.281	2.38
283.659	2.51
284.037	2.3
284.415	2.83
284.792	2.54
285.17	2.76
285.548	1.98
285.925	2.42
286.303	2.52
286.68	2.18
287.058	2.15
287.435	2.35
287.813	2.57
288.19	2.03
288.567	2.06
288.945	2.12
289.322	2.43
289.699	2.27
290.076	1.84
290.453	2.36
290.83	2.57
291.207	2.52
291.584	2.12
291.961	2.28
292.338	2.6
292.715	2.05
293.092	2.57
293.469	2.39
293.845	2.31
294.222	2.73
294.599	2.13
294.975	2.36
295.352	2.45
295.728	2.38
296.105	2.68
296.481	1.84
296.858	2.05
297.234	2.29
297.61	2.4
297.986	2.44
298.363	2.08
298.739	2.06
299.115	2.81
299.491	2.61
299.867	2.42
300.243	2.39
300.619	2.67
300.995	2.17
301.371	2.55
301.746	2.38
302.122	2.77
302.498	1.95
302.874	2.06
303.249	2.41
303.625	2.15
304	2.11
304.376	2
304.751	2.5
305.127	2.32
305.502	2.73
305.878	2.57
306.253	2.27
306.628	2.28
307.003	2.69
307.378	2.77
307.754	2.58
308.129	2.76
308.504	3.17
308.879	2.88
309.254	2.69
309.629	1.97
310.003	2.79
310.378	1.62
310.753	2.05
311.128	2.24
311.502	2.2
311.877	2.46
312.252	2.7
312.626	2.16
313.001	2.59
313.375	2.33
313.75	2.37
314.124	2.23
314.498	2.13
314.873	2.83
315.247	2.33
315.621	2.52
315.995	2.13
316.369	2.94
316.743	2.65
317.117	2.27
317.491	2.56
317.865	2.35
318.239	2.14
318.613	2.25
318.987	2.3
319.361	2.03
319.734	2.65
320.108	2.35
320.482	2.81
320.855	2.66
321.229	2.43
321.602	3.1
321.976	2.54
322.349	2.75
322.723	2.67
323.096	2.71
323.469	2.09
323.843	2.67
324.216	2.84
324.589	2.53
324.962	2.42
325.335	2.78
325.708	2.51
326.081	2.51
326.454	2.74
326.827	2.35
327.2	2.11
327.573	2.5
327.945	2.74
328.318	2.77
328.691	2.42
329.063	2.06
329.436	2.64
329.809	2.04
330.181	2.69
330.553	2.97
330.926	2.48
331.298	2.63
331.671	3.35
332.043	2.47
332.415	2.7
332.787	2.42
333.159	2.73
333.532	2.72
333.904	2.75
334.276	2.67
334.648	2.79
335.02	2.83
335.391	2.78
335.763	2.52
336.135	2.05
336.507	2.72
336.879	3.64
337.25	1.73
337.622	2.3
337.993	3.03
338.365	2.74
338.736	3.02
339.108	2.62
339.479	2.77
339.851	2.68
340.222	2.43
340.593	2.46
340.964	3.08
341.336	2.95
341.707	2.19
342.078	3.03
342.449	2.77
342.82	2.41
343.191	2.72
343.562	2.76
343.933	3.04
344.303	2.68
344.674	2.27
345.045	3.03
345.416	2.27
345.786	2.68
346.157	2.83
346.527	2.7
346.898	2.47
347.268	2.65
347.639	2.57
348.009	2.48
348.38	2.61
348.75	2.47
349.12	2.64
349.49	2.75
349.861	2.66
350.231	2.44
350.601	2.71
350.971	2.69
351.341	2.86
351.711	2.77
352.081	2.69
352.45	2.86
352.82	2.99
353.19	2.48
353.56	2.74
353.929	2.55
354.299	2.43
354.669	2.58
355.038	2.89
355.408	2.82
355.777	2.65
356.147	2.76
356.516	2.83
356.885	2.26
357.254	2.91
357.624	2.54
357.993	2.82
358.362	2.39
358.731	2.68
359.1	2.76
359.469	2.64
359.838	2.64
360.207	2.91
360.576	3.06
360.945	2.88
361.314	2.99
361.682	2.71
362.051	2.8
362.42	2.96
362.788	2.98
363.157	2.91
363.525	2.66
363.894	2.72
364.262	2.78
364.631	2.8
364.999	2.85
365.367	2.59
365.735	2.76
366.104	3.16
366.472	2.93
366.84	2.8
367.208	2.88
367.576	2.79
367.944	2.56
368.312	2.64
368.68	2.99
369.048	2.87
369.416	2.88
369.783	2.72
370.151	2.84
370.519	2.94
370.886	2.63
371.254	2.66
371.621	2.89
371.989	2.61
372.356	3.05
372.724	2.99
373.091	2.78
373.458	2.52
373.826	3.11
374.193	3.19
374.56	2.63
374.927	2.68
375.294	3.02
375.661	2.82
376.028	3.02
376.395	2.69
376.762	3.33
377.129	2.58
377.496	3.02
377.863	2.96
378.229	2.9
378.596	2.5
378.963	2.94
379.329	3.1
379.696	3.15
380.062	2.87
380.429	2.7
380.795	2.93
381.161	3
381.528	3.2
381.894	2.87
382.26	3
382.626	2.82
382.993	2.91
383.359	2.76
383.725	2.69
384.091	3.03
384.457	2.3
384.823	2.75
385.188	2.67
385.554	2.9
385.92	2.81
386.286	2.79
386.651	2.93
387.017	2.76
387.383	2.63
387.748	2.45
388.114	2.6
388.479	2.93
388.845	3.02
389.21	3.03
389.575	2.81
389.94	2.95
390.306	2.89
390.671	2.99
391.036	2.79
391.401	2.9
391.766	2.79
392.131	3.03
392.496	2.79
392.861	2.84
393.226	3.09
393.591	2.97
393.956	2.86
394.32	3.18
394.685	2.9
395.05	2.93
395.414	2.76
395.779	2.93
396.143	3.14
396.508	2.74
396.872	2.92
397.236	2.99
397.601	2.77
397.965	2.66
398.329	3.03
398.694	2.81
399.058	3.17
399.422	2.79
399.786	2.95
400.15	3.07
400.514	2.96
400.878	3.2
401.242	2.88
401.605	2.8
401.969	2.84
402.333	2.97
402.697	2.93
403.06	3.16
403.424	3.1
403.787	2.95
404.151	2.92
404.514	2.78
404.878	2.88
405.241	2.95
405.604	2.94
405.968	3.04
406.331	2.84
406.694	2.97
407.057	2.88
407.42	2.74
407.783	3.11
408.146	3.17
408.509	3.01
408.872	3.02
409.235	3.25
409.598	3.09
409.961	2.9
410.323	2.86
410.686	3.11
411.049	2.89
411.411	2.9
411.774	2.9
412.136	2.85
412.499	3.03
412.861	2.94
413.223	3.11
413.586	3.13
413.948	3.07
414.31	3.07
414.672	2.94
415.035	3.25
415.397	2.74
415.759	2.99
416.121	3.02
416.483	2.95
416.845	3.11
417.206	3.08
417.568	3.02
417.93	3.25
418.292	3.06
418.653	2.8
419.015	2.96
419.377	3.02
419.738	2.85
420.1	2.86
420.461	3.03
420.822	2.82
421.184	3.02
421.545	2.91
421.906	2.96
422.267	3.05
422.629	2.82
422.99	2.89
423.351	2.91
423.712	2.84
424.073	3.06
424.434	2.98
424.795	2.86
425.155	2.93
425.516	2.96
425.877	2.99
426.238	2.98
426.598	2.99
426.959	3
427.32	2.98
427.68	3.18
428.041	3.01
428.401	3.06
428.761	3.3
429.122	3.18
429.482	3
429.842	3.07
430.202	3.07
430.563	3.09
430.923	3.07
431.283	3.21
431.643	3.23
432.003	3.17
432.363	3.04
432.722	3.11
433.082	3.05
433.442	3.1
433.802	3.1
434.161	2.97
434.521	3.11
434.881	2.98
435.24	3.03
435.6	3.12
435.959	3.15
436.319	3.15
436.678	3.23
437.037	2.88
437.396	3.2
437.756	3.33
438.115	3.11
438.474	2.98
438.833	3.02
439.192	3.1
439.551	2.95
439.91	3.06
440.269	3.12
440.628	2.96
440.987	3.03
441.345	3.08
441.704	3.13
442.063	3.12
442.421	3.01
442.78	3.12
443.138	3.1
443.497	3.2
443.855	3.07
444.214	3.05
444.572	3.23
444.93	3.09
445.288	3.08
445.647	3.07
446.005	3.06
446.363	3
446.721	3.05
447.079	3.05
447.437	3.1
447.795	2.92
448.153	3.05
448.51	3.01
448.868	3
449.226	3.03
449.584	3.13
449.941	3.08
450.299	3.18
450.656	3.04
451.014	3.2
451.371	3.16
451.729	3.11
452.086	3.03
452.443	3.13
452.801	3.27
453.158	3.09
453.515	3.11
453.872	2.96
454.229	3.09
454.586	3.11
454.943	3.08
455.3	3.13
455.657	3.03
456.014	3.29
456.371	3.02
456.727	3.09
457.084	3.3
457.441	3.09
457.797	3.06
458.154	3
458.51	3.14
458.867	3.11
459.223	3.17
459.58	3.14
459.936	3.04
460.292	3.24
460.648	2.97
461.005	3.14
461.361	2.92
461.717	3.04
462.073	3.12
462.429	3.14
462.785	3.19
463.141	3.25
463.496	3.17
463.852	3.25
464.208	3.16
464.564	3.2
464.919	3.23
465.275	3.45
465.631	3.24
465.986	3.17
466.342	3.19
466.697	3.26
467.052	3.26
467.408	3.33
467.763	3.23
468.118	3.25
468.473	3.22
468.829	3.09
469.184	3.15
469.539	3.33
469.894	3.36
470.249	3.36
470.603	3.36
470.958	3.17
471.313	3.21
471.668	3.23
472.023	3.13
472.377	3.14
472.732	3.19
473.086	3.2
473.441	3.17
473.795	3.26
474.15	3.12
474.504	3.36
474.859	3.23
475.213	3.26
475.567	3.04
475.921	3.29
476.275	3.21
476.63	3.27
476.984	3.45
477.338	3.45
477.692	3.21
478.045	3.3
478.399	3.24
478.753	3.16
479.107	3.25
479.461	3.29
479.814	3.19
480.168	3.11
480.521	3.27
480.875	3.24
481.228	3.23
481.582	3.22
481.935	3.26
482.289	3.28
482.642	3.22
482.995	3.16
483.348	3.16
483.701	3.17
484.055	3.11
484.408	3.18
484.761	3.08
485.114	2.93
485.466	2.89
485.819	2.9
486.172	2.99
486.525	3.11
486.878	3.15
487.23	3.19
487.583	3.2
487.936	3.16
488.288	3.12
488.641	3.08
488.993	3.05
489.345	3.06
489.698	3.02
490.05	3.08
490.402	3.09
490.754	3.22
491.107	3.21
491.459	3.23
491.811	3.18
492.163	3.18
492.515	3.08
492.866	3.04
493.218	2.98
493.57	3.02
493.922	3.14
494.274	3.24
494.625	3.21
494.977	3.22
495.328	3.23
495.68	3.17
496.031	3.39
496.383	3.29
496.734	3.32
497.086	3.31
497.437	3.26
497.788	3.34
498.139	3.28
498.49	3.26
498.842	3.17
499.193	3.18
499.544	3.3
499.894	3.21
500.245	3.27
500.596	3.31
500.947	3.33
501.298	3.24
501.648	3.34
501.999	3.31
502.35	3.25
502.7	3.45
503.051	3.38
503.401	3.34
503.752	3.32
504.102	3.36
504.452	3.35
504.803	3.37
505.153	3.41
505.503	3.34
505.853	3.31
506.203	3.31
506.553	3.26
506.903	3.28
507.253	3.33
507.603	3.39
507.953	3.42
508.303	3.33
508.652	3.24
509.002	3.43
509.352	3.37
509.701	3.31
510.051	3.37
510.4	3.26
510.75	3.37
511.099	3.31
511.449	3.24
511.798	3.32
512.147	3.25
512.496	3.29
512.846	3.33
513.195	3.23
513.544	3.35
513.893	3.38
514.242	3.24
514.591	3.38
514.939	3.35
515.288	3.42
515.637	3.35
515.986	3.33
516.334	3.3
516.683	3.43
517.032	3.35
517.38	3.47
517.729	3.55
518.077	3.44
518.426	3.31
518.774	3.39
519.122	3.32
519.47	3.29
519.819	3.21
520.167	3.18
520.515	3.27
520.863	3.39
521.211	3.37
521.559	3.4
521.907	3.39
522.255	3.37
522.602	3.47
522.95	3.4
523.298	3.43
523.645	3.38
523.993	3.35
524.341	3.45
524.688	3.57
525.036	3.45
525.383	3.47
525.73	3.48
526.078	3.48
526.425	3.23
526.772	3.33
527.119	3.21
527.466	3.27
527.814	3.34
528.161	3.4
528.508	3.31
528.854	3.47
529.201	3.24
529.548	3.27
529.895	3.15
530.242	3.16
530.588	3.18
530.935	3.22
531.282	3.35
531.628	3.36
531.975	3.42
532.321	3.44
532.667	3.44
533.014	3.47
533.36	3.42
533.706	3.4
534.052	3.29
534.399	3.38
534.745	3.29
535.091	3.26
535.437	3.3
535.783	3.36
536.129	3.46
536.474	3.42
536.82	3.46
537.166	3.5
537.512	3.46
537.857	3.42
538.203	3.28
538.549	3.35
538.894	3.29
539.239	3.5
539.585	3.49
539.93	3.5
540.276	3.69
540.621	3.57
540.966	3.48
541.311	3.6
541.656	3.53
542.001	3.36
542.346	3.28
542.691	3.32
543.036	3.24
543.381	3.23
543.726	3.36
544.071	3.39
544.415	3.44
544.76	3.41
545.105	3.48
545.449	3.42
545.794	3.42
546.138	3.48
546.483	3.66
546.827	3.69
547.171	3.43
547.516	3.29
547.86	3.46
548.204	3.47
548.548	3.38
548.892	3.41
549.236	3.52
549.58	3.62
549.924	3.63
550.268	3.66
550.612	3.65
550.956	3.56
551.3	3.66
551.643	3.68
551.987	3.73
552.33	3.65
552.674	3.55
553.017	3.53
553.361	3.62
553.704	3.63
554.048	3.53
554.391	3.58
554.734	3.58
555.077	3.53
555.42	3.7
555.764	3.75
556.107	3.73
556.45	3.69
556.793	3.83
557.135	3.57
557.478	3.68
557.821	3.64
558.164	3.81
558.507	3.57
558.849	3.59
559.192	3.68
559.534	3.65
559.877	3.45
560.219	3.61
560.562	3.75
560.904	3.55
561.246	3.67
561.589	3.72
561.931	3.58
562.273	3.68
562.615	3.77
562.957	3.78
563.299	3.83
563.641	3.76
563.983	3.78
564.325	3.72
564.667	3.51
565.008	3.75
565.35	3.71
565.692	3.71
566.033	3.73
566.375	3.58
566.716	3.64
567.058	3.65
567.399	3.78
567.741	3.6
568.082	3.67
568.423	3.55
568.764	3.71
569.105	3.77
569.447	3.68
569.788	3.7
570.129	3.83
570.47	3.76
570.811	3.84
571.151	3.75
571.492	3.77
571.833	3.74
572.174	3.71
572.514	3.66
572.855	3.64
573.195	3.7
573.536	3.67
573.876	3.67
574.217	3.61
574.557	3.82
574.898	3.89
575.238	3.71
575.578	3.87
575.918	3.79
576.258	3.81
576.598	3.61
576.938	3.68
577.278	3.72
577.618	3.76
577.958	3.75
578.298	3.72
578.638	3.74
578.977	3.71
579.317	3.85
579.657	3.66
579.996	3.83
580.336	3.86
580.675	3.94
581.014	3.89
581.354	3.76
581.693	3.72
582.032	3.91
582.372	3.82
582.711	3.93
583.05	3.98
583.389	3.82
583.728	3.81
584.067	3.91
584.406	4.2
584.745	3.94
585.083	3.9
585.422	4.15
585.761	4.15
586.1	3.59
586.438	4.02
586.777	3.67
587.115	3.86
587.454	3.99
587.792	3.83
588.13	4.25
588.469	3.71
588.807	3.75
589.145	3.78
589.483	4.24
589.821	3.98
590.159	3.83
590.497	3.8
590.835	4
591.173	4.05
591.511	3.94
591.849	4.02
592.187	3.86
592.524	3.75
592.862	4.06
593.2	3.66
593.537	3.89
593.875	3.91
594.212	3.82
594.55	3.99
594.887	4.1
595.224	3.83
595.561	4.1
595.899	4.02
596.236	4.12
596.573	3.9
596.91	4.03
597.247	3.74
597.584	3.92
597.921	4
598.258	3.8
598.594	3.63
598.931	3.84
599.268	3.9
599.604	3.8
599.941	3.86
600.277	3.95
600.614	4.07
600.95	3.96
601.287	3.99
601.623	3.99
601.959	4.06
602.296	3.91
602.632	4.01
602.968	3.92
603.304	3.91
603.64	3.92
603.976	4
604.312	4.09
604.648	4
604.984	4
605.319	4.16
605.655	4.04
605.991	3.99
606.326	3.96
606.662	3.96
606.998	3.88
607.333	4.09
607.668	4.12
608.004	3.97
608.339	3.99
608.674	4.18
609.01	4.26
609.345	4.28
609.68	3.85
610.015	4.07
610.35	4.15
610.685	4.17
611.02	4.05
611.355	4.06
611.689	3.9
612.024	4.06
612.359	4.19
612.694	4.06
613.028	4.26
613.363	3.89
613.697	4.08
614.032	4.07
614.366	3.94
614.7	4.18
615.035	4.03
615.369	4.19
615.703	4.11
616.037	4.2
616.371	4.2
616.705	4.14
617.039	4.36
617.373	3.94
617.707	4.34
618.041	4.24
618.375	3.96
618.709	4.18
619.042	3.79
619.376	4.57
619.71	4.4
620.043	4.04
620.377	4.57
620.71	4.34
621.043	4.62
621.377	4.26
621.71	4.11
622.043	4.2
622.376	4.13
622.709	4.3
623.043	4.26
623.376	3.93
623.709	4.02
624.041	4.32
624.374	4.26
624.707	4.15
625.04	4.19
625.373	4
625.705	4.52
626.038	4.49
626.37	4.22
626.703	3.98
627.035	4.28
627.368	4.45
627.7	4.47
628.032	4.08
628.365	4.22
628.697	4.04
629.029	4.48
629.361	4.44
629.693	4.22
630.025	4.39
630.357	4.6
630.689	4.27
631.021	4.41
631.353	4.48
631.684	4.2
632.016	4.33
632.348	4.39
632.679	3.91
633.011	4.08
633.342	4.14
633.674	4.76
634.005	4.19
634.336	4.29
634.668	4.23
634.999	4.16
635.33	4.38
635.661	4.15
635.992	4.18
636.323	4.12
636.654	4.16
636.985	4.5
637.316	4.45
637.647	4.51
637.977	4.46
638.308	4.58
638.639	4.49
638.969	4.27
639.3	4.28
639.63	4.11
639.961	4.38
640.291	4.33
640.622	4.41
640.952	4.65
641.282	4.39
641.612	4.65
641.943	4.18
642.273	4.51
642.603	4.62
642.933	4.58
643.263	4.26
643.592	4.46
643.922	3.73
644.252	4.23
644.582	4.58
644.911	4.79
645.241	4.54
645.571	4.67
645.9	5.09
646.23	4.15
646.559	4
646.888	4.23
647.218	4.89
647.547	4.41
647.876	4.79
648.205	4.71
648.534	4.77
648.863	4.65
649.192	4.55
649.521	4.66
649.85	4.56
650.179	4.41
650.508	4.43
650.837	4.23
651.165	4.28
651.494	4.83
651.822	4.77
652.151	4.16
652.479	4.67
652.808	4.53
653.136	4.58
653.465	4.71
653.793	4.41
654.121	4.81
654.449	4.5
654.777	4.53
655.105	4.72
655.433	4.53
655.761	4.34
656.089	4.19
656.417	4.74
656.745	4.72
657.073	4.44
657.4	4.59
657.728	4.91
658.056	4.2
658.383	4.47
658.711	4.3
659.038	4.53
659.365	5.02
659.693	4.29
660.02	4.94
660.347	4.84
660.674	4.63
661.001	4.61
661.329	4.26
661.656	4.54
661.982	4.83
662.309	4.94
662.636	5
662.963	4.37
663.29	4.76
663.616	4.59
663.943	4.55
664.27	4.53
664.596	4.71
664.923	4.42
665.249	4.92
665.576	4.54
665.902	4.59
666.228	4.13
666.554	5.18
666.881	4.78
667.207	5
667.533	4.55
667.859	4.49
668.185	4.94
668.511	4.57
668.837	4.23
669.162	4.71
669.488	5.32
669.814	4.88
670.139	4.79
670.465	4.53
670.791	4.55
671.116	4.53
671.442	4.5
671.767	4.46
672.092	4.74
672.418	4.61
672.743	4.53
673.068	5.27
673.393	4.58
673.718	4.93
674.043	4.67
674.368	5.01
674.693	5.66
675.018	5.51
675.343	4.92
675.667	4.41
675.992	4.76
676.317	4.38
676.641	4.35
676.966	4.61
677.29	4.4
677.615	4.97
677.939	4.99
678.264	5.04
678.588	4.4
678.912	4.36
679.236	5.03
679.56	5.21
679.885	5.12
680.209	4.26
680.532	5.32
680.856	4.58
681.18	4.95
681.504	4.51
681.828	4.55
682.152	4.2
682.475	4.88
682.799	4.14
683.122	4.39
683.446	5.01
683.769	4.75
684.093	4.55
684.416	4.91
684.739	4.35
685.062	5.39
685.386	4.43
685.709	4.68
686.032	5.01
686.355	5
686.678	5.2
687.001	4.74
687.324	5.62
687.646	5.07
687.969	4.81
688.292	5.21
688.614	4.73
688.937	5.36
689.26	5.3
689.582	4.39
689.904	4.73
690.227	5.12
690.549	4.95
690.871	4.92
691.194	4.65
691.516	4.41
691.838	5.72
692.16	5.31
692.482	4.96
692.804	4.8
