Data from 815657_crown_Reflection__2__122.txt Node

Date: Fri Sep 16 15:38:12 CDT 2022
User: ToomeyLab
Spectrometer: FLMS14357
Trigger mode: 0
Integration Time (sec): 1.000000E-2
Scans to average: 100
Electric dark correction enabled: true
Nonlinearity correction enabled: false
Boxcar width: 0
XAxis mode: Wavelengths
Number of Pixels in Spectrum: 2048
>>>>>Begin Spectral Data<<<<<
189.047	262.3
189.435	262.3
189.823	262.3
190.211	33.42
190.599	-17.67
190.987	27.14
191.375	81.38
191.763	96.09
192.151	-660.53
192.538	-173.08
192.926	68.94
193.314	324.84
193.702	529.57
194.089	194.65
194.477	-153.1
194.864	4.51
195.252	-1.96
195.639	364.5
196.027	-1183
196.414	-34.3
196.801	275.73
197.189	76.6
197.576	756.11
197.963	331.79
198.351	-50.53
198.738	-11.85
199.125	58
199.512	-112.5
199.899	5.34
200.286	-33.45
200.673	4.77
201.06	-14.79
201.447	-0.68
201.833	-10.53
202.22	0.81
202.607	-57.58
202.994	19.04
203.38	-30.76
203.767	1.82
204.154	45.33
204.54	11.44
204.927	-26.01
205.313	14.02
205.699	28.58
206.086	-4.21
206.472	15.95
206.858	-20.75
207.245	5.64
207.631	37.41
208.017	24.51
208.403	-4.68
208.789	-13.54
209.175	19.3
209.561	45.01
209.947	17.1
210.333	25.87
210.719	-34.95
211.105	-1.04
211.491	3.3
211.876	4.89
212.262	-11.37
212.648	-66.7
213.034	-4.45
213.419	-6.13
213.805	-19
214.19	5.34
214.576	-3.94
214.961	-58.83
215.346	-13.87
215.732	-85.47
216.117	-4.57
216.502	12.64
216.888	-33.5
217.273	12.61
217.658	15.57
218.043	-41.98
218.428	0.25
218.813	-18.41
219.198	-8.41
219.583	-6.3
219.968	4.53
220.353	-8.66
220.738	12.25
221.122	-19.05
221.507	12.71
221.892	-1.57
222.276	5.42
222.661	10.19
223.046	10.83
223.43	11.68
223.815	-8.71
224.199	5.84
224.583	5.37
224.968	9.54
225.352	-7.9
225.736	6.5
226.121	6.05
226.505	8.19
226.889	4.62
227.273	3.01
227.657	6.76
228.041	3.04
228.425	-5.16
228.809	4.16
229.193	1.85
229.577	3.3
229.961	2.64
230.344	4.48
230.728	3.74
231.112	4.16
231.495	2.46
231.879	3.05
232.263	2.98
232.646	4.16
233.03	3.57
233.413	4.31
233.797	0.68
234.18	4.03
234.563	1.71
234.946	3.78
235.33	3.85
235.713	2.17
236.096	3.31
236.479	2.18
236.862	2.9
237.245	3.26
237.628	5.74
238.011	4.28
238.394	3.52
238.777	4.76
239.16	2.52
239.543	4.29
239.925	4
240.308	4.14
240.691	3.86
241.073	3.35
241.456	2.52
241.838	2.95
242.221	3.56
242.603	3.06
242.986	3.15
243.368	3.43
243.75	3.58
244.133	3.65
244.515	3.47
244.897	4.34
245.279	3.35
245.661	3.9
246.043	2.91
246.425	3.54
246.807	3.46
247.189	2.93
247.571	2.92
247.953	3.58
248.335	3.67
248.717	3.5
249.098	3.51
249.48	3.4
249.862	3.26
250.243	3.8
250.625	3.77
251.006	3.64
251.388	3.46
251.769	2.34
252.151	3.22
252.532	3.11
252.913	3.46
253.295	3.54
253.676	3.81
254.057	3.54
254.438	2.84
254.819	2.54
255.2	2.78
255.581	3.77
255.962	2.63
256.343	4.11
256.724	2.87
257.105	3.21
257.486	3.74
257.867	3.56
258.247	3.44
258.628	3.77
259.009	3.57
259.389	3.71
259.77	2.96
260.15	3.24
260.531	2.84
260.911	3.23
261.292	3.03
261.672	3.24
262.052	3.27
262.432	3.43
262.813	3.78
263.193	3.47
263.573	3.51
263.953	3.37
264.333	3.47
264.713	2.58
265.093	3.2
265.473	3.08
265.853	3.49
266.233	3.42
266.612	3.85
266.992	2.4
267.372	3.47
267.752	2.76
268.131	3.15
268.511	3.6
268.89	3.98
269.27	2.96
269.649	3.09
270.029	2.86
270.408	2.83
270.787	2.94
271.167	2.9
271.546	3.79
271.925	3.67
272.304	2.89
272.683	2.85
273.062	2.91
273.441	3.05
273.82	2.89
274.199	3.19
274.578	3.09
274.957	3.36
275.336	3.4
275.715	3.88
276.093	2.82
276.472	3.17
276.851	2.82
277.229	2.76
277.608	2.91
277.986	3.36
278.365	2.47
278.743	3.01
279.122	2.5
279.5	3.16
279.878	3.2
280.257	3.45
280.635	3.38
281.013	3.07
281.391	3.12
281.769	3.35
282.147	2.85
282.525	2.52
282.903	3.22
283.281	3.14
283.659	3.24
284.037	3.32
284.415	3.16
284.792	3.42
285.17	3.04
285.548	2.68
285.925	2.65
286.303	3.7
286.68	3.04
287.058	2.97
287.435	3.22
287.813	3.31
288.19	2.94
288.567	2.92
288.945	3.11
289.322	3.46
289.699	3.08
290.076	2.82
290.453	3.24
290.83	3.31
291.207	3.02
291.584	2.53
291.961	3.31
292.338	3.28
292.715	2.97
293.092	3
293.469	2.81
293.845	2.99
294.222	3.02
294.599	2.77
294.975	2.77
295.352	3.35
295.728	2.67
296.105	3.28
296.481	2.59
296.858	3.03
297.234	3.08
297.61	3.55
297.986	3.06
298.363	2.98
298.739	2.9
299.115	3.45
299.491	3.33
299.867	3.03
300.243	3.06
300.619	3.52
300.995	3.21
301.371	3.06
301.746	2.64
302.122	3.18
302.498	2.81
302.874	3.09
303.249	3.28
303.625	3.29
304	3.05
304.376	2.95
304.751	3.15
305.127	3.04
305.502	2.81
305.878	3.14
306.253	2.98
306.628	2.93
307.003	2.84
307.378	3.11
307.754	3.2
308.129	3.72
308.504	3.09
308.879	3.52
309.254	3.39
309.629	2.96
310.003	2.91
310.378	2.41
310.753	3.19
311.128	3.09
311.502	3.17
311.877	3.31
312.252	3.52
312.626	3.06
313.001	2.9
313.375	3.53
313.75	3.19
314.124	2.83
314.498	3.06
314.873	3.95
315.247	3.1
315.621	3.39
315.995	3.2
316.369	3.11
316.743	3.41
317.117	2.97
317.491	2.62
317.865	3.67
318.239	3.18
318.613	2.76
318.987	2.75
319.361	2.54
319.734	2.82
320.108	3.24
320.482	3.42
320.855	2.96
321.229	2.82
321.602	3.74
321.976	3.3
322.349	3.42
322.723	2.95
323.096	2.83
323.469	2.89
323.843	3.82
324.216	3.41
324.589	3.65
324.962	2.78
325.335	3.49
325.708	3.48
326.081	2.92
326.454	3.12
326.827	2.82
327.2	2.59
327.573	3.12
327.945	3.17
328.318	3.26
328.691	3.04
329.063	3.26
329.436	2.96
329.809	2.88
330.181	2.96
330.553	3.07
330.926	2.87
331.298	3.58
331.671	3.07
332.043	3.07
332.415	3.09
332.787	3.22
333.159	2.99
333.532	3.43
333.904	3.47
334.276	3.03
334.648	2.92
335.02	3.66
335.391	3.71
335.763	3.01
336.135	2.58
336.507	3.33
336.879	3.67
337.25	2.48
337.622	3.84
337.993	3.49
338.365	3.12
338.736	3.78
339.108	3.27
339.479	3.51
339.851	3.17
340.222	3.43
340.593	3.67
340.964	3.42
341.336	3.27
341.707	3.32
342.078	3.74
342.449	3.31
342.82	3.61
343.191	3.59
343.562	3.83
343.933	3.63
344.303	3.81
344.674	2.82
345.045	3.54
345.416	3.25
345.786	3.16
346.157	3.85
346.527	3.52
346.898	3.24
347.268	3.66
347.639	3.31
348.009	3.22
348.38	3.63
348.75	3.04
349.12	3.57
349.49	3.69
349.861	3.2
350.231	3.5
350.601	3.5
350.971	3.57
351.341	3.72
351.711	3.18
352.081	3.26
352.45	3.89
352.82	3.69
353.19	3.55
353.56	3.82
353.929	3.46
354.299	3.62
354.669	3.31
355.038	3.36
355.408	3.59
355.777	3.55
356.147	3.8
356.516	3.67
356.885	3.51
357.254	3.56
357.624	3.18
357.993	3.25
358.362	3.2
358.731	3.63
359.1	3.94
359.469	3.45
359.838	3.76
360.207	3.87
360.576	3.63
360.945	3.79
361.314	3.58
361.682	3.26
362.051	3.64
362.42	3.78
362.788	3.84
363.157	3.49
363.525	3.58
363.894	3.65
364.262	3.54
364.631	3.63
364.999	3.65
365.367	3.53
365.735	4.13
366.104	3.88
366.472	3.63
366.84	3.76
367.208	3.83
367.576	3.99
367.944	3.5
368.312	3.52
368.68	3.85
369.048	3.7
369.416	3.68
369.783	3.82
370.151	3.83
370.519	3.56
370.886	3.77
371.254	3.8
371.621	3.89
371.989	3.51
372.356	4.16
372.724	3.78
373.091	3.71
373.458	3.68
373.826	3.54
374.193	4.05
374.56	3.54
374.927	3.75
375.294	3.91
375.661	3.7
376.028	4.06
376.395	3.57
376.762	4.03
377.129	3.63
377.496	3.8
377.863	3.82
378.229	3.84
378.596	3.51
378.963	3.75
379.329	3.74
379.696	4.02
380.062	3.75
380.429	3.82
380.795	4.05
381.161	4.21
381.528	4.05
381.894	3.75
382.26	3.77
382.626	3.84
382.993	3.62
383.359	3.84
383.725	4.07
384.091	3.83
384.457	3.66
384.823	3.6
385.188	3.69
385.554	3.9
385.92	3.84
386.286	3.85
386.651	4
387.017	3.97
387.383	3.6
387.748	3.42
388.114	3.48
388.479	4.09
388.845	3.95
389.21	3.96
389.575	4.17
389.94	3.97
390.306	3.71
390.671	3.77
391.036	4.06
391.401	3.89
391.766	4.08
392.131	3.96
392.496	3.79
392.861	3.94
393.226	4
393.591	3.89
393.956	4.04
394.32	4.31
394.685	3.92
395.05	4.04
395.414	3.83
395.779	3.78
396.143	4.17
396.508	3.8
396.872	4.12
397.236	4.15
397.601	3.9
397.965	3.63
398.329	3.81
398.694	3.99
399.058	4.08
399.422	3.69
399.786	3.86
400.15	4
400.514	3.99
400.878	4.34
401.242	4.08
401.605	3.77
401.969	3.81
402.333	4.09
402.697	3.96
403.06	4.07
403.424	3.92
403.787	4.04
404.151	3.89
404.514	3.98
404.878	3.86
405.241	3.95
405.604	4.06
405.968	4.08
406.331	3.93
406.694	4.18
407.057	4.18
407.42	3.96
407.783	4.17
408.146	4.13
408.509	4.14
408.872	4.2
409.235	4.04
409.598	4.09
409.961	3.94
410.323	4.09
410.686	4.17
411.049	4.1
411.411	3.68
411.774	4
412.136	3.92
412.499	4.1
412.861	4.12
413.223	4.1
413.586	4.32
413.948	4.32
414.31	4.17
414.672	4.03
415.035	4.14
415.397	3.94
415.759	4
416.121	4.09
416.483	4.03
416.845	4.06
417.206	4.22
417.568	4.26
417.93	4.16
418.292	4.03
418.653	4
419.015	3.85
419.377	3.99
419.738	4
420.1	4.13
420.461	4.14
420.822	3.97
421.184	4.02
421.545	4.08
421.906	3.99
422.267	4.11
422.629	3.99
422.99	3.92
423.351	4
423.712	3.96
424.073	4.14
424.434	4.01
424.795	4.07
425.155	4.03
425.516	4.07
425.877	3.95
426.238	3.95
426.598	3.99
426.959	4.04
427.32	4.03
427.68	4.08
428.041	3.96
428.401	4.02
428.761	4.2
429.122	4.15
429.482	4.01
429.842	4.15
430.202	4.16
430.563	4.16
430.923	4.16
431.283	4.24
431.643	4.19
432.003	4.06
432.363	4.26
432.722	4.27
433.082	4.22
433.442	4.24
433.802	4.09
434.161	4.15
434.521	4.11
434.881	4.08
435.24	4.04
435.6	4.19
435.959	4.23
436.319	4.18
436.678	4.11
437.037	4.13
437.396	4.16
437.756	4.18
438.115	4.12
438.474	4.05
438.833	4.21
439.192	4.1
439.551	4.08
439.91	4.21
440.269	4.34
440.628	4
440.987	4.08
441.345	4.12
441.704	4.24
442.063	4.15
442.421	4.04
442.78	4.09
443.138	4.18
443.497	4.16
443.855	4.19
444.214	4.07
444.572	4.24
444.93	4.24
445.288	4.24
445.647	4.14
446.005	4.06
446.363	4.3
446.721	4.15
447.079	4.03
447.437	4.06
447.795	4.05
448.153	4.08
448.51	4.06
448.868	4.05
449.226	4.08
449.584	4.19
449.941	4.11
450.299	4.08
450.656	4.04
451.014	4.25
451.371	4.07
451.729	4.19
452.086	4.13
452.443	4.18
452.801	4.16
453.158	4.26
453.515	4.27
453.872	4.07
454.229	4.1
454.586	4.07
454.943	4.14
455.3	4.24
455.657	4.11
456.014	4.26
456.371	4.15
456.727	4.3
457.084	4.27
457.441	4.26
457.797	4.21
458.154	4.21
458.51	4.28
458.867	4.15
459.223	4.21
459.58	4.3
459.936	4.22
460.292	4.21
460.648	4
461.005	4.14
461.361	3.97
461.717	4.07
462.073	4.19
462.429	4.21
462.785	4.2
463.141	4.29
463.496	4.3
463.852	4.28
464.208	4.18
464.564	4.3
464.919	4.25
465.275	4.35
465.631	4.3
465.986	4.21
466.342	4.3
466.697	4.36
467.052	4.21
467.408	4.39
467.763	4.29
468.118	4.22
468.473	4.18
468.829	4.18
469.184	4.2
469.539	4.25
469.894	4.27
470.249	4.38
470.603	4.33
470.958	4.15
471.313	4.32
471.668	4.28
472.023	4.03
472.377	4.24
472.732	4.26
473.086	4.17
473.441	4.03
473.795	4.16
474.15	4.3
474.504	4.31
474.859	4.25
475.213	4.31
475.567	4.03
475.921	4.48
476.275	4.09
476.63	4.41
476.984	4.35
477.338	4.23
477.692	4.18
478.045	4.16
478.399	4.23
478.753	4.28
479.107	4.24
479.461	4.19
479.814	4.24
480.168	4.13
480.521	4.36
480.875	4.39
481.228	4.18
481.582	4.2
481.935	4.18
482.289	4.26
482.642	4.22
482.995	4.18
483.348	4.19
483.701	4.26
484.055	4.15
484.408	4.19
484.761	3.99
485.114	3.93
485.466	3.83
485.819	3.9
486.172	3.97
486.525	4.05
486.878	4.12
487.23	4.14
487.583	4.13
487.936	4.11
488.288	4.06
488.641	4.04
488.993	4.02
489.345	4
489.698	3.97
490.05	4.01
490.402	4.04
490.754	4.17
491.107	4.16
491.459	4.19
491.811	4.12
492.163	4.15
492.515	4.14
492.866	4.01
493.218	3.96
493.57	3.96
493.922	4.08
494.274	4.14
494.625	4.13
494.977	4.16
495.328	4.22
495.68	4.29
496.031	4.22
496.383	4.17
496.734	4.19
497.086	4.23
497.437	4.25
497.788	4.31
498.139	4.21
498.49	4.23
498.842	4.22
499.193	4.21
499.544	4.2
499.894	4.08
500.245	4.22
500.596	4.11
500.947	4.29
501.298	4.17
501.648	4.26
501.999	4.19
502.35	4.29
502.7	4.29
503.051	4.34
503.401	4.15
503.752	4.27
504.102	4.28
504.452	4.22
504.803	4.29
505.153	4.26
505.503	4.24
505.853	4.2
506.203	4.25
506.553	4.26
506.903	4.2
507.253	4.16
507.603	4.26
507.953	4.42
508.303	4.2
508.652	4.28
509.002	4.25
509.352	4.22
509.701	4.27
510.051	4.28
510.4	4.13
510.75	4.2
511.099	4.16
511.449	4.15
511.798	4.13
512.147	4.23
512.496	4.24
512.846	4.17
513.195	4.21
513.544	4.25
513.893	4.18
514.242	4.17
514.591	4.18
514.939	4.31
515.288	4.39
515.637	4.29
515.986	4.19
516.334	4.14
516.683	4.26
517.032	4.35
517.38	4.38
517.729	4.44
518.077	4.25
518.426	4.25
518.774	4.24
519.122	4.33
519.47	4.22
519.819	4.13
520.167	4.08
520.515	4.11
520.863	4.26
521.211	4.26
521.559	4.26
521.907	4.29
522.255	4.12
522.602	4.19
522.95	4.27
523.298	4.3
523.645	4.23
523.993	4.39
524.341	4.35
524.688	4.31
525.036	4.25
525.383	4.33
525.73	4.29
526.078	4.3
526.425	4.13
526.772	4.18
527.119	4.09
527.466	4.14
527.814	4.22
528.161	4.19
528.508	4.28
528.854	4.18
529.201	4.15
529.548	4.08
529.895	3.99
530.242	4.01
530.588	4.02
530.935	4.06
531.282	4.12
531.628	4.18
531.975	4.17
532.321	4.2
532.667	4.27
533.014	4.3
533.36	4.18
533.706	4.2
534.052	4.18
534.399	4.2
534.745	4.1
535.091	4.01
535.437	4.08
535.783	4.18
536.129	4.28
536.474	4.19
536.82	4.23
537.166	4.25
537.512	4.28
537.857	4.23
538.203	4.13
538.549	4.12
538.894	4.06
539.239	4.36
539.585	4.22
539.93	4.22
540.276	4.45
540.621	4.37
540.966	4.27
541.311	4.32
541.656	4.19
542.001	4.25
542.346	4.12
542.691	4.1
543.036	4.04
543.381	4.05
543.726	4.16
544.071	4.13
544.415	4.19
544.76	4.17
545.105	4.22
545.449	4.21
545.794	4.29
546.138	4.25
546.483	4.31
546.827	4.36
547.171	4.28
547.516	4.15
547.86	4.24
548.204	4.23
548.548	4.18
548.892	4.11
549.236	4.26
549.58	4.34
549.924	4.3
550.268	4.33
550.612	4.32
550.956	4.2
551.3	4.32
551.643	4.41
551.987	4.46
552.33	4.22
552.674	4.07
553.017	4.39
553.361	4.42
553.704	4.33
554.048	4.38
554.391	4.31
554.734	4.21
555.077	4.25
555.42	4.21
555.764	4.27
556.107	4.46
556.45	4.12
556.793	4.37
557.135	4.44
557.478	4.28
557.821	4.29
558.164	4.54
558.507	4.23
558.849	4.12
559.192	4.34
559.534	4.49
559.877	4.15
560.219	4.38
560.562	4.31
560.904	4.42
561.246	4.44
561.589	4.25
561.931	4.42
562.273	4.33
562.615	4.48
562.957	4.34
563.299	4.29
563.641	4.26
563.983	4.37
564.325	4.24
564.667	4.32
565.008	4.48
565.35	4.21
565.692	4.38
566.033	4.46
566.375	4.43
566.716	4.33
567.058	4.29
567.399	4.39
567.741	4.25
568.082	4.47
568.423	4.24
568.764	4.32
569.105	4.45
569.447	4.21
569.788	4.43
570.129	4.43
570.47	4.34
570.811	4.32
571.151	4.39
571.492	4.29
571.833	4.36
572.174	4.47
572.514	4.28
572.855	4.29
573.195	4.45
573.536	4.33
573.876	4.43
574.217	4.35
574.557	4.3
574.898	4.38
575.238	4.47
575.578	4.29
575.918	4.34
576.258	4.48
576.598	4.29
576.938	4.34
577.278	4.35
577.618	4.43
577.958	4.38
578.298	4.25
578.638	4.17
578.977	4.41
579.317	4.38
579.657	4.37
579.996	4.32
580.336	4.43
580.675	4.22
581.014	4.59
581.354	4.49
581.693	4.25
582.032	4.79
582.372	4.48
582.711	4.5
583.05	4.61
583.389	4.42
583.728	4.51
584.067	4.57
584.406	4.63
584.745	4.38
585.083	4.46
585.422	4.61
585.761	4.48
586.1	4.09
586.438	4.64
586.777	4.2
587.115	4.69
587.454	4.53
587.792	4.44
588.13	4.64
588.469	4.33
588.807	4.22
589.145	4.53
589.483	4.47
589.821	4.58
590.159	4.33
590.497	4.41
590.835	4.55
591.173	4.45
591.511	4.45
591.849	4.49
592.187	4.45
592.524	4.32
592.862	4.36
593.2	4.27
593.537	4.49
593.875	4.54
594.212	4.53
594.55	4.18
594.887	4.43
595.224	4.59
595.561	4.17
595.899	4.51
596.236	4.49
596.573	4.42
596.91	4.48
597.247	4.5
597.584	4.46
597.921	4.43
598.258	4.35
598.594	4.07
598.931	4.32
599.268	4.48
599.604	4.26
599.941	4.26
600.277	4.3
600.614	4.58
600.95	4.23
601.287	4.34
601.623	4.71
601.959	4.35
602.296	4.32
602.632	4.46
602.968	4.23
603.304	4.31
603.64	4.42
603.976	4.43
604.312	4.53
604.648	4.52
604.984	4.49
605.319	4.49
605.655	4.53
605.991	4.38
606.326	4.42
606.662	4.35
606.998	4.39
607.333	4.58
607.668	4.49
608.004	4.29
608.339	4.3
608.674	4.72
609.01	4.14
609.345	4.61
609.68	4.46
610.015	4.5
610.35	4.5
610.685	4.56
611.02	4.35
611.355	4.51
611.689	4.54
612.024	4.41
612.359	4.52
612.694	4.41
613.028	4.44
613.363	4.43
613.697	4.69
614.032	4.5
614.366	4.35
614.7	4.37
615.035	4.39
615.369	4.27
615.703	4.58
616.037	4.45
616.371	4.58
616.705	4.46
617.039	4.52
617.373	4.35
617.707	4.38
618.041	4.49
618.375	4.66
618.709	3.87
619.042	4.16
619.376	4.33
619.71	4.73
620.043	4.44
620.377	4.56
620.71	4.35
621.043	4.29
621.377	4.45
621.71	4.63
622.043	4.15
622.376	4.3
622.709	4.55
623.043	4.38
623.376	4.41
623.709	4.49
624.041	4.75
624.374	4.51
624.707	4.73
625.04	4.5
625.373	4.33
625.705	4.59
626.038	4.63
626.37	4.46
626.703	4.15
627.035	4.42
627.368	4.94
627.7	4.53
628.032	4.23
628.365	4.36
628.697	4.54
629.029	4.57
629.361	4.54
629.693	4.6
630.025	4.59
630.357	4.41
630.689	4.59
631.021	4.68
631.353	4.77
631.684	4.4
632.016	4.39
632.348	4.49
632.679	4.34
633.011	4.18
633.342	4.39
633.674	4.69
634.005	4.76
634.336	4.49
634.668	4.26
634.999	4.15
635.33	4.39
635.661	4.44
635.992	4.05
636.323	4.32
636.654	4.53
636.985	4.84
637.316	4.46
637.647	4.53
637.977	4.44
638.308	4.56
638.639	4.7
638.969	4.5
639.3	4.65
639.63	4.38
639.961	4.71
640.291	4.39
640.622	4.39
640.952	4.75
641.282	4.43
641.612	4.54
641.943	4.38
642.273	4.32
642.603	4.42
642.933	4.45
643.263	4.72
643.592	4.49
643.922	4.21
644.252	4.35
644.582	4.27
644.911	4.57
645.241	4.59
645.571	4.65
645.9	4.62
646.23	4.27
646.559	4.15
646.888	4.34
647.218	5
647.547	4.71
647.876	5
648.205	4.71
648.534	4.42
648.863	4.6
649.192	4.59
649.521	4.28
649.85	4.63
650.179	4.35
650.508	4.78
650.837	4.9
651.165	4.16
651.494	4.83
651.822	4.43
652.151	4.59
652.479	4.44
652.808	4.84
653.136	4.65
653.465	4.56
653.793	4.66
654.121	4.89
654.449	4.46
654.777	4.53
655.105	4.72
655.433	4.65
655.761	4.93
656.089	4.74
656.417	4.3
656.745	4.47
657.073	4.83
657.4	4.41
657.728	4.82
658.056	4.02
658.383	4.64
658.711	4.54
659.038	4.51
659.365	4.53
659.693	4.5
660.02	4.47
660.347	4.15
660.674	4.53
661.001	4.74
661.329	4.51
661.656	4.41
661.982	4.51
662.309	4.53
662.636	4.92
662.963	4.49
663.29	4.6
663.616	4.43
663.943	4.76
664.27	4.21
664.596	4.85
664.923	4.87
665.249	4.73
665.576	5.05
665.902	5.2
666.228	4.59
666.554	5.32
666.881	4.48
667.207	4.52
667.533	4.31
667.859	4.56
668.185	4.63
668.511	4.7
668.837	4.19
669.162	4.9
669.488	4.85
669.814	5.02
670.139	4.53
670.465	4.73
670.791	4.4
671.116	4.53
671.442	4.7
671.767	4.62
672.092	4.14
672.418	4.55
672.743	4.67
673.068	4.67
673.393	3.73
673.718	4.86
674.043	4.9
674.368	4.48
674.693	5.35
675.018	4.39
675.343	4.79
675.667	4.52
675.992	4.67
676.317	4.89
676.641	3.6
676.966	4.35
677.29	4.77
677.615	4.98
677.939	4.36
678.264	4.97
678.588	4.34
678.912	4.13
679.236	4.85
679.56	4.86
679.885	4.59
680.209	4
680.532	4.76
680.856	4.32
681.18	4.81
681.504	4.67
681.828	4.39
682.152	4.57
682.475	4.5
682.799	4.14
683.122	4.86
683.446	5.2
683.769	4.84
684.093	4.83
684.416	5
684.739	4.34
685.062	4.89
685.386	4.45
685.709	4.55
686.032	4.61
686.355	4.56
686.678	4.91
687.001	4.21
687.324	4.82
687.646	4.69
687.969	4.8
688.292	4.47
688.614	4.61
688.937	4.91
689.26	4.97
689.582	4.85
689.904	5.01
690.227	4.85
690.549	4.72
690.871	4.49
691.194	4.58
691.516	4.73
691.838	5.22
692.16	4.62
692.482	4.71
692.804	4.73
