Data from 15NW-2_chest_Reflection__0__15.txt Node

Date: Fri Nov 11 16:17:57 CST 2022
User: ToomeyLab
Spectrometer: FLMS14357
Trigger mode: 0
Integration Time (sec): 1.000000E-2
Scans to average: 100
Electric dark correction enabled: true
Nonlinearity correction enabled: false
Boxcar width: 0
XAxis mode: Wavelengths
Number of Pixels in Spectrum: 2048
>>>>>Begin Spectral Data<<<<<
189.047	1275.37
189.435	1275.37
189.823	1275.37
190.211	830.77
190.599	61.76
190.987	49.34
191.375	79.72
191.763	-28.58
192.151	78.77
192.538	181.56
192.926	108.6
193.314	-51.43
193.702	116.39
194.089	-32.32
194.477	-261.83
194.864	186.82
195.252	79.6
195.639	-2339.39
196.027	36.48
196.414	336.97
196.801	-622.91
197.189	108.89
197.576	115.46
197.963	29.87
198.351	-4.93
198.738	-139.09
199.125	-1.55
199.512	30.5
199.899	6.42
200.286	42.57
200.673	10.18
201.06	-22.73
201.447	5.71
201.833	52.43
202.22	35.58
202.607	30.41
202.994	24.24
203.38	25.04
203.767	7.21
204.154	24.32
204.54	29.82
204.927	24.65
205.313	40.09
205.699	17.08
206.086	28.8
206.472	9.8
206.858	-13.49
207.245	25.43
207.631	21.41
208.017	18.44
208.403	29.01
208.789	-8.67
209.175	11.86
209.561	26.11
209.947	13.59
210.333	25.52
210.719	15.14
211.105	22.02
211.491	-53.2
211.876	30.13
212.262	-6.52
212.648	11.12
213.034	29.81
213.419	3.19
213.805	14.36
214.19	-9.24
214.576	13.34
214.961	5.3
215.346	-50.88
215.732	-48.19
216.117	32.16
216.502	12.83
216.888	2.25
217.273	-20.15
217.658	3.43
218.043	8.4
218.428	-1.71
218.813	15.84
219.198	-18.25
219.583	11.76
219.968	5.66
220.353	-18.63
220.738	-4.7
221.122	-4.36
221.507	21.74
221.892	24.48
222.276	4.25
222.661	20.53
223.046	11.22
223.43	4.3
223.815	-8.22
224.199	3.8
224.583	0.79
224.968	18.81
225.352	4.91
225.736	8.65
226.121	3.12
226.505	7.81
226.889	5.25
227.273	6.7
227.657	-3.88
228.041	2.82
228.425	8.04
228.809	7.89
229.193	5
229.577	3.79
229.961	3.38
230.344	4.07
230.728	3.16
231.112	4.28
231.495	3.31
231.879	3.26
232.263	1.6
232.646	2.82
233.03	3.62
233.413	3.74
233.797	2.4
234.18	4.99
234.563	2.67
234.946	0.5
235.33	2.37
235.713	3.92
236.096	3.24
236.479	4.22
236.862	4.25
237.245	3.61
237.628	3.35
238.011	4.15
238.394	4.7
238.777	1.79
239.16	1.59
239.543	3.38
239.925	5.45
240.308	2.67
240.691	2.2
241.073	1.6
241.456	0.58
241.838	4.32
242.221	3.44
242.603	2.92
242.986	2.76
243.368	3
243.75	3.15
244.133	2.92
244.515	3.22
244.897	2.98
245.279	3.08
245.661	2.54
246.043	3.72
246.425	4.51
246.807	3.34
247.189	1.35
247.571	1.71
247.953	2.94
248.335	3.11
248.717	2.82
249.098	2.89
249.48	3.04
249.862	2.62
250.243	2.66
250.625	3.04
251.006	3.11
251.388	2.96
251.769	3.59
252.151	3.89
252.532	3.81
252.913	2.92
253.295	2.39
253.676	2.72
254.057	2.41
254.438	3.13
254.819	2.54
255.2	3.42
255.581	2.81
255.962	3.35
256.343	2.9
256.724	2.92
257.105	2.92
257.486	4.12
257.867	2.32
258.247	3.66
258.628	2.6
259.009	3.49
259.389	2.84
259.77	3.49
260.15	3.11
260.531	2.39
260.911	2.57
261.292	2.84
261.672	2.55
262.052	2.71
262.432	3.29
262.813	2.59
263.193	2.82
263.573	3.4
263.953	3.11
264.333	3.23
264.713	2.65
265.093	3.07
265.473	3.92
265.853	2.76
266.233	2.35
266.612	2.96
266.992	2.94
267.372	2.66
267.752	2.73
268.131	2.84
268.511	2.71
268.89	2.76
269.27	2.19
269.649	2.46
270.029	2.16
270.408	2.72
270.787	3.31
271.167	2.66
271.546	3.07
271.925	2.98
272.304	3.02
272.683	2.81
273.062	2.98
273.441	2.6
273.82	2.56
274.199	2.79
274.578	2.88
274.957	2.11
275.336	2.89
275.715	2.82
276.093	3.41
276.472	3.08
276.851	2.62
277.229	2.57
277.608	2.85
277.986	2.81
278.365	3.59
278.743	2.22
279.122	1.94
279.5	2.88
279.878	2.69
280.257	3.09
280.635	2.25
281.013	2.46
281.391	2.29
281.769	3.38
282.147	2.99
282.525	2.63
282.903	2.78
283.281	2.44
283.659	2.2
284.037	2.45
284.415	2.24
284.792	2.92
285.17	2.61
285.548	2.35
285.925	2.77
286.303	2.28
286.68	2.5
287.058	2.67
287.435	2.59
287.813	2.65
288.19	2.62
288.567	2.76
288.945	2.36
289.322	2.15
289.699	2.55
290.076	2.89
290.453	2.24
290.83	2.98
291.207	2.79
291.584	2.44
291.961	2.45
292.338	2.81
292.715	2.62
293.092	2.42
293.469	2.8
293.845	2.51
294.222	3
294.599	2.64
294.975	2.95
295.352	2.71
295.728	2.7
296.105	2.53
296.481	2.7
296.858	2.79
297.234	2.64
297.61	2.62
297.986	2.33
298.363	2.53
298.739	2.81
299.115	2.41
299.491	2.7
299.867	2.65
300.243	2.53
300.619	2.65
300.995	2.38
301.371	2.14
301.746	2.44
302.122	2.65
302.498	2.42
302.874	2.77
303.249	2.73
303.625	2.43
304	2.48
304.376	2.83
304.751	3.17
305.127	3.06
305.502	2.74
305.878	3.35
306.253	2.8
306.628	2.95
307.003	2.39
307.378	2.77
307.754	2.85
308.129	2.71
308.504	2.74
308.879	2.64
309.254	1.77
309.629	2.48
310.003	2.67
310.378	2.34
310.753	2.46
311.128	2.78
311.502	2.1
311.877	2.57
312.252	2.61
312.626	2.48
313.001	2.45
313.375	2.78
313.75	2.66
314.124	2.56
314.498	2.91
314.873	2.48
315.247	2.52
315.621	2.3
315.995	2.45
316.369	2.73
316.743	2.6
317.117	2.5
317.491	2.68
317.865	2.51
318.239	3.15
318.613	2.87
318.987	3.05
319.361	2.49
319.734	2.31
320.108	2.49
320.482	2.4
320.855	2.98
321.229	2.84
321.602	2.65
321.976	2.51
322.349	2.82
322.723	2.71
323.096	2.81
323.469	2.62
323.843	3.41
324.216	2.32
324.589	2.99
324.962	2.57
325.335	2.73
325.708	2.6
326.081	2.5
326.454	2.64
326.827	2.65
327.2	2.78
327.573	2.68
327.945	2.52
328.318	3.06
328.691	2.8
329.063	2.47
329.436	2.82
329.809	2.43
330.181	2.79
330.553	2.75
330.926	2.09
331.298	2.35
331.671	2.69
332.043	2.97
332.415	2.84
332.787	2.93
333.159	2.81
333.532	2.17
333.904	2.85
334.276	2.68
334.648	2.51
335.02	2.83
335.391	2.46
335.763	2.71
336.135	3.01
336.507	2.65
336.879	2.51
337.25	1.98
337.622	3.01
337.993	2.27
338.365	2.6
338.736	2.4
339.108	2.42
339.479	2.94
339.851	2.26
340.222	2.31
340.593	2.5
340.964	2.76
341.336	2.28
341.707	2.96
342.078	2.72
342.449	2.84
342.82	2.77
343.191	2.87
343.562	2.85
343.933	2.33
344.303	3.53
344.674	2.42
345.045	2.65
345.416	2.74
345.786	2.49
346.157	2.37
346.527	2.25
346.898	2.5
347.268	2.62
347.639	3.02
348.009	2.54
348.38	2.77
348.75	2.81
349.12	2.87
349.49	2.7
349.861	2.37
350.231	2.66
350.601	3.55
350.971	2.78
351.341	2.83
351.711	2.34
352.081	2.28
352.45	2.85
352.82	2.64
353.19	2.5
353.56	2.81
353.929	2.77
354.299	3.14
354.669	2.69
355.038	2.58
355.408	2.24
355.777	2.82
356.147	2.7
356.516	2.86
356.885	2.62
357.254	2.68
357.624	2.82
357.993	2.81
358.362	2.82
358.731	2.73
359.1	2.49
359.469	2.69
359.838	2.89
360.207	2.82
360.576	2.68
360.945	2.78
361.314	2.79
361.682	2.65
362.051	2.7
362.42	2.45
362.788	2.6
363.157	2.72
363.525	2.82
363.894	2.76
364.262	2.54
364.631	2.53
364.999	2.59
365.367	2.94
365.735	2.69
366.104	2.34
366.472	2.77
366.84	2.73
367.208	2.64
367.576	2.55
367.944	2.87
368.312	2.55
368.68	2.67
369.048	2.41
369.416	2.66
369.783	2.47
370.151	2.77
370.519	3.12
370.886	2.67
371.254	2.44
371.621	2.77
371.989	2.53
372.356	2.39
372.724	2.91
373.091	2.71
373.458	2.6
373.826	2.85
374.193	2.86
374.56	2.81
374.927	2.66
375.294	2.87
375.661	2.97
376.028	2.95
376.395	2.66
376.762	2.61
377.129	2.9
377.496	2.68
377.863	2.95
378.229	2.9
378.596	2.64
378.963	2.69
379.329	2.59
379.696	2.72
380.062	2.66
380.429	2.58
380.795	2.73
381.161	3.03
381.528	2.74
381.894	2.76
382.26	2.74
382.626	2.65
382.993	2.87
383.359	2.89
383.725	3
384.091	2.74
384.457	2.78
384.823	2.87
385.188	2.77
385.554	2.76
385.92	2.74
386.286	2.55
386.651	2.76
387.017	2.79
387.383	2.94
387.748	2.54
388.114	2.72
388.479	2.81
388.845	2.72
389.21	2.51
389.575	2.48
389.94	2.86
390.306	2.49
390.671	2.76
391.036	2.65
391.401	2.69
391.766	2.75
392.131	2.5
392.496	2.95
392.861	2.69
393.226	2.79
393.591	2.61
393.956	2.64
394.32	2.88
394.685	3.02
395.05	2.89
395.414	2.9
395.779	2.55
396.143	2.74
396.508	2.78
396.872	2.83
397.236	2.74
397.601	2.86
397.965	2.94
398.329	2.72
398.694	2.55
399.058	2.62
399.422	2.84
399.786	2.89
400.15	2.75
400.514	2.81
400.878	2.84
401.242	2.84
401.605	2.78
401.969	2.73
402.333	2.84
402.697	2.9
403.06	2.82
403.424	2.67
403.787	2.98
404.151	2.74
404.514	2.74
404.878	3.01
405.241	2.82
405.604	2.76
405.968	2.8
406.331	2.69
406.694	3.02
407.057	2.83
407.42	2.76
407.783	2.85
408.146	2.89
408.509	2.92
408.872	2.9
409.235	2.75
409.598	2.72
409.961	2.72
410.323	2.7
410.686	3.04
411.049	3.05
411.411	2.94
411.774	2.94
412.136	2.88
412.499	2.8
412.861	2.74
413.223	2.89
413.586	2.8
413.948	2.67
414.31	2.87
414.672	2.93
415.035	3
415.397	2.9
415.759	2.86
416.121	2.86
416.483	2.79
416.845	2.85
417.206	2.94
417.568	2.7
417.93	2.81
418.292	2.71
418.653	2.77
419.015	2.68
419.377	2.88
419.738	2.96
420.1	2.8
420.461	2.65
420.822	2.76
421.184	2.74
421.545	2.69
421.906	2.79
422.267	2.77
422.629	2.73
422.99	2.76
423.351	2.74
423.712	2.7
424.073	2.78
424.434	2.69
424.795	2.86
425.155	2.9
425.516	2.74
425.877	2.81
426.238	2.66
426.598	2.76
426.959	2.82
427.32	2.76
427.68	2.82
428.041	2.94
428.401	2.74
428.761	2.71
429.122	2.94
429.482	2.81
429.842	2.85
430.202	2.85
430.563	2.74
430.923	2.78
431.283	2.88
431.643	2.79
432.003	2.86
432.363	2.92
432.722	2.91
433.082	2.84
433.442	3.01
433.802	3.06
434.161	2.92
434.521	2.91
434.881	2.8
435.24	3.01
435.6	2.78
435.959	2.87
436.319	2.82
436.678	2.8
437.037	2.73
437.396	2.72
437.756	2.88
438.115	2.76
438.474	2.8
438.833	2.73
439.192	2.88
439.551	2.73
439.91	2.82
440.269	2.91
440.628	2.91
440.987	2.89
441.345	2.85
441.704	2.81
442.063	2.97
442.421	2.78
442.78	2.9
443.138	2.79
443.497	2.78
443.855	2.83
444.214	2.8
444.572	2.91
444.93	2.82
445.288	2.92
445.647	2.61
446.005	2.78
446.363	2.8
446.721	2.64
447.079	2.79
447.437	2.82
447.795	2.74
448.153	2.85
448.51	2.84
448.868	2.76
449.226	2.87
449.584	2.9
449.941	2.72
450.299	2.83
450.656	2.88
451.014	2.86
451.371	2.79
451.729	2.79
452.086	2.88
452.443	2.93
452.801	2.89
453.158	2.79
453.515	2.89
453.872	2.91
454.229	2.81
454.586	2.82
454.943	2.9
455.3	2.83
455.657	3.05
456.014	2.81
456.371	2.71
456.727	2.9
457.084	2.84
457.441	2.85
457.797	2.89
458.154	2.94
458.51	2.93
458.867	3.09
459.223	2.83
459.58	3.05
459.936	2.99
460.292	2.83
460.648	2.81
461.005	3.01
461.361	2.83
461.717	2.8
462.073	2.93
462.429	2.96
462.785	2.75
463.141	2.9
463.496	2.9
463.852	2.96
464.208	3.07
464.564	2.88
464.919	3.04
465.275	2.89
465.631	3.13
465.986	2.84
466.342	3
466.697	2.89
467.052	3
467.408	2.9
467.763	2.92
468.118	3
468.473	2.97
468.829	3.01
469.184	3.16
469.539	3.12
469.894	2.94
470.249	3.04
470.603	2.83
470.958	2.99
471.313	2.93
471.668	2.89
472.023	3.08
472.377	3.05
472.732	2.92
473.086	2.84
473.441	2.93
473.795	3.15
474.15	2.93
474.504	3.08
474.859	3.02
475.213	2.95
475.567	3.08
475.921	3.07
476.275	3.07
476.63	2.91
476.984	2.99
477.338	2.9
477.692	2.94
478.045	2.93
478.399	2.92
478.753	2.94
479.107	2.91
479.461	2.9
479.814	2.99
480.168	3.02
480.521	3.02
480.875	2.95
481.228	2.98
481.582	2.9
481.935	3.05
482.289	3.06
482.642	2.99
482.995	2.96
483.348	2.84
483.701	2.97
484.055	2.92
484.408	2.91
484.761	2.8
485.114	2.74
485.466	2.68
485.819	2.72
486.172	2.74
486.525	2.82
486.878	2.8
487.23	2.86
487.583	2.88
487.936	2.85
488.288	2.78
488.641	2.83
488.993	2.79
489.345	2.8
489.698	2.82
490.05	2.76
490.402	2.85
490.754	2.91
491.107	2.94
491.459	2.92
491.811	2.87
492.163	2.88
492.515	2.92
492.866	2.88
493.218	2.78
493.57	2.8
493.922	2.81
494.274	2.87
494.625	2.86
494.977	2.96
495.328	2.95
495.68	3.07
496.031	2.97
496.383	3.05
496.734	3.05
497.086	3.01
497.437	3.06
497.788	3.09
498.139	2.91
498.49	2.99
498.842	3.01
499.193	3.06
499.544	3.04
499.894	3.13
500.245	2.94
500.596	3.11
500.947	3.06
501.298	3.05
501.648	3.13
501.999	3.07
502.35	3.05
502.7	3.16
503.051	3.04
503.401	2.99
503.752	3.02
504.102	3.01
504.452	3.09
504.803	3.1
505.153	3.12
505.503	3.11
505.853	3.12
506.203	3.11
506.553	3.2
506.903	3.11
507.253	3.1
507.603	3.1
507.953	3.12
508.303	3.11
508.652	3.09
509.002	3.06
509.352	3.2
509.701	3.08
510.051	2.97
510.4	3.11
510.75	3.05
511.099	3.01
511.449	3.03
511.798	3.02
512.147	3.03
512.496	3.08
512.846	3.05
513.195	3.03
513.544	3.15
513.893	3.1
514.242	3.05
514.591	3.09
514.939	3.12
515.288	3.18
515.637	3.12
515.986	3.22
516.334	3.15
516.683	3.1
517.032	3.09
517.38	3.3
517.729	3.24
518.077	3.1
518.426	3.19
518.774	3.03
519.122	3.11
519.47	3.03
519.819	3.07
520.167	3.05
520.515	3.05
520.863	3.06
521.211	3.15
521.559	3.06
521.907	3.2
522.255	3.17
522.602	3.18
522.95	3.12
523.298	3.18
523.645	3.17
523.993	3.32
524.341	3.32
524.688	3.17
525.036	3.25
525.383	3.24
525.73	3.21
526.078	3.13
526.425	3.09
526.772	3.16
527.119	3.15
527.466	3.17
527.814	3.13
528.161	3.11
528.508	3.08
528.854	3.14
529.201	3.13
529.548	3.15
529.895	3.04
530.242	3.01
530.588	3.02
530.935	3.02
531.282	3.13
531.628	3.11
531.975	3.14
532.321	3.1
532.667	3.19
533.014	3.18
533.36	3.22
533.706	3.26
534.052	3.21
534.399	3.11
534.745	3.24
535.091	3.13
535.437	3.22
535.783	3.18
536.129	3.21
536.474	3.28
536.82	3.22
537.166	3.28
537.512	3.3
537.857	3.28
538.203	3.18
538.549	3.17
538.894	3.26
539.239	3.25
539.585	3.27
539.93	3.31
540.276	3.3
540.621	3.28
540.966	3.32
541.311	3.45
541.656	3.35
542.001	3.32
542.346	3.3
542.691	3.25
543.036	3.23
543.381	3.19
543.726	3.26
544.071	3.24
544.415	3.32
544.76	3.35
545.105	3.37
545.449	3.36
545.794	3.33
546.138	3.43
546.483	3.4
546.827	3.41
547.171	3.35
547.516	3.22
547.86	3.35
548.204	3.34
548.548	3.37
548.892	3.47
549.236	3.44
549.58	3.49
549.924	3.52
550.268	3.63
550.612	3.45
550.956	3.45
551.3	3.62
551.643	3.54
551.987	3.52
552.33	3.54
552.674	3.42
553.017	3.61
553.361	3.55
553.704	3.53
554.048	3.48
554.391	3.62
554.734	3.59
555.077	3.63
555.42	3.66
555.764	3.54
556.107	3.66
556.45	3.69
556.793	3.66
557.135	3.58
557.478	3.65
557.821	3.77
558.164	3.78
558.507	3.75
558.849	3.65
559.192	3.85
559.534	3.83
559.877	3.81
560.219	3.88
560.562	3.77
560.904	3.66
561.246	3.7
561.589	3.91
561.931	3.7
562.273	3.64
562.615	3.73
562.957	3.82
563.299	3.91
563.641	3.69
563.983	3.78
564.325	3.62
564.667	3.73
565.008	3.73
565.35	3.84
565.692	3.76
566.033	3.97
566.375	3.93
566.716	3.84
567.058	3.78
567.399	3.92
567.741	3.94
568.082	3.84
568.423	3.93
568.764	3.86
569.105	3.92
569.447	3.89
569.788	3.83
570.129	3.96
570.47	3.94
570.811	3.97
571.151	3.93
571.492	4.05
571.833	3.89
572.174	4.02
572.514	4.02
572.855	3.87
573.195	3.97
573.536	3.97
573.876	4.11
574.217	4
574.557	3.89
574.898	4.01
575.238	4.04
575.578	3.99
575.918	3.95
576.258	4.28
576.598	4.13
576.938	4.14
577.278	4.15
577.618	4.2
577.958	4.08
578.298	4.4
578.638	4.14
578.977	4.23
579.317	4.22
579.657	4.27
579.996	4.2
580.336	4.31
580.675	4.21
581.014	4.23
581.354	4.32
581.693	4.12
582.032	4.47
582.372	4.45
582.711	4.55
583.05	4.3
583.389	4.52
583.728	4.31
584.067	4.35
584.406	4.31
584.745	4.37
585.083	4.42
585.422	4.43
585.761	4.52
586.1	4.45
586.438	4.58
586.777	4.54
587.115	4.45
587.454	4.64
587.792	4.65
588.13	4.54
588.469	4.56
588.807	4.69
589.145	4.75
589.483	4.56
589.821	4.35
590.159	4.62
590.497	4.64
590.835	4.44
591.173	4.63
591.511	4.91
591.849	4.64
592.187	4.58
592.524	4.65
592.862	4.93
593.2	4.76
593.537	4.66
593.875	4.73
594.212	4.7
594.55	4.8
594.887	4.71
595.224	4.76
595.561	4.89
595.899	4.72
596.236	4.81
596.573	4.64
596.91	4.92
597.247	4.88
597.584	4.88
597.921	4.84
598.258	4.81
598.594	4.81
598.931	4.79
599.268	4.73
599.604	4.82
599.941	4.95
600.277	4.89
600.614	5.04
600.95	5
601.287	5.2
601.623	4.99
601.959	4.87
602.296	5.04
602.632	5.01
602.968	4.9
603.304	5.16
603.64	5.05
603.976	5.18
604.312	5.02
604.648	4.85
604.984	5.12
605.319	5.14
605.655	5.17
605.991	5
606.326	5.08
606.662	4.94
606.998	5.01
607.333	5.11
607.668	5.29
608.004	5.16
608.339	5.43
608.674	5.36
609.01	5.24
609.345	5.25
609.68	5.37
610.015	5.55
610.35	5.37
610.685	5.41
611.02	5.41
611.355	5.42
611.689	5.45
612.024	5.32
612.359	5.34
612.694	5.51
613.028	5.34
613.363	5.67
613.697	5.47
614.032	5.48
614.366	5.24
614.7	5.58
615.035	5.57
615.369	5.82
615.703	5.76
616.037	5.54
616.371	5.58
616.705	5.9
617.039	5.54
617.373	5.7
617.707	5.98
618.041	5.69
618.375	5.94
618.709	5.62
619.042	5.64
619.376	5.78
619.71	5.83
620.043	5.97
620.377	5.89
620.71	5.84
621.043	5.9
621.377	5.59
621.71	5.93
622.043	5.85
622.376	5.99
622.709	6.15
623.043	5.65
623.376	6.17
623.709	5.98
624.041	6.07
624.374	6.3
624.707	5.96
625.04	5.91
625.373	6.05
625.705	6.15
626.038	6.07
626.37	5.96
626.703	6.43
627.035	5.95
627.368	6.3
627.7	6.14
628.032	6.12
628.365	6.5
628.697	6.26
629.029	6.26
629.361	6.02
629.693	6.25
630.025	6.11
630.357	6.2
630.689	6.5
631.021	6.28
631.353	6.25
631.684	6.63
632.016	6.23
632.348	6.33
632.679	6.56
633.011	6.14
633.342	6.36
633.674	6.73
634.005	6.7
634.336	6.34
634.668	6.56
634.999	6.12
635.33	6.56
635.661	6.86
635.992	6.78
636.323	6.73
636.654	6.67
636.985	6.87
637.316	6.85
637.647	6.58
637.977	6.68
638.308	6.59
638.639	7
638.969	6.66
639.3	6.61
639.63	6.75
639.961	6.88
640.291	6.66
640.622	6.91
640.952	7.05
641.282	6.94
641.612	6.98
641.943	7.04
642.273	6.99
642.603	6.5
642.933	6.98
643.263	6.83
643.592	7.48
643.922	6.7
644.252	7.13
644.582	7.06
644.911	7.33
645.241	7.51
645.571	7.19
645.9	7.07
646.23	7.02
646.559	6.92
646.888	7.38
647.218	6.84
647.547	7.29
647.876	7.24
648.205	7.31
648.534	7.08
648.863	6.88
649.192	7.65
649.521	7.49
649.85	7.49
650.179	7.13
650.508	7.74
650.837	7.73
651.165	7.82
651.494	7.55
651.822	6.94
652.151	7.35
652.479	7.77
652.808	7.47
653.136	7.8
653.465	7.55
653.793	7.74
654.121	7.6
654.449	7.84
654.777	7.58
655.105	8.02
655.433	7.44
655.761	7.64
656.089	7.93
656.417	7.81
656.745	8.08
657.073	7.88
657.4	7.94
657.728	8.12
658.056	7.86
658.383	7.73
658.711	8.11
659.038	8.05
659.365	8.19
659.693	7.78
660.02	8.5
660.347	7.98
660.674	7.85
661.001	8.15
661.329	7.94
661.656	8.14
661.982	8.21
662.309	7.93
662.636	7.87
662.963	8.25
663.29	8.08
663.616	8.39
663.943	8.68
664.27	8.26
664.596	8.61
664.923	8.44
665.249	8.35
665.576	8.49
665.902	8.21
666.228	8.38
666.554	8.44
666.881	8.27
667.207	7.92
667.533	8.96
667.859	8.62
668.185	8.69
668.511	8.43
668.837	8.4
669.162	8.64
669.488	8.35
669.814	8.44
670.139	8.66
670.465	8.54
670.791	8.53
671.116	8.85
671.442	8.29
671.767	8.75
672.092	9.1
672.418	9.02
672.743	8.74
673.068	8.89
673.393	8.81
673.718	9.5
674.043	9.05
674.368	8.82
674.693	9.12
675.018	8.5
675.343	9.16
675.667	8.57
675.992	9.45
676.317	9.37
676.641	9.42
676.966	8.62
677.29	8.35
677.615	9.6
677.939	9.3
678.264	9.1
678.588	9.51
678.912	8.85
679.236	9.08
679.56	10.02
679.885	9.57
680.209	9.3
680.532	8.82
680.856	9.69
681.18	9.26
681.504	9.37
681.828	8.88
682.152	9.78
682.475	9.45
682.799	9.48
683.122	9.26
683.446	9.27
683.769	9.92
684.093	9.6
684.416	9.68
684.739	9.5
685.062	9.73
685.386	9.74
685.709	10.02
686.032	9.86
686.355	9.38
686.678	9.87
687.001	9.85
687.324	9.64
687.646	10.09
687.969	10.26
688.292	10.07
688.614	10
688.937	9.54
689.26	10.3
689.582	10.25
689.904	9.28
690.227	10.8
690.549	10.3
690.871	10.32
691.194	10.87
691.516	10.52
691.838	9.45
692.16	10.27
692.482	10.06
