Data from 15NW-2_forehead_Reflection__4__29.txt Node

Date: Fri Nov 11 16:22:00 CST 2022
User: ToomeyLab
Spectrometer: FLMS14357
Trigger mode: 0
Integration Time (sec): 1.000000E-2
Scans to average: 100
Electric dark correction enabled: true
Nonlinearity correction enabled: false
Boxcar width: 0
XAxis mode: Wavelengths
Number of Pixels in Spectrum: 2048
>>>>>Begin Spectral Data<<<<<
189.047	870.88
189.435	870.88
189.823	870.88
190.211	-572.82
190.599	48.41
190.987	51.28
191.375	4.62
191.763	-90.78
192.151	98.7
192.538	-50.45
192.926	-112.57
193.314	1.89
193.702	259.31
194.089	-81.08
194.477	-18.82
194.864	31.38
195.252	180.03
195.639	1360.61
196.027	26.71
196.414	440.47
196.801	887.62
197.189	76.15
197.576	40.94
197.963	110.77
198.351	31.5
198.738	-77.7
199.125	48.4
199.512	37.04
199.899	28.89
200.286	18.79
200.673	22.99
201.06	25.92
201.447	20.21
201.833	3.72
202.22	60.35
202.607	34.46
202.994	23.27
203.38	24.15
203.767	5.35
204.154	-20.24
204.54	24.97
204.927	39.15
205.313	49.93
205.699	22.38
206.086	29.66
206.472	19.07
206.858	25.69
207.245	19.91
207.631	34.45
208.017	-9.29
208.403	39.53
208.789	-9.82
209.175	6.84
209.561	45.06
209.947	3.78
210.333	16.13
210.719	28.53
211.105	8.22
211.491	-47.29
211.876	21.01
212.262	-9.95
212.648	9.89
213.034	5.19
213.419	13.02
213.805	22.73
214.19	-23.21
214.576	22.98
214.961	28.4
215.346	-15.21
215.732	16.45
216.117	37.82
216.502	3.37
216.888	18.07
217.273	5.25
217.658	-11.29
218.043	-30.87
218.428	-3.4
218.813	23.35
219.198	4.56
219.583	0.38
219.968	37.8
220.353	-6.22
220.738	12.07
221.122	13.09
221.507	20.04
221.892	10.7
222.276	15.3
222.661	13.68
223.046	21.11
223.43	8.65
223.815	0.23
224.199	11.92
224.583	5.25
224.968	16.06
225.352	-4.21
225.736	2.55
226.121	0.97
226.505	8.79
226.889	4.51
227.273	8.34
227.657	0.61
228.041	3.78
228.425	10.94
228.809	9.98
229.193	0.99
229.577	6.65
229.961	3.28
230.344	5.17
230.728	4.71
231.112	3.67
231.495	4.06
231.879	4.13
232.263	3.49
232.646	3.06
233.03	1.6
233.413	3.7
233.797	3.29
234.18	6.32
234.563	3.35
234.946	2.62
235.33	4.9
235.713	4.23
236.096	2.92
236.479	4.31
236.862	6
237.245	5.33
237.628	3.15
238.011	4.01
238.394	4.75
238.777	2.66
239.16	4.05
239.543	5.46
239.925	5.92
240.308	2.4
240.691	3.43
241.073	3.56
241.456	2.02
241.838	4.05
242.221	4.07
242.603	3.8
242.986	2.9
243.368	3.42
243.75	3.42
244.133	3.25
244.515	3.93
244.897	3.31
245.279	3.12
245.661	3.13
246.043	4.61
246.425	4.96
246.807	3.35
247.189	3.42
247.571	2.27
247.953	3.54
248.335	3.55
248.717	3.41
249.098	3.42
249.48	3.38
249.862	3.34
250.243	3.36
250.625	3.58
251.006	3.58
251.388	3.63
251.769	4.11
252.151	3.36
252.532	4.82
252.913	2.55
253.295	3.18
253.676	3.36
254.057	3.34
254.438	3.7
254.819	3.46
255.2	4.14
255.581	3.59
255.962	3.45
256.343	5.11
256.724	4.06
257.105	3.93
257.486	3.85
257.867	3.88
258.247	3.5
258.628	2.39
259.009	3.87
259.389	4.34
259.77	4.26
260.15	3.78
260.531	3.75
260.911	3.01
261.292	3.58
261.672	3.22
262.052	3.28
262.432	3.67
262.813	3.23
263.193	3.43
263.573	3.96
263.953	3.42
264.333	3.39
264.713	2.98
265.093	3.54
265.473	4.42
265.853	2.94
266.233	3.49
266.612	3.37
266.992	2.94
267.372	3.08
267.752	3.87
268.131	3.55
268.511	3.27
268.89	3.25
269.27	3.24
269.649	2.99
270.029	2.49
270.408	3.05
270.787	3.82
271.167	3.14
271.546	3.5
271.925	3.73
272.304	3.42
272.683	3.14
273.062	3.24
273.441	3.17
273.82	3.07
274.199	3.26
274.578	3.41
274.957	3.18
275.336	3.4
275.715	3.48
276.093	4.47
276.472	3.53
276.851	3.26
277.229	3.27
277.608	3.35
277.986	3.22
278.365	3.78
278.743	3.46
279.122	3.33
279.5	3.07
279.878	3.24
280.257	3.22
280.635	3.37
281.013	3.18
281.391	3.37
281.769	4
282.147	3.34
282.525	3.47
282.903	3.47
283.281	3.33
283.659	3.23
284.037	3.1
284.415	3.17
284.792	3.72
285.17	3.3
285.548	3.18
285.925	3.63
286.303	3.14
286.68	3.35
287.058	2.99
287.435	3.08
287.813	2.81
288.19	3.34
288.567	3.27
288.945	3.06
289.322	3.2
289.699	3.6
290.076	3.26
290.453	3.08
290.83	3.49
291.207	3.26
291.584	3.5
291.961	3.52
292.338	3.62
292.715	3.87
293.092	3.6
293.469	3.65
293.845	3.9
294.222	4.38
294.599	3.75
294.975	3.4
295.352	3.23
295.728	3.3
296.105	3.22
296.481	3.42
296.858	3.42
297.234	3.76
297.61	3.39
297.986	2.94
298.363	3.63
298.739	3.37
299.115	3.43
299.491	3.76
299.867	3.67
300.243	3.49
300.619	3.9
300.995	3.63
301.371	3.59
301.746	3.99
302.122	3.53
302.498	3.51
302.874	3.77
303.249	3.86
303.625	4.16
304	3.62
304.376	4.38
304.751	4.82
305.127	4.15
305.502	4.27
305.878	4.24
306.253	4.5
306.628	4.46
307.003	4.07
307.378	4.46
307.754	4.43
308.129	4.71
308.504	4.45
308.879	3.88
309.254	3.88
309.629	4.43
310.003	4.47
310.378	4.13
310.753	4.27
311.128	4.23
311.502	3.94
311.877	4.63
312.252	4.44
312.626	4.4
313.001	4.63
313.375	4.8
313.75	4.8
314.124	4.62
314.498	4.95
314.873	4.73
315.247	4.98
315.621	4.84
315.995	4.67
316.369	5.27
316.743	5
317.117	5.06
317.491	4.71
317.865	5.36
318.239	5.54
318.613	5.22
318.987	5.63
319.361	4.56
319.734	5.12
320.108	5.49
320.482	5.26
320.855	5.29
321.229	5.79
321.602	5.5
321.976	5.47
322.349	5.44
322.723	6.02
323.096	5.91
323.469	5.91
323.843	5.93
324.216	5.53
324.589	6.05
324.962	5.54
325.335	6.14
325.708	6.05
326.081	5.48
326.454	6.19
326.827	6.14
327.2	5.68
327.573	6.39
327.945	6.01
328.318	6.27
328.691	6.34
329.063	6.24
329.436	6.57
329.809	6.15
330.181	6.32
330.553	6.42
330.926	6.01
331.298	6.65
331.671	6.52
332.043	7.13
332.415	6.48
332.787	7.08
333.159	7.21
333.532	6.29
333.904	6.68
334.276	6.39
334.648	6.38
335.02	6.52
335.391	6.95
335.763	7.24
336.135	6.97
336.507	7.3
336.879	6.89
337.25	6.56
337.622	7.15
337.993	6.46
338.365	6.82
338.736	7.18
339.108	6.92
339.479	7.1
339.851	6.69
340.222	6.63
340.593	6.93
340.964	7.19
341.336	7.29
341.707	7.41
342.078	7.33
342.449	7.64
342.82	7.21
343.191	7.51
343.562	7.32
343.933	7.13
344.303	7.88
344.674	7.43
345.045	7.54
345.416	7.56
345.786	7.6
346.157	7.42
346.527	7.38
346.898	7.57
347.268	7.35
347.639	7.89
348.009	7.79
348.38	7.88
348.75	8.31
349.12	7.86
349.49	7.98
349.861	7.93
350.231	7.81
350.601	8.41
350.971	8.55
351.341	8.13
351.711	8.16
352.081	7.72
352.45	7.93
352.82	8.54
353.19	8.05
353.56	8.58
353.929	8.82
354.299	8.61
354.669	8.53
355.038	8.68
355.408	8.2
355.777	8.91
356.147	8.47
356.516	8.6
356.885	8.52
357.254	8.61
357.624	8.53
357.993	8.69
358.362	8.79
358.731	8.8
359.1	8.55
359.469	8.78
359.838	8.96
360.207	9.29
360.576	9.16
360.945	9.06
361.314	9.24
361.682	9.07
362.051	9
362.42	8.9
362.788	9.08
363.157	9.17
363.525	9.29
363.894	9.06
364.262	9.1
364.631	9.07
364.999	9.37
365.367	9.49
365.735	9.5
366.104	9.34
366.472	9.56
366.84	9.62
367.208	9.76
367.576	9.83
367.944	10.17
368.312	9.97
368.68	10.11
369.048	9.66
369.416	9.87
369.783	9.71
370.151	10.28
370.519	10.68
370.886	10.12
371.254	10.41
371.621	10.34
371.989	10.13
372.356	10.15
372.724	10.6
373.091	10.21
373.458	10.18
373.826	10.76
374.193	10.42
374.56	10.61
374.927	10.53
375.294	10.51
375.661	10.94
376.028	10.89
376.395	10.97
376.762	10.7
377.129	11.08
377.496	10.94
377.863	10.82
378.229	10.78
378.596	10.9
378.963	10.75
379.329	10.95
379.696	11.33
380.062	11.29
380.429	11.03
380.795	11.47
381.161	11.34
381.528	11.23
381.894	11.66
382.26	11.36
382.626	11.24
382.993	11.7
383.359	11.47
383.725	11.91
384.091	11.74
384.457	11.66
384.823	11.4
385.188	11.9
385.554	11.91
385.92	11.95
386.286	11.77
386.651	11.77
387.017	11.68
387.383	12.01
387.748	12.07
388.114	12.2
388.479	12.21
388.845	11.95
389.21	12.46
389.575	12.04
389.94	12.57
390.306	12.32
390.671	12.14
391.036	12.42
391.401	12.24
391.766	12.62
392.131	12.37
392.496	12.73
392.861	12.58
393.226	12.64
393.591	12.73
393.956	12.75
394.32	12.89
394.685	12.9
395.05	13.26
395.414	13.19
395.779	12.97
396.143	12.85
396.508	13.02
396.872	13.01
397.236	13.16
397.601	13.09
397.965	13.21
398.329	13.26
398.694	13.21
399.058	13.34
399.422	13.44
399.786	13.45
400.15	13.44
400.514	13.49
400.878	13.41
401.242	13.59
401.605	13.54
401.969	13.49
402.333	13.58
402.697	13.7
403.06	13.63
403.424	13.65
403.787	13.98
404.151	13.86
404.514	13.75
404.878	13.88
405.241	13.97
405.604	13.93
405.968	14.26
406.331	13.77
406.694	14.09
407.057	13.96
407.42	14.14
407.783	14.21
408.146	14.27
408.509	14.23
408.872	14.48
409.235	14.4
409.598	14.37
409.961	14.56
410.323	14.67
410.686	14.79
411.049	14.62
411.411	14.49
411.774	14.4
412.136	14.5
412.499	14.72
412.861	14.57
413.223	14.55
413.586	14.75
413.948	14.64
414.31	14.94
414.672	14.93
415.035	15.04
415.397	15.01
415.759	15.15
416.121	15.13
416.483	15.2
416.845	15.25
417.206	15.22
417.568	15.31
417.93	15.25
418.292	15.17
418.653	15.14
419.015	15.17
419.377	15.17
419.738	15.39
420.1	15.16
420.461	15.36
420.822	15.32
421.184	15.34
421.545	15.33
421.906	15.42
422.267	15.54
422.629	15.39
422.99	15.34
423.351	15.46
423.712	15.6
424.073	15.68
424.434	15.68
424.795	15.89
425.155	15.86
425.516	15.92
425.877	15.97
426.238	16.01
426.598	16.02
426.959	16.16
427.32	16.32
427.68	16.44
428.041	16.63
428.401	16.63
428.761	16.87
429.122	16.8
429.482	17.1
429.842	17.01
430.202	17.06
430.563	17.23
430.923	17.22
431.283	17.53
431.643	17.31
432.003	17.53
432.363	17.63
432.722	17.6
433.082	17.73
433.442	17.65
433.802	17.92
434.161	17.77
434.521	17.76
434.881	17.75
435.24	17.87
435.6	17.84
435.959	17.86
436.319	17.95
436.678	18.08
437.037	18.27
437.396	18.25
437.756	18.29
438.115	18.27
438.474	18.48
438.833	18.41
439.192	18.59
439.551	18.54
439.91	18.54
440.269	18.65
440.628	18.63
440.987	18.77
441.345	18.62
441.704	18.66
442.063	18.75
442.421	18.59
442.78	18.74
443.138	18.69
443.497	18.92
443.855	19.11
444.214	19.1
444.572	19.32
444.93	19.28
445.288	19.39
445.647	19.36
446.005	19.49
446.363	19.43
446.721	19.41
447.079	19.42
447.437	19.4
447.795	19.36
448.153	19.37
448.51	19.4
448.868	19.36
449.226	19.54
449.584	19.67
449.941	19.67
450.299	19.95
450.656	20.2
451.014	20.13
451.371	20.07
451.729	20.41
452.086	20.39
452.443	20.7
452.801	20.63
453.158	20.74
453.515	20.77
453.872	20.65
454.229	20.57
454.586	20.65
454.943	20.84
455.3	20.84
455.657	21.03
456.014	21.01
456.371	21.16
456.727	21.25
457.084	21.21
457.441	21.46
457.797	21.47
458.154	21.61
458.51	21.7
458.867	21.56
459.223	21.67
459.58	21.62
459.936	21.77
460.292	21.64
460.648	21.45
461.005	21.57
461.361	21.4
461.717	21.3
462.073	21.44
462.429	21.54
462.785	21.81
463.141	21.95
463.496	22.07
463.852	22.25
464.208	22.4
464.564	22.53
464.919	22.47
465.275	22.62
465.631	22.83
465.986	22.84
466.342	22.95
466.697	22.84
467.052	22.68
467.408	22.85
467.763	22.94
468.118	22.9
468.473	22.96
468.829	23.3
469.184	23.08
469.539	23.38
469.894	23.35
470.249	23.4
470.603	23.19
470.958	23.59
471.313	23.67
471.668	23.67
472.023	23.82
472.377	23.65
472.732	23.85
473.086	23.73
473.441	24.02
473.795	24.03
474.15	24.12
474.504	23.94
474.859	24.18
475.213	24.17
475.567	24.42
475.921	24.35
476.275	24.43
476.63	24.53
476.984	24.58
477.338	24.59
477.692	24.4
478.045	24.5
478.399	24.46
478.753	24.46
479.107	24.54
479.461	24.6
479.814	24.69
480.168	24.83
480.521	24.6
480.875	24.81
481.228	24.89
481.582	24.88
481.935	25.19
482.289	25.24
482.642	24.89
482.995	25.03
483.348	24.84
483.701	24.66
484.055	24.74
484.408	24.56
484.761	24.36
485.114	23.98
485.466	23.88
485.819	23.92
486.172	23.96
486.525	24.12
486.878	24.4
487.23	24.57
487.583	24.73
487.936	24.83
488.288	24.78
488.641	24.69
488.993	24.63
489.345	24.55
489.698	24.65
490.05	24.75
490.402	24.89
490.754	25.09
491.107	25.31
491.459	25.59
491.811	25.79
492.163	25.85
492.515	25.76
492.866	25.47
493.218	25.3
493.57	25.28
493.922	25.43
494.274	25.58
494.625	25.85
494.977	26.17
495.328	26.41
495.68	26.72
496.031	26.78
496.383	27.06
496.734	27.25
497.086	27.12
497.437	27.17
497.788	27.34
498.139	26.92
498.49	27.04
498.842	27.17
499.193	27.1
499.544	27.15
499.894	27.28
500.245	27.36
500.596	27.39
500.947	27.54
501.298	27.62
501.648	27.74
501.999	27.93
502.35	27.95
502.7	28.12
503.051	28.11
503.401	28.28
503.752	28.21
504.102	28.49
504.452	28.43
504.803	28.45
505.153	28.4
505.503	28.42
505.853	28.41
506.203	28.58
506.553	28.44
506.903	28.65
507.253	28.86
507.603	28.73
507.953	28.82
508.303	28.73
508.652	28.9
509.002	29.08
509.352	28.93
509.701	28.94
510.051	28.7
510.4	28.69
510.75	28.75
511.099	28.82
511.449	28.76
511.798	28.92
512.147	29.06
512.496	29.01
512.846	28.92
513.195	28.99
513.544	29.07
513.893	29.25
514.242	29.36
514.591	29.2
514.939	29.29
515.288	29.28
515.637	29.49
515.986	29.7
516.334	29.84
516.683	30.02
517.032	30.1
517.38	30.04
517.729	30.15
518.077	30.08
518.426	30.22
518.774	29.93
519.122	29.77
519.47	29.57
519.819	29.62
520.167	29.63
520.515	29.45
520.863	29.57
521.211	29.54
521.559	29.9
521.907	29.85
522.255	30.13
522.602	30.19
522.95	30.35
523.298	30.51
523.645	30.65
523.993	30.67
524.341	30.76
524.688	30.78
525.036	30.94
525.383	30.74
525.73	30.91
526.078	30.82
526.425	30.56
526.772	30.61
527.119	30.3
527.466	30.3
527.814	30.4
528.161	30.36
528.508	30.38
528.854	30.32
529.201	30.46
529.548	30.29
529.895	30.02
530.242	29.84
530.588	29.78
530.935	29.95
531.282	30.19
531.628	30.18
531.975	30.44
532.321	30.61
532.667	30.85
533.014	31
533.36	31.11
533.706	31.17
534.052	31.15
534.399	31.07
534.745	30.84
535.091	30.68
535.437	30.83
535.783	30.86
536.129	31.19
536.474	31.33
536.82	31.46
537.166	31.79
537.512	31.89
537.857	31.89
538.203	31.68
538.549	31.55
538.894	31.65
539.239	31.74
539.585	31.98
539.93	32.25
540.276	32.44
540.621	32.43
540.966	32.61
541.311	32.57
541.656	32.38
542.001	32.56
542.346	32.24
542.691	31.86
543.036	31.54
543.381	31.52
543.726	31.77
544.071	31.82
544.415	32.12
544.76	32.21
545.105	32.39
545.449	32.51
545.794	32.48
546.138	32.82
546.483	32.85
546.827	32.96
547.171	33.07
547.516	33.02
547.86	33.11
548.204	33.03
548.548	33.02
548.892	33.26
549.236	33.25
549.58	33.37
549.924	33.65
550.268	33.79
550.612	33.97
550.956	33.98
551.3	34.36
551.643	34.43
551.987	34.49
552.33	34.47
552.674	34.56
553.017	34.56
553.361	34.69
553.704	34.4
554.048	34.53
554.391	34.5
554.734	34.36
555.077	34.66
555.42	34.57
555.764	34.84
556.107	34.94
556.45	34.96
556.793	34.9
557.135	35.16
557.478	35.23
557.821	35.25
558.164	35.27
558.507	35.27
558.849	35.38
559.192	35.75
559.534	35.63
559.877	35.61
560.219	35.75
560.562	35.87
560.904	35.66
561.246	35.68
561.589	35.83
561.931	35.7
562.273	35.78
562.615	36.07
562.957	35.77
563.299	35.9
563.641	35.97
563.983	35.94
564.325	35.91
564.667	35.86
565.008	36.15
565.35	36.32
565.692	36.11
566.033	36.13
566.375	36.47
566.716	36.29
567.058	36.12
567.399	36.45
567.741	36.25
568.082	36.07
568.423	36.14
568.764	36.22
569.105	36.33
569.447	36.45
569.788	36.73
570.129	36.57
570.47	36.53
570.811	36.94
571.151	36.77
571.492	36.66
571.833	36.94
572.174	37.06
572.514	36.83
572.855	36.83
573.195	36.92
573.536	36.69
573.876	36.8
574.217	36.75
574.557	36.73
574.898	37.04
575.238	37.17
575.578	37.01
575.918	36.99
576.258	37.56
576.598	37.06
576.938	37.33
577.278	37.27
577.618	37.36
577.958	37.48
578.298	37.6
578.638	37.51
578.977	37.43
579.317	37.7
579.657	37.89
579.996	38.07
580.336	37.95
580.675	38.03
581.014	38.14
581.354	38.22
581.693	38.21
582.032	38.29
582.372	38.3
582.711	38.41
583.05	38.48
583.389	38.38
583.728	38.76
584.067	38.65
584.406	38.56
584.745	38.6
585.083	38.82
585.422	38.92
585.761	39.05
586.1	38.95
586.438	38.76
586.777	39.18
587.115	39.17
587.454	39.05
587.792	39.1
588.13	39.16
588.469	39.19
588.807	38.84
589.145	39.51
589.483	39.15
589.821	39.3
590.159	39.21
590.497	39.5
590.835	39.18
591.173	39.39
591.511	39.29
591.849	39.22
592.187	39.29
592.524	39.2
592.862	39.72
593.2	39.85
593.537	39.39
593.875	39.65
594.212	39.8
594.55	40.14
594.887	40.01
595.224	39.91
595.561	39.96
595.899	39.63
596.236	40.2
596.573	39.82
596.91	39.81
597.247	39.89
597.584	40.27
597.921	39.79
598.258	39.96
598.594	39.66
598.931	39.69
599.268	39.74
599.604	39.84
599.941	40.03
600.277	39.98
600.614	40.14
600.95	40.17
601.287	40.7
601.623	40.59
601.959	40.54
602.296	40.57
602.632	40.59
602.968	40.66
603.304	40.57
603.64	40.85
603.976	40.67
604.312	40.74
604.648	40.6
604.984	40.61
605.319	40.84
605.655	40.5
605.991	40.44
606.326	40.44
606.662	40.25
606.998	40.63
607.333	40.73
607.668	40.87
608.004	40.88
608.339	40.95
608.674	41.27
609.01	41.42
609.345	41.3
609.68	41.59
610.015	41.3
610.35	41.73
610.685	41.4
611.02	41.39
611.355	41.04
611.689	41.16
612.024	41.28
612.359	41.32
612.694	41.25
613.028	41.69
613.363	41.52
613.697	41.93
614.032	41.75
614.366	42.13
614.7	41.89
615.035	42.33
615.369	42.53
615.703	42.26
616.037	42.48
616.371	42.38
616.705	42.74
617.039	42.19
617.373	42.51
617.707	42.82
618.041	42.35
618.375	42.72
618.709	42.52
619.042	42.68
619.376	42.88
619.71	42.6
620.043	42.66
620.377	42.71
620.71	43.15
621.043	43.03
621.377	43
621.71	42.99
622.043	43.08
622.376	42.95
622.709	43.34
623.043	43.16
623.376	43.5
623.709	43.25
624.041	43.06
624.374	43.55
624.707	43.44
625.04	43.53
625.373	43.33
625.705	43.68
626.038	43.26
626.37	43.4
626.703	43.78
627.035	43.17
627.368	43.6
627.7	43.2
628.032	43.27
628.365	43.45
628.697	43.59
629.029	43.82
629.361	43.53
629.693	43.23
630.025	43.32
630.357	43.37
630.689	43.56
631.021	43.95
631.353	44.02
631.684	44.04
632.016	43.69
632.348	44.1
632.679	44.16
633.011	44.26
633.342	43.92
633.674	44.39
634.005	44.05
634.336	44.15
634.668	43.94
634.999	44.08
635.33	44.27
635.661	44.71
635.992	44.35
636.323	44.8
636.654	44.54
636.985	44.29
637.316	44.78
637.647	44.82
637.977	44.7
638.308	44.18
638.639	44.75
638.969	44.72
639.3	44.87
639.63	44.79
639.961	44.92
640.291	45.21
640.622	45.15
640.952	45.09
641.282	45.06
641.612	45.35
641.943	44.99
642.273	45.25
642.603	45.72
642.933	45.28
643.263	45.23
643.592	45.55
643.922	45.05
644.252	45.23
644.582	45.65
644.911	45.44
645.241	45.72
645.571	45.45
645.9	45.56
646.23	45.7
646.559	45.7
646.888	45.88
647.218	45.76
647.547	45.78
647.876	45.65
648.205	45.55
648.534	46.05
648.863	45.89
649.192	45.71
649.521	46.01
649.85	46.06
650.179	45.61
650.508	46.21
650.837	46.34
651.165	46.39
651.494	46.54
651.822	46.18
652.151	46.36
652.479	46.27
652.808	46.5
653.136	46.08
653.465	46.02
653.793	46.72
654.121	46.08
654.449	46.46
654.777	46.25
655.105	46.53
655.433	46.59
655.761	46.02
656.089	46.89
656.417	46.81
656.745	46.51
657.073	46.52
657.4	46.55
657.728	46.35
658.056	46.24
658.383	46.84
658.711	46.75
659.038	46.96
659.365	46.49
659.693	46.8
660.02	46.97
660.347	46.72
660.674	46.36
661.001	47.17
661.329	46.91
661.656	47.22
661.982	47.08
662.309	47.32
662.636	47.09
662.963	46.92
663.29	47.52
663.616	47.52
663.943	47.16
664.27	47.74
664.596	47.1
664.923	46.91
665.249	47.91
665.576	47.83
665.902	47.76
666.228	47.67
666.554	47.81
666.881	47.62
667.207	46.84
667.533	47.64
667.859	47.52
668.185	48.25
668.511	48.17
668.837	47.63
669.162	47.97
669.488	48.08
669.814	47.48
670.139	48.06
670.465	47.75
670.791	47.12
671.116	47.44
671.442	47.72
671.767	48.19
672.092	47.57
