Data from 15NW-2_crown_Reflection__4__24.txt Node

Date: Fri Nov 11 16:20:42 CST 2022
User: ToomeyLab
Spectrometer: FLMS14357
Trigger mode: 0
Integration Time (sec): 1.000000E-2
Scans to average: 100
Electric dark correction enabled: true
Nonlinearity correction enabled: false
Boxcar width: 0
XAxis mode: Wavelengths
Number of Pixels in Spectrum: 2048
>>>>>Begin Spectral Data<<<<<
189.047	1192.72
189.435	1192.72
189.823	1192.72
190.211	731.28
190.599	81.82
190.987	96.03
191.375	26.6
191.763	-100.21
192.151	103.05
192.538	-15.7
192.926	-109.05
193.314	-107.54
193.702	90.47
194.089	-110.72
194.477	-20.78
194.864	34.37
195.252	197.02
195.639	-3278.79
196.027	-78.39
196.414	109.76
196.801	1357.89
197.189	177.69
197.576	32.44
197.963	8.11
198.351	-3.69
198.738	-295.55
199.125	-0.32
199.512	1.79
199.899	-11.93
200.286	9.01
200.673	-4.93
201.06	-24.03
201.447	21.34
201.833	33.13
202.22	6.9
202.607	13.55
202.994	11.14
203.38	38.43
203.767	-1.36
204.154	-13.89
204.54	29.38
204.927	36.15
205.313	3.76
205.699	16.69
206.086	23.92
206.472	30.68
206.858	-27.55
207.245	9.34
207.631	-1.58
208.017	9.43
208.403	-2.41
208.789	-20.87
209.175	-30.46
209.561	0.38
209.947	-25.02
210.333	11.95
210.719	9.2
211.105	7.77
211.491	-56.54
211.876	1.08
212.262	18.38
212.648	13.61
213.034	-7.54
213.419	15.46
213.805	7.84
214.19	-26.62
214.576	0.15
214.961	-16.09
215.346	-54.69
215.732	-36.85
216.117	33.56
216.502	16.22
216.888	-12.54
217.273	11.74
217.658	-26.17
218.043	-37.18
218.428	-36.17
218.813	16.03
219.198	-23.37
219.583	-0.27
219.968	12.87
220.353	-22.65
220.738	-21.46
221.122	-12.04
221.507	21.69
221.892	18.48
222.276	9.43
222.661	8.89
223.046	11.56
223.43	6.04
223.815	-4.97
224.199	6.07
224.583	1.74
224.968	8.34
225.352	-10.17
225.736	6.07
226.121	-1.43
226.505	3.05
226.889	4.93
227.273	4.38
227.657	-7.16
228.041	2.14
228.425	8.77
228.809	4.19
229.193	2.75
229.577	4.97
229.961	2.21
230.344	4.34
230.728	4.26
231.112	4.54
231.495	4.68
231.879	4.02
232.263	3.06
232.646	3.13
233.03	2.98
233.413	3.46
233.797	1.68
234.18	4.89
234.563	4.14
234.946	2.5
235.33	3.81
235.713	3.91
236.096	2.82
236.479	5.08
236.862	5.07
237.245	5.55
237.628	4.78
238.011	3.28
238.394	3.86
238.777	4.19
239.16	4.19
239.543	4.17
239.925	6.21
240.308	3.86
240.691	2.74
241.073	3.05
241.456	2.44
241.838	3.52
242.221	3.36
242.603	3.29
242.986	4.08
243.368	3.74
243.75	4.41
244.133	4.09
244.515	4.27
244.897	4.19
245.279	4.47
245.661	3.97
246.043	4.31
246.425	4.02
246.807	3.22
247.189	3.63
247.571	3.25
247.953	4.05
248.335	4.2
248.717	4.11
249.098	4.24
249.48	4.26
249.862	4.17
250.243	4.12
250.625	4.08
251.006	4.46
251.388	4.16
251.769	4.21
252.151	3.98
252.532	3.62
252.913	3.01
253.295	3.99
253.676	3.46
254.057	4.14
254.438	4.01
254.819	3.49
255.2	4.47
255.581	4.86
255.962	4.14
256.343	5.3
256.724	3.36
257.105	4.11
257.486	3.25
257.867	3.65
258.247	4.25
258.628	3.77
259.009	3.75
259.389	4.17
259.77	4.49
260.15	4.35
260.531	3.63
260.911	3.49
261.292	3.82
261.672	3.83
262.052	3.83
262.432	4.35
262.813	3.86
263.193	3.44
263.573	4.1
263.953	4.13
264.333	3.94
264.713	3.77
265.093	4.25
265.473	3.94
265.853	3.43
266.233	3.74
266.612	2.74
266.992	3.12
267.372	3.52
267.752	3.64
268.131	3.32
268.511	4.09
268.89	3.68
269.27	3.45
269.649	3.32
270.029	3.39
270.408	3.08
270.787	4.2
271.167	3.4
271.546	4.01
271.925	3.42
272.304	3.74
272.683	3.84
273.062	3.66
273.441	3.22
273.82	3.71
274.199	4.11
274.578	3.6
274.957	3.17
275.336	3.6
275.715	3.57
276.093	4.31
276.472	3.46
276.851	3.54
277.229	3.38
277.608	4.04
277.986	3.56
278.365	3.88
278.743	3.45
279.122	3.1
279.5	3.12
279.878	3.27
280.257	4.22
280.635	4.15
281.013	3.38
281.391	3.28
281.769	4.46
282.147	3.29
282.525	3.44
282.903	4.13
283.281	3.48
283.659	3.5
284.037	3.33
284.415	3.78
284.792	3.77
285.17	3.62
285.548	4.03
285.925	3.66
286.303	3.44
286.68	3.6
287.058	3.62
287.435	3.82
287.813	3.52
288.19	3.91
288.567	3.88
288.945	3.24
289.322	3.39
289.699	3.7
290.076	3.37
290.453	3.31
290.83	3.61
291.207	3.39
291.584	3.54
291.961	3.61
292.338	3.74
292.715	3.7
293.092	3.41
293.469	3.72
293.845	4.17
294.222	4.43
294.599	3.86
294.975	3.44
295.352	3.4
295.728	3.55
296.105	3.79
296.481	3.5
296.858	3.6
297.234	3.71
297.61	3.94
297.986	3.31
298.363	3.54
298.739	3.72
299.115	3.67
299.491	3.71
299.867	3.53
300.243	3.67
300.619	3.85
300.995	3.85
301.371	3.64
301.746	3.54
302.122	3.65
302.498	3.16
302.874	4.04
303.249	3.73
303.625	3.64
304	3.33
304.376	4
304.751	4.1
305.127	3.97
305.502	3.75
305.878	4.16
306.253	3.87
306.628	4.03
307.003	3.75
307.378	3.98
307.754	3.44
308.129	3.42
308.504	3.45
308.879	3.86
309.254	3.08
309.629	3.72
310.003	3.67
310.378	2.98
310.753	3.36
311.128	3.67
311.502	3.33
311.877	3.92
312.252	3.52
312.626	3.56
313.001	3.65
313.375	3.85
313.75	3.83
314.124	3.75
314.498	3.85
314.873	3.65
315.247	4.08
315.621	3.26
315.995	3.09
316.369	3.69
316.743	3.59
317.117	3.91
317.491	3.93
317.865	3.45
318.239	4.19
318.613	3.78
318.987	3.62
319.361	3.4
319.734	2.9
320.108	3.98
320.482	3.63
320.855	3.68
321.229	3.71
321.602	3.51
321.976	3.3
322.349	3.73
322.723	3.54
323.096	3.92
323.469	3.69
323.843	3.98
324.216	3.4
324.589	3.81
324.962	3.4
325.335	3.53
325.708	3.87
326.081	3.19
326.454	4
326.827	4.16
327.2	3.28
327.573	3.81
327.945	3.42
328.318	3.87
328.691	4.29
329.063	3.99
329.436	3.82
329.809	3.42
330.181	3.86
330.553	3.69
330.926	3.37
331.298	3.13
331.671	4.06
332.043	3.9
332.415	3.94
332.787	3.71
333.159	3.75
333.532	3.48
333.904	3.63
334.276	3.72
334.648	3.42
335.02	4.1
335.391	3.6
335.763	3.77
336.135	3.47
336.507	3.73
336.879	3.36
337.25	3.43
337.622	4.04
337.993	3.81
338.365	3.63
338.736	3.34
339.108	3.72
339.479	3.99
339.851	3.3
340.222	3.9
340.593	2.95
340.964	3.64
341.336	3.45
341.707	3.72
342.078	3.54
342.449	3.85
342.82	3.5
343.191	3.99
343.562	3.8
343.933	3.41
344.303	4.11
344.674	3.8
345.045	3.37
345.416	3.51
345.786	3.54
346.157	3.86
346.527	3.74
346.898	3.45
347.268	3.67
347.639	4.14
348.009	3.85
348.38	3.84
348.75	4.13
349.12	3.87
349.49	3.73
349.861	3.43
350.231	3.7
350.601	3.79
350.971	3.98
351.341	3.42
351.711	3.69
352.081	3.15
352.45	3.59
352.82	3.8
353.19	3.83
353.56	3.7
353.929	3.59
354.299	3.85
354.669	3.82
355.038	3.76
355.408	3.64
355.777	4.02
356.147	3.96
356.516	3.83
356.885	3.44
357.254	3.6
357.624	3.93
357.993	3.63
358.362	3.69
358.731	3.45
359.1	3.61
359.469	3.63
359.838	3.71
360.207	3.98
360.576	4.04
360.945	3.8
361.314	4.19
361.682	3.65
362.051	3.6
362.42	3.76
362.788	3.73
363.157	3.88
363.525	3.75
363.894	3.6
364.262	3.61
364.631	3.67
364.999	3.77
365.367	3.66
365.735	3.89
366.104	3.72
366.472	3.85
366.84	3.79
367.208	3.65
367.576	3.64
367.944	3.78
368.312	3.89
368.68	3.73
369.048	3.55
369.416	3.46
369.783	3.62
370.151	3.7
370.519	4.04
370.886	4.04
371.254	3.23
371.621	3.52
371.989	3.67
372.356	3.57
372.724	3.9
373.091	3.73
373.458	3.87
373.826	3.82
374.193	3.86
374.56	3.61
374.927	3.59
375.294	3.74
375.661	4.01
376.028	3.95
376.395	3.98
376.762	3.4
377.129	3.86
377.496	3.73
377.863	3.89
378.229	3.78
378.596	3.65
378.963	3.39
379.329	3.77
379.696	3.9
380.062	3.7
380.429	3.6
380.795	3.82
381.161	3.94
381.528	3.81
381.894	3.92
382.26	3.91
382.626	3.71
382.993	3.93
383.359	3.88
383.725	3.94
384.091	3.89
384.457	3.79
384.823	3.66
385.188	3.74
385.554	3.75
385.92	3.53
386.286	3.75
386.651	3.68
387.017	3.82
387.383	3.78
387.748	3.67
388.114	3.68
388.479	3.82
388.845	3.65
389.21	3.85
389.575	3.62
389.94	4.01
390.306	3.58
390.671	3.78
391.036	3.92
391.401	3.9
391.766	3.69
392.131	3.63
392.496	3.93
392.861	3.6
393.226	4.02
393.591	3.81
393.956	4.02
394.32	4.1
394.685	3.94
395.05	4
395.414	4.22
395.779	3.85
396.143	3.88
396.508	3.68
396.872	3.85
397.236	3.9
397.601	3.95
397.965	4.18
398.329	3.82
398.694	3.88
399.058	3.89
399.422	3.86
399.786	4.02
400.15	3.84
400.514	3.91
400.878	3.95
401.242	3.94
401.605	3.83
401.969	3.96
402.333	3.93
402.697	3.89
403.06	3.77
403.424	3.59
403.787	3.79
404.151	3.95
404.514	3.91
404.878	3.74
405.241	3.88
405.604	3.9
405.968	4.06
406.331	3.74
406.694	3.9
407.057	3.94
407.42	3.97
407.783	3.84
408.146	3.96
408.509	4.03
408.872	4.11
409.235	4.01
409.598	3.99
409.961	3.74
410.323	3.93
410.686	3.84
411.049	4.06
411.411	3.81
411.774	3.82
412.136	3.85
412.499	4.02
412.861	3.78
413.223	3.76
413.586	3.75
413.948	3.93
414.31	4.1
414.672	4.16
415.035	4.08
415.397	3.91
415.759	3.94
416.121	4.05
416.483	3.8
416.845	3.98
417.206	3.87
417.568	4.01
417.93	3.85
418.292	3.9
418.653	3.83
419.015	3.75
419.377	3.98
419.738	4.14
420.1	3.87
420.461	3.94
420.822	3.72
421.184	3.76
421.545	3.78
421.906	3.86
422.267	3.95
422.629	3.86
422.99	3.86
423.351	3.81
423.712	3.85
424.073	3.83
424.434	3.87
424.795	3.96
425.155	3.91
425.516	3.86
425.877	3.91
426.238	3.82
426.598	3.85
426.959	3.83
427.32	3.93
427.68	3.91
428.041	4.05
428.401	3.85
428.761	3.9
429.122	3.99
429.482	4.01
429.842	4.03
430.202	3.89
430.563	3.97
430.923	4
431.283	4.05
431.643	4.18
432.003	4.19
432.363	4.05
432.722	4.08
433.082	3.95
433.442	3.97
433.802	4
434.161	4.12
434.521	4.05
434.881	3.91
435.24	4.03
435.6	3.96
435.959	3.92
436.319	3.83
436.678	3.79
437.037	3.91
437.396	3.93
437.756	3.99
438.115	3.89
438.474	4.02
438.833	4.01
439.192	3.97
439.551	3.87
439.91	3.97
440.269	3.95
440.628	4.05
440.987	4.09
441.345	3.97
441.704	4.03
442.063	4.02
442.421	3.93
442.78	3.98
443.138	3.98
443.497	4.02
443.855	4.09
444.214	4.07
444.572	4.03
444.93	4.04
445.288	4.06
445.647	3.91
446.005	4.02
446.363	3.97
446.721	3.81
447.079	3.89
447.437	3.97
447.795	3.98
448.153	3.88
448.51	3.89
448.868	3.93
449.226	3.98
449.584	3.99
449.941	3.92
450.299	4.06
450.656	4.15
451.014	4.07
451.371	4.06
451.729	4.13
452.086	4.08
452.443	4.15
452.801	3.92
453.158	4.07
453.515	4.04
453.872	4.16
454.229	3.98
454.586	3.99
454.943	4.05
455.3	4.21
455.657	4.19
456.014	4.02
456.371	4.03
456.727	4.19
457.084	4.02
457.441	4.05
457.797	4.08
458.154	4.08
458.51	4
458.867	3.95
459.223	4.02
459.58	4.11
459.936	4.08
460.292	4.05
460.648	4.12
461.005	4.13
461.361	4.05
461.717	3.99
462.073	4.13
462.429	4.16
462.785	4.08
463.141	4.18
463.496	4.06
463.852	4.11
464.208	4.18
464.564	4.11
464.919	4.19
465.275	4.2
465.631	4.11
465.986	4
466.342	4.21
466.697	4.17
467.052	4.2
467.408	4.17
467.763	4.12
468.118	4.11
468.473	4.02
468.829	4.28
469.184	4.22
469.539	4.31
469.894	4.17
470.249	4.11
470.603	4.05
470.958	4.22
471.313	4.27
471.668	4.25
472.023	4.32
472.377	4.28
472.732	4.25
473.086	4.19
473.441	4.17
473.795	4.18
474.15	4.22
474.504	4.2
474.859	4.29
475.213	4.38
475.567	4.22
475.921	4.44
476.275	4.34
476.63	4.33
476.984	4.25
477.338	4.21
477.692	4.27
478.045	4.2
478.399	4.17
478.753	4.24
479.107	4.16
479.461	4.23
479.814	4.22
480.168	4.33
480.521	4.23
480.875	4.24
481.228	4.35
481.582	4.23
481.935	4.36
482.289	4.29
482.642	4.22
482.995	4.34
483.348	4.13
483.701	4.32
484.055	4.21
484.408	4.2
484.761	4.05
485.114	3.96
485.466	3.89
485.819	3.98
486.172	4.01
486.525	4.07
486.878	4.11
487.23	4.14
487.583	4.21
487.936	4.19
488.288	4.06
488.641	4.12
488.993	4.07
489.345	4.07
489.698	4.08
490.05	4.07
490.402	4.07
490.754	4.21
491.107	4.19
491.459	4.26
491.811	4.24
492.163	4.26
492.515	4.19
492.866	4.13
493.218	4.09
493.57	4.04
493.922	4.17
494.274	4.19
494.625	4.19
494.977	4.21
495.328	4.35
495.68	4.29
496.031	4.34
496.383	4.35
496.734	4.45
497.086	4.32
497.437	4.33
497.788	4.44
498.139	4.27
498.49	4.34
498.842	4.39
499.193	4.33
499.544	4.4
499.894	4.46
500.245	4.36
500.596	4.36
500.947	4.3
501.298	4.49
501.648	4.49
501.999	4.45
502.35	4.41
502.7	4.41
503.051	4.44
503.401	4.38
503.752	4.34
504.102	4.43
504.452	4.42
504.803	4.38
505.153	4.43
505.503	4.5
505.853	4.49
506.203	4.5
506.553	4.42
506.903	4.42
507.253	4.68
507.603	4.54
507.953	4.58
508.303	4.48
508.652	4.33
509.002	4.49
509.352	4.58
509.701	4.57
510.051	4.43
510.4	4.3
510.75	4.5
511.099	4.42
511.449	4.4
511.798	4.45
512.147	4.49
512.496	4.43
512.846	4.45
513.195	4.48
513.544	4.41
513.893	4.44
514.242	4.52
514.591	4.43
514.939	4.43
515.288	4.47
515.637	4.45
515.986	4.68
516.334	4.64
516.683	4.57
517.032	4.45
517.38	4.57
517.729	4.5
518.077	4.42
518.426	4.58
518.774	4.39
519.122	4.5
519.47	4.32
519.819	4.48
520.167	4.43
520.515	4.46
520.863	4.46
521.211	4.54
521.559	4.48
521.907	4.48
522.255	4.59
522.602	4.56
522.95	4.61
523.298	4.65
523.645	4.51
523.993	4.58
524.341	4.5
524.688	4.55
525.036	4.73
525.383	4.69
525.73	4.58
526.078	4.54
526.425	4.52
526.772	4.57
527.119	4.49
527.466	4.45
527.814	4.41
528.161	4.43
528.508	4.5
528.854	4.46
529.201	4.56
529.548	4.48
529.895	4.34
530.242	4.31
530.588	4.27
530.935	4.41
531.282	4.53
531.628	4.51
531.975	4.49
532.321	4.48
532.667	4.58
533.014	4.63
533.36	4.54
533.706	4.55
534.052	4.47
534.399	4.48
534.745	4.42
535.091	4.42
535.437	4.48
535.783	4.46
536.129	4.6
536.474	4.58
536.82	4.55
537.166	4.6
537.512	4.64
537.857	4.65
538.203	4.53
538.549	4.54
538.894	4.56
539.239	4.59
539.585	4.6
539.93	4.69
540.276	4.72
540.621	4.74
540.966	4.76
541.311	4.81
541.656	4.55
542.001	4.71
542.346	4.7
542.691	4.49
543.036	4.47
543.381	4.5
543.726	4.49
544.071	4.58
544.415	4.61
544.76	4.55
545.105	4.67
545.449	4.62
545.794	4.59
546.138	4.67
546.483	4.66
546.827	4.78
547.171	4.61
547.516	4.63
547.86	4.63
548.204	4.65
548.548	4.57
548.892	4.59
549.236	4.68
549.58	4.86
549.924	4.72
550.268	4.95
550.612	4.83
550.956	4.81
551.3	4.82
551.643	4.96
551.987	4.86
552.33	4.84
552.674	4.78
553.017	4.83
553.361	4.76
553.704	4.85
554.048	4.83
554.391	4.85
554.734	4.75
555.077	4.9
555.42	4.84
555.764	4.96
556.107	4.97
556.45	4.88
556.793	4.89
557.135	4.83
557.478	4.84
557.821	5.01
558.164	5.06
558.507	4.97
558.849	4.95
559.192	5.07
559.534	4.81
559.877	5.09
560.219	5.05
560.562	4.92
560.904	4.93
561.246	4.93
561.589	5
561.931	4.91
562.273	5.17
562.615	4.85
562.957	4.91
563.299	5.05
563.641	5.04
563.983	4.83
564.325	4.78
564.667	4.98
565.008	4.83
565.35	5.1
565.692	4.86
566.033	5.18
566.375	4.9
566.716	5.03
567.058	4.95
567.399	4.97
567.741	5
568.082	5.01
568.423	4.95
568.764	4.92
569.105	4.98
569.447	4.86
569.788	4.87
570.129	4.92
570.47	4.9
570.811	4.92
571.151	5.04
571.492	5.02
571.833	5.06
572.174	5.11
572.514	5.05
572.855	5
573.195	5.01
573.536	5.03
573.876	4.9
574.217	4.97
574.557	4.96
574.898	5.03
575.238	5.1
575.578	4.93
575.918	4.95
576.258	5.23
576.598	5.07
576.938	4.97
577.278	5.13
577.618	5.15
577.958	5.13
578.298	5.2
578.638	4.96
578.977	5.11
579.317	5.02
579.657	5.12
579.996	5.06
580.336	5.12
580.675	5.05
581.014	5.2
581.354	5.24
581.693	5.06
582.032	5.24
582.372	5.3
582.711	5.25
583.05	5.24
583.389	5.1
583.728	5.15
584.067	5.19
584.406	5.15
584.745	5.11
585.083	5.26
585.422	5.26
585.761	5.27
586.1	5.13
586.438	5.32
586.777	5.26
587.115	5.2
587.454	5.32
587.792	5.37
588.13	5.35
588.469	5.39
588.807	5.43
589.145	5.49
589.483	5.23
589.821	5.06
590.159	5.2
590.497	5.35
590.835	4.96
591.173	5.37
591.511	5.24
591.849	5.12
592.187	5.34
592.524	5.28
592.862	5.47
593.2	5.51
593.537	5.05
593.875	5.33
594.212	5.39
594.55	5.47
594.887	5.37
595.224	5.13
595.561	5.21
595.899	5.13
596.236	5.28
596.573	5.13
596.91	5.2
597.247	4.98
597.584	5.22
597.921	5.29
598.258	5.33
598.594	5.1
598.931	5.31
599.268	5.22
599.604	5.39
599.941	5.24
600.277	5.18
600.614	5.5
600.95	5.48
601.287	5.28
601.623	5.22
601.959	5.09
602.296	5.44
602.632	5.24
602.968	5.37
603.304	5.47
603.64	5.33
603.976	5.4
604.312	5.26
604.648	5.09
604.984	5.42
605.319	5.35
605.655	5.3
605.991	5.26
606.326	5.29
606.662	5.12
606.998	5.34
607.333	5.38
607.668	5.53
608.004	5.41
608.339	5.6
608.674	5.41
609.01	5.21
609.345	5.31
609.68	5.55
610.015	5.53
610.35	5.33
610.685	5.48
611.02	5.52
611.355	5.28
611.689	5.32
612.024	5.44
612.359	5.19
612.694	5.3
613.028	5.56
613.363	5.56
613.697	5.62
614.032	5.61
614.366	5.32
614.7	5.43
615.035	5.86
615.369	5.53
615.703	5.77
616.037	5.92
616.371	5.49
616.705	5.61
617.039	5.32
617.373	5.6
617.707	5.73
618.041	5.33
618.375	5.6
618.709	5.66
619.042	5.56
619.376	5.39
619.71	5.75
620.043	5.45
620.377	5.7
620.71	5.61
621.043	5.67
621.377	5.11
621.71	5.35
622.043	5.39
622.376	5.86
622.709	5.82
623.043	5.56
623.376	5.66
623.709	5.46
624.041	5.5
624.374	5.57
624.707	5.62
625.04	5.68
625.373	5.54
625.705	5.58
626.038	5.47
626.37	5.64
626.703	5.61
627.035	5.19
627.368	5.9
627.7	5.59
628.032	5.5
628.365	5.75
628.697	5.55
629.029	5.48
629.361	5.68
629.693	5.64
630.025	5.68
630.357	5.48
630.689	5.85
631.021	5.74
631.353	5.79
631.684	5.62
632.016	5.7
632.348	5.62
632.679	5.53
633.011	5.72
633.342	5.53
633.674	5.8
634.005	6.02
634.336	5.46
634.668	5.48
634.999	5.64
635.33	5.5
635.661	5.93
635.992	5.86
636.323	5.74
636.654	5.87
636.985	5.97
637.316	5.97
637.647	5.74
637.977	5.69
638.308	5.69
638.639	5.88
638.969	5.9
639.3	5.9
639.63	5.62
639.961	5.91
640.291	6.07
640.622	5.93
640.952	5.62
641.282	5.9
641.612	6
641.943	5.72
642.273	5.74
642.603	5.69
642.933	5.72
643.263	6.08
643.592	6.08
643.922	5.65
644.252	5.68
644.582	5.88
644.911	5.84
645.241	6.05
645.571	5.77
645.9	6
646.23	5.86
646.559	5.8
646.888	5.76
647.218	5.55
647.547	5.85
647.876	5.8
648.205	5.67
648.534	5.55
648.863	5.55
649.192	6.18
649.521	6.39
649.85	5.75
650.179	5.98
650.508	5.95
650.837	5.91
651.165	6.31
651.494	6.1
651.822	5.65
652.151	6.2
652.479	5.83
652.808	5.9
653.136	6
653.465	5.93
653.793	6
654.121	6.12
654.449	5.73
654.777	5.62
655.105	6.3
655.433	5.77
655.761	5.61
656.089	6.06
656.417	6.27
656.745	5.94
657.073	6.36
657.4	5.69
657.728	6.13
658.056	5.75
658.383	5.81
658.711	6.28
659.038	5.88
659.365	5.84
659.693	5.79
660.02	6.3
660.347	6.07
660.674	5.69
661.001	5.92
661.329	5.76
661.656	6
661.982	6
662.309	6.24
662.636	5.97
662.963	6.02
663.29	6.11
663.616	6.31
663.943	6.2
664.27	6.22
664.596	6.11
664.923	6.13
665.249	6.31
665.576	5.91
665.902	6.1
666.228	6.24
666.554	5.91
666.881	5.74
667.207	5.83
667.533	6.56
667.859	6.12
668.185	6.26
668.511	6.23
668.837	5.88
669.162	6.18
669.488	5.89
669.814	5.87
670.139	5.87
670.465	5.97
670.791	6.19
671.116	6.42
671.442	5.7
671.767	6.15
672.092	6.12
672.418	6.5
672.743	5.84
673.068	6.14
673.393	5.81
673.718	5.94
674.043	6.23
674.368	5.83
674.693	6.46
675.018	6.71
675.343	6.24
675.667	5.87
675.992	6.55
676.317	6.44
676.641	6.69
676.966	5.75
677.29	5.59
677.615	6.65
677.939	6.71
678.264	6.13
678.588	6.75
678.912	6.32
679.236	5.84
679.56	6.82
679.885	6.23
680.209	5.96
680.532	6.21
680.856	6.94
681.18	6.57
681.504	6.43
681.828	5.64
682.152	6.5
682.475	6.08
682.799	6.57
683.122	6.57
683.446	6.62
683.769	6.31
684.093	6.2
684.416	6.55
684.739	6.5
685.062	6.37
685.386	6.8
685.709	7.02
686.032	6.41
686.355	6.34
686.678	6.12
687.001	7.1
687.324	6.1
687.646	6.33
687.969	6.55
688.292	6.77
688.614	6.38
688.937	6.22
689.26	6.32
689.582	6.7
689.904	6.01
690.227	6.7
690.549	6.71
690.871	6.56
691.194	7.11
691.516	6.81
691.838	6.44
692.16	6.05
692.482	6.42
692.804	6.18
