Data from 1697-1_forehead_Reflection__4__125.txt Node

Date: Fri Nov 11 17:05:14 CST 2022
User: ToomeyLab
Spectrometer: FLMS14357
Trigger mode: 0
Integration Time (sec): 1.000000E-2
Scans to average: 100
Electric dark correction enabled: true
Nonlinearity correction enabled: false
Boxcar width: 0
XAxis mode: Wavelengths
Number of Pixels in Spectrum: 2048
>>>>>Begin Spectral Data<<<<<
189.047	99.28
189.435	99.28
189.823	99.28
190.211	-996.77
190.599	-258.53
190.987	624.12
191.375	47.2
191.763	153.05
192.151	142.27
192.538	305.57
192.926	-22.14
193.314	18.97
193.702	-790.48
194.089	-150.28
194.477	158.03
194.864	-62.14
195.252	43.52
195.639	19.9
196.027	0.43
196.414	93.48
196.801	936.53
197.189	77.91
197.576	86.54
197.963	46.16
198.351	11.62
198.738	2.2
199.125	41.58
199.512	28.04
199.899	23.84
200.286	55.44
200.673	42.86
201.06	-51.48
201.447	49.12
201.833	53.57
202.22	61.46
202.607	48.86
202.994	38.61
203.38	30.3
203.767	36.27
204.154	60.63
204.54	60.23
204.927	12.23
205.313	64.97
205.699	27.77
206.086	43.38
206.472	58.81
206.858	7.41
207.245	45.72
207.631	44.19
208.017	34.02
208.403	17.54
208.789	-26.39
209.175	33.1
209.561	35.68
209.947	-11.82
210.333	60.19
210.719	52.22
211.105	12.7
211.491	-48.79
211.876	45.75
212.262	1.5
212.648	6.22
213.034	-7.82
213.419	6.02
213.805	37
214.19	-16.75
214.576	15.74
214.961	30.44
215.346	-21.94
215.732	-18.32
216.117	16.73
216.502	24.19
216.888	5.44
217.273	27.87
217.658	17.13
218.043	32.76
218.428	16.93
218.813	20.88
219.198	-1.2
219.583	26.12
219.968	8.76
220.353	-12.33
220.738	3.54
221.122	3.95
221.507	26.6
221.892	28.84
222.276	17.59
222.661	1.53
223.046	7.63
223.43	2.38
223.815	5.55
224.199	7.54
224.583	4.55
224.968	13.7
225.352	-0.28
225.736	10.8
226.121	2.41
226.505	9.88
226.889	14.81
227.273	4.81
227.657	4.05
228.041	6.82
228.425	6.82
228.809	5.93
229.193	3.52
229.577	4.95
229.961	5.44
230.344	5.51
230.728	4.34
231.112	5.22
231.495	5.71
231.879	5.2
232.263	4.35
232.646	5.44
233.03	2.66
233.413	5.75
233.797	4.76
234.18	4.54
234.563	4.14
234.946	3.55
235.33	4.13
235.713	5.15
236.096	3.2
236.479	5.79
236.862	5.45
237.245	5.83
237.628	4.37
238.011	5.01
238.394	7.12
238.777	6.62
239.16	4.45
239.543	5.13
239.925	7.2
240.308	3.11
240.691	5.26
241.073	4.89
241.456	3.56
241.838	5.69
242.221	4.64
242.603	4.87
242.986	5.02
243.368	4.45
243.75	5.05
244.133	4.59
244.515	5.1
244.897	4.69
245.279	4.37
245.661	4.22
246.043	5.21
246.425	5.42
246.807	5.11
247.189	4.24
247.571	4.27
247.953	4.68
248.335	4.95
248.717	4.72
249.098	4.8
249.48	4.74
249.862	4.73
250.243	5
250.625	5.11
251.006	5.69
251.388	5.39
251.769	5.52
252.151	6.09
252.532	5.08
252.913	5.04
253.295	4.82
253.676	5.43
254.057	4.88
254.438	5.67
254.819	5.05
255.2	5.71
255.581	6.22
255.962	4.36
256.343	5.67
256.724	4.89
257.105	6.14
257.486	6.1
257.867	5.67
258.247	4.86
258.628	4.17
259.009	5.25
259.389	5.35
259.77	6.04
260.15	5.84
260.531	4.86
260.911	4.93
261.292	4.97
261.672	4.54
262.052	4.78
262.432	5.16
262.813	5.2
263.193	5.14
263.573	5.88
263.953	5.3
264.333	5.5
264.713	4.39
265.093	5.03
265.473	5.95
265.853	4.59
266.233	4.74
266.612	4.96
266.992	5.08
267.372	4.63
267.752	4.98
268.131	5.11
268.511	5.02
268.89	5.45
269.27	4.51
269.649	4.47
270.029	4.62
270.408	4.83
270.787	5.32
271.167	4.98
271.546	5.4
271.925	5.42
272.304	5.32
272.683	4.77
273.062	4.92
273.441	4.66
273.82	4.37
274.199	4.99
274.578	5.16
274.957	4.6
275.336	4.67
275.715	4.97
276.093	5.26
276.472	5.26
276.851	4.86
277.229	4.65
277.608	4.98
277.986	4.76
278.365	4.92
278.743	4.61
279.122	4.79
279.5	4.7
279.878	4.38
280.257	5.05
280.635	5.01
281.013	5.25
281.391	4.86
281.769	5.29
282.147	4.72
282.525	4.82
282.903	5
283.281	4.98
283.659	4.48
284.037	4.6
284.415	4.82
284.792	4.91
285.17	4.51
285.548	5.15
285.925	4.85
286.303	4.77
286.68	4.88
287.058	5.13
287.435	5.2
287.813	4.73
288.19	5.05
288.567	5.09
288.945	4.23
289.322	5.16
289.699	5.24
290.076	4.67
290.453	4.49
290.83	5.21
291.207	5.2
291.584	5.15
291.961	5.1
292.338	5.06
292.715	5.22
293.092	5
293.469	5.36
293.845	5.51
294.222	5.93
294.599	5.26
294.975	5.17
295.352	5.64
295.728	5.25
296.105	4.99
296.481	5.23
296.858	5.67
297.234	5.64
297.61	5.57
297.986	5.21
298.363	5.51
298.739	5.53
299.115	5.5
299.491	5.68
299.867	5.28
300.243	5.32
300.619	5.86
300.995	5.25
301.371	5.26
301.746	5.81
302.122	5.67
302.498	5.69
302.874	6.03
303.249	5.99
303.625	5.76
304	5.84
304.376	5.93
304.751	6.63
305.127	6.14
305.502	6.06
305.878	6.79
306.253	6.27
306.628	6.49
307.003	6.04
307.378	6.02
307.754	6.67
308.129	6.65
308.504	6.13
308.879	6.9
309.254	6.21
309.629	6.91
310.003	6.78
310.378	6.54
310.753	6.79
311.128	6.81
311.502	6.76
311.877	6.99
312.252	6.74
312.626	7.06
313.001	7.01
313.375	7.23
313.75	7.27
314.124	7.18
314.498	7.62
314.873	7.14
315.247	7.55
315.621	6.93
315.995	7.09
316.369	7.83
316.743	7.29
317.117	7.51
317.491	7.74
317.865	7.45
318.239	8.02
318.613	7.9
318.987	7.76
319.361	7.54
319.734	7.95
320.108	8.38
320.482	7.99
320.855	7.96
321.229	8.59
321.602	8.18
321.976	8.08
322.349	8.25
322.723	8.54
323.096	8.59
323.469	8.19
323.843	8.75
324.216	8.55
324.589	8.72
324.962	8.31
325.335	8.75
325.708	8.63
326.081	8.55
326.454	8.92
326.827	9.18
327.2	8.35
327.573	9.16
327.945	8.66
328.318	9.23
328.691	9.2
329.063	9.52
329.436	9.43
329.809	8.99
330.181	9.54
330.553	9.11
330.926	8.75
331.298	9.48
331.671	9.04
332.043	9.64
332.415	9.38
332.787	10.19
333.159	9.53
333.532	9.27
333.904	9.34
334.276	9.75
334.648	9.02
335.02	9.69
335.391	9.49
335.763	9.77
336.135	9.59
336.507	9.5
336.879	9.71
337.25	8.66
337.622	9.83
337.993	9.76
338.365	9.96
338.736	9.82
339.108	10.08
339.479	10.22
339.851	9.38
340.222	9.99
340.593	10.09
340.964	10.23
341.336	9.99
341.707	10.15
342.078	9.86
342.449	10.17
342.82	10.21
343.191	10.48
343.562	10.48
343.933	10.1
344.303	11.05
344.674	10.64
345.045	10.27
345.416	10.11
345.786	10.61
346.157	10.35
346.527	10.7
346.898	10.44
347.268	10.83
347.639	11.16
348.009	10.59
348.38	10.9
348.75	11.17
349.12	10.76
349.49	10.79
349.861	10.67
350.231	11.15
350.601	10.85
350.971	11.12
351.341	10.72
351.711	10.89
352.081	10.48
352.45	11.3
352.82	10.88
353.19	11.06
353.56	11.19
353.929	11.33
354.299	11.18
354.669	11.24
355.038	11.04
355.408	10.95
355.777	11.33
356.147	11.5
356.516	11.61
356.885	11.23
357.254	11.28
357.624	11.59
357.993	11.39
358.362	11.41
358.731	11.25
359.1	11.31
359.469	11.6
359.838	11.81
360.207	12.04
360.576	12.06
360.945	11.94
361.314	11.78
361.682	11.87
362.051	11.74
362.42	11.84
362.788	11.63
363.157	11.85
363.525	11.99
363.894	11.5
364.262	11.77
364.631	11.7
364.999	11.71
365.367	12.16
365.735	11.97
366.104	11.86
366.472	12.02
366.84	12.33
367.208	11.8
367.576	12.05
367.944	12.39
368.312	12.29
368.68	12.59
369.048	12.29
369.416	12.25
369.783	12.33
370.151	12.2
370.519	12.48
370.886	12.8
371.254	12.54
371.621	12.79
371.989	12.25
372.356	12.36
372.724	12.89
373.091	13
373.458	12.77
373.826	12.86
374.193	12.82
374.56	12.72
374.927	12.68
375.294	12.98
375.661	13.38
376.028	13.05
376.395	13.05
376.762	12.88
377.129	13.12
377.496	13.22
377.863	12.92
378.229	13.14
378.596	13.02
378.963	12.95
379.329	13.01
379.696	13.2
380.062	13.27
380.429	13.28
380.795	13.26
381.161	13.51
381.528	13.43
381.894	13.55
382.26	13.54
382.626	13.6
382.993	13.59
383.359	13.33
383.725	13.73
384.091	13.65
384.457	13.99
384.823	13.99
385.188	13.81
385.554	13.71
385.92	13.65
386.286	13.67
386.651	13.65
387.017	13.59
387.383	13.74
387.748	13.77
388.114	13.92
388.479	13.86
388.845	13.86
389.21	13.87
389.575	14.09
389.94	14.19
390.306	13.91
390.671	14.15
391.036	14.11
391.401	14.07
391.766	14.4
392.131	14.15
392.496	14.46
392.861	14.26
393.226	14.41
393.591	14.43
393.956	14.42
394.32	14.6
394.685	14.7
395.05	14.87
395.414	14.78
395.779	14.57
396.143	14.82
396.508	14.67
396.872	14.67
397.236	14.85
397.601	14.66
397.965	14.78
398.329	14.43
398.694	14.62
399.058	14.76
399.422	15.04
399.786	14.9
400.15	14.86
400.514	15
400.878	15.14
401.242	15.26
401.605	15.06
401.969	15.15
402.333	15.04
402.697	15.2
403.06	15.35
403.424	15.21
403.787	15.29
404.151	15.07
404.514	15.13
404.878	15.4
405.241	15.27
405.604	15.24
405.968	15.49
406.331	15.3
406.694	15.38
407.057	15.64
407.42	15.61
407.783	15.43
408.146	15.74
408.509	15.52
408.872	15.8
409.235	15.9
409.598	15.9
409.961	15.69
410.323	15.93
410.686	16.1
411.049	16.07
411.411	15.74
411.774	15.93
412.136	16.01
412.499	16.24
412.861	15.79
413.223	16.12
413.586	15.79
413.948	16.29
414.31	16.12
414.672	16.1
415.035	16.35
415.397	16.31
415.759	16.36
416.121	16.32
416.483	16.36
416.845	16.32
417.206	16.47
417.568	16.46
417.93	16.39
418.292	16.17
418.653	16.57
419.015	16.54
419.377	16.66
419.738	16.52
420.1	16.34
420.461	16.41
420.822	16.44
421.184	16.36
421.545	16.52
421.906	16.57
422.267	16.62
422.629	16.47
422.99	16.47
423.351	16.43
423.712	16.57
424.073	16.6
424.434	16.65
424.795	16.77
425.155	16.86
425.516	16.68
425.877	16.78
426.238	16.67
426.598	16.82
426.959	16.81
427.32	17.01
427.68	16.99
428.041	17.22
428.401	17.16
428.761	17.18
429.122	17.38
429.482	17.45
429.842	17.45
430.202	17.53
430.563	17.66
430.923	17.41
431.283	17.57
431.643	17.65
432.003	17.84
432.363	17.84
432.722	17.74
433.082	17.74
433.442	17.86
433.802	17.87
434.161	17.8
434.521	18.02
434.881	17.88
435.24	17.88
435.6	17.79
435.959	17.96
436.319	17.9
436.678	17.91
437.037	18.01
437.396	18.06
437.756	17.99
438.115	18.17
438.474	18.23
438.833	18.33
439.192	18.34
439.551	18.34
439.91	18.42
440.269	18.32
440.628	18.41
440.987	18.52
441.345	18.48
441.704	18.35
442.063	18.45
442.421	18.33
442.78	18.3
443.138	18.31
443.497	18.38
443.855	18.63
444.214	18.51
444.572	18.69
444.93	18.6
445.288	18.77
445.647	18.67
446.005	18.92
446.363	18.89
446.721	18.62
447.079	18.87
447.437	18.87
447.795	18.72
448.153	18.73
448.51	18.71
448.868	18.81
449.226	18.74
449.584	18.9
449.941	19.07
450.299	19.19
450.656	19.21
451.014	19.4
451.371	19.21
451.729	19.55
452.086	19.4
452.443	19.63
452.801	19.7
453.158	19.69
453.515	19.75
453.872	19.61
454.229	19.67
454.586	19.71
454.943	19.65
455.3	19.79
455.657	19.9
456.014	19.85
456.371	19.9
456.727	20.02
457.084	19.99
457.441	20.17
457.797	20.06
458.154	20.14
458.51	20.11
458.867	20.28
459.223	20.3
459.58	20.49
459.936	20.45
460.292	20.11
460.648	20.16
461.005	20.12
461.361	20.02
461.717	19.96
462.073	20.03
462.429	20.17
462.785	20.15
463.141	20.37
463.496	20.33
463.852	20.61
464.208	20.92
464.564	20.67
464.919	20.78
465.275	20.78
465.631	20.92
465.986	21.02
466.342	21.18
466.697	21.12
467.052	21.08
467.408	20.87
467.763	21.12
468.118	21.07
468.473	21.14
468.829	21.28
469.184	21.22
469.539	21.22
469.894	21.19
470.249	21.37
470.603	21.24
470.958	21.57
471.313	21.42
471.668	21.4
472.023	21.63
472.377	21.66
472.732	21.6
473.086	21.65
473.441	21.63
473.795	21.66
474.15	21.66
474.504	21.65
474.859	21.8
475.213	21.89
475.567	22.03
475.921	22.05
476.275	22.1
476.63	21.96
476.984	22.1
477.338	21.98
477.692	22.26
478.045	22.03
478.399	22
478.753	22.06
479.107	22.19
479.461	22.15
479.814	22.23
480.168	22.31
480.521	22.44
480.875	22.48
481.228	22.56
481.582	22.4
481.935	22.54
482.289	22.54
482.642	22.43
482.995	22.51
483.348	22.34
483.701	22.36
484.055	22.35
484.408	22.28
484.761	22.19
485.114	21.91
485.466	21.84
485.819	21.81
486.172	21.85
486.525	21.82
486.878	22.02
487.23	22.14
487.583	22.29
487.936	22.47
488.288	22.4
488.641	22.35
488.993	22.27
489.345	22.26
489.698	22.27
490.05	22.33
490.402	22.37
490.754	22.62
491.107	22.75
491.459	22.87
491.811	23.06
492.163	23.09
492.515	23.14
492.866	22.95
493.218	22.79
493.57	22.79
493.922	22.8
494.274	22.88
494.625	23.04
494.977	23.24
495.328	23.42
495.68	23.59
496.031	23.76
496.383	24.01
496.734	24.01
497.086	24.13
497.437	24.06
497.788	24.14
498.139	23.91
498.49	23.8
498.842	23.8
499.193	23.93
499.544	24.02
499.894	24.23
500.245	24.04
500.596	24.19
500.947	24.31
501.298	24.42
501.648	24.49
501.999	24.51
502.35	24.56
502.7	24.55
503.051	24.61
503.401	24.79
503.752	24.65
504.102	24.68
504.452	24.92
504.803	24.96
505.153	24.82
505.503	24.83
505.853	24.95
506.203	25
506.553	24.95
506.903	25.04
507.253	25.14
507.603	25.04
507.953	25.19
508.303	25.15
508.652	25.12
509.002	25.23
509.352	25.25
509.701	25.18
510.051	25.32
510.4	25.34
510.75	25.34
511.099	25.31
511.449	25.29
511.798	25.45
512.147	25.33
512.496	25.54
512.846	25.62
513.195	25.53
513.544	25.74
513.893	25.73
514.242	25.78
514.591	25.65
514.939	25.86
515.288	25.84
515.637	25.8
515.986	26.12
516.334	26.03
516.683	26.22
517.032	26.08
517.38	26.36
517.729	26.52
518.077	26.39
518.426	26.5
518.774	26.37
519.122	26.24
519.47	26.27
519.819	26.2
520.167	26.04
520.515	26.24
520.863	26.15
521.211	26.2
521.559	26.31
521.907	26.51
522.255	26.47
522.602	26.73
522.95	26.76
523.298	26.74
523.645	27.02
523.993	27.11
524.341	26.97
524.688	27.11
525.036	27.31
525.383	27.02
525.73	27.18
526.078	27.25
526.425	27.11
526.772	27.19
527.119	27.04
527.466	26.98
527.814	27.01
528.161	26.9
528.508	27
528.854	27.11
529.201	27.16
529.548	27.04
529.895	26.98
530.242	26.97
530.588	26.83
530.935	26.8
531.282	26.83
531.628	26.99
531.975	27.12
532.321	27.22
532.667	27.42
533.014	27.56
533.36	27.57
533.706	27.68
534.052	27.75
534.399	27.61
534.745	27.52
535.091	27.54
535.437	27.53
535.783	27.52
536.129	27.58
536.474	27.81
536.82	27.98
537.166	28.2
537.512	28.27
537.857	28.43
538.203	28.28
538.549	28.1
538.894	28.1
539.239	28.19
539.585	28.34
539.93	28.7
540.276	28.85
540.621	28.87
540.966	28.97
541.311	29
541.656	28.84
542.001	28.99
542.346	28.73
542.691	28.49
543.036	28.39
543.381	28.35
543.726	28.41
544.071	28.54
544.415	28.51
544.76	28.63
545.105	28.95
545.449	29.03
545.794	29.15
546.138	29.33
546.483	29.29
546.827	29.62
547.171	29.51
547.516	29.35
547.86	29.56
548.204	29.62
548.548	29.59
548.892	29.7
549.236	29.68
549.58	29.95
549.924	29.95
550.268	30.22
550.612	30.07
550.956	30.24
551.3	30.54
551.643	30.49
551.987	30.27
552.33	30.48
552.674	30.6
553.017	30.66
553.361	30.73
553.704	30.68
554.048	30.73
554.391	30.78
554.734	30.78
555.077	31
555.42	30.81
555.764	30.93
556.107	31.19
556.45	31.07
556.793	31.17
557.135	31.12
557.478	31.06
557.821	31.52
558.164	31.55
558.507	31.44
558.849	31.47
559.192	31.44
559.534	31.63
559.877	31.66
560.219	31.61
560.562	31.45
560.904	31.58
561.246	31.53
561.589	31.92
561.931	31.78
562.273	31.79
562.615	31.91
562.957	31.85
563.299	31.94
563.641	31.79
563.983	31.95
564.325	32.07
564.667	32.24
565.008	32.16
565.35	32.24
565.692	32.1
566.033	32.28
566.375	32.19
566.716	32.42
567.058	32.23
567.399	32.57
567.741	32.46
568.082	32.24
568.423	32.36
568.764	32.44
569.105	32.39
569.447	32.61
569.788	32.65
570.129	32.84
570.47	32.79
570.811	32.86
571.151	33.09
571.492	32.78
571.833	33.09
572.174	33.13
572.514	33.16
572.855	33.17
573.195	33.25
573.536	33.22
573.876	33.14
574.217	33.16
574.557	33.26
574.898	33.41
575.238	33.23
575.578	33.49
575.918	33.44
576.258	33.39
576.598	33.54
576.938	33.63
577.278	33.52
577.618	33.82
577.958	33.66
578.298	33.8
578.638	33.87
578.977	33.85
579.317	33.9
579.657	34.03
579.996	34.11
580.336	34.18
580.675	34.16
581.014	34.51
581.354	33.91
581.693	34.2
582.032	34.57
582.372	34.55
582.711	34.59
583.05	34.88
583.389	34.8
583.728	34.71
584.067	34.83
584.406	34.73
584.745	34.94
585.083	35.03
585.422	35.03
585.761	35.07
586.1	35.1
586.438	35.2
586.777	35.07
587.115	35.32
587.454	35.34
587.792	35.32
588.13	35.36
588.469	35.36
588.807	35.33
589.145	35.75
589.483	35.43
589.821	35.19
590.159	35.28
590.497	35.74
590.835	35.52
591.173	35.67
591.511	35.66
591.849	35.52
592.187	35.6
592.524	35.91
592.862	36.04
593.2	35.95
593.537	35.72
593.875	36.3
594.212	36.1
594.55	36.08
594.887	36.02
595.224	35.82
595.561	36.28
595.899	36.13
596.236	36.33
596.573	36.28
596.91	36.1
597.247	36.25
597.584	36.2
597.921	36.48
598.258	36.4
598.594	36.49
598.931	36.27
599.268	36.18
599.604	36.39
599.941	36.24
600.277	36.48
600.614	36.64
600.95	36.59
601.287	36.69
601.623	36.79
601.959	36.7
602.296	36.89
602.632	37.18
602.968	37.11
603.304	37.1
603.64	37.19
603.976	37.28
604.312	37.41
604.648	37.01
604.984	37.24
605.319	37.17
605.655	37.07
605.991	37.3
606.326	37.14
606.662	37.2
606.998	37.32
607.333	37.3
607.668	37.22
608.004	37.41
608.339	37.47
608.674	37.48
609.01	37.43
609.345	37.82
609.68	37.76
610.015	38.05
610.35	37.88
610.685	37.78
611.02	37.71
611.355	37.41
611.689	37.98
612.024	38.07
612.359	38.14
612.694	37.77
613.028	38.03
613.363	38.34
613.697	38.5
614.032	38.44
614.366	38.36
614.7	38.69
615.035	38.57
615.369	38.69
615.703	38.93
616.037	38.92
616.371	38.86
616.705	38.88
617.039	38.58
617.373	39.34
617.707	39.24
618.041	38.49
618.375	39.29
618.709	39.14
619.042	39.54
619.376	39.33
619.71	39.32
620.043	39.21
620.377	39.27
620.71	39.18
621.043	39.39
621.377	39.23
621.71	39.66
622.043	39.19
622.376	39.7
622.709	39.62
623.043	39.14
623.376	39.6
623.709	39.49
624.041	40.06
624.374	39.76
624.707	39.82
625.04	39.76
625.373	40.09
625.705	39.76
626.038	40.21
626.37	40.02
626.703	39.87
627.035	40.25
627.368	40.11
627.7	40.27
628.032	39.9
628.365	40.46
628.697	40.01
629.029	40.09
629.361	40.08
629.693	40.26
630.025	40.51
630.357	40.2
630.689	40.74
631.021	40.47
631.353	40.52
631.684	40.52
632.016	40.91
632.348	40.97
632.679	40.9
633.011	40.86
633.342	40.74
633.674	40.7
634.005	41.05
634.336	41.15
634.668	40.93
634.999	40.43
635.33	41.46
635.661	41.23
635.992	41.37
636.323	41.62
636.654	41.57
636.985	41.42
637.316	41.56
637.647	41.4
637.977	41.31
638.308	41.27
638.639	41.63
638.969	41.6
639.3	41.59
639.63	41.52
639.961	41.7
640.291	41.52
640.622	41.62
640.952	41.86
641.282	41.75
641.612	41.94
641.943	41.6
642.273	41.69
642.603	41.67
642.933	41.99
643.263	42.34
643.592	41.91
643.922	41.92
644.252	42.33
644.582	42.13
644.911	42.19
645.241	42.31
645.571	42.51
645.9	42.33
646.23	42.44
646.559	42.25
646.888	42.39
647.218	42.54
647.547	42.76
647.876	42.71
648.205	42.64
648.534	42.52
648.863	42.59
649.192	43.23
649.521	43.67
649.85	42.77
650.179	42.81
650.508	42.75
650.837	42.78
651.165	43.65
651.494	43.31
651.822	43.06
652.151	43.03
652.479	43.31
652.808	43.84
653.136	43.69
653.465	43.49
653.793	43.04
654.121	43.33
654.449	43.09
654.777	42.99
655.105	43.62
655.433	43.54
655.761	43.59
656.089	43.44
656.417	44.06
656.745	43.78
657.073	43.74
657.4	43.61
657.728	43.98
658.056	43.36
658.383	43.9
658.711	44.69
659.038	44.65
659.365	43.57
659.693	44.67
660.02	44.14
660.347	44.37
660.674	43.71
661.001	44.26
661.329	44.28
661.656	44
661.982	44.25
662.309	44.43
662.636	44.08
662.963	44.33
663.29	44.01
663.616	44.82
663.943	44.32
664.27	44.32
664.596	44.54
664.923	44.57
665.249	44.76
665.576	45.41
665.902	44.15
666.228	44.46
666.554	44.56
666.881	44.58
667.207	44.6
667.533	45.1
667.859	44.8
668.185	44.49
668.511	45.14
668.837	44.77
669.162	44.5
669.488	45.43
669.814	45.34
670.139	45.4
670.465	45.25
670.791	45.21
