Data from 1697-1_chest_Reflection__1__111.txt Node

Date: Fri Nov 11 16:59:55 CST 2022
User: ToomeyLab
Spectrometer: FLMS14357
Trigger mode: 0
Integration Time (sec): 1.000000E-2
Scans to average: 100
Electric dark correction enabled: true
Nonlinearity correction enabled: false
Boxcar width: 0
XAxis mode: Wavelengths
Number of Pixels in Spectrum: 2048
>>>>>Begin Spectral Data<<<<<
189.047	38.08
189.435	38.08
189.823	38.08
190.211	2296.77
190.599	-350.28
190.987	530.56
191.375	-132.28
191.763	212.77
192.151	-4.08
192.538	-409.36
192.926	3.29
193.314	-99.47
193.702	-398.13
194.089	167.86
194.477	-268.33
194.864	-30.48
195.252	286.88
195.639	100.52
196.027	-3.77
196.414	86.58
196.801	428.21
197.189	60.52
197.576	117.84
197.963	-65.74
198.351	-31.75
198.738	-38.11
199.125	-3.04
199.512	5.97
199.899	12.65
200.286	46.37
200.673	16.3
201.06	-13.21
201.447	38.53
201.833	13.3
202.22	36.21
202.607	19.36
202.994	6.25
203.38	7.69
203.767	-13.64
204.154	-87.96
204.54	13.88
204.927	13.37
205.313	28.1
205.699	12.14
206.086	42.39
206.472	32.19
206.858	-10.07
207.245	-0.06
207.631	19.9
208.017	-12.08
208.403	-4.87
208.789	-4.34
209.175	-11.79
209.561	8.11
209.947	-5.08
210.333	28.95
210.719	28.86
211.105	9
211.491	-85.18
211.876	18.32
212.262	-11.73
212.648	-23.65
213.034	11.3
213.419	12.05
213.805	1.68
214.19	0.31
214.576	9.28
214.961	-28.39
215.346	-66.93
215.732	-55.57
216.117	7.15
216.502	-2.33
216.888	25.9
217.273	2.95
217.658	5.51
218.043	-15.53
218.428	-22.08
218.813	30.54
219.198	-20.3
219.583	0.75
219.968	-14.77
220.353	-16.23
220.738	9.02
221.122	-21.1
221.507	1.09
221.892	-5.47
222.276	7.89
222.661	7.17
223.046	1.21
223.43	2.06
223.815	-4.77
224.199	5.93
224.583	-1.89
224.968	4.48
225.352	-6.57
225.736	-4.77
226.121	7.54
226.505	5.2
226.889	5.25
227.273	7.16
227.657	-5.77
228.041	-4.08
228.425	1.04
228.809	6.23
229.193	1.58
229.577	2.92
229.961	2.18
230.344	1.42
230.728	2.34
231.112	2.1
231.495	2.69
231.879	2.64
232.263	0.84
232.646	2.52
233.03	0.92
233.413	2.36
233.797	1.11
234.18	1.43
234.563	1.71
234.946	-1.53
235.33	0.98
235.713	2.49
236.096	-0.52
236.479	4.68
236.862	3.1
237.245	2.84
237.628	2.49
238.011	2.17
238.394	4.02
238.777	0.64
239.16	1.83
239.543	0.9
239.925	3.22
240.308	1.18
240.691	0.59
241.073	1.81
241.456	0.39
241.838	3.95
242.221	2.59
242.603	1.35
242.986	2.79
243.368	2.77
243.75	2.48
244.133	2.31
244.515	2.56
244.897	2.43
245.279	2.74
245.661	1.94
246.043	2.44
246.425	3.02
246.807	2.31
247.189	1.46
247.571	1.6
247.953	2.46
248.335	2.66
248.717	2.75
249.098	2.45
249.48	2.6
249.862	2.31
250.243	2.2
250.625	2.47
251.006	2.92
251.388	2.9
251.769	2.5
252.151	2.34
252.532	2.87
252.913	2.4
253.295	1.94
253.676	2.93
254.057	2.5
254.438	2.6
254.819	2.81
255.2	2.47
255.581	2.47
255.962	2.46
256.343	3
256.724	2.39
257.105	2.67
257.486	2.9
257.867	1.05
258.247	2.91
258.628	2.2
259.009	2.58
259.389	3.25
259.77	2.86
260.15	2.33
260.531	1.81
260.911	2.54
261.292	2.43
261.672	2.44
262.052	2.5
262.432	2.83
262.813	2.19
263.193	2.16
263.573	2.95
263.953	2.46
264.333	2.23
264.713	2.67
265.093	2.64
265.473	2.75
265.853	1.96
266.233	2.02
266.612	1.64
266.992	2.21
267.372	2.38
267.752	2.6
268.131	2.43
268.511	2.27
268.89	2.45
269.27	2.65
269.649	2.3
270.029	1.8
270.408	2.23
270.787	2.61
271.167	2.5
271.546	2.64
271.925	2.91
272.304	2.55
272.683	2.74
273.062	2.49
273.441	2.3
273.82	2.22
274.199	2.61
274.578	2.75
274.957	2.22
275.336	2.52
275.715	2.45
276.093	3.2
276.472	2.76
276.851	2.75
277.229	2.57
277.608	2.53
277.986	2.31
278.365	3.06
278.743	2.21
279.122	2.23
279.5	2.04
279.878	1.78
280.257	1.91
280.635	2.2
281.013	2.41
281.391	2.55
281.769	2.74
282.147	2.62
282.525	2.62
282.903	2.63
283.281	2.6
283.659	2.11
284.037	2.36
284.415	2.17
284.792	2.42
285.17	2.46
285.548	2.1
285.925	2.46
286.303	1.94
286.68	2.34
287.058	2.29
287.435	2.55
287.813	2.36
288.19	2.8
288.567	2.55
288.945	2.32
289.322	2.57
289.699	2.92
290.076	2.1
290.453	2.05
290.83	2.84
291.207	2.52
291.584	2.17
291.961	1.94
292.338	2.57
292.715	2.27
293.092	2.48
293.469	2.76
293.845	2.7
294.222	3.08
294.599	2.63
294.975	2.58
295.352	2.26
295.728	2.84
296.105	2.3
296.481	1.97
296.858	2.25
297.234	1.93
297.61	2.44
297.986	1.84
298.363	2.7
298.739	2.53
299.115	2.62
299.491	2.73
299.867	2.29
300.243	2.35
300.619	2.43
300.995	2.58
301.371	2.24
301.746	2.82
302.122	2.71
302.498	2.24
302.874	2.32
303.249	2.4
303.625	2.2
304	2.56
304.376	2.77
304.751	2.87
305.127	2.74
305.502	2.84
305.878	3.12
306.253	2.63
306.628	2.54
307.003	2.56
307.378	2.73
307.754	2.91
308.129	2.61
308.504	2.65
308.879	2.3
309.254	2.17
309.629	2.05
310.003	2.34
310.378	1.79
310.753	2.11
311.128	2.3
311.502	2.34
311.877	2.69
312.252	2.25
312.626	2.33
313.001	2.63
313.375	2.62
313.75	3
314.124	2.77
314.498	2.77
314.873	2.73
315.247	2.75
315.621	2.1
315.995	2.39
316.369	2.73
316.743	2.44
317.117	2.91
317.491	2.5
317.865	2.76
318.239	2.71
318.613	2.57
318.987	2.79
319.361	2.45
319.734	2.46
320.108	2.97
320.482	2.87
320.855	2.64
321.229	2.92
321.602	2.33
321.976	2.36
322.349	2.16
322.723	2.68
323.096	2.52
323.469	2.84
323.843	2.54
324.216	2.25
324.589	2.77
324.962	2.22
325.335	3.08
325.708	2.15
326.081	2.57
326.454	2.8
326.827	2.71
327.2	2.29
327.573	2.55
327.945	2.88
328.318	2.86
328.691	3.02
329.063	2.87
329.436	2.96
329.809	2.25
330.181	2.63
330.553	2.44
330.926	2.29
331.298	2.04
331.671	2.86
332.043	3.06
332.415	2.71
332.787	2.71
333.159	2.63
333.532	2.06
333.904	2.43
334.276	2.44
334.648	2.27
335.02	2.84
335.391	2.36
335.763	2.39
336.135	2.57
336.507	2.78
336.879	2.67
337.25	2.01
337.622	2.99
337.993	3.02
338.365	2.93
338.736	2.78
339.108	2.37
339.479	3.09
339.851	2.63
340.222	2.77
340.593	2.3
340.964	2.46
341.336	2.43
341.707	2.41
342.078	2.85
342.449	3.07
342.82	2.7
343.191	3.13
343.562	3.05
343.933	2.11
344.303	3.04
344.674	2.69
345.045	2.83
345.416	2.45
345.786	2.62
346.157	2.73
346.527	2.84
346.898	2.74
347.268	3.16
347.639	2.85
348.009	2.35
348.38	2.75
348.75	3.02
349.12	2.96
349.49	2.72
349.861	2.47
350.231	2.81
350.601	3.06
350.971	3.09
351.341	2.45
351.711	2.82
352.081	2.15
352.45	2.72
352.82	2.9
353.19	2.72
353.56	2.82
353.929	3.11
354.299	2.66
354.669	2.8
355.038	2.55
355.408	2.55
355.777	2.87
356.147	2.58
356.516	2.8
356.885	2.45
357.254	2.54
357.624	2.91
357.993	2.79
358.362	2.39
358.731	2.7
359.1	2.74
359.469	2.92
359.838	2.95
360.207	2.94
360.576	3.04
360.945	3.02
361.314	3.13
361.682	2.91
362.051	2.84
362.42	2.9
362.788	2.49
363.157	2.97
363.525	2.95
363.894	2.84
364.262	2.5
364.631	2.79
364.999	2.8
365.367	3
365.735	2.9
366.104	2.62
366.472	2.53
366.84	2.92
367.208	2.57
367.576	2.85
367.944	3.01
368.312	2.72
368.68	2.92
369.048	2.71
369.416	2.76
369.783	2.34
370.151	2.89
370.519	3.22
370.886	2.78
371.254	2.97
371.621	2.97
371.989	2.75
372.356	2.7
372.724	2.94
373.091	2.55
373.458	2.64
373.826	3.01
374.193	2.49
374.56	2.61
374.927	2.69
375.294	2.81
375.661	3.12
376.028	2.82
376.395	2.95
376.762	2.9
377.129	2.69
377.496	2.83
377.863	2.95
378.229	3.05
378.596	2.94
378.963	2.82
379.329	2.63
379.696	2.81
380.062	3.01
380.429	2.91
380.795	2.86
381.161	3.14
381.528	2.72
381.894	3.23
382.26	2.8
382.626	2.87
382.993	2.87
383.359	3.13
383.725	2.86
384.091	2.84
384.457	2.79
384.823	2.82
385.188	3.08
385.554	2.84
385.92	2.92
386.286	2.91
386.651	2.94
387.017	2.76
387.383	2.99
387.748	2.71
388.114	2.98
388.479	2.95
388.845	2.86
389.21	2.87
389.575	2.76
389.94	2.98
390.306	2.72
390.671	2.8
391.036	2.77
391.401	2.8
391.766	2.78
392.131	2.76
392.496	2.77
392.861	2.74
393.226	2.74
393.591	2.9
393.956	3.06
394.32	3.06
394.685	2.97
395.05	2.98
395.414	3.05
395.779	2.89
396.143	3.08
396.508	2.81
396.872	2.99
397.236	2.86
397.601	3.18
397.965	3.19
398.329	2.79
398.694	2.67
399.058	2.71
399.422	2.93
399.786	3.01
400.15	2.92
400.514	3.04
400.878	2.89
401.242	3.02
401.605	2.92
401.969	3.14
402.333	3.02
402.697	2.78
403.06	3.07
403.424	2.68
403.787	3.16
404.151	2.88
404.514	3.02
404.878	3.05
405.241	3.02
405.604	2.96
405.968	3.15
406.331	3
406.694	2.99
407.057	2.95
407.42	3.05
407.783	2.87
408.146	3.23
408.509	2.96
408.872	3.12
409.235	3.05
409.598	2.81
409.961	2.91
410.323	3.04
410.686	3.21
411.049	3.03
411.411	3.05
411.774	2.98
412.136	2.94
412.499	3.04
412.861	2.86
413.223	2.97
413.586	2.9
413.948	3.04
414.31	3.11
414.672	3.11
415.035	3.05
415.397	3.15
415.759	3.01
416.121	3.05
416.483	2.78
416.845	2.99
417.206	3.12
417.568	2.98
417.93	3
418.292	2.94
418.653	3.06
419.015	2.85
419.377	3.09
419.738	3.05
420.1	2.94
420.461	3.02
420.822	3.05
421.184	2.89
421.545	2.99
421.906	2.95
422.267	2.98
422.629	3
422.99	3.01
423.351	2.98
423.712	2.92
424.073	3.01
424.434	2.92
424.795	3.09
425.155	3.09
425.516	3.05
425.877	3.06
426.238	3.01
426.598	2.96
426.959	3.02
427.32	2.98
427.68	3
428.041	3.11
428.401	2.91
428.761	3.03
429.122	3.1
429.482	3.15
429.842	2.98
430.202	3.04
430.563	3.15
430.923	3.1
431.283	3.19
431.643	3.09
432.003	3.19
432.363	3.05
432.722	3
433.082	3.12
433.442	3.06
433.802	3.12
434.161	3.13
434.521	3.14
434.881	2.79
435.24	3.12
435.6	2.91
435.959	3.16
436.319	2.98
436.678	2.99
437.037	3.09
437.396	2.91
437.756	3.03
438.115	3.1
438.474	2.91
438.833	3.11
439.192	3.19
439.551	3
439.91	3.14
440.269	3.08
440.628	3.11
440.987	3.19
441.345	3.22
441.704	3.06
442.063	3.13
442.421	3.04
442.78	3.02
443.138	3.05
443.497	3.08
443.855	3.1
444.214	3.11
444.572	3.1
444.93	3.1
445.288	3.28
445.647	3.05
446.005	3.17
446.363	3.15
446.721	2.98
447.079	2.94
447.437	3.02
447.795	2.99
448.153	3.08
448.51	3.05
448.868	3.1
449.226	3.11
449.584	3.1
449.941	3.07
450.299	3.1
450.656	3.1
451.014	3.19
451.371	3.04
451.729	3.14
452.086	3.22
452.443	3.21
452.801	3.16
453.158	3.13
453.515	3.08
453.872	3.09
454.229	3.14
454.586	3.16
454.943	3.09
455.3	3.05
455.657	3.21
456.014	3.07
456.371	3.25
456.727	3.08
457.084	3.16
457.441	3.17
457.797	3.03
458.154	3.1
458.51	3.04
458.867	3.18
459.223	3.2
459.58	3.32
459.936	3.23
460.292	3.08
460.648	3.08
461.005	3.2
461.361	3.12
461.717	3.16
462.073	3.24
462.429	3.23
462.785	3.11
463.141	3.11
463.496	3.12
463.852	3.19
464.208	3.19
464.564	3.22
464.919	3.18
465.275	3.07
465.631	3.2
465.986	3.16
466.342	3.27
466.697	3.18
467.052	3.25
467.408	3.31
467.763	3.11
468.118	3.15
468.473	3.28
468.829	3.39
469.184	3.44
469.539	3.32
469.894	3.09
470.249	3.13
470.603	3.12
470.958	3.26
471.313	3.2
471.668	3.16
472.023	3.31
472.377	3.28
472.732	3.18
473.086	3.27
473.441	3.13
473.795	3.26
474.15	3.28
474.504	3.35
474.859	3.38
475.213	3.2
475.567	3.34
475.921	3.42
476.275	3.33
476.63	3.29
476.984	3.37
477.338	3.24
477.692	3.32
478.045	3.18
478.399	3.14
478.753	3.27
479.107	3.22
479.461	3.42
479.814	3.33
480.168	3.26
480.521	3.3
480.875	3.42
481.228	3.3
481.582	3.19
481.935	3.34
482.289	3.37
482.642	3.31
482.995	3.31
483.348	3.14
483.701	3.3
484.055	3.26
484.408	3.3
484.761	3.13
485.114	3.1
485.466	3.03
485.819	3.1
486.172	3.1
486.525	3.15
486.878	3.2
487.23	3.2
487.583	3.28
487.936	3.23
488.288	3.2
488.641	3.25
488.993	3.15
489.345	3.18
489.698	3.15
490.05	3.14
490.402	3.2
490.754	3.27
491.107	3.28
491.459	3.38
491.811	3.24
492.163	3.33
492.515	3.32
492.866	3.19
493.218	3.24
493.57	3.18
493.922	3.27
494.274	3.34
494.625	3.27
494.977	3.35
495.328	3.36
495.68	3.35
496.031	3.4
496.383	3.46
496.734	3.45
497.086	3.37
497.437	3.38
497.788	3.46
498.139	3.39
498.49	3.36
498.842	3.43
499.193	3.38
499.544	3.41
499.894	3.51
500.245	3.43
500.596	3.44
500.947	3.38
501.298	3.47
501.648	3.59
501.999	3.44
502.35	3.46
502.7	3.48
503.051	3.34
503.401	3.4
503.752	3.42
504.102	3.45
504.452	3.52
504.803	3.44
505.153	3.57
505.503	3.53
505.853	3.5
506.203	3.58
506.553	3.56
506.903	3.49
507.253	3.56
507.603	3.58
507.953	3.5
508.303	3.61
508.652	3.46
509.002	3.5
509.352	3.64
509.701	3.56
510.051	3.57
510.4	3.44
510.75	3.49
511.099	3.6
511.449	3.55
511.798	3.47
512.147	3.56
512.496	3.54
512.846	3.53
513.195	3.46
513.544	3.59
513.893	3.57
514.242	3.61
514.591	3.44
514.939	3.59
515.288	3.62
515.637	3.59
515.986	3.56
516.334	3.73
516.683	3.62
517.032	3.6
517.38	3.69
517.729	3.69
518.077	3.55
518.426	3.75
518.774	3.59
519.122	3.58
519.47	3.5
519.819	3.61
520.167	3.51
520.515	3.6
520.863	3.65
521.211	3.59
521.559	3.68
521.907	3.72
522.255	3.67
522.602	3.78
522.95	3.79
523.298	3.66
523.645	3.64
523.993	3.74
524.341	3.72
524.688	3.67
525.036	3.71
525.383	3.65
525.73	3.71
526.078	3.71
526.425	3.65
526.772	3.8
527.119	3.72
527.466	3.65
527.814	3.68
528.161	3.61
528.508	3.67
528.854	3.73
529.201	3.71
529.548	3.75
529.895	3.59
530.242	3.61
530.588	3.6
530.935	3.62
531.282	3.74
531.628	3.66
531.975	3.68
532.321	3.74
532.667	3.86
533.014	3.83
533.36	3.82
533.706	3.8
534.052	3.84
534.399	3.72
534.745	3.73
535.091	3.69
535.437	3.8
535.783	3.82
536.129	3.82
536.474	3.93
536.82	3.85
537.166	3.86
537.512	3.96
537.857	4
538.203	3.93
538.549	3.87
538.894	3.92
539.239	3.94
539.585	3.98
539.93	4.02
540.276	3.99
540.621	4.06
540.966	4.09
541.311	4.1
541.656	3.98
542.001	4.06
542.346	3.99
542.691	3.9
543.036	3.91
543.381	3.86
543.726	3.95
544.071	3.97
544.415	4.02
544.76	4.03
545.105	4.13
545.449	4.13
545.794	4.04
546.138	4.16
546.483	4.2
546.827	4.23
547.171	4.1
547.516	4.11
547.86	4.18
548.204	4.11
548.548	4.21
548.892	4.21
549.236	4.24
549.58	4.3
549.924	4.3
550.268	4.5
550.612	4.28
550.956	4.22
551.3	4.41
551.643	4.41
551.987	4.4
552.33	4.29
552.674	4.29
553.017	4.3
553.361	4.48
553.704	4.45
554.048	4.41
554.391	4.31
554.734	4.38
555.077	4.34
555.42	4.47
555.764	4.47
556.107	4.43
556.45	4.43
556.793	4.53
557.135	4.43
557.478	4.57
557.821	4.54
558.164	4.52
558.507	4.64
558.849	4.6
559.192	4.61
559.534	4.61
559.877	4.62
560.219	4.76
560.562	4.81
560.904	4.66
561.246	4.39
561.589	4.84
561.931	4.75
562.273	4.62
562.615	4.63
562.957	4.76
563.299	4.8
563.641	4.73
563.983	4.78
564.325	4.88
564.667	4.9
565.008	4.63
565.35	4.84
565.692	4.64
566.033	4.82
566.375	4.9
566.716	4.89
567.058	4.66
567.399	4.92
567.741	4.94
568.082	4.91
568.423	5.03
568.764	4.91
569.105	4.99
569.447	5.01
569.788	4.96
570.129	5
570.47	4.94
570.811	5.02
571.151	4.99
571.492	5.02
571.833	4.94
572.174	5.18
572.514	5.23
572.855	5.27
573.195	5.21
573.536	5.17
573.876	5.17
574.217	5.16
574.557	5.21
574.898	5.17
575.238	5.29
575.578	5.24
575.918	5.14
576.258	5.42
576.598	5.25
576.938	5.25
577.278	5.37
577.618	5.33
577.958	5.54
578.298	5.47
578.638	5.43
578.977	5.46
579.317	5.34
579.657	5.46
579.996	5.61
580.336	5.53
580.675	5.51
581.014	5.67
581.354	5.54
581.693	5.42
582.032	5.81
582.372	5.83
582.711	5.66
583.05	5.69
583.389	5.73
583.728	5.7
584.067	5.9
584.406	5.65
584.745	5.83
585.083	5.86
585.422	5.86
585.761	5.94
586.1	5.75
586.438	5.88
586.777	5.87
587.115	6
587.454	6.05
587.792	5.88
588.13	6.08
588.469	6.04
588.807	5.98
589.145	6
589.483	6.15
589.821	5.9
590.159	5.94
590.497	6.13
590.835	5.94
591.173	6.18
591.511	6.14
591.849	6.03
592.187	6.06
592.524	6.25
592.862	6.45
593.2	6.26
593.537	5.87
593.875	6.3
594.212	6.35
594.55	6.27
594.887	6.33
595.224	6.32
595.561	6.23
595.899	6.29
596.236	6.48
596.573	6.14
596.91	6.42
597.247	6.21
597.584	6.35
597.921	6.44
598.258	6.4
598.594	6.38
598.931	6.52
599.268	6.41
599.604	6.71
599.941	6.63
600.277	6.37
600.614	6.75
600.95	6.92
601.287	6.71
601.623	6.58
601.959	6.58
602.296	6.82
602.632	6.61
602.968	6.69
603.304	7.14
603.64	6.75
603.976	6.98
604.312	6.88
604.648	6.57
604.984	6.78
605.319	6.94
605.655	7.01
605.991	6.96
606.326	7.01
606.662	7.03
606.998	7.07
607.333	7.05
607.668	6.91
608.004	7.18
608.339	7.18
608.674	7.15
609.01	6.93
609.345	7.04
609.68	7.42
610.015	7.37
610.35	7.3
610.685	7.43
611.02	7.28
611.355	7.26
611.689	7.59
612.024	7.45
612.359	7.26
612.694	7.3
613.028	7.33
613.363	7.58
613.697	7.58
614.032	7.49
614.366	7.25
614.7	7.65
615.035	7.74
615.369	7.92
615.703	7.86
616.037	7.88
616.371	7.76
616.705	7.93
617.039	7.65
617.373	7.9
617.707	7.99
618.041	7.7
618.375	8.29
618.709	7.87
619.042	8.16
619.376	7.98
619.71	7.95
620.043	7.95
620.377	8.16
620.71	7.89
621.043	8.15
621.377	7.87
621.71	8.26
622.043	7.61
622.376	8.08
622.709	8.47
623.043	7.92
623.376	8.19
623.709	8.39
624.041	8.3
624.374	8.46
624.707	8.13
625.04	8.36
625.373	8.4
625.705	8.5
626.038	8.25
626.37	8.32
626.703	8.58
627.035	8.5
627.368	8.44
627.7	8.47
628.032	8.39
628.365	8.7
628.697	8.75
629.029	8.59
629.361	8.7
629.693	8.73
630.025	8.71
630.357	8.41
630.689	9.01
631.021	8.7
631.353	9.03
631.684	8.69
632.016	8.81
632.348	8.81
632.679	8.96
633.011	9.06
633.342	8.54
633.674	8.84
634.005	9.07
634.336	8.99
634.668	8.89
634.999	8.97
635.33	9.09
635.661	9.44
635.992	9.45
636.323	9.31
636.654	9.6
636.985	9.46
637.316	9.22
637.647	9.17
637.977	9.27
638.308	9.35
638.639	9.52
638.969	9.52
639.3	9.37
639.63	9.86
639.961	9.59
640.291	9.62
640.622	9.67
640.952	9.76
641.282	9.73
641.612	9.87
641.943	9.67
642.273	10.01
642.603	9.31
642.933	9.42
643.263	9.41
643.592	9.87
643.922	9.65
644.252	10.16
644.582	9.7
644.911	10.03
645.241	10.11
645.571	10.01
645.9	10.05
646.23	10.2
646.559	9.88
646.888	10.13
647.218	9.95
647.547	10.25
647.876	10.02
648.205	10.59
648.534	9.68
648.863	9.94
649.192	10.53
649.521	10.5
649.85	10.4
650.179	10.4
650.508	10.56
650.837	10.85
651.165	10.83
651.494	10.66
651.822	10.38
652.151	10.79
652.479	10.78
652.808	10.86
653.136	10.44
653.465	10.83
653.793	10.74
654.121	10.72
654.449	10.79
654.777	11
655.105	10.63
655.433	10.97
655.761	10.58
656.089	11.07
656.417	11.29
656.745	11.28
657.073	11.06
657.4	10.88
657.728	11.1
658.056	10.73
658.383	11.24
658.711	11.77
659.038	11.22
659.365	11.16
659.693	11.26
660.02	11.55
660.347	11.26
660.674	11.04
661.001	11.5
661.329	11.52
661.656	11.55
661.982	11.88
662.309	11.7
662.636	11.71
662.963	11.45
663.29	11.79
663.616	11.99
663.943	11.88
664.27	11.71
664.596	11.96
664.923	11.59
665.249	12.23
665.576	11.68
665.902	11.92
666.228	11.77
666.554	11.48
666.881	11.27
667.207	11.62
667.533	12.43
667.859	11.64
668.185	12.19
668.511	12.16
668.837	12.11
669.162	12.04
669.488	12.05
669.814	11.9
670.139	12.2
670.465	12.76
670.791	12.19
671.116	11.63
671.442	12.14
671.767	12.46
672.092	12.16
672.418	12.01
672.743	12.16
673.068	12.09
673.393	12.12
673.718	11.98
674.043	12.7
674.368	12.12
674.693	12.51
675.018	12.68
675.343	12.66
675.667	12.75
675.992	12.4
676.317	13.04
676.641	13.1
676.966	12.17
677.29	12.48
677.615	13.44
677.939	13.35
678.264	12.36
678.588	13.36
678.912	13.22
679.236	12.82
679.56	13.01
679.885	13.3
680.209	13.16
680.532	13.25
680.856	13.82
681.18	13.41
681.504	13.5
681.828	12.77
682.152	13.49
682.475	13.07
682.799	13.81
683.122	13.78
683.446	13.69
683.769	13.96
684.093	13.6
684.416	13.47
684.739	13.68
685.062	13.88
685.386	13.68
685.709	13.77
686.032	13.26
686.355	13.79
686.678	13.61
687.001	14.4
687.324	14.16
687.646	13.64
687.969	13.85
688.292	14.17
688.614	14.02
688.937	13.65
689.26	13.85
689.582	14.45
689.904	13.9
690.227	14.76
