Data from 1697-1_forehead_Reflection__2__123.txt Node

Date: Fri Nov 11 17:04:51 CST 2022
User: ToomeyLab
Spectrometer: FLMS14357
Trigger mode: 0
Integration Time (sec): 1.000000E-2
Scans to average: 100
Electric dark correction enabled: true
Nonlinearity correction enabled: false
Boxcar width: 0
XAxis mode: Wavelengths
Number of Pixels in Spectrum: 2048
>>>>>Begin Spectral Data<<<<<
189.047	41.21
189.435	41.21
189.823	41.21
190.211	9732.26
190.599	-337.35
190.987	421.48
191.375	-85.55
191.763	-69.12
192.151	93.27
192.538	-138.35
192.926	-43.4
193.314	63.92
193.702	-46.33
194.089	-25.9
194.477	-238.53
194.864	30.78
195.252	176.88
195.639	90.21
196.027	-24.11
196.414	74.06
196.801	483.58
197.189	-5.42
197.576	149.93
197.963	40.5
198.351	4.33
198.738	-29.39
199.125	9.53
199.512	10.69
199.899	27.02
200.286	42.09
200.673	46.43
201.06	8.97
201.447	48.32
201.833	32.56
202.22	48.02
202.607	33.53
202.994	24.06
203.38	87.29
203.767	9.3
204.154	5.57
204.54	39.55
204.927	30.85
205.313	46.3
205.699	28.95
206.086	34.53
206.472	8.53
206.858	22.68
207.245	32.77
207.631	57.83
208.017	35.97
208.403	23.23
208.789	-14.74
209.175	13.56
209.561	54.23
209.947	10.6
210.333	36.95
210.719	45.35
211.105	-5.41
211.491	-42.92
211.876	55.45
212.262	-18.52
212.648	-7.41
213.034	25.01
213.419	-12.92
213.805	11.19
214.19	-26.56
214.576	19.69
214.961	5.62
215.346	-17.27
215.732	-14.51
216.117	36.13
216.502	19.6
216.888	9.49
217.273	7.46
217.658	-9.07
218.043	11.67
218.428	-23.83
218.813	44.5
219.198	0.89
219.583	11.3
219.968	34.2
220.353	-10.44
220.738	0.47
221.122	-11.74
221.507	22.18
221.892	24.9
222.276	0.57
222.661	9.14
223.046	10.66
223.43	11.71
223.815	9.33
224.199	14.61
224.583	-4.41
224.968	15.34
225.352	-6.44
225.736	4.26
226.121	8.41
226.505	11.79
226.889	4.11
227.273	7.76
227.657	-0.98
228.041	5.47
228.425	2.36
228.809	5.09
229.193	1.42
229.577	3.79
229.961	2.79
230.344	2.06
230.728	1.54
231.112	1.5
231.495	2.73
231.879	1.86
232.263	1.19
232.646	2.55
233.03	1.84
233.413	-0.2
233.797	3.11
234.18	6.17
234.563	3.12
234.946	0.78
235.33	3.2
235.713	2.78
236.096	0.65
236.479	3.83
236.862	3.67
237.245	2.56
237.628	2.36
238.011	4.25
238.394	2.17
238.777	0.33
239.16	3.21
239.543	2.73
239.925	4.19
240.308	1.27
240.691	2.89
241.073	2.38
241.456	1.73
241.838	2.67
242.221	2
242.603	2.15
242.986	2.36
243.368	1.85
243.75	2.39
244.133	2.16
244.515	2.2
244.897	2.58
245.279	2.14
245.661	1.8
246.043	2.85
246.425	2.92
246.807	2.69
247.189	1.54
247.571	1.18
247.953	2.18
248.335	2.51
248.717	2.15
249.098	2.14
249.48	2.18
249.862	2.5
250.243	2.35
250.625	2.04
251.006	2.89
251.388	2.24
251.769	2.53
252.151	3.37
252.532	2.64
252.913	1.95
253.295	2.56
253.676	2.49
254.057	1.95
254.438	2.67
254.819	2.5
255.2	2.88
255.581	3.28
255.962	3.34
256.343	2.87
256.724	2.14
257.105	3.53
257.486	2.7
257.867	2.56
258.247	2.99
258.628	1.75
259.009	1.95
259.389	3.37
259.77	3.14
260.15	2.97
260.531	2.2
260.911	1.98
261.292	2.28
261.672	2.19
262.052	2.25
262.432	2.51
262.813	2.16
263.193	2.5
263.573	2.75
263.953	2.36
264.333	2.46
264.713	2.34
265.093	2.59
265.473	3.43
265.853	2.61
266.233	2.54
266.612	2.23
266.992	2.45
267.372	2.69
267.752	2.34
268.131	2.52
268.511	2.66
268.89	3
269.27	2.07
269.649	1.69
270.029	2.17
270.408	1.33
270.787	3.08
271.167	2.09
271.546	2.79
271.925	2.86
272.304	2.3
272.683	2.27
273.062	2.47
273.441	2.28
273.82	2.12
274.199	2.35
274.578	2.57
274.957	1.81
275.336	2.38
275.715	2.09
276.093	2.87
276.472	2.63
276.851	2.32
277.229	2.23
277.608	2.07
277.986	2.32
278.365	3.06
278.743	1.85
279.122	2
279.5	2.55
279.878	2.53
280.257	3.02
280.635	2.32
281.013	2.45
281.391	2.32
281.769	3.51
282.147	2.68
282.525	2.52
282.903	2.63
283.281	2.31
283.659	2.35
284.037	2.14
284.415	2.51
284.792	2.53
285.17	2.65
285.548	2.48
285.925	2.48
286.303	2.16
286.68	2.3
287.058	2.14
287.435	2.2
287.813	2.17
288.19	2.31
288.567	2.36
288.945	1.96
289.322	2.16
289.699	2.66
290.076	2.14
290.453	2.17
290.83	2.26
291.207	2.6
291.584	2.37
291.961	2.33
292.338	2.64
292.715	2.33
293.092	2.31
293.469	2.85
293.845	2.92
294.222	3.19
294.599	3.11
294.975	2.68
295.352	2.82
295.728	3.14
296.105	2.47
296.481	2.22
296.858	2.67
297.234	2.73
297.61	2.8
297.986	2.18
298.363	2.83
298.739	2.87
299.115	2.61
299.491	3.06
299.867	2.71
300.243	2.54
300.619	2.69
300.995	2.93
301.371	2.95
301.746	3.2
302.122	3.03
302.498	2.64
302.874	2.98
303.249	3.05
303.625	2.96
304	2.71
304.376	2.99
304.751	3.92
305.127	2.75
305.502	3.59
305.878	3.33
306.253	3.36
306.628	3.67
307.003	3.19
307.378	3.38
307.754	3.39
308.129	3.5
308.504	3.44
308.879	3.38
309.254	2.99
309.629	3.59
310.003	3.53
310.378	3.18
310.753	3.31
311.128	3.35
311.502	3.3
311.877	3.88
312.252	3.37
312.626	3.44
313.001	3.58
313.375	3.57
313.75	3.74
314.124	3.81
314.498	4
314.873	3.89
315.247	4.3
315.621	3.62
315.995	3.78
316.369	4.16
316.743	4.23
317.117	3.9
317.491	4.38
317.865	3.81
318.239	4.35
318.613	4.01
318.987	4.56
319.361	4.2
319.734	4.19
320.108	4.68
320.482	3.8
320.855	4
321.229	4.68
321.602	4.17
321.976	3.89
322.349	4.47
322.723	4.92
323.096	4.66
323.469	4.98
323.843	5.56
324.216	4.58
324.589	4.88
324.962	4.76
325.335	4.91
325.708	4.38
326.081	4.63
326.454	4.41
326.827	5.13
327.2	4.3
327.573	4.73
327.945	5.24
328.318	5.12
328.691	5.12
329.063	5.44
329.436	4.77
329.809	4.53
330.181	5.09
330.553	4.99
330.926	5.07
331.298	4.94
331.671	5.27
332.043	5.23
332.415	5.25
332.787	5.73
333.159	5.03
333.532	4.83
333.904	5.2
334.276	5.1
334.648	4.95
335.02	5.18
335.391	5.54
335.763	5.24
336.135	5.04
336.507	5.33
336.879	5.2
337.25	5.02
337.622	5.46
337.993	5.58
338.365	5.67
338.736	5.51
339.108	5.24
339.479	5.56
339.851	4.95
340.222	5.13
340.593	5.42
340.964	5.44
341.336	5.57
341.707	5.51
342.078	5.35
342.449	5.52
342.82	5.15
343.191	5.99
343.562	5.81
343.933	5.28
344.303	5.91
344.674	5.64
345.045	5.58
345.416	5.63
345.786	5.41
346.157	5.49
346.527	5.7
346.898	5.69
347.268	5.61
347.639	6.23
348.009	5.74
348.38	5.96
348.75	6.03
349.12	6.05
349.49	6
349.861	5.73
350.231	6.07
350.601	6.47
350.971	6.27
351.341	5.9
351.711	5.92
352.081	5.58
352.45	5.7
352.82	5.99
353.19	5.92
353.56	6.31
353.929	6.51
354.299	6.23
354.669	6.09
355.038	5.97
355.408	5.88
355.777	6.54
356.147	6.09
356.516	6.07
356.885	6.05
357.254	6.09
357.624	5.96
357.993	6.33
358.362	6.39
358.731	6.34
359.1	6.12
359.469	6.29
359.838	6.48
360.207	6.27
360.576	6.55
360.945	6.7
361.314	6.29
361.682	6.33
362.051	6.41
362.42	6.19
362.788	6.27
363.157	6.38
363.525	6.57
363.894	6.41
364.262	6.21
364.631	6.41
364.999	6.43
365.367	6.8
365.735	6.67
366.104	6.36
366.472	6.54
366.84	6.99
367.208	6.6
367.576	6.79
367.944	7.04
368.312	6.76
368.68	6.94
369.048	6.78
369.416	6.63
369.783	6.59
370.151	6.86
370.519	7.16
370.886	7.05
371.254	6.77
371.621	7.19
371.989	6.97
372.356	6.6
372.724	7.24
373.091	7.05
373.458	6.99
373.826	7.24
374.193	7.27
374.56	7.19
374.927	7.06
375.294	7.1
375.661	7.45
376.028	6.85
376.395	7.49
376.762	7.23
377.129	7.27
377.496	7.05
377.863	7.31
378.229	7.24
378.596	7.42
378.963	7.17
379.329	7.15
379.696	7.19
380.062	7.47
380.429	7.3
380.795	7.59
381.161	7.55
381.528	7.47
381.894	7.71
382.26	7.47
382.626	7.64
382.993	7.68
383.359	7.58
383.725	7.61
384.091	7.38
384.457	7.63
384.823	7.5
385.188	7.35
385.554	7.76
385.92	7.62
386.286	7.76
386.651	7.66
387.017	7.78
387.383	7.73
387.748	7.71
388.114	7.76
388.479	7.79
388.845	7.82
389.21	7.91
389.575	7.84
389.94	7.88
390.306	7.81
390.671	7.8
391.036	7.92
391.401	7.82
391.766	7.98
392.131	7.73
392.496	7.94
392.861	7.88
393.226	7.86
393.591	8.08
393.956	7.99
394.32	8.43
394.685	8.45
395.05	8.36
395.414	8.22
395.779	8.15
396.143	8.31
396.508	8.1
396.872	8.32
397.236	8.2
397.601	8.26
397.965	8.36
398.329	8.26
398.694	8.17
399.058	8.41
399.422	8.57
399.786	8.68
400.15	8.56
400.514	8.42
400.878	8.61
401.242	8.37
401.605	8.61
401.969	8.57
402.333	8.56
402.697	8.38
403.06	8.7
403.424	8.31
403.787	8.54
404.151	8.66
404.514	8.54
404.878	8.67
405.241	8.56
405.604	8.6
405.968	8.83
406.331	8.62
406.694	8.91
407.057	8.81
407.42	8.81
407.783	8.74
408.146	8.85
408.509	8.97
408.872	9.03
409.235	8.97
409.598	9.08
409.961	9.02
410.323	9.04
410.686	9.17
411.049	9.26
411.411	8.84
411.774	8.96
412.136	9.04
412.499	9.15
412.861	9.1
413.223	9.07
413.586	9.05
413.948	9.27
414.31	9.24
414.672	9.39
415.035	9.53
415.397	9.46
415.759	9.31
416.121	9.22
416.483	9.14
416.845	9.29
417.206	9.42
417.568	9.5
417.93	9.27
418.292	9.19
418.653	9.28
419.015	9.24
419.377	9.36
419.738	9.5
420.1	9.31
420.461	9.29
420.822	9.23
421.184	9.28
421.545	9.21
421.906	9.26
422.267	9.28
422.629	9.39
422.99	9.3
423.351	9.37
423.712	9.32
424.073	9.39
424.434	9.37
424.795	9.5
425.155	9.54
425.516	9.48
425.877	9.57
426.238	9.46
426.598	9.51
426.959	9.49
427.32	9.64
427.68	9.67
428.041	9.81
428.401	9.86
428.761	10
429.122	10.03
429.482	10.01
429.842	9.89
430.202	10
430.563	10.02
430.923	10.03
431.283	10.09
431.643	10.17
432.003	10.17
432.363	10.24
432.722	10.36
433.082	10.09
433.442	10.22
433.802	10.28
434.161	10.35
434.521	10.26
434.881	10.08
435.24	10.21
435.6	10.06
435.959	10.3
436.319	10.24
436.678	10.2
437.037	10.31
437.396	10.37
437.756	10.38
438.115	10.25
438.474	10.31
438.833	10.37
439.192	10.61
439.551	10.35
439.91	10.5
440.269	10.54
440.628	10.52
440.987	10.76
441.345	10.61
441.704	10.45
442.063	10.68
442.421	10.53
442.78	10.52
443.138	10.58
443.497	10.59
443.855	10.69
444.214	10.8
444.572	10.85
444.93	10.78
445.288	10.99
445.647	10.6
446.005	10.89
446.363	10.82
446.721	10.95
447.079	10.84
447.437	10.79
447.795	10.74
448.153	10.81
448.51	10.82
448.868	10.94
449.226	10.85
449.584	10.89
449.941	10.96
450.299	11.19
450.656	11.16
451.014	11.2
451.371	11.19
451.729	11.15
452.086	11.17
452.443	11.46
452.801	11.35
453.158	11.22
453.515	11.18
453.872	11.37
454.229	11.49
454.586	11.38
454.943	11.41
455.3	11.37
455.657	11.55
456.014	11.38
456.371	11.37
456.727	11.68
457.084	11.55
457.441	11.66
457.797	11.62
458.154	11.68
458.51	11.51
458.867	11.77
459.223	11.69
459.58	11.78
459.936	11.8
460.292	11.68
460.648	11.79
461.005	11.79
461.361	11.62
461.717	11.54
462.073	11.66
462.429	11.73
462.785	11.83
463.141	11.86
463.496	12.03
463.852	12.02
464.208	12.13
464.564	12.09
464.919	12.01
465.275	11.93
465.631	12.09
465.986	12.23
466.342	12.26
466.697	12.27
467.052	12.27
467.408	12.13
467.763	12.23
468.118	12.34
468.473	12.39
468.829	12.43
469.184	12.4
469.539	12.49
469.894	12.38
470.249	12.43
470.603	12.5
470.958	12.54
471.313	12.67
471.668	12.53
472.023	12.69
472.377	12.74
472.732	12.7
473.086	12.75
473.441	12.7
473.795	12.78
474.15	12.64
474.504	12.81
474.859	12.72
475.213	12.91
475.567	12.85
475.921	13.08
476.275	13
476.63	13.11
476.984	12.94
477.338	13.02
477.692	13.06
478.045	12.91
478.399	12.84
478.753	12.95
479.107	13.01
479.461	12.94
479.814	13.04
480.168	13.23
480.521	13.11
480.875	13.18
481.228	13.19
481.582	13.16
481.935	13.19
482.289	13.21
482.642	13.15
482.995	13.32
483.348	13.04
483.701	13.13
484.055	13.06
484.408	13.04
484.761	12.83
485.114	12.68
485.466	12.42
485.819	12.52
486.172	12.66
486.525	12.78
486.878	12.98
487.23	13.01
487.583	13.11
487.936	13.17
488.288	13.06
488.641	13
488.993	12.89
489.345	12.88
489.698	13.01
490.05	13.02
490.402	13.16
490.754	13.28
491.107	13.41
491.459	13.57
491.811	13.63
492.163	13.63
492.515	13.53
492.866	13.47
493.218	13.22
493.57	13.26
493.922	13.43
494.274	13.57
494.625	13.66
494.977	13.82
495.328	13.93
495.68	14
496.031	14.18
496.383	14.25
496.734	14.31
497.086	14.25
497.437	14.22
497.788	14.33
498.139	14.13
498.49	14.14
498.842	14.14
499.193	14.26
499.544	14.39
499.894	14.38
500.245	14.5
500.596	14.5
500.947	14.55
501.298	14.82
501.648	14.62
501.999	14.6
502.35	14.65
502.7	14.67
503.051	14.58
503.401	14.85
503.752	14.67
504.102	14.94
504.452	14.83
504.803	14.91
505.153	14.94
505.503	14.87
505.853	14.9
506.203	14.98
506.553	15.04
506.903	15
507.253	15.14
507.603	15.01
507.953	15.18
508.303	15.14
508.652	15.08
509.002	15.07
509.352	15.19
509.701	15.17
510.051	15.25
510.4	15.14
510.75	15.12
511.099	15.18
511.449	15.26
511.798	15.17
512.147	15.29
512.496	15.15
512.846	15.28
513.195	15.3
513.544	15.42
513.893	15.46
514.242	15.49
514.591	15.54
514.939	15.46
515.288	15.61
515.637	15.67
515.986	15.8
516.334	15.63
516.683	15.84
517.032	15.7
517.38	15.84
517.729	15.88
518.077	15.87
518.426	16.1
518.774	15.77
519.122	15.78
519.47	15.74
519.819	15.81
520.167	15.64
520.515	15.75
520.863	15.77
521.211	15.85
521.559	15.9
521.907	16.02
522.255	16.13
522.602	16.15
522.95	16.13
523.298	16.22
523.645	16.39
523.993	16.44
524.341	16.46
524.688	16.37
525.036	16.43
525.383	16.46
525.73	16.41
526.078	16.59
526.425	16.37
526.772	16.34
527.119	16.3
527.466	16.21
527.814	16.28
528.161	16.3
528.508	16.29
528.854	16.41
529.201	16.35
529.548	16.23
529.895	16.01
530.242	15.96
530.588	15.97
530.935	16.11
531.282	16.25
531.628	16.36
531.975	16.44
532.321	16.47
532.667	16.75
533.014	16.77
533.36	16.88
533.706	16.85
534.052	16.78
534.399	16.8
534.745	16.64
535.091	16.53
535.437	16.65
535.783	16.74
536.129	16.86
536.474	17.08
536.82	17.15
537.166	17.34
537.512	17.31
537.857	17.33
538.203	17.17
538.549	17.15
538.894	17.22
539.239	17.39
539.585	17.45
539.93	17.55
540.276	17.55
540.621	17.76
540.966	17.77
541.311	17.7
541.656	17.67
542.001	17.81
542.346	17.55
542.691	17.29
543.036	17.11
543.381	17.15
543.726	17.35
544.071	17.47
544.415	17.57
544.76	17.62
545.105	17.76
545.449	17.84
545.794	17.88
546.138	17.97
546.483	18.14
546.827	18.21
547.171	18.16
547.516	18.03
547.86	18.24
548.204	18.2
548.548	18.06
548.892	18.25
549.236	18.44
549.58	18.47
549.924	18.62
550.268	18.75
550.612	18.62
550.956	18.84
551.3	19.02
551.643	19.19
551.987	18.81
552.33	18.98
552.674	19.17
553.017	18.98
553.361	19.18
553.704	19.09
554.048	18.97
554.391	19.11
554.734	19.14
555.077	19.24
555.42	19.24
555.764	19.22
556.107	19.41
556.45	19.27
556.793	19.47
557.135	19.39
557.478	19.37
557.821	19.82
558.164	19.7
558.507	19.64
558.849	19.62
559.192	19.83
559.534	19.75
559.877	19.72
560.219	19.62
560.562	19.79
560.904	19.78
561.246	19.64
561.589	19.88
561.931	19.81
562.273	20.01
562.615	19.92
562.957	20
563.299	20.01
563.641	20.13
563.983	20.04
564.325	20.04
564.667	20.23
565.008	20.05
565.35	20.32
565.692	20.16
566.033	20.49
566.375	20.43
566.716	20.28
567.058	20.25
567.399	20.25
567.741	20.34
568.082	20.38
568.423	20.4
568.764	20.55
569.105	20.53
569.447	20.47
569.788	20.69
570.129	20.87
570.47	20.69
570.811	20.76
571.151	20.72
571.492	20.86
571.833	20.9
572.174	20.83
572.514	21.05
572.855	20.92
573.195	20.85
573.536	20.9
573.876	20.84
574.217	20.74
574.557	20.91
574.898	20.96
575.238	21.13
575.578	21.14
575.918	21.08
576.258	21.35
576.598	21.27
576.938	21.11
577.278	21.28
577.618	21.4
577.958	21.46
578.298	21.53
578.638	21.47
578.977	21.49
579.317	21.82
579.657	21.59
579.996	21.63
580.336	21.62
580.675	21.54
581.014	21.99
581.354	21.75
581.693	21.98
582.032	22.15
582.372	21.97
582.711	22.09
583.05	22.26
583.389	22.17
583.728	22.11
584.067	22.08
584.406	22.28
584.745	22.33
585.083	22.35
585.422	22.23
585.761	22.16
586.1	22.29
586.438	22.29
586.777	22.51
587.115	22.5
587.454	22.61
587.792	22.49
588.13	22.79
588.469	22.55
588.807	22.64
589.145	22.65
589.483	22.59
589.821	22.68
590.159	22.67
590.497	22.92
590.835	22.74
591.173	22.91
591.511	22.77
591.849	22.93
592.187	23.07
592.524	22.79
592.862	23.27
593.2	23.29
593.537	22.66
593.875	23.36
594.212	23.3
594.55	23.05
594.887	22.91
595.224	23.33
595.561	23.2
595.899	23.3
596.236	23.24
596.573	23.04
596.91	23.23
597.247	23.09
597.584	23.45
597.921	23.25
598.258	23.35
598.594	23.05
598.931	23.23
599.268	23.28
599.604	23.54
599.941	23.51
600.277	23.5
600.614	23.83
600.95	23.87
601.287	23.91
601.623	23.67
601.959	23.74
602.296	23.84
602.632	23.82
602.968	23.84
603.304	24.05
603.64	23.96
603.976	24.16
604.312	24.01
604.648	23.86
604.984	23.95
605.319	23.78
605.655	24.02
605.991	23.91
606.326	23.85
606.662	23.68
606.998	24.02
607.333	24.21
607.668	24.13
608.004	24.37
608.339	24.6
608.674	24.4
609.01	24.74
609.345	24.36
609.68	24.73
610.015	24.68
610.35	24.72
610.685	24.65
611.02	24.65
611.355	24.39
611.689	24.63
612.024	24.65
612.359	24.5
612.694	24.78
613.028	24.83
613.363	24.9
613.697	24.88
614.032	25.05
614.366	24.71
614.7	25.12
615.035	25.2
615.369	25.48
615.703	25.59
616.037	25.27
616.371	25.24
616.705	25.39
617.039	25.28
617.373	25.6
617.707	25.39
618.041	25.34
618.375	25.83
618.709	25.56
619.042	25.75
619.376	25.9
619.71	25.63
620.043	25.36
620.377	25.66
620.71	25.4
621.043	25.85
621.377	25.46
621.71	25.85
622.043	25.97
622.376	26.06
622.709	26.31
623.043	25.73
623.376	26.26
623.709	26.19
624.041	26.35
624.374	26.07
624.707	26.35
625.04	26.02
625.373	26.11
625.705	26.11
626.038	26.58
626.37	26.37
626.703	26.07
627.035	26.2
627.368	26.12
627.7	26.38
628.032	26.04
628.365	26.78
628.697	26.38
629.029	26.23
629.361	26.32
629.693	26.36
630.025	26.62
630.357	26.3
630.689	26.37
631.021	26.42
631.353	26.53
631.684	26.71
632.016	26.87
632.348	26.93
632.679	26.9
633.011	26.98
633.342	27.1
633.674	27.23
634.005	27.34
634.336	27.02
634.668	26.8
634.999	26.82
635.33	27.1
635.661	27.19
635.992	27.39
636.323	27.21
636.654	27.37
636.985	27.11
637.316	27.59
637.647	27.41
637.977	27.27
638.308	27.36
638.639	27.18
638.969	27.83
639.3	27.15
639.63	27.6
639.961	27.42
640.291	27.54
640.622	27.48
640.952	27.53
641.282	27.88
641.612	27.95
641.943	27.57
642.273	28.01
642.603	27.43
642.933	27.61
643.263	27.34
643.592	28.45
643.922	27.96
644.252	28.14
644.582	28.02
644.911	28.4
645.241	28.44
645.571	28.25
645.9	27.99
646.23	28.39
646.559	28.32
646.888	28.28
647.218	28.34
647.547	27.98
647.876	28.32
648.205	27.95
648.534	28.04
648.863	28.09
649.192	28.63
649.521	28.95
649.85	28.28
650.179	28.79
650.508	28.74
650.837	28.81
651.165	28.46
651.494	28.86
651.822	28.69
652.151	28.62
652.479	29.03
652.808	29.48
653.136	28.78
653.465	29.42
653.793	29.17
654.121	28.9
654.449	28.23
654.777	29.03
655.105	28.9
655.433	28.85
655.761	29.08
656.089	29.27
656.417	28.94
656.745	29.38
657.073	28.87
657.4	29.42
657.728	29.4
658.056	29.06
658.383	29.5
658.711	29.4
659.038	29.5
659.365	29.42
659.693	28.89
660.02	29.61
660.347	29.4
660.674	29.06
661.001	29.53
661.329	29.39
661.656	29.54
661.982	30.01
662.309	29.84
662.636	29.65
662.963	29.9
663.29	29.53
663.616	30
663.943	30.25
664.27	29.56
664.596	29.83
664.923	30.68
665.249	30.1
665.576	30.29
665.902	29.98
666.228	30.21
666.554	29.75
666.881	30.43
667.207	29.74
667.533	30.14
667.859	30.02
668.185	30.34
668.511	30.2
668.837	30.25
669.162	30.11
669.488	29.85
669.814	29.98
670.139	30.26
670.465	30.38
670.791	29.82
671.116	31.23
671.442	30.35
671.767	30.41
672.092	30.54
672.418	30.08
672.743	30.06
673.068	30.46
673.393	30.47
673.718	30.93
674.043	30.78
674.368	30.54
674.693	30.87
675.018	31.01
675.343	31.28
675.667	30.47
675.992	30.54
