Data from 1697-1_chest_Reflection__2__112.txt Node

Date: Fri Nov 11 17:00:12 CST 2022
User: ToomeyLab
Spectrometer: FLMS14357
Trigger mode: 0
Integration Time (sec): 1.000000E-2
Scans to average: 100
Electric dark correction enabled: true
Nonlinearity correction enabled: false
Boxcar width: 0
XAxis mode: Wavelengths
Number of Pixels in Spectrum: 2048
>>>>>Begin Spectral Data<<<<<
189.047	95.53
189.435	95.53
189.823	95.53
190.211	9651.61
190.599	40.97
190.987	454.12
191.375	-5.19
191.763	49.4
192.151	153.86
192.538	-549.39
192.926	18.99
193.314	115.82
193.702	-297.04
194.089	-232.89
194.477	287.05
194.864	34.51
195.252	230.57
195.639	54.34
196.027	38.02
196.414	34.55
196.801	-22.2
197.189	109.4
197.576	-89.12
197.963	20.97
198.351	-26.21
198.738	-34.35
199.125	2.78
199.512	-17.94
199.899	-28.74
200.286	20.12
200.673	21.69
201.06	-51.6
201.447	35.2
201.833	5.75
202.22	19.5
202.607	24.1
202.994	16.14
203.38	45.72
203.767	1.41
204.154	-10.84
204.54	20.58
204.927	43.15
205.313	23.29
205.699	39.06
206.086	16.69
206.472	13.22
206.858	9.13
207.245	-12.8
207.631	17.62
208.017	27.05
208.403	6.01
208.789	-28.08
209.175	5.61
209.561	33.27
209.947	12.16
210.333	25.63
210.719	22.49
211.105	8.95
211.491	-90.78
211.876	28.86
212.262	-21.54
212.648	7
213.034	-11.24
213.419	4.29
213.805	10.4
214.19	-8.54
214.576	43.25
214.961	-11.03
215.346	14.4
215.732	-5.04
216.117	17.52
216.502	1.68
216.888	-12.55
217.273	5.1
217.658	-10.71
218.043	-14.77
218.428	-31.13
218.813	46.38
219.198	-15.38
219.583	2.83
219.968	8.04
220.353	-44.76
220.738	-9.49
221.122	-24.96
221.507	19.62
221.892	16.83
222.276	1.3
222.661	6.98
223.046	8.01
223.43	3.27
223.815	8.14
224.199	9.19
224.583	7.37
224.968	16.15
225.352	-4.82
225.736	2.18
226.121	3.42
226.505	3.82
226.889	1.75
227.273	3.09
227.657	-4.35
228.041	-0.86
228.425	5.7
228.809	6.09
229.193	2.69
229.577	3.53
229.961	3.41
230.344	4.55
230.728	3.95
231.112	4.29
231.495	3.68
231.879	3.62
232.263	3.44
232.646	1.92
233.03	3.27
233.413	2.93
233.797	1.72
234.18	5.53
234.563	2.92
234.946	-0.13
235.33	4.19
235.713	3.32
236.096	2.39
236.479	4.55
236.862	3.84
237.245	4.82
237.628	3.09
238.011	4.78
238.394	5.28
238.777	4.11
239.16	3.68
239.543	4.3
239.925	4.47
240.308	1.96
240.691	4.13
241.073	3.01
241.456	2.17
241.838	4.36
242.221	4.03
242.603	4.55
242.986	3.15
243.368	3.46
243.75	4.04
244.133	3.97
244.515	3.91
244.897	3.48
245.279	3.52
245.661	4.01
246.043	3.64
246.425	4.27
246.807	4.24
247.189	3.45
247.571	2.88
247.953	3.87
248.335	4.21
248.717	4.3
249.098	3.94
249.48	4.13
249.862	3.95
250.243	3.81
250.625	3.81
251.006	4.21
251.388	3.89
251.769	4.54
252.151	4.01
252.532	3.57
252.913	3.69
253.295	3.82
253.676	4.58
254.057	4.01
254.438	4.5
254.819	3.56
255.2	3.61
255.581	4.52
255.962	4.34
256.343	4.62
256.724	4.34
257.105	3.65
257.486	4.63
257.867	3.5
258.247	3.82
258.628	3.67
259.009	3.77
259.389	4.46
259.77	4.63
260.15	4.45
260.531	3.65
260.911	3.91
261.292	4
261.672	3.87
262.052	3.94
262.432	4.51
262.813	4
263.193	4.24
263.573	4.56
263.953	4.19
264.333	3.78
264.713	3.17
265.093	4.08
265.473	4.47
265.853	4.03
266.233	3.5
266.612	4.25
266.992	3.9
267.372	3.14
267.752	3.82
268.131	3.7
268.511	4.01
268.89	4.46
269.27	3.3
269.649	3.39
270.029	3.46
270.408	3.37
270.787	4.11
271.167	4.12
271.546	4.01
271.925	3.93
272.304	4.69
272.683	3.98
273.062	4.13
273.441	3.42
273.82	3.46
274.199	3.93
274.578	4.04
274.957	3.39
275.336	3.67
275.715	3.36
276.093	4.49
276.472	3.9
276.851	3.47
277.229	3.62
277.608	3.91
277.986	3.58
278.365	4.07
278.743	3.57
279.122	3.36
279.5	3.27
279.878	3.21
280.257	3.76
280.635	3.68
281.013	4.01
281.391	3.67
281.769	4.42
282.147	3.78
282.525	3.22
282.903	3.99
283.281	3.55
283.659	3.4
284.037	3.71
284.415	3.76
284.792	3.78
285.17	3.6
285.548	3.67
285.925	3.89
286.303	3.82
286.68	3.77
287.058	3.79
287.435	3.93
287.813	3.74
288.19	3.62
288.567	4.01
288.945	3.4
289.322	3.86
289.699	3.88
290.076	3.62
290.453	3.67
290.83	4.07
291.207	4.27
291.584	3.8
291.961	3.99
292.338	4.05
292.715	4.1
293.092	3.91
293.469	4.5
293.845	4.63
294.222	4.86
294.599	4.67
294.975	4.14
295.352	4.12
295.728	3.98
296.105	4.12
296.481	4.19
296.858	4.69
297.234	4.44
297.61	3.97
297.986	3.8
298.363	4.19
298.739	4.35
299.115	4.24
299.491	4.39
299.867	4.05
300.243	4.02
300.619	4.92
300.995	4.57
301.371	4.23
301.746	4.89
302.122	4.25
302.498	4.25
302.874	4.6
303.249	4.3
303.625	4.23
304	4.63
304.376	4.97
304.751	5.11
305.127	4.54
305.502	4.59
305.878	5.05
306.253	4.54
306.628	4.63
307.003	4.67
307.378	4.9
307.754	5.3
308.129	5.04
308.504	4.32
308.879	4.35
309.254	4.09
309.629	4.3
310.003	4.86
310.378	4.25
310.753	4.71
311.128	5.12
311.502	4.59
311.877	4.89
312.252	4.45
312.626	4.67
313.001	4.91
313.375	5.13
313.75	5.08
314.124	4.78
314.498	5.16
314.873	5.28
315.247	4.94
315.621	4.88
315.995	4.73
316.369	5.51
316.743	4.8
317.117	5.21
317.491	4.71
317.865	4.91
318.239	5.09
318.613	4.72
318.987	5.4
319.361	4.69
319.734	5.22
320.108	5.55
320.482	5.04
320.855	5.06
321.229	5.58
321.602	4.93
321.976	4.75
322.349	5.02
322.723	5.4
323.096	5.19
323.469	4.83
323.843	5.55
324.216	4.92
324.589	5.6
324.962	4.87
325.335	5.57
325.708	5.15
326.081	4.88
326.454	4.9
326.827	5.5
327.2	4.78
327.573	5.12
327.945	5.1
328.318	5.16
328.691	5.52
329.063	5.42
329.436	5.53
329.809	4.83
330.181	5.59
330.553	5.31
330.926	5.34
331.298	5.31
331.671	5.73
332.043	5.07
332.415	5.12
332.787	5.18
333.159	5.23
333.532	5.31
333.904	5.1
334.276	5.12
334.648	5.05
335.02	5.39
335.391	5.21
335.763	5.1
336.135	5.52
336.507	5.57
336.879	5.22
337.25	5.25
337.622	5.7
337.993	5.15
338.365	5.52
338.736	5.1
339.108	4.96
339.479	5.58
339.851	5.02
340.222	5.28
340.593	4.9
340.964	4.99
341.336	5.1
341.707	4.85
342.078	5.25
342.449	5.8
342.82	5.41
343.191	6.18
343.562	5.6
343.933	5.08
344.303	5.86
344.674	5.72
345.045	5.63
345.416	5.45
345.786	5.41
346.157	5.3
346.527	5.31
346.898	5.48
347.268	5.3
347.639	5.54
348.009	5.42
348.38	5.56
348.75	5.92
349.12	5.3
349.49	5.4
349.861	5.18
350.231	5.25
350.601	5.91
350.971	5.78
351.341	5.26
351.711	5.12
352.081	4.77
352.45	5.34
352.82	5.6
353.19	5.54
353.56	5.6
353.929	5.71
354.299	5.45
354.669	5.74
355.038	5.29
355.408	4.99
355.777	5.65
356.147	5.54
356.516	5.47
356.885	5.43
357.254	5.61
357.624	5.73
357.993	5.74
358.362	5.66
358.731	5.77
359.1	5.27
359.469	5.46
359.838	5.91
360.207	5.53
360.576	5.49
360.945	5.94
361.314	5.86
361.682	5.43
362.051	5.43
362.42	5.23
362.788	5.46
363.157	5.75
363.525	5.69
363.894	5.44
364.262	5.49
364.631	5.52
364.999	5.61
365.367	5.85
365.735	5.74
366.104	5.45
366.472	5.45
366.84	5.68
367.208	5.59
367.576	5.66
367.944	5.95
368.312	5.75
368.68	5.8
369.048	5.64
369.416	5.37
369.783	5.61
370.151	5.79
370.519	5.87
370.886	5.84
371.254	5.69
371.621	5.76
371.989	5.46
372.356	5.6
372.724	5.91
373.091	5.57
373.458	5.79
373.826	5.75
374.193	5.71
374.56	5.72
374.927	5.4
375.294	5.88
375.661	5.82
376.028	5.8
376.395	5.75
376.762	5.57
377.129	5.69
377.496	5.52
377.863	5.54
378.229	5.7
378.596	5.68
378.963	5.5
379.329	5.61
379.696	5.93
380.062	5.8
380.429	5.53
380.795	5.72
381.161	5.96
381.528	5.91
381.894	5.7
382.26	5.9
382.626	5.8
382.993	6.08
383.359	5.6
383.725	5.88
384.091	5.52
384.457	6.12
384.823	5.83
385.188	5.83
385.554	6.05
385.92	5.89
386.286	5.74
386.651	5.77
387.017	5.6
387.383	5.9
387.748	5.71
388.114	5.74
388.479	5.78
388.845	5.72
389.21	5.91
389.575	5.93
389.94	5.96
390.306	5.75
390.671	5.76
391.036	5.99
391.401	5.95
391.766	5.95
392.131	5.63
392.496	5.85
392.861	5.85
393.226	5.85
393.591	6.04
393.956	5.98
394.32	6.22
394.685	6.04
395.05	6.19
395.414	6.06
395.779	5.68
396.143	6.11
396.508	5.9
396.872	6.12
397.236	5.95
397.601	6.02
397.965	6.03
398.329	5.83
398.694	5.81
399.058	6.07
399.422	5.94
399.786	5.99
400.15	5.97
400.514	6
400.878	5.92
401.242	6.18
401.605	6.08
401.969	6.17
402.333	6.24
402.697	6.04
403.06	6.06
403.424	5.93
403.787	6.29
404.151	5.92
404.514	6.08
404.878	6.4
405.241	6.07
405.604	6.03
405.968	6.21
406.331	5.92
406.694	6.16
407.057	5.88
407.42	6.18
407.783	6.01
408.146	6.15
408.509	6.08
408.872	6.45
409.235	6.23
409.598	6.14
409.961	5.95
410.323	6.17
410.686	6.12
411.049	6.11
411.411	6.12
411.774	6.24
412.136	6.17
412.499	6.15
412.861	6.21
413.223	6.06
413.586	5.88
413.948	6.1
414.31	6.26
414.672	6.31
415.035	6.33
415.397	6.12
415.759	6.39
416.121	6.14
416.483	6.36
416.845	6.23
417.206	6.32
417.568	6.05
417.93	6.33
418.292	6.09
418.653	6.22
419.015	6.15
419.377	6.29
419.738	6.16
420.1	6.05
420.461	6.09
420.822	6.12
421.184	6.1
421.545	6.09
421.906	6.19
422.267	6.17
422.629	6.14
422.99	6.1
423.351	6.07
423.712	6.1
424.073	6.18
424.434	6.12
424.795	6.31
425.155	6.23
425.516	6.22
425.877	6.18
426.238	6.06
426.598	6.22
426.959	6.15
427.32	6.16
427.68	6.17
428.041	6.45
428.401	6.26
428.761	6.23
429.122	6.36
429.482	6.35
429.842	6.31
430.202	6.26
430.563	6.29
430.923	6.52
431.283	6.19
431.643	6.53
432.003	6.51
432.363	6.52
432.722	6.5
433.082	6.3
433.442	6.48
433.802	6.45
434.161	6.49
434.521	6.51
434.881	6.38
435.24	6.39
435.6	6.26
435.959	6.4
436.319	6.37
436.678	6.31
437.037	6.37
437.396	6.29
437.756	6.36
438.115	6.32
438.474	6.33
438.833	6.36
439.192	6.36
439.551	6.29
439.91	6.31
440.269	6.46
440.628	6.5
440.987	6.59
441.345	6.5
441.704	6.34
442.063	6.53
442.421	6.35
442.78	6.48
443.138	6.42
443.497	6.49
443.855	6.39
444.214	6.49
444.572	6.47
444.93	6.51
445.288	6.6
445.647	6.4
446.005	6.49
446.363	6.5
446.721	6.38
447.079	6.37
447.437	6.44
447.795	6.38
448.153	6.39
448.51	6.39
448.868	6.49
449.226	6.49
449.584	6.52
449.941	6.47
450.299	6.53
450.656	6.62
451.014	6.64
451.371	6.54
451.729	6.62
452.086	6.57
452.443	6.8
452.801	6.69
453.158	6.64
453.515	6.6
453.872	6.59
454.229	6.57
454.586	6.71
454.943	6.62
455.3	6.64
455.657	6.76
456.014	6.56
456.371	6.57
456.727	6.82
457.084	6.59
457.441	6.71
457.797	6.69
458.154	6.86
458.51	6.77
458.867	6.75
459.223	6.67
459.58	6.7
459.936	6.77
460.292	6.62
460.648	6.74
461.005	6.72
461.361	6.64
461.717	6.65
462.073	6.6
462.429	6.68
462.785	6.65
463.141	6.82
463.496	6.86
463.852	6.92
464.208	6.91
464.564	6.87
464.919	6.64
465.275	6.93
465.631	6.9
465.986	6.64
466.342	6.88
466.697	6.84
467.052	6.93
467.408	6.81
467.763	6.84
468.118	6.87
468.473	6.86
468.829	6.89
469.184	6.77
469.539	6.85
469.894	6.88
470.249	6.8
470.603	6.87
470.958	6.97
471.313	6.93
471.668	6.87
472.023	7.18
472.377	7.09
472.732	7.03
473.086	6.82
473.441	6.99
473.795	6.99
474.15	6.97
474.504	7.2
474.859	7.14
475.213	6.98
475.567	7.08
475.921	7.21
476.275	7.08
476.63	6.93
476.984	7.09
477.338	6.97
477.692	6.97
478.045	6.96
478.399	6.99
478.753	6.99
479.107	6.91
479.461	7.13
479.814	7.17
480.168	7.13
480.521	7.01
480.875	7.11
481.228	7.16
481.582	7.09
481.935	7.17
482.289	7.11
482.642	7.14
482.995	7.11
483.348	7.01
483.701	7.04
484.055	6.99
484.408	6.98
484.761	6.82
485.114	6.72
485.466	6.6
485.819	6.64
486.172	6.73
486.525	6.8
486.878	6.86
487.23	6.97
487.583	6.99
487.936	6.98
488.288	7.01
488.641	6.93
488.993	6.84
489.345	6.8
489.698	6.84
490.05	6.87
490.402	6.95
490.754	7
491.107	7.06
491.459	7.16
491.811	7.16
492.163	7.17
492.515	7.11
492.866	6.95
493.218	6.89
493.57	6.94
493.922	6.98
494.274	7.09
494.625	7.15
494.977	7.2
495.328	7.19
495.68	7.3
496.031	7.41
496.383	7.41
496.734	7.42
497.086	7.4
497.437	7.34
497.788	7.33
498.139	7.24
498.49	7.3
498.842	7.3
499.193	7.33
499.544	7.42
499.894	7.36
500.245	7.49
500.596	7.4
500.947	7.36
501.298	7.59
501.648	7.56
501.999	7.48
502.35	7.44
502.7	7.53
503.051	7.47
503.401	7.46
503.752	7.46
504.102	7.51
504.452	7.43
504.803	7.58
505.153	7.56
505.503	7.46
505.853	7.54
506.203	7.54
506.553	7.59
506.903	7.67
507.253	7.56
507.603	7.68
507.953	7.58
508.303	7.63
508.652	7.48
509.002	7.56
509.352	7.72
509.701	7.69
510.051	7.61
510.4	7.59
510.75	7.76
511.099	7.61
511.449	7.64
511.798	7.58
512.147	7.7
512.496	7.67
512.846	7.63
513.195	7.64
513.544	7.68
513.893	7.76
514.242	7.82
514.591	7.68
514.939	7.77
515.288	7.83
515.637	7.77
515.986	7.9
516.334	7.93
516.683	7.84
517.032	7.76
517.38	7.83
517.729	7.88
518.077	7.78
518.426	7.93
518.774	7.71
519.122	7.82
519.47	7.68
519.819	7.76
520.167	7.8
520.515	7.77
520.863	7.83
521.211	7.87
521.559	7.85
521.907	7.96
522.255	8.06
522.602	8.02
522.95	8.02
523.298	7.99
523.645	8.02
523.993	8.14
524.341	8.23
524.688	8.06
525.036	8.12
525.383	8.15
525.73	8.11
526.078	8.2
526.425	8.01
526.772	7.97
527.119	8.01
527.466	7.95
527.814	8
528.161	8.03
528.508	8.01
528.854	8.02
529.201	8.06
529.548	7.94
529.895	7.85
530.242	7.78
530.588	7.75
530.935	7.83
531.282	7.96
531.628	7.98
531.975	8.04
532.321	8.12
532.667	8.19
533.014	8.21
533.36	8.18
533.706	8.29
534.052	8.33
534.399	8.14
534.745	8.15
535.091	8.06
535.437	8.18
535.783	8.2
536.129	8.36
536.474	8.4
536.82	8.45
537.166	8.44
537.512	8.51
537.857	8.47
538.203	8.37
538.549	8.35
538.894	8.46
539.239	8.54
539.585	8.56
539.93	8.62
540.276	8.66
540.621	8.65
540.966	8.74
541.311	8.72
541.656	8.52
542.001	8.64
542.346	8.59
542.691	8.41
543.036	8.37
543.381	8.35
543.726	8.49
544.071	8.51
544.415	8.58
544.76	8.62
545.105	8.68
545.449	8.81
545.794	8.86
546.138	8.79
546.483	8.86
546.827	8.91
547.171	8.86
547.516	8.73
547.86	8.91
548.204	8.89
548.548	8.87
548.892	8.86
549.236	9.03
549.58	9.09
549.924	9.12
550.268	9.21
550.612	9.22
550.956	9.26
551.3	9.25
551.643	9.33
551.987	9.29
552.33	9.24
552.674	9.25
553.017	9.23
553.361	9.34
553.704	9.46
554.048	9.32
554.391	9.29
554.734	9.34
555.077	9.51
555.42	9.47
555.764	9.42
556.107	9.39
556.45	9.44
556.793	9.5
557.135	9.49
557.478	9.46
557.821	9.59
558.164	9.59
558.507	9.43
558.849	9.57
559.192	9.66
559.534	9.66
559.877	9.8
560.219	9.88
560.562	9.74
560.904	9.68
561.246	9.6
561.589	10.08
561.931	9.8
562.273	9.82
562.615	9.84
562.957	9.77
563.299	9.93
563.641	9.82
563.983	9.83
564.325	9.68
564.667	9.99
565.008	9.94
565.35	10.13
565.692	9.93
566.033	10.15
566.375	9.96
566.716	10.1
567.058	9.99
567.399	10.23
567.741	10.04
568.082	9.98
568.423	10.17
568.764	10.23
569.105	10.1
569.447	10.2
569.788	10.33
570.129	10.41
570.47	10.07
570.811	10.44
571.151	10.24
571.492	10.37
571.833	10.3
572.174	10.49
572.514	10.38
572.855	10.54
573.195	10.51
573.536	10.38
573.876	10.37
574.217	10.5
574.557	10.38
574.898	10.55
575.238	10.63
575.578	10.63
575.918	10.46
576.258	10.66
576.598	10.8
576.938	10.51
577.278	10.66
577.618	10.8
577.958	10.71
578.298	10.77
578.638	10.82
578.977	10.99
579.317	10.97
579.657	11.18
579.996	10.89
580.336	11.15
580.675	10.9
581.014	11.18
581.354	11
581.693	11
582.032	11.19
582.372	11.28
582.711	11.27
583.05	11.16
583.389	11.37
583.728	11.33
584.067	11.36
584.406	11.19
584.745	11.37
585.083	11.43
585.422	11.24
585.761	11.47
586.1	11.66
586.438	11.38
586.777	11.56
587.115	11.48
587.454	11.64
587.792	11.58
588.13	11.71
588.469	11.59
588.807	11.61
589.145	11.47
589.483	11.61
589.821	11.74
590.159	11.84
590.497	11.97
590.835	11.64
591.173	11.63
591.511	11.79
591.849	11.93
592.187	11.8
592.524	11.77
592.862	12.09
593.2	12.33
593.537	11.68
593.875	12.16
594.212	12.1
594.55	11.85
594.887	12.15
595.224	12.29
595.561	12.17
595.899	12.11
596.236	12.11
596.573	12.29
596.91	12.13
597.247	12.24
597.584	12.3
597.921	12.2
598.258	12.35
598.594	12.25
598.931	12.31
599.268	12.31
599.604	12.44
599.941	12.24
600.277	12.36
600.614	12.68
600.95	12.62
601.287	12.86
601.623	12.38
601.959	12.61
602.296	12.5
602.632	12.78
602.968	12.91
603.304	12.7
603.64	12.49
603.976	12.85
604.312	12.57
604.648	12.62
604.984	12.89
605.319	12.73
605.655	12.73
605.991	12.68
606.326	12.76
606.662	12.74
606.998	12.9
607.333	13.01
607.668	13.23
608.004	13.11
608.339	13.43
608.674	13.27
609.01	13.11
609.345	13.17
609.68	13.61
610.015	13.42
610.35	13.38
610.685	13.28
611.02	13.41
611.355	13.03
611.689	13.44
612.024	13.44
612.359	13.31
612.694	13.38
613.028	13.58
613.363	13.57
613.697	13.63
614.032	13.48
614.366	13.47
614.7	13.58
615.035	13.69
615.369	13.82
615.703	13.78
616.037	13.87
616.371	13.7
616.705	13.95
617.039	13.81
617.373	14.25
617.707	14
618.041	13.79
618.375	14.43
618.709	14.15
619.042	14.16
619.376	14.25
619.71	14.11
620.043	14.39
620.377	14.1
620.71	14.03
621.043	14.42
621.377	14.11
621.71	14.49
622.043	14.12
622.376	14.45
622.709	14.45
623.043	14.05
623.376	14.6
623.709	14.68
624.041	14.63
624.374	14.51
624.707	14.2
625.04	14.63
625.373	14.47
625.705	14.87
626.038	14.43
626.37	14.44
626.703	15.14
627.035	14.63
627.368	15.11
627.7	14.74
628.032	14.64
628.365	15.18
628.697	14.89
629.029	15.02
629.361	14.9
629.693	14.85
630.025	15.07
630.357	15.05
630.689	15.2
631.021	15.14
631.353	14.99
631.684	15.4
632.016	15.07
632.348	15.28
632.679	15.45
633.011	15.33
633.342	15.32
633.674	15.65
634.005	15.54
634.336	15.48
634.668	15.08
634.999	15.08
635.33	15.55
635.661	15.72
635.992	15.52
636.323	15.79
636.654	15.96
636.985	15.76
637.316	15.91
637.647	15.67
637.977	15.6
638.308	15.66
638.639	15.96
638.969	16.23
639.3	15.94
639.63	16.24
639.961	16.33
640.291	16.16
640.622	16.03
640.952	16
641.282	16.22
641.612	16.28
641.943	16.06
642.273	16.32
642.603	16.23
642.933	16.13
643.263	16.25
643.592	16.74
643.922	16.07
644.252	16.33
644.582	16.14
644.911	16.38
645.241	16.67
645.571	16.51
645.9	16.72
646.23	16.78
646.559	16.62
646.888	16.54
647.218	16.35
647.547	17.14
647.876	16.64
648.205	16.83
648.534	16.72
648.863	16.74
649.192	16.88
649.521	16.82
649.85	16.86
650.179	16.92
650.508	17.09
650.837	17.31
651.165	17.1
651.494	17.32
651.822	16.88
652.151	16.63
652.479	16.89
652.808	17.24
653.136	17.66
653.465	17.68
653.793	17.08
654.121	17.4
654.449	17.39
654.777	17.21
655.105	17.59
655.433	16.89
655.761	17.68
656.089	17.54
656.417	17.39
656.745	17.74
657.073	17.3
657.4	17.33
657.728	17.67
658.056	17.87
658.383	17.81
658.711	17.69
659.038	17.48
659.365	17.42
659.693	17.46
660.02	18.28
660.347	18.08
660.674	17.61
661.001	17.46
661.329	17.6
661.656	18.02
661.982	18.17
662.309	17.96
662.636	17.91
662.963	17.94
663.29	18.21
663.616	18.33
663.943	18.24
664.27	17.95
664.596	18.1
664.923	18.44
665.249	18.19
665.576	18.45
665.902	18.26
666.228	17.83
666.554	18.25
666.881	18.61
667.207	17.61
667.533	18.34
667.859	18.25
668.185	18.47
668.511	18.11
668.837	18.76
669.162	18.21
669.488	18.6
669.814	18.56
670.139	19.18
670.465	19.17
670.791	18.81
671.116	18.59
671.442	18.52
671.767	19.24
672.092	18.84
672.418	18.81
672.743	18.71
673.068	18.82
673.393	18.34
673.718	18.93
674.043	18.9
674.368	18.68
674.693	18.82
675.018	18.71
675.343	19.27
675.667	19.12
675.992	19.28
676.317	18.85
676.641	19.95
676.966	18.88
677.29	19.21
677.615	19.74
677.939	20.17
678.264	19.37
678.588	19.87
678.912	20.03
679.236	19.44
679.56	19.9
679.885	20.57
680.209	19.28
680.532	19.23
680.856	20.04
681.18	19.45
681.504	19.62
681.828	19.22
682.152	19.86
682.475	19.57
682.799	19.6
683.122	20.26
683.446	19.91
683.769	20.12
684.093	20.2
684.416	20.09
684.739	20.78
