Data from 1697-1_chest_Reflection__0__110.txt Node

Date: Fri Nov 11 16:59:34 CST 2022
User: ToomeyLab
Spectrometer: FLMS14357
Trigger mode: 0
Integration Time (sec): 1.000000E-2
Scans to average: 100
Electric dark correction enabled: true
Nonlinearity correction enabled: false
Boxcar width: 0
XAxis mode: Wavelengths
Number of Pixels in Spectrum: 2048
>>>>>Begin Spectral Data<<<<<
189.047	65.52
189.435	65.52
189.823	65.52
190.211	1222.58
190.599	-306.5
190.987	425.83
191.375	-72.86
191.763	19.44
192.151	149.34
192.538	-375.81
192.926	83.02
193.314	273.03
193.702	20.75
194.089	-168.43
194.477	158.03
194.864	43.64
195.252	231.45
195.639	9.23
196.027	-70.05
196.414	100.96
196.801	281.73
197.189	25.57
197.576	-81.28
197.963	60.72
198.351	-50.81
198.738	-47.47
199.125	-2.61
199.512	26.5
199.899	7.12
200.286	61.28
200.673	70
201.06	-55.03
201.447	60.72
201.833	6.64
202.22	89.16
202.607	38.85
202.994	8.46
203.38	-20.18
203.767	9.75
204.154	3.71
204.54	35.14
204.927	15.41
205.313	4.71
205.699	11.14
206.086	28.86
206.472	14.79
206.858	30.33
207.245	31.4
207.631	30.42
208.017	16.86
208.403	-2.32
208.789	-46.9
209.175	12.74
209.561	39.15
209.947	-5.8
210.333	6.71
210.719	7.57
211.105	27.49
211.491	-103.61
211.876	16.59
212.262	-15.17
212.648	11.63
213.034	15.89
213.419	12.56
213.805	30.12
214.19	-0.29
214.576	31.5
214.961	10.7
215.346	-21.82
215.732	-64.76
216.117	10.77
216.502	10.21
216.888	9.03
217.273	-3.93
217.658	19.51
218.043	-0.03
218.428	25.2
218.813	23.02
219.198	-19.36
219.583	9.98
219.968	13.52
220.353	-9.52
220.738	-20.78
221.122	6.97
221.507	23.43
221.892	23.18
222.276	14.76
222.661	-0.02
223.046	-0.67
223.43	0.12
223.815	7.5
224.199	12.36
224.583	-6.7
224.968	12.51
225.352	-6.93
225.736	7.91
226.121	3.25
226.505	11.95
226.889	-0.91
227.273	7.21
227.657	-0.06
228.041	2.52
228.425	7.28
228.809	6.61
229.193	3.62
229.577	6.54
229.961	3.36
230.344	3.97
230.728	4.32
231.112	3.87
231.495	3.95
231.879	4.24
232.263	2.63
232.646	4.05
233.03	2.54
233.413	2.49
233.797	4.21
234.18	3.74
234.563	5.11
234.946	0.42
235.33	3.53
235.713	3.61
236.096	1.49
236.479	4.92
236.862	4.95
237.245	4.95
237.628	5.36
238.011	2.68
238.394	4.75
238.777	4.07
239.16	4.57
239.543	5.29
239.925	6.54
240.308	2.74
240.691	3.77
241.073	2.91
241.456	3.37
241.838	4.86
242.221	4.23
242.603	3.95
242.986	3.95
243.368	3.75
243.75	4.27
244.133	3.88
244.515	4.36
244.897	4.02
245.279	3.62
245.661	4.07
246.043	4.62
246.425	4.86
246.807	3.85
247.189	3.45
247.571	3.69
247.953	3.88
248.335	4.36
248.717	4.09
249.098	4.13
249.48	4.39
249.862	4.21
250.243	4.27
250.625	4.17
251.006	4.41
251.388	4.2
251.769	4.76
252.151	3.95
252.532	4.6
252.913	3.34
253.295	4.01
253.676	3.65
254.057	3.76
254.438	4.38
254.819	4.81
255.2	4.4
255.581	4.29
255.962	3.74
256.343	4.9
256.724	4.68
257.105	3.96
257.486	4.19
257.867	3.94
258.247	5.18
258.628	3.94
259.009	4.22
259.389	4.51
259.77	5.15
260.15	4.94
260.531	3.6
260.911	3.73
261.292	4.23
261.672	3.92
262.052	4.14
262.432	4.42
262.813	4.07
263.193	3.67
263.573	4.98
263.953	4.46
264.333	4.12
264.713	3.79
265.093	4.32
265.473	4.28
265.853	4.15
266.233	3.25
266.612	2.65
266.992	4.13
267.372	4.34
267.752	4.22
268.131	4.06
268.511	4.01
268.89	4.32
269.27	3.55
269.649	3.53
270.029	3.37
270.408	3.4
270.787	4.6
271.167	4.17
271.546	4.98
271.925	4.34
272.304	4.55
272.683	3.84
273.062	4.19
273.441	3.8
273.82	3.23
274.199	4.17
274.578	3.97
274.957	3.66
275.336	4.24
275.715	3.82
276.093	4.92
276.472	3.58
276.851	4.02
277.229	4.03
277.608	4.15
277.986	4.28
278.365	4.61
278.743	3.53
279.122	4.05
279.5	3.33
279.878	3.49
280.257	3.86
280.635	3.7
281.013	3.78
281.391	4
281.769	4.22
282.147	4
282.525	3.71
282.903	4.17
283.281	3.67
283.659	3.59
284.037	3.94
284.415	3.72
284.792	4.08
285.17	3.64
285.548	3.88
285.925	4.2
286.303	4.15
286.68	4.03
287.058	3.92
287.435	4.06
287.813	4.2
288.19	4.18
288.567	4.3
288.945	3.61
289.322	4.07
289.699	3.79
290.076	3.75
290.453	3.6
290.83	4.29
291.207	4.03
291.584	3.88
291.961	3.94
292.338	4.2
292.715	3.79
293.092	4.08
293.469	4.04
293.845	4.56
294.222	4.59
294.599	4.62
294.975	3.97
295.352	4.07
295.728	3.99
296.105	4.22
296.481	3.79
296.858	4.46
297.234	4.21
297.61	4.01
297.986	3.74
298.363	4.22
298.739	4.2
299.115	3.91
299.491	4.22
299.867	3.94
300.243	4.29
300.619	4.1
300.995	4.2
301.371	3.92
301.746	4.04
302.122	4.31
302.498	4.05
302.874	4.12
303.249	4.1
303.625	4.27
304	4.32
304.376	4.06
304.751	4.8
305.127	4.4
305.502	4.56
305.878	4.94
306.253	4.44
306.628	4.72
307.003	4.28
307.378	4.28
307.754	4.68
308.129	4.29
308.504	4.38
308.879	4.23
309.254	4.17
309.629	4.27
310.003	4.56
310.378	3.93
310.753	3.91
311.128	4.38
311.502	4.09
311.877	4.61
312.252	4.02
312.626	4.39
313.001	4.37
313.375	4.33
313.75	4.63
314.124	4.52
314.498	4.49
314.873	4.93
315.247	4.71
315.621	4.41
315.995	4.15
316.369	4.63
316.743	4.52
317.117	4.41
317.491	4.58
317.865	4.62
318.239	4.69
318.613	4.53
318.987	5.15
319.361	4.72
319.734	3.99
320.108	4.69
320.482	4.55
320.855	3.76
321.229	5.26
321.602	4.46
321.976	4.31
322.349	4.61
322.723	4.42
323.096	5.24
323.469	4.77
323.843	4.64
324.216	4.62
324.589	4.67
324.962	4.74
325.335	4.72
325.708	4.79
326.081	4.76
326.454	4.9
326.827	4.9
327.2	4.47
327.573	5.06
327.945	4.62
328.318	5.03
328.691	5.06
329.063	5.01
329.436	5.03
329.809	4.94
330.181	5.64
330.553	4.83
330.926	4.57
331.298	4.25
331.671	5.07
332.043	5.41
332.415	4.4
332.787	5.14
333.159	4.96
333.532	4.68
333.904	4.79
334.276	4.49
334.648	4.91
335.02	5.33
335.391	4.64
335.763	4.74
336.135	4.79
336.507	5.02
336.879	4.94
337.25	3.99
337.622	4.89
337.993	5.07
338.365	4.61
338.736	4.79
339.108	4.79
339.479	4.9
339.851	4.66
340.222	4.54
340.593	4.26
340.964	5.07
341.336	4.81
341.707	4.84
342.078	4.7
342.449	5.21
342.82	4.72
343.191	5.21
343.562	5.06
343.933	4.58
344.303	5.45
344.674	4.7
345.045	4.99
345.416	5.11
345.786	4.81
346.157	4.82
346.527	4.83
346.898	4.68
347.268	4.56
347.639	5.05
348.009	4.83
348.38	4.87
348.75	5.18
349.12	4.8
349.49	4.85
349.861	4.86
350.231	4.98
350.601	5.27
350.971	5.35
351.341	4.72
351.711	4.94
352.081	4.37
352.45	4.86
352.82	4.98
353.19	4.88
353.56	5.06
353.929	5.19
354.299	4.98
354.669	5.28
355.038	5.08
355.408	4.91
355.777	5.16
356.147	4.94
356.516	5.28
356.885	4.72
357.254	4.92
357.624	5.14
357.993	5.06
358.362	4.9
358.731	5.2
359.1	4.71
359.469	4.96
359.838	5.32
360.207	5.06
360.576	4.78
360.945	5.11
361.314	5.52
361.682	5.01
362.051	4.75
362.42	4.68
362.788	4.72
363.157	4.96
363.525	5.26
363.894	4.72
364.262	4.82
364.631	4.97
364.999	4.81
365.367	5.02
365.735	5.02
366.104	5.02
366.472	5.11
366.84	4.91
367.208	4.78
367.576	5.15
367.944	5.52
368.312	5.22
368.68	5.3
369.048	5.03
369.416	4.99
369.783	4.61
370.151	4.78
370.519	5.27
370.886	5.22
371.254	5.13
371.621	5.06
371.989	4.76
372.356	4.74
372.724	5.3
373.091	5.12
373.458	4.89
373.826	5.12
374.193	5.43
374.56	4.98
374.927	4.94
375.294	5.3
375.661	5.6
376.028	5.19
376.395	5.2
376.762	5.38
377.129	5.11
377.496	5.22
377.863	5.13
378.229	5.2
378.596	5.24
378.963	5.03
379.329	5.18
379.696	5.41
380.062	5.02
380.429	4.89
380.795	5.01
381.161	5.32
381.528	5.35
381.894	5.17
382.26	5.25
382.626	5.3
382.993	5.2
383.359	5.05
383.725	5.41
384.091	4.94
384.457	5.38
384.823	5.17
385.188	5.21
385.554	5
385.92	4.86
386.286	4.89
386.651	5.04
387.017	5
387.383	5.26
387.748	5.19
388.114	5.37
388.479	5.14
388.845	5.19
389.21	5.23
389.575	5.31
389.94	5.41
390.306	5.06
390.671	5.19
391.036	5.37
391.401	5.18
391.766	5.46
392.131	4.87
392.496	5.31
392.861	5.13
393.226	5.33
393.591	5.25
393.956	5.38
394.32	5.43
394.685	5.66
395.05	5.5
395.414	5.4
395.779	5.08
396.143	5.32
396.508	5.35
396.872	5.31
397.236	5.34
397.601	5.37
397.965	5.2
398.329	5.18
398.694	5.13
399.058	5.14
399.422	5.45
399.786	5.43
400.15	5.3
400.514	5.29
400.878	5.33
401.242	5.4
401.605	5.37
401.969	5.68
402.333	5.51
402.697	5.36
403.06	5.28
403.424	5.23
403.787	5.34
404.151	5.28
404.514	5.38
404.878	5.46
405.241	5.44
405.604	5.09
405.968	5.57
406.331	5.18
406.694	5.47
407.057	5.31
407.42	5.33
407.783	5.3
408.146	5.42
408.509	5.43
408.872	5.46
409.235	5.36
409.598	5.44
409.961	5.44
410.323	5.37
410.686	5.5
411.049	5.33
411.411	5.4
411.774	5.43
412.136	5.48
412.499	5.44
412.861	5.29
413.223	5.38
413.586	5.3
413.948	5.45
414.31	5.45
414.672	5.6
415.035	5.31
415.397	5.52
415.759	5.4
416.121	5.56
416.483	5.36
416.845	5.64
417.206	5.41
417.568	5.54
417.93	5.48
418.292	5.44
418.653	5.34
419.015	5.37
419.377	5.56
419.738	5.51
420.1	5.26
420.461	5.29
420.822	5.31
421.184	5.33
421.545	5.27
421.906	5.34
422.267	5.37
422.629	5.35
422.99	5.31
423.351	5.31
423.712	5.38
424.073	5.42
424.434	5.38
424.795	5.49
425.155	5.5
425.516	5.44
425.877	5.43
426.238	5.29
426.598	5.31
426.959	5.32
427.32	5.35
427.68	5.4
428.041	5.46
428.401	5.43
428.761	5.45
429.122	5.62
429.482	5.57
429.842	5.65
430.202	5.39
430.563	5.5
430.923	5.69
431.283	5.49
431.643	5.65
432.003	5.68
432.363	5.63
432.722	5.67
433.082	5.61
433.442	5.59
433.802	5.57
434.161	5.53
434.521	5.62
434.881	5.46
435.24	5.63
435.6	5.52
435.959	5.41
436.319	5.48
436.678	5.45
437.037	5.55
437.396	5.57
437.756	5.45
438.115	5.5
438.474	5.52
438.833	5.58
439.192	5.57
439.551	5.49
439.91	5.67
440.269	5.57
440.628	5.54
440.987	5.79
441.345	5.59
441.704	5.55
442.063	5.6
442.421	5.42
442.78	5.51
443.138	5.54
443.497	5.49
443.855	5.62
444.214	5.43
444.572	5.7
444.93	5.58
445.288	5.71
445.647	5.37
446.005	5.49
446.363	5.6
446.721	5.54
447.079	5.61
447.437	5.56
447.795	5.39
448.153	5.47
448.51	5.49
448.868	5.57
449.226	5.56
449.584	5.59
449.941	5.57
450.299	5.7
450.656	5.66
451.014	5.72
451.371	5.5
451.729	5.68
452.086	5.74
452.443	5.86
452.801	5.71
453.158	5.68
453.515	5.68
453.872	5.72
454.229	5.67
454.586	5.64
454.943	5.63
455.3	5.63
455.657	5.77
456.014	5.59
456.371	5.64
456.727	5.84
457.084	5.72
457.441	5.73
457.797	5.75
458.154	5.77
458.51	5.74
458.867	5.86
459.223	5.58
459.58	5.72
459.936	5.8
460.292	5.65
460.648	5.76
461.005	5.74
461.361	5.66
461.717	5.65
462.073	5.73
462.429	5.75
462.785	5.62
463.141	5.68
463.496	5.68
463.852	5.82
464.208	5.9
464.564	5.83
464.919	5.88
465.275	5.7
465.631	5.81
465.986	5.91
466.342	5.91
466.697	5.84
467.052	5.86
467.408	5.85
467.763	5.86
468.118	5.79
468.473	5.79
468.829	6.05
469.184	5.96
469.539	5.94
469.894	5.89
470.249	5.74
470.603	5.68
470.958	6
471.313	5.89
471.668	5.98
472.023	6.04
472.377	6.01
472.732	5.84
473.086	5.93
473.441	5.92
473.795	5.84
474.15	5.97
474.504	6.02
474.859	6.01
475.213	5.92
475.567	6.04
475.921	5.94
476.275	6.05
476.63	5.91
476.984	6.02
477.338	5.96
477.692	5.9
478.045	6.01
478.399	5.95
478.753	5.91
479.107	5.91
479.461	5.95
479.814	5.97
480.168	5.96
480.521	6.04
480.875	6.05
481.228	6
481.582	5.92
481.935	5.87
482.289	6.03
482.642	5.91
482.995	5.98
483.348	5.83
483.701	5.91
484.055	5.82
484.408	5.82
484.761	5.7
485.114	5.62
485.466	5.55
485.819	5.61
486.172	5.65
486.525	5.67
486.878	5.77
487.23	5.86
487.583	5.82
487.936	5.82
488.288	5.76
488.641	5.8
488.993	5.77
489.345	5.66
489.698	5.73
490.05	5.7
490.402	5.8
490.754	5.87
491.107	5.87
491.459	5.95
491.811	5.92
492.163	5.91
492.515	5.97
492.866	5.82
493.218	5.73
493.57	5.8
493.922	5.85
494.274	5.87
494.625	5.89
494.977	5.91
495.328	6
495.68	6.07
496.031	6.19
496.383	6.14
496.734	6.13
497.086	6.21
497.437	5.98
497.788	6.2
498.139	6.15
498.49	6.1
498.842	6.12
499.193	6.14
499.544	6.07
499.894	6.17
500.245	6.22
500.596	6.2
500.947	6.18
501.298	6.23
501.648	6.28
501.999	6.24
502.35	6.23
502.7	6.21
503.051	6.24
503.401	6.28
503.752	6.23
504.102	6.24
504.452	6.19
504.803	6.37
505.153	6.37
505.503	6.26
505.853	6.32
506.203	6.26
506.553	6.37
506.903	6.4
507.253	6.38
507.603	6.39
507.953	6.33
508.303	6.4
508.652	6.18
509.002	6.33
509.352	6.39
509.701	6.31
510.051	6.37
510.4	6.31
510.75	6.39
511.099	6.36
511.449	6.27
511.798	6.33
512.147	6.35
512.496	6.37
512.846	6.35
513.195	6.19
513.544	6.44
513.893	6.35
514.242	6.45
514.591	6.33
514.939	6.38
515.288	6.45
515.637	6.44
515.986	6.62
516.334	6.46
516.683	6.54
517.032	6.41
517.38	6.45
517.729	6.54
518.077	6.42
518.426	6.57
518.774	6.42
519.122	6.55
519.47	6.35
519.819	6.44
520.167	6.41
520.515	6.45
520.863	6.45
521.211	6.54
521.559	6.52
521.907	6.66
522.255	6.57
522.602	6.58
522.95	6.65
523.298	6.54
523.645	6.62
523.993	6.62
524.341	6.79
524.688	6.59
525.036	6.81
525.383	6.67
525.73	6.66
526.078	6.81
526.425	6.58
526.772	6.67
527.119	6.66
527.466	6.53
527.814	6.67
528.161	6.59
528.508	6.57
528.854	6.65
529.201	6.68
529.548	6.56
529.895	6.5
530.242	6.43
530.588	6.44
530.935	6.47
531.282	6.56
531.628	6.62
531.975	6.67
532.321	6.63
532.667	6.71
533.014	6.85
533.36	6.73
533.706	6.81
534.052	6.84
534.399	6.77
534.745	6.68
535.091	6.69
535.437	6.71
535.783	6.79
536.129	6.79
536.474	6.93
536.82	6.97
537.166	6.9
537.512	6.98
537.857	6.96
538.203	6.89
538.549	6.93
538.894	6.96
539.239	7.01
539.585	6.98
539.93	7.14
540.276	7.12
540.621	7.17
540.966	7.13
541.311	7.12
541.656	7.05
542.001	7.19
542.346	7.08
542.691	6.9
543.036	6.91
543.381	6.9
543.726	6.94
544.071	7.05
544.415	7.11
544.76	7.14
545.105	7.2
545.449	7.2
545.794	7.21
546.138	7.18
546.483	7.32
546.827	7.27
547.171	7.28
547.516	7.2
547.86	7.36
548.204	7.31
548.548	7.34
548.892	7.39
549.236	7.41
549.58	7.42
549.924	7.47
550.268	7.6
550.612	7.61
550.956	7.58
551.3	7.62
551.643	7.79
551.987	7.63
552.33	7.76
552.674	7.7
553.017	7.57
553.361	7.66
553.704	7.75
554.048	7.64
554.391	7.68
554.734	7.75
555.077	7.74
555.42	7.9
555.764	7.8
556.107	7.97
556.45	7.71
556.793	7.91
557.135	7.89
557.478	7.79
557.821	8.08
558.164	8.11
558.507	7.95
558.849	8.05
559.192	8.09
559.534	7.97
559.877	8.15
560.219	8.15
560.562	8.14
560.904	8.11
561.246	8.09
561.589	8.2
561.931	8.14
562.273	8.07
562.615	8.22
562.957	8.17
563.299	8.23
563.641	8.14
563.983	8.22
564.325	8.17
564.667	8.36
565.008	8.11
565.35	8.36
565.692	8.23
566.033	8.47
566.375	8.42
566.716	8.37
567.058	8.29
567.399	8.46
567.741	8.51
568.082	8.37
568.423	8.34
568.764	8.57
569.105	8.54
569.447	8.59
569.788	8.7
570.129	8.59
570.47	8.51
570.811	8.74
571.151	8.83
571.492	8.68
571.833	8.78
572.174	8.82
572.514	8.78
572.855	8.86
573.195	8.77
573.536	8.85
573.876	8.8
574.217	8.76
574.557	8.77
574.898	8.87
575.238	8.82
575.578	8.9
575.918	8.94
576.258	9.13
576.598	9.08
576.938	9.11
577.278	9.23
577.618	9.13
577.958	9.24
578.298	9.3
578.638	9.11
578.977	9.17
579.317	9.3
579.657	9.31
579.996	9.42
580.336	9.31
580.675	9.16
581.014	9.38
581.354	9.56
581.693	9.63
582.032	9.49
582.372	9.73
582.711	9.55
583.05	9.52
583.389	9.61
583.728	9.55
584.067	9.7
584.406	9.62
584.745	9.73
585.083	9.73
585.422	9.71
585.761	9.89
586.1	9.78
586.438	9.76
586.777	9.97
587.115	9.57
587.454	10.3
587.792	10.16
588.13	10
588.469	10.18
588.807	10.19
589.145	9.85
589.483	10.12
589.821	10.09
590.159	9.91
590.497	10.06
590.835	10
591.173	10.11
591.511	10.11
591.849	9.9
592.187	10.13
592.524	10.4
592.862	10.52
593.2	10.4
593.537	10.21
593.875	10.39
594.212	10.41
594.55	10.62
594.887	10.41
595.224	10.52
595.561	10.49
595.899	10.24
596.236	10.6
596.573	10.51
596.91	10.66
597.247	10.48
597.584	10.61
597.921	10.52
598.258	10.72
598.594	10.6
598.931	10.61
599.268	10.64
599.604	10.85
599.941	10.83
600.277	10.56
600.614	10.98
600.95	10.88
601.287	11.16
601.623	11.14
601.959	11.1
602.296	10.91
602.632	11.03
602.968	11.27
603.304	11.41
603.64	11.05
603.976	11.18
604.312	11.06
604.648	11.23
604.984	11.3
605.319	11.24
605.655	11.21
605.991	11.18
606.326	11.49
606.662	11.29
606.998	11.43
607.333	11.34
607.668	11.34
608.004	11.39
608.339	11.75
608.674	11.62
609.01	11.44
609.345	11.75
609.68	11.89
610.015	11.99
610.35	11.94
610.685	11.7
611.02	11.72
611.355	11.61
611.689	11.85
612.024	11.86
612.359	11.8
612.694	11.93
613.028	11.88
613.363	12.16
613.697	12.26
614.032	12.19
614.366	11.94
614.7	12.45
615.035	12.31
615.369	12.44
615.703	12.43
616.037	12.43
616.371	12.47
616.705	12.58
617.039	12.17
617.373	12.53
617.707	12.69
618.041	12.33
618.375	13.09
618.709	12.51
619.042	12.65
619.376	12.91
619.71	12.52
620.043	12.63
620.377	12.58
620.71	12.58
621.043	13.08
621.377	12.53
621.71	12.94
622.043	12.86
622.376	13.27
622.709	13.18
623.043	12.7
623.376	12.66
623.709	13.27
624.041	13.03
624.374	13.03
624.707	12.93
625.04	13.22
625.373	13.48
625.705	13.06
626.038	13.13
626.37	13.25
626.703	13.55
627.035	13.05
627.368	13.37
627.7	13.36
628.032	13.35
628.365	13.69
628.697	13.63
629.029	13.39
629.361	13.41
629.693	13.33
630.025	13.56
630.357	13.38
630.689	13.81
631.021	13.42
631.353	13.65
631.684	13.65
632.016	13.75
632.348	13.92
632.679	13.74
633.011	13.68
633.342	13.75
633.674	13.96
634.005	14.15
634.336	13.87
634.668	13.88
634.999	14.18
635.33	13.89
635.661	14.14
635.992	14.17
636.323	14.42
636.654	14.52
636.985	14.51
637.316	14.67
637.647	14.65
637.977	14.3
638.308	14.16
638.639	14.33
638.969	14.4
639.3	14.52
639.63	14.67
639.961	14.49
640.291	14.53
640.622	14.61
640.952	14.93
641.282	14.9
641.612	14.86
641.943	14.77
642.273	14.87
642.603	14.84
642.933	14.65
643.263	14.85
643.592	15.24
643.922	14.66
644.252	14.72
644.582	15.02
644.911	15.14
645.241	15.52
645.571	15.32
645.9	15.19
646.23	15.11
646.559	15.31
646.888	15.92
647.218	15.15
647.547	15.71
647.876	15.19
648.205	15.82
648.534	15.27
648.863	15.58
649.192	15.82
649.521	15.94
649.85	15.5
650.179	15.38
650.508	15.33
650.837	15.41
651.165	16.12
651.494	16.09
651.822	15.82
652.151	15.92
652.479	15.66
652.808	15.84
653.136	16.28
653.465	16.22
653.793	16.03
654.121	16.25
654.449	16.05
654.777	16.22
655.105	16.38
655.433	16.28
655.761	15.85
656.089	16.44
656.417	16.38
656.745	16.04
657.073	16.25
657.4	16.69
657.728	17.07
658.056	16.03
658.383	16.76
658.711	17.08
659.038	16.42
659.365	16.67
659.693	16.32
660.02	16.86
660.347	16.77
660.674	16.66
661.001	16.49
661.329	16.54
661.656	16.99
661.982	17.11
662.309	16.66
662.636	16.87
662.963	17.02
663.29	16.98
663.616	16.96
663.943	17.26
664.27	17.67
664.596	17.17
664.923	17.05
665.249	17.32
665.576	17.2
665.902	16.97
666.228	17.56
666.554	17.03
666.881	17.28
667.207	16.73
667.533	17.38
667.859	16.97
668.185	17.15
668.511	17.27
668.837	17.48
669.162	17.45
669.488	17.23
669.814	17.56
670.139	17.69
670.465	17.71
670.791	17.24
671.116	17.57
671.442	17.3
671.767	17.84
672.092	18.36
672.418	17.76
672.743	17.84
673.068	17.8
673.393	17.92
673.718	17.86
674.043	18.21
674.368	17.6
674.693	18.77
675.018	18.39
675.343	18.43
675.667	18
675.992	18.04
676.317	17.99
676.641	18.68
676.966	18
677.29	18.02
677.615	18.43
677.939	18.48
678.264	18.02
678.588	18.76
678.912	19
679.236	18.65
679.56	19.07
679.885	19.07
680.209	18.16
680.532	18.5
680.856	18.74
681.18	18.57
681.504	19.33
681.828	18.59
682.152	18.78
682.475	18.51
682.799	19
683.122	19.06
683.446	18.96
683.769	19.36
684.093	19.24
684.416	19.23
684.739	19.89
685.062	19.16
685.386	19.02
685.709	19.39
