Data from 1697-1_forehead_Reflection__1__122.txt Node

Date: Fri Nov 11 17:04:39 CST 2022
User: ToomeyLab
Spectrometer: FLMS14357
Trigger mode: 0
Integration Time (sec): 1.000000E-2
Scans to average: 100
Electric dark correction enabled: true
Nonlinearity correction enabled: false
Boxcar width: 0
XAxis mode: Wavelengths
Number of Pixels in Spectrum: 2048
>>>>>Begin Spectral Data<<<<<
189.047	36.15
189.435	36.15
189.823	36.15
190.211	9954.84
190.599	-443.6
190.987	53.17
191.375	69.57
191.763	-76.21
192.151	-3.33
192.538	128.65
192.926	-89.18
193.314	158.9
193.702	0.31
194.089	-665.03
194.477	-84.56
194.864	76.8
195.252	56.73
195.639	70.64
196.027	21.02
196.414	73.72
196.801	368.32
197.189	57.37
197.576	111.79
197.963	28.13
198.351	-24.87
198.738	-39.91
199.125	18.22
199.512	36.9
199.899	-0.18
200.286	57.01
200.673	-5.64
201.06	-4.46
201.447	15.5
201.833	7.87
202.22	-15.79
202.607	30.09
202.994	6.43
203.38	39.03
203.767	24.99
204.154	-93.55
204.54	35.91
204.927	23.06
205.313	40.54
205.699	21.04
206.086	39.77
206.472	9.01
206.858	9.91
207.245	29.64
207.631	27.88
208.017	32.55
208.403	10.83
208.789	-2.7
209.175	5.49
209.561	19.48
209.947	-5.15
210.333	31.78
210.719	8.23
211.105	-3.5
211.491	-56.02
211.876	47.12
212.262	10.24
212.648	24.15
213.034	-2.61
213.419	9.94
213.805	2.77
214.19	-40.72
214.576	23.52
214.961	25.09
215.346	-42.76
215.732	-47.68
216.117	36.07
216.502	6.87
216.888	-8.13
217.273	-10.31
217.658	0.29
218.043	-6.73
218.428	-18.94
218.813	26.88
219.198	-21.19
219.583	-14.11
219.968	15.17
220.353	-35.55
220.738	7.55
221.122	-12.6
221.507	6.28
221.892	13.75
222.276	18.31
222.661	16.72
223.046	5.01
223.43	5.79
223.815	7.7
224.199	19.6
224.583	1.1
224.968	14.1
225.352	-4.72
225.736	10.41
226.121	7.55
226.505	5.82
226.889	5.41
227.273	7.72
227.657	0.02
228.041	3.58
228.425	5.48
228.809	6.68
229.193	0.91
229.577	4.02
229.961	2.62
230.344	3.91
230.728	2.07
231.112	2.98
231.495	2.42
231.879	1.92
232.263	2.35
232.646	3.03
233.03	2.86
233.413	2.07
233.797	3.36
234.18	3.76
234.563	3.74
234.946	4.67
235.33	2.71
235.713	3.86
236.096	1.73
236.479	4.41
236.862	2.68
237.245	3.91
237.628	2.24
238.011	2.4
238.394	2.77
238.777	3.08
239.16	2.77
239.543	3.42
239.925	5.85
240.308	1.68
240.691	2.05
241.073	2.67
241.456	2.5
241.838	3.48
242.221	2
242.603	2.96
242.986	2.91
243.368	2.73
243.75	3.09
244.133	2.97
244.515	2.99
244.897	2.69
245.279	2.59
245.661	2.66
246.043	3.64
246.425	3.9
246.807	2.8
247.189	1.89
247.571	2.17
247.953	3.01
248.335	3.41
248.717	3.02
249.098	3.03
249.48	3.27
249.862	2.47
250.243	3.08
250.625	2.98
251.006	3.5
251.388	3.72
251.769	3.24
252.151	3.3
252.532	3.84
252.913	2.37
253.295	3.03
253.676	3.29
254.057	2.89
254.438	3.2
254.819	3.13
255.2	3.58
255.581	3.86
255.962	3.23
256.343	3.55
256.724	3.14
257.105	3.02
257.486	3.03
257.867	3.57
258.247	3.08
258.628	3.21
259.009	3.52
259.389	4.07
259.77	4.26
260.15	3.71
260.531	3.14
260.911	2.94
261.292	3.22
261.672	3.04
262.052	3.07
262.432	3.56
262.813	3.26
263.193	2.88
263.573	4.03
263.953	3.13
264.333	3.27
264.713	2.94
265.093	3.16
265.473	4
265.853	2.77
266.233	2.16
266.612	1.77
266.992	3.75
267.372	2.97
267.752	3.49
268.131	3.39
268.511	2.84
268.89	3.37
269.27	2.85
269.649	2.9
270.029	2.78
270.408	2.99
270.787	3.36
271.167	2.7
271.546	3.4
271.925	3.2
272.304	3.34
272.683	3.07
273.062	3.11
273.441	2.98
273.82	2.97
274.199	3.04
274.578	3.31
274.957	2.66
275.336	3.05
275.715	3.4
276.093	2.94
276.472	3.18
276.851	3.65
277.229	3.04
277.608	3.06
277.986	3.43
278.365	3.55
278.743	2.87
279.122	2.86
279.5	2.78
279.878	2.36
280.257	2.89
280.635	2.79
281.013	3.07
281.391	3.11
281.769	3.89
282.147	2.99
282.525	2.76
282.903	3.54
283.281	3
283.659	3.1
284.037	2.94
284.415	2.87
284.792	3.42
285.17	3.41
285.548	3.38
285.925	3.5
286.303	3.28
286.68	2.99
287.058	3.43
287.435	3.19
287.813	3.29
288.19	3.22
288.567	2.96
288.945	2.91
289.322	2.82
289.699	3.29
290.076	3.11
290.453	2.82
290.83	3.47
291.207	3.24
291.584	3.14
291.961	2.89
292.338	3.34
292.715	3.06
293.092	3.31
293.469	3.57
293.845	3.6
294.222	3.89
294.599	3.4
294.975	3.27
295.352	3.21
295.728	3.23
296.105	3.3
296.481	3.41
296.858	3.58
297.234	3.56
297.61	3.5
297.986	3.44
298.363	3.7
298.739	3.69
299.115	3.46
299.491	3.57
299.867	3.29
300.243	3.63
300.619	3.64
300.995	3.71
301.371	3.23
301.746	4.06
302.122	3.48
302.498	3.9
302.874	3.98
303.249	3.75
303.625	3.84
304	3.85
304.376	4.22
304.751	4.86
305.127	4.24
305.502	4.12
305.878	4.5
306.253	4.08
306.628	4.37
307.003	4.14
307.378	4.47
307.754	4.16
308.129	4.63
308.504	4.02
308.879	4.01
309.254	3.89
309.629	4.29
310.003	4.59
310.378	3.84
310.753	4.24
311.128	4.83
311.502	4.14
311.877	4.65
312.252	4.19
312.626	4.28
313.001	4.85
313.375	5.04
313.75	4.9
314.124	4.94
314.498	4.71
314.873	4.53
315.247	5
315.621	4.86
315.995	4.56
316.369	5.01
316.743	4.94
317.117	4.93
317.491	5.09
317.865	5.21
318.239	5.72
318.613	5.43
318.987	5.49
319.361	5.24
319.734	5.03
320.108	5.66
320.482	4.86
320.855	5.14
321.229	5.94
321.602	5.6
321.976	4.75
322.349	6.06
322.723	5.06
323.096	5.74
323.469	5.46
323.843	6.41
324.216	5.53
324.589	5.68
324.962	5.46
325.335	6.11
325.708	5.27
326.081	5.8
326.454	5.49
326.827	5.78
327.2	5.61
327.573	5.73
327.945	6.14
328.318	6.12
328.691	6.18
329.063	6.48
329.436	6.16
329.809	5.43
330.181	6.74
330.553	6.27
330.926	5.75
331.298	5.83
331.671	6.12
332.043	6.4
332.415	6.09
332.787	6.58
333.159	6.52
333.532	6.12
333.904	6.07
334.276	6.12
334.648	6.47
335.02	6.5
335.391	6.49
335.763	6.3
336.135	6.35
336.507	6.34
336.879	5.85
337.25	5.41
337.622	6.86
337.993	6.48
338.365	6.66
338.736	6.71
339.108	6.77
339.479	6.72
339.851	6.05
340.222	6.39
340.593	6.56
340.964	6.42
341.336	6.61
341.707	7.03
342.078	6.39
342.449	6.64
342.82	6.66
343.191	7.11
343.562	7.02
343.933	6.32
344.303	7.42
344.674	6.97
345.045	6.92
345.416	6.82
345.786	6.82
346.157	7.02
346.527	7.11
346.898	6.51
347.268	7
347.639	7.36
348.009	7.06
348.38	6.88
348.75	7.36
349.12	6.93
349.49	7.21
349.861	7.42
350.231	7.16
350.601	7.42
350.971	7.31
351.341	7.05
351.711	6.99
352.081	6.7
352.45	7.32
352.82	7.68
353.19	7.05
353.56	7.32
353.929	7.52
354.299	7.21
354.669	7.23
355.038	7.3
355.408	6.91
355.777	7.47
356.147	7.4
356.516	7.78
356.885	7.65
357.254	7.52
357.624	7.38
357.993	7.51
358.362	7.77
358.731	7.47
359.1	7.45
359.469	7.41
359.838	8.02
360.207	7.76
360.576	7.67
360.945	7.94
361.314	7.79
361.682	7.68
362.051	7.64
362.42	7.89
362.788	7.62
363.157	7.85
363.525	7.92
363.894	7.76
364.262	7.77
364.631	7.61
364.999	7.78
365.367	8.31
365.735	7.91
366.104	8.13
366.472	7.98
366.84	8.01
367.208	7.99
367.576	8.15
367.944	8.56
368.312	8.24
368.68	8.48
369.048	8.27
369.416	7.96
369.783	8.15
370.151	8.46
370.519	8.64
370.886	8.45
371.254	8.2
371.621	8.57
371.989	7.94
372.356	8.11
372.724	8.61
373.091	8.39
373.458	8.25
373.826	8.71
374.193	8.43
374.56	8.2
374.927	8.4
375.294	8.77
375.661	9.03
376.028	8.31
376.395	8.74
376.762	8.66
377.129	8.84
377.496	8.85
377.863	8.61
378.229	8.67
378.596	8.77
378.963	8.64
379.329	8.61
379.696	8.68
380.062	8.74
380.429	8.6
380.795	8.82
381.161	9.26
381.528	9.06
381.894	9.27
382.26	8.99
382.626	8.87
382.993	9.06
383.359	8.76
383.725	9.2
384.091	8.89
384.457	9.19
384.823	9.15
385.188	9.12
385.554	9.05
385.92	9.02
386.286	9.18
386.651	8.98
387.017	9
387.383	9.14
387.748	8.96
388.114	8.99
388.479	9.27
388.845	9.22
389.21	9.35
389.575	9.35
389.94	9.39
390.306	9.53
390.671	9.09
391.036	9.38
391.401	9.51
391.766	9.49
392.131	9.16
392.496	9.5
392.861	9.5
393.226	9.49
393.591	9.33
393.956	9.74
394.32	9.71
394.685	9.53
395.05	9.73
395.414	9.71
395.779	9.45
396.143	9.71
396.508	9.63
396.872	9.91
397.236	9.99
397.601	9.67
397.965	9.82
398.329	9.71
398.694	9.71
399.058	9.79
399.422	10.07
399.786	9.98
400.15	9.92
400.514	10.04
400.878	10.12
401.242	10
401.605	10.02
401.969	10.17
402.333	10.09
402.697	9.96
403.06	10.07
403.424	10.22
403.787	9.99
404.151	10.17
404.514	10.13
404.878	10.23
405.241	10.22
405.604	9.98
405.968	10.35
406.331	10.26
406.694	10.25
407.057	10.26
407.42	10.42
407.783	10.39
408.146	10.49
408.509	10.39
408.872	10.53
409.235	10.6
409.598	10.38
409.961	10.37
410.323	10.87
410.686	10.68
411.049	10.67
411.411	10.63
411.774	10.51
412.136	10.55
412.499	10.64
412.861	10.6
413.223	10.93
413.586	10.51
413.948	10.59
414.31	10.92
414.672	10.92
415.035	10.91
415.397	10.89
415.759	10.9
416.121	10.83
416.483	10.93
416.845	10.86
417.206	11.02
417.568	10.89
417.93	10.71
418.292	10.83
418.653	11.1
419.015	10.93
419.377	11.05
419.738	10.95
420.1	10.85
420.461	10.92
420.822	10.82
421.184	10.84
421.545	10.96
421.906	10.89
422.267	11.05
422.629	11.03
422.99	10.94
423.351	11.03
423.712	11.03
424.073	11.06
424.434	11.03
424.795	11.27
425.155	11.23
425.516	11.12
425.877	11.11
426.238	11.14
426.598	11.14
426.959	11.22
427.32	11.27
427.68	11.28
428.041	11.3
428.401	11.37
428.761	11.55
429.122	11.71
429.482	11.82
429.842	11.58
430.202	11.65
430.563	11.8
430.923	11.65
431.283	11.84
431.643	11.68
432.003	11.79
432.363	11.98
432.722	11.96
433.082	12.04
433.442	11.83
433.802	11.97
434.161	11.95
434.521	12.05
434.881	11.74
435.24	11.8
435.6	11.86
435.959	11.85
436.319	12
436.678	11.83
437.037	12.07
437.396	11.89
437.756	12.13
438.115	12.05
438.474	12.16
438.833	12.22
439.192	12.34
439.551	12.23
439.91	12.23
440.269	12.07
440.628	12.32
440.987	12.36
441.345	12.31
441.704	12.3
442.063	12.36
442.421	12.17
442.78	12.18
443.138	12.24
443.497	12.37
443.855	12.34
444.214	12.55
444.572	12.62
444.93	12.52
445.288	12.69
445.647	12.51
446.005	12.68
446.363	12.79
446.721	12.49
447.079	12.61
447.437	12.52
447.795	12.42
448.153	12.53
448.51	12.57
448.868	12.51
449.226	12.56
449.584	12.63
449.941	12.7
450.299	12.71
450.656	12.88
451.014	12.82
451.371	13.02
451.729	12.98
452.086	13.14
452.443	13.11
452.801	13.26
453.158	13.32
453.515	13.12
453.872	13.15
454.229	13.17
454.586	13.09
454.943	13.28
455.3	13.1
455.657	13.14
456.014	13.13
456.371	13.34
456.727	13.57
457.084	13.31
457.441	13.49
457.797	13.5
458.154	13.53
458.51	13.51
458.867	13.63
459.223	13.59
459.58	13.62
459.936	13.67
460.292	13.5
460.648	13.47
461.005	13.57
461.361	13.55
461.717	13.36
462.073	13.49
462.429	13.66
462.785	13.59
463.141	13.73
463.496	13.61
463.852	13.85
464.208	13.92
464.564	13.84
464.919	13.81
465.275	14.1
465.631	14.05
465.986	14.05
466.342	14.33
466.697	14.3
467.052	14.18
467.408	14.08
467.763	14.28
468.118	14.2
468.473	14.24
468.829	14.39
469.184	14.26
469.539	14.31
469.894	14.38
470.249	14.32
470.603	14.22
470.958	14.46
471.313	14.45
471.668	14.5
472.023	14.66
472.377	14.7
472.732	14.56
473.086	14.66
473.441	14.54
473.795	14.63
474.15	14.71
474.504	14.89
474.859	14.71
475.213	14.65
475.567	14.8
475.921	14.9
476.275	14.89
476.63	14.68
476.984	14.91
477.338	14.95
477.692	14.85
478.045	14.88
478.399	14.93
478.753	14.87
479.107	15.01
479.461	15.05
479.814	15.03
480.168	15.1
480.521	15.21
480.875	15.24
481.228	15.23
481.582	15.1
481.935	15.26
482.289	15.23
482.642	15.18
482.995	15.29
483.348	15.14
483.701	15.16
484.055	15.13
484.408	14.96
484.761	14.9
485.114	14.72
485.466	14.57
485.819	14.59
486.172	14.61
486.525	14.72
486.878	14.86
487.23	14.97
487.583	15.09
487.936	15.21
488.288	15.23
488.641	15.17
488.993	14.97
489.345	14.92
489.698	14.97
490.05	15.03
490.402	15.1
490.754	15.29
491.107	15.3
491.459	15.58
491.811	15.61
492.163	15.55
492.515	15.65
492.866	15.54
493.218	15.37
493.57	15.39
493.922	15.47
494.274	15.58
494.625	15.67
494.977	15.78
495.328	15.97
495.68	15.99
496.031	16.23
496.383	16.27
496.734	16.39
497.086	16.38
497.437	16.43
497.788	16.41
498.139	16.3
498.49	16.33
498.842	16.31
499.193	16.24
499.544	16.35
499.894	16.42
500.245	16.55
500.596	16.6
500.947	16.59
501.298	16.7
501.648	16.9
501.999	16.73
502.35	16.82
502.7	16.87
503.051	16.95
503.401	16.91
503.752	16.89
504.102	16.93
504.452	16.9
504.803	17.08
505.153	17.08
505.503	17.01
505.853	17.2
506.203	17.15
506.553	17.09
506.903	17.12
507.253	17.23
507.603	17.26
507.953	17.31
508.303	17.33
508.652	17.21
509.002	17.33
509.352	17.39
509.701	17.46
510.051	17.34
510.4	17.27
510.75	17.27
511.099	17.39
511.449	17.44
511.798	17.38
512.147	17.56
512.496	17.53
512.846	17.64
513.195	17.51
513.544	17.61
513.893	17.73
514.242	17.64
514.591	17.66
514.939	17.79
515.288	17.84
515.637	17.8
515.986	18.04
516.334	17.97
516.683	18.07
517.032	18.08
517.38	18.26
517.729	18
518.077	18.27
518.426	18.3
518.774	18.08
519.122	18.01
519.47	18.02
519.819	18.04
520.167	17.92
520.515	17.98
520.863	17.98
521.211	18.06
521.559	18.12
521.907	18.37
522.255	18.31
522.602	18.48
522.95	18.66
523.298	18.5
523.645	18.72
523.993	18.71
524.341	18.79
524.688	18.69
525.036	18.86
525.383	18.73
525.73	18.81
526.078	18.83
526.425	18.73
526.772	18.84
527.119	18.76
527.466	18.67
527.814	18.58
528.161	18.68
528.508	18.62
528.854	18.74
529.201	18.76
529.548	18.69
529.895	18.43
530.242	18.46
530.588	18.37
530.935	18.48
531.282	18.6
531.628	18.55
531.975	18.68
532.321	18.81
532.667	19.01
533.014	19.16
533.36	19.18
533.706	19.15
534.052	19.34
534.399	19.14
534.745	18.98
535.091	18.94
535.437	19.04
535.783	19.07
536.129	19.19
536.474	19.42
536.82	19.5
537.166	19.63
537.512	19.7
537.857	19.68
538.203	19.6
538.549	19.53
538.894	19.62
539.239	19.55
539.585	19.7
539.93	20.04
540.276	20.03
540.621	20.28
540.966	20.31
541.311	20.12
541.656	20.13
542.001	20.24
542.346	20.13
542.691	19.86
543.036	19.72
543.381	19.68
543.726	19.8
544.071	19.74
544.415	19.95
544.76	20.06
545.105	20.15
545.449	20.32
545.794	20.35
546.138	20.47
546.483	20.52
546.827	20.57
547.171	20.63
547.516	20.55
547.86	20.66
548.204	20.73
548.548	20.6
548.892	20.86
549.236	20.87
549.58	21.04
549.924	20.99
550.268	21.31
550.612	21.18
550.956	21.32
551.3	21.6
551.643	21.46
551.987	21.41
552.33	21.55
552.674	21.72
553.017	21.6
553.361	21.71
553.704	21.81
554.048	21.59
554.391	21.7
554.734	21.65
555.077	21.76
555.42	22
555.764	21.82
556.107	21.85
556.45	21.8
556.793	21.89
557.135	21.95
557.478	22.08
557.821	22.17
558.164	22.13
558.507	22.41
558.849	22.19
559.192	22.33
559.534	22.36
559.877	22.52
560.219	22.45
560.562	22.54
560.904	22.3
561.246	22.39
561.589	22.74
561.931	22.59
562.273	22.78
562.615	22.56
562.957	22.62
563.299	22.66
563.641	22.62
563.983	22.72
564.325	22.69
564.667	22.94
565.008	22.76
565.35	23.06
565.692	22.79
566.033	23.11
566.375	23.11
566.716	23.1
567.058	22.94
567.399	22.99
567.741	23.09
568.082	23.1
568.423	23.13
568.764	23.18
569.105	23.22
569.447	23.22
569.788	23.35
570.129	23.33
570.47	23.17
570.811	23.5
571.151	23.44
571.492	23.47
571.833	23.6
572.174	23.73
572.514	23.79
572.855	23.67
573.195	23.82
573.536	23.69
573.876	23.78
574.217	23.57
574.557	23.56
574.898	23.88
575.238	23.63
575.578	23.86
575.918	23.85
576.258	23.9
576.598	24.24
576.938	24.12
577.278	24.13
577.618	24.23
577.958	24.39
578.298	24.15
578.638	24.26
578.977	24.47
579.317	24.38
579.657	24.51
579.996	24.57
580.336	24.48
580.675	24.67
581.014	24.6
581.354	24.59
581.693	24.91
582.032	24.77
582.372	24.92
582.711	24.98
583.05	24.92
583.389	24.9
583.728	24.92
584.067	25.38
584.406	25.12
584.745	25.19
585.083	25.12
585.422	25.23
585.761	25.22
586.1	25.35
586.438	25.45
586.777	25.41
587.115	25.35
587.454	25.61
587.792	25.39
588.13	25.59
588.469	25.39
588.807	25.73
589.145	25.53
589.483	25.65
589.821	25.52
590.159	25.78
590.497	25.92
590.835	25.54
591.173	25.84
591.511	25.56
591.849	25.75
592.187	25.82
592.524	25.6
592.862	26.17
593.2	26.12
593.537	25.67
593.875	26.12
594.212	26.03
594.55	26.43
594.887	26.28
595.224	26.07
595.561	26.4
595.899	26.3
596.236	26.33
596.573	26.43
596.91	26.36
597.247	26.35
597.584	26.35
597.921	26.44
598.258	26.37
598.594	26.26
598.931	26.38
599.268	26.34
599.604	26.45
599.941	26.55
600.277	26.45
600.614	26.8
600.95	26.75
601.287	26.88
601.623	27
601.959	26.9
602.296	27.12
602.632	27.12
602.968	27.18
603.304	27.23
603.64	26.92
603.976	27.22
604.312	27.06
604.648	27.16
604.984	27.18
605.319	27.2
605.655	27.16
605.991	27.06
606.326	27.03
606.662	26.97
606.998	27.02
607.333	27.3
607.668	27.41
608.004	27.35
608.339	27.67
608.674	27.79
609.01	27.52
609.345	27.49
609.68	27.91
610.015	27.84
610.35	27.99
610.685	27.95
611.02	27.85
611.355	27.48
611.689	27.92
612.024	28.08
612.359	27.72
612.694	27.97
613.028	28.04
613.363	28.39
613.697	28.26
614.032	27.91
614.366	27.9
614.7	28.33
615.035	28.53
615.369	28.42
615.703	28.72
616.037	28.51
616.371	28.52
616.705	28.79
617.039	28.38
617.373	28.81
617.707	28.7
618.041	28.44
618.375	29.16
618.709	28.98
619.042	28.89
619.376	28.96
619.71	28.85
620.043	29.06
620.377	29.14
620.71	29.11
621.043	28.97
621.377	28.86
621.71	29.08
622.043	28.82
622.376	29.2
622.709	29.63
623.043	29.05
623.376	29.17
623.709	29.21
624.041	29.68
624.374	29.76
624.707	29.72
625.04	29.35
625.373	29.66
625.705	29.29
626.038	29.8
626.37	29.38
626.703	30
627.035	29.97
627.368	29.65
627.7	29.71
628.032	29.53
628.365	29.94
628.697	29.56
629.029	29.74
629.361	29.78
629.693	29.77
630.025	30
630.357	29.81
630.689	30.38
631.021	29.83
631.353	30.14
631.684	29.96
632.016	30.06
632.348	30.27
632.679	30.36
633.011	30.3
633.342	30.26
633.674	30.52
634.005	30.53
634.336	30.52
634.668	30.36
634.999	30.45
635.33	30.44
635.661	30.47
635.992	30.43
636.323	30.73
636.654	31.21
636.985	30.7
637.316	30.95
637.647	30.82
637.977	30.65
638.308	30.75
638.639	31.15
638.969	31.08
639.3	30.86
639.63	30.99
639.961	31.23
640.291	30.75
640.622	31.06
640.952	31.39
641.282	31.24
641.612	31.41
641.943	31.2
642.273	31.52
642.603	31.25
642.933	31.58
643.263	31.16
643.592	31.49
643.922	31.34
644.252	31.31
644.582	31.52
644.911	32.07
645.241	32.02
645.571	31.79
645.9	31.56
646.23	31.73
646.559	32
646.888	32.16
647.218	31.63
647.547	32.07
647.876	32.15
648.205	32.11
648.534	32.14
648.863	32.5
649.192	32.26
649.521	32.5
649.85	32.21
650.179	31.83
650.508	32.06
650.837	32.37
651.165	32.39
651.494	32.75
651.822	32.29
652.151	32.42
652.479	32.86
652.808	32.73
653.136	32.71
653.465	32.69
653.793	32.88
654.121	32.35
654.449	32.29
654.777	32.6
655.105	32.92
655.433	32.85
655.761	32.81
656.089	33.27
656.417	33.22
656.745	33.18
657.073	33.13
657.4	33.66
657.728	33.46
658.056	32.61
658.383	32.88
658.711	33.61
659.038	32.91
659.365	32.76
659.693	33.14
660.02	33.87
660.347	33.19
660.674	33.15
661.001	33.31
661.329	33.44
661.656	33.07
661.982	33.38
662.309	33.54
662.636	33.77
662.963	33.69
663.29	33.62
663.616	33.73
663.943	33.61
664.27	33.49
664.596	33.48
664.923	33.83
665.249	34.12
665.576	33.74
665.902	33.85
666.228	33.66
666.554	34.22
666.881	33.97
667.207	33.59
667.533	34.12
667.859	34.38
668.185	33.74
668.511	34.3
668.837	34.47
669.162	34.34
669.488	33.64
669.814	33.98
670.139	34.73
670.465	33.89
670.791	34.22
671.116	34.58
671.442	34.17
671.767	34.77
672.092	33.85
672.418	34
672.743	34.08
673.068	34.47
673.393	34.39
673.718	34.76
674.043	34.8
674.368	34.7
