Data from 1697-1_crown_Reflection__3__119.txt Node

Date: Fri Nov 11 17:02:27 CST 2022
User: ToomeyLab
Spectrometer: FLMS14357
Trigger mode: 0
Integration Time (sec): 1.000000E-2
Scans to average: 100
Electric dark correction enabled: true
Nonlinearity correction enabled: false
Boxcar width: 0
XAxis mode: Wavelengths
Number of Pixels in Spectrum: 2048
>>>>>Begin Spectral Data<<<<<
189.047	-10.29
189.435	-10.29
189.823	-10.29
190.211	2493.55
190.599	-440.04
190.987	314.38
191.375	26.91
191.763	-55.37
192.151	112.16
192.538	-2.34
192.926	147.01
193.314	22.12
193.702	-5.77
194.089	-524.2
194.477	263.81
194.864	160.19
195.252	191.05
195.639	130.13
196.027	97.58
196.414	108.56
196.801	332.37
197.189	119.01
197.576	31.98
197.963	4.33
198.351	-15.26
198.738	-23.08
199.125	3.84
199.512	14.53
199.899	-15.1
200.286	14.92
200.673	1.3
201.06	-19.27
201.447	41.5
201.833	-4.5
202.22	10.1
202.607	2.49
202.994	3.96
203.38	-4.99
203.767	12.21
204.154	7.13
204.54	43.94
204.927	-0.36
205.313	10.23
205.699	4.65
206.086	15.52
206.472	18.06
206.858	-6.02
207.245	-9.09
207.631	-10.82
208.017	3.95
208.403	19.73
208.789	-74.72
209.175	4.29
209.561	11.37
209.947	-13.62
210.333	2.15
210.719	13.52
211.105	15.68
211.491	-150.06
211.876	-0.94
212.262	-22.01
212.648	-9.11
213.034	-33.05
213.419	6.47
213.805	18.37
214.19	-21.95
214.576	8.88
214.961	-4.02
215.346	-44.81
215.732	-4.82
216.117	18.69
216.502	14.77
216.888	-22.14
217.273	-6.87
217.658	9.06
218.043	-33.58
218.428	3.65
218.813	17.08
219.198	-24.43
219.583	14.59
219.968	25.77
220.353	-13.35
220.738	-20.81
221.122	-12.2
221.507	11.18
221.892	2.17
222.276	6.17
222.661	8.49
223.046	5.27
223.43	-0.78
223.815	-1.16
224.199	9.71
224.583	3.73
224.968	13.75
225.352	-2.7
225.736	3.22
226.121	0.99
226.505	2.2
226.889	7.59
227.273	-1.14
227.657	-4.75
228.041	-1.56
228.425	1.01
228.809	5.09
229.193	2.21
229.577	4.7
229.961	3.08
230.344	3.48
230.728	2.7
231.112	3.29
231.495	2.98
231.879	3.68
232.263	2.06
232.646	2.41
233.03	1.66
233.413	2.06
233.797	2.64
234.18	3.61
234.563	3.72
234.946	1.91
235.33	3.04
235.713	2.41
236.096	0.8
236.479	3.28
236.862	4.08
237.245	3.52
237.628	2.05
238.011	3.49
238.394	3.25
238.777	0.84
239.16	2.91
239.543	2.12
239.925	3.66
240.308	1.96
240.691	2.17
241.073	2.67
241.456	2.21
241.838	3.39
242.221	2.62
242.603	1.95
242.986	3.03
243.368	2.21
243.75	2.85
244.133	2.96
244.515	2.98
244.897	2.54
245.279	2.71
245.661	2.16
246.043	2.19
246.425	3.75
246.807	2.69
247.189	2.31
247.571	2.59
247.953	2.72
248.335	3.3
248.717	2.83
249.098	3.09
249.48	2.95
249.862	2.69
250.243	2.8
250.625	3
251.006	3.13
251.388	2.6
251.769	3.78
252.151	2.77
252.532	2.97
252.913	2.79
253.295	2.58
253.676	2.59
254.057	2.95
254.438	3.39
254.819	2.94
255.2	2.73
255.581	2.43
255.962	2.74
256.343	3.35
256.724	3.54
257.105	2.78
257.486	2.36
257.867	1.65
258.247	3.53
258.628	2.17
259.009	1.78
259.389	2.57
259.77	3.39
260.15	3.22
260.531	2.23
260.911	2.5
261.292	2.66
261.672	2.75
262.052	2.78
262.432	3.11
262.813	3.09
263.193	2.17
263.573	3.37
263.953	3.33
264.333	2.97
264.713	2.23
265.093	2.64
265.473	3.26
265.853	2.13
266.233	2.13
266.612	2.19
266.992	2.21
267.372	2.27
267.752	2.83
268.131	3.14
268.511	3.14
268.89	3.21
269.27	2.39
269.649	2.32
270.029	2.36
270.408	2.21
270.787	3.04
271.167	2.43
271.546	3.15
271.925	3.25
272.304	2.88
272.683	2.64
273.062	2.68
273.441	2.55
273.82	2.6
274.199	2.81
274.578	2.75
274.957	2.13
275.336	2.31
275.715	2.62
276.093	3.04
276.472	2.4
276.851	2.41
277.229	2.38
277.608	2.56
277.986	3.09
278.365	3.83
278.743	2.68
279.122	1.94
279.5	2.09
279.878	2.18
280.257	2.47
280.635	2.73
281.013	2.76
281.391	2.54
281.769	3.21
282.147	2.52
282.525	2.45
282.903	2.73
283.281	2.44
283.659	2.26
284.037	2.31
284.415	2.47
284.792	2.43
285.17	2.4
285.548	2.7
285.925	2.61
286.303	2.18
286.68	2.5
287.058	2.26
287.435	2.54
287.813	2.5
288.19	2.41
288.567	2.69
288.945	2.36
289.322	2.06
289.699	2.55
290.076	2.27
290.453	2.26
290.83	2.58
291.207	2.35
291.584	2.5
291.961	2.34
292.338	2.58
292.715	2.27
293.092	2.43
293.469	2.73
293.845	2.43
294.222	2.59
294.599	2.54
294.975	2.52
295.352	2.2
295.728	2.52
296.105	2.47
296.481	1.98
296.858	2.36
297.234	2.25
297.61	2.39
297.986	1.84
298.363	2.38
298.739	2.54
299.115	2.37
299.491	2.57
299.867	1.99
300.243	2.01
300.619	2.4
300.995	2.07
301.371	2.48
301.746	2.64
302.122	2.18
302.498	2.01
302.874	2.24
303.249	2.1
303.625	2.42
304	2.07
304.376	2.68
304.751	3.01
305.127	2.57
305.502	2.35
305.878	2.71
306.253	2.61
306.628	2.31
307.003	2.36
307.378	2.48
307.754	2.49
308.129	2.01
308.504	2.68
308.879	2.19
309.254	2.09
309.629	2.16
310.003	2.2
310.378	1.97
310.753	2.1
311.128	2.19
311.502	2
311.877	2.26
312.252	1.81
312.626	2.09
313.001	2.15
313.375	2.43
313.75	2.5
314.124	2.32
314.498	2.58
314.873	2.29
315.247	2.73
315.621	2.29
315.995	2.29
316.369	2.61
316.743	2.18
317.117	2.39
317.491	2.46
317.865	2
318.239	1.99
318.613	2.54
318.987	2.55
319.361	2.14
319.734	1.91
320.108	2.52
320.482	1.84
320.855	2.35
321.229	2.6
321.602	2.42
321.976	2.2
322.349	2.34
322.723	2.19
323.096	2.11
323.469	2.18
323.843	2.93
324.216	2.35
324.589	2.54
324.962	2.19
325.335	2.92
325.708	2.26
326.081	2.42
326.454	2.21
326.827	2.35
327.2	2.09
327.573	2.52
327.945	2.36
328.318	2.49
328.691	2.68
329.063	2.75
329.436	2.54
329.809	2.05
330.181	2.75
330.553	2.68
330.926	2.22
331.298	1.74
331.671	2.87
332.043	2.59
332.415	2.33
332.787	2.12
333.159	2.35
333.532	2.33
333.904	2.02
334.276	2.38
334.648	2.08
335.02	2.69
335.391	2.47
335.763	2.89
336.135	2.66
336.507	2.46
336.879	2.22
337.25	2.27
337.622	2.88
337.993	2.18
338.365	2.38
338.736	2.36
339.108	2.69
339.479	2.49
339.851	2.17
340.222	2.19
340.593	2.23
340.964	2.37
341.336	2.09
341.707	1.88
342.078	2.11
342.449	2.72
342.82	2.01
343.191	2.76
343.562	2.73
343.933	1.96
344.303	2.75
344.674	2.3
345.045	2.29
345.416	2.53
345.786	2.29
346.157	1.95
346.527	2.42
346.898	2.31
347.268	2.52
347.639	2.67
348.009	2.27
348.38	2.36
348.75	3.17
349.12	2.48
349.49	2.35
349.861	1.95
350.231	2.42
350.601	2.91
350.971	2.47
351.341	2.14
351.711	2.34
352.081	2.33
352.45	2.7
352.82	2.71
353.19	2.49
353.56	2.85
353.929	2.48
354.299	2.47
354.669	2.58
355.038	2.38
355.408	2.22
355.777	2.6
356.147	2.41
356.516	2.67
356.885	2.41
357.254	2.31
357.624	2.55
357.993	2.46
358.362	2.51
358.731	2.4
359.1	2.26
359.469	2.63
359.838	2.65
360.207	2.74
360.576	2.72
360.945	2.85
361.314	2.63
361.682	2.58
362.051	2.27
362.42	2.43
362.788	2.17
363.157	2.64
363.525	2.7
363.894	2.44
364.262	2.41
364.631	2.41
364.999	2.51
365.367	2.55
365.735	2.62
366.104	2.44
366.472	2.63
366.84	2.62
367.208	2.55
367.576	2.73
367.944	2.69
368.312	2.5
368.68	2.66
369.048	2.51
369.416	2.41
369.783	2.23
370.151	2.54
370.519	2.57
370.886	2.95
371.254	2.46
371.621	2.66
371.989	2.57
372.356	2.05
372.724	2.57
373.091	2.25
373.458	2.46
373.826	3.02
374.193	2.5
374.56	2.55
374.927	2.48
375.294	2.7
375.661	2.83
376.028	2.77
376.395	2.68
376.762	2.6
377.129	2.67
377.496	2.8
377.863	2.66
378.229	2.68
378.596	2.59
378.963	2.43
379.329	2.55
379.696	2.57
380.062	2.56
380.429	2.66
380.795	2.6
381.161	3.01
381.528	2.75
381.894	2.87
382.26	2.54
382.626	2.48
382.993	2.84
383.359	2.77
383.725	2.75
384.091	2.61
384.457	2.69
384.823	2.46
385.188	2.85
385.554	2.65
385.92	2.55
386.286	2.61
386.651	2.77
387.017	2.71
387.383	2.72
387.748	2.51
388.114	2.8
388.479	2.75
388.845	2.59
389.21	2.64
389.575	2.58
389.94	2.93
390.306	2.47
390.671	2.82
391.036	2.78
391.401	2.73
391.766	2.74
392.131	2.56
392.496	2.84
392.861	2.78
393.226	2.7
393.591	2.73
393.956	2.75
394.32	2.87
394.685	2.96
395.05	2.99
395.414	3.05
395.779	2.77
396.143	2.62
396.508	2.72
396.872	2.97
397.236	2.54
397.601	2.57
397.965	2.91
398.329	2.94
398.694	2.7
399.058	2.66
399.422	2.97
399.786	2.95
400.15	2.65
400.514	2.83
400.878	2.89
401.242	3.09
401.605	2.98
401.969	2.91
402.333	2.79
402.697	2.79
403.06	2.8
403.424	2.58
403.787	2.91
404.151	2.76
404.514	2.95
404.878	3.18
405.241	2.85
405.604	2.78
405.968	3.07
406.331	2.79
406.694	3.04
407.057	2.76
407.42	2.9
407.783	2.77
408.146	2.87
408.509	2.82
408.872	3.18
409.235	3.07
409.598	2.72
409.961	2.86
410.323	2.87
410.686	3.14
411.049	2.99
411.411	2.77
411.774	2.79
412.136	2.97
412.499	2.86
412.861	2.91
413.223	2.93
413.586	2.88
413.948	2.78
414.31	2.8
414.672	3.02
415.035	2.95
415.397	2.89
415.759	3.12
416.121	3
416.483	2.79
416.845	2.91
417.206	2.84
417.568	2.73
417.93	2.8
418.292	2.81
418.653	2.7
419.015	2.86
419.377	3.03
419.738	2.94
420.1	2.82
420.461	2.72
420.822	2.86
421.184	2.74
421.545	2.73
421.906	2.8
422.267	2.88
422.629	2.87
422.99	2.86
423.351	2.8
423.712	2.84
424.073	2.88
424.434	2.8
424.795	3.01
425.155	2.86
425.516	2.86
425.877	2.86
426.238	2.82
426.598	2.85
426.959	2.82
427.32	2.89
427.68	2.94
428.041	3.12
428.401	2.9
428.761	2.82
429.122	3.02
429.482	3.03
429.842	2.96
430.202	2.89
430.563	2.78
430.923	2.96
431.283	2.97
431.643	3.03
432.003	3.18
432.363	3.05
432.722	3.09
433.082	2.98
433.442	2.92
433.802	3.02
434.161	2.96
434.521	2.92
434.881	2.88
435.24	3.05
435.6	2.86
435.959	2.92
436.319	3
436.678	2.87
437.037	2.9
437.396	2.81
437.756	2.87
438.115	2.81
438.474	2.84
438.833	2.92
439.192	3.11
439.551	2.93
439.91	2.96
440.269	2.93
440.628	2.93
440.987	3.11
441.345	2.91
441.704	2.9
442.063	3.03
442.421	2.94
442.78	2.94
443.138	2.88
443.497	3.06
443.855	2.94
444.214	2.94
444.572	3.01
444.93	2.95
445.288	3.06
445.647	2.83
446.005	2.96
446.363	2.92
446.721	2.81
447.079	2.91
447.437	2.91
447.795	2.82
448.153	2.92
448.51	2.83
448.868	2.95
449.226	2.95
449.584	3.04
449.941	2.97
450.299	2.99
450.656	3.01
451.014	3.02
451.371	3.02
451.729	2.95
452.086	3.05
452.443	3.15
452.801	3.01
453.158	2.99
453.515	2.79
453.872	2.98
454.229	2.9
454.586	3.04
454.943	3.01
455.3	2.97
455.657	3.11
456.014	2.93
456.371	2.97
456.727	3.09
457.084	3
457.441	3.03
457.797	2.99
458.154	3
458.51	3.1
458.867	2.96
459.223	2.96
459.58	3.06
459.936	3.14
460.292	3.12
460.648	2.93
461.005	3.02
461.361	3.03
461.717	2.9
462.073	3.08
462.429	3.11
462.785	2.95
463.141	2.99
463.496	3.12
463.852	3.06
464.208	3.11
464.564	3.05
464.919	3
465.275	3.08
465.631	3.18
465.986	3.12
466.342	3.07
466.697	3.06
467.052	3.06
467.408	3.05
467.763	3.03
468.118	3.15
468.473	2.98
468.829	2.98
469.184	3.14
469.539	3.1
469.894	3.11
470.249	3.13
470.603	2.96
470.958	3.04
471.313	3.01
471.668	3.05
472.023	3.15
472.377	3.2
472.732	3.2
473.086	3.17
473.441	3.17
473.795	3.1
474.15	3.09
474.504	3.25
474.859	3.27
475.213	3.13
475.567	3.15
475.921	3.22
476.275	3.1
476.63	3
476.984	3.19
477.338	3.09
477.692	3.07
478.045	3.01
478.399	2.9
478.753	3.06
479.107	3.17
479.461	3.09
479.814	3.16
480.168	3.1
480.521	3.15
480.875	3.1
481.228	3.13
481.582	3.15
481.935	3.2
482.289	3.12
482.642	3.05
482.995	3.12
483.348	2.94
483.701	3.03
484.055	3.02
484.408	3.04
484.761	2.9
485.114	2.88
485.466	2.76
485.819	2.8
486.172	2.86
486.525	2.99
486.878	3.01
487.23	3.01
487.583	3.09
487.936	3.05
488.288	2.95
488.641	2.98
488.993	2.88
489.345	2.89
489.698	2.88
490.05	2.92
490.402	2.96
490.754	3.03
491.107	3.03
491.459	3.11
491.811	3.04
492.163	3.06
492.515	3.05
492.866	2.96
493.218	2.85
493.57	2.84
493.922	2.98
494.274	3.06
494.625	3.07
494.977	3.08
495.328	3.09
495.68	3.03
496.031	3.13
496.383	3.19
496.734	3.24
497.086	3.13
497.437	3.02
497.788	3.24
498.139	3.04
498.49	3.01
498.842	3.1
499.193	3.05
499.544	3.07
499.894	3.18
500.245	3.15
500.596	3.07
500.947	3.08
501.298	3.18
501.648	3.23
501.999	3.07
502.35	3.17
502.7	3.14
503.051	3.1
503.401	3.13
503.752	3.01
504.102	3.1
504.452	3.21
504.803	3.21
505.153	3.15
505.503	3.09
505.853	3.14
506.203	3.23
506.553	3.24
506.903	3.12
507.253	3.15
507.603	3.19
507.953	3.16
508.303	3.14
508.652	2.95
509.002	3.05
509.352	3.18
509.701	3.1
510.051	3.21
510.4	3.06
510.75	3.09
511.099	3.11
511.449	3.13
511.798	3.06
512.147	3.17
512.496	3.1
512.846	3.03
513.195	3.09
513.544	3.17
513.893	3.1
514.242	3.23
514.591	3.04
514.939	3.14
515.288	3.17
515.637	3.16
515.986	3.23
516.334	3.17
516.683	3.25
517.032	3.12
517.38	3.19
517.729	3.18
518.077	3.06
518.426	3.13
518.774	3.02
519.122	3.06
519.47	2.98
519.819	3.13
520.167	2.99
520.515	3.08
520.863	3.05
521.211	3.19
521.559	3.16
521.907	3.14
522.255	3.22
522.602	3.17
522.95	3.17
523.298	3.09
523.645	3.2
523.993	3.21
524.341	3.17
524.688	3.05
525.036	3.14
525.383	3.12
525.73	3.15
526.078	3.13
526.425	3.04
526.772	3.16
527.119	3.05
527.466	3.05
527.814	2.98
528.161	2.98
528.508	3
528.854	3.07
529.201	3.07
529.548	3.07
529.895	2.88
530.242	2.94
530.588	2.9
530.935	2.92
531.282	3.06
531.628	3.04
531.975	3.08
532.321	3.06
532.667	3.08
533.014	3.12
533.36	3.05
533.706	3.07
534.052	3.04
534.399	2.99
534.745	3
535.091	2.88
535.437	2.96
535.783	3
536.129	3.08
536.474	3.18
536.82	3.02
537.166	3.1
537.512	3.17
537.857	3.1
538.203	3
538.549	2.99
538.894	3.06
539.239	3.01
539.585	3.08
539.93	3.2
540.276	3.13
540.621	3.08
540.966	3.21
541.311	3.14
541.656	2.91
542.001	3.09
542.346	3.07
542.691	2.95
543.036	2.93
543.381	2.9
543.726	2.97
544.071	3.02
544.415	3.07
544.76	3.08
545.105	3.16
545.449	3.11
545.794	2.99
546.138	3.17
546.483	3.16
546.827	3.18
547.171	3.18
547.516	2.9
547.86	3.05
548.204	3.03
548.548	3.01
548.892	3.08
549.236	3.1
549.58	3.22
549.924	3.1
550.268	3.27
550.612	3.18
550.956	3.13
551.3	3.23
551.643	3.22
551.987	3.08
552.33	3.17
552.674	3.24
553.017	3.17
553.361	3.24
553.704	3.14
554.048	2.92
554.391	3.19
554.734	3.09
555.077	3.24
555.42	3.19
555.764	3.14
556.107	3.12
556.45	3.02
556.793	3.15
557.135	3.19
557.478	3.1
557.821	3.23
558.164	3.18
558.507	3.15
558.849	3.19
559.192	3.33
559.534	3.13
559.877	3.28
560.219	3.31
560.562	3.07
560.904	3.15
561.246	2.9
561.589	3.25
561.931	3.13
562.273	3.2
562.615	3.15
562.957	3.21
563.299	3.17
563.641	3.21
563.983	3
564.325	3.06
564.667	3.14
565.008	3.21
565.35	3.17
565.692	3.09
566.033	3.12
566.375	3
566.716	3.14
567.058	3.21
567.399	3.08
567.741	3.1
568.082	3.13
568.423	3.18
568.764	3.15
569.105	3.24
569.447	3.1
569.788	3.24
570.129	3.19
570.47	3.06
570.811	3.21
571.151	3.14
571.492	3.26
571.833	3.2
572.174	3.18
572.514	3.07
572.855	3.16
573.195	2.96
573.536	3.16
573.876	3.05
574.217	3.17
574.557	3.03
574.898	3.18
575.238	3.1
575.578	3.08
575.918	3.08
576.258	3.17
576.598	3.19
576.938	2.95
577.278	3.1
577.618	3.18
577.958	3.22
578.298	3.24
578.638	3.23
578.977	3.21
579.317	3.08
579.657	3.29
579.996	3.08
580.336	3.18
580.675	3.25
581.014	3.2
581.354	3.25
581.693	3.15
582.032	3.18
582.372	3.34
582.711	3.23
583.05	2.97
583.389	3.23
583.728	3.13
584.067	3.24
584.406	3.14
584.745	3.06
585.083	3.28
585.422	3.1
585.761	3.28
586.1	3.24
586.438	3.12
586.777	3.27
587.115	3.2
587.454	3.28
587.792	3.14
588.13	3.23
588.469	3.03
588.807	3.32
589.145	3.13
589.483	3.24
589.821	3.01
590.159	3.01
590.497	3.15
590.835	3.13
591.173	3.25
591.511	3.07
591.849	3.03
592.187	3.16
592.524	3.39
592.862	3.35
593.2	3.41
593.537	2.78
593.875	3.5
594.212	3.21
594.55	3.33
594.887	3.21
595.224	3.04
595.561	3.19
595.899	3.19
596.236	3.25
596.573	3.03
596.91	3.21
597.247	2.99
597.584	3.06
597.921	3.02
598.258	3.07
598.594	3.06
598.931	3.11
599.268	3.12
599.604	3.23
599.941	3.21
600.277	2.89
600.614	3.27
600.95	3.34
601.287	3.2
601.623	3.28
601.959	2.93
602.296	3.18
602.632	3.28
602.968	3.06
603.304	3.11
603.64	3.03
603.976	3.26
604.312	3.22
604.648	2.97
604.984	3.24
605.319	3.11
605.655	3.13
605.991	3.16
606.326	3.13
606.662	2.98
606.998	3.11
607.333	3.19
607.668	3.29
608.004	3.21
608.339	3.39
608.674	3.06
609.01	3.04
609.345	3.14
609.68	3.45
610.015	2.93
610.35	3.3
610.685	3.1
611.02	3.22
611.355	2.95
611.689	3.13
612.024	3.22
612.359	3.1
612.694	3.13
613.028	3.28
613.363	3.25
613.697	3.22
614.032	3.21
614.366	3.07
614.7	2.98
615.035	3.11
615.369	3.29
615.703	3.42
616.037	3.29
616.371	3.08
616.705	3.4
617.039	3.19
617.373	3.15
617.707	3.15
618.041	3.03
618.375	3.53
618.709	3.19
619.042	3.35
619.376	3.12
619.71	2.94
620.043	3.01
620.377	3.42
620.71	3.03
621.043	3.32
621.377	2.85
621.71	3.4
622.043	3.06
622.376	3.36
622.709	2.99
623.043	2.86
623.376	3.01
623.709	2.98
624.041	3.19
624.374	3.41
624.707	3.22
625.04	3.23
625.373	3.1
625.705	3.19
626.038	3.35
626.37	2.97
626.703	3.2
627.035	3.23
627.368	2.99
627.7	2.99
628.032	3.04
628.365	3.45
628.697	3.21
629.029	3.26
629.361	2.95
629.693	2.99
630.025	3.19
630.357	2.97
630.689	3.18
631.021	3.03
631.353	3.08
631.684	3.31
632.016	3.17
632.348	3.18
632.679	3.22
633.011	3.25
633.342	3.13
633.674	3.44
634.005	3.18
634.336	3.15
634.668	3.12
634.999	2.9
635.33	3.23
635.661	3.07
635.992	3.21
636.323	3.42
636.654	3.47
636.985	3.32
637.316	3.13
637.647	3.08
637.977	3.03
638.308	3.14
638.639	2.95
638.969	3.48
639.3	3.13
639.63	3.38
639.961	3.06
640.291	3.16
640.622	3.12
640.952	3.1
641.282	3.22
641.612	3.08
641.943	3.25
642.273	2.97
642.603	2.85
642.933	2.89
643.263	2.79
643.592	3.1
643.922	3.11
644.252	3.17
644.582	3.21
644.911	3.6
645.241	3.46
645.571	3.15
645.9	3.28
646.23	3.04
646.559	3.11
646.888	3.27
647.218	2.72
647.547	3.27
647.876	2.81
648.205	3.17
648.534	3.27
648.863	3.39
649.192	3.32
649.521	3.47
649.85	3.09
650.179	2.81
650.508	3.01
650.837	3.72
651.165	3.5
651.494	3.35
651.822	2.86
652.151	2.9
652.479	3.6
652.808	3.39
653.136	3.15
653.465	3.5
653.793	3.6
654.121	3.41
654.449	3.1
654.777	2.67
655.105	3.46
655.433	2.8
655.761	2.91
656.089	3.11
656.417	3.19
656.745	3.4
657.073	3.49
657.4	3.07
657.728	3.46
658.056	2.5
658.383	2.97
658.711	3.62
659.038	3.33
659.365	3.04
659.693	2.63
660.02	3.32
660.347	3.1
660.674	2.75
661.001	3.07
661.329	3.21
661.656	3.25
661.982	3.32
662.309	3.26
662.636	3.22
662.963	3.27
663.29	3.41
663.616	3.81
663.943	3.3
664.27	3.39
664.596	3.43
664.923	3.5
665.249	3.25
665.576	3.47
665.902	2.82
666.228	3.42
666.554	3.05
666.881	3.09
667.207	2.88
667.533	3.63
667.859	2.72
668.185	3.02
668.511	3.1
668.837	3.38
669.162	2.89
669.488	3.26
669.814	3.13
670.139	3.66
670.465	3.28
670.791	2.65
671.116	3.1
671.442	3.25
671.767	3.22
672.092	2.97
672.418	3.07
672.743	3.21
673.068	3.12
673.393	3.05
673.718	3.49
674.043	3.62
674.368	2.97
674.693	3.67
675.018	3.35
675.343	3.2
675.667	3.32
675.992	3.42
676.317	3.19
676.641	3.76
676.966	2.42
677.29	2.77
677.615	3.61
677.939	3.83
678.264	2.89
678.588	4
678.912	3.39
679.236	3.09
679.56	3.84
679.885	3.27
680.209	3.49
680.532	3.13
680.856	3.75
681.18	3.16
681.504	3.31
681.828	2.69
682.152	3.65
682.475	3.06
682.799	3.1
683.122	3.46
683.446	3.4
683.769	3.81
684.093	3.48
684.416	2.97
684.739	3.43
685.062	3.17
685.386	3.42
685.709	3.92
686.032	3.41
686.355	2.78
686.678	3.08
687.001	3.63
687.324	3.35
687.646	3.59
687.969	2.69
688.292	3.72
688.614	3.11
688.937	3.4
689.26	3.19
689.582	3.59
689.904	3.67
690.227	3.78
690.549	3.47
690.871	3.11
691.194	3.59
691.516	3.21
691.838	2.97
692.16	3.15
692.482	3.59
692.804	3.07
