Data from 1697-1_crown_Reflection__4__120.txt Node

Date: Fri Nov 11 17:02:38 CST 2022
User: ToomeyLab
Spectrometer: FLMS14357
Trigger mode: 0
Integration Time (sec): 1.000000E-2
Scans to average: 100
Electric dark correction enabled: true
Nonlinearity correction enabled: false
Boxcar width: 0
XAxis mode: Wavelengths
Number of Pixels in Spectrum: 2048
>>>>>Begin Spectral Data<<<<<
189.047	51.33
189.435	51.33
189.823	51.33
190.211	-2690.32
190.599	-325.67
190.987	451.28
191.375	-8.99
191.763	83.23
192.151	161.94
192.538	132.22
192.926	-48.29
193.314	74.84
193.702	-713.57
194.089	-144.8
194.477	711.7
194.864	-13.83
195.252	148.69
195.639	54.97
196.027	39.38
196.414	68.87
196.801	-97.8
197.189	1.14
197.576	-58.75
197.963	19.59
198.351	4.53
198.738	-61.45
199.125	20.17
199.512	16.13
199.899	9.49
200.286	7.25
200.673	9.81
201.06	21.43
201.447	60.88
201.833	29.26
202.22	33.65
202.607	29.32
202.994	-2.43
203.38	5.97
203.767	9.99
204.154	-110.89
204.54	20.99
204.927	-7.06
205.313	19.8
205.699	12.27
206.086	58.51
206.472	33.83
206.858	-5.87
207.245	10.63
207.631	61.6
208.017	17.43
208.403	11.62
208.789	-41.03
209.175	19.51
209.561	9.83
209.947	31.69
210.333	2.97
210.719	36.28
211.105	-19.9
211.491	-81.37
211.876	27.39
212.262	6.65
212.648	-0.2
213.034	-13.23
213.419	4.09
213.805	1.05
214.19	-49.77
214.576	18.78
214.961	9.81
215.346	-19.34
215.732	-28.02
216.117	31.43
216.502	14.43
216.888	-0.2
217.273	24.09
217.658	14.27
218.043	-4.8
218.428	-15.53
218.813	12.55
219.198	-20.77
219.583	11.25
219.968	22.02
220.353	-7.06
220.738	-3.58
221.122	3.45
221.507	11.63
221.892	20.11
222.276	7.09
222.661	-4.38
223.046	6.61
223.43	5.53
223.815	4.43
224.199	10.47
224.583	1.94
224.968	15.67
225.352	-1.88
225.736	6.88
226.121	-2.83
226.505	2.36
226.889	1.79
227.273	4.93
227.657	-2.77
228.041	0.64
228.425	5.56
228.809	6.16
229.193	1.75
229.577	5.9
229.961	3.13
230.344	5.58
230.728	4.05
231.112	3.57
231.495	4.13
231.879	3.81
232.263	3.8
232.646	3.16
233.03	4.24
233.413	3.02
233.797	3.81
234.18	5.02
234.563	2.88
234.946	2.45
235.33	4.42
235.713	3.68
236.096	3.54
236.479	5.08
236.862	4.28
237.245	5.01
237.628	4.86
238.011	4.82
238.394	4.7
238.777	4.19
239.16	4.26
239.543	4.65
239.925	6.91
240.308	2.71
240.691	2.8
241.073	2.71
241.456	2.46
241.838	4.49
242.221	4.05
242.603	4.69
242.986	3.93
243.368	3.64
243.75	4.33
244.133	3.81
244.515	4.41
244.897	4.01
245.279	3.79
245.661	3.81
246.043	4.21
246.425	4.4
246.807	4.44
247.189	3.22
247.571	2.5
247.953	3.76
248.335	4.35
248.717	3.88
249.098	4.19
249.48	4
249.862	4.08
250.243	3.56
250.625	4.08
251.006	4.41
251.388	3.7
251.769	3.81
252.151	3.66
252.532	4.76
252.913	4.43
253.295	4.12
253.676	4.29
254.057	3.77
254.438	4.06
254.819	3.67
255.2	4.57
255.581	4.13
255.962	3.38
256.343	4.4
256.724	3.49
257.105	3.43
257.486	4.18
257.867	3.99
258.247	4.91
258.628	3.44
259.009	3.76
259.389	4.71
259.77	3.9
260.15	4.27
260.531	3.25
260.911	4
261.292	3.62
261.672	3.8
262.052	3.9
262.432	4.28
262.813	3.75
263.193	4.04
263.573	4.28
263.953	4.19
264.333	4.12
264.713	3.26
265.093	4.31
265.473	4.52
265.853	3.55
266.233	4.18
266.612	2.49
266.992	3.36
267.372	4.06
267.752	4.3
268.131	3.83
268.511	4.01
268.89	4.14
269.27	4.08
269.649	3.46
270.029	3.43
270.408	3.69
270.787	4.14
271.167	3.53
271.546	3.91
271.925	4.4
272.304	3.93
272.683	3.56
273.062	3.86
273.441	3.66
273.82	3.58
274.199	4.07
274.578	3.96
274.957	3.27
275.336	3.63
275.715	3.57
276.093	4.63
276.472	3.35
276.851	3.81
277.229	3.53
277.608	3.95
277.986	3.79
278.365	4.16
278.743	3.23
279.122	3.21
279.5	3.51
279.878	3.22
280.257	4.04
280.635	4.08
281.013	4.31
281.391	3.56
281.769	4.29
282.147	3.26
282.525	3.58
282.903	3.77
283.281	3.5
283.659	3.68
284.037	3.64
284.415	3.42
284.792	3.71
285.17	3.49
285.548	3.61
285.925	3.75
286.303	3.49
286.68	3.57
287.058	3.69
287.435	3.74
287.813	3.45
288.19	3.59
288.567	3.49
288.945	2.88
289.322	3.45
289.699	3.66
290.076	3.25
290.453	3.72
290.83	3.75
291.207	3.46
291.584	3.37
291.961	3.43
292.338	3.64
292.715	3.59
293.092	3.36
293.469	4.12
293.845	3.94
294.222	4.02
294.599	3.82
294.975	3.71
295.352	3.44
295.728	3.55
296.105	3.28
296.481	3.36
296.858	3.67
297.234	3.64
297.61	3.69
297.986	2.9
298.363	3.47
298.739	3.58
299.115	3.27
299.491	3.4
299.867	3.07
300.243	3.17
300.619	3.62
300.995	3.62
301.371	3.15
301.746	3.57
302.122	3.02
302.498	3.14
302.874	3.35
303.249	3.18
303.625	3.38
304	3.34
304.376	3.52
304.751	3.92
305.127	3.54
305.502	4.03
305.878	3.77
306.253	3.43
306.628	3.67
307.003	3.58
307.378	3.8
307.754	3.5
308.129	3.69
308.504	3.56
308.879	3.59
309.254	3.04
309.629	3.41
310.003	3.4
310.378	2.78
310.753	3.58
311.128	3.53
311.502	2.97
311.877	3.66
312.252	3.3
312.626	3.2
313.001	3.45
313.375	3.59
313.75	3.48
314.124	3.33
314.498	3.34
314.873	3.03
315.247	2.94
315.621	3.3
315.995	2.77
316.369	3.39
316.743	3.36
317.117	3.67
317.491	3.15
317.865	3.55
318.239	3.49
318.613	3.32
318.987	3.75
319.361	3.25
319.734	2.72
320.108	3.82
320.482	3.01
320.855	2.79
321.229	3.68
321.602	3
321.976	2.92
322.349	3.73
322.723	3.16
323.096	4.11
323.469	3.41
323.843	3.91
324.216	3.41
324.589	3.45
324.962	2.87
325.335	3.68
325.708	3.41
326.081	3.36
326.454	3.36
326.827	3.7
327.2	2.91
327.573	3.66
327.945	3.35
328.318	3.49
328.691	3.71
329.063	3.33
329.436	3.37
329.809	3.27
330.181	3.94
330.553	3.78
330.926	3.03
331.298	3.23
331.671	3.53
332.043	3.71
332.415	3.28
332.787	3.48
333.159	3.46
333.532	3.06
333.904	3.27
334.276	4.02
334.648	3.08
335.02	3.59
335.391	3.85
335.763	3.39
336.135	3.54
336.507	3.73
336.879	3.36
337.25	2.93
337.622	3.38
337.993	3.24
338.365	3.29
338.736	3.03
339.108	3.19
339.479	3.31
339.851	2.8
340.222	3.26
340.593	2.9
340.964	3.38
341.336	3.23
341.707	3.27
342.078	3.1
342.449	3.27
342.82	3.24
343.191	3.62
343.562	3.56
343.933	3.08
344.303	3.84
344.674	3.81
345.045	3.36
345.416	3.47
345.786	3.19
346.157	3.54
346.527	3.71
346.898	3.17
347.268	3.56
347.639	3.58
348.009	3.31
348.38	3.41
348.75	3.81
349.12	3.47
349.49	3.45
349.861	3.21
350.231	3.17
350.601	3.72
350.971	3.4
351.341	3.78
351.711	3.18
352.081	2.85
352.45	3.62
352.82	3.46
353.19	3.19
353.56	3.4
353.929	3.74
354.299	3.94
354.669	3.26
355.038	3.4
355.408	3.28
355.777	3.62
356.147	3.74
356.516	3.7
356.885	3.33
357.254	3.32
357.624	3.41
357.993	3.44
358.362	3.44
358.731	3.08
359.1	3.21
359.469	3.41
359.838	3.54
360.207	3.49
360.576	3.63
360.945	3.99
361.314	3.78
361.682	3.39
362.051	3.53
362.42	3.35
362.788	3.44
363.157	3.58
363.525	3.62
363.894	3.37
364.262	3.26
364.631	3.42
364.999	3.38
365.367	3.66
365.735	3.68
366.104	3.38
366.472	3.5
366.84	3.7
367.208	3.55
367.576	3.49
367.944	3.53
368.312	3.41
368.68	3.51
369.048	3.28
369.416	3.43
369.783	3.51
370.151	3.6
370.519	3.88
370.886	3.48
371.254	3.65
371.621	3.51
371.989	3.32
372.356	3.39
372.724	3.81
373.091	3.59
373.458	3.3
373.826	3.71
374.193	3.33
374.56	3.57
374.927	3.62
375.294	3.77
375.661	3.91
376.028	3.39
376.395	3.8
376.762	3.59
377.129	3.69
377.496	3.75
377.863	3.31
378.229	3.85
378.596	3.73
378.963	3.35
379.329	3.62
379.696	3.83
380.062	3.79
380.429	3.48
380.795	3.6
381.161	3.78
381.528	3.99
381.894	3.7
382.26	3.74
382.626	3.75
382.993	3.66
383.359	3.71
383.725	3.65
384.091	3.52
384.457	3.58
384.823	3.74
385.188	4.11
385.554	3.54
385.92	3.68
386.286	3.61
386.651	3.68
387.017	3.46
387.383	3.88
387.748	3.45
388.114	3.49
388.479	3.78
388.845	3.56
389.21	3.79
389.575	3.85
389.94	3.82
390.306	3.55
390.671	3.74
391.036	3.78
391.401	3.95
391.766	3.69
392.131	3.61
392.496	3.98
392.861	3.72
393.226	3.58
393.591	3.68
393.956	3.89
394.32	3.97
394.685	3.99
395.05	3.99
395.414	3.91
395.779	3.86
396.143	4.02
396.508	3.75
396.872	3.75
397.236	3.8
397.601	3.77
397.965	3.73
398.329	3.84
398.694	3.73
399.058	3.69
399.422	3.88
399.786	4.13
400.15	3.9
400.514	3.72
400.878	3.84
401.242	3.93
401.605	3.85
401.969	4.1
402.333	3.8
402.697	3.89
403.06	3.9
403.424	3.49
403.787	3.79
404.151	3.8
404.514	3.71
404.878	3.95
405.241	3.77
405.604	3.6
405.968	4.06
406.331	3.81
406.694	3.95
407.057	3.87
407.42	3.81
407.783	4.01
408.146	4.01
408.509	3.88
408.872	4.03
409.235	4.17
409.598	3.58
409.961	3.8
410.323	4.25
410.686	3.98
411.049	3.91
411.411	3.79
411.774	3.98
412.136	3.89
412.499	3.91
412.861	3.86
413.223	3.99
413.586	3.96
413.948	4.08
414.31	4.15
414.672	4.07
415.035	4.07
415.397	4.06
415.759	3.95
416.121	4.05
416.483	3.89
416.845	4.02
417.206	4.2
417.568	3.92
417.93	4.02
418.292	3.89
418.653	3.96
419.015	3.8
419.377	4.08
419.738	4.08
420.1	3.8
420.461	3.91
420.822	3.86
421.184	3.83
421.545	3.88
421.906	3.84
422.267	3.91
422.629	3.83
422.99	3.78
423.351	3.84
423.712	3.82
424.073	4.04
424.434	3.89
424.795	3.96
425.155	3.9
425.516	4
425.877	3.92
426.238	3.9
426.598	3.81
426.959	3.84
427.32	4.02
427.68	3.87
428.041	4
428.401	3.89
428.761	3.94
429.122	4.06
429.482	4.14
429.842	3.97
430.202	3.87
430.563	4.1
430.923	4.09
431.283	4.08
431.643	4.3
432.003	4.17
432.363	4.04
432.722	4.05
433.082	4.07
433.442	4.01
433.802	4.22
434.161	4.12
434.521	4.21
434.881	3.85
435.24	4.04
435.6	4.08
435.959	4.01
436.319	4.02
436.678	3.82
437.037	4.08
437.396	3.99
437.756	4.02
438.115	3.87
438.474	3.97
438.833	4.02
439.192	4.13
439.551	4.02
439.91	4.12
440.269	4.03
440.628	4.07
440.987	4.14
441.345	4.06
441.704	4.05
442.063	4.18
442.421	3.93
442.78	4.08
443.138	4.05
443.497	3.98
443.855	4.04
444.214	3.92
444.572	4.14
444.93	4.08
445.288	4.23
445.647	4.08
446.005	4.13
446.363	4.02
446.721	3.91
447.079	4.06
447.437	4.03
447.795	3.89
448.153	3.99
448.51	3.99
448.868	4.01
449.226	4
449.584	4.13
449.941	4.06
450.299	4.07
450.656	4.12
451.014	4.13
451.371	4.11
451.729	4.15
452.086	4.13
452.443	4.21
452.801	4.16
453.158	4.11
453.515	4.05
453.872	4.23
454.229	4.24
454.586	4.13
454.943	4.18
455.3	4.2
455.657	4.09
456.014	4.05
456.371	4.09
456.727	4.14
457.084	4.06
457.441	4.14
457.797	4.12
458.154	4.34
458.51	4.15
458.867	4.19
459.223	4.12
459.58	4.12
459.936	4.24
460.292	4.15
460.648	4.12
461.005	4.13
461.361	4.11
461.717	4.05
462.073	4.11
462.429	4.22
462.785	4.05
463.141	4.12
463.496	4.17
463.852	4.15
464.208	4.4
464.564	4.24
464.919	4.14
465.275	4.11
465.631	4.38
465.986	4.28
466.342	4.35
466.697	4.26
467.052	4.35
467.408	4.18
467.763	4.23
468.118	4.32
468.473	4.33
468.829	4.26
469.184	4.38
469.539	4.25
469.894	4.32
470.249	4.17
470.603	4.24
470.958	4.4
471.313	4.33
471.668	4.17
472.023	4.38
472.377	4.39
472.732	4.4
473.086	4.19
473.441	4.41
473.795	4.19
474.15	4.3
474.504	4.41
474.859	4.42
475.213	4.36
475.567	4.42
475.921	4.5
476.275	4.36
476.63	4.26
476.984	4.29
477.338	4.22
477.692	4.14
478.045	4.25
478.399	4.15
478.753	4.33
479.107	4.29
479.461	4.24
479.814	4.31
480.168	4.28
480.521	4.4
480.875	4.38
481.228	4.28
481.582	4.38
481.935	4.43
482.289	4.4
482.642	4.35
482.995	4.36
483.348	4.17
483.701	4.33
484.055	4.2
484.408	4.2
484.761	4.1
485.114	4.1
485.466	3.97
485.819	4.03
486.172	4.04
486.525	4.08
486.878	4.12
487.23	4.13
487.583	4.19
487.936	4.15
488.288	4.19
488.641	4.22
488.993	4.12
489.345	4.09
489.698	4.11
490.05	4.09
490.402	4.15
490.754	4.23
491.107	4.21
491.459	4.32
491.811	4.24
492.163	4.33
492.515	4.29
492.866	4.19
493.218	4.14
493.57	4.17
493.922	4.16
494.274	4.22
494.625	4.13
494.977	4.24
495.328	4.31
495.68	4.3
496.031	4.37
496.383	4.48
496.734	4.37
497.086	4.34
497.437	4.29
497.788	4.42
498.139	4.31
498.49	4.36
498.842	4.37
499.193	4.34
499.544	4.32
499.894	4.39
500.245	4.34
500.596	4.46
500.947	4.45
501.298	4.55
501.648	4.5
501.999	4.46
502.35	4.39
502.7	4.52
503.051	4.51
503.401	4.34
503.752	4.39
504.102	4.38
504.452	4.38
504.803	4.49
505.153	4.56
505.503	4.39
505.853	4.39
506.203	4.52
506.553	4.52
506.903	4.49
507.253	4.59
507.603	4.46
507.953	4.52
508.303	4.57
508.652	4.42
509.002	4.42
509.352	4.4
509.701	4.33
510.051	4.43
510.4	4.3
510.75	4.4
511.099	4.44
511.449	4.44
511.798	4.29
512.147	4.44
512.496	4.45
512.846	4.51
513.195	4.28
513.544	4.43
513.893	4.45
514.242	4.54
514.591	4.55
514.939	4.43
515.288	4.5
515.637	4.46
515.986	4.6
516.334	4.5
516.683	4.52
517.032	4.49
517.38	4.52
517.729	4.59
518.077	4.44
518.426	4.62
518.774	4.44
519.122	4.47
519.47	4.44
519.819	4.47
520.167	4.41
520.515	4.45
520.863	4.42
521.211	4.48
521.559	4.42
521.907	4.48
522.255	4.5
522.602	4.52
522.95	4.54
523.298	4.45
523.645	4.61
523.993	4.51
524.341	4.59
524.688	4.55
525.036	4.51
525.383	4.53
525.73	4.46
526.078	4.55
526.425	4.4
526.772	4.46
527.119	4.42
527.466	4.44
527.814	4.38
528.161	4.35
528.508	4.39
528.854	4.38
529.201	4.42
529.548	4.45
529.895	4.37
530.242	4.26
530.588	4.28
530.935	4.24
531.282	4.36
531.628	4.35
531.975	4.37
532.321	4.42
532.667	4.44
533.014	4.41
533.36	4.36
533.706	4.44
534.052	4.44
534.399	4.35
534.745	4.42
535.091	4.37
535.437	4.41
535.783	4.41
536.129	4.47
536.474	4.52
536.82	4.46
537.166	4.57
537.512	4.52
537.857	4.55
538.203	4.52
538.549	4.43
538.894	4.48
539.239	4.53
539.585	4.44
539.93	4.5
540.276	4.49
540.621	4.58
540.966	4.6
541.311	4.52
541.656	4.35
542.001	4.63
542.346	4.55
542.691	4.41
543.036	4.37
543.381	4.34
543.726	4.39
544.071	4.37
544.415	4.41
544.76	4.4
545.105	4.55
545.449	4.45
545.794	4.5
546.138	4.51
546.483	4.53
546.827	4.5
547.171	4.54
547.516	4.43
547.86	4.55
548.204	4.52
548.548	4.44
548.892	4.57
549.236	4.6
549.58	4.64
549.924	4.54
550.268	4.71
550.612	4.66
550.956	4.57
551.3	4.8
551.643	4.75
551.987	4.53
552.33	4.66
552.674	4.61
553.017	4.63
553.361	4.66
553.704	4.71
554.048	4.69
554.391	4.58
554.734	4.54
555.077	4.75
555.42	4.68
555.764	4.71
556.107	4.7
556.45	4.47
556.793	4.78
557.135	4.65
557.478	4.63
557.821	4.71
558.164	4.71
558.507	4.7
558.849	4.41
559.192	4.76
559.534	4.89
559.877	4.87
560.219	4.66
560.562	4.55
560.904	4.73
561.246	4.7
561.589	4.79
561.931	4.74
562.273	4.72
562.615	4.6
562.957	4.68
563.299	4.72
563.641	4.53
563.983	4.62
564.325	4.67
564.667	4.7
565.008	4.7
565.35	4.59
565.692	4.49
566.033	4.84
566.375	4.71
566.716	4.74
567.058	4.63
567.399	4.77
567.741	4.67
568.082	4.62
568.423	4.61
568.764	4.73
569.105	4.61
569.447	4.77
569.788	4.73
570.129	4.76
570.47	4.64
570.811	4.83
571.151	4.74
571.492	4.79
571.833	4.61
572.174	4.78
572.514	4.83
572.855	4.61
573.195	4.68
573.536	4.72
573.876	4.61
574.217	4.68
574.557	4.59
574.898	4.64
575.238	4.85
575.578	4.75
575.918	4.55
576.258	4.66
576.598	4.75
576.938	4.72
577.278	4.84
577.618	4.71
577.958	4.68
578.298	4.7
578.638	4.7
578.977	4.71
579.317	4.63
579.657	4.62
579.996	4.8
580.336	4.72
580.675	4.7
581.014	4.78
581.354	4.71
581.693	4.69
582.032	4.87
582.372	4.78
582.711	4.86
583.05	4.75
583.389	4.97
583.728	4.72
584.067	4.83
584.406	4.78
584.745	4.79
585.083	4.91
585.422	4.86
585.761	4.86
586.1	4.59
586.438	4.63
586.777	4.78
587.115	4.84
587.454	4.96
587.792	4.65
588.13	5
588.469	4.8
588.807	4.81
589.145	4.84
589.483	4.87
589.821	4.86
590.159	4.66
590.497	4.87
590.835	4.72
591.173	4.81
591.511	4.76
591.849	4.82
592.187	4.8
592.524	4.81
592.862	5
593.2	5
593.537	4.48
593.875	4.9
594.212	4.81
594.55	4.9
594.887	4.75
595.224	4.63
595.561	4.66
595.899	4.67
596.236	4.74
596.573	4.74
596.91	4.62
597.247	4.71
597.584	4.74
597.921	4.55
598.258	4.64
598.594	4.74
598.931	4.7
599.268	4.72
599.604	4.68
599.941	4.68
600.277	4.65
600.614	4.97
600.95	4.63
601.287	4.63
601.623	4.86
601.959	4.74
602.296	4.74
602.632	4.76
602.968	4.72
603.304	4.68
603.64	4.81
603.976	4.86
604.312	4.69
604.648	4.61
604.984	4.9
605.319	4.8
605.655	4.75
605.991	4.77
606.326	4.73
606.662	4.7
606.998	4.64
607.333	4.92
607.668	4.82
608.004	4.71
608.339	4.87
608.674	5.04
609.01	4.58
609.345	4.59
609.68	4.91
610.015	4.85
610.35	4.77
610.685	4.89
611.02	4.96
611.355	4.61
611.689	4.71
612.024	4.95
612.359	4.54
612.694	4.65
613.028	4.55
613.363	4.7
613.697	4.92
614.032	4.86
614.366	4.56
614.7	4.66
615.035	4.96
615.369	5.11
615.703	4.79
616.037	5.12
616.371	4.6
616.705	4.82
617.039	4.55
617.373	5.12
617.707	4.64
618.041	4.88
618.375	5
618.709	4.82
619.042	4.95
619.376	4.7
619.71	4.74
620.043	4.87
620.377	4.94
620.71	4.61
621.043	5.04
621.377	4.85
621.71	5.04
622.043	4.73
622.376	4.46
622.709	5.16
623.043	4.56
623.376	4.81
623.709	4.75
624.041	5
624.374	5.15
624.707	4.79
625.04	4.82
625.373	5.03
625.705	4.78
626.038	4.78
626.37	4.76
626.703	4.89
627.035	4.88
627.368	4.51
627.7	4.76
628.032	4.85
628.365	5
628.697	4.9
629.029	4.81
629.361	4.66
629.693	4.92
630.025	4.62
630.357	4.72
630.689	4.85
631.021	4.88
631.353	4.7
631.684	5.09
632.016	5
632.348	4.84
632.679	4.96
633.011	4.54
633.342	4.73
633.674	4.87
634.005	4.88
634.336	4.72
634.668	4.67
634.999	4.54
635.33	4.72
635.661	4.97
635.992	4.69
636.323	5.17
636.654	5.12
636.985	4.8
637.316	4.71
637.647	4.89
637.977	4.81
638.308	4.77
638.639	4.87
638.969	5.21
639.3	4.61
639.63	4.91
639.961	5.17
640.291	5.04
640.622	4.86
640.952	4.54
641.282	4.89
641.612	5.06
641.943	4.93
642.273	5.07
642.603	4.73
642.933	4.52
643.263	4.74
643.592	4.88
643.922	4.6
644.252	4.86
644.582	5.18
644.911	4.9
645.241	5.35
645.571	4.94
645.9	5.16
646.23	4.9
646.559	4.54
646.888	5.08
647.218	4.73
647.547	4.88
647.876	4.86
648.205	5.39
648.534	4.67
648.863	4.95
649.192	5.09
649.521	5.31
649.85	5.13
650.179	4.95
650.508	5.12
650.837	5.4
651.165	5.27
651.494	5.26
651.822	4.67
652.151	4.87
652.479	4.85
652.808	4.96
653.136	4.83
653.465	5.12
653.793	5.27
654.121	5.03
654.449	4.88
654.777	5.1
655.105	5.08
655.433	4.54
655.761	4.96
656.089	4.76
656.417	5.29
656.745	4.97
657.073	4.7
657.4	4.72
657.728	5.45
658.056	4.97
658.383	5.07
658.711	5.31
659.038	5.17
659.365	5
659.693	4.96
660.02	5.38
660.347	5.35
660.674	4.68
661.001	4.95
661.329	4.96
661.656	4.93
661.982	5.18
662.309	4.87
662.636	5.11
662.963	4.71
663.29	5.06
663.616	5.19
663.943	5.06
664.27	4.88
664.596	5.13
664.923	5.51
665.249	5.42
665.576	5.22
665.902	5.33
666.228	5.41
666.554	4.52
666.881	4.82
667.207	4.52
667.533	5.57
667.859	4.56
668.185	5.03
668.511	4.84
668.837	4.95
669.162	5.24
669.488	5.11
669.814	4.9
670.139	5.54
670.465	5.27
670.791	5.05
671.116	4.86
671.442	4.85
671.767	5.15
672.092	4.81
672.418	5.05
672.743	5.01
673.068	4.71
673.393	5.03
673.718	5.18
674.043	5.28
674.368	5.15
674.693	5.16
675.018	5.15
675.343	5.24
675.667	5.37
675.992	4.98
676.317	5.25
676.641	5.68
676.966	4.84
677.29	4.54
677.615	5.57
677.939	5.75
678.264	5.31
678.588	5.85
678.912	5.06
679.236	5.14
679.56	5.65
679.885	5.28
680.209	5.2
680.532	5.18
680.856	5.85
681.18	5.15
681.504	5.42
681.828	4.57
682.152	5.62
682.475	4.98
682.799	5.13
683.122	5.24
683.446	5.51
683.769	5.54
684.093	5.17
684.416	5.85
684.739	4.94
685.062	4.94
685.386	4.98
685.709	5.47
686.032	5.27
686.355	5.05
686.678	5.14
687.001	5.95
687.324	5.39
687.646	4.96
687.969	4.82
688.292	5.62
688.614	4.94
688.937	5.01
689.26	5.23
689.582	5.75
689.904	4.66
690.227	5.69
690.549	4.9
690.871	5.2
691.194	5.27
691.516	5.81
691.838	4.77
692.16	4.97
692.482	5.38
692.804	5.39
