Data from 1697-1_crown_Reflection__2__118.txt Node

Date: Fri Nov 11 17:02:17 CST 2022
User: ToomeyLab
Spectrometer: FLMS14357
Trigger mode: 0
Integration Time (sec): 1.000000E-2
Scans to average: 100
Electric dark correction enabled: true
Nonlinearity correction enabled: false
Boxcar width: 0
XAxis mode: Wavelengths
Number of Pixels in Spectrum: 2048
>>>>>Begin Spectral Data<<<<<
189.047	85.98
189.435	85.98
189.823	85.98
190.211	3741.94
190.599	-464.21
190.987	403.41
191.375	141.92
191.763	48.84
192.151	105.2
192.538	-173.91
192.926	104.06
193.314	115.35
193.702	-71.14
194.089	25.71
194.477	190.95
194.864	-6.61
195.252	186.92
195.639	80.85
196.027	17.21
196.414	37.48
196.801	463.35
197.189	76.03
197.576	130.05
197.963	16.99
198.351	35.69
198.738	-65.86
199.125	12.2
199.512	-0.73
199.899	6.34
200.286	10.54
200.673	9.44
201.06	-48.14
201.447	46.48
201.833	13.84
202.22	-5.03
202.607	27.52
202.994	9.96
203.38	0.07
203.767	-11.9
204.154	-72.78
204.54	-6.71
204.927	-35.48
205.313	21.73
205.699	15.93
206.086	-8.04
206.472	4.15
206.858	-17.61
207.245	-5.39
207.631	44.29
208.017	-14.69
208.403	-2.18
208.789	-65.54
209.175	2.65
209.561	9.7
209.947	22.62
210.333	9.97
210.719	-1.55
211.105	1.08
211.491	-118.19
211.876	7.14
212.262	-29.3
212.648	5.83
213.034	-23.77
213.419	-4.63
213.805	-2.58
214.19	-72.18
214.576	2.45
214.961	-15.84
215.346	-65.52
215.732	-59.75
216.117	37.64
216.502	-0.42
216.888	23.73
217.273	-9.25
217.658	-19.89
218.043	6.06
218.428	-48.97
218.813	42.87
219.198	-31.39
219.583	0.91
219.968	-2.42
220.353	-45.53
220.738	-9.24
221.122	0.33
221.507	6.38
221.892	4.07
222.276	8.66
222.661	3.44
223.046	5.9
223.43	6.62
223.815	2.78
224.199	4.1
224.583	-5.93
224.968	2.28
225.352	-0.08
225.736	-4.4
226.121	2.54
226.505	0.72
226.889	0.19
227.273	5.93
227.657	-2.73
228.041	5.27
228.425	4.28
228.809	8.11
229.193	3.18
229.577	3.77
229.961	1.79
230.344	4.22
230.728	3.34
231.112	4.18
231.495	4.44
231.879	4.18
232.263	2.55
232.646	2.46
233.03	2.78
233.413	2.45
233.797	1.67
234.18	2.94
234.563	3.18
234.946	2.61
235.33	3.82
235.713	4.17
236.096	1.96
236.479	2.65
236.862	5.45
237.245	3.35
237.628	3.78
238.011	2.32
238.394	3.89
238.777	3.33
239.16	2.47
239.543	4.44
239.925	4.87
240.308	1.32
240.691	2.65
241.073	1.84
241.456	1.89
241.838	2.71
242.221	3.03
242.603	3.02
242.986	3.39
243.368	3.29
243.75	4
244.133	3.39
244.515	3.69
244.897	3.04
245.279	2.94
245.661	2.76
246.043	3.66
246.425	3.61
246.807	3.28
247.189	2.4
247.571	2.58
247.953	3.23
248.335	3.58
248.717	3.42
249.098	3.42
249.48	3.6
249.862	3.29
250.243	3.35
250.625	3.5
251.006	3.51
251.388	2.28
251.769	3.24
252.151	3.02
252.532	3.6
252.913	3.17
253.295	3.25
253.676	3.45
254.057	3.29
254.438	3.32
254.819	3.53
255.2	3
255.581	3.61
255.962	2.12
256.343	3.57
256.724	3.44
257.105	2.84
257.486	3.7
257.867	3
258.247	3.66
258.628	2.16
259.009	3.69
259.389	3.86
259.77	3.75
260.15	3.51
260.531	2.77
260.911	2.96
261.292	3.36
261.672	3.29
262.052	3.38
262.432	3.78
262.813	3.37
263.193	3.57
263.573	3.44
263.953	2.83
264.333	3.65
264.713	2.47
265.093	3.38
265.473	3.93
265.853	2.51
266.233	2.67
266.612	2.71
266.992	3.38
267.372	4.01
267.752	3.18
268.131	3.16
268.511	3.63
268.89	3.85
269.27	2.99
269.649	2.8
270.029	2.71
270.408	3.28
270.787	3.64
271.167	3.16
271.546	3.86
271.925	3.48
272.304	3.52
272.683	3
273.062	3.25
273.441	3.12
273.82	2.91
274.199	3.37
274.578	3.57
274.957	2.98
275.336	3.45
275.715	3.36
276.093	3.75
276.472	3.18
276.851	2.8
277.229	3.45
277.608	3.14
277.986	3.19
278.365	3.67
278.743	3.26
279.122	2.66
279.5	3.2
279.878	2.97
280.257	3.21
280.635	2.83
281.013	3.14
281.391	3.55
281.769	3.45
282.147	2.8
282.525	2.8
282.903	3.12
283.281	2.8
283.659	2.68
284.037	3.32
284.415	3.32
284.792	3.13
285.17	2.67
285.548	3.37
285.925	3.23
286.303	2.91
286.68	2.95
287.058	3.17
287.435	3.2
287.813	3.11
288.19	3.22
288.567	3.34
288.945	2.81
289.322	2.86
289.699	2.81
290.076	3.09
290.453	2.8
290.83	3.69
291.207	3.01
291.584	2.95
291.961	2.78
292.338	3.21
292.715	2.64
293.092	2.67
293.469	2.85
293.845	3.05
294.222	3.67
294.599	3.64
294.975	2.97
295.352	2.46
295.728	2.89
296.105	3.18
296.481	2.48
296.858	3.08
297.234	3.3
297.61	2.5
297.986	2.44
298.363	3.01
298.739	3.23
299.115	2.75
299.491	3.04
299.867	2.72
300.243	2.79
300.619	2.85
300.995	2.86
301.371	2.55
301.746	2.75
302.122	2.88
302.498	2.71
302.874	2.98
303.249	2.74
303.625	2.69
304	2.65
304.376	3.02
304.751	3.17
305.127	2.82
305.502	2.92
305.878	3.29
306.253	2.71
306.628	3.18
307.003	3.04
307.378	3.12
307.754	3.24
308.129	3.43
308.504	3.14
308.879	2.52
309.254	2.06
309.629	2.71
310.003	2.89
310.378	2.32
310.753	2.29
311.128	2.92
311.502	2.23
311.877	2.86
312.252	2.79
312.626	2.37
313.001	2.81
313.375	2.85
313.75	3.2
314.124	2.84
314.498	2.73
314.873	2.63
315.247	2.88
315.621	2.87
315.995	2.86
316.369	2.75
316.743	3.15
317.117	2.57
317.491	2.92
317.865	2.87
318.239	3.17
318.613	3.05
318.987	3.06
319.361	2.78
319.734	2.58
320.108	2.98
320.482	2.36
320.855	2.46
321.229	2.92
321.602	2.49
321.976	2.47
322.349	2.69
322.723	2.52
323.096	3.27
323.469	2.53
323.843	2.91
324.216	2.68
324.589	2.74
324.962	2.65
325.335	3.2
325.708	2.69
326.081	2.57
326.454	2.67
326.827	2.85
327.2	2.82
327.573	3.16
327.945	2.85
328.318	3.25
328.691	3.01
329.063	3.06
329.436	2.56
329.809	2.16
330.181	2.86
330.553	3.22
330.926	2.4
331.298	2.54
331.671	3.07
332.043	2.91
332.415	2.55
332.787	2.94
333.159	3.06
333.532	2.39
333.904	2.76
334.276	2.69
334.648	2.5
335.02	3.41
335.391	2.58
335.763	3.01
336.135	2.45
336.507	2.83
336.879	2.78
337.25	2.32
337.622	3.27
337.993	3.04
338.365	2.68
338.736	3.01
339.108	2.81
339.479	3.07
339.851	2.45
340.222	2.79
340.593	2.67
340.964	2.68
341.336	2.54
341.707	2.82
342.078	2.64
342.449	2.99
342.82	2.84
343.191	3.01
343.562	3.03
343.933	2.56
344.303	2.96
344.674	3.2
345.045	2.94
345.416	2.81
345.786	3.05
346.157	2.71
346.527	2.75
346.898	2.7
347.268	2.67
347.639	3.08
348.009	2.57
348.38	2.76
348.75	3.41
349.12	2.54
349.49	2.85
349.861	2.89
350.231	2.93
350.601	3.42
350.971	3
351.341	2.94
351.711	2.95
352.081	2.19
352.45	2.79
352.82	2.94
353.19	2.76
353.56	2.86
353.929	2.87
354.299	2.96
354.669	2.81
355.038	2.89
355.408	2.52
355.777	2.94
356.147	2.89
356.516	3
356.885	2.66
357.254	2.9
357.624	2.84
357.993	3.27
358.362	3.22
358.731	2.95
359.1	2.73
359.469	2.86
359.838	3.22
360.207	2.91
360.576	2.89
360.945	3.02
361.314	2.94
361.682	3.06
362.051	3.1
362.42	2.66
362.788	2.71
363.157	3.14
363.525	3.22
363.894	2.84
364.262	2.75
364.631	3.01
364.999	2.92
365.367	3.05
365.735	3.34
366.104	2.67
366.472	3.13
366.84	3.06
367.208	2.87
367.576	3.33
367.944	3.22
368.312	3.01
368.68	3.01
369.048	2.93
369.416	3.01
369.783	2.93
370.151	3
370.519	3.04
370.886	2.94
371.254	3.08
371.621	3.02
371.989	3.07
372.356	2.83
372.724	3.3
373.091	2.95
373.458	3.01
373.826	3.3
374.193	2.69
374.56	3.01
374.927	2.99
375.294	3.18
375.661	3.52
376.028	3.01
376.395	2.87
376.762	2.95
377.129	3.12
377.496	2.81
377.863	3.18
378.229	3.13
378.596	2.86
378.963	3.02
379.329	2.92
379.696	3.04
380.062	3.13
380.429	2.97
380.795	2.82
381.161	3.17
381.528	3.15
381.894	3.17
382.26	3.06
382.626	3.1
382.993	3.39
383.359	3.09
383.725	3.34
384.091	2.92
384.457	3.22
384.823	3.02
385.188	3.29
385.554	3.17
385.92	3.1
386.286	2.93
386.651	2.89
387.017	3.06
387.383	3.07
387.748	3.09
388.114	3.31
388.479	2.99
388.845	2.93
389.21	3.11
389.575	3.15
389.94	3.16
390.306	3.12
390.671	3.06
391.036	2.97
391.401	3
391.766	3.11
392.131	2.81
392.496	3.21
392.861	3.03
393.226	2.99
393.591	3.1
393.956	3.33
394.32	3.21
394.685	3.37
395.05	3.22
395.414	3.22
395.779	3
396.143	3.22
396.508	3.09
396.872	3.22
397.236	3.23
397.601	3.15
397.965	3.28
398.329	3.06
398.694	2.89
399.058	3.13
399.422	3.15
399.786	3.32
400.15	2.96
400.514	3.36
400.878	3.33
401.242	3.39
401.605	3.1
401.969	3.32
402.333	3.29
402.697	3.06
403.06	3.14
403.424	3.01
403.787	3.2
404.151	3.07
404.514	3.18
404.878	3.24
405.241	3.34
405.604	3.02
405.968	3.3
406.331	3.21
406.694	3.25
407.057	3.18
407.42	3.2
407.783	2.99
408.146	3.47
408.509	3.35
408.872	3.41
409.235	3.3
409.598	3.12
409.961	3.4
410.323	3.16
410.686	3.41
411.049	3.24
411.411	3.16
411.774	3.12
412.136	3.28
412.499	3.27
412.861	3.04
413.223	3.3
413.586	3.21
413.948	3.12
414.31	3.28
414.672	3.23
415.035	3.34
415.397	3.35
415.759	3.41
416.121	3.4
416.483	3.16
416.845	3.36
417.206	3.45
417.568	3.25
417.93	3.22
418.292	3.1
418.653	3.23
419.015	3.1
419.377	3.34
419.738	3.36
420.1	3.33
420.461	3.27
420.822	3.27
421.184	3.22
421.545	3.25
421.906	3.26
422.267	3.27
422.629	3.2
422.99	3.12
423.351	3.21
423.712	3.17
424.073	3.34
424.434	3.27
424.795	3.34
425.155	3.27
425.516	3.27
425.877	3.29
426.238	3.29
426.598	3.25
426.959	3.28
427.32	3.29
427.68	3.33
428.041	3.38
428.401	3.22
428.761	3.36
429.122	3.4
429.482	3.32
429.842	3.43
430.202	3.48
430.563	3.21
430.923	3.28
431.283	3.36
431.643	3.44
432.003	3.56
432.363	3.47
432.722	3.24
433.082	3.49
433.442	3.46
433.802	3.34
434.161	3.32
434.521	3.37
434.881	3.31
435.24	3.38
435.6	3.3
435.959	3.2
436.319	3.23
436.678	3.22
437.037	3.49
437.396	3.28
437.756	3.36
438.115	3.23
438.474	3.3
438.833	3.39
439.192	3.5
439.551	3.27
439.91	3.44
440.269	3.41
440.628	3.51
440.987	3.51
441.345	3.33
441.704	3.37
442.063	3.43
442.421	3.35
442.78	3.33
443.138	3.39
443.497	3.38
443.855	3.43
444.214	3.41
444.572	3.46
444.93	3.49
445.288	3.56
445.647	3.38
446.005	3.47
446.363	3.35
446.721	3.38
447.079	3.34
447.437	3.36
447.795	3.32
448.153	3.34
448.51	3.32
448.868	3.43
449.226	3.45
449.584	3.5
449.941	3.34
450.299	3.48
450.656	3.45
451.014	3.37
451.371	3.37
451.729	3.39
452.086	3.56
452.443	3.52
452.801	3.51
453.158	3.53
453.515	3.49
453.872	3.52
454.229	3.5
454.586	3.49
454.943	3.45
455.3	3.53
455.657	3.44
456.014	3.41
456.371	3.33
456.727	3.55
457.084	3.35
457.441	3.59
457.797	3.5
458.154	3.48
458.51	3.38
458.867	3.61
459.223	3.37
459.58	3.32
459.936	3.53
460.292	3.39
460.648	3.46
461.005	3.52
461.361	3.5
461.717	3.33
462.073	3.43
462.429	3.58
462.785	3.44
463.141	3.59
463.496	3.57
463.852	3.53
464.208	3.59
464.564	3.44
464.919	3.51
465.275	3.55
465.631	3.59
465.986	3.65
466.342	3.68
466.697	3.52
467.052	3.53
467.408	3.4
467.763	3.4
468.118	3.58
468.473	3.47
468.829	3.55
469.184	3.71
469.539	3.69
469.894	3.61
470.249	3.64
470.603	3.56
470.958	3.63
471.313	3.54
471.668	3.53
472.023	3.62
472.377	3.62
472.732	3.68
473.086	3.53
473.441	3.61
473.795	3.52
474.15	3.54
474.504	3.58
474.859	3.55
475.213	3.59
475.567	3.59
475.921	3.68
476.275	3.58
476.63	3.6
476.984	3.62
477.338	3.68
477.692	3.54
478.045	3.4
478.399	3.48
478.753	3.59
479.107	3.5
479.461	3.59
479.814	3.58
480.168	3.59
480.521	3.69
480.875	3.64
481.228	3.7
481.582	3.68
481.935	3.67
482.289	3.61
482.642	3.57
482.995	3.67
483.348	3.5
483.701	3.59
484.055	3.54
484.408	3.52
484.761	3.35
485.114	3.3
485.466	3.2
485.819	3.26
486.172	3.35
486.525	3.46
486.878	3.5
487.23	3.55
487.583	3.53
487.936	3.56
488.288	3.42
488.641	3.49
488.993	3.36
489.345	3.38
489.698	3.41
490.05	3.4
490.402	3.45
490.754	3.57
491.107	3.56
491.459	3.67
491.811	3.54
492.163	3.58
492.515	3.51
492.866	3.4
493.218	3.37
493.57	3.39
493.922	3.46
494.274	3.59
494.625	3.56
494.977	3.55
495.328	3.66
495.68	3.59
496.031	3.69
496.383	3.7
496.734	3.68
497.086	3.64
497.437	3.58
497.788	3.71
498.139	3.6
498.49	3.58
498.842	3.64
499.193	3.5
499.544	3.71
499.894	3.69
500.245	3.65
500.596	3.78
500.947	3.59
501.298	3.71
501.648	3.79
501.999	3.69
502.35	3.67
502.7	3.71
503.051	3.48
503.401	3.61
503.752	3.64
504.102	3.59
504.452	3.58
504.803	3.76
505.153	3.61
505.503	3.51
505.853	3.65
506.203	3.77
506.553	3.74
506.903	3.6
507.253	3.65
507.603	3.68
507.953	3.67
508.303	3.65
508.652	3.61
509.002	3.57
509.352	3.77
509.701	3.7
510.051	3.67
510.4	3.59
510.75	3.67
511.099	3.55
511.449	3.62
511.798	3.63
512.147	3.68
512.496	3.65
512.846	3.69
513.195	3.52
513.544	3.6
513.893	3.68
514.242	3.74
514.591	3.61
514.939	3.71
515.288	3.62
515.637	3.71
515.986	3.7
516.334	3.66
516.683	3.73
517.032	3.63
517.38	3.67
517.729	3.72
518.077	3.66
518.426	3.72
518.774	3.63
519.122	3.56
519.47	3.5
519.819	3.62
520.167	3.52
520.515	3.56
520.863	3.58
521.211	3.71
521.559	3.69
521.907	3.82
522.255	3.75
522.602	3.7
522.95	3.74
523.298	3.72
523.645	3.75
523.993	3.71
524.341	3.7
524.688	3.72
525.036	3.69
525.383	3.62
525.73	3.65
526.078	3.69
526.425	3.62
526.772	3.62
527.119	3.56
527.466	3.55
527.814	3.54
528.161	3.58
528.508	3.55
528.854	3.59
529.201	3.58
529.548	3.51
529.895	3.38
530.242	3.39
530.588	3.39
530.935	3.44
531.282	3.62
531.628	3.55
531.975	3.58
532.321	3.58
532.667	3.66
533.014	3.69
533.36	3.59
533.706	3.59
534.052	3.6
534.399	3.52
534.745	3.51
535.091	3.42
535.437	3.5
535.783	3.58
536.129	3.59
536.474	3.7
536.82	3.54
537.166	3.71
537.512	3.67
537.857	3.67
538.203	3.52
538.549	3.51
538.894	3.56
539.239	3.66
539.585	3.57
539.93	3.69
540.276	3.62
540.621	3.72
540.966	3.7
541.311	3.71
541.656	3.52
542.001	3.65
542.346	3.57
542.691	3.47
543.036	3.43
543.381	3.42
543.726	3.47
544.071	3.56
544.415	3.64
544.76	3.62
545.105	3.71
545.449	3.61
545.794	3.65
546.138	3.61
546.483	3.66
546.827	3.71
547.171	3.65
547.516	3.47
547.86	3.56
548.204	3.5
548.548	3.6
548.892	3.55
549.236	3.69
549.58	3.73
549.924	3.64
550.268	3.84
550.612	3.78
550.956	3.72
551.3	3.68
551.643	3.84
551.987	3.59
552.33	3.66
552.674	3.78
553.017	3.64
553.361	3.68
553.704	3.76
554.048	3.73
554.391	3.68
554.734	3.59
555.077	3.68
555.42	3.7
555.764	3.65
556.107	3.72
556.45	3.61
556.793	3.64
557.135	3.63
557.478	3.61
557.821	3.75
558.164	3.66
558.507	3.75
558.849	3.71
559.192	3.67
559.534	3.72
559.877	3.68
560.219	3.73
560.562	3.75
560.904	3.66
561.246	3.48
561.589	3.77
561.931	3.67
562.273	3.75
562.615	3.65
562.957	3.59
563.299	3.73
563.641	3.6
563.983	3.66
564.325	3.66
564.667	3.61
565.008	3.52
565.35	3.59
565.692	3.43
566.033	3.88
566.375	3.61
566.716	3.71
567.058	3.51
567.399	3.56
567.741	3.61
568.082	3.59
568.423	3.7
568.764	3.76
569.105	3.75
569.447	3.64
569.788	3.72
570.129	3.62
570.47	3.57
570.811	3.85
571.151	3.61
571.492	3.61
571.833	3.63
572.174	3.83
572.514	3.69
572.855	3.57
573.195	3.71
573.536	3.64
573.876	3.72
574.217	3.58
574.557	3.51
574.898	3.59
575.238	3.65
575.578	3.6
575.918	3.53
576.258	3.66
576.598	3.71
576.938	3.55
577.278	3.72
577.618	3.69
577.958	3.52
578.298	3.65
578.638	3.62
578.977	3.65
579.317	3.61
579.657	3.73
579.996	3.63
580.336	3.67
580.675	3.64
581.014	3.74
581.354	3.63
581.693	3.5
582.032	3.81
582.372	3.62
582.711	3.64
583.05	3.65
583.389	3.87
583.728	3.64
584.067	3.75
584.406	3.56
584.745	3.92
585.083	3.84
585.422	3.73
585.761	3.72
586.1	3.49
586.438	3.64
586.777	3.76
587.115	3.67
587.454	3.9
587.792	3.77
588.13	3.84
588.469	3.58
588.807	3.61
589.145	3.62
589.483	3.69
589.821	3.65
590.159	3.71
590.497	3.66
590.835	3.6
591.173	3.57
591.511	3.84
591.849	3.55
592.187	3.47
592.524	3.61
592.862	3.78
593.2	3.76
593.537	3.48
593.875	3.7
594.212	3.61
594.55	3.68
594.887	3.76
595.224	3.6
595.561	3.74
595.899	3.52
596.236	3.6
596.573	3.45
596.91	3.63
597.247	3.62
597.584	3.59
597.921	3.42
598.258	3.62
598.594	3.5
598.931	3.53
599.268	3.45
599.604	3.7
599.941	3.74
600.277	3.52
600.614	3.77
600.95	3.72
601.287	3.85
601.623	3.54
601.959	3.46
602.296	3.49
602.632	3.71
602.968	3.54
603.304	3.71
603.64	3.46
603.976	3.91
604.312	3.72
604.648	3.32
604.984	3.53
605.319	3.51
605.655	3.54
605.991	3.59
606.326	3.55
606.662	3.41
606.998	3.66
607.333	3.57
607.668	3.67
608.004	3.74
608.339	3.8
608.674	3.6
609.01	3.25
609.345	3.6
609.68	3.87
610.015	3.64
610.35	3.84
610.685	3.57
611.02	3.63
611.355	3.44
611.689	3.53
612.024	3.6
612.359	3.52
612.694	3.64
613.028	3.61
613.363	3.68
613.697	3.6
614.032	3.65
614.366	3.37
614.7	3.55
615.035	3.71
615.369	3.64
615.703	3.72
616.037	3.75
616.371	3.66
616.705	3.36
617.039	3.6
617.373	3.88
617.707	3.93
618.041	3.62
618.375	3.9
618.709	3.35
619.042	3.96
619.376	3.67
619.71	3.54
620.043	3.55
620.377	3.54
620.71	3.39
621.043	3.93
621.377	3.51
621.71	3.78
622.043	3.49
622.376	3.61
622.709	3.47
623.043	3.21
623.376	3.38
623.709	3.64
624.041	3.83
624.374	3.59
624.707	3.52
625.04	3.53
625.373	3.48
625.705	3.55
626.038	3.82
626.37	3.39
626.703	3.75
627.035	3.44
627.368	3.81
627.7	3.54
628.032	3.43
628.365	3.8
628.697	3.87
629.029	3.66
629.361	3.59
629.693	3.4
630.025	3.49
630.357	3.46
630.689	3.69
631.021	3.73
631.353	3.21
631.684	3.69
632.016	3.63
632.348	3.62
632.679	3.98
633.011	3.5
633.342	3.37
633.674	3.63
634.005	3.58
634.336	3.41
634.668	3.44
634.999	3.61
635.33	3.45
635.661	3.84
635.992	3.56
636.323	3.62
636.654	3.9
636.985	3.83
637.316	3.86
637.647	3.57
637.977	3.45
638.308	3.09
638.639	3.72
638.969	3.94
639.3	3.5
639.63	3.71
639.961	3.47
640.291	3.67
640.622	3.61
640.952	3.44
641.282	3.68
641.612	3.59
641.943	3.67
642.273	3.72
642.603	3.72
642.933	3.22
643.263	3.4
643.592	3.61
643.922	3.42
644.252	3.62
644.582	4
644.911	3.67
645.241	4
645.571	3.8
645.9	3.7
646.23	3.77
646.559	4.14
646.888	4.07
647.218	3.06
647.547	3.8
647.876	3.92
648.205	3.49
648.534	3.69
648.863	3.48
649.192	3.77
649.521	3.5
649.85	3.63
650.179	3.43
650.508	3.28
650.837	3.86
651.165	3.88
651.494	3.93
651.822	3.52
652.151	3.42
652.479	3.98
652.808	3.43
653.136	3.68
653.465	3.76
653.793	3.6
654.121	3.83
654.449	3.16
654.777	3.97
655.105	3.89
655.433	3.01
655.761	3.28
656.089	3.59
656.417	3.78
656.745	3.46
657.073	3.72
657.4	3.42
657.728	3.63
658.056	3.37
658.383	4.03
658.711	3.72
659.038	3.77
659.365	3.55
659.693	3.29
660.02	3.89
660.347	3.55
660.674	3.42
661.001	3.29
661.329	3.36
661.656	3.44
661.982	3.56
662.309	3.49
662.636	3.64
662.963	3.56
663.29	4.03
663.616	4.01
663.943	4.03
664.27	3.95
664.596	3.94
664.923	3.66
665.249	3.89
665.576	3.73
665.902	3.6
666.228	3.89
666.554	3.47
666.881	3.53
667.207	3.16
667.533	3.75
667.859	3.38
668.185	3.59
668.511	3.78
668.837	3.84
669.162	3.58
669.488	3.22
669.814	3.7
670.139	4.37
670.465	3.89
670.791	2.94
671.116	3.7
671.442	3.56
671.767	3.49
672.092	3.18
672.418	3.77
672.743	3.33
673.068	3.36
673.393	3.17
673.718	3.51
674.043	3.87
674.368	3.55
674.693	4.02
675.018	3.76
675.343	3.6
675.667	3.75
675.992	3.41
676.317	3.45
676.641	4.4
676.966	3.06
677.29	3.27
677.615	4.03
677.939	4.37
678.264	3.85
678.588	4.56
678.912	3.96
679.236	3.74
679.56	4.26
679.885	3.75
680.209	3.38
680.532	4.13
680.856	4.28
681.18	3.42
681.504	3.94
681.828	2.89
682.152	4.33
682.475	3.39
682.799	3.72
683.122	3.73
683.446	3.65
683.769	4.11
684.093	3.42
684.416	4.22
684.739	3.9
685.062	3.51
685.386	3.35
685.709	3.62
686.032	3.34
686.355	3.05
686.678	3.54
687.001	4.07
687.324	2.84
687.646	3.93
687.969	3.59
688.292	3.79
688.614	3.1
688.937	2.77
689.26	3.49
689.582	3.99
689.904	3.75
690.227	3.57
690.549	3.62
690.871	3.55
691.194	3.48
691.516	3.81
691.838	3.42
692.16	3.73
692.482	4.11
