Data from 21-8_crown_Reflection__4__24.txt Node

Date: Thu Dec 15 16:37:21 CST 2022
User: ToomeyLab
Spectrometer: FLMS14357
Trigger mode: 0
Integration Time (sec): 1.000000E-2
Scans to average: 100
Electric dark correction enabled: true
Nonlinearity correction enabled: false
Boxcar width: 0
XAxis mode: Wavelengths
Number of Pixels in Spectrum: 2048
>>>>>Begin Spectral Data<<<<<
189.047	157.59
189.435	157.59
189.823	157.59
190.211	19.5
190.599	14.78
190.987	72.46
191.375	373.5
191.763	6.8
192.151	218.13
192.538	156.56
192.926	65.26
193.314	-52.73
193.702	326.65
194.089	50.79
194.477	11.78
194.864	53.35
195.252	61.58
195.639	39.16
196.027	263.26
196.414	-105.66
196.801	-135.68
197.189	333.62
197.576	9.09
197.963	-48.21
198.351	12.58
198.738	-18
199.125	-109.92
199.512	42.34
199.899	-67.57
200.286	-2.89
200.673	41.96
201.06	-39.99
201.447	-34.13
201.833	-23.96
202.22	12.7
202.607	-21.72
202.994	-17.67
203.38	1.05
203.767	16.2
204.154	32.45
204.54	13.42
204.927	13.29
205.313	-20.92
205.699	36.59
206.086	22.24
206.472	29.05
206.858	-15.15
207.245	19.2
207.631	7.08
208.017	49.9
208.403	-53.77
208.789	-1.77
209.175	-40.43
209.561	-61.12
209.947	3.14
210.333	1.73
210.719	13.5
211.105	40.38
211.491	7.09
211.876	-22.16
212.262	16.07
212.648	22.83
213.034	-12.05
213.419	21.76
213.805	-18.48
214.19	-18.57
214.576	-24.06
214.961	36.31
215.346	-1.33
215.732	-12.51
216.117	3.32
216.502	1.04
216.888	13.92
217.273	25.31
217.658	-4.36
218.043	-38.97
218.428	-2.04
218.813	14.96
219.198	-19.32
219.583	-16.09
219.968	-0.05
220.353	-4.06
220.738	8.91
221.122	2.31
221.507	-2.51
221.892	-8.23
222.276	-35.64
222.661	-0.3
223.046	-6.57
223.43	20.68
223.815	3.58
224.199	1.2
224.583	-3.11
224.968	0.45
225.352	-9.06
225.736	4.77
226.121	3.93
226.505	1.38
226.889	3.05
227.273	-2.1
227.657	0.03
228.041	1.2
228.425	-1.76
228.809	2.04
229.193	2.72
229.577	1.89
229.961	1.49
230.344	3.09
230.728	3.33
231.112	3.55
231.495	1.81
231.879	3.79
232.263	2.48
232.646	2.75
233.03	4.7
233.413	4.07
233.797	2.01
234.18	4.74
234.563	3.25
234.946	1.26
235.33	4.1
235.713	2.77
236.096	3.48
236.479	4.19
236.862	1.38
237.245	2.46
237.628	3.72
238.011	3.8
238.394	0.69
238.777	3.26
239.16	2.89
239.543	2.79
239.925	2.06
240.308	2.36
240.691	2.63
241.073	2.54
241.456	2.94
241.838	3.35
242.221	1.45
242.603	3.64
242.986	3.19
243.368	3.09
243.75	3.1
244.133	3
244.515	2.8
244.897	2.41
245.279	2.07
245.661	2.99
246.043	2.5
246.425	2.65
246.807	2.01
247.189	2.67
247.571	2.64
247.953	2.38
248.335	2.82
248.717	3.13
249.098	3.02
249.48	2.72
249.862	2.71
250.243	2.95
250.625	3.04
251.006	3.66
251.388	2.68
251.769	2.38
252.151	3.02
252.532	2.52
252.913	2.18
253.295	2.77
253.676	3.37
254.057	2.77
254.438	2.64
254.819	2.82
255.2	3.14
255.581	4.11
255.962	3.98
256.343	4.1
256.724	3.14
257.105	2.96
257.486	1.73
257.867	2.69
258.247	3.13
258.628	3.16
259.009	2.19
259.389	2.01
259.77	2.59
260.15	3.37
260.531	2.85
260.911	2.63
261.292	2.66
261.672	2.73
262.052	2.57
262.432	2.31
262.813	3.07
263.193	2.81
263.573	2.69
263.953	2.13
264.333	2.27
264.713	2.48
265.093	2.55
265.473	1.97
265.853	2.69
266.233	2.57
266.612	1.35
266.992	3.05
267.372	2.59
267.752	2.97
268.131	2.48
268.511	2.27
268.89	2.83
269.27	1.91
269.649	2.22
270.029	2.59
270.408	2.13
270.787	2.55
271.167	2.6
271.546	2.81
271.925	3.18
272.304	2.41
272.683	2.09
273.062	2.15
273.441	1.93
273.82	2.5
274.199	2.32
274.578	2.51
274.957	2.69
275.336	2.81
275.715	2.55
276.093	2.4
276.472	1.83
276.851	2.15
277.229	2.36
277.608	2.1
277.986	2.86
278.365	2.65
278.743	2.7
279.122	2.37
279.5	2.3
279.878	2.06
280.257	2.58
280.635	2.14
281.013	2.17
281.391	1.97
281.769	3.09
282.147	2.48
282.525	2.14
282.903	1.99
283.281	2.67
283.659	3.07
284.037	2.12
284.415	2.12
284.792	2.55
285.17	2.52
285.548	2.23
285.925	2.29
286.303	2.84
286.68	2.46
287.058	2.35
287.435	2.23
287.813	2.35
288.19	2.02
288.567	2.34
288.945	2.1
289.322	2.02
289.699	2.64
290.076	2.15
290.453	1.93
290.83	2.66
291.207	2.08
291.584	2.49
291.961	2.07
292.338	2.32
292.715	1.94
293.092	2.69
293.469	2.25
293.845	2.3
294.222	2.71
294.599	2.07
294.975	1.74
295.352	2.39
295.728	2.12
296.105	2.42
296.481	2.46
296.858	2.75
297.234	2.17
297.61	2.18
297.986	2.53
298.363	2.17
298.739	2.48
299.115	2.13
299.491	2.65
299.867	2.26
300.243	2.25
300.619	2.34
300.995	2.64
301.371	2.38
301.746	2.41
302.122	1.63
302.498	2.74
302.874	2.67
303.249	2.29
303.625	1.78
304	2.1
304.376	2.97
304.751	2.58
305.127	1.75
305.502	2.52
305.878	2.68
306.253	2.24
306.628	2.71
307.003	2.39
307.378	2.53
307.754	2.97
308.129	1.75
308.504	2.24
308.879	2.73
309.254	2.54
309.629	2.42
310.003	2.52
310.378	2.62
310.753	2.65
311.128	2.44
311.502	2.45
311.877	2.1
312.252	2.29
312.626	2.7
313.001	2.37
313.375	2.52
313.75	2.49
314.124	2.43
314.498	2.49
314.873	2.52
315.247	2.42
315.621	2.22
315.995	2.15
316.369	2.18
316.743	2.29
317.117	2.56
317.491	2.54
317.865	2.12
318.239	2.71
318.613	2.44
318.987	2.38
319.361	1.94
319.734	2.2
320.108	2.24
320.482	2.17
320.855	2.44
321.229	2.63
321.602	3.08
321.976	2.14
322.349	3.17
322.723	2.38
323.096	2.24
323.469	2.22
323.843	2.06
324.216	2.98
324.589	2.75
324.962	2.18
325.335	2.35
325.708	2.52
326.081	2.1
326.454	2.09
326.827	2.7
327.2	1.99
327.573	2.72
327.945	2.27
328.318	2.4
328.691	2.29
329.063	2.05
329.436	1.9
329.809	2.36
330.181	2.93
330.553	2.25
330.926	2.21
331.298	2.15
331.671	2.6
332.043	2.38
332.415	2.3
332.787	2.56
333.159	2.36
333.532	2.02
333.904	2.73
334.276	2.44
334.648	2.75
335.02	2.69
335.391	2.03
335.763	2.21
336.135	2.56
336.507	2.69
336.879	2.3
337.25	2.47
337.622	2.66
337.993	2.1
338.365	2.5
338.736	2.39
339.108	2.64
339.479	2.22
339.851	2.8
340.222	2.8
340.593	2.51
340.964	2.6
341.336	2.29
341.707	2.16
342.078	1.8
342.449	2.08
342.82	2.42
343.191	2.49
343.562	2.43
343.933	2.46
344.303	2.36
344.674	2.84
345.045	2.58
345.416	2.52
345.786	2.71
346.157	2.36
346.527	1.87
346.898	2.24
347.268	2.15
347.639	2.38
348.009	2.58
348.38	2.24
348.75	2.54
349.12	2.45
349.49	2.68
349.861	2.97
350.231	2.15
350.601	2.16
350.971	2.27
351.341	2.76
351.711	2.42
352.081	1.99
352.45	2.09
352.82	2.38
353.19	2.32
353.56	2.38
353.929	2.37
354.299	2.45
354.669	2.75
355.038	2.68
355.408	2.3
355.777	2.78
356.147	2.34
356.516	2.4
356.885	2.73
357.254	2.28
357.624	2.06
357.993	2.54
358.362	2.67
358.731	2.36
359.1	2.51
359.469	2.47
359.838	2.64
360.207	2.56
360.576	2.56
360.945	2.43
361.314	2.17
361.682	2.24
362.051	2.33
362.42	2.41
362.788	2.4
363.157	2.29
363.525	2.4
363.894	2.19
364.262	2.35
364.631	2.31
364.999	2.1
365.367	2.33
365.735	2.11
366.104	2.46
366.472	2.24
366.84	2.58
367.208	2.53
367.576	2.32
367.944	2.39
368.312	2.14
368.68	2.82
369.048	2.26
369.416	2.28
369.783	2.3
370.151	2.73
370.519	2.65
370.886	2.44
371.254	2.59
371.621	2.78
371.989	2.5
372.356	2.19
372.724	2.3
373.091	2.2
373.458	2.45
373.826	2.64
374.193	2.36
374.56	2.6
374.927	2.39
375.294	2.74
375.661	2.45
376.028	2.39
376.395	2.51
376.762	2.17
377.129	2.1
377.496	2.45
377.863	2.38
378.229	2.7
378.596	2.63
378.963	2.34
379.329	2.69
379.696	2.37
380.062	2.38
380.429	1.93
380.795	2.7
381.161	2.19
381.528	2.48
381.894	2.23
382.26	2.56
382.626	2.35
382.993	2.57
383.359	2.37
383.725	2.16
384.091	2.43
384.457	2.07
384.823	2.53
385.188	2.53
385.554	2.28
385.92	2.31
386.286	2.37
386.651	2.44
387.017	2.56
387.383	2.23
387.748	2.58
388.114	2.47
388.479	2.34
388.845	2.5
389.21	2.58
389.575	2.78
389.94	2.7
390.306	2.56
390.671	2.6
391.036	2.41
391.401	2.72
391.766	2.28
392.131	2.46
392.496	2.59
392.861	2.37
393.226	2.43
393.591	2.57
393.956	2.43
394.32	2.57
394.685	2.65
395.05	2.52
395.414	2.46
395.779	2.53
396.143	2.32
396.508	2.34
396.872	2.52
397.236	2.71
397.601	2.56
397.965	2.45
398.329	2.53
398.694	2.54
399.058	2.58
399.422	2.43
399.786	2.47
400.15	2.43
400.514	2.32
400.878	2.26
401.242	2.64
401.605	2.42
401.969	2.72
402.333	2.31
402.697	2.63
403.06	2.54
403.424	2.7
403.787	2.52
404.151	2.66
404.514	2.42
404.878	2.33
405.241	2.36
405.604	2.33
405.968	2.4
406.331	2.54
406.694	2.55
407.057	2.31
407.42	2.52
407.783	2.66
408.146	2.41
408.509	2.49
408.872	2.45
409.235	2.62
409.598	2.51
409.961	2.76
410.323	2.46
410.686	2.38
411.049	2.74
411.411	2.37
411.774	2.45
412.136	2.35
412.499	2.61
412.861	2.41
413.223	2.37
413.586	2.48
413.948	2.68
414.31	2.57
414.672	2.59
415.035	2.51
415.397	2.44
415.759	2.29
416.121	2.58
416.483	2.46
416.845	2.62
417.206	2.33
417.568	2.42
417.93	2.53
418.292	2.35
418.653	2.23
419.015	2.41
419.377	2.32
419.738	2.5
420.1	2.58
420.461	2.38
420.822	2.44
421.184	2.41
421.545	2.45
421.906	2.49
422.267	2.41
422.629	2.41
422.99	2.44
423.351	2.44
423.712	2.44
424.073	2.47
424.434	2.6
424.795	2.44
425.155	2.44
425.516	2.42
425.877	2.53
426.238	2.46
426.598	2.47
426.959	2.43
427.32	2.39
427.68	2.58
428.041	2.57
428.401	2.42
428.761	2.7
429.122	2.63
429.482	2.52
429.842	2.45
430.202	2.68
430.563	2.58
430.923	2.47
431.283	2.78
431.643	2.66
432.003	2.57
432.363	2.59
432.722	2.56
433.082	2.52
433.442	2.77
433.802	2.48
434.161	2.54
434.521	2.56
434.881	2.55
435.24	2.62
435.6	2.56
435.959	2.52
436.319	2.59
436.678	2.69
437.037	2.52
437.396	2.57
437.756	2.49
438.115	2.47
438.474	2.53
438.833	2.53
439.192	2.46
439.551	2.64
439.91	2.53
440.269	2.54
440.628	2.51
440.987	2.59
441.345	2.58
441.704	2.51
442.063	2.52
442.421	2.57
442.78	2.56
443.138	2.53
443.497	2.56
443.855	2.76
444.214	2.49
444.572	2.76
444.93	2.64
445.288	2.52
445.647	2.54
446.005	2.54
446.363	2.5
446.721	2.63
447.079	2.54
447.437	2.55
447.795	2.54
448.153	2.53
448.51	2.65
448.868	2.54
449.226	2.57
449.584	2.56
449.941	2.59
450.299	2.48
450.656	2.61
451.014	2.74
451.371	2.69
451.729	2.56
452.086	2.61
452.443	2.61
452.801	2.54
453.158	2.86
453.515	2.58
453.872	2.65
454.229	2.5
454.586	2.41
454.943	2.65
455.3	2.71
455.657	2.58
456.014	2.68
456.371	2.68
456.727	2.76
457.084	2.68
457.441	2.62
457.797	2.51
458.154	2.64
458.51	2.64
458.867	2.53
459.223	2.57
459.58	2.67
459.936	2.62
460.292	2.46
460.648	2.55
461.005	2.47
461.361	2.56
461.717	2.52
462.073	2.57
462.429	2.6
462.785	2.73
463.141	2.74
463.496	2.78
463.852	2.76
464.208	2.62
464.564	2.65
464.919	2.7
465.275	2.66
465.631	2.74
465.986	2.82
466.342	2.62
466.697	2.71
467.052	2.63
467.408	2.65
467.763	2.64
468.118	2.57
468.473	2.64
468.829	2.57
469.184	2.7
469.539	2.52
469.894	2.58
470.249	2.6
470.603	2.81
470.958	2.94
471.313	2.71
471.668	2.68
472.023	2.77
472.377	2.63
472.732	2.79
473.086	2.6
473.441	2.76
473.795	2.93
474.15	2.61
474.504	2.73
474.859	2.56
475.213	2.67
475.567	2.61
475.921	2.75
476.275	2.71
476.63	2.75
476.984	2.66
477.338	2.69
477.692	2.58
478.045	2.73
478.399	2.83
478.753	2.61
479.107	2.72
479.461	2.67
479.814	2.65
480.168	2.71
480.521	2.65
480.875	2.72
481.228	2.67
481.582	2.61
481.935	2.61
482.289	2.61
482.642	2.79
482.995	2.69
483.348	2.53
483.701	2.71
484.055	2.67
484.408	2.68
484.761	2.57
485.114	2.42
485.466	2.44
485.819	2.46
486.172	2.52
486.525	2.53
486.878	2.55
487.23	2.55
487.583	2.64
487.936	2.53
488.288	2.55
488.641	2.5
488.993	2.47
489.345	2.5
489.698	2.51
490.05	2.5
490.402	2.55
490.754	2.55
491.107	2.55
491.459	2.63
491.811	2.59
492.163	2.61
492.515	2.54
492.866	2.56
493.218	2.52
493.57	2.57
493.922	2.53
494.274	2.65
494.625	2.66
494.977	2.63
495.328	2.69
495.68	2.66
496.031	2.62
496.383	2.73
496.734	2.6
497.086	2.76
497.437	2.69
497.788	2.78
498.139	2.65
498.49	2.75
498.842	2.74
499.193	2.59
499.544	2.68
499.894	2.68
500.245	2.69
500.596	2.75
500.947	2.7
501.298	2.71
501.648	2.74
501.999	2.77
502.35	2.69
502.7	2.86
503.051	2.71
503.401	2.8
503.752	2.64
504.102	2.63
504.452	2.52
504.803	2.63
505.153	2.83
505.503	2.68
505.853	2.76
506.203	2.8
506.553	2.81
506.903	2.82
507.253	2.65
507.603	2.81
507.953	2.8
508.303	2.71
508.652	2.59
509.002	2.81
509.352	2.67
509.701	2.64
510.051	2.81
510.4	2.75
510.75	2.64
511.099	2.63
511.449	2.75
511.798	2.66
512.147	2.66
512.496	2.77
512.846	2.61
513.195	2.62
513.544	2.77
513.893	2.74
514.242	2.68
514.591	2.65
514.939	2.75
515.288	2.87
515.637	2.68
515.986	2.67
516.334	2.78
516.683	2.78
517.032	2.76
517.38	2.61
517.729	2.69
518.077	2.73
518.426	2.69
518.774	2.6
519.122	2.68
519.47	2.64
519.819	2.64
520.167	2.6
520.515	2.71
520.863	2.69
521.211	2.61
521.559	2.62
521.907	2.72
522.255	2.66
522.602	2.75
522.95	2.77
523.298	2.63
523.645	2.66
523.993	2.63
524.341	2.68
524.688	2.62
525.036	2.68
525.383	2.75
525.73	2.61
526.078	2.78
526.425	2.71
526.772	2.65
527.119	2.66
527.466	2.69
527.814	2.69
528.161	2.65
528.508	2.74
528.854	2.74
529.201	2.65
529.548	2.63
529.895	2.5
530.242	2.48
530.588	2.5
530.935	2.51
531.282	2.56
531.628	2.59
531.975	2.59
532.321	2.71
532.667	2.68
533.014	2.66
533.36	2.64
533.706	2.68
534.052	2.67
534.399	2.57
534.745	2.64
535.091	2.56
535.437	2.57
535.783	2.6
536.129	2.6
536.474	2.66
536.82	2.66
537.166	2.58
537.512	2.61
537.857	2.65
538.203	2.63
538.549	2.64
538.894	2.67
539.239	2.69
539.585	2.73
539.93	2.7
540.276	2.67
540.621	2.86
540.966	2.72
541.311	2.73
541.656	2.61
542.001	2.66
542.346	2.57
542.691	2.56
543.036	2.57
543.381	2.55
543.726	2.68
544.071	2.63
544.415	2.6
544.76	2.61
545.105	2.61
545.449	2.65
545.794	2.64
546.138	2.58
546.483	2.68
546.827	2.67
547.171	2.67
547.516	2.69
547.86	2.76
548.204	2.72
548.548	2.66
548.892	2.71
549.236	2.67
549.58	2.72
549.924	2.79
550.268	2.84
550.612	2.68
550.956	2.86
551.3	2.88
551.643	2.87
551.987	2.99
552.33	2.97
552.674	2.73
553.017	2.74
553.361	2.87
553.704	2.89
554.048	2.75
554.391	2.72
554.734	2.64
555.077	2.76
555.42	2.71
555.764	2.74
556.107	2.91
556.45	2.83
556.793	2.88
557.135	2.77
557.478	2.84
557.821	2.73
558.164	2.86
558.507	2.68
558.849	2.97
559.192	2.86
559.534	2.7
559.877	2.74
560.219	2.86
560.562	2.72
560.904	2.84
561.246	2.79
561.589	2.78
561.931	2.78
562.273	2.79
562.615	2.7
562.957	2.75
563.299	2.79
563.641	2.89
563.983	2.63
564.325	2.79
564.667	2.69
565.008	2.51
565.35	2.53
565.692	2.71
566.033	2.62
566.375	2.69
566.716	2.56
567.058	2.7
567.399	2.75
567.741	2.86
568.082	2.88
568.423	2.62
568.764	2.77
569.105	2.76
569.447	2.76
569.788	2.66
570.129	2.62
570.47	2.68
570.811	2.9
571.151	2.78
571.492	2.73
571.833	2.76
572.174	2.75
572.514	2.78
572.855	3
573.195	2.84
573.536	2.83
573.876	2.71
574.217	2.69
574.557	2.62
574.898	2.62
575.238	2.75
575.578	2.87
575.918	2.92
576.258	2.94
576.598	2.65
576.938	2.74
577.278	2.63
577.618	2.66
577.958	2.84
578.298	2.79
578.638	2.65
578.977	2.92
579.317	2.62
579.657	2.64
579.996	2.91
580.336	2.86
580.675	2.74
581.014	2.92
581.354	2.77
581.693	2.98
582.032	3.02
582.372	2.83
582.711	2.94
583.05	2.81
583.389	3.12
583.728	3.03
584.067	2.82
584.406	3.05
584.745	2.8
585.083	2.84
585.422	2.97
585.761	2.86
586.1	2.85
586.438	2.86
586.777	2.92
587.115	2.84
587.454	2.65
587.792	2.66
588.13	2.73
588.469	2.73
588.807	2.86
589.145	2.97
589.483	2.66
589.821	2.67
590.159	2.86
590.497	2.81
590.835	3.05
591.173	2.92
591.511	2.97
591.849	3.07
592.187	2.82
592.524	2.9
592.862	2.67
593.2	2.79
593.537	2.81
593.875	2.77
594.212	2.8
594.55	2.86
594.887	2.84
595.224	3
595.561	2.72
595.899	2.72
596.236	2.85
596.573	2.65
596.91	2.78
597.247	3.11
597.584	3.04
597.921	2.8
598.258	2.81
598.594	2.87
598.931	2.71
599.268	2.73
599.604	3
599.941	2.77
600.277	2.87
600.614	2.96
600.95	2.72
601.287	2.68
601.623	2.5
601.959	2.97
602.296	2.92
602.632	2.96
602.968	2.84
603.304	2.74
603.64	2.83
603.976	2.74
604.312	2.8
604.648	2.97
604.984	2.81
605.319	2.89
605.655	2.71
605.991	2.73
606.326	2.75
606.662	2.71
606.998	2.77
607.333	2.82
607.668	2.75
608.004	2.69
608.339	2.79
608.674	2.93
609.01	2.97
609.345	2.94
609.68	2.58
610.015	2.85
610.35	3.01
610.685	2.59
611.02	2.64
611.355	2.84
611.689	2.87
612.024	2.96
612.359	2.99
612.694	2.81
613.028	2.66
613.363	2.82
613.697	2.88
614.032	2.87
614.366	2.78
614.7	2.71
615.035	2.89
615.369	3.18
615.703	3.17
616.037	2.87
616.371	2.64
616.705	3.01
617.039	2.6
617.373	3.14
617.707	2.99
618.041	2.67
618.375	2.5
618.709	2.88
619.042	2.88
619.376	3.1
619.71	2.55
620.043	3.14
620.377	2.87
620.71	2.95
621.043	3.12
621.377	3.28
621.71	3.07
622.043	2.95
622.376	2.92
622.709	3.55
623.043	3.18
623.376	2.85
623.709	3
624.041	2.76
624.374	3.09
624.707	2.6
625.04	2.74
625.373	2.91
625.705	2.92
626.038	2.99
626.37	2.8
626.703	2.88
627.035	2.97
627.368	3.22
627.7	2.73
628.032	2.83
628.365	3.43
628.697	3.37
629.029	2.94
629.361	3.08
629.693	2.71
630.025	2.87
630.357	2.72
630.689	2.86
631.021	3.08
631.353	2.98
631.684	2.43
632.016	2.61
632.348	3.07
632.679	2.83
633.011	2.88
633.342	2.76
633.674	2.88
634.005	2.81
634.336	3.01
634.668	2.57
634.999	2.79
635.33	3.27
635.661	2.7
635.992	2.86
636.323	2.85
636.654	2.88
636.985	2.81
637.316	2.63
637.647	2.96
637.977	2.74
638.308	3.39
638.639	2.83
638.969	2.72
639.3	2.85
639.63	3.05
639.961	3.04
640.291	2.65
640.622	3.05
640.952	3.28
641.282	2.42
641.612	2.57
641.943	2.72
642.273	2.66
642.603	2.95
642.933	3.17
643.263	3.21
643.592	3.42
643.922	3.53
644.252	2.8
644.582	2.81
644.911	2.98
645.241	2.72
645.571	2.87
645.9	2.8
646.23	3.25
646.559	2.62
646.888	3.04
647.218	2.99
647.547	2.85
647.876	3.13
648.205	2.45
648.534	2.76
648.863	2.75
649.192	3.14
649.521	3.4
649.85	3.32
650.179	2.97
650.508	3.18
650.837	3.17
651.165	3.05
651.494	2.8
651.822	2.94
652.151	2.61
652.479	3.1
652.808	2.87
653.136	2.74
653.465	2.52
653.793	3.02
654.121	3
654.449	2.82
654.777	2.49
655.105	2.7
655.433	2.94
655.761	2.74
656.089	2.88
656.417	3.59
656.745	3.7
657.073	3.2
657.4	2.6
657.728	2.65
658.056	3.09
658.383	2.7
658.711	3.29
659.038	3.3
659.365	3.3
659.693	2.65
660.02	3.05
660.347	2.68
660.674	3.02
661.001	2.93
661.329	2.7
661.656	2.83
661.982	2.84
662.309	3
662.636	2.84
662.963	3.05
663.29	3.5
663.616	2.77
663.943	3.18
664.27	3.06
664.596	2.87
664.923	2.9
665.249	3.41
665.576	2.87
665.902	2.88
666.228	3.1
666.554	3.41
666.881	2.45
667.207	3.08
667.533	3.07
667.859	2.85
668.185	2.76
668.511	3.01
668.837	2.96
669.162	3.12
669.488	2.65
669.814	2.94
670.139	2.33
670.465	3.51
670.791	2.47
671.116	2.83
671.442	2.48
671.767	3
672.092	2.64
672.418	2.47
672.743	2.86
673.068	2.86
673.393	3.06
673.718	3.03
674.043	2.98
674.368	3.06
674.693	3.02
675.018	2.9
675.343	3.27
675.667	2.58
675.992	3.28
676.317	2.13
676.641	3.31
676.966	2.93
677.29	2.94
677.615	2.73
677.939	3.03
678.264	2.93
678.588	3.23
678.912	2.62
679.236	2.91
679.56	2.63
679.885	2.29
680.209	3.47
680.532	3.72
680.856	3.37
681.18	3.18
681.504	2.8
681.828	2.53
682.152	3.08
682.475	2.86
682.799	2.55
683.122	3.3
683.446	2.05
683.769	3.01
684.093	3.19
684.416	2.72
684.739	2.43
685.062	2.88
685.386	2.83
685.709	2.67
686.032	2.79
686.355	3.28
686.678	3.44
687.001	3.37
687.324	2.83
687.646	2.72
687.969	3.47
688.292	3.15
688.614	3.26
688.937	3.46
689.26	3.31
689.582	3.04
689.904	3.31
690.227	3.7
690.549	2.97
690.871	2.88
691.194	2.57
691.516	3.23
691.838	3.28
692.16	2.51
692.482	2.34
