Data from 21-8_crown_Reflection__3__23.txt Node

Date: Thu Dec 15 16:37:08 CST 2022
User: ToomeyLab
Spectrometer: FLMS14357
Trigger mode: 0
Integration Time (sec): 1.000000E-2
Scans to average: 100
Electric dark correction enabled: true
Nonlinearity correction enabled: false
Boxcar width: 0
XAxis mode: Wavelengths
Number of Pixels in Spectrum: 2048
>>>>>Begin Spectral Data<<<<<
189.047	171.46
189.435	171.46
189.823	171.46
190.211	161.21
190.599	86.98
190.987	107.13
191.375	-193.91
191.763	-13.99
192.151	148.59
192.538	-34.8
192.926	135.4
193.314	-320.13
193.702	286.92
194.089	287.87
194.477	580.04
194.864	4.32
195.252	3.88
195.639	94.99
196.027	87.74
196.414	-235.59
196.801	-180.48
197.189	-44.04
197.576	28.17
197.963	27.19
198.351	-0.61
198.738	-16.08
199.125	-37.84
199.512	56.29
199.899	33.82
200.286	23.24
200.673	49.97
201.06	5.45
201.447	69.95
201.833	25.51
202.22	15.37
202.607	16.79
202.994	27.62
203.38	31.1
203.767	11.54
204.154	76.49
204.54	8.13
204.927	-3.59
205.313	14.68
205.699	23.68
206.086	20.3
206.472	38.95
206.858	26.25
207.245	23.53
207.631	12.2
208.017	68.55
208.403	-10.11
208.789	28.58
209.175	-1.13
209.561	-32.79
209.947	21.41
210.333	-2.58
210.719	36.17
211.105	49.86
211.491	75.06
211.876	11.51
212.262	36.55
212.648	51.9
213.034	18.48
213.419	3.64
213.805	18.99
214.19	14.98
214.576	31.15
214.961	23.1
215.346	22.19
215.732	16.79
216.117	12.8
216.502	6.31
216.888	30.29
217.273	12.76
217.658	-5.35
218.043	-5.28
218.428	-3.2
218.813	13.34
219.198	7.58
219.583	1.53
219.968	14.93
220.353	10.36
220.738	10.62
221.122	8.99
221.507	2.16
221.892	9.24
222.276	2.97
222.661	7.98
223.046	-0.84
223.43	18
223.815	11.21
224.199	-1.7
224.583	5.64
224.968	11.65
225.352	3.96
225.736	7.29
226.121	18.56
226.505	7.13
226.889	7.83
227.273	7.64
227.657	6.9
228.041	8.77
228.425	5.37
228.809	6.38
229.193	7.98
229.577	7.78
229.961	6.8
230.344	7.07
230.728	7.29
231.112	7.54
231.495	6.48
231.879	7.27
232.263	7.91
232.646	7.35
233.03	9.13
233.413	5.91
233.797	6.7
234.18	6.88
234.563	8.37
234.946	6.4
235.33	6.63
235.713	8.66
236.096	7.67
236.479	9.2
236.862	5.52
237.245	6.32
237.628	8.91
238.011	8.02
238.394	7.19
238.777	8.33
239.16	7.79
239.543	9.05
239.925	6.16
240.308	5.28
240.691	6.54
241.073	6.65
241.456	6.02
241.838	6.24
242.221	6.89
242.603	6.86
242.986	6.08
243.368	6.41
243.75	6.03
244.133	6.49
244.515	6.56
244.897	6.09
245.279	6.7
245.661	6.15
246.043	6.55
246.425	6.51
246.807	6.67
247.189	6.51
247.571	5.73
247.953	5.94
248.335	6.03
248.717	6.15
249.098	5.94
249.48	5.98
249.862	6.36
250.243	6.14
250.625	6.5
251.006	7
251.388	6.17
251.769	5.8
252.151	6.54
252.532	5.54
252.913	5.82
253.295	5.96
253.676	6
254.057	5.63
254.438	6.52
254.819	6.78
255.2	6.57
255.581	7.34
255.962	7.44
256.343	7.08
256.724	6.71
257.105	5.71
257.486	4.1
257.867	5.79
258.247	6.4
258.628	6.12
259.009	6.04
259.389	5.93
259.77	6.12
260.15	6.57
260.531	6.01
260.911	5.67
261.292	5.68
261.672	5.65
262.052	5.7
262.432	5.51
262.813	5.97
263.193	6.36
263.573	6.1
263.953	5.47
264.333	6.21
264.713	5.64
265.093	5.38
265.473	5.18
265.853	6.28
266.233	5.73
266.612	5.73
266.992	5.68
267.372	6.3
267.752	6.02
268.131	5.36
268.511	5.41
268.89	6.02
269.27	5.05
269.649	5.59
270.029	5.18
270.408	5.11
270.787	6.1
271.167	5.57
271.546	6.12
271.925	5.23
272.304	5.49
272.683	5.21
273.062	5.55
273.441	5.33
273.82	5.51
274.199	5.33
274.578	5.78
274.957	5.23
275.336	5.95
275.715	5.77
276.093	5.06
276.472	5.38
276.851	5.81
277.229	5.62
277.608	5.23
277.986	5.91
278.365	5.76
278.743	5.77
279.122	5.48
279.5	5.75
279.878	5.14
280.257	5.05
280.635	5.6
281.013	4.71
281.391	5.29
281.769	5.98
282.147	5.56
282.525	5.11
282.903	5.04
283.281	5.65
283.659	5.72
284.037	5.47
284.415	5.46
284.792	5.55
285.17	5.64
285.548	5.14
285.925	5.35
286.303	5.67
286.68	5.78
287.058	5.08
287.435	5.16
287.813	5.05
288.19	5.17
288.567	5.18
288.945	5.47
289.322	5.4
289.699	5.19
290.076	5.04
290.453	4.97
290.83	5.36
291.207	5.22
291.584	5.39
291.961	5.06
292.338	4.52
292.715	5
293.092	5.51
293.469	5.31
293.845	5.31
294.222	5.54
294.599	5.05
294.975	4.86
295.352	5.07
295.728	4.91
296.105	4.9
296.481	5.08
296.858	5
297.234	4.55
297.61	5.22
297.986	5.2
298.363	4.98
298.739	5.15
299.115	5.19
299.491	5.39
299.867	4.85
300.243	5.16
300.619	4.96
300.995	5.12
301.371	5.07
301.746	5.76
302.122	5.14
302.498	5.41
302.874	4.89
303.249	4.88
303.625	4.69
304	4.99
304.376	5.25
304.751	5.39
305.127	4.81
305.502	5.14
305.878	5.18
306.253	4.65
306.628	5.27
307.003	4.88
307.378	4.55
307.754	4.56
308.129	5.08
308.504	5.07
308.879	5.07
309.254	5.48
309.629	4.73
310.003	4.83
310.378	5.4
310.753	4.73
311.128	4.8
311.502	4.92
311.877	4.69
312.252	4.82
312.626	5.04
313.001	4.94
313.375	4.68
313.75	4.73
314.124	5.26
314.498	5.17
314.873	4.97
315.247	5.28
315.621	4.74
315.995	4.5
316.369	4.53
316.743	4.69
317.117	4.96
317.491	5.03
317.865	5.11
318.239	5.69
318.613	4.69
318.987	4.44
319.361	4.87
319.734	5.08
320.108	4.61
320.482	5.02
320.855	3.97
321.229	4.84
321.602	4.83
321.976	4.46
322.349	5.43
322.723	4.53
323.096	4.87
323.469	4.53
323.843	4.38
324.216	4.57
324.589	4.75
324.962	4.75
325.335	4.77
325.708	4.8
326.081	4.99
326.454	4.87
326.827	5.01
327.2	4.1
327.573	5.52
327.945	4.57
328.318	4.66
328.691	4.54
329.063	4.58
329.436	4.49
329.809	5.15
330.181	5.22
330.553	4.91
330.926	5.19
331.298	4.85
331.671	4.7
332.043	4.08
332.415	4.8
332.787	4.41
333.159	4.52
333.532	4.36
333.904	4.69
334.276	4.77
334.648	4.5
335.02	4.25
335.391	4.62
335.763	4.86
336.135	5.04
336.507	4.54
336.879	4.69
337.25	4.61
337.622	4.58
337.993	4.57
338.365	4.82
338.736	4.82
339.108	4.61
339.479	4.66
339.851	4.64
340.222	4.76
340.593	4.47
340.964	4.8
341.336	4.19
341.707	4.25
342.078	4.6
342.449	4.29
342.82	4.58
343.191	4.32
343.562	4.78
343.933	4.64
344.303	4.79
344.674	4.42
345.045	4.72
345.416	4.72
345.786	4.33
346.157	4.69
346.527	4.43
346.898	4.32
347.268	4.77
347.639	4.47
348.009	4.64
348.38	4.15
348.75	4.48
349.12	4.39
349.49	4.39
349.861	4.74
350.231	4.53
350.601	4.24
350.971	4.78
351.341	4.86
351.711	4.46
352.081	4.46
352.45	4.22
352.82	4.24
353.19	4.42
353.56	4.58
353.929	4.8
354.299	4.71
354.669	4.79
355.038	4.74
355.408	4.49
355.777	4.46
356.147	4.29
356.516	4.22
356.885	4.47
357.254	4.41
357.624	4.16
357.993	4.35
358.362	4.91
358.731	4.63
359.1	4.47
359.469	4.62
359.838	4.41
360.207	4.36
360.576	4.73
360.945	4.52
361.314	4.56
361.682	4.41
362.051	4.61
362.42	4.59
362.788	4.59
363.157	4.27
363.525	4.46
363.894	4.27
364.262	4.45
364.631	4.6
364.999	4.09
365.367	4.41
365.735	4.27
366.104	4.49
366.472	4.33
366.84	4.43
367.208	4.76
367.576	4.39
367.944	4.5
368.312	4.47
368.68	4.75
369.048	4.45
369.416	4.16
369.783	4.48
370.151	4.82
370.519	5.05
370.886	4.75
371.254	4.97
371.621	4.63
371.989	4.77
372.356	4.86
372.724	4.38
373.091	4.37
373.458	4.5
373.826	4.55
374.193	4.54
374.56	4.7
374.927	4.64
375.294	4.89
375.661	4.79
376.028	4.6
376.395	4.39
376.762	4.41
377.129	4.62
377.496	4.7
377.863	4.64
378.229	4.72
378.596	4.68
378.963	4.58
379.329	4.61
379.696	4.45
380.062	4.85
380.429	4.27
380.795	4.64
381.161	4.32
381.528	4.42
381.894	4.73
382.26	4.53
382.626	4.73
382.993	5.27
383.359	4.68
383.725	4.44
384.091	4.61
384.457	4.62
384.823	4.67
385.188	4.71
385.554	4.79
385.92	4.66
386.286	4.62
386.651	4.61
387.017	4.83
387.383	4.69
387.748	4.81
388.114	4.77
388.479	4.61
388.845	4.7
389.21	4.8
389.575	4.79
389.94	5
390.306	4.65
390.671	4.8
391.036	4.58
391.401	4.48
391.766	4.54
392.131	4.79
392.496	4.89
392.861	4.71
393.226	4.44
393.591	4.64
393.956	4.6
394.32	4.87
394.685	4.64
395.05	4.79
395.414	4.6
395.779	4.76
396.143	4.62
396.508	4.52
396.872	4.71
397.236	5.1
397.601	4.67
397.965	4.54
398.329	4.85
398.694	4.56
399.058	4.68
399.422	4.56
399.786	4.33
400.15	4.42
400.514	4.66
400.878	4.66
401.242	4.75
401.605	4.73
401.969	4.53
402.333	4.77
402.697	4.8
403.06	4.71
403.424	4.82
403.787	4.73
404.151	4.84
404.514	4.66
404.878	4.61
405.241	4.67
405.604	4.64
405.968	4.66
406.331	4.77
406.694	4.72
407.057	4.63
407.42	4.61
407.783	4.73
408.146	4.81
408.509	4.73
408.872	4.8
409.235	4.75
409.598	4.8
409.961	4.99
410.323	4.79
410.686	4.84
411.049	4.81
411.411	4.92
411.774	4.77
412.136	4.51
412.499	4.93
412.861	4.45
413.223	4.9
413.586	4.79
413.948	4.98
414.31	4.94
414.672	4.84
415.035	4.97
415.397	4.74
415.759	4.72
416.121	5.09
416.483	4.7
416.845	4.77
417.206	4.79
417.568	4.57
417.93	4.63
418.292	4.67
418.653	4.66
419.015	4.7
419.377	4.67
419.738	4.58
420.1	4.73
420.461	4.51
420.822	4.65
421.184	4.74
421.545	4.69
421.906	4.6
422.267	4.62
422.629	4.54
422.99	4.57
423.351	4.62
423.712	4.68
424.073	4.75
424.434	4.84
424.795	4.67
425.155	4.62
425.516	4.58
425.877	4.63
426.238	4.62
426.598	4.67
426.959	4.73
427.32	4.65
427.68	4.74
428.041	4.8
428.401	4.81
428.761	4.83
429.122	4.76
429.482	4.79
429.842	4.96
430.202	5.1
430.563	4.81
430.923	4.91
431.283	4.97
431.643	4.94
432.003	4.95
432.363	4.98
432.722	4.91
433.082	4.95
433.442	5.05
433.802	4.8
434.161	4.73
434.521	4.9
434.881	4.76
435.24	4.87
435.6	4.83
435.959	4.97
436.319	4.77
436.678	4.95
437.037	4.87
437.396	4.99
437.756	4.79
438.115	4.87
438.474	4.95
438.833	4.82
439.192	4.84
439.551	4.81
439.91	4.92
440.269	4.96
440.628	4.86
440.987	4.85
441.345	4.94
441.704	4.82
442.063	4.84
442.421	4.87
442.78	4.94
443.138	4.84
443.497	4.85
443.855	5.13
444.214	4.77
444.572	5.02
444.93	4.93
445.288	4.95
445.647	4.73
446.005	4.79
446.363	4.87
446.721	4.81
447.079	4.79
447.437	4.83
447.795	4.77
448.153	4.86
448.51	4.83
448.868	4.79
449.226	4.84
449.584	4.88
449.941	4.96
450.299	4.89
450.656	5.01
451.014	5
451.371	5.08
451.729	5.03
452.086	4.91
452.443	5.1
452.801	5.11
453.158	5.17
453.515	4.84
453.872	4.92
454.229	4.86
454.586	4.9
454.943	5.06
455.3	5.27
455.657	5.01
456.014	4.98
456.371	5
456.727	5.02
457.084	5.23
457.441	4.92
457.797	5.02
458.154	5.17
458.51	5
458.867	5.02
459.223	5
459.58	5.14
459.936	5.03
460.292	4.93
460.648	4.83
461.005	4.88
461.361	4.82
461.717	4.91
462.073	5.03
462.429	4.96
462.785	5.06
463.141	5.17
463.496	5.1
463.852	5.22
464.208	5.09
464.564	5.08
464.919	5.11
465.275	5.09
465.631	5.15
465.986	5.22
466.342	4.98
466.697	5.15
467.052	5.27
467.408	5.21
467.763	5.05
468.118	4.95
468.473	5.06
468.829	5.04
469.184	5.17
469.539	4.87
469.894	5.16
470.249	5.13
470.603	5.12
470.958	5.14
471.313	5.22
471.668	5.01
472.023	5.25
472.377	5.05
472.732	5.17
473.086	5.07
473.441	5.06
473.795	5.18
474.15	5.13
474.504	5.1
474.859	5.01
475.213	5.25
475.567	4.99
475.921	5.15
476.275	4.97
476.63	5.11
476.984	4.95
477.338	5.06
477.692	5.01
478.045	5.05
478.399	4.91
478.753	5.04
479.107	5.11
479.461	5.01
479.814	5.08
480.168	5.16
480.521	5.2
480.875	5.07
481.228	5.13
481.582	5.08
481.935	5.19
482.289	5.05
482.642	5.12
482.995	4.96
483.348	4.95
483.701	5
484.055	5.05
484.408	4.95
484.761	4.78
485.114	4.67
485.466	4.63
485.819	4.67
486.172	4.76
486.525	4.82
486.878	4.93
487.23	5.01
487.583	5.01
487.936	5
488.288	4.89
488.641	4.77
488.993	4.75
489.345	4.75
489.698	4.82
490.05	4.83
490.402	4.88
490.754	5.01
491.107	4.99
491.459	5.08
491.811	5
492.163	5.04
492.515	4.9
492.866	4.81
493.218	4.78
493.57	4.86
493.922	4.93
494.274	5.01
494.625	5.19
494.977	5.13
495.328	5.17
495.68	5.12
496.031	5.1
496.383	5.09
496.734	4.98
497.086	5.18
497.437	5.13
497.788	5.14
498.139	5.01
498.49	5.1
498.842	5.05
499.193	4.98
499.544	5.11
499.894	5.15
500.245	5.13
500.596	5.16
500.947	5.23
501.298	5.05
501.648	5.15
501.999	5.2
502.35	5.08
502.7	5.21
503.051	5.04
503.401	5.1
503.752	5.11
504.102	5.02
504.452	5.02
504.803	5.1
505.153	5.22
505.503	5.16
505.853	5.11
506.203	5.11
506.553	5.13
506.903	5.16
507.253	5.1
507.603	5.13
507.953	5.12
508.303	5.18
508.652	5.07
509.002	5.21
509.352	5.08
509.701	4.95
510.051	5.09
510.4	5.12
510.75	4.97
511.099	4.99
511.449	5.08
511.798	5.1
512.147	5.06
512.496	5.21
512.846	5.04
513.195	5.15
513.544	5.08
513.893	5.12
514.242	5.11
514.591	5.07
514.939	5.13
515.288	5.17
515.637	5.23
515.986	5.17
516.334	5.12
516.683	5.15
517.032	5.04
517.38	5.03
517.729	5.26
518.077	5.29
518.426	5.14
518.774	5.11
519.122	5.15
519.47	4.98
519.819	5.06
520.167	5.02
520.515	5.03
520.863	4.99
521.211	5.02
521.559	5.07
521.907	5.15
522.255	5.1
522.602	5.27
522.95	5.24
523.298	5.2
523.645	5.12
523.993	5.22
524.341	5.08
524.688	5.14
525.036	5.19
525.383	5.17
525.73	5.08
526.078	5.2
526.425	5.04
526.772	5.07
527.119	4.99
527.466	5.13
527.814	5.01
528.161	5.15
528.508	5.13
528.854	5.13
529.201	5.02
529.548	4.95
529.895	4.8
530.242	4.78
530.588	4.8
530.935	4.89
531.282	4.91
531.628	4.99
531.975	5.03
532.321	5.06
532.667	5.13
533.014	5.13
533.36	5.12
533.706	5.08
534.052	5.05
534.399	4.98
534.745	4.91
535.091	4.86
535.437	4.93
535.783	4.99
536.129	5.1
536.474	5.15
536.82	5.22
537.166	5.06
537.512	5.11
537.857	4.99
538.203	5.05
538.549	5
538.894	5.04
539.239	5.17
539.585	5.17
539.93	5.23
540.276	5.13
540.621	5.29
540.966	5.2
541.311	5.31
541.656	5.12
542.001	5.03
542.346	4.97
542.691	4.9
543.036	4.87
543.381	4.91
543.726	4.99
544.071	5.1
544.415	5.06
544.76	5.04
545.105	5.07
545.449	4.99
545.794	5.12
546.138	5.09
546.483	5.18
546.827	5.12
547.171	5.19
547.516	5.18
547.86	5.14
548.204	5.03
548.548	5.08
548.892	5.16
549.236	5.17
549.58	5.26
549.924	5.25
550.268	5.29
550.612	5.3
550.956	5.23
551.3	5.48
551.643	5.16
551.987	5.29
552.33	5.33
552.674	5.25
553.017	5.23
553.361	5.35
553.704	5.46
554.048	5.13
554.391	5.23
554.734	5.09
555.077	5.03
555.42	5.14
555.764	5.12
556.107	5.23
556.45	5.34
556.793	5.57
557.135	5.3
557.478	5.36
557.821	5.36
558.164	5.4
558.507	5.23
558.849	5.45
559.192	5.33
559.534	5.37
559.877	5.37
560.219	5.4
560.562	5.33
560.904	5.64
561.246	5.27
561.589	5.47
561.931	5.44
562.273	5.37
562.615	5.29
562.957	5.21
563.299	5.25
563.641	5.23
563.983	5.17
564.325	5.3
564.667	5.31
565.008	5.25
565.35	5.3
565.692	5.43
566.033	5.3
566.375	5.4
566.716	5.22
567.058	5.24
567.399	5.28
567.741	5.28
568.082	5.25
568.423	5.21
568.764	5.15
569.105	5.29
569.447	5.34
569.788	5.27
570.129	5.43
570.47	5.3
570.811	5.23
571.151	5.23
571.492	5.31
571.833	5.27
572.174	5.36
572.514	5.31
572.855	5.41
573.195	5.11
573.536	5.3
573.876	5.25
574.217	5.28
574.557	5.32
574.898	5.14
575.238	5.37
575.578	5.39
575.918	5.35
576.258	5.45
576.598	5.22
576.938	5.15
577.278	5.32
577.618	5.36
577.958	5.42
578.298	5.34
578.638	5.19
578.977	5.35
579.317	5.42
579.657	5.4
579.996	5.46
580.336	5.42
580.675	5.34
581.014	5.26
581.354	5.18
581.693	5.64
582.032	5.55
582.372	5.47
582.711	5.59
583.05	5.14
583.389	5.4
583.728	5.37
584.067	5.24
584.406	5.47
584.745	5.19
585.083	5.1
585.422	5.55
585.761	5.52
586.1	5.31
586.438	5.17
586.777	5.48
587.115	5.6
587.454	5.36
587.792	5.57
588.13	5.47
588.469	5.19
588.807	5.49
589.145	5.54
589.483	5.38
589.821	5.32
590.159	5.17
590.497	5.5
590.835	5.59
591.173	5.48
591.511	5.61
591.849	5.52
592.187	5.29
592.524	5.65
592.862	5.35
593.2	5.42
593.537	5.35
593.875	5.35
594.212	5.4
594.55	5.57
594.887	5.45
595.224	5.52
595.561	5.39
595.899	5.43
596.236	5.49
596.573	5.32
596.91	5.3
597.247	5.62
597.584	5.33
597.921	5.47
598.258	5.51
598.594	5.26
598.931	5.13
599.268	5.33
599.604	5.39
599.941	5.48
600.277	5.22
600.614	5.54
600.95	5.32
601.287	5.44
601.623	5.11
601.959	5.67
602.296	5.58
602.632	5.53
602.968	5.37
603.304	5.32
603.64	5.55
603.976	5.21
604.312	5.5
604.648	5.38
604.984	5.52
605.319	5.48
605.655	5.29
605.991	5.36
606.326	5.14
606.662	5.15
606.998	5.5
607.333	5.35
607.668	5.14
608.004	5.25
608.339	5.22
608.674	5.39
609.01	5.69
609.345	5.55
609.68	5.25
610.015	5.52
610.35	5.34
610.685	5.25
611.02	5.19
611.355	5.38
611.689	5.37
612.024	5.34
612.359	5.4
612.694	5.59
613.028	5.41
613.363	5.28
613.697	5.42
614.032	5.25
614.366	5.35
614.7	5.62
615.035	5.35
615.369	5.7
615.703	5.47
616.037	5.36
616.371	5.41
616.705	5.62
617.039	5.41
617.373	5.67
617.707	5.25
618.041	5.39
618.375	5.16
618.709	5.46
619.042	5.43
619.376	5.4
619.71	5.48
620.043	5.77
620.377	5.54
620.71	5.3
621.043	5.58
621.377	5.55
621.71	5.85
622.043	5.56
622.376	5.22
622.709	5.62
623.043	5.43
623.376	5.13
623.709	5.74
624.041	5.08
624.374	5.84
624.707	5.5
625.04	5.16
625.373	5.65
625.705	5.74
626.038	5.41
626.37	5.23
626.703	5.59
627.035	5.54
627.368	5.89
627.7	5.44
628.032	5.3
628.365	5.68
628.697	5.63
629.029	5.64
629.361	5.46
629.693	5.44
630.025	5.34
630.357	5.58
630.689	5.5
631.021	5.49
631.353	5.58
631.684	5.29
632.016	5.14
632.348	5.2
632.679	5.45
633.011	5.4
633.342	5.44
633.674	5.4
634.005	5.39
634.336	5.76
634.668	5.58
634.999	5.35
635.33	5.51
635.661	5.33
635.992	5.53
636.323	5.65
636.654	5.37
636.985	5.39
637.316	5.53
637.647	5.46
637.977	5.01
638.308	5.75
638.639	5.38
638.969	5.64
639.3	5.56
639.63	5.42
639.961	5.53
640.291	5.17
640.622	5.8
640.952	5.5
641.282	5.48
641.612	5.12
641.943	5.63
642.273	5.12
642.603	5.56
642.933	5.65
643.263	5.31
643.592	6.08
643.922	6.16
644.252	5.34
644.582	5.52
644.911	5.32
645.241	4.91
645.571	5.39
645.9	5.81
646.23	5.8
646.559	5.7
646.888	5.73
647.218	5.42
647.547	5.68
647.876	5.18
648.205	5.44
648.534	5.55
648.863	5.82
649.192	5.32
649.521	5.44
649.85	5.41
650.179	5.46
650.508	5.65
650.837	5.34
651.165	5.36
651.494	5.85
651.822	5.8
652.151	5.09
652.479	5.51
652.808	5.39
653.136	5.26
653.465	5.66
653.793	5.52
654.121	5.53
654.449	5.35
654.777	5.52
655.105	4.9
655.433	6.02
655.761	5.54
656.089	5.54
656.417	6.38
656.745	5.75
657.073	5.58
657.4	5.37
657.728	5.2
658.056	5.73
658.383	5.48
658.711	5.8
659.038	5.87
659.365	5.98
659.693	5.51
660.02	5.19
660.347	5.58
660.674	5.33
661.001	5
661.329	5.23
661.656	5.01
661.982	5.22
662.309	5.63
662.636	5.58
662.963	5.58
663.29	5.62
663.616	5.14
663.943	5.27
664.27	5.59
664.596	5.44
664.923	5.84
665.249	5.89
665.576	5.44
665.902	5.09
666.228	5.95
666.554	5.99
666.881	5.18
667.207	5.51
667.533	5.23
667.859	5.48
668.185	5.59
668.511	6.04
668.837	5.94
669.162	5.76
669.488	5.18
669.814	5.26
670.139	5.43
670.465	5.86
670.791	5.16
671.116	4.96
671.442	4.98
671.767	5.68
672.092	5.28
672.418	5.16
672.743	4.89
673.068	5.69
673.393	5.81
673.718	5.35
674.043	5.52
674.368	5.19
674.693	5.57
675.018	5.56
675.343	6.03
675.667	5.33
675.992	5.56
676.317	4.33
676.641	5.29
676.966	5.89
677.29	5.55
677.615	5.05
677.939	6.19
678.264	5.22
678.588	5.52
678.912	5.23
679.236	5.52
679.56	5.65
679.885	5.36
680.209	5.89
680.532	6.06
680.856	5.82
681.18	6.15
681.504	5.04
681.828	4.97
682.152	5.48
682.475	5.72
682.799	5.11
683.122	5.57
683.446	4.95
683.769	5.93
684.093	5.33
684.416	5.1
684.739	5.33
685.062	5.3
685.386	5.59
685.709	5.55
686.032	5.83
686.355	6.16
686.678	6.27
687.001	5.7
687.324	5.43
687.646	5.14
687.969	5.76
688.292	5.61
688.614	5.77
688.937	6
689.26	5.93
689.582	6.03
689.904	5.25
690.227	6
690.549	5.6
690.871	5.04
691.194	5.3
691.516	5.54
691.838	5.72
692.16	4.79
692.482	5.19
692.804	5.52
693.126	5.62
693.448	4.96
