Data from 21-8_forehead_Reflection__2__27.txt Node

Date: Thu Dec 15 16:38:26 CST 2022
User: ToomeyLab
Spectrometer: FLMS14357
Trigger mode: 0
Integration Time (sec): 1.000000E-2
Scans to average: 100
Electric dark correction enabled: true
Nonlinearity correction enabled: false
Boxcar width: 0
XAxis mode: Wavelengths
Number of Pixels in Spectrum: 2048
>>>>>Begin Spectral Data<<<<<
189.047	130.72
189.435	130.72
189.823	130.72
190.211	110.15
190.599	118.22
190.987	16.64
191.375	279.74
191.763	73.73
192.151	88.86
192.538	12.41
192.926	64.77
193.314	-420.83
193.702	-139
194.089	-1.93
194.477	401.84
194.864	60.33
195.252	74.16
195.639	76.54
196.027	50.64
196.414	-238.68
196.801	-81.91
197.189	50.43
197.576	21.18
197.963	178.98
198.351	54.95
198.738	-19.67
199.125	79.15
199.512	32.52
199.899	-13.95
200.286	-12.93
200.673	63.98
201.06	-2.67
201.447	8.31
201.833	25.05
202.22	21.05
202.607	49.48
202.994	29.08
203.38	30.35
203.767	9.6
204.154	44.07
204.54	26.24
204.927	44.46
205.313	52.59
205.699	63.9
206.086	52.13
206.472	58.94
206.858	60.73
207.245	-3.21
207.631	36.58
208.017	39.34
208.403	-14.18
208.789	44
209.175	-13.65
209.561	-42.58
209.947	11.36
210.333	59.87
210.719	19.99
211.105	27.09
211.491	32.47
211.876	37.48
212.262	15.07
212.648	50.1
213.034	17.23
213.419	35.38
213.805	14.61
214.19	-4.76
214.576	21.08
214.961	28.56
215.346	8.73
215.732	15.12
216.117	19.57
216.502	23.17
216.888	11.31
217.273	34.68
217.658	18.54
218.043	5.03
218.428	13.38
218.813	40.61
219.198	16.43
219.583	9.94
219.968	24.01
220.353	28.63
220.738	29.96
221.122	2.88
221.507	4.56
221.892	1.75
222.276	5.86
222.661	-9.08
223.046	10.67
223.43	26.28
223.815	13.52
224.199	0.89
224.583	5.72
224.968	13.07
225.352	-2.25
225.736	18.53
226.121	13.89
226.505	6.02
226.889	2.98
227.273	2.03
227.657	7.45
228.041	2.81
228.425	7.6
228.809	6.9
229.193	4.15
229.577	6.92
229.961	3.73
230.344	5.06
230.728	5.65
231.112	5.42
231.495	3.98
231.879	4.06
232.263	4.78
232.646	5.3
233.03	5.55
233.413	5.28
233.797	6.25
234.18	7.26
234.563	5.14
234.946	6.23
235.33	5.03
235.713	5.9
236.096	7.62
236.479	6.1
236.862	5.4
237.245	6.54
237.628	6.19
238.011	4.56
238.394	4.97
238.777	6.11
239.16	7.51
239.543	7.33
239.925	5.13
240.308	5.65
240.691	4.86
241.073	5.1
241.456	6.05
241.838	4.58
242.221	5.23
242.603	5.52
242.986	4.62
243.368	4.74
243.75	5.06
244.133	5.14
244.515	4.69
244.897	5.07
245.279	4.44
245.661	5.61
246.043	5.78
246.425	6.14
246.807	5.28
247.189	5.45
247.571	4.89
247.953	5.18
248.335	4.94
248.717	4.96
249.098	4.86
249.48	4.87
249.862	4.97
250.243	5.11
250.625	4.95
251.006	5.43
251.388	4.96
251.769	4.92
252.151	5.79
252.532	5.68
252.913	5.19
253.295	4.85
253.676	5.24
254.057	4.93
254.438	5.22
254.819	5.27
255.2	5.88
255.581	6.47
255.962	6.29
256.343	5.84
256.724	4.66
257.105	6.33
257.486	4.6
257.867	4.96
258.247	5.58
258.628	4.83
259.009	5.14
259.389	4.51
259.77	4.82
260.15	5.44
260.531	5.07
260.911	4.72
261.292	4.81
261.672	4.75
262.052	4.71
262.432	4.61
262.813	5.02
263.193	4.75
263.573	4.43
263.953	4.71
264.333	5.03
264.713	4.8
265.093	4.85
265.473	4.84
265.853	5.48
266.233	5.49
266.612	4.55
266.992	4.59
267.372	4.85
267.752	5.02
268.131	4.33
268.511	4.46
268.89	4.86
269.27	4.15
269.649	4.45
270.029	4.09
270.408	5.06
270.787	5.04
271.167	4.99
271.546	5.75
271.925	4.69
272.304	4.58
272.683	4.54
273.062	4.51
273.441	4.14
273.82	4.67
274.199	4.05
274.578	4.45
274.957	4.84
275.336	4.82
275.715	4.84
276.093	4.74
276.472	4.05
276.851	4.69
277.229	4.35
277.608	3.85
277.986	4.61
278.365	4.93
278.743	4.83
279.122	4.74
279.5	4.12
279.878	4.2
280.257	4.49
280.635	4.44
281.013	4.2
281.391	4.7
281.769	4.95
282.147	4.38
282.525	4.11
282.903	4.26
283.281	4.83
283.659	4.85
284.037	4.24
284.415	4.36
284.792	4.66
285.17	4.24
285.548	4.13
285.925	4.48
286.303	4.65
286.68	4.23
287.058	4.59
287.435	4.27
287.813	4.59
288.19	4.27
288.567	4.47
288.945	4.1
289.322	4.44
289.699	4.65
290.076	4.4
290.453	4.64
290.83	5.05
291.207	4.42
291.584	4.66
291.961	4.51
292.338	4.47
292.715	4.93
293.092	5.23
293.469	4.75
293.845	5.17
294.222	5.52
294.599	4.8
294.975	4.6
295.352	4.71
295.728	4.89
296.105	5.03
296.481	4.86
296.858	4.78
297.234	4.89
297.61	5.01
297.986	5.13
298.363	5.05
298.739	5.11
299.115	5.09
299.491	5.21
299.867	4.9
300.243	5.09
300.619	5.21
300.995	5.67
301.371	5.33
301.746	5.47
302.122	5.06
302.498	5.45
302.874	5.38
303.249	5.62
303.625	5.36
304	5.76
304.376	5.96
304.751	5.58
305.127	5.74
305.502	5.93
305.878	5.83
306.253	5.9
306.628	6.21
307.003	6.02
307.378	6.19
307.754	6.41
308.129	5.86
308.504	6.38
308.879	6.64
309.254	6.93
309.629	6.28
310.003	6.61
310.378	6.7
310.753	6.56
311.128	6.28
311.502	6.84
311.877	6.76
312.252	6.75
312.626	7.22
313.001	7.02
313.375	7.08
313.75	7.34
314.124	7.1
314.498	7.26
314.873	7.31
315.247	7.78
315.621	7.74
315.995	7.13
316.369	7.28
316.743	7.63
317.117	7.81
317.491	8.12
317.865	7.31
318.239	8.68
318.613	8.05
318.987	7.49
319.361	8.29
319.734	8.23
320.108	8.17
320.482	8.45
320.855	8.04
321.229	8.92
321.602	8.18
321.976	8.68
322.349	8.78
322.723	8.54
323.096	8.22
323.469	8.93
323.843	8.68
324.216	8.87
324.589	8.49
324.962	8.47
325.335	8.7
325.708	8.95
326.081	8.99
326.454	9.25
326.827	9.25
327.2	8.97
327.573	8.97
327.945	8.98
328.318	9.22
328.691	9.23
329.063	8.6
329.436	8.89
329.809	9.08
330.181	10.33
330.553	9.01
330.926	9.65
331.298	9.31
331.671	9.69
332.043	9.23
332.415	9.6
332.787	9.94
333.159	8.98
333.532	9.69
333.904	10
334.276	9.64
334.648	9.72
335.02	9.36
335.391	9.93
335.763	9.83
336.135	10.31
336.507	9.62
336.879	9.87
337.25	10.08
337.622	9.67
337.993	9.62
338.365	9.87
338.736	9.97
339.108	9.8
339.479	10.21
339.851	10.42
340.222	10.15
340.593	10.05
340.964	10.03
341.336	10.02
341.707	10.14
342.078	10.02
342.449	10.29
342.82	10.23
343.191	10.36
343.562	10.38
343.933	9.91
344.303	10.25
344.674	10.36
345.045	10.54
345.416	10.88
345.786	10.41
346.157	10.59
346.527	10.52
346.898	10.45
347.268	10.56
347.639	10.57
348.009	10.99
348.38	10.49
348.75	10.94
349.12	10.63
349.49	10.77
349.861	10.79
350.231	10.67
350.601	10.63
350.971	10.75
351.341	11.11
351.711	10.63
352.081	10.72
352.45	10.57
352.82	10.69
353.19	10.76
353.56	11
353.929	11.14
354.299	11.2
354.669	11.29
355.038	11.45
355.408	10.97
355.777	11.71
356.147	11.03
356.516	11.27
356.885	11.11
357.254	11.43
357.624	11.16
357.993	11.52
358.362	11.44
358.731	11.69
359.1	10.98
359.469	11.66
359.838	11.4
360.207	11.28
360.576	11.92
360.945	11.79
361.314	11.57
361.682	11.16
362.051	11.42
362.42	11.65
362.788	11.55
363.157	11.4
363.525	11.66
363.894	11.28
364.262	11.76
364.631	11.85
364.999	11.75
365.367	11.91
365.735	11.71
366.104	11.71
366.472	11.94
366.84	11.76
367.208	12.31
367.576	11.95
367.944	11.92
368.312	12.07
368.68	12.16
369.048	11.87
369.416	11.99
369.783	12.07
370.151	12.22
370.519	12.86
370.886	12.45
371.254	12.4
371.621	12.21
371.989	12.62
372.356	12.41
372.724	12.31
373.091	12.29
373.458	12.28
373.826	12.53
374.193	12.49
374.56	12.66
374.927	12.29
375.294	12.94
375.661	12.83
376.028	12.45
376.395	12.58
376.762	12.67
377.129	12.66
377.496	12.81
377.863	12.65
378.229	13.2
378.596	12.61
378.963	12.93
379.329	12.73
379.696	12.62
380.062	13.02
380.429	12.66
380.795	13.17
381.161	12.93
381.528	12.62
381.894	12.96
382.26	12.88
382.626	13.28
382.993	13.54
383.359	13.21
383.725	13.06
384.091	13.17
384.457	12.9
384.823	13.11
385.188	13.18
385.554	13.34
385.92	13.07
386.286	13.14
386.651	13.3
387.017	13.52
387.383	13.36
387.748	13.45
388.114	13.42
388.479	13.28
388.845	13.48
389.21	13.82
389.575	13.73
389.94	13.79
390.306	13.92
390.671	13.68
391.036	13.63
391.401	13.62
391.766	13.58
392.131	13.94
392.496	13.62
392.861	13.51
393.226	13.53
393.591	13.72
393.956	13.73
394.32	13.84
394.685	13.65
395.05	14.03
395.414	14.22
395.779	13.65
396.143	13.94
396.508	13.9
396.872	14.03
397.236	14.09
397.601	14.01
397.965	14.07
398.329	14.19
398.694	14.17
399.058	14.01
399.422	14.27
399.786	14.04
400.15	13.85
400.514	14.12
400.878	14.23
401.242	14.02
401.605	14.3
401.969	13.93
402.333	14.33
402.697	14.47
403.06	14.28
403.424	14.11
403.787	14.32
404.151	14.29
404.514	14.25
404.878	14.41
405.241	14.33
405.604	14.15
405.968	14.39
406.331	14.58
406.694	14.44
407.057	14.28
407.42	14.49
407.783	14.43
408.146	14.45
408.509	14.62
408.872	14.51
409.235	14.63
409.598	14.58
409.961	14.96
410.323	14.62
410.686	14.45
411.049	14.58
411.411	14.41
411.774	14.76
412.136	14.55
412.499	14.8
412.861	14.67
413.223	14.88
413.586	14.86
413.948	14.83
414.31	14.73
414.672	14.81
415.035	15.15
415.397	14.8
415.759	14.84
416.121	15.26
416.483	15.04
416.845	14.97
417.206	14.68
417.568	14.88
417.93	15.01
418.292	14.97
418.653	14.8
419.015	14.81
419.377	14.8
419.738	15.05
420.1	15
420.461	14.93
420.822	15.1
421.184	14.94
421.545	15.01
421.906	15.07
422.267	14.99
422.629	14.93
422.99	14.97
423.351	15.06
423.712	15.22
424.073	15.27
424.434	15.51
424.795	15.32
425.155	15.22
425.516	15.14
425.877	15.19
426.238	15.34
426.598	15.4
426.959	15.6
427.32	15.66
427.68	15.74
428.041	15.94
428.401	16.04
428.761	16.05
429.122	16.26
429.482	16.14
429.842	16.27
430.202	16.24
430.563	16.28
430.923	16.23
431.283	16.44
431.643	16.71
432.003	16.39
432.363	16.33
432.722	16.28
433.082	16.58
433.442	16.52
433.802	16.31
434.161	16.51
434.521	16.27
434.881	16.55
435.24	16.48
435.6	16.61
435.959	16.64
436.319	16.76
436.678	16.92
437.037	16.81
437.396	17.01
437.756	16.69
438.115	17.01
438.474	17.01
438.833	17.03
439.192	16.86
439.551	17.06
439.91	17.12
440.269	17.01
440.628	16.89
440.987	17.05
441.345	17.13
441.704	16.95
442.063	17
442.421	17.08
442.78	17.12
443.138	17.21
443.497	17.23
443.855	17.41
444.214	17.35
444.572	17.69
444.93	17.54
445.288	17.7
445.647	17.43
446.005	17.59
446.363	17.46
446.721	17.26
447.079	17.29
447.437	17.37
447.795	17.35
448.153	17.32
448.51	17.33
448.868	17.55
449.226	17.58
449.584	17.69
449.941	17.97
450.299	17.98
450.656	18.13
451.014	18.39
451.371	18.37
451.729	18.31
452.086	18.37
452.443	18.52
452.801	18.6
453.158	18.5
453.515	18.29
453.872	18.38
454.229	18.18
454.586	18.21
454.943	18.55
455.3	18.65
455.657	18.51
456.014	18.6
456.371	18.84
456.727	18.75
457.084	18.75
457.441	18.86
457.797	18.91
458.154	18.99
458.51	18.93
458.867	18.86
459.223	18.81
459.58	19.05
459.936	18.91
460.292	18.59
460.648	18.76
461.005	18.64
461.361	18.5
461.717	18.54
462.073	18.68
462.429	19
462.785	19.15
463.141	19.28
463.496	19.28
463.852	19.48
464.208	19.63
464.564	19.39
464.919	19.45
465.275	19.45
465.631	19.78
465.986	19.76
466.342	19.42
466.697	19.55
467.052	19.77
467.408	19.92
467.763	19.85
468.118	19.46
468.473	19.8
468.829	19.58
469.184	19.74
469.539	19.64
469.894	19.81
470.249	19.85
470.603	20.15
470.958	20.17
471.313	20.05
471.668	20.05
472.023	20.27
472.377	20.31
472.732	20.34
473.086	20.18
473.441	20.37
473.795	20.61
474.15	20.27
474.504	20.31
474.859	20.17
475.213	20.4
475.567	20.35
475.921	20.72
476.275	20.68
476.63	20.58
476.984	20.39
477.338	20.86
477.692	20.77
478.045	20.74
478.399	20.79
478.753	20.69
479.107	20.79
479.461	20.69
479.814	20.85
480.168	20.91
480.521	21.02
480.875	21
481.228	20.91
481.582	21.07
481.935	21.22
482.289	21.07
482.642	20.98
482.995	20.9
483.348	20.82
483.701	20.8
484.055	20.76
484.408	20.87
484.761	20.36
485.114	20.09
485.466	20.05
485.819	20.15
486.172	20.37
486.525	20.52
486.878	20.76
487.23	20.98
487.583	21.08
487.936	21.07
488.288	20.83
488.641	20.69
488.993	20.67
489.345	20.74
489.698	20.81
490.05	20.92
490.402	21.04
490.754	21.33
491.107	21.58
491.459	21.78
491.811	21.8
492.163	21.76
492.515	21.45
492.866	21.16
493.218	21.05
493.57	21.26
493.922	21.41
494.274	21.71
494.625	21.85
494.977	22.15
495.328	22.3
495.68	22.37
496.031	22.34
496.383	22.42
496.734	22.5
497.086	22.58
497.437	22.59
497.788	22.49
498.139	22.5
498.49	22.62
498.842	22.42
499.193	22.45
499.544	22.55
499.894	22.55
500.245	22.75
500.596	22.66
500.947	22.87
501.298	22.85
501.648	22.96
501.999	23.2
502.35	23.07
502.7	23.28
503.051	23.31
503.401	23.31
503.752	23.22
504.102	23.25
504.452	23.32
504.803	23.46
505.153	23.53
505.503	23.32
505.853	23.43
506.203	23.44
506.553	23.5
506.903	23.57
507.253	23.54
507.603	23.76
507.953	23.69
508.303	23.82
508.652	23.66
509.002	23.78
509.352	23.64
509.701	23.67
510.051	23.72
510.4	23.56
510.75	23.62
511.099	23.7
511.449	23.73
511.798	23.81
512.147	23.87
512.496	24.03
512.846	24.01
513.195	24.04
513.544	24.02
513.893	24.02
514.242	24.23
514.591	24.15
514.939	24.38
515.288	24.47
515.637	24.5
515.986	24.51
516.334	24.54
516.683	24.68
517.032	24.69
517.38	24.79
517.729	24.72
518.077	24.9
518.426	24.69
518.774	24.62
519.122	24.68
519.47	24.49
519.819	24.36
520.167	24.45
520.515	24.4
520.863	24.52
521.211	24.72
521.559	24.66
521.907	25.02
522.255	25.09
522.602	25.22
522.95	25.22
523.298	25.38
523.645	25.27
523.993	25.38
524.341	25.48
524.688	25.47
525.036	25.61
525.383	25.42
525.73	25.72
526.078	25.5
526.425	25.38
526.772	25.25
527.119	25.2
527.466	25.26
527.814	25.22
528.161	25.42
528.508	25.59
528.854	25.41
529.201	25.38
529.548	25.06
529.895	24.79
530.242	24.79
530.588	24.91
530.935	25.05
531.282	25.16
531.628	25.49
531.975	25.55
532.321	25.82
532.667	25.97
533.014	26.14
533.36	26.11
533.706	26.01
534.052	26.12
534.399	25.93
534.745	25.6
535.091	25.73
535.437	25.85
535.783	25.98
536.129	26.21
536.474	26.49
536.82	26.64
537.166	26.57
537.512	26.67
537.857	26.44
538.203	26.39
538.549	26.38
538.894	26.59
539.239	26.84
539.585	26.92
539.93	27.19
540.276	27.24
540.621	27.38
540.966	27.48
541.311	27.48
541.656	27.26
542.001	27.22
542.346	26.81
542.691	26.46
543.036	26.41
543.381	26.67
543.726	26.85
544.071	26.96
544.415	27.11
544.76	27.08
545.105	27.35
545.449	27.49
545.794	27.61
546.138	27.78
546.483	27.92
546.827	27.76
547.171	27.92
547.516	28
547.86	27.9
548.204	27.74
548.548	27.85
548.892	28.12
549.236	28.19
549.58	28.39
549.924	28.53
550.268	28.74
550.612	28.73
550.956	29.03
551.3	28.96
551.643	28.89
551.987	29.17
552.33	29.06
552.674	29.11
553.017	28.98
553.361	29.18
553.704	29.08
554.048	28.9
554.391	29.05
554.734	29.04
555.077	29.18
555.42	29.09
555.764	29.45
556.107	29.42
556.45	29.52
556.793	29.72
557.135	29.76
557.478	29.77
557.821	29.79
558.164	29.69
558.507	29.56
558.849	30.05
559.192	29.95
559.534	29.8
559.877	29.93
560.219	30
560.562	30.15
560.904	30.21
561.246	30.08
561.589	30.42
561.931	30.2
562.273	30.42
562.615	30.36
562.957	30.46
563.299	30.19
563.641	30.41
563.983	30.52
564.325	30.54
564.667	30.46
565.008	30.55
565.35	30.76
565.692	30.77
566.033	30.67
566.375	31.03
566.716	30.72
567.058	30.9
567.399	30.73
567.741	30.83
568.082	30.58
568.423	30.68
568.764	30.69
569.105	30.91
569.447	31.07
569.788	31.04
570.129	31.18
570.47	31.47
570.811	31.47
571.151	31.36
571.492	31.3
571.833	31.42
572.174	31.42
572.514	31.33
572.855	31.5
573.195	31.28
573.536	31.58
573.876	31.23
574.217	31.37
574.557	31.61
574.898	31.61
575.238	31.71
575.578	32.07
575.918	32
576.258	32.06
576.598	31.8
576.938	31.72
577.278	31.89
577.618	31.94
577.958	32.43
578.298	32.4
578.638	32.22
578.977	32.6
579.317	32.61
579.657	32.52
579.996	32.65
580.336	32.69
580.675	32.67
581.014	32.96
581.354	32.86
581.693	33.08
582.032	33
582.372	32.94
582.711	33
583.05	33.18
583.389	33.22
583.728	33.08
584.067	33.27
584.406	33.35
584.745	33.29
585.083	33.59
585.422	33.64
585.761	33.6
586.1	33.73
586.438	33.77
586.777	33.7
587.115	33.5
587.454	33.6
587.792	33.92
588.13	33.69
588.469	33.67
588.807	33.98
589.145	33.94
589.483	33.99
589.821	33.77
590.159	33.93
590.497	33.68
590.835	34
591.173	34.36
591.511	34.15
591.849	34.2
592.187	34.2
592.524	34.18
592.862	34.36
593.2	34.53
593.537	34.65
593.875	34.71
594.212	34.66
594.55	34.9
594.887	34.8
595.224	34.66
595.561	34.59
595.899	34.79
596.236	34.84
596.573	34.82
596.91	34.9
597.247	35.03
597.584	34.98
597.921	34.87
598.258	34.76
598.594	34.62
598.931	34.73
599.268	34.66
599.604	35.01
599.941	35.26
600.277	35.2
600.614	35.24
600.95	35.6
601.287	35.51
601.623	35.59
601.959	35.89
602.296	35.85
602.632	35.51
602.968	35.72
603.304	35.62
603.64	35.97
603.976	35.62
604.312	35.97
604.648	35.65
604.984	35.76
605.319	35.76
605.655	35.7
605.991	35.68
606.326	35.69
606.662	35.75
606.998	35.71
607.333	36.06
607.668	36.14
608.004	36.34
608.339	36.04
608.674	36.73
609.01	36.93
609.345	36.42
609.68	36.55
610.015	36.8
610.35	36.74
610.685	36.15
611.02	36.42
611.355	36.35
611.689	36.51
612.024	36.49
612.359	36.84
612.694	37.39
613.028	36.59
613.363	37.47
613.697	37.29
614.032	37.26
614.366	37.32
614.7	37.57
615.035	37.61
615.369	37.64
615.703	37.24
616.037	37.36
616.371	37.37
616.705	37.49
617.039	37.91
617.373	37.96
617.707	37.61
618.041	37.41
618.375	37.33
618.709	38.08
619.042	38.11
619.376	38.15
619.71	38.13
620.043	38.02
620.377	38.05
620.71	38.15
621.043	38.56
621.377	38.72
621.71	38.32
622.043	38.45
622.376	38.29
622.709	38.7
623.043	38.5
623.376	38.13
623.709	38.51
624.041	38.7
624.374	38.58
624.707	38.26
625.04	38.67
625.373	38.87
625.705	38.7
626.038	38.8
626.37	38.79
626.703	38.76
627.035	38.91
627.368	39.1
627.7	38.62
628.032	39.05
628.365	38.93
628.697	38.89
629.029	38.99
629.361	39.1
629.693	38.91
630.025	38.88
630.357	39.27
630.689	39.15
631.021	39.63
631.353	39.88
631.684	39.57
632.016	39.51
632.348	39.66
632.679	39.83
633.011	39.88
633.342	39.73
633.674	39.49
634.005	39.76
634.336	39.96
634.668	40.14
634.999	39.49
635.33	40.09
635.661	39.81
635.992	40.08
636.323	40.16
636.654	40.08
636.985	40.2
637.316	39.96
637.647	40.4
637.977	39.79
638.308	40.53
638.639	40.08
638.969	40.5
639.3	40.18
639.63	39.97
639.961	40.69
640.291	41.17
640.622	40.62
640.952	40.94
641.282	40.76
641.612	40.66
641.943	40.84
642.273	40.74
642.603	41.12
642.933	40.74
643.263	41.18
643.592	40.69
643.922	41.14
644.252	40.87
644.582	41.38
644.911	40.98
645.241	41.11
645.571	41.12
645.9	41.04
646.23	41.32
646.559	41.4
646.888	41.77
647.218	41.22
647.547	41.79
647.876	41.27
648.205	41.21
648.534	41.62
648.863	41.21
649.192	41.72
649.521	41.67
649.85	42.01
650.179	41.89
650.508	41.69
650.837	41.58
651.165	41.43
651.494	41.98
651.822	42.3
652.151	42.08
652.479	42.08
652.808	41.86
653.136	42.18
653.465	41.99
653.793	42.49
654.121	42.36
654.449	42.44
654.777	42.28
655.105	42.29
655.433	42.6
655.761	42.48
656.089	42.18
656.417	42.5
656.745	42.91
657.073	42.53
657.4	42.31
657.728	42.9
658.056	42.69
658.383	43.03
658.711	43.36
659.038	43.4
659.365	43.1
659.693	43.34
660.02	42.63
660.347	43.04
660.674	42.83
661.001	42.85
661.329	43.24
661.656	42.76
661.982	43.03
662.309	42.89
662.636	43.71
662.963	43.53
663.29	43.39
663.616	43.26
663.943	44.08
664.27	43.64
664.596	44.13
664.923	44.47
665.249	44.69
665.576	43.9
665.902	43.01
666.228	44.07
666.554	43.96
666.881	43.76
667.207	44.44
667.533	44.73
667.859	43.8
668.185	44.06
668.511	44.55
668.837	44.01
669.162	44.43
669.488	44.31
669.814	44.42
670.139	43.93
670.465	44.67
