Data from 21-8_chest_Reflection__3__18.txt Node

Date: Thu Dec 15 16:34:47 CST 2022
User: ToomeyLab
Spectrometer: FLMS14357
Trigger mode: 0
Integration Time (sec): 1.000000E-2
Scans to average: 100
Electric dark correction enabled: true
Nonlinearity correction enabled: false
Boxcar width: 0
XAxis mode: Wavelengths
Number of Pixels in Spectrum: 2048
>>>>>Begin Spectral Data<<<<<
189.047	-54.53
189.435	-54.53
189.823	-54.53
190.211	-13.32
190.599	29.74
190.987	54.28
191.375	-266.64
191.763	42.71
192.151	78.88
192.538	141.12
192.926	218
193.314	-280.86
193.702	-286.19
194.089	-256.35
194.477	206.55
194.864	55.86
195.252	92.21
195.639	103.06
196.027	-20.29
196.414	-247.94
196.801	-45.47
197.189	107.79
197.576	48.36
197.963	321.02
198.351	29.64
198.738	-49.66
199.125	-45.76
199.512	58.09
199.899	12.1
200.286	-41.71
200.673	52.73
201.06	-55.15
201.447	19.7
201.833	-7.09
202.22	12.9
202.607	-12.85
202.994	6
203.38	25.45
203.767	-1.19
204.154	31.57
204.54	16.3
204.927	32.06
205.313	33.08
205.699	23.06
206.086	18.84
206.472	50.2
206.858	8.9
207.245	-15.67
207.631	21.42
208.017	24.38
208.403	12.27
208.789	21.92
209.175	-7.71
209.561	-75.04
209.947	-11.77
210.333	-16.33
210.719	19.89
211.105	23.66
211.491	22.51
211.876	3.03
212.262	15.15
212.648	19.37
213.034	-14.29
213.419	9.47
213.805	23.54
214.19	-0.25
214.576	-15.97
214.961	34.77
215.346	3.48
215.732	25.75
216.117	25.11
216.502	18.03
216.888	7.74
217.273	16.1
217.658	12.85
218.043	8.37
218.428	1.94
218.813	1.95
219.198	-15.32
219.583	3.2
219.968	2.07
220.353	-9.96
220.738	5.97
221.122	-7.02
221.507	4.09
221.892	4.04
222.276	-8.81
222.661	-7.02
223.046	1.31
223.43	17.45
223.815	8.49
224.199	0.42
224.583	9
224.968	5.72
225.352	-8.18
225.736	9.4
226.121	5.87
226.505	4.47
226.889	6.8
227.273	-1.46
227.657	4.86
228.041	4.87
228.425	0.95
228.809	2.09
229.193	5.39
229.577	3.88
229.961	3.4
230.344	3.99
230.728	3.92
231.112	4.62
231.495	3.7
231.879	3.63
232.263	5.39
232.646	3.08
233.03	5.1
233.413	4.4
233.797	4.11
234.18	4.73
234.563	5.03
234.946	2.8
235.33	4.28
235.713	5.07
236.096	5.02
236.479	6.43
236.862	1.69
237.245	4.44
237.628	4.58
238.011	4.5
238.394	5.53
238.777	5.55
239.16	4.02
239.543	4.52
239.925	3.21
240.308	1.78
240.691	3.73
241.073	3.36
241.456	4.02
241.838	3.7
242.221	3.12
242.603	3.93
242.986	3.88
243.368	4.42
243.75	3.7
244.133	4.14
244.515	3.62
244.897	4.2
245.279	3.78
245.661	3.94
246.043	4.17
246.425	4.14
246.807	4.99
247.189	4.17
247.571	3.84
247.953	3.84
248.335	3.93
248.717	3.72
249.098	3.89
249.48	3.71
249.862	4.13
250.243	4.03
250.625	4.17
251.006	4.93
251.388	4.57
251.769	4.1
252.151	4.45
252.532	3.96
252.913	3.67
253.295	3.41
253.676	3.72
254.057	3.58
254.438	3.7
254.819	4.56
255.2	4.61
255.581	5
255.962	5.1
256.343	4.85
256.724	4.29
257.105	3.64
257.486	3.53
257.867	4.17
258.247	4.19
258.628	4.14
259.009	3.62
259.389	3.44
259.77	3.89
260.15	4.17
260.531	3.66
260.911	3.38
261.292	3.63
261.672	3.53
262.052	3.66
262.432	3.33
262.813	3.69
263.193	4.1
263.573	3.76
263.953	3.2
264.333	3.74
264.713	4.07
265.093	3.67
265.473	3.02
265.853	4.23
266.233	3.29
266.612	3.67
266.992	4.22
267.372	3.65
267.752	4.22
268.131	3.21
268.511	3.45
268.89	3.86
269.27	3.33
269.649	3.57
270.029	3.65
270.408	3.39
270.787	3.89
271.167	3.68
271.546	3.9
271.925	3.13
272.304	3.69
272.683	3.36
273.062	3.48
273.441	3.65
273.82	3.63
274.199	3.54
274.578	3.95
274.957	3.39
275.336	3.98
275.715	3.82
276.093	3.17
276.472	3.13
276.851	3.41
277.229	3.62
277.608	3.17
277.986	3.85
278.365	3.87
278.743	3.91
279.122	3.83
279.5	3.27
279.878	3.42
280.257	3.39
280.635	3.75
281.013	3.05
281.391	3.74
281.769	3.92
282.147	3.51
282.525	3.48
282.903	3.52
283.281	4.01
283.659	3.56
284.037	3.38
284.415	3.21
284.792	3.23
285.17	3.48
285.548	3.61
285.925	3.23
286.303	3.86
286.68	3.65
287.058	3.82
287.435	3.14
287.813	3.58
288.19	3.42
288.567	3.22
288.945	3.28
289.322	3.59
289.699	3.79
290.076	3.26
290.453	3.2
290.83	3.6
291.207	3.46
291.584	3.75
291.961	3.54
292.338	3.47
292.715	3.14
293.092	3.79
293.469	3.84
293.845	3.67
294.222	3.99
294.599	3.5
294.975	3.06
295.352	3.45
295.728	3.59
296.105	3.68
296.481	3.79
296.858	3.71
297.234	3.47
297.61	3.92
297.986	4.13
298.363	3.76
298.739	3.66
299.115	3.54
299.491	3.99
299.867	3.3
300.243	3.4
300.619	3.79
300.995	3.7
301.371	3.96
301.746	3.85
302.122	3.5
302.498	3.57
302.874	4.21
303.249	3.54
303.625	3.35
304	3.74
304.376	4.28
304.751	3.91
305.127	3.56
305.502	3.7
305.878	3.88
306.253	3.51
306.628	3.59
307.003	3.93
307.378	3.75
307.754	3.86
308.129	3.49
308.504	4.03
308.879	3.96
309.254	4.04
309.629	3.82
310.003	3.81
310.378	3.81
310.753	3.94
311.128	3.96
311.502	3.86
311.877	3.8
312.252	4.04
312.626	4.3
313.001	4.08
313.375	4.09
313.75	3.8
314.124	4.05
314.498	4.32
314.873	3.97
315.247	3.85
315.621	4.21
315.995	3.87
316.369	4.04
316.743	3.86
317.117	3.64
317.491	4.62
317.865	3.48
318.239	4.13
318.613	3.77
318.987	3.56
319.361	3.7
319.734	3.84
320.108	3.56
320.482	4.07
320.855	4.1
321.229	4.21
321.602	4.05
321.976	3.79
322.349	4.51
322.723	4.82
323.096	4
323.469	4.37
323.843	3.45
324.216	4
324.589	4.57
324.962	3.77
325.335	4.08
325.708	4.15
326.081	3.89
326.454	4.21
326.827	4.09
327.2	3.79
327.573	4.44
327.945	4.15
328.318	3.8
328.691	4.29
329.063	3.73
329.436	4.1
329.809	4.57
330.181	4.29
330.553	4.31
330.926	4.27
331.298	3.87
331.671	4.17
332.043	3.83
332.415	4.19
332.787	4.32
333.159	3.49
333.532	3.84
333.904	3.81
334.276	4.14
334.648	4.04
335.02	3.76
335.391	4.12
335.763	4.18
336.135	3.8
336.507	3.96
336.879	3.89
337.25	4.03
337.622	4.18
337.993	4.31
338.365	3.95
338.736	4.33
339.108	3.42
339.479	4.22
339.851	4.15
340.222	4.56
340.593	3.79
340.964	4.47
341.336	3.81
341.707	3.78
342.078	3.78
342.449	4.02
342.82	4.01
343.191	3.89
343.562	4.06
343.933	4.07
344.303	4.26
344.674	4.03
345.045	4.34
345.416	4.29
345.786	3.9
346.157	4.41
346.527	4.01
346.898	3.74
347.268	4.2
347.639	3.73
348.009	3.84
348.38	4.01
348.75	4.36
349.12	3.95
349.49	4.37
349.861	4.11
350.231	4.01
350.601	4.16
350.971	4.15
351.341	4.18
351.711	4.13
352.081	3.57
352.45	3.85
352.82	3.6
353.19	3.85
353.56	3.84
353.929	4.14
354.299	4.19
354.669	3.94
355.038	4.29
355.408	3.81
355.777	4.26
356.147	4.13
356.516	3.97
356.885	4.13
357.254	4.06
357.624	3.51
357.993	4.08
358.362	4.33
358.731	4.13
359.1	4.06
359.469	4.01
359.838	4.13
360.207	3.97
360.576	4.04
360.945	4.42
361.314	4.05
361.682	3.73
362.051	4.02
362.42	4.21
362.788	4.04
363.157	3.87
363.525	3.98
363.894	3.69
364.262	4.03
364.631	4.38
364.999	4.01
365.367	4.23
365.735	3.83
366.104	4.12
366.472	4.12
366.84	3.97
367.208	4.28
367.576	3.78
367.944	3.97
368.312	3.97
368.68	4.23
369.048	4
369.416	3.85
369.783	3.77
370.151	4.44
370.519	4.52
370.886	4.26
371.254	4.58
371.621	4.03
371.989	4.45
372.356	4.18
372.724	3.92
373.091	3.77
373.458	4.06
373.826	4.26
374.193	4.15
374.56	4.28
374.927	4
375.294	4.27
375.661	4.2
376.028	4.27
376.395	4.28
376.762	4.16
377.129	3.97
377.496	4.19
377.863	4.21
378.229	4.3
378.596	4.08
378.963	4.15
379.329	4.11
379.696	4.24
380.062	3.91
380.429	3.99
380.795	4.41
381.161	3.94
381.528	3.95
381.894	4.14
382.26	4.15
382.626	4.4
382.993	4.32
383.359	3.8
383.725	3.99
384.091	4.27
384.457	3.91
384.823	4.12
385.188	4.05
385.554	4.02
385.92	4.06
386.286	4.2
386.651	3.98
387.017	4.35
387.383	4.25
387.748	4.38
388.114	4.26
388.479	4.09
388.845	3.86
389.21	4.18
389.575	4.44
389.94	4.47
390.306	4.26
390.671	4.32
391.036	4.06
391.401	4.25
391.766	4.13
392.131	4.34
392.496	4.44
392.861	4.1
393.226	3.95
393.591	4.06
393.956	4.13
394.32	4.16
394.685	4.21
395.05	4.06
395.414	3.98
395.779	4.32
396.143	4.15
396.508	4.1
396.872	4.04
397.236	4.4
397.601	4.39
397.965	4.25
398.329	4.43
398.694	4.24
399.058	4.16
399.422	4.03
399.786	4
400.15	4.23
400.514	4.34
400.878	4.03
401.242	4.3
401.605	4.21
401.969	4.19
402.333	3.89
402.697	4.5
403.06	4.15
403.424	4.33
403.787	4.14
404.151	4.18
404.514	4.4
404.878	4.1
405.241	4.09
405.604	4.2
405.968	4.09
406.331	4.18
406.694	4.26
407.057	4.1
407.42	4.03
407.783	4.29
408.146	4.14
408.509	4.32
408.872	4.28
409.235	4.08
409.598	4.16
409.961	4.27
410.323	4.1
410.686	4.14
411.049	4.16
411.411	4.24
411.774	4.14
412.136	4.16
412.499	4.17
412.861	3.85
413.223	4.02
413.586	4.03
413.948	4.36
414.31	4.18
414.672	4.13
415.035	4.38
415.397	4.11
415.759	3.9
416.121	4.19
416.483	4.09
416.845	4.29
417.206	3.99
417.568	4.11
417.93	4.26
418.292	4.04
418.653	3.97
419.015	4.14
419.377	4.05
419.738	4.11
420.1	4.08
420.461	4.03
420.822	4.09
421.184	3.99
421.545	4.12
421.906	4.08
422.267	4.12
422.629	4.05
422.99	3.96
423.351	4.01
423.712	4.13
424.073	4.22
424.434	4.18
424.795	4.05
425.155	3.96
425.516	4.07
425.877	4.06
426.238	4.1
426.598	4.09
426.959	4.11
427.32	4.13
427.68	4.18
428.041	4.23
428.401	4.09
428.761	4.33
429.122	4.26
429.482	4.22
429.842	4.15
430.202	4.36
430.563	4.25
430.923	4.35
431.283	4.3
431.643	4.36
432.003	4.37
432.363	4.47
432.722	4.18
433.082	4.14
433.442	4.28
433.802	4.29
434.161	4.33
434.521	4.22
434.881	4.25
435.24	4.19
435.6	4.37
435.959	4.34
436.319	4.31
436.678	4.44
437.037	4.37
437.396	4.26
437.756	4.25
438.115	4.39
438.474	4.39
438.833	4.34
439.192	4.31
439.551	4.35
439.91	4.35
440.269	4.4
440.628	4.3
440.987	4.31
441.345	4.3
441.704	4.34
442.063	4.21
442.421	4.3
442.78	4.28
443.138	4.29
443.497	4.41
443.855	4.4
444.214	4.22
444.572	4.52
444.93	4.48
445.288	4.4
445.647	4.28
446.005	4.35
446.363	4.23
446.721	4.36
447.079	4.18
447.437	4.28
447.795	4.32
448.153	4.28
448.51	4.36
448.868	4.31
449.226	4.3
449.584	4.36
449.941	4.42
450.299	4.44
450.656	4.51
451.014	4.45
451.371	4.49
451.729	4.45
452.086	4.5
452.443	4.53
452.801	4.41
453.158	4.72
453.515	4.28
453.872	4.45
454.229	4.39
454.586	4.34
454.943	4.58
455.3	4.51
455.657	4.41
456.014	4.43
456.371	4.52
456.727	4.66
457.084	4.55
457.441	4.54
457.797	4.56
458.154	4.58
458.51	4.51
458.867	4.47
459.223	4.49
459.58	4.53
459.936	4.33
460.292	4.44
460.648	4.37
461.005	4.39
461.361	4.32
461.717	4.33
462.073	4.41
462.429	4.54
462.785	4.64
463.141	4.47
463.496	4.58
463.852	4.67
464.208	4.57
464.564	4.55
464.919	4.57
465.275	4.58
465.631	4.59
465.986	4.46
466.342	4.48
466.697	4.51
467.052	4.71
467.408	4.67
467.763	4.55
468.118	4.65
468.473	4.65
468.829	4.63
469.184	4.6
469.539	4.46
469.894	4.68
470.249	4.64
470.603	4.78
470.958	4.65
471.313	4.54
471.668	4.77
472.023	4.63
472.377	4.6
472.732	4.72
473.086	4.52
473.441	4.49
473.795	4.83
474.15	4.66
474.504	4.64
474.859	4.48
475.213	4.69
475.567	4.5
475.921	4.77
476.275	4.71
476.63	4.68
476.984	4.51
477.338	4.78
477.692	4.63
478.045	4.66
478.399	4.76
478.753	4.6
479.107	4.63
479.461	4.66
479.814	4.68
480.168	4.62
480.521	4.72
480.875	4.77
481.228	4.63
481.582	4.58
481.935	4.69
482.289	4.71
482.642	4.66
482.995	4.6
483.348	4.59
483.701	4.61
484.055	4.54
484.408	4.58
484.761	4.51
485.114	4.34
485.466	4.25
485.819	4.31
486.172	4.43
486.525	4.46
486.878	4.58
487.23	4.59
487.583	4.63
487.936	4.56
488.288	4.5
488.641	4.51
488.993	4.43
489.345	4.42
489.698	4.47
490.05	4.47
490.402	4.54
490.754	4.66
491.107	4.62
491.459	4.71
491.811	4.73
492.163	4.69
492.515	4.56
492.866	4.45
493.218	4.46
493.57	4.56
493.922	4.59
494.274	4.73
494.625	4.75
494.977	4.77
495.328	4.83
495.68	4.78
496.031	4.68
496.383	4.75
496.734	4.79
497.086	4.87
497.437	4.89
497.788	4.84
498.139	4.78
498.49	4.8
498.842	4.82
499.193	4.76
499.544	4.85
499.894	4.72
500.245	4.83
500.596	4.97
500.947	4.89
501.298	4.8
501.648	4.89
501.999	4.96
502.35	4.91
502.7	5.15
503.051	4.94
503.401	4.96
503.752	4.84
504.102	4.84
504.452	4.9
504.803	4.88
505.153	4.93
505.503	4.94
505.853	4.85
506.203	4.93
506.553	4.88
506.903	4.99
507.253	4.86
507.603	4.94
507.953	4.97
508.303	5.05
508.652	4.82
509.002	5.02
509.352	4.97
509.701	4.8
510.051	4.97
510.4	4.93
510.75	4.84
511.099	4.92
511.449	5.05
511.798	4.9
512.147	4.96
512.496	4.88
512.846	4.99
513.195	4.95
513.544	5.04
513.893	5.02
514.242	4.87
514.591	4.95
514.939	5.18
515.288	5.1
515.637	5.01
515.986	5.04
516.334	5.14
516.683	5.02
517.032	5.14
517.38	4.98
517.729	5.02
518.077	5.06
518.426	5.11
518.774	5.04
519.122	5.02
519.47	5.01
519.819	5.05
520.167	4.96
520.515	5.02
520.863	4.96
521.211	5.02
521.559	4.96
521.907	5.03
522.255	5.06
522.602	5.14
522.95	5.17
523.298	5.25
523.645	5.13
523.993	5.19
524.341	5.11
524.688	5.19
525.036	5.07
525.383	5.16
525.73	5.15
526.078	5.26
526.425	5.09
526.772	5.1
527.119	5.09
527.466	5.13
527.814	5.16
528.161	5.19
528.508	5.25
528.854	5.16
529.201	5.16
529.548	5.02
529.895	4.92
530.242	4.93
530.588	4.95
530.935	5.07
531.282	5.05
531.628	5.19
531.975	5.12
532.321	5.26
532.667	5.27
533.014	5.3
533.36	5.31
533.706	5.31
534.052	5.29
534.399	5.26
534.745	5.11
535.091	5.13
535.437	5.21
535.783	5.2
536.129	5.32
536.474	5.45
536.82	5.38
537.166	5.25
537.512	5.4
537.857	5.37
538.203	5.28
538.549	5.29
538.894	5.35
539.239	5.42
539.585	5.52
539.93	5.57
540.276	5.5
540.621	5.64
540.966	5.57
541.311	5.43
541.656	5.46
542.001	5.3
542.346	5.39
542.691	5.2
543.036	5.25
543.381	5.31
543.726	5.43
544.071	5.5
544.415	5.47
544.76	5.43
545.105	5.45
545.449	5.54
545.794	5.56
546.138	5.56
546.483	5.65
546.827	5.5
547.171	5.62
547.516	5.71
547.86	5.62
548.204	5.56
548.548	5.57
548.892	5.73
549.236	5.59
549.58	5.74
549.924	5.81
550.268	5.96
550.612	5.87
550.956	5.94
551.3	6.07
551.643	5.85
551.987	6.13
552.33	6.14
552.674	5.82
553.017	5.84
553.361	5.86
553.704	6.01
554.048	5.8
554.391	6.02
554.734	5.76
555.077	5.87
555.42	5.93
555.764	6.01
556.107	6.08
556.45	6.09
556.793	6.31
557.135	6.1
557.478	6.07
557.821	6.14
558.164	6.18
558.507	6.06
558.849	6.25
559.192	6.18
559.534	6
559.877	6.07
560.219	6.12
560.562	6.15
560.904	6.25
561.246	6.16
561.589	6.52
561.931	6.12
562.273	6.26
562.615	6.09
562.957	6.13
563.299	6.18
563.641	6.23
563.983	6.1
564.325	6.45
564.667	6.26
565.008	6.25
565.35	6.16
565.692	6.49
566.033	6.3
566.375	6.56
566.716	6.24
567.058	6.44
567.399	6.4
567.741	6.3
568.082	6.43
568.423	6.28
568.764	6.31
569.105	6.46
569.447	6.42
569.788	6.44
570.129	6.28
570.47	6.53
570.811	6.48
571.151	6.43
571.492	6.53
571.833	6.52
572.174	6.77
572.514	6.53
572.855	6.58
573.195	6.47
573.536	6.62
573.876	6.42
574.217	6.52
574.557	6.56
574.898	6.57
575.238	6.61
575.578	6.81
575.918	6.69
576.258	7.02
576.598	6.7
576.938	6.62
577.278	6.77
577.618	6.73
577.958	6.81
578.298	6.85
578.638	6.8
578.977	6.97
579.317	6.9
579.657	6.98
579.996	6.97
580.336	7.09
580.675	6.93
581.014	7.19
581.354	7.01
581.693	6.99
582.032	7.15
582.372	7.1
582.711	7.11
583.05	7.08
583.389	7.18
583.728	7.14
584.067	7.09
584.406	7.25
584.745	7.01
585.083	7.09
585.422	7.34
585.761	7.29
586.1	7.13
586.438	7.21
586.777	7.24
587.115	7.29
587.454	7.13
587.792	7.17
588.13	7.29
588.469	7.4
588.807	7.36
589.145	7.37
589.483	7.37
589.821	7.34
590.159	7.49
590.497	7.32
590.835	7.46
591.173	7.58
591.511	7.65
591.849	7.58
592.187	7.46
592.524	7.55
592.862	7.5
593.2	7.74
593.537	7.45
593.875	7.4
594.212	7.65
594.55	7.82
594.887	7.74
595.224	7.73
595.561	7.49
595.899	7.68
596.236	7.83
596.573	7.58
596.91	7.77
597.247	7.85
597.584	7.89
597.921	7.77
598.258	7.84
598.594	7.71
598.931	7.54
599.268	7.68
599.604	7.91
599.941	7.87
600.277	8.05
600.614	7.8
600.95	7.88
601.287	7.55
601.623	7.93
601.959	8.36
602.296	8.18
602.632	7.85
602.968	7.89
603.304	8.14
603.64	7.99
603.976	7.84
604.312	8.07
604.648	8.1
604.984	8.04
605.319	8
605.655	7.85
605.991	7.99
606.326	8.12
606.662	8.03
606.998	8.26
607.333	8.28
607.668	8.2
608.004	8.32
608.339	8.06
608.674	8.31
609.01	8.53
609.345	8.31
609.68	8.28
610.015	8.54
610.35	8.52
610.685	8.17
611.02	8.15
611.355	8.35
611.689	8.4
612.024	8.57
612.359	8.47
612.694	8.65
613.028	8.68
613.363	8.5
613.697	8.82
614.032	8.56
614.366	8.62
614.7	8.75
615.035	8.8
615.369	8.71
615.703	8.97
616.037	8.68
616.371	8.36
616.705	8.68
617.039	8.75
617.373	8.92
617.707	9.04
618.041	8.81
618.375	8.61
618.709	8.99
619.042	8.6
619.376	9
619.71	8.99
620.043	9.22
620.377	9.15
620.71	8.69
621.043	9.48
621.377	9.19
621.71	9.25
622.043	9.33
622.376	9.02
622.709	9.7
623.043	9.25
623.376	9.15
623.709	9.42
624.041	8.86
624.374	9.18
624.707	9.1
625.04	9.07
625.373	9.38
625.705	9.3
626.038	9.43
626.37	9.34
626.703	9.42
627.035	9.39
627.368	9.59
627.7	9.41
628.032	9.43
628.365	9.58
628.697	9.52
629.029	9.54
629.361	9.56
629.693	9.48
630.025	9.73
630.357	9.6
630.689	9.66
631.021	9.8
631.353	9.78
631.684	9.5
632.016	9.55
632.348	9.42
632.679	9.57
633.011	9.73
633.342	9.73
633.674	9.73
634.005	9.68
634.336	10.11
634.668	9.81
634.999	9.69
635.33	9.67
635.661	9.56
635.992	9.81
636.323	9.67
636.654	10.01
636.985	9.76
637.316	9.84
637.647	10.12
637.977	10.08
638.308	10.22
638.639	9.92
638.969	10.11
639.3	9.87
639.63	10.34
639.961	10.11
640.291	9.81
640.622	10.18
640.952	10.28
641.282	9.99
641.612	10.25
641.943	10.06
642.273	9.8
642.603	10.51
642.933	10.8
643.263	10.66
643.592	10.55
643.922	10.62
644.252	10.4
644.582	10.59
644.911	10.68
645.241	10.35
645.571	10.47
645.9	10.72
646.23	11.19
646.559	10.33
646.888	10.75
647.218	10.59
647.547	10.46
647.876	10.53
648.205	10.45
648.534	10.69
648.863	10.81
649.192	10.9
649.521	10.74
649.85	11.13
650.179	10.66
650.508	10.84
650.837	11.34
651.165	11.13
651.494	11.15
651.822	10.8
652.151	10.27
652.479	10.81
652.808	10.85
653.136	10.64
653.465	11.04
653.793	11.05
654.121	10.97
654.449	10.83
654.777	10.81
655.105	11.05
655.433	11.39
655.761	11.04
656.089	11.3
656.417	11.23
656.745	11.45
657.073	11.24
657.4	11.27
657.728	11.05
658.056	11.18
658.383	11.25
658.711	11.79
659.038	11.78
659.365	11.39
659.693	11.35
660.02	11.34
660.347	11.71
660.674	11.04
661.001	11.29
661.329	11.05
661.656	11.24
661.982	11.25
662.309	11.24
662.636	11.5
662.963	11.48
663.29	11.96
663.616	11.54
663.943	11.55
664.27	11.73
664.596	11.35
664.923	11.84
665.249	11.57
665.576	11.49
665.902	11.87
666.228	12.22
666.554	12.17
666.881	11.55
667.207	11.68
667.533	11.59
667.859	12.28
668.185	11.67
668.511	12.46
668.837	11.81
669.162	11.91
669.488	11.41
669.814	11.66
670.139	11.6
670.465	12.54
670.791	11.91
671.116	11.84
671.442	11.77
671.767	12.17
672.092	12.02
672.418	11.75
672.743	11.92
673.068	11.87
673.393	12.18
673.718	12.33
674.043	12.29
674.368	12.64
674.693	12.63
675.018	12.75
675.343	12.85
675.667	11.91
675.992	11.82
676.317	11.72
676.641	12.79
676.966	12.54
677.29	12.13
677.615	12.13
677.939	12.16
678.264	12.23
678.588	13.03
678.912	12.8
679.236	12.5
679.56	12.76
679.885	11.82
680.209	13.15
680.532	13.12
680.856	12.65
681.18	13.18
681.504	12.69
681.828	12.71
682.152	12.73
682.475	12.73
682.799	13.22
683.122	12.79
683.446	12.58
683.769	13.2
684.093	13.26
684.416	13.18
684.739	13.05
685.062	13.59
685.386	13.38
685.709	12.92
686.032	13.13
686.355	13.41
686.678	13.68
687.001	12.79
687.324	13.21
687.646	13.05
687.969	13.45
688.292	12.84
688.614	13.43
688.937	13.46
689.26	13.9
