Data from 21-8_chest_Reflection__4__19.txt Node

Date: Thu Dec 15 16:35:00 CST 2022
User: ToomeyLab
Spectrometer: FLMS14357
Trigger mode: 0
Integration Time (sec): 1.000000E-2
Scans to average: 100
Electric dark correction enabled: true
Nonlinearity correction enabled: false
Boxcar width: 0
XAxis mode: Wavelengths
Number of Pixels in Spectrum: 2048
>>>>>Begin Spectral Data<<<<<
189.047	137.09
189.435	137.09
189.823	137.09
190.211	31.9
190.599	104.92
190.987	-42.02
191.375	-174.5
191.763	70.44
192.151	36.3
192.538	142.33
192.926	77.32
193.314	-100.49
193.702	-91.08
194.089	-160.66
194.477	183.28
194.864	64.34
195.252	-13.41
195.639	78.81
196.027	-18.44
196.414	-449.31
196.801	78.3
197.189	154.94
197.576	48.61
197.963	-97.06
198.351	38.5
198.738	-9.31
199.125	-9.85
199.512	20.98
199.899	8.5
200.286	-11.15
200.673	48.22
201.06	-35.82
201.447	5.45
201.833	6.86
202.22	46.52
202.607	-27.7
202.994	-5.11
203.38	5.02
203.767	-7.01
204.154	47.93
204.54	14.87
204.927	16.77
205.313	23.4
205.699	16.85
206.086	46.16
206.472	23.75
206.858	-10.05
207.245	31.77
207.631	-16.47
208.017	25.72
208.403	-53.58
208.789	30.74
209.175	19.54
209.561	-31.05
209.947	3.55
210.333	-9.31
210.719	33.28
211.105	23.12
211.491	28.19
211.876	-37.34
212.262	33.41
212.648	-20.15
213.034	4.96
213.419	-1.94
213.805	9.16
214.19	-18.42
214.576	-14.01
214.961	55.17
215.346	7.07
215.732	8.15
216.117	24.9
216.502	-14.2
216.888	16.35
217.273	9.77
217.658	2.52
218.043	-19.38
218.428	-15.25
218.813	39.66
219.198	17.52
219.583	0.26
219.968	7.72
220.353	-1.13
220.738	3.11
221.122	1.76
221.507	-5.31
221.892	-13.96
222.276	-2.25
222.661	1.11
223.046	-18.96
223.43	14.68
223.815	4.14
224.199	-0.63
224.583	4.06
224.968	-0.34
225.352	-0.93
225.736	6.76
226.121	1.21
226.505	3.18
226.889	3.04
227.273	2.56
227.657	2.48
228.041	3.81
228.425	0.15
228.809	0.44
229.193	3.14
229.577	1.86
229.961	1.17
230.344	2.31
230.728	2.41
231.112	2.37
231.495	0.11
231.879	0.71
232.263	1.47
232.646	0.71
233.03	3.17
233.413	2.31
233.797	3.99
234.18	2.76
234.563	3.27
234.946	1.44
235.33	1.53
235.713	1.3
236.096	2.58
236.479	2.66
236.862	1.25
237.245	1.66
237.628	2.23
238.011	1.54
238.394	0.42
238.777	1.25
239.16	2.14
239.543	2.6
239.925	2.51
240.308	0.71
240.691	1.36
241.073	1.72
241.456	1.54
241.838	2.08
242.221	2.04
242.603	1.84
242.986	2.21
243.368	2.2
243.75	2.1
244.133	2.12
244.515	1.87
244.897	2.01
245.279	1.88
245.661	1.49
246.043	2.05
246.425	2.32
246.807	2.38
247.189	1.95
247.571	1.8
247.953	1.88
248.335	1.77
248.717	2.11
249.098	2.15
249.48	1.82
249.862	1.73
250.243	2.29
250.625	2.17
251.006	2.62
251.388	2.36
251.769	1.68
252.151	2.54
252.532	2.09
252.913	1.87
253.295	1.95
253.676	2.26
254.057	1.66
254.438	2.34
254.819	1.55
255.2	3.05
255.581	3.06
255.962	3.12
256.343	2.46
256.724	2.22
257.105	2
257.486	0.44
257.867	2.19
258.247	2.69
258.628	2.44
259.009	1.94
259.389	1.84
259.77	2.32
260.15	2.67
260.531	1.82
260.911	1.74
261.292	1.99
261.672	1.86
262.052	1.88
262.432	1.79
262.813	1.83
263.193	2.2
263.573	2.41
263.953	2.29
264.333	2.06
264.713	2.12
265.093	1.63
265.473	1.58
265.853	2.95
266.233	2.04
266.612	1.88
266.992	1.77
267.372	2.37
267.752	2.13
268.131	1.73
268.511	1.92
268.89	1.97
269.27	1.41
269.649	1.29
270.029	1.89
270.408	1.74
270.787	1.73
271.167	2.43
271.546	2.23
271.925	2.53
272.304	2.23
272.683	1.34
273.062	1.81
273.441	1.5
273.82	1.98
274.199	1.51
274.578	2.13
274.957	1.82
275.336	1.71
275.715	2.1
276.093	1.83
276.472	1.75
276.851	2.2
277.229	1.8
277.608	1.2
277.986	1.58
278.365	2.27
278.743	1.67
279.122	1.56
279.5	2.28
279.878	1.41
280.257	1.68
280.635	2.04
281.013	1.8
281.391	1.45
281.769	2.24
282.147	2.05
282.525	1.76
282.903	1.3
283.281	2
283.659	1.84
284.037	1.8
284.415	1.61
284.792	2
285.17	1.64
285.548	1.45
285.925	1.74
286.303	2.44
286.68	1.75
287.058	1.79
287.435	1.89
287.813	1.65
288.19	1.49
288.567	1.57
288.945	1.6
289.322	1.93
289.699	1.88
290.076	1.99
290.453	1.4
290.83	2.03
291.207	1.62
291.584	1.94
291.961	1.92
292.338	1.85
292.715	1.61
293.092	2.57
293.469	1.9
293.845	1.86
294.222	2.62
294.599	1.95
294.975	1.45
295.352	2.13
295.728	1.93
296.105	2.05
296.481	2.22
296.858	1.83
297.234	1.89
297.61	2.39
297.986	2.46
298.363	2.21
298.739	2.12
299.115	2.13
299.491	2.31
299.867	1.54
300.243	2.01
300.619	1.94
300.995	2.07
301.371	2.19
301.746	2.37
302.122	1.64
302.498	2.46
302.874	2.68
303.249	2.15
303.625	2
304	2.74
304.376	2.51
304.751	2.31
305.127	2.05
305.502	2.38
305.878	2.54
306.253	2
306.628	2.37
307.003	2.31
307.378	2.63
307.754	2.48
308.129	1.9
308.504	2.38
308.879	2.37
309.254	2.75
309.629	2.13
310.003	2.15
310.378	2.95
310.753	2.49
311.128	2.54
311.502	2.68
311.877	2.57
312.252	2.66
312.626	2.72
313.001	2.49
313.375	2.93
313.75	2.92
314.124	3.06
314.498	2.87
314.873	2.06
315.247	3
315.621	2.36
315.995	2.38
316.369	2.4
316.743	2.41
317.117	2.51
317.491	2.59
317.865	2.13
318.239	2.99
318.613	3.18
318.987	2.28
319.361	2.33
319.734	2.44
320.108	2.46
320.482	2.97
320.855	2.49
321.229	2.91
321.602	2.85
321.976	1.99
322.349	3.01
322.723	2.94
323.096	2.77
323.469	2.72
323.843	2.84
324.216	2.71
324.589	2.66
324.962	2.73
325.335	2.87
325.708	2.47
326.081	2.56
326.454	2.6
326.827	2.5
327.2	2.83
327.573	2.94
327.945	2.62
328.318	2.75
328.691	2.75
329.063	2.24
329.436	2.58
329.809	2.78
330.181	3.52
330.553	2.77
330.926	3.03
331.298	2.71
331.671	3.14
332.043	2.63
332.415	2.85
332.787	3.09
333.159	2.45
333.532	2.59
333.904	2.99
334.276	2.66
334.648	2.61
335.02	2.85
335.391	2.87
335.763	3.07
336.135	2.79
336.507	2.78
336.879	2.83
337.25	3.04
337.622	3.31
337.993	2.6
338.365	2.98
338.736	2.86
339.108	2.98
339.479	3.01
339.851	3.06
340.222	2.78
340.593	2.64
340.964	3.12
341.336	2.49
341.707	2.77
342.078	2.66
342.449	2.83
342.82	3.21
343.191	2.94
343.562	3
343.933	2.93
344.303	3.16
344.674	3.07
345.045	2.85
345.416	3.1
345.786	2.89
346.157	2.94
346.527	2.67
346.898	2.41
347.268	2.88
347.639	2.75
348.009	2.92
348.38	2.45
348.75	3.1
349.12	2.65
349.49	3.08
349.861	3.05
350.231	2.58
350.601	3
350.971	2.89
351.341	3
351.711	2.91
352.081	2.57
352.45	2.73
352.82	2.2
353.19	2.92
353.56	2.67
353.929	2.75
354.299	3.23
354.669	3.18
355.038	3.3
355.408	2.96
355.777	3.06
356.147	2.84
356.516	2.83
356.885	2.87
357.254	2.74
357.624	2.47
357.993	2.84
358.362	3.05
358.731	2.98
359.1	2.99
359.469	3.08
359.838	2.89
360.207	2.79
360.576	3.18
360.945	3.01
361.314	2.99
361.682	2.78
362.051	2.88
362.42	3.03
362.788	2.89
363.157	2.89
363.525	3.01
363.894	2.66
364.262	2.69
364.631	3.25
364.999	3.27
365.367	2.73
365.735	2.59
366.104	2.7
366.472	2.98
366.84	2.91
367.208	3.13
367.576	2.89
367.944	2.97
368.312	2.96
368.68	3.24
369.048	2.62
369.416	2.89
369.783	3.13
370.151	3.41
370.519	3.67
370.886	3.13
371.254	3.14
371.621	3.13
371.989	3.33
372.356	2.89
372.724	2.76
373.091	2.95
373.458	3.11
373.826	3.05
374.193	3.28
374.56	2.87
374.927	2.91
375.294	3.14
375.661	3.15
376.028	2.91
376.395	3.26
376.762	2.75
377.129	3.06
377.496	3.18
377.863	3.13
378.229	3.3
378.596	3.07
378.963	2.96
379.329	2.97
379.696	2.73
380.062	3.07
380.429	2.99
380.795	3.18
381.161	2.69
381.528	2.95
381.894	3.21
382.26	3.12
382.626	3.05
382.993	3.37
383.359	2.8
383.725	2.96
384.091	3.04
384.457	3.01
384.823	3.19
385.188	3.16
385.554	3.24
385.92	3.08
386.286	3.12
386.651	2.71
387.017	3.22
387.383	3.09
387.748	3.17
388.114	3.24
388.479	3.27
388.845	3.1
389.21	3.23
389.575	3.29
389.94	3.21
390.306	3.14
390.671	3.21
391.036	3.13
391.401	3.19
391.766	3.07
392.131	3.54
392.496	3.09
392.861	2.94
393.226	2.99
393.591	3.16
393.956	3.14
394.32	3.29
394.685	3.04
395.05	3.06
395.414	3.16
395.779	3.14
396.143	2.98
396.508	3.1
396.872	3.02
397.236	3.57
397.601	3.26
397.965	2.98
398.329	3.26
398.694	2.91
399.058	3.04
399.422	3.32
399.786	2.94
400.15	2.95
400.514	3.31
400.878	3.05
401.242	3.23
401.605	3.29
401.969	3.1
402.333	3.18
402.697	3.24
403.06	3.06
403.424	3.16
403.787	3.01
404.151	3.03
404.514	2.92
404.878	3.16
405.241	3.16
405.604	3
405.968	3.01
406.331	3.28
406.694	3.15
407.057	2.83
407.42	2.96
407.783	3.22
408.146	3.09
408.509	3.14
408.872	3.28
409.235	3.21
409.598	3.15
409.961	3.13
410.323	2.93
410.686	3.15
411.049	3.31
411.411	3.09
411.774	3.11
412.136	3.01
412.499	3.26
412.861	2.88
413.223	3.18
413.586	3.15
413.948	3.54
414.31	3.29
414.672	3.12
415.035	3.44
415.397	3.14
415.759	2.87
416.121	3.42
416.483	3.17
416.845	3.09
417.206	2.93
417.568	3.02
417.93	3.32
418.292	3.18
418.653	3.11
419.015	3.02
419.377	2.96
419.738	3.25
420.1	3.23
420.461	2.99
420.822	3.1
421.184	3.15
421.545	3.18
421.906	3.1
422.267	3.14
422.629	3.06
422.99	3.1
423.351	3.1
423.712	3.13
424.073	3.16
424.434	3.23
424.795	3.06
425.155	3.08
425.516	3.11
425.877	3.16
426.238	3.17
426.598	3.12
426.959	3.15
427.32	3.15
427.68	3.13
428.041	3.21
428.401	3.21
428.761	3.25
429.122	3.24
429.482	3.15
429.842	3.32
430.202	3.21
430.563	3.21
430.923	3.18
431.283	3.29
431.643	3.53
432.003	3.21
432.363	3.41
432.722	3.31
433.082	3.12
433.442	3.41
433.802	3.32
434.161	3.15
434.521	3.29
434.881	3.27
435.24	3.23
435.6	3.34
435.959	3.21
436.319	3.35
436.678	3.4
437.037	3.33
437.396	3.34
437.756	3.24
438.115	3.26
438.474	3.42
438.833	3.3
439.192	3.31
439.551	3.19
439.91	3.32
440.269	3.31
440.628	3.22
440.987	3.4
441.345	3.41
441.704	3.34
442.063	3.34
442.421	3.34
442.78	3.31
443.138	3.43
443.497	3.29
443.855	3.49
444.214	3.27
444.572	3.49
444.93	3.42
445.288	3.35
445.647	3.27
446.005	3.44
446.363	3.34
446.721	3.41
447.079	3.31
447.437	3.33
447.795	3.37
448.153	3.4
448.51	3.33
448.868	3.31
449.226	3.34
449.584	3.38
449.941	3.35
450.299	3.29
450.656	3.41
451.014	3.49
451.371	3.54
451.729	3.48
452.086	3.52
452.443	3.57
452.801	3.33
453.158	3.55
453.515	3.38
453.872	3.41
454.229	3.35
454.586	3.44
454.943	3.56
455.3	3.44
455.657	3.38
456.014	3.52
456.371	3.65
456.727	3.53
457.084	3.64
457.441	3.61
457.797	3.54
458.154	3.66
458.51	3.57
458.867	3.48
459.223	3.41
459.58	3.7
459.936	3.53
460.292	3.47
460.648	3.38
461.005	3.48
461.361	3.47
461.717	3.37
462.073	3.6
462.429	3.57
462.785	3.6
463.141	3.47
463.496	3.69
463.852	3.67
464.208	3.57
464.564	3.42
464.919	3.48
465.275	3.58
465.631	3.71
465.986	3.73
466.342	3.52
466.697	3.57
467.052	3.71
467.408	3.74
467.763	3.63
468.118	3.48
468.473	3.65
468.829	3.6
469.184	3.56
469.539	3.58
469.894	3.57
470.249	3.56
470.603	3.72
470.958	3.67
471.313	3.63
471.668	3.6
472.023	3.69
472.377	3.6
472.732	3.72
473.086	3.58
473.441	3.6
473.795	3.75
474.15	3.58
474.504	3.68
474.859	3.44
475.213	3.63
475.567	3.56
475.921	3.69
476.275	3.81
476.63	3.65
476.984	3.48
477.338	3.74
477.692	3.65
478.045	3.74
478.399	3.64
478.753	3.57
479.107	3.65
479.461	3.66
479.814	3.6
480.168	3.64
480.521	3.84
480.875	3.78
481.228	3.59
481.582	3.66
481.935	3.66
482.289	3.69
482.642	3.76
482.995	3.69
483.348	3.6
483.701	3.75
484.055	3.64
484.408	3.68
484.761	3.57
485.114	3.46
485.466	3.46
485.819	3.46
486.172	3.52
486.525	3.55
486.878	3.6
487.23	3.63
487.583	3.7
487.936	3.59
488.288	3.64
488.641	3.59
488.993	3.59
489.345	3.55
489.698	3.55
490.05	3.6
490.402	3.61
490.754	3.62
491.107	3.67
491.459	3.73
491.811	3.74
492.163	3.75
492.515	3.59
492.866	3.61
493.218	3.64
493.57	3.65
493.922	3.67
494.274	3.74
494.625	3.8
494.977	3.77
495.328	3.81
495.68	3.64
496.031	3.8
496.383	3.84
496.734	3.71
497.086	3.83
497.437	3.91
497.788	3.92
498.139	3.83
498.49	3.92
498.842	3.88
499.193	3.74
499.544	3.9
499.894	3.8
500.245	3.9
500.596	3.87
500.947	3.84
501.298	3.89
501.648	3.9
501.999	3.94
502.35	3.85
502.7	3.99
503.051	4.04
503.401	4.01
503.752	3.81
504.102	3.9
504.452	3.81
504.803	3.83
505.153	4.02
505.503	4.06
505.853	3.99
506.203	4.03
506.553	3.87
506.903	3.98
507.253	4.01
507.603	3.96
507.953	3.99
508.303	4
508.652	3.87
509.002	4.07
509.352	3.97
509.701	3.91
510.051	3.98
510.4	3.95
510.75	3.88
511.099	3.91
511.449	4.07
511.798	3.97
512.147	3.97
512.496	4
512.846	3.89
513.195	3.94
513.544	4.04
513.893	4.02
514.242	4.04
514.591	3.93
514.939	4.18
515.288	4.08
515.637	4
515.986	4.01
516.334	4.17
516.683	4.08
517.032	4.05
517.38	4.03
517.729	4.08
518.077	4.12
518.426	4.25
518.774	4.09
519.122	4.13
519.47	4.04
519.819	4.11
520.167	4.1
520.515	4.03
520.863	4
521.211	4.04
521.559	4.04
521.907	4.17
522.255	4.1
522.602	4.17
522.95	4.18
523.298	4.12
523.645	4.21
523.993	4.18
524.341	4.17
524.688	4.12
525.036	4.13
525.383	4.13
525.73	4.18
526.078	4.27
526.425	4.1
526.772	4.19
527.119	4.23
527.466	4.17
527.814	4.17
528.161	4.21
528.508	4.28
528.854	4.2
529.201	4.13
529.548	4.1
529.895	4.07
530.242	4.06
530.588	4.06
530.935	4.11
531.282	4.04
531.628	4.16
531.975	4.07
532.321	4.24
532.667	4.25
533.014	4.31
533.36	4.27
533.706	4.32
534.052	4.31
534.399	4.25
534.745	4.19
535.091	4.13
535.437	4.21
535.783	4.23
536.129	4.28
536.474	4.32
536.82	4.36
537.166	4.35
537.512	4.3
537.857	4.28
538.203	4.36
538.549	4.26
538.894	4.34
539.239	4.41
539.585	4.37
539.93	4.49
540.276	4.35
540.621	4.62
540.966	4.6
541.311	4.57
541.656	4.36
542.001	4.51
542.346	4.39
542.691	4.34
543.036	4.32
543.381	4.37
543.726	4.44
544.071	4.38
544.415	4.42
544.76	4.45
545.105	4.5
545.449	4.49
545.794	4.51
546.138	4.57
546.483	4.69
546.827	4.53
547.171	4.61
547.516	4.64
547.86	4.7
548.204	4.62
548.548	4.58
548.892	4.66
549.236	4.59
549.58	4.71
549.924	4.72
550.268	4.62
550.612	4.83
550.956	4.83
551.3	4.91
551.643	4.73
551.987	4.85
552.33	4.88
552.674	4.73
553.017	4.9
553.361	4.91
553.704	4.89
554.048	4.76
554.391	4.98
554.734	4.79
555.077	4.81
555.42	4.84
555.764	4.88
556.107	5.07
556.45	4.84
556.793	4.99
557.135	4.87
557.478	4.88
557.821	5.03
558.164	4.99
558.507	4.89
558.849	5.14
559.192	4.97
559.534	4.93
559.877	4.9
560.219	4.92
560.562	4.93
560.904	5.25
561.246	5.02
561.589	5.25
561.931	5.1
562.273	5.01
562.615	5.02
562.957	5.09
563.299	5.14
563.641	5.1
563.983	4.95
564.325	5.17
564.667	5.21
565.008	4.91
565.35	5.1
565.692	5.07
566.033	5.13
566.375	5.16
566.716	5.05
567.058	5.18
567.399	5.2
567.741	5.19
568.082	5.19
568.423	5.08
568.764	5.24
569.105	5.19
569.447	5.11
569.788	5.36
570.129	5.35
570.47	5.27
570.811	5.3
571.151	5.32
571.492	5.43
571.833	5.33
572.174	5.42
572.514	5.41
572.855	5.51
573.195	5.33
573.536	5.46
573.876	5.29
574.217	5.28
574.557	5.34
574.898	5.44
575.238	5.44
575.578	5.59
575.918	5.37
576.258	5.72
576.598	5.54
576.938	5.43
577.278	5.44
577.618	5.36
577.958	5.42
578.298	5.42
578.638	5.52
578.977	5.65
579.317	5.51
579.657	5.74
579.996	5.76
580.336	5.62
580.675	5.54
581.014	5.82
581.354	5.63
581.693	5.52
582.032	5.85
582.372	5.78
582.711	5.85
583.05	5.72
583.389	5.79
583.728	6.08
584.067	5.71
584.406	5.85
584.745	5.62
585.083	5.78
585.422	5.92
585.761	5.86
586.1	5.91
586.438	5.84
586.777	5.83
587.115	5.89
587.454	5.89
587.792	5.86
588.13	5.81
588.469	5.9
588.807	6.08
589.145	6.02
589.483	5.59
589.821	6.01
590.159	5.84
590.497	5.98
590.835	6.03
591.173	6.12
591.511	6.22
591.849	6.04
592.187	5.79
592.524	6.16
592.862	5.89
593.2	5.94
593.537	6.02
593.875	6.01
594.212	6.24
594.55	6.12
594.887	6.3
595.224	6.21
595.561	5.93
595.899	6.25
596.236	6.21
596.573	6.24
596.91	6.02
597.247	6.36
597.584	6.35
597.921	6.3
598.258	6.29
598.594	6.17
598.931	6.05
599.268	6.07
599.604	6.18
599.941	6.4
600.277	6.24
600.614	6.37
600.95	6.27
601.287	6.27
601.623	6.38
601.959	6.56
602.296	6.52
602.632	6.45
602.968	6.34
603.304	6.48
603.64	6.37
603.976	6.16
604.312	6.7
604.648	6.45
604.984	6.5
605.319	6.49
605.655	6.5
605.991	6.21
606.326	6.52
606.662	6.31
606.998	6.6
607.333	6.42
607.668	6.42
608.004	6.35
608.339	6.47
608.674	6.43
609.01	7.03
609.345	6.51
609.68	6.43
610.015	6.61
610.35	6.79
610.685	6.37
611.02	6.47
611.355	6.62
611.689	6.53
612.024	6.8
612.359	6.75
612.694	6.85
613.028	6.69
613.363	6.88
613.697	6.82
614.032	6.86
614.366	6.7
614.7	6.99
615.035	6.84
615.369	6.92
615.703	6.84
616.037	6.69
616.371	6.87
616.705	6.8
617.039	7.06
617.373	7.24
617.707	7.17
618.041	7.05
618.375	6.49
618.709	7.04
619.042	6.99
619.376	6.98
619.71	7.01
620.043	7.21
620.377	6.94
620.71	7.12
621.043	7.24
621.377	7.26
621.71	7.19
622.043	7.02
622.376	6.99
622.709	7.74
623.043	6.98
623.376	7.22
623.709	7.57
624.041	7.18
624.374	7.11
624.707	7.29
625.04	7.24
625.373	7.13
625.705	7.59
626.038	7.64
626.37	7.46
626.703	7.23
627.035	7.35
627.368	7.7
627.7	7.22
628.032	7.13
628.365	7.45
628.697	7.59
629.029	7.48
629.361	7.58
629.693	7.53
630.025	7.41
630.357	7.41
630.689	7.47
631.021	7.7
631.353	7.59
631.684	7.22
632.016	6.99
632.348	7.54
632.679	7.51
633.011	7.84
633.342	7.44
633.674	7.45
634.005	7.85
634.336	7.64
634.668	7.43
634.999	7.73
635.33	7.77
635.661	7.51
635.992	7.68
636.323	7.61
636.654	7.9
636.985	7.44
637.316	7.35
637.647	7.81
637.977	7.4
638.308	7.87
638.639	7.75
638.969	7.74
639.3	7.72
639.63	7.81
639.961	7.85
640.291	7.89
640.622	8.19
640.952	7.75
641.282	7.61
641.612	7.99
641.943	7.68
642.273	8.14
642.603	7.72
642.933	8.41
643.263	8.69
643.592	8.05
643.922	8.29
644.252	7.99
644.582	8.12
644.911	8.4
645.241	7.86
645.571	8.03
645.9	8.25
646.23	8.34
646.559	7.89
646.888	8.27
647.218	8.31
647.547	8.31
647.876	8.38
648.205	7.87
648.534	8.04
648.863	7.77
649.192	8.19
649.521	8.51
649.85	8.31
650.179	8.43
650.508	8.4
650.837	8.53
651.165	8.05
651.494	8.49
651.822	8.66
652.151	8.29
652.479	8.56
652.808	8.4
653.136	7.91
653.465	8.46
653.793	7.92
654.121	8.58
654.449	7.95
654.777	8.09
655.105	8.16
655.433	8.61
655.761	8.6
656.089	8.52
656.417	8.31
656.745	8.55
657.073	8.29
657.4	8.02
657.728	8.36
658.056	8.83
658.383	8.68
658.711	8.53
659.038	8.94
659.365	8.4
659.693	8.49
660.02	8.32
660.347	8.85
660.674	8.56
661.001	8.55
661.329	8.3
661.656	8.21
661.982	8.34
662.309	8.66
662.636	8.46
662.963	8.94
663.29	8.83
663.616	8.44
663.943	8.88
664.27	8.63
664.596	8.69
664.923	8.68
665.249	9.03
665.576	8.63
665.902	8.33
666.228	9.31
666.554	9.04
666.881	8.77
667.207	9.51
667.533	8.74
667.859	8.86
668.185	9.44
668.511	9.17
668.837	9.31
669.162	9.2
669.488	8.3
669.814	9.11
670.139	8.64
670.465	8.9
670.791	8.94
671.116	9.42
671.442	8.8
671.767	8.86
672.092	8.72
672.418	9.08
672.743	9.02
673.068	8.83
673.393	9.41
673.718	8.95
674.043	8.86
674.368	9.48
674.693	9.28
675.018	9.87
675.343	9.25
675.667	9.34
675.992	9.54
676.317	8.92
676.641	9.4
676.966	9.2
677.29	9.37
677.615	8.83
677.939	9
678.264	8.79
678.588	9.4
678.912	9.23
679.236	9.63
679.56	8.89
679.885	9.08
680.209	10.03
680.532	9.95
680.856	9.54
681.18	10.28
681.504	9.44
681.828	9.14
682.152	9.7
682.475	9.71
682.799	9.44
683.122	9.33
683.446	8.86
683.769	9.36
684.093	10.02
684.416	9.95
684.739	9.33
685.062	9.72
685.386	9.53
685.709	9.65
686.032	10.12
686.355	9.57
686.678	10.04
687.001	9.29
687.324	9.63
687.646	9.62
687.969	9.83
688.292	10.1
688.614	10.38
688.937	9.72
689.26	9.9
689.582	10.07
689.904	10.26
690.227	9.79
690.549	9.91
690.871	9.47
691.194	9.9
691.516	9.6
691.838	9.93
692.16	9.61
692.482	9.15
