Data from 21-8_forehead_Reflection__1__26.txt Node

Date: Thu Dec 15 16:38:15 CST 2022
User: ToomeyLab
Spectrometer: FLMS14357
Trigger mode: 0
Integration Time (sec): 1.000000E-2
Scans to average: 100
Electric dark correction enabled: true
Nonlinearity correction enabled: false
Boxcar width: 0
XAxis mode: Wavelengths
Number of Pixels in Spectrum: 2048
>>>>>Begin Spectral Data<<<<<
189.047	55.45
189.435	55.45
189.823	55.45
190.211	-63.53
190.599	0.99
190.987	74.55
191.375	-60.79
191.763	52.24
192.151	-48.17
192.538	17.38
192.926	229.86
193.314	-494.04
193.702	-104.28
194.089	240.7
194.477	-33.8
194.864	47.05
195.252	-32.97
195.639	34.38
196.027	70.68
196.414	-58.58
196.801	-46.81
197.189	-84.21
197.576	112.31
197.963	-421.59
198.351	-2.11
198.738	-17.44
199.125	-105.24
199.512	35.01
199.899	-6.05
200.286	9.47
200.673	47.12
201.06	-24.75
201.447	2.72
201.833	-6.12
202.22	32.31
202.607	-36.73
202.994	0.95
203.38	47.95
203.767	18.25
204.154	45.63
204.54	32.16
204.927	26.53
205.313	40.56
205.699	6.36
206.086	53.84
206.472	20.49
206.858	43.48
207.245	16.06
207.631	19.06
208.017	51.94
208.403	-1.9
208.789	17.76
209.175	19.33
209.561	-41.33
209.947	21.41
210.333	14.3
210.719	20.56
211.105	60.03
211.491	55.18
211.876	13.45
212.262	47.74
212.648	22.68
213.034	26.37
213.419	12.45
213.805	-41.28
214.19	-22.71
214.576	11.16
214.961	24.51
215.346	27.51
215.732	11.13
216.117	8.97
216.502	11
216.888	20.06
217.273	40.78
217.658	13.13
218.043	-5.7
218.428	14.73
218.813	40.6
219.198	-6.84
219.583	3.49
219.968	8.61
220.353	2.86
220.738	4.55
221.122	-6.8
221.507	3.13
221.892	-11.7
222.276	-3.73
222.661	-0.76
223.046	-8.09
223.43	9.05
223.815	9.76
224.199	0.7
224.583	2.88
224.968	6.3
225.352	-1.22
225.736	17.97
226.121	7.71
226.505	0.5
226.889	6.35
227.273	2.59
227.657	7.55
228.041	6.43
228.425	4.48
228.809	3.37
229.193	5.55
229.577	4.08
229.961	3.73
230.344	4.82
230.728	4.73
231.112	4.3
231.495	3.86
231.879	4.18
232.263	4.36
232.646	3.48
233.03	4.47
233.413	5.24
233.797	1.39
234.18	4.56
234.563	5.32
234.946	4.31
235.33	3.22
235.713	4.46
236.096	4.97
236.479	4.64
236.862	3.78
237.245	3.32
237.628	4.93
238.011	4.46
238.394	5.14
238.777	5.56
239.16	7.05
239.543	5.56
239.925	4.27
240.308	5.05
240.691	5.35
241.073	3.68
241.456	3.92
241.838	5.2
242.221	4.34
242.603	3.91
242.986	4.1
243.368	4.72
243.75	4.03
244.133	4.66
244.515	4.1
244.897	4.45
245.279	4.1
245.661	5.25
246.043	5.11
246.425	4.47
246.807	4.52
247.189	4.56
247.571	4.1
247.953	4.31
248.335	4.38
248.717	4.31
249.098	4.2
249.48	4.05
249.862	4.44
250.243	4.2
250.625	5.04
251.006	5.45
251.388	4.65
251.769	3.86
252.151	5.13
252.532	3.81
252.913	4.15
253.295	4.24
253.676	4.33
254.057	4.44
254.438	4.87
254.819	4.85
255.2	4.78
255.581	5.48
255.962	5.9
256.343	5.64
256.724	4.52
257.105	4.94
257.486	4.1
257.867	4.2
258.247	4.89
258.628	4.87
259.009	3.69
259.389	4.21
259.77	3.86
260.15	5.55
260.531	4.44
260.911	4.05
261.292	4.19
261.672	4.17
262.052	4.23
262.432	4.02
262.813	4.34
263.193	4.38
263.573	4.77
263.953	3.61
264.333	4.63
264.713	5.06
265.093	4.67
265.473	4.04
265.853	4.41
266.233	5.27
266.612	4.23
266.992	4.23
267.372	4.24
267.752	3.96
268.131	3.86
268.511	4.23
268.89	4.59
269.27	3.84
269.649	4.27
270.029	4.19
270.408	4.05
270.787	4.55
271.167	4.67
271.546	5.03
271.925	4.45
272.304	4.19
272.683	3.51
273.062	4.09
273.441	3.66
273.82	3.85
274.199	3.48
274.578	4.03
274.957	4.1
275.336	4.05
275.715	4.49
276.093	3.85
276.472	4.26
276.851	3.5
277.229	4.21
277.608	3.41
277.986	4.49
278.365	4.34
278.743	3.86
279.122	3.97
279.5	3.98
279.878	3.78
280.257	3.54
280.635	3.86
281.013	3.55
281.391	4.08
281.769	4.45
282.147	3.86
282.525	3.53
282.903	3.53
283.281	3.99
283.659	4.22
284.037	3.79
284.415	3.85
284.792	3.72
285.17	3.91
285.548	3.8
285.925	3.55
286.303	4.06
286.68	4.14
287.058	3.88
287.435	3.58
287.813	3.88
288.19	3.69
288.567	3.65
288.945	3.81
289.322	3.91
289.699	4.02
290.076	3.64
290.453	3.51
290.83	4.19
291.207	4.1
291.584	4.35
291.961	4.17
292.338	3.96
292.715	4.16
293.092	4.58
293.469	4.27
293.845	4.42
294.222	4.84
294.599	3.9
294.975	3.89
295.352	4.42
295.728	4.52
296.105	4.24
296.481	4.64
296.858	4.68
297.234	3.97
297.61	4.33
297.986	4.81
298.363	4.2
298.739	4.76
299.115	4.56
299.491	4.86
299.867	4.55
300.243	4.49
300.619	4.9
300.995	4.53
301.371	5.24
301.746	4.93
302.122	4.53
302.498	4.66
302.874	4.98
303.249	4.8
303.625	4.94
304	5.05
304.376	5.6
304.751	5.18
305.127	5.03
305.502	5.22
305.878	4.96
306.253	5.07
306.628	5.23
307.003	5.38
307.378	5.52
307.754	5.67
308.129	5.36
308.504	6.17
308.879	5.45
309.254	5.95
309.629	5.65
310.003	5.37
310.378	5.96
310.753	5.81
311.128	5.61
311.502	5.79
311.877	5.9
312.252	6.17
312.626	6.36
313.001	6.07
313.375	5.96
313.75	6.35
314.124	6.58
314.498	6.22
314.873	6.14
315.247	6.2
315.621	5.66
315.995	6.11
316.369	5.93
316.743	6.1
317.117	6.25
317.491	6.94
317.865	5.86
318.239	7.28
318.613	6.65
318.987	6.22
319.361	7.13
319.734	6.69
320.108	6.6
320.482	7.38
320.855	6.63
321.229	7.37
321.602	7.15
321.976	6.34
322.349	7.66
322.723	7.33
323.096	7.2
323.469	6.92
323.843	6.62
324.216	6.98
324.589	7.27
324.962	7.06
325.335	7.3
325.708	7.55
326.081	7.68
326.454	7.4
326.827	7.82
327.2	7.01
327.573	7.83
327.945	7.46
328.318	7.3
328.691	7.59
329.063	6.89
329.436	7.25
329.809	7.92
330.181	8.48
330.553	7.68
330.926	8.03
331.298	7.78
331.671	8.33
332.043	7.62
332.415	8.28
332.787	8.4
333.159	7.64
333.532	8.03
333.904	8.45
334.276	8.08
334.648	7.91
335.02	7.99
335.391	8.13
335.763	8.16
336.135	8.01
336.507	8.22
336.879	8.11
337.25	8.1
337.622	8.33
337.993	8.37
338.365	8.19
338.736	8.7
339.108	8.12
339.479	8.35
339.851	8.21
340.222	8.54
340.593	8.13
340.964	8.6
341.336	8.09
341.707	8.23
342.078	8.2
342.449	8.53
342.82	8.53
343.191	8.29
343.562	8.32
343.933	8.51
344.303	8.95
344.674	8.55
345.045	8.49
345.416	8.89
345.786	8.6
346.157	8.61
346.527	8.25
346.898	7.99
347.268	8.94
347.639	8.31
348.009	8.6
348.38	8.69
348.75	9.04
349.12	8.62
349.49	8.47
349.861	8.89
350.231	8.67
350.601	8.68
350.971	8.8
351.341	8.8
351.711	8.87
352.081	8.44
352.45	8.48
352.82	8.63
353.19	9.11
353.56	8.73
353.929	9.05
354.299	9.44
354.669	9.3
355.038	9.31
355.408	8.88
355.777	8.83
356.147	8.93
356.516	8.62
356.885	8.92
357.254	8.9
357.624	8.79
357.993	9.09
358.362	9.23
358.731	9.15
359.1	8.98
359.469	9.05
359.838	9.3
360.207	9.42
360.576	9.34
360.945	9.37
361.314	9.19
361.682	9.09
362.051	9.35
362.42	9.33
362.788	9.2
363.157	9.13
363.525	9.28
363.894	9.13
364.262	9.44
364.631	9.49
364.999	9.38
365.367	9.27
365.735	9.32
366.104	9.65
366.472	9.28
366.84	9.84
367.208	9.89
367.576	9.65
367.944	9.6
368.312	9.54
368.68	9.89
369.048	9.78
369.416	9.4
369.783	9.63
370.151	10.02
370.519	10.14
370.886	9.8
371.254	10.15
371.621	10.13
371.989	10.11
372.356	10.2
372.724	9.79
373.091	9.79
373.458	9.6
373.826	10.13
374.193	10.01
374.56	10.11
374.927	9.86
375.294	10.18
375.661	9.99
376.028	10.34
376.395	10.27
376.762	10.14
377.129	10.2
377.496	10.13
377.863	10.33
378.229	10.45
378.596	10.4
378.963	10.39
379.329	10.35
379.696	9.92
380.062	10.08
380.429	10.1
380.795	10.86
381.161	10.08
381.528	10.27
381.894	10.39
382.26	10.44
382.626	10.59
382.993	10.69
383.359	10.4
383.725	10.58
384.091	10.6
384.457	10.43
384.823	10.69
385.188	10.61
385.554	10.55
385.92	10.31
386.286	10.37
386.651	10.28
387.017	10.64
387.383	10.48
387.748	10.73
388.114	10.87
388.479	10.54
388.845	10.62
389.21	10.95
389.575	11.01
389.94	10.7
390.306	10.82
390.671	10.7
391.036	10.71
391.401	10.68
391.766	10.76
392.131	10.73
392.496	10.58
392.861	10.78
393.226	10.73
393.591	10.51
393.956	10.85
394.32	11.03
394.685	10.86
395.05	10.91
395.414	10.91
395.779	10.9
396.143	10.66
396.508	10.87
396.872	11.04
397.236	11.18
397.601	11.29
397.965	10.73
398.329	10.98
398.694	10.94
399.058	10.86
399.422	10.72
399.786	10.96
400.15	10.95
400.514	11.05
400.878	10.97
401.242	11.1
401.605	11.03
401.969	10.81
402.333	10.85
402.697	11.2
403.06	11.07
403.424	11.38
403.787	11.14
404.151	11.22
404.514	10.88
404.878	11.18
405.241	11.2
405.604	10.94
405.968	10.9
406.331	11.06
406.694	11.2
407.057	10.85
407.42	11.19
407.783	11.42
408.146	10.98
408.509	11.22
408.872	11.18
409.235	11.31
409.598	11.42
409.961	11.45
410.323	11.26
410.686	11.43
411.049	11.26
411.411	11.21
411.774	11.12
412.136	11.16
412.499	11.41
412.861	10.99
413.223	11.45
413.586	11.24
413.948	11.44
414.31	11.54
414.672	11.4
415.035	11.58
415.397	11.47
415.759	11.26
416.121	11.67
416.483	11.42
416.845	11.36
417.206	11.55
417.568	11.43
417.93	11.34
418.292	11.4
418.653	11.29
419.015	11.52
419.377	11.27
419.738	11.54
420.1	11.51
420.461	11.37
420.822	11.51
421.184	11.47
421.545	11.57
421.906	11.59
422.267	11.54
422.629	11.5
422.99	11.57
423.351	11.57
423.712	11.73
424.073	11.88
424.434	11.91
424.795	11.8
425.155	11.82
425.516	11.71
425.877	11.72
426.238	11.81
426.598	11.96
426.959	12.08
427.32	12.11
427.68	12.09
428.041	12.41
428.401	12.45
428.761	12.51
429.122	12.6
429.482	12.5
429.842	12.63
430.202	12.9
430.563	12.59
430.923	12.74
431.283	12.82
431.643	12.91
432.003	12.81
432.363	13.09
432.722	12.83
433.082	12.93
433.442	12.97
433.802	12.85
434.161	12.98
434.521	12.81
434.881	12.87
435.24	12.91
435.6	13.01
435.959	13.23
436.319	13.41
436.678	13.28
437.037	13.3
437.396	13.28
437.756	13.23
438.115	13.4
438.474	13.45
438.833	13.41
439.192	13.24
439.551	13.34
439.91	13.72
440.269	13.59
440.628	13.39
440.987	13.54
441.345	13.51
441.704	13.44
442.063	13.53
442.421	13.52
442.78	13.6
443.138	13.73
443.497	13.81
443.855	14.04
444.214	13.88
444.572	14.04
444.93	14.02
445.288	14.11
445.647	13.97
446.005	13.96
446.363	13.97
446.721	13.9
447.079	13.81
447.437	13.86
447.795	13.87
448.153	13.84
448.51	13.95
448.868	14.09
449.226	14.11
449.584	14.23
449.941	14.47
450.299	14.41
450.656	14.48
451.014	14.55
451.371	14.71
451.729	14.83
452.086	14.62
452.443	14.86
452.801	14.71
453.158	14.92
453.515	14.75
453.872	14.71
454.229	14.53
454.586	14.76
454.943	14.8
455.3	15.06
455.657	14.96
456.014	14.94
456.371	15.01
456.727	14.99
457.084	15.25
457.441	15.27
457.797	15.2
458.154	15.21
458.51	15.31
458.867	15.35
459.223	15.24
459.58	15.11
459.936	15.14
460.292	15.04
460.648	15.14
461.005	15.02
461.361	14.93
461.717	14.94
462.073	15.18
462.429	15.34
462.785	15.49
463.141	15.74
463.496	15.71
463.852	15.77
464.208	15.79
464.564	15.66
464.919	16.03
465.275	15.87
465.631	16.1
465.986	16.12
466.342	15.84
466.697	15.91
467.052	16.15
467.408	16.05
467.763	16.09
468.118	15.87
468.473	15.98
468.829	15.88
469.184	16.24
469.539	16.26
469.894	16.23
470.249	16.37
470.603	16.45
470.958	16.34
471.313	16.4
471.668	16.55
472.023	16.49
472.377	16.37
472.732	16.65
473.086	16.53
473.441	16.45
473.795	16.75
474.15	16.51
474.504	16.66
474.859	16.47
475.213	16.8
475.567	16.75
475.921	16.98
476.275	16.82
476.63	17.03
476.984	16.85
477.338	17.07
477.692	17
478.045	16.87
478.399	17.08
478.753	16.85
479.107	16.86
479.461	16.89
479.814	17.01
480.168	16.96
480.521	17.26
480.875	17.08
481.228	17.2
481.582	17.16
481.935	17.29
482.289	17.29
482.642	17.32
482.995	17.22
483.348	17.07
483.701	17.05
484.055	17.03
484.408	16.97
484.761	16.61
485.114	16.31
485.466	16.25
485.819	16.36
486.172	16.67
486.525	16.81
486.878	17.03
487.23	17.2
487.583	17.31
487.936	17.21
488.288	17.07
488.641	16.92
488.993	16.83
489.345	16.83
489.698	16.87
490.05	17.04
490.402	17.3
490.754	17.51
491.107	17.67
491.459	17.82
491.811	17.84
492.163	17.92
492.515	17.62
492.866	17.27
493.218	17.23
493.57	17.34
493.922	17.51
494.274	17.84
494.625	18.14
494.977	18.19
495.328	18.32
495.68	18.32
496.031	18.33
496.383	18.4
496.734	18.48
497.086	18.57
497.437	18.68
497.788	18.49
498.139	18.28
498.49	18.4
498.842	18.41
499.193	18.47
499.544	18.58
499.894	18.59
500.245	18.7
500.596	18.68
500.947	18.62
501.298	18.8
501.648	18.94
501.999	19.06
502.35	18.95
502.7	19.17
503.051	18.95
503.401	19.07
503.752	19.12
504.102	19.15
504.452	19.2
504.803	19.26
505.153	19.24
505.503	19.19
505.853	19.4
506.203	19.19
506.553	19.43
506.903	19.48
507.253	19.45
507.603	19.63
507.953	19.45
508.303	19.54
508.652	19.39
509.002	19.56
509.352	19.48
509.701	19.25
510.051	19.47
510.4	19.43
510.75	19.4
511.099	19.43
511.449	19.58
511.798	19.52
512.147	19.73
512.496	19.76
512.846	19.91
513.195	19.71
513.544	19.75
513.893	19.74
514.242	19.85
514.591	19.73
514.939	20.19
515.288	20.14
515.637	20.13
515.986	20.26
516.334	20.23
516.683	20.29
517.032	20.19
517.38	20.19
517.729	20.3
518.077	20.39
518.426	20.35
518.774	20.09
519.122	20.3
519.47	20.04
519.819	20.03
520.167	20.03
520.515	19.95
520.863	20.13
521.211	20.12
521.559	20.33
521.907	20.58
522.255	20.56
522.602	20.75
522.95	20.7
523.298	20.62
523.645	20.89
523.993	20.87
524.341	20.83
524.688	21.01
525.036	21.05
525.383	20.94
525.73	20.82
526.078	21.02
526.425	20.92
526.772	20.62
527.119	20.55
527.466	20.58
527.814	20.7
528.161	20.79
528.508	20.99
528.854	20.91
529.201	20.89
529.548	20.4
529.895	20.08
530.242	20.12
530.588	20.19
530.935	20.44
531.282	20.63
531.628	20.79
531.975	20.97
532.321	21.19
532.667	21.22
533.014	21.39
533.36	21.29
533.706	21.32
534.052	21.3
534.399	21.05
534.745	20.77
535.091	20.87
535.437	21.07
535.783	21.27
536.129	21.5
536.474	21.67
536.82	21.85
537.166	21.86
537.512	21.81
537.857	21.56
538.203	21.65
538.549	21.56
538.894	21.85
539.239	21.89
539.585	22.07
539.93	22.22
540.276	22.33
540.621	22.43
540.966	22.51
541.311	22.52
541.656	22.33
542.001	22.2
542.346	21.78
542.691	21.49
543.036	21.43
543.381	21.63
543.726	21.83
544.071	22.02
544.415	22.15
544.76	22.19
545.105	22.24
545.449	22.53
545.794	22.71
546.138	22.64
546.483	22.79
546.827	22.64
547.171	22.8
547.516	22.66
547.86	22.84
548.204	22.8
548.548	22.88
548.892	22.82
549.236	22.88
549.58	23.27
549.924	23.36
550.268	23.61
550.612	23.48
550.956	23.63
551.3	23.74
551.643	23.62
551.987	23.73
552.33	23.84
552.674	23.75
553.017	23.86
553.361	23.82
553.704	23.78
554.048	23.75
554.391	23.58
554.734	23.68
555.077	23.83
555.42	23.96
555.764	24.1
556.107	24.1
556.45	24.35
556.793	24.3
557.135	24.26
557.478	24.33
557.821	24.25
558.164	24.24
558.507	24.31
558.849	24.39
559.192	24.36
559.534	24.54
559.877	24.45
560.219	24.55
560.562	24.6
560.904	24.79
561.246	24.45
561.589	25.14
561.931	24.92
562.273	24.76
562.615	24.76
562.957	24.56
563.299	24.76
563.641	24.87
563.983	24.78
564.325	24.94
564.667	25.04
565.008	25.05
565.35	25.12
565.692	25.26
566.033	25.15
566.375	25.17
566.716	25.21
567.058	25.16
567.399	24.98
567.741	24.93
568.082	24.93
568.423	25.32
568.764	25.34
569.105	25.28
569.447	25.33
569.788	25.51
570.129	25.55
570.47	25.61
570.811	25.75
571.151	25.83
571.492	25.71
571.833	25.66
572.174	25.7
572.514	25.78
572.855	25.8
573.195	25.6
573.536	25.77
573.876	25.66
574.217	25.55
574.557	25.75
574.898	25.72
575.238	26.05
575.578	26.11
575.918	26.1
576.258	26.07
576.598	25.91
576.938	25.98
577.278	26.18
577.618	26.38
577.958	26.42
578.298	26.38
578.638	26.5
578.977	26.61
579.317	26.73
579.657	26.73
579.996	26.81
580.336	26.98
580.675	26.84
581.014	27.03
581.354	27.18
581.693	27.31
582.032	27.11
582.372	27.1
582.711	27.18
583.05	27.01
583.389	27.04
583.728	27.15
584.067	27.09
584.406	27.42
584.745	27.11
585.083	27.28
585.422	27.5
585.761	27.6
586.1	27.48
586.438	27.24
586.777	27.55
587.115	27.72
587.454	27.47
587.792	27.8
588.13	27.62
588.469	27.58
588.807	27.81
589.145	27.69
589.483	27.7
589.821	27.78
590.159	27.98
590.497	27.77
590.835	28.13
591.173	27.97
591.511	28.12
591.849	28.14
592.187	27.96
592.524	28.25
592.862	28
593.2	28.17
593.537	28.28
593.875	28.33
594.212	28.61
594.55	28.51
594.887	28.54
595.224	28.49
595.561	28.36
595.899	28.65
596.236	28.66
596.573	28.5
596.91	28.54
597.247	28.61
597.584	28.76
597.921	28.58
598.258	28.38
598.594	28.38
598.931	28.27
599.268	28.28
599.604	28.38
599.941	28.79
600.277	28.71
600.614	29.02
600.95	29.01
601.287	29.08
601.623	28.96
601.959	29.33
602.296	29.31
602.632	29.31
602.968	29.11
603.304	29.14
603.64	29.33
603.976	29.21
604.312	29.23
604.648	29.36
604.984	29.4
605.319	29.29
605.655	29.18
605.991	28.94
606.326	29.01
606.662	29.05
606.998	29.39
607.333	29.6
607.668	29.73
608.004	29.91
608.339	29.69
608.674	30.14
609.01	30.21
609.345	29.92
609.68	29.94
610.015	29.99
610.35	29.98
610.685	29.58
611.02	29.59
611.355	29.74
611.689	29.62
612.024	30.01
612.359	30.12
612.694	30.44
613.028	30.21
613.363	30.38
613.697	30.28
614.032	30.51
614.366	30.37
614.7	30.38
615.035	30.84
615.369	30.89
615.703	30.97
616.037	30.54
616.371	30.78
616.705	30.95
617.039	31.01
617.373	30.86
617.707	30.5
618.041	30.46
618.375	30.73
618.709	30.9
619.042	30.97
619.376	31.01
619.71	30.85
620.043	31.5
620.377	31.39
620.71	31.16
621.043	31.45
621.377	31.35
621.71	31.4
622.043	31.61
622.376	31.48
622.709	31.45
623.043	31.5
623.376	31.22
623.709	31.83
624.041	31.49
624.374	31.84
624.707	31.24
625.04	31.33
625.373	31.75
625.705	31.42
626.038	31.98
626.37	31.81
626.703	31.91
627.035	31.86
627.368	32.27
627.7	31.7
628.032	31.6
628.365	31.9
628.697	31.69
629.029	31.61
629.361	31.74
629.693	31.81
630.025	31.82
630.357	32.4
630.689	32.34
631.021	31.99
631.353	32.23
631.684	32.17
632.016	32.03
632.348	32.31
632.679	32.42
633.011	32.5
633.342	32.21
633.674	32.08
634.005	32.83
634.336	32.56
634.668	32.88
634.999	32.39
635.33	32.58
635.661	32.16
635.992	32.76
636.323	32.64
636.654	33.04
636.985	32.74
637.316	32.63
637.647	32.9
637.977	32.76
638.308	33.07
638.639	32.91
638.969	32.92
639.3	33.12
639.63	33.26
639.961	33.31
640.291	33.41
640.622	33.23
640.952	33.37
641.282	33.44
641.612	33.16
641.943	33.18
642.273	33.36
642.603	33.77
642.933	33.62
643.263	33.94
643.592	33.66
643.922	33.62
644.252	33.44
644.582	33.54
644.911	33.65
645.241	34.1
645.571	33.94
645.9	33.77
646.23	33.8
646.559	33.74
646.888	34.17
647.218	34.05
647.547	34.47
647.876	33.74
648.205	33.78
648.534	34.05
648.863	33.58
649.192	34.25
649.521	34
649.85	34.31
650.179	34.2
650.508	34.66
650.837	34.1
651.165	34.51
651.494	34.31
651.822	34.22
652.151	34.47
652.479	34.43
652.808	34.44
653.136	34.22
653.465	34.44
653.793	34.9
654.121	35.09
654.449	34.22
654.777	34.75
655.105	34.78
655.433	34.88
655.761	34.96
656.089	34.93
656.417	34.79
656.745	36.02
657.073	35.2
657.4	35.09
657.728	35.28
658.056	35.22
658.383	35.19
658.711	35.78
659.038	35.74
659.365	34.92
659.693	35.19
660.02	34.84
660.347	35.51
660.674	34.66
661.001	34.88
661.329	34.91
661.656	35.63
661.982	35.48
662.309	35.35
662.636	35.73
662.963	35.73
663.29	36.07
663.616	35.48
663.943	35.55
664.27	35.65
664.596	35.93
664.923	35.99
665.249	36.25
665.576	35.9
665.902	35.99
666.228	36.25
666.554	36.32
666.881	35.79
667.207	36.45
667.533	36.03
667.859	36.21
668.185	36.2
668.511	36.67
668.837	36.71
669.162	36.75
669.488	35.86
669.814	36.35
670.139	36.26
670.465	36.27
670.791	36.39
671.116	36.1
671.442	36.56
671.767	35.94
672.092	36.68
672.418	36.73
672.743	36.85
