Data from 21-8_chest_Reflection__0__15.txt Node

Date: Thu Dec 15 16:34:05 CST 2022
User: ToomeyLab
Spectrometer: FLMS14357
Trigger mode: 0
Integration Time (sec): 1.000000E-2
Scans to average: 100
Electric dark correction enabled: true
Nonlinearity correction enabled: false
Boxcar width: 0
XAxis mode: Wavelengths
Number of Pixels in Spectrum: 2048
>>>>>Begin Spectral Data<<<<<
189.047	-55.28
189.435	-55.28
189.823	-55.28
190.211	-24.1
190.599	49.87
190.987	67.62
191.375	27.81
191.763	72.23
192.151	150.35
192.538	97.07
192.926	39.5
193.314	-84.64
193.702	130.2
194.089	-191.27
194.477	131.3
194.864	72.66
195.252	97.19
195.639	66.43
196.027	26.4
196.414	-467.32
196.801	12.38
197.189	18.68
197.576	77.6
197.963	-282.86
198.351	19.69
198.738	-14.74
199.125	-33.57
199.512	60.35
199.899	-40.58
200.286	-42.58
200.673	48.66
201.06	32.76
201.447	3.22
201.833	10.65
202.22	-3.7
202.607	-56.46
202.994	16.63
203.38	18.73
203.767	-13.24
204.154	2.6
204.54	-2.03
204.927	-15.84
205.313	12.06
205.699	26.65
206.086	41.34
206.472	18.51
206.858	10.56
207.245	0.49
207.631	-20.43
208.017	20.7
208.403	-64.02
208.789	19.1
209.175	-22.34
209.561	-35.06
209.947	3.01
210.333	-3.75
210.719	21.4
211.105	24.09
211.491	6.06
211.876	7.21
212.262	40.52
212.648	21.52
213.034	-0.29
213.419	-5.32
213.805	3.66
214.19	-16.68
214.576	-5.19
214.961	16.86
215.346	3.09
215.732	11.63
216.117	13.24
216.502	-2.12
216.888	6.86
217.273	16.9
217.658	0.18
218.043	-3.2
218.428	11.09
218.813	-0.72
219.198	-22.85
219.583	-5.66
219.968	3.05
220.353	-19.1
220.738	3.99
221.122	-9.33
221.507	14.37
221.892	-15.28
222.276	-38.18
222.661	-18.52
223.046	-4.49
223.43	17.93
223.815	7.73
224.199	5.99
224.583	0.06
224.968	-1.46
225.352	-8.15
225.736	12.08
226.121	5.63
226.505	-4
226.889	10.19
227.273	-2.51
227.657	6.53
228.041	1.8
228.425	1.98
228.809	2.05
229.193	1.29
229.577	2.64
229.961	2
230.344	2.69
230.728	3.25
231.112	3.19
231.495	1.99
231.879	2.05
232.263	3.02
232.646	1.14
233.03	4.71
233.413	3.24
233.797	2.17
234.18	2.41
234.563	3.95
234.946	0.33
235.33	1.79
235.713	1.24
236.096	4.37
236.479	3.25
236.862	2.18
237.245	2.65
237.628	5.02
238.011	2.55
238.394	4.29
238.777	2.64
239.16	4.09
239.543	3.21
239.925	1.65
240.308	1.98
240.691	1.26
241.073	2.57
241.456	2.24
241.838	2.65
242.221	2.32
242.603	3.1
242.986	2.93
243.368	3.42
243.75	3.25
244.133	3.67
244.515	3.37
244.897	2.85
245.279	3.42
245.661	3.04
246.043	3.59
246.425	3.68
246.807	2.86
247.189	2.96
247.571	3
247.953	3.01
248.335	2.99
248.717	3.15
249.098	3.3
249.48	3.22
249.862	3.17
250.243	3.7
250.625	3.38
251.006	4.24
251.388	2.41
251.769	1.55
252.151	4.15
252.532	3.1
252.913	3.28
253.295	3.58
253.676	3.54
254.057	3.25
254.438	2.83
254.819	3.48
255.2	3.59
255.581	4.65
255.962	3.28
256.343	4.12
256.724	3.57
257.105	3.06
257.486	2.52
257.867	3.41
258.247	3.98
258.628	2.74
259.009	3.11
259.389	3.16
259.77	3.51
260.15	3.61
260.531	3.23
260.911	3.13
261.292	3.1
261.672	3.09
262.052	3.28
262.432	2.82
262.813	2.85
263.193	3.08
263.573	3.23
263.953	2.62
264.333	3.27
264.713	3.16
265.093	2.62
265.473	2.65
265.853	2.55
266.233	3
266.612	2.47
266.992	2.74
267.372	3.36
267.752	3.35
268.131	2.63
268.511	3.1
268.89	3.81
269.27	2.75
269.649	2.31
270.029	3.3
270.408	2.91
270.787	3.32
271.167	3.69
271.546	3.59
271.925	3.54
272.304	2.63
272.683	2.51
273.062	2.83
273.441	2.63
273.82	3.12
274.199	2.42
274.578	2.82
274.957	3.17
275.336	3.55
275.715	3.75
276.093	2.19
276.472	2.62
276.851	2.77
277.229	2.54
277.608	3.08
277.986	2.95
278.365	3.11
278.743	3.3
279.122	2.43
279.5	2.52
279.878	2.45
280.257	2.53
280.635	3.39
281.013	2.2
281.391	3.11
281.769	3.41
282.147	2.63
282.525	2.49
282.903	2.67
283.281	2.76
283.659	3.32
284.037	2.68
284.415	2.63
284.792	3.12
285.17	2.7
285.548	3.02
285.925	2.78
286.303	3.07
286.68	2.88
287.058	3.1
287.435	2.54
287.813	2.76
288.19	2.48
288.567	3.16
288.945	2.71
289.322	2.95
289.699	3.06
290.076	2.61
290.453	2.6
290.83	3.35
291.207	2.78
291.584	3.21
291.961	2.76
292.338	3.01
292.715	2.72
293.092	3.6
293.469	3.09
293.845	2.66
294.222	3.84
294.599	2.63
294.975	2.52
295.352	3.31
295.728	3.42
296.105	3.06
296.481	3.22
296.858	2.85
297.234	2.44
297.61	2.96
297.986	3.31
298.363	3.14
298.739	3.25
299.115	3.4
299.491	3.42
299.867	3.27
300.243	3.37
300.619	3.13
300.995	3.49
301.371	3.22
301.746	3.57
302.122	3.35
302.498	3.16
302.874	2.91
303.249	3.43
303.625	3.33
304	3.75
304.376	3.89
304.751	3.24
305.127	3.46
305.502	3.66
305.878	3.5
306.253	3.2
306.628	3.48
307.003	3.17
307.378	3.36
307.754	3.69
308.129	3.41
308.504	3.54
308.879	4
309.254	4.17
309.629	3.42
310.003	3.75
310.378	3.88
310.753	3.81
311.128	3.24
311.502	3.63
311.877	3.42
312.252	3.77
312.626	4.5
313.001	3.93
313.375	3.63
313.75	3.86
314.124	3.68
314.498	4
314.873	4
315.247	3.47
315.621	3.55
315.995	3.51
316.369	3.34
316.743	3.78
317.117	3.75
317.491	3.88
317.865	3.24
318.239	4.18
318.613	3.7
318.987	3.22
319.361	3.94
319.734	4.33
320.108	3.79
320.482	4.04
320.855	3.65
321.229	3.41
321.602	4.21
321.976	3.27
322.349	4.22
322.723	4.05
323.096	3.89
323.469	3.44
323.843	3.25
324.216	3.87
324.589	4.13
324.962	3.9
325.335	3.96
325.708	3.96
326.081	3.86
326.454	4.33
326.827	4.17
327.2	3.46
327.573	4.12
327.945	3.98
328.318	3.93
328.691	3.86
329.063	3.83
329.436	3.74
329.809	4.29
330.181	4.87
330.553	4.05
330.926	4.34
331.298	3.91
331.671	4.34
332.043	3.27
332.415	4.56
332.787	4.09
333.159	4.05
333.532	3.97
333.904	4.22
334.276	4.16
334.648	4.03
335.02	3.71
335.391	4.06
335.763	4.17
336.135	4.13
336.507	4.17
336.879	4.43
337.25	3.76
337.622	4.18
337.993	3.88
338.365	4.02
338.736	4
339.108	4.02
339.479	3.43
339.851	4.25
340.222	4.43
340.593	3.81
340.964	4.15
341.336	3.92
341.707	3.54
342.078	3.56
342.449	4.03
342.82	4.26
343.191	3.93
343.562	4.08
343.933	3.66
344.303	3.84
344.674	3.95
345.045	4.3
345.416	4.34
345.786	3.77
346.157	4.18
346.527	3.94
346.898	3.69
347.268	3.99
347.639	4.07
348.009	4.02
348.38	3.91
348.75	4.2
349.12	4
349.49	4.17
349.861	3.94
350.231	3.74
350.601	4.18
350.971	4.29
351.341	4.2
351.711	4.04
352.081	4.11
352.45	3.47
352.82	3.49
353.19	3.76
353.56	4.24
353.929	4.2
354.299	4.09
354.669	4.15
355.038	4.27
355.408	4.45
355.777	3.82
356.147	3.86
356.516	3.91
356.885	4.18
357.254	3.71
357.624	3.76
357.993	4.09
358.362	4.37
358.731	4.25
359.1	4.11
359.469	4.53
359.838	4.13
360.207	4.01
360.576	4.09
360.945	4.36
361.314	4.01
361.682	3.81
362.051	4.13
362.42	3.87
362.788	4
363.157	4.05
363.525	4.3
363.894	3.77
364.262	3.96
364.631	4.32
364.999	4.12
365.367	4.01
365.735	3.97
366.104	4.32
366.472	4.04
366.84	4.01
367.208	4.47
367.576	4.35
367.944	3.95
368.312	4.08
368.68	4.62
369.048	4.32
369.416	4.15
369.783	3.91
370.151	4.54
370.519	4.53
370.886	4.28
371.254	4.35
371.621	4.46
371.989	4.37
372.356	4.14
372.724	3.98
373.091	3.83
373.458	3.79
373.826	4.47
374.193	4.05
374.56	4.24
374.927	4.33
375.294	4.42
375.661	4.22
376.028	4.08
376.395	4.54
376.762	3.97
377.129	3.93
377.496	4.2
377.863	4.31
378.229	4.34
378.596	4.46
378.963	4.23
379.329	4.18
379.696	4.14
380.062	4.36
380.429	3.98
380.795	4.63
381.161	3.95
381.528	3.83
381.894	4.15
382.26	4.67
382.626	4.37
382.993	4.42
383.359	3.91
383.725	4.02
384.091	4.34
384.457	3.95
384.823	4.25
385.188	4.31
385.554	4.33
385.92	3.9
386.286	4.01
386.651	4.25
387.017	4.27
387.383	4.2
387.748	4.55
388.114	4.5
388.479	4.33
388.845	4.09
389.21	4.37
389.575	4.46
389.94	4.61
390.306	4.42
390.671	4.4
391.036	4.11
391.401	4.39
391.766	4.18
392.131	4.33
392.496	4.43
392.861	4.3
393.226	4.17
393.591	4.3
393.956	4.39
394.32	4.47
394.685	4.45
395.05	4.41
395.414	4.27
395.779	4.58
396.143	4.06
396.508	4.38
396.872	4.38
397.236	4.64
397.601	4.39
397.965	4.26
398.329	4.5
398.694	3.98
399.058	4.31
399.422	4.39
399.786	4.38
400.15	4.24
400.514	4.4
400.878	4.33
401.242	4.45
401.605	4.21
401.969	4.19
402.333	4.33
402.697	4.6
403.06	4.42
403.424	4.49
403.787	4.32
404.151	4.43
404.514	4.53
404.878	4.2
405.241	4.19
405.604	4.26
405.968	4.27
406.331	4.38
406.694	4.46
407.057	4.22
407.42	4.18
407.783	4.36
408.146	4.18
408.509	4.34
408.872	4.28
409.235	4.47
409.598	4.33
409.961	4.42
410.323	4.44
410.686	4.23
411.049	4.21
411.411	4.3
411.774	4.5
412.136	4.41
412.499	4.34
412.861	3.99
413.223	4.24
413.586	4.37
413.948	4.51
414.31	4.36
414.672	4.29
415.035	4.51
415.397	4.38
415.759	4.19
416.121	4.53
416.483	4.3
416.845	4.3
417.206	4.26
417.568	4.4
417.93	4.34
418.292	4.34
418.653	4.27
419.015	4.34
419.377	4.18
419.738	4.34
420.1	4.34
420.461	4.17
420.822	4.41
421.184	4.28
421.545	4.44
421.906	4.24
422.267	4.19
422.629	4.22
422.99	4.33
423.351	4.25
423.712	4.38
424.073	4.44
424.434	4.45
424.795	4.22
425.155	4.24
425.516	4.3
425.877	4.39
426.238	4.26
426.598	4.36
426.959	4.4
427.32	4.33
427.68	4.41
428.041	4.41
428.401	4.36
428.761	4.51
429.122	4.53
429.482	4.4
429.842	4.36
430.202	4.41
430.563	4.58
430.923	4.42
431.283	4.63
431.643	4.54
432.003	4.6
432.363	4.62
432.722	4.64
433.082	4.55
433.442	4.6
433.802	4.47
434.161	4.65
434.521	4.49
434.881	4.48
435.24	4.56
435.6	4.49
435.959	4.69
436.319	4.55
436.678	4.77
437.037	4.73
437.396	4.55
437.756	4.48
438.115	4.63
438.474	4.78
438.833	4.66
439.192	4.45
439.551	4.54
439.91	4.57
440.269	4.63
440.628	4.56
440.987	4.57
441.345	4.59
441.704	4.58
442.063	4.42
442.421	4.49
442.78	4.51
443.138	4.56
443.497	4.61
443.855	4.66
444.214	4.45
444.572	4.62
444.93	4.54
445.288	4.67
445.647	4.51
446.005	4.68
446.363	4.59
446.721	4.58
447.079	4.57
447.437	4.53
447.795	4.59
448.153	4.58
448.51	4.63
448.868	4.57
449.226	4.57
449.584	4.59
449.941	4.63
450.299	4.63
450.656	4.6
451.014	4.7
451.371	4.75
451.729	4.64
452.086	4.81
452.443	4.81
452.801	4.78
453.158	4.75
453.515	4.77
453.872	4.66
454.229	4.58
454.586	4.65
454.943	4.84
455.3	4.82
455.657	4.71
456.014	4.74
456.371	4.73
456.727	4.78
457.084	4.79
457.441	4.79
457.797	4.74
458.154	4.71
458.51	4.74
458.867	4.84
459.223	4.69
459.58	4.71
459.936	4.7
460.292	4.68
460.648	4.71
461.005	4.69
461.361	4.67
461.717	4.68
462.073	4.79
462.429	4.75
462.785	4.94
463.141	4.8
463.496	4.88
463.852	4.97
464.208	4.8
464.564	4.83
464.919	4.82
465.275	4.83
465.631	5.06
465.986	4.91
466.342	4.65
466.697	4.88
467.052	4.99
467.408	4.98
467.763	5
468.118	4.62
468.473	4.94
468.829	4.93
469.184	4.79
469.539	4.78
469.894	4.82
470.249	5.02
470.603	5.07
470.958	5.08
471.313	4.9
471.668	5.15
472.023	5.04
472.377	4.93
472.732	5.04
473.086	4.91
473.441	5
473.795	5.07
474.15	5.01
474.504	5.01
474.859	4.72
475.213	5
475.567	4.95
475.921	5.03
476.275	5.07
476.63	5.06
476.984	4.93
477.338	5.15
477.692	4.96
478.045	5.02
478.399	5.06
478.753	4.92
479.107	5.06
479.461	4.92
479.814	4.95
480.168	4.98
480.521	5.13
480.875	5.03
481.228	4.98
481.582	4.94
481.935	5.11
482.289	4.98
482.642	5.07
482.995	4.95
483.348	4.92
483.701	5.06
484.055	4.88
484.408	4.96
484.761	4.85
485.114	4.75
485.466	4.71
485.819	4.74
486.172	4.82
486.525	4.81
486.878	4.9
487.23	4.94
487.583	5
487.936	4.97
488.288	4.92
488.641	4.88
488.993	4.83
489.345	4.86
489.698	4.86
490.05	4.87
490.402	4.98
490.754	5.01
491.107	4.94
491.459	5.06
491.811	5.08
492.163	4.98
492.515	4.88
492.866	4.83
493.218	4.89
493.57	4.95
493.922	4.99
494.274	5.07
494.625	5.09
494.977	5.08
495.328	5.17
495.68	5.1
496.031	5.11
496.383	5.18
496.734	5.02
497.086	5.24
497.437	5.34
497.788	5.3
498.139	5.3
498.49	5.21
498.842	5.19
499.193	5.04
499.544	5.25
499.894	5.19
500.245	5.26
500.596	5.2
500.947	5.2
501.298	5.23
501.648	5.3
501.999	5.27
502.35	5.16
502.7	5.45
503.051	5.21
503.401	5.38
503.752	5.33
504.102	5.25
504.452	5.3
504.803	5.31
505.153	5.3
505.503	5.4
505.853	5.39
506.203	5.42
506.553	5.34
506.903	5.38
507.253	5.33
507.603	5.46
507.953	5.47
508.303	5.42
508.652	5.28
509.002	5.37
509.352	5.43
509.701	5.19
510.051	5.42
510.4	5.48
510.75	5.33
511.099	5.27
511.449	5.36
511.798	5.34
512.147	5.37
512.496	5.36
512.846	5.45
513.195	5.42
513.544	5.54
513.893	5.54
514.242	5.45
514.591	5.42
514.939	5.36
515.288	5.6
515.637	5.43
515.986	5.48
516.334	5.54
516.683	5.52
517.032	5.48
517.38	5.47
517.729	5.44
518.077	5.51
518.426	5.47
518.774	5.43
519.122	5.47
519.47	5.41
519.819	5.53
520.167	5.45
520.515	5.48
520.863	5.48
521.211	5.49
521.559	5.52
521.907	5.58
522.255	5.54
522.602	5.55
522.95	5.72
523.298	5.62
523.645	5.63
523.993	5.63
524.341	5.66
524.688	5.5
525.036	5.67
525.383	5.62
525.73	5.54
526.078	5.68
526.425	5.59
526.772	5.57
527.119	5.6
527.466	5.66
527.814	5.57
528.161	5.63
528.508	5.71
528.854	5.63
529.201	5.51
529.548	5.51
529.895	5.43
530.242	5.43
530.588	5.46
530.935	5.5
531.282	5.49
531.628	5.62
531.975	5.62
532.321	5.72
532.667	5.77
533.014	5.73
533.36	5.74
533.706	5.84
534.052	5.72
534.399	5.73
534.745	5.65
535.091	5.64
535.437	5.67
535.783	5.71
536.129	5.8
536.474	5.82
536.82	5.87
537.166	5.87
537.512	5.9
537.857	5.83
538.203	5.84
538.549	5.85
538.894	5.85
539.239	5.9
539.585	5.92
539.93	6.05
540.276	5.99
540.621	6.02
540.966	5.95
541.311	6.02
541.656	5.94
542.001	5.99
542.346	5.88
542.691	5.75
543.036	5.83
543.381	5.87
543.726	5.9
544.071	5.95
544.415	5.97
544.76	5.95
545.105	5.95
545.449	6.04
545.794	6.07
546.138	6.06
546.483	6.08
546.827	6.07
547.171	6.22
547.516	6.22
547.86	6.23
548.204	6.1
548.548	6.24
548.892	6.23
549.236	6.1
549.58	6.35
549.924	6.31
550.268	6.37
550.612	6.38
550.956	6.45
551.3	6.58
551.643	6.55
551.987	6.57
552.33	6.57
552.674	6.51
553.017	6.53
553.361	6.58
553.704	6.57
554.048	6.38
554.391	6.53
554.734	6.33
555.077	6.5
555.42	6.41
555.764	6.48
556.107	6.64
556.45	6.72
556.793	6.61
557.135	6.53
557.478	6.74
557.821	6.79
558.164	6.75
558.507	6.63
558.849	6.75
559.192	6.51
559.534	6.63
559.877	6.64
560.219	6.54
560.562	6.58
560.904	6.8
561.246	6.55
561.589	6.85
561.931	6.83
562.273	6.69
562.615	6.82
562.957	6.61
563.299	6.78
563.641	6.9
563.983	6.75
564.325	6.91
564.667	6.75
565.008	6.73
565.35	6.78
565.692	6.82
566.033	6.96
566.375	6.92
566.716	6.71
567.058	6.87
567.399	6.98
567.741	6.96
568.082	6.82
568.423	6.72
568.764	6.85
569.105	6.81
569.447	7.02
569.788	7
570.129	7.02
570.47	7.04
570.811	6.92
571.151	7.08
571.492	7.12
571.833	7.13
572.174	7.14
572.514	7.06
572.855	7.18
573.195	6.96
573.536	7.18
573.876	7.07
574.217	7
574.557	7.09
574.898	7.23
575.238	7.21
575.578	7.33
575.918	7.14
576.258	7.33
576.598	7.29
576.938	7.13
577.278	7.36
577.618	7.3
577.958	7.42
578.298	7.37
578.638	7.34
578.977	7.4
579.317	7.44
579.657	7.42
579.996	7.62
580.336	7.52
580.675	7.37
581.014	7.49
581.354	7.39
581.693	7.54
582.032	7.6
582.372	7.42
582.711	7.67
583.05	7.68
583.389	7.68
583.728	7.86
584.067	7.57
584.406	7.81
584.745	7.6
585.083	7.62
585.422	7.9
585.761	7.76
586.1	7.85
586.438	7.44
586.777	7.84
587.115	7.67
587.454	7.75
587.792	7.85
588.13	7.75
588.469	7.92
588.807	8.12
589.145	8.03
589.483	7.89
589.821	7.83
590.159	8.18
590.497	8.05
590.835	7.92
591.173	8.12
591.511	8.22
591.849	8.2
592.187	7.75
592.524	8.17
592.862	7.92
593.2	8.12
593.537	8.06
593.875	8.24
594.212	8.36
594.55	8.14
594.887	8.24
595.224	8.39
595.561	8.24
595.899	8.3
596.236	8.3
596.573	7.96
596.91	8.32
597.247	8.38
597.584	8.3
597.921	8.35
598.258	8.3
598.594	8.34
598.931	8.08
599.268	8
599.604	8.42
599.941	8.39
600.277	8.52
600.614	8.58
600.95	8.29
601.287	8.29
601.623	8.37
601.959	8.66
602.296	8.57
602.632	8.76
602.968	8.41
603.304	8.66
603.64	8.67
603.976	8.38
604.312	8.71
604.648	8.61
604.984	8.63
605.319	8.55
605.655	8.35
605.991	8.43
606.326	8.65
606.662	8.61
606.998	8.77
607.333	8.72
607.668	8.54
608.004	8.7
608.339	8.62
608.674	9.02
609.01	9.15
609.345	8.64
609.68	8.7
610.015	8.9
610.35	8.86
610.685	8.48
611.02	8.84
611.355	8.83
611.689	9
612.024	8.9
612.359	9.16
612.694	9.07
613.028	9.04
613.363	8.98
613.697	9.04
614.032	9.26
614.366	9.2
614.7	9.42
615.035	9.18
615.369	9.41
615.703	9.39
616.037	9.52
616.371	9.09
616.705	9.24
617.039	9.25
617.373	9.59
617.707	9.53
618.041	9.01
618.375	8.6
618.709	9.29
619.042	9.37
619.376	9.45
619.71	9.27
620.043	9.78
620.377	9.48
620.71	9.39
621.043	9.37
621.377	9.79
621.71	9.81
622.043	9.77
622.376	9.5
622.709	10.1
623.043	9.5
623.376	9.58
623.709	10.03
624.041	9.71
624.374	9.84
624.707	9.78
625.04	10.01
625.373	10.28
625.705	9.97
626.038	9.83
626.37	9.72
626.703	9.67
627.035	9.96
627.368	10.19
627.7	9.99
628.032	10.02
628.365	9.99
628.697	9.97
629.029	9.88
629.361	9.95
629.693	10.14
630.025	10.02
630.357	10.02
630.689	9.91
631.021	10.44
631.353	10.25
631.684	10.08
632.016	9.91
632.348	10.21
632.679	10.4
633.011	10.38
633.342	10.4
633.674	10.19
634.005	10.27
634.336	10.58
634.668	10.32
634.999	10.16
635.33	10.26
635.661	10.07
635.992	10.36
636.323	10.18
636.654	10.47
636.985	10.24
637.316	10.38
637.647	10.47
637.977	10.6
638.308	10.52
638.639	10.45
638.969	10.4
639.3	10.7
639.63	10.54
639.961	10.57
640.291	10.65
640.622	10.83
640.952	10.79
641.282	10.41
641.612	10.73
641.943	10.53
642.273	10.66
642.603	10.89
642.933	10.92
643.263	11.04
643.592	10.93
643.922	11.41
644.252	11.03
644.582	11
644.911	10.8
645.241	10.68
645.571	10.98
645.9	11.38
646.23	10.95
646.559	10.93
646.888	11.06
647.218	10.6
647.547	11.11
647.876	10.69
648.205	11.06
648.534	11.16
648.863	11.3
649.192	11.18
649.521	11.55
649.85	11.4
650.179	11.37
650.508	11.01
650.837	11.54
651.165	11.27
651.494	11.31
651.822	11.83
652.151	11.39
652.479	11.81
652.808	11.46
653.136	10.77
653.465	11.46
653.793	11.55
654.121	11.62
654.449	11.44
654.777	11.45
655.105	11.58
655.433	11.8
655.761	11.96
656.089	11.73
656.417	12.19
656.745	11.73
657.073	11.47
657.4	11.51
657.728	11.37
658.056	11.88
658.383	11.89
658.711	12.38
659.038	12.67
659.365	12.02
659.693	12.04
660.02	11.3
660.347	11.89
660.674	11.83
661.001	12.07
661.329	11.63
661.656	11.84
661.982	11.67
662.309	11.71
662.636	11.85
662.963	11.77
663.29	12.08
663.616	11.85
663.943	12.19
664.27	11.97
664.596	12.23
664.923	11.92
665.249	12
665.576	12.4
665.902	12.16
666.228	12.53
666.554	12.46
666.881	12.49
667.207	12.42
667.533	12.3
667.859	12.18
668.185	12.39
668.511	12.5
668.837	12.9
669.162	12.29
669.488	11.72
669.814	11.98
670.139	12.27
670.465	13.02
670.791	11.83
671.116	12.33
671.442	12.02
671.767	12.87
672.092	12.53
672.418	12.54
672.743	12.57
673.068	12.48
673.393	13.06
673.718	12.72
674.043	12.57
674.368	12.17
674.693	13.1
675.018	13.42
675.343	12.7
675.667	12.56
675.992	13.13
676.317	12.27
676.641	12.84
676.966	12.92
677.29	12.66
677.615	12.68
677.939	13.33
678.264	12.68
678.588	13.43
678.912	13.09
679.236	12.8
679.56	12.99
679.885	12.86
680.209	13.27
680.532	13.68
680.856	13.32
681.18	13.34
681.504	13.16
681.828	12.67
682.152	13.26
682.475	13
682.799	12.81
683.122	13.34
683.446	13.64
683.769	13.71
684.093	13.47
684.416	13.16
684.739	13.44
685.062	13.5
685.386	13.73
685.709	13.81
686.032	13.63
686.355	13.5
686.678	14.21
687.001	13.94
687.324	13.37
687.646	13.73
687.969	13.5
688.292	13.5
688.614	13.41
688.937	13.62
689.26	13.88
