Data from 21-8_forehead_Reflection__4__29.txt Node

Date: Thu Dec 15 16:38:48 CST 2022
User: ToomeyLab
Spectrometer: FLMS14357
Trigger mode: 0
Integration Time (sec): 1.000000E-2
Scans to average: 100
Electric dark correction enabled: true
Nonlinearity correction enabled: false
Boxcar width: 0
XAxis mode: Wavelengths
Number of Pixels in Spectrum: 2048
>>>>>Begin Spectral Data<<<<<
189.047	181.85
189.435	181.85
189.823	181.85
190.211	105.88
190.599	90.88
190.987	33.17
191.375	-10.86
191.763	30.58
192.151	138.19
192.538	64.46
192.926	108.7
193.314	-321.81
193.702	-316.5
194.089	-121.2
194.477	234.24
194.864	105.71
195.252	29.87
195.639	84.27
196.027	125.55
196.414	-668.52
196.801	51.6
197.189	97.23
197.576	88.91
197.963	87.45
198.351	41.12
198.738	-16.76
199.125	19.72
199.512	44.03
199.899	11.86
200.286	18.06
200.673	43.79
201.06	22.48
201.447	73.5
201.833	11.7
202.22	15.2
202.607	-9.47
202.994	47.54
203.38	55.28
203.767	19.58
204.154	41.87
204.54	6.32
204.927	29.63
205.313	39.34
205.699	8.16
206.086	26.09
206.472	19.88
206.858	21.01
207.245	3.39
207.631	22.33
208.017	47.34
208.403	-11.23
208.789	28.94
209.175	5.14
209.561	-6.74
209.947	10.09
210.333	43.02
210.719	46.09
211.105	45.82
211.491	21.47
211.876	11.76
212.262	44.36
212.648	54.81
213.034	32.27
213.419	2.79
213.805	8.44
214.19	40.84
214.576	13.48
214.961	28.28
215.346	7.8
215.732	25.96
216.117	16.66
216.502	23.8
216.888	32.5
217.273	25.51
217.658	11.78
218.043	23.55
218.428	8.79
218.813	22.56
219.198	14.26
219.583	8.69
219.968	21.27
220.353	0.38
220.738	44.33
221.122	9.17
221.507	16.59
221.892	-17.3
222.276	-1.54
222.661	6.08
223.046	6.94
223.43	16.72
223.815	14.56
224.199	4.48
224.583	-1.82
224.968	0.87
225.352	7.94
225.736	13.01
226.121	9.55
226.505	3.03
226.889	11.94
227.273	-2.79
227.657	7.26
228.041	7.23
228.425	2.24
228.809	3.94
229.193	3.65
229.577	4.81
229.961	3.4
230.344	4.01
230.728	4.67
231.112	4.36
231.495	3.17
231.879	3.63
232.263	4.51
232.646	3.97
233.03	6.4
233.413	5.38
233.797	3.57
234.18	7.15
234.563	5.69
234.946	3.43
235.33	3.71
235.713	4.1
236.096	6.69
236.479	5.87
236.862	3.4
237.245	3.54
237.628	6.07
238.011	5.6
238.394	5.16
238.777	4.45
239.16	6.73
239.543	6.26
239.925	2.8
240.308	3.25
240.691	5.04
241.073	4.2
241.456	5.33
241.838	4.4
242.221	4.93
242.603	4.57
242.986	4.59
243.368	4.39
243.75	4.32
244.133	4.19
244.515	3.99
244.897	4.11
245.279	4.49
245.661	5.24
246.043	4.62
246.425	5.26
246.807	4.78
247.189	4.22
247.571	4.18
247.953	4.2
248.335	4.06
248.717	4.12
249.098	3.98
249.48	4.2
249.862	4.4
250.243	4.23
250.625	4.47
251.006	4.84
251.388	4.01
251.769	4.42
252.151	5.97
252.532	3.92
252.913	4.31
253.295	4.74
253.676	4.33
254.057	4.45
254.438	4.07
254.819	4.53
255.2	5.83
255.581	5.21
255.962	4.81
256.343	6.15
256.724	4.76
257.105	4.46
257.486	3.78
257.867	4.78
258.247	4.19
258.628	5.01
259.009	4.29
259.389	4.19
259.77	3.97
260.15	5.2
260.531	4.18
260.911	4.01
261.292	3.95
261.672	3.93
262.052	3.99
262.432	3.89
262.813	4.35
263.193	3.91
263.573	4.5
263.953	3.73
264.333	4.04
264.713	3.85
265.093	4.53
265.473	3.41
265.853	4.32
266.233	4.75
266.612	3.57
266.992	4.92
267.372	4.25
267.752	4.56
268.131	3.96
268.511	4.08
268.89	4.5
269.27	3.43
269.649	3.43
270.029	4.4
270.408	3.72
270.787	4.04
271.167	4.14
271.546	4.38
271.925	4.24
272.304	4.12
272.683	3.72
273.062	3.57
273.441	3.74
273.82	3.94
274.199	3.63
274.578	4.08
274.957	4.04
275.336	4.04
275.715	4.37
276.093	3.86
276.472	3.35
276.851	3.72
277.229	3.68
277.608	3.08
277.986	4.1
278.365	4.21
278.743	3.94
279.122	4.07
279.5	3.55
279.878	3.88
280.257	4.42
280.635	3.84
281.013	3.65
281.391	3.68
281.769	4.95
282.147	3.72
282.525	3.51
282.903	3.76
283.281	4.37
283.659	4.04
284.037	3.9
284.415	3.45
284.792	3.78
285.17	3.47
285.548	3.88
285.925	3.4
286.303	4.34
286.68	3.65
287.058	3.89
287.435	3.67
287.813	3.86
288.19	3.68
288.567	4.31
288.945	4.18
289.322	4.38
289.699	4.26
290.076	3.83
290.453	3.78
290.83	4.48
291.207	4.03
291.584	4.06
291.961	3.91
292.338	3.73
292.715	4.07
293.092	4.74
293.469	3.97
293.845	4.11
294.222	4.02
294.599	3.82
294.975	3.86
295.352	4.32
295.728	4.4
296.105	4.45
296.481	4.57
296.858	4.18
297.234	3.58
297.61	4.4
297.986	4.77
298.363	4.42
298.739	4.66
299.115	4.55
299.491	4.59
299.867	4.45
300.243	4.53
300.619	4.64
300.995	4.94
301.371	4.7
301.746	5.23
302.122	4.26
302.498	5.04
302.874	4.87
303.249	4.74
303.625	4.64
304	5.18
304.376	5.16
304.751	4.83
305.127	5.13
305.502	5.22
305.878	5.15
306.253	4.88
306.628	5.03
307.003	5.38
307.378	5.33
307.754	5.87
308.129	5.44
308.504	5.46
308.879	5.66
309.254	5.75
309.629	5.45
310.003	5.92
310.378	5.75
310.753	5.79
311.128	5.69
311.502	5.54
311.877	5.13
312.252	5.87
312.626	5.85
313.001	5.58
313.375	5.72
313.75	5.86
314.124	6.1
314.498	6.31
314.873	5.67
315.247	5.83
315.621	6.17
315.995	6.22
316.369	6.26
316.743	5.65
317.117	6.52
317.491	6.46
317.865	5.92
318.239	6.73
318.613	6.33
318.987	6.15
319.361	6.54
319.734	6.76
320.108	6.71
320.482	6.85
320.855	6.69
321.229	6.35
321.602	7.08
321.976	6.08
322.349	7.36
322.723	6.7
323.096	7.16
323.469	6.41
323.843	6.64
324.216	6.73
324.589	7.07
324.962	6.61
325.335	6.81
325.708	6.82
326.081	6.93
326.454	7.09
326.827	7.29
327.2	7
327.573	7.57
327.945	6.92
328.318	6.96
328.691	7.33
329.063	6.64
329.436	7.43
329.809	7.23
330.181	7.95
330.553	8.24
330.926	7.85
331.298	6.92
331.671	8.18
332.043	7.62
332.415	7.66
332.787	7.66
333.159	7.12
333.532	7.69
333.904	7.67
334.276	7.51
334.648	7.66
335.02	7.33
335.391	7.65
335.763	7.46
336.135	7.98
336.507	7.59
336.879	7.58
337.25	7.95
337.622	7.89
337.993	7.88
338.365	7.84
338.736	7.87
339.108	7.99
339.479	7.67
339.851	7.91
340.222	8.65
340.593	7.83
340.964	8.03
341.336	7.99
341.707	7.52
342.078	8.14
342.449	7.89
342.82	8.18
343.191	7.65
343.562	8.1
343.933	7.98
344.303	8.12
344.674	8.17
345.045	8.34
345.416	8.48
345.786	8.09
346.157	8.12
346.527	8.11
346.898	7.63
347.268	8.16
347.639	8.01
348.009	8.4
348.38	8.42
348.75	8.2
349.12	8.61
349.49	8.35
349.861	8.02
350.231	8.31
350.601	8.22
350.971	8.15
351.341	8.61
351.711	8.45
352.081	8.41
352.45	8.09
352.82	7.78
353.19	8.41
353.56	8.23
353.929	8.35
354.299	8.77
354.669	8.54
355.038	8.95
355.408	8.53
355.777	8.65
356.147	8.61
356.516	8.76
356.885	8.89
357.254	8.18
357.624	8.53
357.993	8.88
358.362	9.08
358.731	9.13
359.1	8.62
359.469	8.72
359.838	8.71
360.207	8.95
360.576	8.95
360.945	8.89
361.314	8.59
361.682	8.34
362.051	8.56
362.42	8.87
362.788	8.81
363.157	8.58
363.525	8.78
363.894	8.52
364.262	8.82
364.631	9.28
364.999	8.9
365.367	8.86
365.735	8.79
366.104	8.78
366.472	8.78
366.84	9.12
367.208	9.29
367.576	9.11
367.944	9.16
368.312	9.02
368.68	9.5
369.048	8.94
369.416	9.04
369.783	9.28
370.151	9.63
370.519	9.45
370.886	9.23
371.254	9.58
371.621	9.67
371.989	9.45
372.356	9.33
372.724	9.46
373.091	9.32
373.458	9.1
373.826	9.74
374.193	9.75
374.56	9.77
374.927	9.52
375.294	9.67
375.661	9.76
376.028	9.33
376.395	9.58
376.762	9.35
377.129	9.38
377.496	9.61
377.863	9.8
378.229	9.7
378.596	9.52
378.963	9.82
379.329	9.68
379.696	9.6
380.062	9.87
380.429	9.7
380.795	9.94
381.161	9.5
381.528	9.52
381.894	9.92
382.26	9.87
382.626	9.86
382.993	10.06
383.359	9.83
383.725	9.75
384.091	9.85
384.457	9.67
384.823	9.74
385.188	9.72
385.554	9.99
385.92	9.78
386.286	10.11
386.651	9.82
387.017	10.09
387.383	10.04
387.748	10.16
388.114	10.11
388.479	9.68
388.845	10.2
389.21	10.4
389.575	10.11
389.94	10.26
390.306	10.34
390.671	10.11
391.036	10.15
391.401	10.19
391.766	10.03
392.131	10.47
392.496	10.1
392.861	10.04
393.226	9.92
393.591	9.96
393.956	9.99
394.32	10.46
394.685	10.4
395.05	10.23
395.414	10.34
395.779	10.27
396.143	10.18
396.508	10.17
396.872	10.15
397.236	10.62
397.601	10.43
397.965	10.24
398.329	10.31
398.694	10.17
399.058	10.24
399.422	10.16
399.786	10.38
400.15	10.41
400.514	10.37
400.878	10.25
401.242	10.5
401.605	10.37
401.969	10.15
402.333	10.32
402.697	10.72
403.06	10.47
403.424	10.57
403.787	10.25
404.151	10.57
404.514	10.55
404.878	10.11
405.241	10.51
405.604	10.36
405.968	10.32
406.331	10.26
406.694	10.45
407.057	10.38
407.42	10.44
407.783	10.56
408.146	10.36
408.509	10.71
408.872	10.72
409.235	10.73
409.598	10.62
409.961	10.96
410.323	10.39
410.686	10.67
411.049	10.61
411.411	10.58
411.774	10.62
412.136	10.54
412.499	10.75
412.861	10.49
413.223	10.6
413.586	10.94
413.948	10.84
414.31	10.91
414.672	10.77
415.035	10.97
415.397	10.74
415.759	10.54
416.121	11.04
416.483	10.77
416.845	10.9
417.206	10.81
417.568	10.66
417.93	10.83
418.292	10.69
418.653	10.6
419.015	10.71
419.377	10.55
419.738	10.94
420.1	10.64
420.461	10.65
420.822	10.82
421.184	10.86
421.545	10.99
421.906	10.83
422.267	10.84
422.629	10.76
422.99	10.73
423.351	10.92
423.712	11.02
424.073	11.07
424.434	11.26
424.795	11.05
425.155	11.01
425.516	10.94
425.877	11.1
426.238	11.03
426.598	11.12
426.959	11.31
427.32	11.31
427.68	11.43
428.041	11.54
428.401	11.6
428.761	11.77
429.122	12
429.482	11.82
429.842	11.84
430.202	11.91
430.563	11.97
430.923	12.04
431.283	12
431.643	12.11
432.003	12.03
432.363	12.11
432.722	12.04
433.082	12.14
433.442	11.96
433.802	12.18
434.161	11.93
434.521	12.02
434.881	12.06
435.24	12.1
435.6	12.09
435.959	12.23
436.319	12.25
436.678	12.41
437.037	12.34
437.396	12.55
437.756	12.41
438.115	12.59
438.474	12.52
438.833	12.44
439.192	12.45
439.551	12.53
439.91	12.45
440.269	12.44
440.628	12.41
440.987	12.53
441.345	12.55
441.704	12.53
442.063	12.51
442.421	12.5
442.78	12.61
443.138	12.68
443.497	12.88
443.855	12.9
444.214	12.8
444.572	13.05
444.93	13.06
445.288	13.09
445.647	12.94
446.005	12.96
446.363	12.97
446.721	12.82
447.079	12.75
447.437	12.86
447.795	12.76
448.153	12.83
448.51	12.83
448.868	12.93
449.226	12.97
449.584	13.22
449.941	13.33
450.299	13.36
450.656	13.33
451.014	13.58
451.371	13.65
451.729	13.64
452.086	13.57
452.443	13.87
452.801	13.65
453.158	13.85
453.515	13.67
453.872	13.68
454.229	13.45
454.586	13.57
454.943	13.8
455.3	13.82
455.657	13.8
456.014	13.81
456.371	13.81
456.727	14.04
457.084	13.99
457.441	13.97
457.797	14.06
458.154	14.06
458.51	14.07
458.867	14.11
459.223	13.92
459.58	14.04
459.936	13.97
460.292	14.03
460.648	13.89
461.005	13.84
461.361	13.73
461.717	13.77
462.073	14.07
462.429	14.18
462.785	14.41
463.141	14.41
463.496	14.53
463.852	14.71
464.208	14.58
464.564	14.54
464.919	14.61
465.275	14.66
465.631	14.84
465.986	14.81
466.342	14.68
466.697	14.78
467.052	14.86
467.408	14.82
467.763	14.79
468.118	14.7
468.473	14.83
468.829	14.79
469.184	14.95
469.539	14.86
469.894	14.89
470.249	14.96
470.603	15
470.958	15.18
471.313	15.38
471.668	15.2
472.023	15.13
472.377	15.27
472.732	15.42
473.086	15.17
473.441	15.3
473.795	15.47
474.15	15.24
474.504	15.32
474.859	15.05
475.213	15.38
475.567	15.39
475.921	15.55
476.275	15.61
476.63	15.61
476.984	15.56
477.338	15.59
477.692	15.54
478.045	15.57
478.399	15.63
478.753	15.51
479.107	15.69
479.461	15.57
479.814	15.73
480.168	15.85
480.521	15.75
480.875	15.81
481.228	16.01
481.582	15.88
481.935	15.87
482.289	15.98
482.642	15.91
482.995	15.77
483.348	15.72
483.701	15.77
484.055	15.71
484.408	15.68
484.761	15.31
485.114	14.96
485.466	14.86
485.819	15.02
486.172	15.33
486.525	15.6
486.878	15.79
487.23	15.89
487.583	15.96
487.936	15.9
488.288	15.68
488.641	15.49
488.993	15.49
489.345	15.42
489.698	15.55
490.05	15.72
490.402	16.01
490.754	16.2
491.107	16.24
491.459	16.5
491.811	16.48
492.163	16.39
492.515	16.18
492.866	15.85
493.218	15.73
493.57	15.94
493.922	16.14
494.274	16.56
494.625	16.83
494.977	16.97
495.328	17.1
495.68	17.16
496.031	16.99
496.383	17.1
496.734	16.99
497.086	17.15
497.437	17.26
497.788	17.03
498.139	16.97
498.49	16.96
498.842	17.13
499.193	17.06
499.544	17.11
499.894	17.24
500.245	17.26
500.596	17.29
500.947	17.37
501.298	17.39
501.648	17.64
501.999	17.74
502.35	17.65
502.7	17.79
503.051	17.71
503.401	17.83
503.752	17.75
504.102	17.61
504.452	17.76
504.803	17.79
505.153	17.83
505.503	17.8
505.853	17.75
506.203	17.86
506.553	17.97
506.903	18.04
507.253	18.03
507.603	18.13
507.953	18.06
508.303	18.14
508.652	18.12
509.002	17.9
509.352	18.08
509.701	17.83
510.051	18.04
510.4	18.04
510.75	17.96
511.099	17.98
511.449	18.18
511.798	18.14
512.147	18.19
512.496	18.39
512.846	18.27
513.195	18.44
513.544	18.39
513.893	18.44
514.242	18.33
514.591	18.49
514.939	18.57
515.288	18.68
515.637	18.82
515.986	18.81
516.334	18.79
516.683	18.83
517.032	18.93
517.38	18.77
517.729	19.06
518.077	19.03
518.426	18.89
518.774	18.67
519.122	18.77
519.47	18.67
519.819	18.53
520.167	18.6
520.515	18.6
520.863	18.74
521.211	18.79
521.559	18.88
521.907	19.19
522.255	19.28
522.602	19.15
522.95	19.38
523.298	19.37
523.645	19.49
523.993	19.62
524.341	19.64
524.688	19.46
525.036	19.51
525.383	19.51
525.73	19.58
526.078	19.64
526.425	19.41
526.772	19.27
527.119	19.11
527.466	19.19
527.814	19.4
528.161	19.52
528.508	19.64
528.854	19.57
529.201	19.46
529.548	19.06
529.895	18.69
530.242	18.67
530.588	18.81
530.935	19.16
531.282	19.29
531.628	19.58
531.975	19.69
532.321	19.76
532.667	19.92
533.014	20.03
533.36	19.97
533.706	20.01
534.052	19.95
534.399	19.7
534.745	19.38
535.091	19.45
535.437	19.6
535.783	19.93
536.129	20.22
536.474	20.44
536.82	20.58
537.166	20.52
537.512	20.39
537.857	20.19
538.203	20.16
538.549	20.17
538.894	20.33
539.239	20.63
539.585	20.82
539.93	20.87
540.276	20.9
540.621	21.13
540.966	21.1
541.311	21.17
541.656	20.93
542.001	20.76
542.346	20.39
542.691	20.09
543.036	19.97
543.381	20.34
543.726	20.56
544.071	20.76
544.415	20.94
544.76	20.85
545.105	21.07
545.449	21.14
545.794	21.27
546.138	21.42
546.483	21.52
546.827	21.38
547.171	21.4
547.516	21.41
547.86	21.29
548.204	21.35
548.548	21.44
548.892	21.56
549.236	21.62
549.58	21.88
549.924	22.01
550.268	22.23
550.612	22.21
550.956	22.31
551.3	22.44
551.643	22.37
551.987	22.53
552.33	22.6
552.674	22.47
553.017	22.44
553.361	22.55
553.704	22.51
554.048	22.44
554.391	22.42
554.734	22.39
555.077	22.44
555.42	22.61
555.764	22.68
556.107	22.97
556.45	22.96
556.793	23.03
557.135	22.89
557.478	23.03
557.821	23.08
558.164	23
558.507	22.92
558.849	23.41
559.192	23.23
559.534	23.06
559.877	23.22
560.219	23.3
560.562	23.31
560.904	23.57
561.246	23.45
561.589	23.76
561.931	23.63
562.273	23.41
562.615	23.59
562.957	23.55
563.299	23.68
563.641	23.68
563.983	23.67
564.325	23.79
564.667	23.91
565.008	23.77
565.35	23.97
565.692	23.94
566.033	23.93
566.375	24.03
566.716	23.84
567.058	23.69
567.399	23.83
567.741	23.69
568.082	23.72
568.423	23.72
568.764	23.89
569.105	24.36
569.447	24.12
569.788	24.15
570.129	24.37
570.47	24.35
570.811	24.31
571.151	24.56
571.492	24.44
571.833	24.53
572.174	24.52
572.514	24.72
572.855	24.44
573.195	24.19
573.536	24.42
573.876	24.38
574.217	24.49
574.557	24.43
574.898	24.71
575.238	24.93
575.578	24.94
575.918	24.8
576.258	25.06
576.598	24.83
576.938	24.98
577.278	24.95
577.618	25.15
577.958	25.22
578.298	25.41
578.638	25.53
578.977	25.42
579.317	25.43
579.657	25.58
579.996	25.79
580.336	25.57
580.675	25.91
581.014	26
581.354	25.81
581.693	26
582.032	25.82
582.372	25.85
582.711	25.86
583.05	26.02
583.389	26.33
583.728	26.09
584.067	26.1
584.406	26.06
584.745	26.18
585.083	26.17
585.422	26.31
585.761	26.57
586.1	26.52
586.438	26.48
586.777	26.41
587.115	26.47
587.454	26.44
587.792	26.37
588.13	26.55
588.469	26.67
588.807	27.06
589.145	26.82
589.483	26.86
589.821	26.73
590.159	26.91
590.497	26.9
590.835	26.81
591.173	27.1
591.511	26.68
591.849	27.12
592.187	27
592.524	27.06
592.862	27.26
593.2	27.28
593.537	27.42
593.875	27.38
594.212	27.2
594.55	27.57
594.887	27.56
595.224	27.4
595.561	27.18
595.899	27.39
596.236	27.37
596.573	27.68
596.91	27.56
597.247	27.77
597.584	27.61
597.921	27.33
598.258	27.48
598.594	27.08
598.931	27.15
599.268	27.23
599.604	27.62
599.941	27.61
600.277	27.87
600.614	28.36
600.95	28.05
601.287	28.11
601.623	28.06
601.959	28.52
602.296	28.52
602.632	28.39
602.968	28.09
603.304	28.35
603.64	28.25
603.976	28.07
604.312	28.34
604.648	28.09
604.984	28.31
605.319	28.18
605.655	28.12
605.991	28.02
606.326	28.36
606.662	28.15
606.998	28.48
607.333	28.49
607.668	28.73
608.004	29.01
608.339	28.92
608.674	28.95
609.01	29.63
609.345	28.98
609.68	29.2
610.015	29.02
610.35	29
610.685	28.64
611.02	28.55
611.355	28.54
611.689	28.91
612.024	28.91
612.359	29.19
612.694	29.76
613.028	29.47
613.363	29.67
613.697	29.76
614.032	29.91
614.366	29.66
614.7	30.11
615.035	29.69
615.369	30.09
615.703	30.14
616.037	29.78
616.371	29.81
616.705	30
617.039	30.12
617.373	30.07
617.707	29.98
618.041	30.01
618.375	29.58
618.709	30.23
619.042	30.08
619.376	30.32
619.71	29.97
620.043	30.6
620.377	30.19
620.71	30.19
621.043	30.58
621.377	30.44
621.71	30.78
622.043	30.66
622.376	30.63
622.709	30.81
623.043	30.55
623.376	30.76
623.709	30.87
624.041	30.98
624.374	30.86
624.707	30.39
625.04	30.91
625.373	30.6
625.705	30.91
626.038	31.03
626.37	31.04
626.703	30.88
627.035	31.12
627.368	31.01
627.7	30.63
628.032	30.98
628.365	31.01
628.697	30.99
629.029	30.74
629.361	31.28
629.693	31.18
630.025	31.45
630.357	31.64
630.689	31.76
631.021	31.17
631.353	31.79
631.684	31.6
632.016	31.15
632.348	31.49
632.679	32.02
633.011	31.93
633.342	31.77
633.674	31.44
634.005	31.67
634.336	32.28
634.668	31.76
634.999	31.69
635.33	31.7
635.661	31.64
635.992	32.04
636.323	31.8
636.654	31.98
636.985	31.92
637.316	32.27
637.647	32.4
637.977	32.06
638.308	32.11
638.639	32.31
638.969	32.45
639.3	32.24
639.63	32.31
639.961	32.71
640.291	33
640.622	32.89
640.952	33.17
641.282	32.84
641.612	32.74
641.943	32.54
642.273	32.79
642.603	33.57
642.933	33.11
643.263	33.1
643.592	32.99
643.922	33.23
644.252	32.81
644.582	33.01
644.911	33.15
645.241	33.42
645.571	32.95
645.9	33.54
646.23	33.39
646.559	32.95
646.888	33.77
647.218	33.55
647.547	33.57
647.876	33.52
648.205	33.78
648.534	33.61
648.863	33.31
649.192	33.57
649.521	33.59
649.85	33.77
650.179	33.75
650.508	33.98
650.837	33.51
651.165	33.81
651.494	34.06
651.822	33.73
652.151	33.87
652.479	33.82
652.808	34.08
653.136	33.51
653.465	33.8
653.793	34.36
654.121	34.3
654.449	34.28
654.777	34.34
655.105	34.3
655.433	34.81
655.761	34.65
656.089	34.55
656.417	35.32
656.745	34.77
657.073	34.39
657.4	35
657.728	34.95
658.056	35.06
658.383	34.48
658.711	34.91
659.038	35.45
659.365	34.96
659.693	34.77
660.02	34.68
660.347	34.86
660.674	34.34
661.001	34.49
661.329	34.69
661.656	34.44
661.982	34.98
662.309	35.11
662.636	35.11
662.963	35.06
663.29	35.96
663.616	35.4
663.943	35.24
664.27	35.63
664.596	35.3
664.923	36.04
665.249	35.63
665.576	35.22
665.902	35.19
666.228	35.85
666.554	36.13
666.881	35.32
667.207	35.87
667.533	36.09
667.859	35.65
668.185	35.72
668.511	36.13
668.837	35.72
669.162	36.09
669.488	35.12
669.814	35.69
670.139	35.8
670.465	36.14
670.791	36.06
671.116	35.68
671.442	35.75
671.767	36.19
672.092	35.99
672.418	36.51
672.743	36.73
673.068	36.44
