Data from 21-8_forehead_Reflection__0__25.txt Node

Date: Thu Dec 15 16:38:01 CST 2022
User: ToomeyLab
Spectrometer: FLMS14357
Trigger mode: 0
Integration Time (sec): 1.000000E-2
Scans to average: 100
Electric dark correction enabled: true
Nonlinearity correction enabled: false
Boxcar width: 0
XAxis mode: Wavelengths
Number of Pixels in Spectrum: 2048
>>>>>Begin Spectral Data<<<<<
189.047	-20.83
189.435	-20.83
189.823	-20.83
190.211	1.92
190.599	61.52
190.987	94.74
191.375	292.06
191.763	15.66
192.151	42.76
192.538	145.29
192.926	15.49
193.314	-529.66
193.702	275.67
194.089	-208.73
194.477	219.22
194.864	88.3
195.252	18.14
195.639	70.64
196.027	21.07
196.414	-382.76
196.801	-56.38
197.189	215.19
197.576	-7.43
197.963	-12.7
198.351	0.92
198.738	10.88
199.125	-78.27
199.512	72.83
199.899	-5.2
200.286	-17.18
200.673	47.14
201.06	23.25
201.447	17.66
201.833	8.39
202.22	9.87
202.607	-43.45
202.994	27.76
203.38	11.2
203.767	22.67
204.154	25.36
204.54	15.98
204.927	25.78
205.313	40.66
205.699	33.19
206.086	34.08
206.472	35.04
206.858	22.4
207.245	-6.67
207.631	-18.67
208.017	35.79
208.403	-58.41
208.789	20.8
209.175	1.21
209.561	-14.36
209.947	0.92
210.333	2.07
210.719	51.89
211.105	43.57
211.491	18.2
211.876	29.82
212.262	45.11
212.648	34.92
213.034	1.1
213.419	-6.17
213.805	24.4
214.19	-11.45
214.576	19.3
214.961	21.82
215.346	8.16
215.732	5.57
216.117	6.05
216.502	27.6
216.888	15.88
217.273	-15.59
217.658	20.96
218.043	11.86
218.428	10.36
218.813	20.57
219.198	14.94
219.583	-7.47
219.968	7.8
220.353	15.53
220.738	20.1
221.122	-5.34
221.507	-1.55
221.892	-17.5
222.276	-4.43
222.661	1.77
223.046	-16.93
223.43	21.02
223.815	11.04
224.199	9.38
224.583	3.25
224.968	4.83
225.352	1.54
225.736	9.04
226.121	5.72
226.505	-1.67
226.889	1.65
227.273	4.69
227.657	4.57
228.041	3
228.425	0.41
228.809	2.34
229.193	3.98
229.577	3.14
229.961	2.36
230.344	3.3
230.728	3.26
231.112	2.63
231.495	2.38
231.879	2.27
232.263	2.99
232.646	2.32
233.03	3.55
233.413	3.67
233.797	2.34
234.18	3.86
234.563	4.06
234.946	2.99
235.33	2.17
235.713	3.81
236.096	3
236.479	4.5
236.862	3.32
237.245	2.17
237.628	3.63
238.011	3.06
238.394	2.51
238.777	2.38
239.16	4.48
239.543	4.71
239.925	1.89
240.308	1.85
240.691	1.53
241.073	2.44
241.456	1.93
241.838	2.35
242.221	2.94
242.603	3.19
242.986	2.63
243.368	2.76
243.75	2.72
244.133	2.95
244.515	3.09
244.897	2.66
245.279	2.55
245.661	3
246.043	2.92
246.425	3.48
246.807	3.53
247.189	2.96
247.571	2.64
247.953	2.7
248.335	3.01
248.717	2.98
249.098	2.9
249.48	2.88
249.862	2.76
250.243	2.81
250.625	3
251.006	3.45
251.388	2.19
251.769	3.18
252.151	3.67
252.532	2.9
252.913	3.14
253.295	2.88
253.676	3.25
254.057	2.68
254.438	2.92
254.819	3.29
255.2	2.55
255.581	2.85
255.962	3.92
256.343	2.94
256.724	2.47
257.105	3.36
257.486	2.99
257.867	2.98
258.247	3.75
258.628	3.18
259.009	3.29
259.389	2.28
259.77	2.25
260.15	3.19
260.531	3.02
260.911	2.49
261.292	2.72
261.672	2.54
262.052	2.78
262.432	2.64
262.813	3.15
263.193	2.95
263.573	2.82
263.953	2.92
264.333	2.7
264.713	2.57
265.093	2.65
265.473	1.46
265.853	3.17
266.233	3.67
266.612	2.31
266.992	2.89
267.372	3.02
267.752	2.63
268.131	2.74
268.511	2.48
268.89	3.15
269.27	2.52
269.649	2.49
270.029	2.39
270.408	2.4
270.787	2.67
271.167	2.76
271.546	3
271.925	2.91
272.304	2.49
272.683	2.41
273.062	2.3
273.441	2.24
273.82	3.04
274.199	2.62
274.578	2.61
274.957	2.83
275.336	3.17
275.715	3.16
276.093	3
276.472	1.93
276.851	2.78
277.229	2.47
277.608	2.12
277.986	3.1
278.365	3.36
278.743	2.6
279.122	2.7
279.5	2.8
279.878	2.48
280.257	2.54
280.635	2.29
281.013	2.01
281.391	2.63
281.769	3.29
282.147	2.35
282.525	2.13
282.903	2.11
283.281	3.04
283.659	2.92
284.037	2.45
284.415	2.53
284.792	2.8
285.17	2.42
285.548	2.6
285.925	2.69
286.303	2.56
286.68	2.82
287.058	2.45
287.435	2.45
287.813	2.89
288.19	2.71
288.567	2.26
288.945	2.11
289.322	2.5
289.699	2.92
290.076	2.84
290.453	2.52
290.83	2.43
291.207	2.44
291.584	2.83
291.961	3.08
292.338	2.44
292.715	2.33
293.092	2.82
293.469	2.47
293.845	3.14
294.222	3.4
294.599	2.84
294.975	2.57
295.352	2.82
295.728	3.03
296.105	2.55
296.481	3.06
296.858	2.84
297.234	2.85
297.61	3.11
297.986	3.32
298.363	3.05
298.739	3.25
299.115	3.24
299.491	3.27
299.867	2.8
300.243	3.4
300.619	2.8
300.995	3.19
301.371	3.14
301.746	3.12
302.122	2.75
302.498	3.02
302.874	3.44
303.249	3.93
303.625	3.41
304	3.54
304.376	3.74
304.751	3.38
305.127	3.37
305.502	3.55
305.878	3.57
306.253	3.33
306.628	3.46
307.003	3.85
307.378	3.67
307.754	3.88
308.129	4.03
308.504	4.02
308.879	3.81
309.254	4.28
309.629	3.62
310.003	3.79
310.378	4.41
310.753	4.18
311.128	3.7
311.502	4.08
311.877	4.18
312.252	4.39
312.626	4.71
313.001	4.1
313.375	4.33
313.75	4.04
314.124	4.6
314.498	4.76
314.873	4.55
315.247	4.34
315.621	4.33
315.995	4.28
316.369	4.33
316.743	4.17
317.117	4.61
317.491	5.17
317.865	4.42
318.239	5.02
318.613	4.7
318.987	4.38
319.361	5
319.734	5.27
320.108	5.09
320.482	5.46
320.855	4.71
321.229	5.09
321.602	4.85
321.976	4.5
322.349	5.41
322.723	4.78
323.096	5.14
323.469	5.11
323.843	4.59
324.216	4.96
324.589	5.24
324.962	4.81
325.335	5.18
325.708	5.65
326.081	5.62
326.454	5.49
326.827	5.04
327.2	5.3
327.573	6
327.945	5.5
328.318	5.38
328.691	5.33
329.063	5.25
329.436	5.02
329.809	5.52
330.181	5.97
330.553	5.94
330.926	6.06
331.298	5.2
331.671	5.61
332.043	5.69
332.415	5.72
332.787	5.64
333.159	5.25
333.532	5.83
333.904	5.85
334.276	5.9
334.648	5.74
335.02	5.32
335.391	5.07
335.763	5.46
336.135	6.08
336.507	5.58
336.879	5.92
337.25	5.74
337.622	6.23
337.993	6.04
338.365	5.78
338.736	6.28
339.108	6.09
339.479	6.14
339.851	6.25
340.222	6.18
340.593	5.98
340.964	5.95
341.336	6.06
341.707	6.05
342.078	5.93
342.449	5.75
342.82	6.64
343.191	6.24
343.562	6.64
343.933	6.21
344.303	6.4
344.674	5.92
345.045	6.23
345.416	6.67
345.786	6.1
346.157	6.49
346.527	6.39
346.898	5.62
347.268	6.25
347.639	6.07
348.009	6.34
348.38	6.41
348.75	6.45
349.12	6.42
349.49	6.41
349.861	6.29
350.231	6.31
350.601	6.17
350.971	6.31
351.341	6.61
351.711	6.44
352.081	6.2
352.45	6.22
352.82	6.25
353.19	6.53
353.56	6.49
353.929	6.44
354.299	6.75
354.669	6.61
355.038	6.96
355.408	6.56
355.777	6.71
356.147	6.62
356.516	6.55
356.885	6.67
357.254	6.75
357.624	6.1
357.993	6.83
358.362	6.94
358.731	6.96
359.1	6.53
359.469	7.01
359.838	6.85
360.207	6.47
360.576	6.78
360.945	7.05
361.314	6.69
361.682	6.82
362.051	7
362.42	6.59
362.788	6.85
363.157	6.63
363.525	7.07
363.894	6.7
364.262	6.89
364.631	7.18
364.999	7.13
365.367	6.83
365.735	6.8
366.104	7.16
366.472	6.91
366.84	7.05
367.208	7.31
367.576	7.19
367.944	7.07
368.312	6.95
368.68	7.29
369.048	7.33
369.416	7.2
369.783	6.87
370.151	7.43
370.519	7.33
370.886	7.19
371.254	7.49
371.621	7.41
371.989	7.48
372.356	7.42
372.724	7.31
373.091	7.16
373.458	7.1
373.826	7.65
374.193	7.59
374.56	7.57
374.927	7.35
375.294	7.42
375.661	7.83
376.028	7.39
376.395	7.57
376.762	7.41
377.129	7.16
377.496	7.53
377.863	7.44
378.229	7.8
378.596	7.84
378.963	7.75
379.329	7.43
379.696	7.49
380.062	7.67
380.429	7.68
380.795	7.76
381.161	7.44
381.528	7.54
381.894	7.59
382.26	7.64
382.626	7.88
382.993	7.85
383.359	7.86
383.725	7.7
384.091	7.76
384.457	7.59
384.823	7.65
385.188	8.2
385.554	7.7
385.92	7.78
386.286	7.88
386.651	8.01
387.017	7.88
387.383	7.43
387.748	8.11
388.114	8.11
388.479	7.89
388.845	7.65
389.21	8.13
389.575	8.33
389.94	8.16
390.306	8.1
390.671	8.12
391.036	7.99
391.401	7.99
391.766	8.08
392.131	8.25
392.496	8.12
392.861	8.18
393.226	7.82
393.591	7.98
393.956	8.12
394.32	8.15
394.685	8.12
395.05	8.18
395.414	8.13
395.779	8.32
396.143	8.21
396.508	8.08
396.872	7.98
397.236	8.37
397.601	8.33
397.965	8.19
398.329	8.15
398.694	8.26
399.058	8.26
399.422	8.38
399.786	8.11
400.15	8.11
400.514	8.31
400.878	8.35
401.242	8.14
401.605	8.22
401.969	8.21
402.333	8.04
402.697	8.44
403.06	8.4
403.424	8.53
403.787	8.35
404.151	8.4
404.514	8.59
404.878	8.28
405.241	8.35
405.604	8.14
405.968	8.35
406.331	8.53
406.694	8.29
407.057	8.26
407.42	8.32
407.783	8.3
408.146	8.26
408.509	8.47
408.872	8.44
409.235	8.57
409.598	8.34
409.961	8.64
410.323	8.61
410.686	8.44
411.049	8.47
411.411	8.35
411.774	8.45
412.136	8.2
412.499	8.66
412.861	8.35
413.223	8.54
413.586	8.73
413.948	8.78
414.31	8.59
414.672	8.56
415.035	8.85
415.397	8.57
415.759	8.37
416.121	8.68
416.483	8.59
416.845	8.51
417.206	8.56
417.568	8.64
417.93	8.53
418.292	8.73
418.653	8.5
419.015	8.61
419.377	8.6
419.738	8.63
420.1	8.58
420.461	8.46
420.822	8.7
421.184	8.77
421.545	8.8
421.906	8.71
422.267	8.64
422.629	8.64
422.99	8.67
423.351	8.67
423.712	8.86
424.073	8.9
424.434	8.99
424.795	8.8
425.155	8.87
425.516	8.87
425.877	8.89
426.238	8.95
426.598	9.02
426.959	9.14
427.32	9.08
427.68	9.13
428.041	9.38
428.401	9.22
428.761	9.4
429.122	9.52
429.482	9.54
429.842	9.48
430.202	9.47
430.563	9.53
430.923	9.65
431.283	9.56
431.643	9.7
432.003	9.62
432.363	9.8
432.722	9.68
433.082	9.79
433.442	9.7
433.802	9.66
434.161	9.74
434.521	9.66
434.881	9.78
435.24	9.67
435.6	9.76
435.959	9.87
436.319	9.88
436.678	10.17
437.037	10
437.396	10.07
437.756	10.02
438.115	9.88
438.474	10.05
438.833	10.03
439.192	9.93
439.551	10
439.91	10.12
440.269	10.06
440.628	10.05
440.987	9.98
441.345	10.12
441.704	9.91
442.063	10.09
442.421	10.04
442.78	10.19
443.138	10.33
443.497	10.37
443.855	10.4
444.214	10.27
444.572	10.47
444.93	10.48
445.288	10.57
445.647	10.35
446.005	10.45
446.363	10.5
446.721	10.33
447.079	10.31
447.437	10.38
447.795	10.38
448.153	10.39
448.51	10.42
448.868	10.46
449.226	10.56
449.584	10.68
449.941	10.65
450.299	10.79
450.656	10.83
451.014	10.99
451.371	10.91
451.729	10.95
452.086	11.01
452.443	10.94
452.801	11.14
453.158	11.15
453.515	10.94
453.872	10.99
454.229	10.93
454.586	10.91
454.943	11.08
455.3	11.35
455.657	11.05
456.014	11.21
456.371	11.31
456.727	11.27
457.084	11.33
457.441	11.36
457.797	11.41
458.154	11.45
458.51	11.23
458.867	11.45
459.223	11.23
459.58	11.34
459.936	11.34
460.292	11.28
460.648	11.2
461.005	11.19
461.361	11.12
461.717	11.07
462.073	11.35
462.429	11.5
462.785	11.6
463.141	11.67
463.496	11.82
463.852	11.86
464.208	11.66
464.564	11.64
464.919	11.82
465.275	11.72
465.631	12.07
465.986	11.89
466.342	11.84
466.697	11.91
467.052	12.01
467.408	11.99
467.763	11.83
468.118	11.8
468.473	11.91
468.829	11.72
469.184	11.98
469.539	11.87
469.894	12.05
470.249	12.08
470.603	12.17
470.958	12.18
471.313	12.46
471.668	12.29
472.023	12.17
472.377	12.19
472.732	12.29
473.086	12.26
473.441	12.25
473.795	12.41
474.15	12.3
474.504	12.2
474.859	12.32
475.213	12.43
475.567	12.55
475.921	12.56
476.275	12.63
476.63	12.58
476.984	12.38
477.338	12.68
477.692	12.63
478.045	12.61
478.399	12.77
478.753	12.61
479.107	12.63
479.461	12.59
479.814	12.7
480.168	12.73
480.521	12.73
480.875	12.7
481.228	12.81
481.582	12.82
481.935	12.85
482.289	12.88
482.642	12.89
482.995	12.76
483.348	12.74
483.701	12.74
484.055	12.74
484.408	12.69
484.761	12.35
485.114	12.14
485.466	12.05
485.819	12.14
486.172	12.33
486.525	12.52
486.878	12.66
487.23	12.77
487.583	12.79
487.936	12.76
488.288	12.67
488.641	12.53
488.993	12.47
489.345	12.54
489.698	12.59
490.05	12.7
490.402	12.9
490.754	12.95
491.107	13.17
491.459	13.3
491.811	13.2
492.163	13.27
492.515	13.05
492.866	12.79
493.218	12.75
493.57	12.91
493.922	13.04
494.274	13.23
494.625	13.45
494.977	13.5
495.328	13.74
495.68	13.66
496.031	13.83
496.383	13.66
496.734	13.71
497.086	13.66
497.437	13.8
497.788	13.92
498.139	13.66
498.49	13.65
498.842	13.75
499.193	13.77
499.544	13.86
499.894	13.8
500.245	13.93
500.596	13.97
500.947	13.98
501.298	14.07
501.648	14.02
501.999	14.23
502.35	14.06
502.7	14.36
503.051	14.32
503.401	14.34
503.752	14.2
504.102	14.22
504.452	14.21
504.803	14.25
505.153	14.39
505.503	14.27
505.853	14.44
506.203	14.59
506.553	14.32
506.903	14.34
507.253	14.6
507.603	14.46
507.953	14.6
508.303	14.64
508.652	14.45
509.002	14.62
509.352	14.45
509.701	14.39
510.051	14.46
510.4	14.41
510.75	14.37
511.099	14.47
511.449	14.6
511.798	14.64
512.147	14.62
512.496	14.74
512.846	14.7
513.195	14.64
513.544	14.7
513.893	14.75
514.242	14.8
514.591	14.8
514.939	15.06
515.288	15.03
515.637	15.07
515.986	15.08
516.334	15.15
516.683	15.13
517.032	15.21
517.38	15.11
517.729	15.13
518.077	15.31
518.426	15.33
518.774	15.12
519.122	15.09
519.47	15.08
519.819	14.99
520.167	14.91
520.515	14.97
520.863	15.02
521.211	15.1
521.559	15.17
521.907	15.27
522.255	15.32
522.602	15.5
522.95	15.63
523.298	15.67
523.645	15.69
523.993	15.73
524.341	15.64
524.688	15.71
525.036	15.69
525.383	15.8
525.73	15.56
526.078	15.62
526.425	15.58
526.772	15.54
527.119	15.48
527.466	15.55
527.814	15.49
528.161	15.5
528.508	15.68
528.854	15.64
529.201	15.59
529.548	15.41
529.895	15.04
530.242	14.96
530.588	15.16
530.935	15.29
531.282	15.37
531.628	15.58
531.975	15.69
532.321	15.82
532.667	15.89
533.014	16.03
533.36	16.01
533.706	16.08
534.052	15.92
534.399	15.71
534.745	15.54
535.091	15.59
535.437	15.81
535.783	15.93
536.129	16.05
536.474	16.3
536.82	16.4
537.166	16.25
537.512	16.31
537.857	16.24
538.203	16.03
538.549	16.23
538.894	16.28
539.239	16.5
539.585	16.58
539.93	16.81
540.276	16.66
540.621	16.88
540.966	16.88
541.311	16.96
541.656	16.71
542.001	16.76
542.346	16.43
542.691	16.09
543.036	16.05
543.381	16.2
543.726	16.38
544.071	16.5
544.415	16.63
544.76	16.54
545.105	16.84
545.449	16.86
545.794	17.04
546.138	16.96
546.483	17.15
546.827	17.12
547.171	17.12
547.516	17.14
547.86	17.15
548.204	17.05
548.548	17.01
548.892	17.19
549.236	17.25
549.58	17.48
549.924	17.56
550.268	17.75
550.612	17.62
550.956	17.91
551.3	17.87
551.643	17.75
551.987	18.01
552.33	17.87
552.674	17.89
553.017	17.93
553.361	17.92
553.704	17.9
554.048	17.67
554.391	17.93
554.734	17.84
555.077	17.95
555.42	18.03
555.764	18.12
556.107	18.26
556.45	18.2
556.793	18.51
557.135	18.33
557.478	18.31
557.821	18.43
558.164	18.49
558.507	18.26
558.849	18.58
559.192	18.34
559.534	18.42
559.877	18.42
560.219	18.43
560.562	18.57
560.904	18.68
561.246	18.55
561.589	18.83
561.931	18.93
562.273	18.7
562.615	18.63
562.957	18.7
563.299	18.67
563.641	18.84
563.983	18.8
564.325	18.82
564.667	18.78
565.008	18.79
565.35	18.85
565.692	18.94
566.033	19.04
566.375	19.24
566.716	19.18
567.058	19.11
567.399	19.04
567.741	19.02
568.082	19.11
568.423	19.11
568.764	19.15
569.105	19.32
569.447	19.33
569.788	19.19
570.129	19.47
570.47	19.34
570.811	19.39
571.151	19.35
571.492	19.37
571.833	19.46
572.174	19.46
572.514	19.4
572.855	19.42
573.195	19.3
573.536	19.51
573.876	19.33
574.217	19.43
574.557	19.68
574.898	19.7
575.238	19.58
575.578	19.82
575.918	19.82
576.258	19.86
576.598	19.66
576.938	19.6
577.278	19.63
577.618	19.8
577.958	20.07
578.298	20.11
578.638	20.19
578.977	20.17
579.317	20.26
579.657	20.2
579.996	20.25
580.336	20.26
580.675	20.16
581.014	20.4
581.354	20.23
581.693	20.37
582.032	20.62
582.372	20.42
582.711	20.54
583.05	20.51
583.389	20.54
583.728	20.57
584.067	20.49
584.406	20.54
584.745	20.63
585.083	20.64
585.422	20.95
585.761	20.68
586.1	21.03
586.438	20.82
586.777	20.76
587.115	21.04
587.454	20.95
587.792	20.96
588.13	20.83
588.469	20.9
588.807	21.28
589.145	21.16
589.483	21.07
589.821	20.75
590.159	21.16
590.497	20.94
590.835	21.08
591.173	21.28
591.511	21.34
591.849	21.27
592.187	21.28
592.524	21.46
592.862	21.38
593.2	21.51
593.537	21.57
593.875	21.61
594.212	21.41
594.55	21.71
594.887	21.45
595.224	21.6
595.561	21.46
595.899	21.39
596.236	21.75
596.573	21.75
596.91	21.54
597.247	21.58
597.584	21.63
597.921	21.71
598.258	21.75
598.594	21.27
598.931	21.38
599.268	21.38
599.604	21.81
599.941	21.95
600.277	21.78
600.614	21.95
600.95	22.07
601.287	21.8
601.623	21.92
601.959	22.32
602.296	22.39
602.632	22.24
602.968	22.04
603.304	22.21
603.64	22.36
603.976	21.87
604.312	22.1
604.648	21.96
604.984	22.19
605.319	22.23
605.655	22.11
605.991	21.89
606.326	22.2
606.662	22.17
606.998	22.33
607.333	22.34
607.668	22.53
608.004	22.56
608.339	22.52
608.674	22.51
609.01	22.74
609.345	22.77
609.68	22.61
610.015	23.06
610.35	22.88
610.685	22.55
611.02	22.43
611.355	22.67
611.689	22.79
612.024	22.5
612.359	22.85
612.694	23.11
613.028	23.12
613.363	23.12
613.697	23.29
614.032	22.87
614.366	23.35
614.7	23.05
615.035	23.23
615.369	23.32
615.703	23.08
616.037	23.13
616.371	23.55
616.705	23.5
617.039	23.42
617.373	23.72
617.707	23.52
618.041	23.25
618.375	23.24
618.709	23.43
619.042	23.47
619.376	23.76
619.71	23.68
620.043	24.02
620.377	23.62
620.71	23.81
621.043	23.72
621.377	23.76
621.71	23.64
622.043	23.47
622.376	23.86
622.709	23.92
623.043	23.84
623.376	24.02
623.709	24.32
624.041	24.08
624.374	24.24
624.707	23.93
625.04	24.07
625.373	24.19
625.705	24.02
626.038	24.03
626.37	24.41
626.703	24.2
627.035	24.27
627.368	24.64
627.7	24.08
628.032	24.33
628.365	24.42
628.697	24.53
629.029	24.17
629.361	24.32
629.693	24.39
630.025	24.52
630.357	24.74
630.689	24.71
631.021	24.8
631.353	24.79
631.684	24.45
632.016	24.47
632.348	24.6
632.679	24.57
633.011	24.62
633.342	24.5
633.674	24.54
634.005	24.88
634.336	25.3
634.668	24.95
634.999	24.55
635.33	24.78
635.661	24.48
635.992	24.79
636.323	24.99
636.654	24.82
636.985	24.92
637.316	24.86
637.647	25.16
637.977	24.95
638.308	25.07
638.639	24.9
638.969	25.37
639.3	25.58
639.63	25.38
639.961	25.89
640.291	25.42
640.622	25.57
640.952	25.23
641.282	25.38
641.612	25.63
641.943	25.6
642.273	25.46
642.603	26.05
642.933	26.08
643.263	25.93
643.592	25.55
643.922	25.8
644.252	25.71
644.582	26.18
644.911	25.78
645.241	25.48
645.571	25.92
645.9	25.97
646.23	26.12
646.559	25.95
646.888	26.4
647.218	26.04
647.547	26.6
647.876	25.93
648.205	26.31
648.534	26.22
648.863	25.99
649.192	26
649.521	26.11
649.85	26.15
650.179	26.26
650.508	26.54
650.837	26.07
651.165	25.95
651.494	26.58
651.822	26.29
652.151	26.26
652.479	26.37
652.808	26.57
653.136	25.84
653.465	26.85
653.793	26.33
654.121	26.91
654.449	26.21
654.777	26.24
655.105	26.79
655.433	26.78
655.761	26.47
656.089	26.66
656.417	27.4
656.745	26.85
657.073	26.22
657.4	26.77
657.728	26.5
658.056	27.05
658.383	27.22
658.711	27.03
659.038	27.47
659.365	26.45
659.693	26.73
660.02	26.66
660.347	27.54
660.674	26.86
661.001	26.78
661.329	26.74
661.656	26.66
661.982	26.92
662.309	27.05
662.636	27.15
662.963	27.32
663.29	27.9
663.616	27.48
663.943	27.22
664.27	27.38
664.596	27.72
664.923	27.69
665.249	27.61
665.576	27.49
665.902	27.46
666.228	28.18
666.554	27.93
666.881	27.94
667.207	27.82
667.533	27.56
667.859	27.37
668.185	27.9
668.511	27.94
668.837	28.05
669.162	28.17
669.488	27.71
669.814	27.78
670.139	27.71
670.465	28.22
670.791	28.02
671.116	28.27
671.442	27.82
671.767	28.02
672.092	27.78
672.418	28.18
672.743	28.12
673.068	28.1
673.393	28.96
673.718	28.11
674.043	28.21
674.368	28.24
674.693	27.99
675.018	28.31
675.343	28.72
675.667	28.63
675.992	28.43
676.317	28.07
676.641	28.94
676.966	29.07
