Data from 21-8_crown_Reflection__1__21.txt Node

Date: Thu Dec 15 16:36:48 CST 2022
User: ToomeyLab
Spectrometer: FLMS14357
Trigger mode: 0
Integration Time (sec): 1.000000E-2
Scans to average: 100
Electric dark correction enabled: true
Nonlinearity correction enabled: false
Boxcar width: 0
XAxis mode: Wavelengths
Number of Pixels in Spectrum: 2048
>>>>>Begin Spectral Data<<<<<
189.047	60.48
189.435	60.48
189.823	60.48
190.211	-115.45
190.599	22.35
190.987	17.22
191.375	286.21
191.763	63.24
192.151	11.14
192.538	44.01
192.926	67.17
193.314	-359.96
193.702	-275.43
194.089	-485.83
194.477	301.4
194.864	42
195.252	126.28
195.639	74.23
196.027	-75.16
196.414	-104.55
196.801	-26.99
197.189	48.89
197.576	-23.16
197.963	-324.61
198.351	8.22
198.738	-52.16
199.125	-26.42
199.512	32.67
199.899	-40.97
200.286	-8.13
200.673	16.42
201.06	-24.04
201.447	-23.53
201.833	10.85
202.22	23.43
202.607	-68.59
202.994	2.33
203.38	45.32
203.767	1.41
204.154	13.02
204.54	22.66
204.927	-23.39
205.313	4.81
205.699	1.26
206.086	32.92
206.472	22.41
206.858	5.59
207.245	-6.03
207.631	31.13
208.017	23.32
208.403	-23.28
208.789	-1.96
209.175	16.22
209.561	-28.83
209.947	-10.89
210.333	-10.73
210.719	23.73
211.105	15.23
211.491	28.95
211.876	11.46
212.262	6.12
212.648	43.17
213.034	10.29
213.419	0.83
213.805	-25.07
214.19	16.86
214.576	14.18
214.961	31.81
215.346	-2.74
215.732	12.44
216.117	14.87
216.502	-6.84
216.888	28.15
217.273	17.04
217.658	15.03
218.043	6.85
218.428	-2.18
218.813	37.22
219.198	-17.11
219.583	1.45
219.968	-5.32
220.353	-0.8
220.738	26.35
221.122	-4.6
221.507	4.45
221.892	-17.48
222.276	-20.8
222.661	-12.67
223.046	-9.43
223.43	12.65
223.815	1.42
224.199	3.13
224.583	-3.82
224.968	4.55
225.352	-5.53
225.736	11
226.121	1.93
226.505	3.22
226.889	10.22
227.273	-3.67
227.657	1.22
228.041	-0.13
228.425	-1.77
228.809	0.14
229.193	3.25
229.577	2.74
229.961	3.39
230.344	3.84
230.728	3.66
231.112	3.76
231.495	2.8
231.879	1.24
232.263	3.2
232.646	3.17
233.03	4.63
233.413	3.32
233.797	2.04
234.18	3.55
234.563	4.83
234.946	3.25
235.33	2.65
235.713	3.47
236.096	5.54
236.479	4.76
236.862	2.98
237.245	3.73
237.628	4.05
238.011	3.83
238.394	1.55
238.777	4.26
239.16	5.12
239.543	4.65
239.925	3.82
240.308	2.25
240.691	3.43
241.073	2.49
241.456	3.93
241.838	2.65
242.221	4.21
242.603	4.17
242.986	3.98
243.368	3.26
243.75	3.78
244.133	3.51
244.515	3.06
244.897	3.5
245.279	2.92
245.661	4.1
246.043	2.34
246.425	3.04
246.807	2.8
247.189	3.3
247.571	3.08
247.953	3.14
248.335	3.04
248.717	3.17
249.098	3.21
249.48	2.77
249.862	3.2
250.243	3.33
250.625	2.7
251.006	4.07
251.388	3.01
251.769	2.43
252.151	4.3
252.532	3.26
252.913	3.08
253.295	3.49
253.676	3.3
254.057	3.33
254.438	3.57
254.819	2.05
255.2	3.95
255.581	3.39
255.962	3.5
256.343	3.37
256.724	2.87
257.105	3.31
257.486	2.16
257.867	2.91
258.247	4.24
258.628	2.96
259.009	2.83
259.389	2.16
259.77	3.05
260.15	3.33
260.531	2.73
260.911	2.94
261.292	2.97
261.672	2.96
262.052	2.87
262.432	2.97
262.813	3.2
263.193	3.01
263.573	3.07
263.953	2.21
264.333	2.78
264.713	3.5
265.093	2.85
265.473	2.2
265.853	3.24
266.233	3.27
266.612	2.85
266.992	2.09
267.372	3
267.752	3.51
268.131	3.61
268.511	2.94
268.89	3.37
269.27	2.6
269.649	2.46
270.029	2.61
270.408	2.84
270.787	2.97
271.167	3.32
271.546	3.65
271.925	2.53
272.304	2.52
272.683	2.38
273.062	2.61
273.441	3.04
273.82	2.84
274.199	2.69
274.578	3.09
274.957	2.71
275.336	3.43
275.715	2.73
276.093	2.61
276.472	2.74
276.851	3.4
277.229	2.84
277.608	2.3
277.986	2.71
278.365	3.36
278.743	2.94
279.122	2.54
279.5	2.41
279.878	2.01
280.257	2.55
280.635	2.77
281.013	2.35
281.391	2.5
281.769	3.17
282.147	2.38
282.525	2.46
282.903	2.81
283.281	3.44
283.659	2.68
284.037	2.64
284.415	2.33
284.792	2.88
285.17	2.66
285.548	2.43
285.925	2.45
286.303	3.13
286.68	2.8
287.058	2.79
287.435	2.62
287.813	2.57
288.19	2.15
288.567	2.7
288.945	2.33
289.322	2.86
289.699	3.18
290.076	2.41
290.453	2.3
290.83	2.69
291.207	2.49
291.584	2.75
291.961	2.52
292.338	2.64
292.715	2.47
293.092	2.73
293.469	2.47
293.845	2.9
294.222	3.11
294.599	2.18
294.975	1.97
295.352	2.91
295.728	2.48
296.105	2.32
296.481	2.69
296.858	2.36
297.234	2.17
297.61	2.79
297.986	2.99
298.363	2.52
298.739	2.7
299.115	2.65
299.491	3.11
299.867	2.38
300.243	2.72
300.619	2.24
300.995	2.63
301.371	2.66
301.746	2.34
302.122	1.92
302.498	2.67
302.874	2.55
303.249	2.77
303.625	2.38
304	2.97
304.376	2.81
304.751	2.73
305.127	2.34
305.502	2.56
305.878	2.64
306.253	2.22
306.628	2.65
307.003	2.5
307.378	2.4
307.754	2.88
308.129	2.23
308.504	2.7
308.879	2.23
309.254	3.33
309.629	2.84
310.003	2.34
310.378	2.83
310.753	2.72
311.128	2.56
311.502	2.53
311.877	2.65
312.252	2.6
312.626	2.65
313.001	2.44
313.375	2.8
313.75	2.24
314.124	3.13
314.498	2.94
314.873	2.73
315.247	2.69
315.621	2.6
315.995	2.88
316.369	2.62
316.743	2.62
317.117	2.46
317.491	2.5
317.865	2.08
318.239	2.83
318.613	2.48
318.987	2.19
319.361	2.6
319.734	2.46
320.108	2.84
320.482	2.45
320.855	2.15
321.229	2.94
321.602	2.56
321.976	2.05
322.349	2.67
322.723	3.12
323.096	2.01
323.469	2.26
323.843	2
324.216	2.35
324.589	2.89
324.962	2.34
325.335	1.88
325.708	2.31
326.081	2.14
326.454	2.66
326.827	2.78
327.2	2.31
327.573	3.16
327.945	2.54
328.318	2.24
328.691	2.47
329.063	2.33
329.436	2.09
329.809	2.84
330.181	2.8
330.553	2.8
330.926	3.26
331.298	2.46
331.671	2.92
332.043	3.04
332.415	2.84
332.787	2.71
333.159	2.51
333.532	2.69
333.904	2.47
334.276	2.42
334.648	2.72
335.02	2.72
335.391	2.28
335.763	2.29
336.135	2.65
336.507	2.26
336.879	3.07
337.25	2.35
337.622	2.55
337.993	2.45
338.365	2.83
338.736	2.39
339.108	2.61
339.479	2.44
339.851	2.43
340.222	3.1
340.593	2.22
340.964	2.49
341.336	2.39
341.707	2.52
342.078	2.1
342.449	2.82
342.82	2.3
343.191	2.44
343.562	2.51
343.933	2.45
344.303	2.6
344.674	2.29
345.045	2.59
345.416	2.76
345.786	2.43
346.157	2.59
346.527	2.53
346.898	2.2
347.268	2.86
347.639	2.43
348.009	2.58
348.38	2.4
348.75	2.27
349.12	2.78
349.49	2.21
349.861	2.25
350.231	2.52
350.601	2.34
350.971	2.3
351.341	2.7
351.711	2.59
352.081	2.33
352.45	2.18
352.82	2.35
353.19	2.23
353.56	2.53
353.929	2.09
354.299	2.58
354.669	2.64
355.038	2.7
355.408	2.36
355.777	2.6
356.147	2.61
356.516	2.22
356.885	2.35
357.254	2.42
357.624	1.93
357.993	2.29
358.362	2.39
358.731	3.08
359.1	2.47
359.469	2.5
359.838	2.39
360.207	2.39
360.576	2.53
360.945	2.64
361.314	2.32
361.682	2.16
362.051	2.28
362.42	2.42
362.788	2.68
363.157	2.4
363.525	2.55
363.894	2.48
364.262	2.42
364.631	2.63
364.999	2.34
365.367	2.29
365.735	2.45
366.104	2.85
366.472	2.55
366.84	2.54
367.208	2.82
367.576	2.27
367.944	2.43
368.312	2.41
368.68	2.66
369.048	2.47
369.416	2.41
369.783	2.42
370.151	2.71
370.519	2.99
370.886	2.48
371.254	3.1
371.621	2.72
371.989	2.63
372.356	2.4
372.724	2.77
373.091	2.44
373.458	2.15
373.826	2.28
374.193	2.73
374.56	2.5
374.927	2.64
375.294	2.7
375.661	2.89
376.028	2.46
376.395	2.54
376.762	2.22
377.129	2.29
377.496	2.54
377.863	2.56
378.229	2.78
378.596	2.81
378.963	2.73
379.329	2.56
379.696	2.5
380.062	2.57
380.429	2.39
380.795	2.68
381.161	2.4
381.528	2.39
381.894	2.65
382.26	2.6
382.626	2.56
382.993	2.82
383.359	2.5
383.725	2.55
384.091	2.68
384.457	2.44
384.823	2.72
385.188	2.92
385.554	2.69
385.92	2.48
386.286	2.44
386.651	2.49
387.017	2.8
387.383	2.62
387.748	2.84
388.114	2.88
388.479	2.55
388.845	2.47
389.21	2.95
389.575	2.71
389.94	2.78
390.306	2.62
390.671	2.68
391.036	2.81
391.401	2.84
391.766	2.5
392.131	2.82
392.496	2.94
392.861	2.46
393.226	2.34
393.591	2.46
393.956	2.61
394.32	2.74
394.685	2.74
395.05	2.55
395.414	2.71
395.779	2.84
396.143	2.5
396.508	2.56
396.872	2.48
397.236	2.89
397.601	2.84
397.965	2.88
398.329	3
398.694	2.48
399.058	2.78
399.422	2.37
399.786	2.58
400.15	2.6
400.514	2.66
400.878	2.7
401.242	2.54
401.605	2.68
401.969	2.56
402.333	2.47
402.697	2.98
403.06	2.76
403.424	2.5
403.787	2.72
404.151	2.77
404.514	2.66
404.878	2.57
405.241	2.75
405.604	2.62
405.968	2.51
406.331	2.78
406.694	2.7
407.057	2.53
407.42	2.6
407.783	2.86
408.146	2.67
408.509	2.64
408.872	2.81
409.235	2.78
409.598	2.6
409.961	2.85
410.323	2.57
410.686	2.65
411.049	2.61
411.411	2.68
411.774	2.65
412.136	2.85
412.499	2.99
412.861	2.51
413.223	2.65
413.586	2.82
413.948	2.58
414.31	2.86
414.672	2.71
415.035	2.77
415.397	2.44
415.759	2.6
416.121	2.85
416.483	2.55
416.845	2.57
417.206	2.81
417.568	2.66
417.93	2.69
418.292	2.58
418.653	2.49
419.015	2.63
419.377	2.64
419.738	2.66
420.1	2.62
420.461	2.6
420.822	2.72
421.184	2.6
421.545	2.74
421.906	2.72
422.267	2.59
422.629	2.57
422.99	2.55
423.351	2.64
423.712	2.68
424.073	2.84
424.434	2.72
424.795	2.56
425.155	2.61
425.516	2.63
425.877	2.62
426.238	2.63
426.598	2.73
426.959	2.81
427.32	2.68
427.68	2.69
428.041	2.7
428.401	2.73
428.761	2.77
429.122	2.81
429.482	2.64
429.842	2.67
430.202	2.89
430.563	2.68
430.923	2.76
431.283	2.79
431.643	2.87
432.003	2.83
432.363	2.84
432.722	2.67
433.082	2.86
433.442	2.93
433.802	2.73
434.161	2.81
434.521	2.82
434.881	2.77
435.24	2.65
435.6	2.81
435.959	2.9
436.319	2.8
436.678	2.85
437.037	2.73
437.396	2.85
437.756	2.65
438.115	2.87
438.474	2.72
438.833	2.82
439.192	2.81
439.551	2.8
439.91	2.79
440.269	2.84
440.628	2.74
440.987	2.82
441.345	2.82
441.704	2.77
442.063	2.8
442.421	2.74
442.78	2.86
443.138	2.74
443.497	2.79
443.855	2.83
444.214	2.62
444.572	3
444.93	2.81
445.288	2.9
445.647	2.69
446.005	2.75
446.363	2.85
446.721	2.73
447.079	2.63
447.437	2.76
447.795	2.86
448.153	2.8
448.51	2.88
448.868	2.67
449.226	2.82
449.584	2.82
449.941	2.88
450.299	2.82
450.656	2.83
451.014	3.01
451.371	2.95
451.729	2.81
452.086	2.97
452.443	2.97
452.801	2.89
453.158	3
453.515	2.92
453.872	2.81
454.229	2.62
454.586	2.8
454.943	2.98
455.3	2.87
455.657	2.94
456.014	2.99
456.371	2.91
456.727	3
457.084	3.03
457.441	2.89
457.797	2.76
458.154	2.94
458.51	2.83
458.867	2.88
459.223	2.87
459.58	2.91
459.936	3.05
460.292	2.77
460.648	2.8
461.005	2.83
461.361	2.77
461.717	2.82
462.073	2.94
462.429	2.87
462.785	2.98
463.141	3.02
463.496	3.06
463.852	2.97
464.208	2.94
464.564	2.88
464.919	2.84
465.275	2.76
465.631	3.09
465.986	3.07
466.342	2.79
466.697	2.95
467.052	3.17
467.408	2.9
467.763	2.93
468.118	2.77
468.473	3
468.829	2.9
469.184	3.06
469.539	2.87
469.894	2.92
470.249	3.06
470.603	3.1
470.958	3.12
471.313	3.02
471.668	2.99
472.023	2.95
472.377	2.9
472.732	2.94
473.086	2.98
473.441	2.97
473.795	3.09
474.15	2.89
474.504	2.84
474.859	2.79
475.213	3.04
475.567	2.92
475.921	2.95
476.275	3.05
476.63	3.04
476.984	2.79
477.338	3.04
477.692	2.95
478.045	2.93
478.399	3.02
478.753	2.93
479.107	2.94
479.461	2.91
479.814	2.87
480.168	2.93
480.521	3.03
480.875	2.94
481.228	2.94
481.582	2.91
481.935	3.08
482.289	3.05
482.642	3.06
482.995	2.87
483.348	2.95
483.701	3.04
484.055	2.88
484.408	2.9
484.761	2.78
485.114	2.72
485.466	2.68
485.819	2.66
486.172	2.75
486.525	2.81
486.878	2.87
487.23	2.89
487.583	2.93
487.936	2.87
488.288	2.8
488.641	2.79
488.993	2.75
489.345	2.76
489.698	2.76
490.05	2.77
490.402	2.86
490.754	2.88
491.107	2.85
491.459	3
491.811	2.91
492.163	2.93
492.515	2.8
492.866	2.76
493.218	2.74
493.57	2.84
493.922	2.77
494.274	2.95
494.625	2.95
494.977	2.97
495.328	2.95
495.68	2.99
496.031	3.07
496.383	2.96
496.734	2.95
497.086	2.99
497.437	3.03
497.788	3.02
498.139	2.93
498.49	2.96
498.842	3
499.193	2.95
499.544	3
499.894	2.94
500.245	2.98
500.596	2.92
500.947	2.87
501.298	2.96
501.648	2.99
501.999	3.03
502.35	2.98
502.7	3.16
503.051	3.1
503.401	3.12
503.752	2.89
504.102	2.89
504.452	2.97
504.803	2.92
505.153	2.98
505.503	3.04
505.853	3.12
506.203	3.05
506.553	2.96
506.903	3.07
507.253	2.95
507.603	3.07
507.953	2.94
508.303	3.02
508.652	2.9
509.002	3.03
509.352	3.07
509.701	2.85
510.051	3.12
510.4	2.97
510.75	2.89
511.099	2.79
511.449	3.05
511.798	2.98
512.147	2.91
512.496	2.94
512.846	3.03
513.195	2.9
513.544	3.1
513.893	3.06
514.242	2.87
514.591	2.95
514.939	3.04
515.288	3.15
515.637	3.02
515.986	2.98
516.334	2.99
516.683	3
517.032	3.07
517.38	2.99
517.729	3
518.077	3.04
518.426	3.1
518.774	2.94
519.122	3.02
519.47	3.01
519.819	2.94
520.167	2.88
520.515	2.97
520.863	2.88
521.211	2.95
521.559	3.03
521.907	3.02
522.255	2.94
522.602	3.02
522.95	3.06
523.298	3.13
523.645	3.01
523.993	3.06
524.341	3.01
524.688	3.02
525.036	2.96
525.383	2.96
525.73	2.97
526.078	3.02
526.425	3.05
526.772	3
527.119	2.97
527.466	3.08
527.814	3
528.161	3.03
528.508	2.97
528.854	2.91
529.201	2.95
529.548	2.9
529.895	2.76
530.242	2.81
530.588	2.79
530.935	2.8
531.282	2.83
531.628	2.89
531.975	2.94
532.321	2.92
532.667	2.95
533.014	2.98
533.36	2.99
533.706	2.95
534.052	3.01
534.399	2.97
534.745	2.82
535.091	2.85
535.437	2.85
535.783	2.92
536.129	2.91
536.474	3.08
536.82	3.08
537.166	2.91
537.512	3.01
537.857	2.9
538.203	2.91
538.549	2.88
538.894	2.96
539.239	3.09
539.585	2.95
539.93	3.08
540.276	2.94
540.621	3.14
540.966	3.1
541.311	2.98
541.656	3
542.001	3.02
542.346	2.93
542.691	2.85
543.036	2.83
543.381	2.89
543.726	2.94
544.071	2.93
544.415	2.96
544.76	2.94
545.105	2.95
545.449	2.94
545.794	2.96
546.138	2.91
546.483	3.07
546.827	2.95
547.171	3
547.516	3.01
547.86	3
548.204	3.03
548.548	2.94
548.892	2.96
549.236	2.99
549.58	2.99
549.924	3.2
550.268	3.17
550.612	3.13
550.956	3.22
551.3	3.23
551.643	3.04
551.987	3.15
552.33	3.19
552.674	3.06
553.017	3.2
553.361	3.24
553.704	3.21
554.048	3.14
554.391	3.17
554.734	2.9
555.077	3.06
555.42	3.19
555.764	3.04
556.107	3.15
556.45	3.11
556.793	3.19
557.135	3.07
557.478	3.04
557.821	3.25
558.164	3.24
558.507	3.06
558.849	3.21
559.192	3.25
559.534	3.03
559.877	3.21
560.219	3.15
560.562	3.14
560.904	3.28
561.246	2.89
561.589	3.33
561.931	3.16
562.273	3.06
562.615	2.99
562.957	3.04
563.299	3.29
563.641	3.24
563.983	2.88
564.325	3.18
564.667	3.11
565.008	2.96
565.35	3.13
565.692	3.1
566.033	3.14
566.375	3.29
566.716	3
567.058	3.11
567.399	3.12
567.741	3.11
568.082	3.07
568.423	2.9
568.764	3.17
569.105	3.11
569.447	3.07
569.788	3.14
570.129	3.17
570.47	3.05
570.811	3.1
571.151	3.22
571.492	3.12
571.833	3.15
572.174	3.23
572.514	3.22
572.855	3.21
573.195	3.03
573.536	3.22
573.876	3.07
574.217	3.02
574.557	2.99
574.898	3.02
575.238	3.25
575.578	3.21
575.918	3.11
576.258	3.35
576.598	3.02
576.938	2.93
577.278	3.16
577.618	3.21
577.958	3.08
578.298	3.21
578.638	3.12
578.977	3.24
579.317	3.12
579.657	3.18
579.996	3.25
580.336	3.26
580.675	3.17
581.014	3.1
581.354	3.02
581.693	3.15
582.032	3.21
582.372	3.12
582.711	3.29
583.05	3.23
583.389	3.1
583.728	3.27
584.067	3.16
584.406	3.29
584.745	3.02
585.083	3.08
585.422	3.5
585.761	3.44
586.1	3.49
586.438	3.29
586.777	3.37
587.115	3.41
587.454	2.97
587.792	3.11
588.13	3.11
588.469	3.15
588.807	3.06
589.145	3.29
589.483	3
589.821	3.3
590.159	3.5
590.497	3.22
590.835	3.35
591.173	3.35
591.511	3.37
591.849	3.47
592.187	3.16
592.524	3.15
592.862	3.12
593.2	3.3
593.537	3
593.875	3.1
594.212	3.26
594.55	3.26
594.887	3.4
595.224	3.4
595.561	3.26
595.899	3.29
596.236	3.22
596.573	2.9
596.91	3.06
597.247	3.29
597.584	3.09
597.921	3.24
598.258	3.41
598.594	3.18
598.931	2.99
599.268	3.11
599.604	3.28
599.941	3.19
600.277	3.26
600.614	3.05
600.95	2.97
601.287	2.81
601.623	2.82
601.959	3.53
602.296	3.21
602.632	3.07
602.968	3.19
603.304	3.31
603.64	3.11
603.976	3.06
604.312	3.21
604.648	3.18
604.984	3.29
605.319	3.12
605.655	3.08
605.991	3.23
606.326	3.15
606.662	3.1
606.998	3.26
607.333	3.2
607.668	3.17
608.004	3.16
608.339	3.14
608.674	3.32
609.01	3.65
609.345	3.27
609.68	2.77
610.015	3.42
610.35	3.28
610.685	3.08
611.02	3.01
611.355	3.09
611.689	2.94
612.024	3.27
612.359	3.21
612.694	3.41
613.028	3.24
613.363	3.37
613.697	3.12
614.032	3.28
614.366	3.04
614.7	3.21
615.035	3.17
615.369	3.55
615.703	3.39
616.037	3.14
616.371	3.03
616.705	3.24
617.039	3.27
617.373	3.22
617.707	3.23
618.041	3.13
618.375	2.7
618.709	3.37
619.042	3.13
619.376	3.15
619.71	3.08
620.043	3.1
620.377	3.38
620.71	3.21
621.043	3.36
621.377	3.23
621.71	3.4
622.043	3.48
622.376	3.26
622.709	3.53
623.043	2.99
623.376	3.15
623.709	3.73
624.041	3.17
624.374	3.4
624.707	3.47
625.04	3.13
625.373	3.53
625.705	3.39
626.038	3.66
626.37	3.31
626.703	3.35
627.035	3.15
627.368	3.7
627.7	3.17
628.032	3.07
628.365	3.2
628.697	3.57
629.029	3.22
629.361	3.31
629.693	3.2
630.025	3.34
630.357	3.19
630.689	3.26
631.021	3.47
631.353	3.2
631.684	3.35
632.016	2.98
632.348	3.14
632.679	3.28
633.011	3.42
633.342	3.29
633.674	3.29
634.005	3.34
634.336	3.38
634.668	3.43
634.999	3.36
635.33	3.25
635.661	3.09
635.992	3.53
636.323	3.1
636.654	3.19
636.985	3.13
637.316	3.25
637.647	3.33
637.977	3.08
638.308	3.6
638.639	3.34
638.969	3.37
639.3	3.34
639.63	3.09
639.961	3.36
640.291	3.51
640.622	3.8
640.952	3.48
641.282	3.14
641.612	3.31
641.943	3.35
642.273	3.46
642.603	3.52
642.933	3.71
643.263	3.58
643.592	3.7
643.922	3.83
644.252	3.27
644.582	3.65
644.911	3.21
645.241	3.26
645.571	3.25
645.9	3.41
646.23	3.39
646.559	2.93
646.888	3.97
647.218	3.52
647.547	3.47
647.876	3.65
648.205	3.08
648.534	3.3
648.863	3.39
649.192	3.46
649.521	3.56
649.85	3.2
650.179	3.26
650.508	3.1
650.837	3.31
651.165	3.13
651.494	3.68
651.822	3.7
652.151	3.32
652.479	3.27
652.808	3.14
653.136	3.07
653.465	3.28
653.793	3.12
654.121	3.29
654.449	2.99
654.777	3.04
655.105	2.78
655.433	3.3
655.761	3.25
656.089	2.83
656.417	4.26
656.745	3.78
657.073	3.19
657.4	3.03
657.728	3.01
658.056	3.06
658.383	3.05
658.711	3.28
659.038	4.2
659.365	3.79
659.693	3.22
660.02	3.4
660.347	3.37
660.674	3.1
661.001	3.37
661.329	3.31
661.656	3.05
661.982	2.77
662.309	3.17
662.636	2.93
662.963	3.1
663.29	3.46
663.616	3.3
663.943	3.43
664.27	3.07
664.596	2.95
664.923	3.46
665.249	3.54
665.576	3.6
665.902	3.38
666.228	3.45
666.554	3.8
666.881	3.15
667.207	3.5
667.533	3.51
667.859	3.42
668.185	3.49
668.511	3.84
668.837	3.21
669.162	3.51
669.488	3.23
669.814	2.88
670.139	2.72
670.465	4.05
670.791	3.13
671.116	2.73
671.442	2.99
671.767	3.59
672.092	3.12
672.418	3.2
672.743	3.14
673.068	3.09
673.393	3.7
673.718	3.01
674.043	2.91
674.368	3.53
674.693	3.6
675.018	3.63
675.343	3.97
675.667	3.34
675.992	3.17
676.317	2.56
676.641	3.43
676.966	3.57
677.29	3.42
677.615	2.97
677.939	3.29
678.264	3.22
678.588	3.72
678.912	3.68
679.236	3.16
679.56	3.55
679.885	3.53
680.209	3.23
680.532	3.92
680.856	3.56
681.18	3.9
681.504	3.26
681.828	3.24
682.152	3.29
682.475	3.55
682.799	2.99
683.122	3.16
683.446	2.53
683.769	3.88
684.093	3.75
684.416	3.22
684.739	3.28
685.062	3.31
685.386	3.07
685.709	3.51
686.032	3.38
686.355	3.32
686.678	3.59
687.001	3.32
687.324	3.59
687.646	3.36
687.969	3.58
688.292	3.05
688.614	3.87
688.937	4.13
689.26	3.58
689.582	3.88
689.904	3.64
690.227	3.36
690.549	3.55
690.871	2.73
691.194	3.28
691.516	3.63
691.838	3.11
692.16	2.64
692.482	2.93
692.804	3.65
693.126	3.23
693.448	3.77
693.769	3.95
