Data from 21-8_crown_Reflection__2__22.txt Node

Date: Thu Dec 15 16:36:58 CST 2022
User: ToomeyLab
Spectrometer: FLMS14357
Trigger mode: 0
Integration Time (sec): 1.000000E-2
Scans to average: 100
Electric dark correction enabled: true
Nonlinearity correction enabled: false
Boxcar width: 0
XAxis mode: Wavelengths
Number of Pixels in Spectrum: 2048
>>>>>Begin Spectral Data<<<<<
189.047	-23.47
189.435	-23.47
189.823	-23.47
190.211	-81.41
190.599	31.17
190.987	29.91
191.375	-91.22
191.763	66.46
192.151	100.07
192.538	-183.99
192.926	5.93
193.314	-295.09
193.702	181.91
194.089	-119.73
194.477	140.21
194.864	30.04
195.252	46.94
195.639	62.19
196.027	12.51
196.414	71.36
196.801	-123.59
197.189	-4.09
197.576	34.33
197.963	-135.44
198.351	27.36
198.738	13.16
199.125	-33.93
199.512	19.49
199.899	32.73
200.286	-22.1
200.673	33.42
201.06	16.12
201.447	32.75
201.833	1.7
202.22	39.05
202.607	13.24
202.994	-8.01
203.38	43.67
203.767	46.06
204.154	43.55
204.54	-10.62
204.927	43.68
205.313	29.32
205.699	11.65
206.086	20.51
206.472	26.33
206.858	-0.26
207.245	18.84
207.631	18.77
208.017	53.51
208.403	-24.1
208.789	24.87
209.175	10.11
209.561	-60.96
209.947	21.44
210.333	11.56
210.719	43.37
211.105	27.17
211.491	25.59
211.876	9.91
212.262	-13.41
212.648	33.79
213.034	5.6
213.419	7.8
213.805	-18.76
214.19	-2.92
214.576	-4.36
214.961	39.93
215.346	21.46
215.732	6.76
216.117	10.27
216.502	16.84
216.888	7.18
217.273	25.31
217.658	1.73
218.043	-10.82
218.428	-1.21
218.813	7.44
219.198	-35.22
219.583	3.39
219.968	11.37
220.353	-14.27
220.738	8.52
221.122	10.89
221.507	0.9
221.892	-1.15
222.276	-7.48
222.661	-10.66
223.046	-5.38
223.43	15.38
223.815	13.08
224.199	0.21
224.583	11.19
224.968	6.89
225.352	-3.85
225.736	8.57
226.121	4.6
226.505	4.67
226.889	-0.43
227.273	0.11
227.657	6.1
228.041	6.19
228.425	-3.11
228.809	3.35
229.193	2.06
229.577	3.31
229.961	2.58
230.344	2.9
230.728	3.07
231.112	2.86
231.495	2.33
231.879	3.24
232.263	2.68
232.646	3.52
233.03	3.77
233.413	2.62
233.797	1.64
234.18	4.04
234.563	3.46
234.946	3.02
235.33	1.98
235.713	4.21
236.096	3.18
236.479	3.98
236.862	0.19
237.245	2.54
237.628	5.16
238.011	3.87
238.394	1.35
238.777	2.53
239.16	4.96
239.543	2.8
239.925	1.4
240.308	2.07
240.691	3.58
241.073	1.65
241.456	3.15
241.838	3.48
242.221	3.08
242.603	2.66
242.986	2.63
243.368	2.69
243.75	2.31
244.133	2.72
244.515	2.52
244.897	2.33
245.279	2.61
245.661	2.83
246.043	2.55
246.425	3.09
246.807	2.35
247.189	2.46
247.571	2.7
247.953	2.31
248.335	2.45
248.717	2.69
249.098	2.74
249.48	2.38
249.862	2.33
250.243	2.62
250.625	2.28
251.006	2.82
251.388	2.65
251.769	2.77
252.151	1.85
252.532	2.02
252.913	3.23
253.295	2.57
253.676	2.71
254.057	2.03
254.438	3.08
254.819	2.99
255.2	2.67
255.581	3.42
255.962	2.42
256.343	3.14
256.724	2.37
257.105	2.62
257.486	1.87
257.867	1.99
258.247	2.49
258.628	3.1
259.009	2.29
259.389	1.75
259.77	2.09
260.15	3.46
260.531	2.61
260.911	2.17
261.292	2.29
261.672	2.2
262.052	2.31
262.432	1.81
262.813	2.4
263.193	2.98
263.573	2.41
263.953	2.08
264.333	2.74
264.713	1.96
265.093	1.76
265.473	1.64
265.853	2.37
266.233	2.64
266.612	1.49
266.992	2.28
267.372	2.48
267.752	2.65
268.131	2.22
268.511	2.77
268.89	3
269.27	1.79
269.649	1.89
270.029	1.82
270.408	1.72
270.787	2.96
271.167	2.96
271.546	2.92
271.925	2.58
272.304	2.63
272.683	1.92
273.062	2.3
273.441	1.96
273.82	2.34
274.199	1.83
274.578	2.38
274.957	2.2
275.336	2.11
275.715	2.31
276.093	1.9
276.472	1.95
276.851	2.48
277.229	2.25
277.608	1.87
277.986	2.74
278.365	2.86
278.743	2.1
279.122	2.03
279.5	2
279.878	1.84
280.257	1.8
280.635	2.59
281.013	1.98
281.391	2.04
281.769	2.44
282.147	2.15
282.525	2.06
282.903	1.5
283.281	2.72
283.659	2.43
284.037	1.88
284.415	2
284.792	2.56
285.17	2.43
285.548	1.82
285.925	2.13
286.303	2.7
286.68	2.52
287.058	2.07
287.435	2.1
287.813	2.18
288.19	2.14
288.567	2.32
288.945	2.06
289.322	2.23
289.699	2.71
290.076	2.05
290.453	2.24
290.83	2.28
291.207	2.21
291.584	2.22
291.961	2.01
292.338	1.95
292.715	1.76
293.092	2.68
293.469	2.07
293.845	2.24
294.222	2.75
294.599	2.14
294.975	1.76
295.352	2.6
295.728	2.28
296.105	2.1
296.481	2.55
296.858	2.46
297.234	1.98
297.61	2.17
297.986	2.34
298.363	2.32
298.739	2.3
299.115	2.16
299.491	2.34
299.867	2.02
300.243	2.07
300.619	2
300.995	2.65
301.371	2.42
301.746	2.01
302.122	1.93
302.498	2.14
302.874	2.51
303.249	2.2
303.625	1.59
304	2.76
304.376	2.58
304.751	2.17
305.127	2.17
305.502	2.38
305.878	2.23
306.253	2.19
306.628	2.08
307.003	2.37
307.378	2.13
307.754	1.97
308.129	2.21
308.504	2.74
308.879	2.23
309.254	2.53
309.629	2.25
310.003	2.24
310.378	2.73
310.753	2.41
311.128	2.35
311.502	2.32
311.877	2.06
312.252	2.28
312.626	2.42
313.001	2.23
313.375	2.56
313.75	2.28
314.124	2.3
314.498	2.7
314.873	1.77
315.247	2.22
315.621	2.23
315.995	2.27
316.369	2.04
316.743	2.06
317.117	2.24
317.491	2.76
317.865	2.13
318.239	2.28
318.613	2.25
318.987	2.09
319.361	2.07
319.734	2.36
320.108	2.7
320.482	2.15
320.855	2.21
321.229	2.23
321.602	2.25
321.976	2.22
322.349	2.78
322.723	2.51
323.096	2.34
323.469	2.06
323.843	2.18
324.216	2.5
324.589	2.78
324.962	2.01
325.335	2.08
325.708	2
326.081	1.95
326.454	2.81
326.827	2.22
327.2	2.2
327.573	2.4
327.945	2.22
328.318	2.55
328.691	2.51
329.063	2.19
329.436	1.88
329.809	2.54
330.181	2.98
330.553	2.56
330.926	2.8
331.298	2.49
331.671	2.63
332.043	2.36
332.415	2.56
332.787	2.2
333.159	2.34
333.532	2.35
333.904	2.15
334.276	2.71
334.648	2.4
335.02	2.41
335.391	2.3
335.763	2.59
336.135	2.59
336.507	1.94
336.879	2.27
337.25	2.44
337.622	2.58
337.993	2.24
338.365	2.33
338.736	2.83
339.108	2.24
339.479	2.21
339.851	2.6
340.222	2.73
340.593	2.34
340.964	2.3
341.336	2.34
341.707	2.23
342.078	2.32
342.449	2.43
342.82	2.47
343.191	2.26
343.562	2.57
343.933	2.03
344.303	2.32
344.674	2.51
345.045	2.5
345.416	2.8
345.786	2.08
346.157	2.39
346.527	2.15
346.898	2.07
347.268	2.51
347.639	2.19
348.009	2.32
348.38	2.17
348.75	2.53
349.12	2.19
349.49	2.55
349.861	2.75
350.231	2.32
350.601	2.3
350.971	2.13
351.341	2.39
351.711	2.44
352.081	2.31
352.45	1.89
352.82	2
353.19	2.27
353.56	2.37
353.929	2.31
354.299	2.84
354.669	2.51
355.038	2.75
355.408	2.35
355.777	2.5
356.147	2.57
356.516	1.9
356.885	2.23
357.254	2.15
357.624	2.01
357.993	2.7
358.362	2.55
358.731	2.62
359.1	2.46
359.469	2.49
359.838	2.39
360.207	2.55
360.576	2.38
360.945	2.75
361.314	2.49
361.682	2.24
362.051	2.33
362.42	2.46
362.788	2.38
363.157	2.2
363.525	2.52
363.894	2.29
364.262	2.54
364.631	2.3
364.999	2.58
365.367	2.42
365.735	2.25
366.104	2.14
366.472	2.44
366.84	2.11
367.208	2.66
367.576	2.28
367.944	2.5
368.312	2.52
368.68	2.55
369.048	2.4
369.416	2.1
369.783	2.47
370.151	2.65
370.519	2.61
370.886	2.53
371.254	2.7
371.621	2.95
371.989	2.47
372.356	2.41
372.724	2.25
373.091	2.13
373.458	2.32
373.826	2.33
374.193	2.32
374.56	2.44
374.927	2.39
375.294	2.49
375.661	2.27
376.028	2.14
376.395	2.61
376.762	2.22
377.129	2.3
377.496	2.39
377.863	2.23
378.229	2.54
378.596	2.61
378.963	2.64
379.329	2.52
379.696	2.17
380.062	2.31
380.429	1.92
380.795	2.48
381.161	2.1
381.528	2.1
381.894	2.31
382.26	2.38
382.626	2.55
382.993	2.63
383.359	2.28
383.725	2.23
384.091	2.57
384.457	2.15
384.823	2.41
385.188	2.45
385.554	2.37
385.92	2.35
386.286	2.49
386.651	2.38
387.017	2.71
387.383	2.28
387.748	2.51
388.114	2.62
388.479	2.35
388.845	2.23
389.21	2.77
389.575	2.68
389.94	2.86
390.306	2.6
390.671	2.15
391.036	2.37
391.401	2.4
391.766	2.45
392.131	2.49
392.496	2.56
392.861	2.39
393.226	2.41
393.591	2.49
393.956	2.47
394.32	2.75
394.685	2.26
395.05	2.44
395.414	2.35
395.779	2.54
396.143	2.39
396.508	2.25
396.872	2.34
397.236	2.66
397.601	2.52
397.965	2.61
398.329	2.62
398.694	2.24
399.058	2.43
399.422	2.51
399.786	2.42
400.15	2.43
400.514	2.55
400.878	2.37
401.242	2.29
401.605	2.59
401.969	2.45
402.333	2.37
402.697	2.82
403.06	2.64
403.424	2.86
403.787	2.4
404.151	2.44
404.514	2.48
404.878	2.37
405.241	2.37
405.604	2.44
405.968	2.42
406.331	2.52
406.694	2.63
407.057	2.26
407.42	2.52
407.783	2.53
408.146	2.34
408.509	2.38
408.872	2.57
409.235	2.57
409.598	2.45
409.961	2.63
410.323	2.5
410.686	2.52
411.049	2.53
411.411	2.48
411.774	2.4
412.136	2.49
412.499	2.64
412.861	2.29
413.223	2.24
413.586	2.64
413.948	2.74
414.31	2.76
414.672	2.48
415.035	2.39
415.397	2.41
415.759	2.46
416.121	2.58
416.483	2.41
416.845	2.55
417.206	2.4
417.568	2.29
417.93	2.56
418.292	2.25
418.653	2.22
419.015	2.47
419.377	2.44
419.738	2.54
420.1	2.38
420.461	2.3
420.822	2.52
421.184	2.41
421.545	2.55
421.906	2.44
422.267	2.41
422.629	2.4
422.99	2.39
423.351	2.43
423.712	2.5
424.073	2.47
424.434	2.51
424.795	2.36
425.155	2.33
425.516	2.45
425.877	2.4
426.238	2.46
426.598	2.46
426.959	2.52
427.32	2.49
427.68	2.46
428.041	2.5
428.401	2.47
428.761	2.73
429.122	2.57
429.482	2.49
429.842	2.52
430.202	2.74
430.563	2.43
430.923	2.55
431.283	2.58
431.643	2.65
432.003	2.66
432.363	2.66
432.722	2.68
433.082	2.53
433.442	2.68
433.802	2.62
434.161	2.57
434.521	2.57
434.881	2.55
435.24	2.53
435.6	2.61
435.959	2.63
436.319	2.61
436.678	2.57
437.037	2.73
437.396	2.61
437.756	2.59
438.115	2.62
438.474	2.54
438.833	2.52
439.192	2.44
439.551	2.47
439.91	2.65
440.269	2.6
440.628	2.57
440.987	2.56
441.345	2.5
441.704	2.65
442.063	2.56
442.421	2.56
442.78	2.56
443.138	2.54
443.497	2.55
443.855	2.76
444.214	2.47
444.572	2.72
444.93	2.56
445.288	2.62
445.647	2.51
446.005	2.55
446.363	2.68
446.721	2.58
447.079	2.51
447.437	2.57
447.795	2.56
448.153	2.56
448.51	2.6
448.868	2.57
449.226	2.59
449.584	2.56
449.941	2.66
450.299	2.6
450.656	2.65
451.014	2.65
451.371	2.76
451.729	2.54
452.086	2.61
452.443	2.83
452.801	2.74
453.158	2.82
453.515	2.65
453.872	2.6
454.229	2.54
454.586	2.58
454.943	2.75
455.3	2.66
455.657	2.67
456.014	2.5
456.371	2.76
456.727	2.71
457.084	2.91
457.441	2.79
457.797	2.75
458.154	2.71
458.51	2.61
458.867	2.7
459.223	2.61
459.58	2.64
459.936	2.72
460.292	2.55
460.648	2.57
461.005	2.64
461.361	2.63
461.717	2.6
462.073	2.74
462.429	2.73
462.785	2.74
463.141	2.69
463.496	2.76
463.852	2.94
464.208	2.85
464.564	2.69
464.919	2.77
465.275	2.83
465.631	2.9
465.986	2.89
466.342	2.75
466.697	2.71
467.052	2.95
467.408	3.03
467.763	2.74
468.118	2.6
468.473	2.79
468.829	2.68
469.184	2.69
469.539	2.54
469.894	2.84
470.249	2.8
470.603	2.93
470.958	2.98
471.313	2.89
471.668	2.8
472.023	2.9
472.377	2.79
472.732	2.96
473.086	2.57
473.441	2.71
473.795	2.85
474.15	2.73
474.504	2.68
474.859	2.54
475.213	2.91
475.567	2.65
475.921	2.91
476.275	2.82
476.63	2.89
476.984	2.7
477.338	2.76
477.692	2.78
478.045	2.74
478.399	2.96
478.753	2.77
479.107	2.89
479.461	2.67
479.814	2.82
480.168	2.79
480.521	2.99
480.875	2.78
481.228	2.89
481.582	2.82
481.935	2.92
482.289	2.88
482.642	2.89
482.995	2.81
483.348	2.79
483.701	2.8
484.055	2.7
484.408	2.83
484.761	2.68
485.114	2.56
485.466	2.58
485.819	2.57
486.172	2.64
486.525	2.66
486.878	2.72
487.23	2.75
487.583	2.77
487.936	2.69
488.288	2.68
488.641	2.68
488.993	2.63
489.345	2.63
489.698	2.67
490.05	2.65
490.402	2.73
490.754	2.69
491.107	2.69
491.459	2.85
491.811	2.77
492.163	2.73
492.515	2.68
492.866	2.68
493.218	2.67
493.57	2.72
493.922	2.74
494.274	2.82
494.625	2.9
494.977	2.86
495.328	2.95
495.68	2.86
496.031	2.88
496.383	2.84
496.734	2.74
497.086	2.93
497.437	2.88
497.788	2.97
498.139	2.81
498.49	2.83
498.842	2.92
499.193	2.79
499.544	2.87
499.894	2.76
500.245	2.95
500.596	2.9
500.947	2.85
501.298	2.94
501.648	2.99
501.999	2.96
502.35	2.88
502.7	3.17
503.051	2.94
503.401	2.99
503.752	2.86
504.102	2.85
504.452	2.88
504.803	2.88
505.153	2.97
505.503	2.96
505.853	3.03
506.203	2.99
506.553	2.85
506.903	2.95
507.253	2.98
507.603	2.95
507.953	2.94
508.303	2.91
508.652	2.96
509.002	2.96
509.352	2.91
509.701	2.83
510.051	2.95
510.4	2.96
510.75	2.85
511.099	2.75
511.449	2.95
511.798	2.83
512.147	2.93
512.496	3.03
512.846	2.96
513.195	2.95
513.544	2.98
513.893	2.99
514.242	2.91
514.591	2.82
514.939	2.97
515.288	3.03
515.637	2.98
515.986	2.99
516.334	2.92
516.683	2.93
517.032	3
517.38	3.01
517.729	2.95
518.077	2.99
518.426	2.92
518.774	2.9
519.122	2.95
519.47	2.87
519.819	2.91
520.167	2.91
520.515	2.94
520.863	2.94
521.211	2.96
521.559	2.88
521.907	2.99
522.255	2.95
522.602	3.03
522.95	3.03
523.298	3.07
523.645	3
523.993	3.06
524.341	2.97
524.688	3.02
525.036	2.96
525.383	2.98
525.73	2.87
526.078	3
526.425	2.97
526.772	2.91
527.119	2.94
527.466	2.98
527.814	2.96
528.161	3.06
528.508	3.09
528.854	3.02
529.201	2.89
529.548	2.91
529.895	2.81
530.242	2.8
530.588	2.83
530.935	2.85
531.282	2.83
531.628	2.92
531.975	2.93
532.321	2.92
532.667	3
533.014	3.12
533.36	3.02
533.706	3.02
534.052	3.02
534.399	2.96
534.745	2.89
535.091	2.85
535.437	2.95
535.783	2.95
536.129	2.96
536.474	3.04
536.82	3.09
537.166	2.97
537.512	2.94
537.857	3.07
538.203	2.99
538.549	2.93
538.894	2.96
539.239	3.05
539.585	3.01
539.93	3.12
540.276	3.1
540.621	3.13
540.966	3.05
541.311	3.06
541.656	2.94
542.001	3
542.346	2.98
542.691	2.89
543.036	2.89
543.381	2.93
543.726	3.01
544.071	3.02
544.415	3
544.76	2.99
545.105	3.01
545.449	3.03
545.794	3.14
546.138	3.04
546.483	3.16
546.827	3.01
547.171	3.07
547.516	3.05
547.86	3.11
548.204	3.13
548.548	3.08
548.892	3.13
549.236	3.08
549.58	3.1
549.924	3.21
550.268	3.18
550.612	3.04
550.956	3.17
551.3	3.35
551.643	3.2
551.987	3.21
552.33	3.2
552.674	3.23
553.017	3.34
553.361	3.17
553.704	3.21
554.048	3.14
554.391	3.28
554.734	3.14
555.077	3.2
555.42	3.22
555.764	3.17
556.107	3.3
556.45	3.36
556.793	3.41
557.135	3.29
557.478	3.22
557.821	3.31
558.164	3.32
558.507	3.16
558.849	3.42
559.192	3.17
559.534	3.18
559.877	3.1
560.219	3.23
560.562	3.25
560.904	3.41
561.246	3.13
561.589	3.46
561.931	3.27
562.273	3.07
562.615	3.21
562.957	3.22
563.299	3.15
563.641	3.29
563.983	3.3
564.325	3.29
564.667	3.18
565.008	3.18
565.35	3.23
565.692	3.32
566.033	3.22
566.375	3.3
566.716	3.15
567.058	3.16
567.399	3.24
567.741	3.24
568.082	3.36
568.423	3.22
568.764	3.29
569.105	3.27
569.447	3.22
569.788	3.28
570.129	3.23
570.47	3.32
570.811	3.24
571.151	3.4
571.492	3.38
571.833	3.42
572.174	3.37
572.514	3.24
572.855	3.55
573.195	3.32
573.536	3.26
573.876	3.27
574.217	3.29
574.557	3.24
574.898	3.2
575.238	3.21
575.578	3.38
575.918	3.42
576.258	3.45
576.598	3.26
576.938	3.29
577.278	3.37
577.618	3.3
577.958	3.37
578.298	3.42
578.638	3.29
578.977	3.46
579.317	3.27
579.657	3.34
579.996	3.55
580.336	3.38
580.675	3.33
581.014	3.52
581.354	3.39
581.693	3.43
582.032	3.62
582.372	3.54
582.711	3.42
583.05	3.38
583.389	3.7
583.728	3.48
584.067	3.34
584.406	3.43
584.745	3.22
585.083	3.38
585.422	3.44
585.761	3.54
586.1	3.49
586.438	3.36
586.777	3.64
587.115	3.61
587.454	3.2
587.792	3.48
588.13	3.32
588.469	3.4
588.807	3.38
589.145	3.56
589.483	3.31
589.821	3.5
590.159	3.51
590.497	3.64
590.835	3.55
591.173	3.38
591.511	3.61
591.849	3.57
592.187	3.39
592.524	3.53
592.862	3.54
593.2	3.48
593.537	3.6
593.875	3.3
594.212	3.64
594.55	3.48
594.887	3.74
595.224	3.59
595.561	3.59
595.899	3.56
596.236	3.8
596.573	3.49
596.91	3.44
597.247	3.61
597.584	3.63
597.921	3.51
598.258	3.4
598.594	3.39
598.931	3.31
599.268	3.37
599.604	3.55
599.941	3.55
600.277	3.35
600.614	3.42
600.95	3.34
601.287	3.22
601.623	3.29
601.959	3.76
602.296	3.75
602.632	3.55
602.968	3.37
603.304	3.62
603.64	3.72
603.976	3.53
604.312	3.53
604.648	3.57
604.984	3.66
605.319	3.44
605.655	3.34
605.991	3.51
606.326	3.68
606.662	3.38
606.998	3.67
607.333	3.51
607.668	3.43
608.004	3.52
608.339	3.33
608.674	3.84
609.01	3.66
609.345	3.53
609.68	3.49
610.015	3.66
610.35	3.74
610.685	3.48
611.02	3.59
611.355	3.71
611.689	3.47
612.024	3.62
612.359	3.74
612.694	3.9
613.028	3.53
613.363	3.58
613.697	3.91
614.032	3.64
614.366	3.61
614.7	3.73
615.035	3.43
615.369	3.79
615.703	3.65
616.037	3.51
616.371	3.45
616.705	3.61
617.039	3.79
617.373	3.69
617.707	3.71
618.041	3.57
618.375	3.41
618.709	3.8
619.042	3.63
619.376	3.67
619.71	3.77
620.043	3.99
620.377	3.48
620.71	3.5
621.043	3.6
621.377	3.94
621.71	3.83
622.043	3.7
622.376	3.7
622.709	4.08
623.043	3.82
623.376	3.83
623.709	4.13
624.041	3.83
624.374	3.81
624.707	4
625.04	3.76
625.373	4.11
625.705	3.99
626.038	3.93
626.37	3.71
626.703	3.84
627.035	3.95
627.368	3.67
627.7	3.74
628.032	3.75
628.365	3.76
628.697	4.16
629.029	3.7
629.361	3.92
629.693	3.6
630.025	3.78
630.357	3.94
630.689	3.75
631.021	3.95
631.353	3.92
631.684	3.63
632.016	3.83
632.348	3.56
632.679	3.9
633.011	3.67
633.342	3.56
633.674	3.86
634.005	3.94
634.336	4.06
634.668	3.91
634.999	3.67
635.33	3.8
635.661	3.7
635.992	3.87
636.323	3.93
636.654	3.7
636.985	3.47
637.316	3.94
637.647	4.04
637.977	3.56
638.308	3.95
638.639	4.03
638.969	3.54
639.3	4.12
639.63	3.5
639.961	3.97
640.291	3.68
640.622	4.16
640.952	3.76
641.282	3.34
641.612	3.69
641.943	3.57
642.273	4.14
642.603	4.07
642.933	4.45
643.263	3.85
643.592	4.36
643.922	4.28
644.252	3.86
644.582	4.19
644.911	4.1
645.241	4.02
645.571	4.12
645.9	4.06
646.23	4.35
646.559	3.93
646.888	4.16
647.218	4.08
647.547	4.16
647.876	4.08
648.205	3.8
648.534	4.05
648.863	3.89
649.192	3.87
649.521	3.94
649.85	3.95
650.179	4.14
650.508	4.15
650.837	4.35
651.165	4.04
651.494	3.99
651.822	4.3
652.151	3.68
652.479	4.28
652.808	4.05
653.136	3.91
653.465	3.98
653.793	3.88
654.121	3.87
654.449	3.85
654.777	3.93
655.105	3.97
655.433	4.28
655.761	4.14
656.089	3.9
656.417	4.35
656.745	4.56
657.073	3.77
657.4	3.91
657.728	3.65
658.056	4.11
658.383	4.53
658.711	4.49
659.038	4.55
659.365	3.9
659.693	3.82
660.02	3.97
660.347	4.06
660.674	3.84
661.001	4.08
661.329	3.83
661.656	3.74
661.982	3.63
662.309	3.95
662.636	4.39
662.963	4.23
663.29	4.48
663.616	3.94
663.943	4.08
664.27	4.04
664.596	3.76
664.923	4.64
665.249	4.61
665.576	3.95
665.902	3.98
666.228	4.67
666.554	4.63
666.881	3.91
667.207	4.21
667.533	4.27
667.859	4.19
668.185	3.89
668.511	4.69
668.837	4.26
669.162	3.88
669.488	3.45
669.814	3.63
670.139	3.59
670.465	4.04
670.791	3.72
671.116	4.17
671.442	3.1
671.767	4.44
672.092	4.33
672.418	4.35
672.743	3.77
673.068	3.57
673.393	4.3
673.718	3.53
674.043	3.87
674.368	4.33
674.693	4.54
675.018	4.17
675.343	4.75
675.667	4.5
675.992	4.35
676.317	3.81
676.641	3.91
676.966	4.55
677.29	4.02
677.615	4.17
677.939	4.58
678.264	4.38
678.588	4.16
678.912	4.22
679.236	4.19
679.56	3.73
679.885	4.19
680.209	4.79
680.532	4.72
680.856	4.03
681.18	4.81
681.504	4.72
681.828	3.99
682.152	3.91
682.475	4.59
682.799	4.25
683.122	4.5
683.446	3.93
683.769	4.73
684.093	3.93
684.416	4.08
684.739	4.5
685.062	4.61
685.386	4.58
685.709	5.02
686.032	4.36
686.355	4.36
686.678	4.96
687.001	3.91
687.324	4.52
687.646	4.18
687.969	4.22
688.292	3.89
688.614	4.82
688.937	4.51
689.26	4.18
689.582	4.83
689.904	4.46
690.227	4.71
690.549	4.07
690.871	3.97
691.194	4.85
691.516	4.06
691.838	4.76
692.16	4.04
692.482	4.04
692.804	4.33
