Data from 21-8_crown_Reflection__0__20.txt Node

Date: Thu Dec 15 16:36:29 CST 2022
User: ToomeyLab
Spectrometer: FLMS14357
Trigger mode: 0
Integration Time (sec): 1.000000E-2
Scans to average: 100
Electric dark correction enabled: true
Nonlinearity correction enabled: false
Boxcar width: 0
XAxis mode: Wavelengths
Number of Pixels in Spectrum: 2048
>>>>>Begin Spectral Data<<<<<
189.047	11.44
189.435	11.44
189.823	11.44
190.211	-127.7
190.599	83.32
190.987	9.62
191.375	-67.72
191.763	50.57
192.151	-61.88
192.538	67.75
192.926	73.5
193.314	-380.29
193.702	-119.19
194.089	-188.55
194.477	39.99
194.864	60.36
195.252	67.67
195.639	105.69
196.027	-18.8
196.414	5.4
196.801	157.14
197.189	78.26
197.576	111.42
197.963	-86.01
198.351	58.89
198.738	-8.46
199.125	-5.19
199.512	55.86
199.899	11.68
200.286	-14.95
200.673	51.64
201.06	14.7
201.447	59.44
201.833	-2.18
202.22	39.53
202.607	-2.01
202.994	-7.68
203.38	11.21
203.767	3.13
204.154	58.56
204.54	-22.51
204.927	1.19
205.313	41.18
205.699	58.04
206.086	27.71
206.472	3.38
206.858	32.65
207.245	9.25
207.631	-7.61
208.017	23.83
208.403	-24.76
208.789	16.24
209.175	1.96
209.561	-63.04
209.947	6.66
210.333	2.2
210.719	20.17
211.105	32.07
211.491	30.02
211.876	-4.69
212.262	3.55
212.648	12.9
213.034	-10.77
213.419	11.19
213.805	-2.06
214.19	-0.1
214.576	13.07
214.961	43.56
215.346	52.99
215.732	15.13
216.117	29.98
216.502	20.58
216.888	-10.87
217.273	21.99
217.658	-4.49
218.043	11.24
218.428	1.14
218.813	7.9
219.198	-27.7
219.583	16.15
219.968	11.05
220.353	-12.64
220.738	26.42
221.122	7.72
221.507	12.21
221.892	-8.59
222.276	-7.95
222.661	-12.28
223.046	-4.29
223.43	22.25
223.815	16.24
224.199	5.4
224.583	8.87
224.968	6.41
225.352	-5.09
225.736	10.82
226.121	5.64
226.505	1.94
226.889	10.3
227.273	3.88
227.657	4.51
228.041	5.68
228.425	0.05
228.809	3.9
229.193	4.07
229.577	4.22
229.961	3.44
230.344	3.74
230.728	4.03
231.112	4.95
231.495	3.07
231.879	3.02
232.263	4.04
232.646	2.09
233.03	5.57
233.413	3.5
233.797	2.12
234.18	3.22
234.563	5.85
234.946	2.64
235.33	4.12
235.713	5.45
236.096	4.88
236.479	4.31
236.862	4.06
237.245	2.48
237.628	3.28
238.011	4.19
238.394	2.98
238.777	3.6
239.16	5.91
239.543	5.24
239.925	3.47
240.308	2.52
240.691	3.34
241.073	2.77
241.456	4.84
241.838	4.22
242.221	2.79
242.603	3.86
242.986	3.96
243.368	4.14
243.75	3.92
244.133	4.31
244.515	3.87
244.897	3.8
245.279	3.23
245.661	4.21
246.043	3.86
246.425	4.59
246.807	4.79
247.189	4
247.571	3.65
247.953	3.88
248.335	3.91
248.717	4.13
249.098	4.13
249.48	3.71
249.862	3.86
250.243	4.22
250.625	4.05
251.006	5.13
251.388	4.84
251.769	3.47
252.151	5.02
252.532	4.98
252.913	3.73
253.295	3.71
253.676	4.13
254.057	3.86
254.438	4.15
254.819	3.63
255.2	5
255.581	4.94
255.962	4.16
256.343	4.71
256.724	3.25
257.105	3.7
257.486	3.46
257.867	2.53
258.247	4.15
258.628	4.32
259.009	3.22
259.389	3.01
259.77	3.58
260.15	5.09
260.531	3.58
260.911	3.46
261.292	3.66
261.672	3.64
262.052	3.65
262.432	3.84
262.813	4.04
263.193	4.68
263.573	3.95
263.953	2.85
264.333	3.71
264.713	3.81
265.093	3.91
265.473	3.76
265.853	4.11
266.233	4.39
266.612	3.73
266.992	3.75
267.372	4.17
267.752	4.46
268.131	3.7
268.511	3.88
268.89	3.85
269.27	3.25
269.649	3.35
270.029	3.43
270.408	3.59
270.787	3.34
271.167	4.09
271.546	4.17
271.925	4.19
272.304	3.36
272.683	3.07
273.062	3.51
273.441	3.28
273.82	3.6
274.199	3.39
274.578	3.61
274.957	3.77
275.336	3.65
275.715	3.76
276.093	3.07
276.472	3.26
276.851	3.67
277.229	3.27
277.608	3.38
277.986	3.85
278.365	4.24
278.743	3.6
279.122	3.56
279.5	3.6
279.878	3.37
280.257	3.6
280.635	3.98
281.013	3.29
281.391	3.4
281.769	4.08
282.147	3.49
282.525	2.98
282.903	3.46
283.281	4.19
283.659	4
284.037	3.65
284.415	3.53
284.792	3.88
285.17	3.54
285.548	3.53
285.925	3.71
286.303	3.96
286.68	3.81
287.058	3.64
287.435	3.15
287.813	3.6
288.19	3.38
288.567	3.22
288.945	3.43
289.322	3.39
289.699	3.97
290.076	3.68
290.453	3.51
290.83	3.69
291.207	3.48
291.584	3.81
291.961	3.68
292.338	3.42
292.715	3.29
293.092	3.74
293.469	3.61
293.845	3.89
294.222	3.82
294.599	3.16
294.975	3.1
295.352	3.79
295.728	3.78
296.105	3.7
296.481	4.26
296.858	3.92
297.234	3.39
297.61	4.17
297.986	4.5
298.363	3.86
298.739	3.76
299.115	3.63
299.491	4.13
299.867	3.52
300.243	3.69
300.619	3.78
300.995	3.37
301.371	3.76
301.746	4.21
302.122	3.34
302.498	3.84
302.874	3.91
303.249	3.95
303.625	3.29
304	3.96
304.376	4.26
304.751	4.2
305.127	3.45
305.502	4.03
305.878	4.09
306.253	3.83
306.628	3.68
307.003	3.76
307.378	4.19
307.754	3.63
308.129	3.95
308.504	4.16
308.879	3.75
309.254	4.07
309.629	4.2
310.003	3.5
310.378	4.13
310.753	4.14
311.128	3.8
311.502	3.81
311.877	4.18
312.252	3.65
312.626	4.07
313.001	4.03
313.375	3.95
313.75	3.85
314.124	4.18
314.498	4.18
314.873	3.41
315.247	3.98
315.621	3.65
315.995	3.48
316.369	3.95
316.743	3.44
317.117	3.63
317.491	4.27
317.865	3.48
318.239	4.41
318.613	3.49
318.987	3.63
319.361	4.13
319.734	3.67
320.108	3.89
320.482	3.83
320.855	3.98
321.229	3.77
321.602	4.49
321.976	3.97
322.349	4.8
322.723	4.43
323.096	3.61
323.469	3.85
323.843	3.65
324.216	4.02
324.589	4.14
324.962	3.99
325.335	3.9
325.708	3.93
326.081	4.36
326.454	3.82
326.827	4.22
327.2	3.86
327.573	4.46
327.945	3.66
328.318	4.1
328.691	3.97
329.063	3.47
329.436	3.83
329.809	4.18
330.181	4.71
330.553	4.36
330.926	4.27
331.298	3.96
331.671	4.04
332.043	3.58
332.415	3.7
332.787	4.18
333.159	3.73
333.532	4.03
333.904	4.32
334.276	4.18
334.648	4.1
335.02	3.85
335.391	3.87
335.763	3.96
336.135	4.19
336.507	3.75
336.879	3.92
337.25	4.11
337.622	3.83
337.993	4.02
338.365	3.82
338.736	4.11
339.108	4.38
339.479	3.8
339.851	4.46
340.222	4.51
340.593	3.83
340.964	4
341.336	3.77
341.707	3.74
342.078	3.67
342.449	3.94
342.82	4.13
343.191	4.09
343.562	4.26
343.933	3.79
344.303	4.27
344.674	3.9
345.045	3.97
345.416	4.16
345.786	4.25
346.157	3.99
346.527	3.77
346.898	3.46
347.268	4.07
347.639	3.54
348.009	3.79
348.38	3.89
348.75	3.74
349.12	4.07
349.49	4.06
349.861	3.9
350.231	3.72
350.601	4.03
350.971	3.8
351.341	4.1
351.711	4
352.081	3.86
352.45	3.44
352.82	3.51
353.19	3.81
353.56	3.69
353.929	4.12
354.299	4.22
354.669	3.97
355.038	4.13
355.408	3.95
355.777	4.26
356.147	3.63
356.516	3.99
356.885	3.97
357.254	3.66
357.624	3.68
357.993	3.84
358.362	3.82
358.731	4.12
359.1	3.83
359.469	4.03
359.838	3.91
360.207	3.72
360.576	3.92
360.945	4.03
361.314	3.83
361.682	3.64
362.051	3.67
362.42	3.9
362.788	3.84
363.157	3.64
363.525	3.95
363.894	3.67
364.262	3.92
364.631	4.14
364.999	4.01
365.367	3.65
365.735	3.77
366.104	3.65
366.472	3.46
366.84	3.92
367.208	4.05
367.576	3.98
367.944	3.87
368.312	3.63
368.68	3.94
369.048	3.75
369.416	3.68
369.783	3.9
370.151	4.17
370.519	4.44
370.886	3.89
371.254	4.09
371.621	4.12
371.989	4.22
372.356	3.83
372.724	3.78
373.091	4.02
373.458	3.72
373.826	4.11
374.193	3.94
374.56	3.65
374.927	3.89
375.294	4.13
375.661	3.95
376.028	3.85
376.395	3.96
376.762	3.57
377.129	3.83
377.496	3.87
377.863	4.05
378.229	3.68
378.596	4.13
378.963	4.07
379.329	4.05
379.696	3.6
380.062	3.89
380.429	3.79
380.795	3.76
381.161	3.69
381.528	3.46
381.894	3.84
382.26	3.98
382.626	4.1
382.993	4.38
383.359	3.74
383.725	3.76
384.091	3.81
384.457	3.87
384.823	3.94
385.188	4.09
385.554	4.01
385.92	3.84
386.286	3.88
386.651	4.08
387.017	4.1
387.383	3.98
387.748	3.99
388.114	4.18
388.479	4.08
388.845	3.83
389.21	4.19
389.575	4.28
389.94	4.09
390.306	4.01
390.671	4.09
391.036	3.85
391.401	4.29
391.766	4.17
392.131	4.03
392.496	4.03
392.861	3.81
393.226	3.7
393.591	4.02
393.956	4.13
394.32	4.23
394.685	3.88
395.05	4.1
395.414	4.12
395.779	4.08
396.143	3.79
396.508	3.87
396.872	3.87
397.236	4.17
397.601	4.18
397.965	3.96
398.329	3.7
398.694	3.81
399.058	3.88
399.422	4.05
399.786	3.85
400.15	3.96
400.514	3.94
400.878	4.11
401.242	4.15
401.605	4.03
401.969	3.91
402.333	3.88
402.697	4.05
403.06	4.14
403.424	4.28
403.787	4.11
404.151	4.03
404.514	4.2
404.878	3.88
405.241	4.12
405.604	3.93
405.968	4.01
406.331	4.13
406.694	3.91
407.057	4.03
407.42	4.07
407.783	4.15
408.146	3.98
408.509	4.18
408.872	4.23
409.235	4.16
409.598	4.11
409.961	4.28
410.323	4.16
410.686	3.86
411.049	4.02
411.411	4.01
411.774	4.09
412.136	4.16
412.499	4.21
412.861	3.82
413.223	4.12
413.586	4.21
413.948	4.35
414.31	4.17
414.672	4.13
415.035	4.19
415.397	4.1
415.759	3.9
416.121	4.28
416.483	4.09
416.845	4.19
417.206	4.04
417.568	4.19
417.93	4.12
418.292	3.93
418.653	3.96
419.015	4.04
419.377	3.89
419.738	3.95
420.1	4.03
420.461	3.99
420.822	4.14
421.184	4.02
421.545	4.17
421.906	4
422.267	3.98
422.629	4
422.99	3.96
423.351	3.96
423.712	4.01
424.073	4.09
424.434	4.13
424.795	4.04
425.155	3.92
425.516	4.01
425.877	4.03
426.238	3.95
426.598	4.07
426.959	4.07
427.32	4.03
427.68	4.08
428.041	4.23
428.401	4.05
428.761	4.33
429.122	4.31
429.482	4.25
429.842	4.2
430.202	4.36
430.563	4.33
430.923	4.19
431.283	4.27
431.643	4.29
432.003	4.2
432.363	4.36
432.722	4.27
433.082	4.08
433.442	4.25
433.802	4.22
434.161	4.32
434.521	4.29
434.881	4.15
435.24	4.21
435.6	4.3
435.959	4.19
436.319	4.2
436.678	4.42
437.037	4.41
437.396	4.24
437.756	4.15
438.115	4.2
438.474	4.12
438.833	4.29
439.192	4.08
439.551	4.19
439.91	4.36
440.269	4.23
440.628	4.23
440.987	4.25
441.345	4.3
441.704	4.28
442.063	4.24
442.421	4.15
442.78	4.24
443.138	4.28
443.497	4.24
443.855	4.26
444.214	4.25
444.572	4.53
444.93	4.45
445.288	4.39
445.647	4.27
446.005	4.34
446.363	4.3
446.721	4.22
447.079	4.27
447.437	4.3
447.795	4.32
448.153	4.22
448.51	4.33
448.868	4.18
449.226	4.37
449.584	4.33
449.941	4.33
450.299	4.19
450.656	4.44
451.014	4.48
451.371	4.39
451.729	4.48
452.086	4.51
452.443	4.39
452.801	4.53
453.158	4.59
453.515	4.27
453.872	4.47
454.229	4.32
454.586	4.28
454.943	4.44
455.3	4.43
455.657	4.41
456.014	4.47
456.371	4.63
456.727	4.62
457.084	4.55
457.441	4.58
457.797	4.58
458.154	4.6
458.51	4.47
458.867	4.47
459.223	4.57
459.58	4.45
459.936	4.42
460.292	4.4
460.648	4.29
461.005	4.35
461.361	4.34
461.717	4.3
462.073	4.48
462.429	4.47
462.785	4.57
463.141	4.46
463.496	4.69
463.852	4.72
464.208	4.59
464.564	4.53
464.919	4.63
465.275	4.62
465.631	4.74
465.986	4.66
466.342	4.62
466.697	4.52
467.052	4.78
467.408	4.72
467.763	4.67
468.118	4.41
468.473	4.78
468.829	4.44
469.184	4.75
469.539	4.58
469.894	4.63
470.249	4.69
470.603	4.67
470.958	4.77
471.313	4.69
471.668	4.87
472.023	4.77
472.377	4.6
472.732	4.81
473.086	4.64
473.441	4.53
473.795	5.05
474.15	4.72
474.504	4.69
474.859	4.51
475.213	4.77
475.567	4.54
475.921	4.66
476.275	4.76
476.63	4.84
476.984	4.61
477.338	4.75
477.692	4.67
478.045	4.85
478.399	4.82
478.753	4.63
479.107	4.76
479.461	4.75
479.814	4.77
480.168	4.73
480.521	4.88
480.875	4.87
481.228	4.68
481.582	4.85
481.935	4.81
482.289	4.8
482.642	4.77
482.995	4.74
483.348	4.72
483.701	4.74
484.055	4.64
484.408	4.68
484.761	4.52
485.114	4.4
485.466	4.37
485.819	4.37
486.172	4.5
486.525	4.58
486.878	4.63
487.23	4.68
487.583	4.73
487.936	4.67
488.288	4.59
488.641	4.53
488.993	4.49
489.345	4.48
489.698	4.53
490.05	4.58
490.402	4.7
490.754	4.7
491.107	4.74
491.459	4.84
491.811	4.74
492.163	4.8
492.515	4.62
492.866	4.59
493.218	4.58
493.57	4.68
493.922	4.68
494.274	4.87
494.625	4.9
494.977	4.85
495.328	4.96
495.68	4.91
496.031	5
496.383	4.98
496.734	4.84
497.086	4.98
497.437	5.09
497.788	4.9
498.139	4.93
498.49	4.93
498.842	4.96
499.193	4.82
499.544	4.91
499.894	4.87
500.245	4.97
500.596	5
500.947	4.87
501.298	5
501.648	5.05
501.999	5.03
502.35	4.91
502.7	5.13
503.051	5.01
503.401	5.08
503.752	4.97
504.102	4.95
504.452	4.93
504.803	4.99
505.153	5.12
505.503	5.15
505.853	5.07
506.203	5.19
506.553	5.01
506.903	5.06
507.253	5.04
507.603	4.97
507.953	5.1
508.303	5.1
508.652	5.01
509.002	5.14
509.352	5.13
509.701	5.03
510.051	5.12
510.4	5.07
510.75	4.95
511.099	4.96
511.449	5.08
511.798	5.08
512.147	5.08
512.496	5.08
512.846	5.11
513.195	5.15
513.544	5.1
513.893	5.12
514.242	5.03
514.591	5.03
514.939	5.16
515.288	5.23
515.637	5.13
515.986	5.2
516.334	5.22
516.683	5.11
517.032	5.11
517.38	5.07
517.729	5.18
518.077	5.14
518.426	5.26
518.774	5.23
519.122	5.21
519.47	5.04
519.819	5.15
520.167	5.04
520.515	5.11
520.863	5.07
521.211	5.12
521.559	5.04
521.907	5.15
522.255	5.12
522.602	5.34
522.95	5.3
523.298	5.31
523.645	5.29
523.993	5.27
524.341	5.3
524.688	5.25
525.036	5.24
525.383	5.29
525.73	5.27
526.078	5.38
526.425	5.19
526.772	5.24
527.119	5.14
527.466	5.21
527.814	5.23
528.161	5.28
528.508	5.33
528.854	5.27
529.201	5.11
529.548	5.09
529.895	5
530.242	4.96
530.588	4.98
530.935	5.06
531.282	5.07
531.628	5.19
531.975	5.23
532.321	5.29
532.667	5.3
533.014	5.25
533.36	5.29
533.706	5.35
534.052	5.37
534.399	5.22
534.745	5.12
535.091	5.06
535.437	5.2
535.783	5.2
536.129	5.28
536.474	5.43
536.82	5.48
537.166	5.33
537.512	5.28
537.857	5.36
538.203	5.27
538.549	5.23
538.894	5.32
539.239	5.39
539.585	5.47
539.93	5.5
540.276	5.34
540.621	5.49
540.966	5.49
541.311	5.54
541.656	5.4
542.001	5.38
542.346	5.2
542.691	5.18
543.036	5.23
543.381	5.29
543.726	5.34
544.071	5.33
544.415	5.45
544.76	5.35
545.105	5.36
545.449	5.45
545.794	5.49
546.138	5.54
546.483	5.61
546.827	5.48
547.171	5.6
547.516	5.54
547.86	5.58
548.204	5.53
548.548	5.47
548.892	5.53
549.236	5.45
549.58	5.65
549.924	5.58
550.268	5.65
550.612	5.79
550.956	5.82
551.3	5.82
551.643	5.69
551.987	5.68
552.33	5.86
552.674	5.6
553.017	5.77
553.361	5.9
553.704	5.77
554.048	5.71
554.391	5.75
554.734	5.6
555.077	5.67
555.42	5.66
555.764	5.63
556.107	5.88
556.45	5.87
556.793	5.89
557.135	5.76
557.478	5.83
557.821	5.71
558.164	5.77
558.507	5.66
558.849	5.97
559.192	5.78
559.534	5.85
559.877	5.69
560.219	5.81
560.562	5.89
560.904	5.98
561.246	5.91
561.589	6
561.931	5.85
562.273	5.76
562.615	5.96
562.957	5.76
563.299	5.91
563.641	5.86
563.983	5.69
564.325	5.89
564.667	5.94
565.008	5.8
565.35	5.81
565.692	5.93
566.033	6.01
566.375	5.9
566.716	5.72
567.058	6.01
567.399	5.84
567.741	5.89
568.082	5.77
568.423	5.77
568.764	5.88
569.105	5.8
569.447	5.86
569.788	5.98
570.129	5.99
570.47	6.02
570.811	5.87
571.151	6
571.492	5.95
571.833	5.85
572.174	6.08
572.514	6
572.855	6.2
573.195	5.95
573.536	6.04
573.876	5.91
574.217	5.83
574.557	6.08
574.898	6.06
575.238	6
575.578	6.03
575.918	6.01
576.258	6.21
576.598	5.93
576.938	5.89
577.278	5.89
577.618	5.99
577.958	6.23
578.298	6.13
578.638	6.14
578.977	6.26
579.317	6.1
579.657	6.13
579.996	6.2
580.336	6.24
580.675	6.24
581.014	6.29
581.354	6.07
581.693	6.25
582.032	6.24
582.372	6.34
582.711	6.25
583.05	6.43
583.389	6.36
583.728	6.24
584.067	6.14
584.406	6.27
584.745	5.98
585.083	6.09
585.422	6.18
585.761	6.32
586.1	6.32
586.438	6.38
586.777	6.33
587.115	6.41
587.454	6.13
587.792	6.2
588.13	6.2
588.469	6.19
588.807	6.46
589.145	6.47
589.483	6.27
589.821	6.3
590.159	6.36
590.497	6.33
590.835	6.4
591.173	6.39
591.511	6.68
591.849	6.33
592.187	6.25
592.524	6.37
592.862	6.42
593.2	6.4
593.537	6.26
593.875	6.52
594.212	6.56
594.55	6.47
594.887	6.35
595.224	6.5
595.561	6.3
595.899	6.35
596.236	6.63
596.573	6.29
596.91	6.41
597.247	6.5
597.584	6.51
597.921	6.28
598.258	6.62
598.594	6.4
598.931	6.09
599.268	6.33
599.604	6.48
599.941	6.48
600.277	6.44
600.614	6.66
600.95	6.35
601.287	6.36
601.623	6.28
601.959	6.84
602.296	6.47
602.632	6.61
602.968	6.78
603.304	6.41
603.64	6.54
603.976	6.29
604.312	6.54
604.648	6.58
604.984	6.66
605.319	6.54
605.655	6.37
605.991	6.49
606.326	6.52
606.662	6.4
606.998	6.67
607.333	6.34
607.668	6.57
608.004	6.53
608.339	6.59
608.674	6.56
609.01	6.96
609.345	6.54
609.68	6.35
610.015	6.7
610.35	6.55
610.685	6.34
611.02	6.47
611.355	6.62
611.689	6.67
612.024	6.76
612.359	6.62
612.694	6.82
613.028	6.74
613.363	6.61
613.697	6.73
614.032	6.75
614.366	6.57
614.7	6.91
615.035	6.66
615.369	6.79
615.703	6.82
616.037	6.78
616.371	6.77
616.705	7.02
617.039	6.69
617.373	6.99
617.707	6.59
618.041	6.53
618.375	6.46
618.709	6.92
619.042	6.85
619.376	6.8
619.71	7.01
620.043	7.11
620.377	7.12
620.71	6.85
621.043	6.56
621.377	7
621.71	7.01
622.043	7.04
622.376	6.86
622.709	7.35
623.043	6.71
623.376	6.72
623.709	7.37
624.041	6.9
624.374	6.92
624.707	6.81
625.04	6.99
625.373	7.15
625.705	7.05
626.038	7.11
626.37	6.94
626.703	6.93
627.035	7.03
627.368	7
627.7	6.84
628.032	6.96
628.365	7.36
628.697	7.25
629.029	7.09
629.361	7.23
629.693	6.98
630.025	7.13
630.357	7.2
630.689	6.97
631.021	7.3
631.353	7.17
631.684	6.78
632.016	7.04
632.348	6.77
632.679	7.44
633.011	7.43
633.342	7.09
633.674	7.02
634.005	6.86
634.336	7.31
634.668	7.12
634.999	6.93
635.33	7.11
635.661	6.94
635.992	7.14
636.323	7.15
636.654	7.07
636.985	7.01
637.316	7.2
637.647	7.11
637.977	7.18
638.308	7.31
638.639	7.41
638.969	6.96
639.3	7.2
639.63	7.02
639.961	7.49
640.291	7.07
640.622	7.21
640.952	7.35
641.282	7.15
641.612	7.33
641.943	7.19
642.273	7.28
642.603	7.52
642.933	7.54
643.263	7.75
643.592	7.65
643.922	7.45
644.252	7.76
644.582	7.75
644.911	7.67
645.241	7.39
645.571	7.3
645.9	7.56
646.23	7.52
646.559	7.3
646.888	7.83
647.218	7.53
647.547	7.43
647.876	7.45
648.205	7.1
648.534	7.51
648.863	7.09
649.192	7.64
649.521	7.29
649.85	7.52
650.179	7.48
650.508	6.98
650.837	7.61
651.165	7.29
651.494	7.95
651.822	7.66
652.151	7.31
652.479	7.36
652.808	7.26
653.136	7.09
653.465	6.98
653.793	7.21
654.121	8.1
654.449	7.4
654.777	7.29
655.105	7.39
655.433	7.56
655.761	7.36
656.089	7.54
656.417	7.82
656.745	8.07
657.073	7.37
657.4	7.86
657.728	7.53
658.056	7.81
658.383	7.62
658.711	7.72
659.038	7.78
659.365	7.85
659.693	7.65
660.02	7.33
660.347	7.53
660.674	7.32
661.001	7.17
661.329	7.56
661.656	7.16
661.982	7.51
662.309	7.45
662.636	7.89
662.963	7.66
663.29	7.57
663.616	7.59
663.943	7.41
664.27	7.39
664.596	7.47
664.923	7.78
665.249	8.47
665.576	7.7
665.902	7.38
666.228	7.83
666.554	8
666.881	7.48
667.207	7.65
667.533	8.31
667.859	7.09
668.185	8.2
668.511	7.93
668.837	7.7
669.162	8.07
669.488	7.54
669.814	7.78
670.139	7.12
670.465	8.03
670.791	7.4
671.116	7.54
671.442	7.14
671.767	7.42
672.092	7.63
672.418	7.64
672.743	7.81
673.068	7.69
673.393	7.68
673.718	7.72
674.043	8.1
674.368	7.95
674.693	8.38
675.018	7.99
675.343	8.22
675.667	7.46
675.992	7.5
676.317	7.5
676.641	8.15
676.966	7.79
677.29	8.23
677.615	7.71
677.939	8.46
678.264	7.9
678.588	8.07
678.912	7.62
679.236	7.5
679.56	7.88
679.885	7.95
680.209	8.62
680.532	8.56
680.856	8.2
681.18	8.41
681.504	7.86
681.828	7.12
682.152	7.72
682.475	8.1
682.799	8.11
683.122	7.96
683.446	7.3
683.769	8.45
684.093	7.92
684.416	7.76
684.739	7.94
685.062	7.8
685.386	8.08
685.709	8.74
686.032	8.01
686.355	8.72
686.678	8.27
687.001	7.74
687.324	8.2
687.646	8.55
687.969	8.18
688.292	8.27
688.614	8.21
688.937	8.71
689.26	8.36
689.582	7.81
689.904	8.34
690.227	8.58
690.549	8.9
690.871	7.95
691.194	8.4
691.516	7.84
691.838	8.34
692.16	7.71
692.482	8.25
692.804	9.14
693.126	7.93
693.448	8.56
