Data from 0035_forehead_Reflection__0__25.txt Node

Date: Fri Nov 04 14:50:09 CDT 2022
User: ToomeyLab
Spectrometer: FLMS14357
Trigger mode: 0
Integration Time (sec): 1.000000E-2
Scans to average: 100
Electric dark correction enabled: true
Nonlinearity correction enabled: false
Boxcar width: 0
XAxis mode: Wavelengths
Number of Pixels in Spectrum: 2048
>>>>>Begin Spectral Data<<<<<
189.047	272.76
189.435	272.76
189.823	272.76
190.211	257.46
190.599	115.06
190.987	-55.91
191.375	-252.42
191.763	-5.25
192.151	257.33
192.538	-8.59
192.926	-72.83
193.314	187.27
193.702	-35.71
194.089	216.68
194.477	-67.78
194.864	19.98
195.252	68.3
195.639	446.98
196.027	13.6
196.414	-18.35
196.801	-6.49
197.189	-231.85
197.576	63.09
197.963	-1536.45
198.351	-12.58
198.738	21.33
199.125	-19.85
199.512	-14.09
199.899	17.16
200.286	41.05
200.673	33.07
201.06	28.15
201.447	15.51
201.833	17.78
202.22	54.89
202.607	-15.1
202.994	-0.33
203.38	41.14
203.767	39.54
204.154	49.08
204.54	20.6
204.927	48.55
205.313	10.09
205.699	45.87
206.086	10.13
206.472	43.11
206.858	16.83
207.245	43.31
207.631	10.78
208.017	19.79
208.403	13.82
208.789	13.79
209.175	6.77
209.561	32.99
209.947	35.44
210.333	47.57
210.719	9.19
211.105	29.16
211.491	5.47
211.876	33.02
212.262	20.44
212.648	27.44
213.034	23.15
213.419	-2.75
213.805	-0.11
214.19	23.92
214.576	2.7
214.961	30.06
215.346	14.77
215.732	19.17
216.117	7.27
216.502	13.16
216.888	9.18
217.273	-2.26
217.658	21.58
218.043	20.83
218.428	21.91
218.813	18.84
219.198	16.45
219.583	26.65
219.968	-5.41
220.353	9.35
220.738	14.13
221.122	-2.71
221.507	14.63
221.892	13.13
222.276	-2.24
222.661	17.38
223.046	11.75
223.43	4.69
223.815	13.31
224.199	14.22
224.583	1.06
224.968	10.66
225.352	2.57
225.736	10.22
226.121	4.92
226.505	12.45
226.889	0.72
227.273	3.84
227.657	5.12
228.041	7.24
228.425	7.8
228.809	1.54
229.193	6.39
229.577	3.93
229.961	5.63
230.344	3.94
230.728	4.13
231.112	4.94
231.495	4.3
231.879	5.2
232.263	5.3
232.646	4.99
233.03	4.59
233.413	5.77
233.797	5.52
234.18	5.98
234.563	6.22
234.946	3.5
235.33	4.69
235.713	5.88
236.096	5.4
236.479	4.9
236.862	4.76
237.245	5.01
237.628	2.29
238.011	5.79
238.394	4.84
238.777	3.71
239.16	5.93
239.543	7.03
239.925	4.21
240.308	5.29
240.691	6.12
241.073	4.63
241.456	5.65
241.838	3.99
242.221	5.19
242.603	4.62
242.986	5.43
243.368	5.19
243.75	5.25
244.133	5.02
244.515	5.36
244.897	4.54
245.279	5.61
245.661	4.99
246.043	5.57
246.425	5
246.807	4.62
247.189	5.57
247.571	5.42
247.953	4.89
248.335	4.51
248.717	5.24
249.098	5.08
249.48	5.31
249.862	5.16
250.243	5.76
250.625	5.38
251.006	5.15
251.388	5.69
251.769	5.34
252.151	5.78
252.532	4.68
252.913	4.91
253.295	5.77
253.676	5.14
254.057	5.21
254.438	5.86
254.819	5.31
255.2	5.21
255.581	5.52
255.962	4.76
256.343	5.4
256.724	4.45
257.105	4.93
257.486	6.21
257.867	5.71
258.247	5.92
258.628	5.75
259.009	5.71
259.389	4.74
259.77	5.45
260.15	5.6
260.531	5.22
260.911	4.96
261.292	4.86
261.672	4.89
262.052	5.02
262.432	5.04
262.813	5.56
263.193	5.49
263.573	4.83
263.953	5.4
264.333	4.82
264.713	5.33
265.093	4.95
265.473	5.08
265.853	5.37
266.233	5.59
266.612	5.5
266.992	6.07
267.372	4.67
267.752	5.71
268.131	4.52
268.511	4.66
268.89	5.17
269.27	5.12
269.649	4.76
270.029	4.97
270.408	5.24
270.787	5.09
271.167	5.59
271.546	5.34
271.925	5.21
272.304	4.79
272.683	4.27
273.062	5.06
273.441	4.38
273.82	4.6
274.199	5.03
274.578	4.87
274.957	5.18
275.336	4.83
275.715	5.12
276.093	4.75
276.472	5.04
276.851	5.69
277.229	4.77
277.608	4.26
277.986	5.31
278.365	4.42
278.743	4.64
279.122	4.74
279.5	4.61
279.878	4.89
280.257	4.84
280.635	4.71
281.013	4.54
281.391	5.17
281.769	4.37
282.147	5.11
282.525	5.19
282.903	4.34
283.281	5
283.659	5.27
284.037	5.36
284.415	4.72
284.792	4.9
285.17	4.71
285.548	4.79
285.925	5.48
286.303	5.1
286.68	5.11
287.058	4.59
287.435	4.85
287.813	4.94
288.19	5.46
288.567	5.27
288.945	4.81
289.322	5.43
289.699	5.58
290.076	5.68
290.453	6.14
290.83	5.28
291.207	5.12
291.584	5.55
291.961	5.7
292.338	5.66
292.715	5.54
293.092	5.62
293.469	6.01
293.845	6.23
294.222	6.63
294.599	6.76
294.975	6.83
295.352	6.03
295.728	6.9
296.105	7.09
296.481	6.59
296.858	6.71
297.234	7.08
297.61	6.86
297.986	6.82
298.363	6.94
298.739	6.82
299.115	7
299.491	6.95
299.867	6.97
300.243	7.05
300.619	6.75
300.995	7.26
301.371	7.18
301.746	7.02
302.122	7.14
302.498	6.99
302.874	7.32
303.249	7.24
303.625	7.34
304	6.99
304.376	7.68
304.751	7.91
305.127	7.89
305.502	7.27
305.878	7.78
306.253	7.56
306.628	7.84
307.003	7.98
307.378	7.72
307.754	8.37
308.129	8.14
308.504	8.18
308.879	7.83
309.254	8.39
309.629	8.58
310.003	8.52
310.378	8.25
310.753	8.77
311.128	8
311.502	8.42
311.877	8.46
312.252	8.26
312.626	8.33
313.001	8.75
313.375	8.4
313.75	8.67
314.124	8.52
314.498	8.49
314.873	8.99
315.247	8.85
315.621	8.63
315.995	8.9
316.369	9.38
316.743	9.11
317.117	9.09
317.491	8.96
317.865	9.34
318.239	9.02
318.613	9.56
318.987	9.1
319.361	9.76
319.734	9.05
320.108	9.62
320.482	9.63
320.855	10.03
321.229	9.1
321.602	9.94
321.976	9.91
322.349	9.79
322.723	9.98
323.096	9.75
323.469	9.99
323.843	9.93
324.216	10.04
324.589	9.61
324.962	10.14
325.335	9.65
325.708	9.93
326.081	10.15
326.454	10.33
326.827	9.95
327.2	9.92
327.573	10.29
327.945	9.95
328.318	10.1
328.691	10.18
329.063	10.49
329.436	10.1
329.809	10.36
330.181	10.71
330.553	10.75
330.926	10.7
331.298	10.69
331.671	10.85
332.043	10.57
332.415	10.17
332.787	10.21
333.159	11.07
333.532	11.21
333.904	10.53
334.276	10.4
334.648	10.87
335.02	10.94
335.391	11.2
335.763	10.61
336.135	11.17
336.507	11.1
336.879	10.85
337.25	10.98
337.622	10.93
337.993	10.5
338.365	11.04
338.736	10.64
339.108	11.08
339.479	11.04
339.851	11.04
340.222	11.35
340.593	11.2
340.964	11.56
341.336	11.8
341.707	11.22
342.078	11.23
342.449	11.36
342.82	11.13
343.191	11.16
343.562	11.43
343.933	10.77
344.303	11.51
344.674	10.7
345.045	11.54
345.416	11.82
345.786	11.5
346.157	11.67
346.527	11.74
346.898	11.56
347.268	11.78
347.639	11.56
348.009	11.76
348.38	11.4
348.75	12.42
349.12	11.51
349.49	11.72
349.861	11.58
350.231	11.38
350.601	12.38
350.971	11.84
351.341	11.81
351.711	12.1
352.081	11.86
352.45	11.67
352.82	12.15
353.19	12.15
353.56	12.15
353.929	12.08
354.299	12.35
354.669	12.25
355.038	12.16
355.408	12.33
355.777	12.44
356.147	12.5
356.516	12.5
356.885	12.37
357.254	12.39
357.624	12.55
357.993	12.19
358.362	12.59
358.731	12.5
359.1	12.53
359.469	12.76
359.838	12.96
360.207	12.55
360.576	12.65
360.945	12.38
361.314	13.01
361.682	12.58
362.051	12.63
362.42	12.61
362.788	12.77
363.157	12.68
363.525	12.65
363.894	12.86
364.262	12.81
364.631	12.95
364.999	12.94
365.367	12.6
365.735	13.28
366.104	13.12
366.472	12.75
366.84	13.3
367.208	12.77
367.576	13.51
367.944	13.11
368.312	13.4
368.68	13.3
369.048	13.29
369.416	13.04
369.783	13.27
370.151	13.5
370.519	13.41
370.886	13.2
371.254	13.01
371.621	13.41
371.989	13.5
372.356	13.56
372.724	13.73
373.091	13.49
373.458	13.81
373.826	13.68
374.193	13.64
374.56	13.91
374.927	13.7
375.294	13.84
375.661	13.6
376.028	13.76
376.395	13.8
376.762	13.92
377.129	13.91
377.496	13.65
377.863	14.02
378.229	13.76
378.596	13.93
378.963	13.86
379.329	13.78
379.696	13.99
380.062	13.95
380.429	13.9
380.795	14.37
381.161	14.09
381.528	14.22
381.894	14.51
382.26	14.09
382.626	14.25
382.993	14.4
383.359	14.42
383.725	14.4
384.091	14.47
384.457	14.33
384.823	14.24
385.188	14.09
385.554	14.56
385.92	14.32
386.286	14.58
386.651	14.86
387.017	14.54
387.383	14.76
387.748	14.63
388.114	14.81
388.479	14.64
388.845	14.83
389.21	14.6
389.575	14.73
389.94	14.94
390.306	14.86
390.671	14.96
391.036	15.22
391.401	15.12
391.766	14.69
392.131	14.87
392.496	14.84
392.861	14.88
393.226	15.02
393.591	15.05
393.956	15.06
394.32	14.96
394.685	15.14
395.05	15.03
395.414	15.39
395.779	15.16
396.143	15.07
396.508	15.01
396.872	15.06
397.236	15.39
397.601	15.33
397.965	15.39
398.329	15.02
398.694	15.25
399.058	15.48
399.422	15.41
399.786	15.25
400.15	15.32
400.514	15.7
400.878	15.42
401.242	15.68
401.605	15.48
401.969	15.7
402.333	15.89
402.697	15.81
403.06	15.46
403.424	15.69
403.787	15.8
404.151	15.77
404.514	15.65
404.878	15.69
405.241	15.55
405.604	15.64
405.968	15.73
406.331	15.75
406.694	15.86
407.057	15.77
407.42	15.86
407.783	16
408.146	16
408.509	15.96
408.872	15.97
409.235	16.14
409.598	16.18
409.961	16.42
410.323	16.16
410.686	15.99
411.049	16.11
411.411	16.15
411.774	16.23
412.136	16.11
412.499	16.14
412.861	16.39
413.223	16.34
413.586	16.31
413.948	16.51
414.31	16.33
414.672	16.45
415.035	16.42
415.397	16.5
415.759	16.41
416.121	16.33
416.483	16.39
416.845	16.66
417.206	16.64
417.568	16.56
417.93	16.7
418.292	16.47
418.653	16.51
419.015	16.73
419.377	16.5
419.738	16.4
420.1	16.33
420.461	16.55
420.822	16.48
421.184	16.61
421.545	16.45
421.906	16.7
422.267	16.37
422.629	16.37
422.99	16.47
423.351	16.57
423.712	16.56
424.073	16.5
424.434	16.64
424.795	16.59
425.155	16.76
425.516	16.64
425.877	16.61
426.238	16.63
426.598	16.76
426.959	16.86
427.32	16.88
427.68	16.88
428.041	17.04
428.401	17.26
428.761	17.26
429.122	17.24
429.482	17.12
429.842	17.61
430.202	17.37
430.563	17.49
430.923	17.43
431.283	17.51
431.643	17.42
432.003	17.43
432.363	17.44
432.722	17.53
433.082	17.54
433.442	17.49
433.802	17.39
434.161	17.42
434.521	17.36
434.881	17.39
435.24	17.41
435.6	17.24
435.959	17.46
436.319	17.54
436.678	17.65
437.037	17.89
437.396	17.58
437.756	17.99
438.115	17.81
438.474	17.84
438.833	17.92
439.192	17.72
439.551	17.79
439.91	17.81
440.269	17.9
440.628	17.95
440.987	17.71
441.345	17.57
441.704	17.77
442.063	17.82
442.421	17.72
442.78	17.62
443.138	17.61
443.497	17.91
443.855	18.08
444.214	18.01
444.572	17.95
444.93	18.19
445.288	18.2
445.647	18.17
446.005	18.24
446.363	18.16
446.721	18.06
447.079	18
447.437	17.77
447.795	17.78
448.153	17.89
448.51	17.79
448.868	17.86
449.226	17.92
449.584	17.94
449.941	18.1
450.299	18.24
450.656	18.29
451.014	18.44
451.371	18.57
451.729	18.66
452.086	18.45
452.443	18.65
452.801	18.71
453.158	18.61
453.515	18.57
453.872	18.82
454.229	18.5
454.586	18.53
454.943	18.64
455.3	18.79
455.657	18.62
456.014	18.66
456.371	18.9
456.727	18.67
457.084	18.74
457.441	18.82
457.797	19.13
458.154	19.02
458.51	19.21
458.867	19.02
459.223	19.02
459.58	18.91
459.936	19.04
460.292	18.86
460.648	18.91
461.005	18.89
461.361	18.7
461.717	18.65
462.073	18.78
462.429	18.63
462.785	18.89
463.141	19.1
463.496	19.07
463.852	19.23
464.208	19.27
464.564	19.29
464.919	19.26
465.275	19.09
465.631	19.53
465.986	19.26
466.342	19.48
466.697	19.49
467.052	19.25
467.408	19.31
467.763	19.33
468.118	19.46
468.473	19.47
468.829	19.47
469.184	19.42
469.539	19.52
469.894	19.5
470.249	19.45
470.603	19.68
470.958	19.54
471.313	19.79
471.668	19.68
472.023	19.55
472.377	19.69
472.732	19.79
473.086	19.7
473.441	19.75
473.795	19.76
474.15	19.8
474.504	19.78
474.859	19.65
475.213	19.84
475.567	19.83
475.921	20.05
476.275	20
476.63	19.9
476.984	20.16
477.338	20.03
477.692	20.14
478.045	20.04
478.399	20.08
478.753	19.81
479.107	20.06
479.461	20.05
479.814	20.1
480.168	20.12
480.521	20.05
480.875	20.14
481.228	20.18
481.582	20.25
481.935	20.11
482.289	20.12
482.642	20.28
482.995	20.18
483.348	20.16
483.701	20.09
484.055	20.03
484.408	20.03
484.761	19.81
485.114	19.64
485.466	19.4
485.819	19.37
486.172	19.44
486.525	19.58
486.878	19.65
487.23	19.91
487.583	19.93
487.936	20.06
488.288	20.01
488.641	19.89
488.993	19.82
489.345	19.81
489.698	19.88
490.05	19.88
490.402	19.97
490.754	19.97
491.107	20.2
491.459	20.28
491.811	20.5
492.163	20.59
492.515	20.45
492.866	20.34
493.218	20.19
493.57	20
493.922	20.15
494.274	20.13
494.625	20.26
494.977	20.58
495.328	20.65
495.68	20.76
496.031	20.97
496.383	20.86
496.734	21.06
497.086	21.07
497.437	21.17
497.788	20.97
498.139	20.99
498.49	20.91
498.842	20.87
499.193	21.05
499.544	21.04
499.894	21.09
500.245	21.07
500.596	21.23
500.947	21.16
501.298	21.31
501.648	21.33
501.999	21.31
502.35	21.38
502.7	21.45
503.051	21.45
503.401	21.46
503.752	21.42
504.102	21.47
504.452	21.47
504.803	21.41
505.153	21.53
505.503	21.43
505.853	21.64
506.203	21.57
506.553	21.82
506.903	21.58
507.253	21.5
507.603	21.61
507.953	21.76
508.303	21.82
508.652	21.76
509.002	21.77
509.352	21.88
509.701	21.63
510.051	21.49
510.4	21.53
510.75	21.72
511.099	21.6
511.449	21.62
511.798	21.65
512.147	21.73
512.496	21.84
512.846	21.88
513.195	21.89
513.544	22.01
513.893	22
514.242	22.02
514.591	21.85
514.939	21.95
515.288	21.99
515.637	22.01
515.986	22.09
516.334	22.27
516.683	22.27
517.032	22.27
517.38	22.19
517.729	22.4
518.077	22.36
518.426	22.55
518.774	22.37
519.122	22.16
519.47	22.4
519.819	22.22
520.167	22.07
520.515	22.02
520.863	22
521.211	22.12
521.559	22.08
521.907	22.38
522.255	22.32
522.602	22.61
522.95	22.55
523.298	22.55
523.645	22.57
523.993	22.62
524.341	22.62
524.688	22.8
525.036	22.73
525.383	22.91
525.73	22.77
526.078	22.72
526.425	22.8
526.772	22.67
527.119	22.51
527.466	22.46
527.814	22.35
528.161	22.47
528.508	22.64
528.854	22.75
529.201	22.65
529.548	22.68
529.895	22.4
530.242	22.07
530.588	22.24
530.935	22.28
531.282	22.3
531.628	22.39
531.975	22.42
532.321	22.61
532.667	22.71
533.014	22.81
533.36	22.87
533.706	22.89
534.052	23
534.399	22.89
534.745	22.75
535.091	22.58
535.437	22.66
535.783	22.71
536.129	22.76
536.474	23.02
536.82	23.21
537.166	23.38
537.512	23.46
537.857	23.31
538.203	23.26
538.549	23.13
538.894	23.17
539.239	23.2
539.585	23.24
539.93	23.46
540.276	23.68
540.621	23.79
540.966	23.9
541.311	23.82
541.656	23.83
542.001	23.56
542.346	23.55
542.691	23.42
543.036	23.15
543.381	23.07
543.726	23.1
544.071	23.22
544.415	23.32
544.76	23.42
545.105	23.46
545.449	23.57
545.794	23.65
546.138	23.8
546.483	23.81
546.827	23.88
547.171	23.94
547.516	23.79
547.86	23.84
548.204	23.9
548.548	23.79
548.892	23.72
549.236	23.95
549.58	24.18
549.924	24.25
550.268	24.28
550.612	24.36
550.956	24.5
551.3	24.49
551.643	24.56
551.987	24.53
552.33	24.56
552.674	24.57
553.017	24.63
553.361	24.48
553.704	24.5
554.048	24.7
554.391	24.54
554.734	24.44
555.077	24.59
555.42	24.76
555.764	24.65
556.107	24.79
556.45	24.69
556.793	24.86
557.135	25
557.478	24.73
557.821	24.99
558.164	25.02
558.507	24.86
558.849	24.84
559.192	25.09
559.534	25.13
559.877	25.11
560.219	25.1
560.562	25.04
560.904	25.06
561.246	24.98
561.589	25.36
561.931	25.15
562.273	25.24
562.615	25.1
562.957	25.14
563.299	25.17
563.641	25.32
563.983	25.32
564.325	25.43
564.667	25.27
565.008	25.42
565.35	25.48
565.692	25.5
566.033	25.63
566.375	25.35
566.716	25.73
567.058	25.53
567.399	25.4
567.741	25.29
568.082	25.21
568.423	25.36
568.764	25.47
569.105	25.45
569.447	25.59
569.788	25.54
570.129	25.68
570.47	25.82
570.811	25.58
571.151	25.64
571.492	25.9
571.833	25.71
572.174	25.77
572.514	25.9
572.855	25.72
573.195	25.75
573.536	25.78
573.876	25.97
574.217	25.66
574.557	25.75
574.898	26.02
575.238	25.96
575.578	25.97
575.918	25.84
576.258	26.07
576.598	26.02
576.938	25.87
577.278	26.06
577.618	26.05
577.958	26.13
578.298	26.29
578.638	26.25
578.977	26.08
579.317	26.23
579.657	26.13
579.996	26.24
580.336	26.33
580.675	26.37
581.014	26.15
581.354	26.27
581.693	26.67
582.032	26.28
582.372	26.45
582.711	26.33
583.05	26.48
583.389	26.7
583.728	26.6
584.067	26.48
584.406	26.51
584.745	26.72
585.083	26.54
585.422	26.69
585.761	26.54
586.1	26.85
586.438	26.78
586.777	26.54
587.115	26.87
587.454	26.82
587.792	26.95
588.13	27.16
588.469	26.91
588.807	27.16
589.145	26.86
589.483	27.07
589.821	27.11
590.159	26.99
590.497	26.95
590.835	27.12
591.173	26.75
591.511	26.84
591.849	27.01
592.187	27.18
592.524	27.23
592.862	26.87
593.2	26.88
593.537	26.91
593.875	27.1
594.212	27.29
594.55	27.32
594.887	26.85
595.224	27.26
595.561	27.26
595.899	26.99
596.236	27.37
596.573	27.08
596.91	27.26
597.247	27.25
597.584	27.07
597.921	27.39
598.258	27.26
598.594	27.28
598.931	26.98
599.268	27.42
599.604	27.2
599.941	27.25
600.277	27.43
600.614	27.32
600.95	27.47
601.287	27.81
601.623	27.63
601.959	27.73
602.296	27.58
602.632	27.86
602.968	27.47
603.304	27.61
603.64	27.73
603.976	27.86
604.312	27.75
604.648	27.64
604.984	27.8
605.319	27.63
605.655	27.83
605.991	27.81
606.326	27.64
606.662	27.66
606.998	27.54
607.333	27.78
607.668	27.73
608.004	27.89
608.339	27.92
608.674	28.03
609.01	28.1
609.345	28.28
609.68	28.14
610.015	28.32
610.35	28.01
610.685	27.94
611.02	28.22
611.355	28.01
611.689	27.9
612.024	28.2
612.359	28.03
612.694	28.15
613.028	28.39
613.363	28.28
613.697	28.1
614.032	28.58
614.366	28.5
614.7	28.47
615.035	28.22
615.369	28.53
615.703	28.57
616.037	28.69
616.371	28.29
616.705	28.44
617.039	28.57
617.373	28.87
617.707	28.72
618.041	28.28
618.375	28.52
618.709	28.84
619.042	28.42
619.376	28.65
619.71	28.17
620.043	28.54
620.377	29.12
620.71	28.8
621.043	28.42
621.377	28.74
621.71	28.6
622.043	28.86
622.376	28.76
622.709	29.03
623.043	28.86
623.376	28.49
623.709	29.19
624.041	28.86
624.374	28.88
624.707	28.92
625.04	28.86
625.373	28.87
625.705	29.13
626.038	28.98
626.37	28.99
626.703	28.75
627.035	28.62
627.368	28.98
627.7	28.95
628.032	29.18
628.365	29.26
628.697	29.15
629.029	28.95
629.361	29.06
629.693	28.95
630.025	29.16
630.357	29.3
630.689	29.22
631.021	29.31
631.353	29.01
631.684	29.54
632.016	29.23
632.348	29.29
632.679	29.2
633.011	29.33
633.342	29.24
633.674	29.51
634.005	29.39
634.336	29.34
634.668	29.61
634.999	29.37
635.33	29.77
635.661	28.89
635.992	29.61
636.323	29.55
636.654	29.62
636.985	29.73
637.316	29.36
637.647	29.74
637.977	29.6
638.308	29.68
638.639	29.48
638.969	29.31
639.3	29.35
639.63	29.5
639.961	29.53
640.291	29.88
640.622	29.97
640.952	29.96
641.282	29.78
641.612	29.52
641.943	29.58
642.273	29.3
642.603	29.84
642.933	29.87
643.263	30.13
643.592	30.24
643.922	30.26
644.252	30.17
644.582	30.17
644.911	29.98
645.241	29.72
645.571	30.1
645.9	30.27
646.23	30.01
646.559	29.74
646.888	29.76
647.218	29.89
647.547	30.31
647.876	29.87
648.205	29.87
648.534	30.32
648.863	30.6
649.192	30.23
649.521	30.5
649.85	30.24
650.179	30.8
650.508	30.37
650.837	29.99
651.165	30.79
651.494	30.58
651.822	30.3
652.151	30.64
652.479	30.52
652.808	29.99
653.136	30.15
653.465	30.91
653.793	30.4
654.121	30.18
654.449	30.3
654.777	30.1
655.105	30.9
655.433	30.66
655.761	30.32
656.089	30.98
656.417	30.75
656.745	30.87
657.073	30.73
657.4	30.68
657.728	30.6
658.056	31.08
658.383	30.71
658.711	30.71
659.038	30.64
659.365	30.33
659.693	31.22
660.02	30.51
660.347	30.73
660.674	30.34
661.001	31.08
661.329	30.73
661.656	31.1
661.982	30.75
662.309	30.83
662.636	30.96
662.963	30.99
663.29	30.88
663.616	30.59
663.943	30.71
664.27	30.62
664.596	30.9
664.923	31.15
665.249	31.18
665.576	30.99
665.902	31.27
666.228	31.24
666.554	31.15
666.881	30.93
667.207	31.2
667.533	31.08
667.859	31.53
668.185	31.25
668.511	31.11
668.837	31.11
669.162	31.14
669.488	31.3
669.814	30.88
670.139	31.61
