Data from 0035_crown_Reflection__3__23.txt Node

Date: Fri Nov 04 14:49:24 CDT 2022
User: ToomeyLab
Spectrometer: FLMS14357
Trigger mode: 0
Integration Time (sec): 1.000000E-2
Scans to average: 100
Electric dark correction enabled: true
Nonlinearity correction enabled: false
Boxcar width: 0
XAxis mode: Wavelengths
Number of Pixels in Spectrum: 2048
>>>>>Begin Spectral Data<<<<<
189.047	37.1
189.435	37.1
189.823	37.1
190.211	195.27
190.599	94.47
190.987	28.49
191.375	65.23
191.763	49.1
192.151	65.62
192.538	133.81
192.926	679.69
193.314	234.13
193.702	-111.44
194.089	269.27
194.477	43.34
194.864	85.84
195.252	104.57
195.639	526.35
196.027	38.37
196.414	-88.4
196.801	-82.61
197.189	317.52
197.576	38.18
197.963	2853.74
198.351	32.17
198.738	40.11
199.125	-14.62
199.512	-5.37
199.899	21.34
200.286	44.01
200.673	-4.28
201.06	21.17
201.447	42.15
201.833	1.78
202.22	28.24
202.607	12.29
202.994	-1.09
203.38	51.01
203.767	17.69
204.154	69.97
204.54	24.17
204.927	22.16
205.313	17.7
205.699	28.25
206.086	28.71
206.472	33.61
206.858	31.02
207.245	27.8
207.631	13.99
208.017	11.01
208.403	34.3
208.789	15.25
209.175	-3.6
209.561	18.5
209.947	27.51
210.333	36.31
210.719	11.77
211.105	20.49
211.491	14.43
211.876	26.87
212.262	18.03
212.648	39.59
213.034	16.69
213.419	43.95
213.805	18.51
214.19	21.36
214.576	-22.06
214.961	17.7
215.346	-1.84
215.732	0.7
216.117	2.2
216.502	7.35
216.888	24.93
217.273	2.55
217.658	21.66
218.043	5.25
218.428	14.5
218.813	35.07
219.198	-17.96
219.583	11.08
219.968	-12.91
220.353	5.66
220.738	5.91
221.122	1.19
221.507	8
221.892	-1.23
222.276	1.42
222.661	15.19
223.046	-0.6
223.43	9.17
223.815	14.07
224.199	12.79
224.583	6.52
224.968	3.16
225.352	8.98
225.736	3.65
226.121	5.65
226.505	13.82
226.889	5.6
227.273	1.42
227.657	1.8
228.041	9.45
228.425	5.46
228.809	3.69
229.193	4.59
229.577	2.21
229.961	3.4
230.344	3.15
230.728	3.64
231.112	4.43
231.495	3.51
231.879	4.88
232.263	3.85
232.646	4.67
233.03	3.68
233.413	4.19
233.797	5.04
234.18	4.09
234.563	4.62
234.946	3.57
235.33	4.17
235.713	3.05
236.096	4.31
236.479	4.66
236.862	4.57
237.245	4.48
237.628	1.57
238.011	3.39
238.394	5.08
238.777	3.84
239.16	3.78
239.543	5.19
239.925	3.04
240.308	3.82
240.691	3.07
241.073	2.89
241.456	3.6
241.838	3.03
242.221	4.38
242.603	3.24
242.986	3.48
243.368	4.3
243.75	3.71
244.133	4.05
244.515	4
244.897	3.6
245.279	3.55
245.661	4.18
246.043	3.72
246.425	3.98
246.807	4.22
247.189	4.16
247.571	3.49
247.953	3.86
248.335	3.59
248.717	3.7
249.098	3.76
249.48	3.64
249.862	3.72
250.243	3.96
250.625	3.5
251.006	3.89
251.388	3.79
251.769	4.1
252.151	4.05
252.532	3.3
252.913	4.39
253.295	3.81
253.676	3.99
254.057	3.85
254.438	4.08
254.819	3.71
255.2	3.78
255.581	4.74
255.962	4.33
256.343	2.53
256.724	2.67
257.105	4.52
257.486	4.98
257.867	3.84
258.247	3.36
258.628	3.88
259.009	3.81
259.389	3.5
259.77	3.39
260.15	3.68
260.531	3.58
260.911	3.73
261.292	3.35
261.672	3.22
262.052	3.46
262.432	3.47
262.813	3.86
263.193	3.62
263.573	3.8
263.953	3.52
264.333	3.05
264.713	3.34
265.093	3.68
265.473	3.43
265.853	4.36
266.233	4.06
266.612	3.91
266.992	4.09
267.372	3.88
267.752	3.39
268.131	3.53
268.511	3.4
268.89	3.57
269.27	3.46
269.649	3.54
270.029	3.5
270.408	3.62
270.787	3.67
271.167	3.94
271.546	3.64
271.925	3.57
272.304	3.99
272.683	3.46
273.062	3.74
273.441	3.2
273.82	3.14
274.199	3.61
274.578	3.76
274.957	3.43
275.336	3.17
275.715	3.56
276.093	3.26
276.472	4.01
276.851	3.22
277.229	3.05
277.608	3.03
277.986	3.59
278.365	3.56
278.743	3.44
279.122	3.19
279.5	3.11
279.878	3.69
280.257	3.66
280.635	3.12
281.013	3.17
281.391	3.21
281.769	2.88
282.147	3.1
282.525	3.55
282.903	3.44
283.281	3.33
283.659	3.78
284.037	3.24
284.415	3.81
284.792	3.7
285.17	3.09
285.548	3.42
285.925	3.31
286.303	3.32
286.68	3.61
287.058	3.28
287.435	3.04
287.813	3.11
288.19	3.53
288.567	3.41
288.945	3.42
289.322	3.12
289.699	3.41
290.076	3.52
290.453	3.84
290.83	3.07
291.207	3.05
291.584	3.36
291.961	3.38
292.338	3.43
292.715	3.45
293.092	2.92
293.469	3.42
293.845	3.36
294.222	3.22
294.599	3.69
294.975	3.16
295.352	3.3
295.728	3.44
296.105	3.82
296.481	3.64
296.858	3.58
297.234	3.85
297.61	3.5
297.986	3.35
298.363	3.5
298.739	3.6
299.115	3.56
299.491	3.45
299.867	3.4
300.243	3.17
300.619	3.26
300.995	3.77
301.371	3.17
301.746	3.14
302.122	3.54
302.498	3.57
302.874	3.32
303.249	3.3
303.625	3.56
304	3.53
304.376	3.97
304.751	3.71
305.127	3.68
305.502	3.33
305.878	3.4
306.253	3.36
306.628	3.88
307.003	3.63
307.378	3.41
307.754	3.65
308.129	3.34
308.504	2.64
308.879	2.99
309.254	3.81
309.629	3.49
310.003	3.89
310.378	3.51
310.753	3.56
311.128	3.24
311.502	3.5
311.877	3.38
312.252	3.36
312.626	3.14
313.001	3.35
313.375	3.05
313.75	3.57
314.124	3.33
314.498	3.05
314.873	3.42
315.247	3.48
315.621	3.31
315.995	3.6
316.369	3.7
316.743	3.49
317.117	3.35
317.491	2.95
317.865	3.7
318.239	3.17
318.613	3.4
318.987	3.58
319.361	3.49
319.734	3.19
320.108	3.18
320.482	3.29
320.855	3.61
321.229	3.86
321.602	3.33
321.976	3.22
322.349	2.78
322.723	3.26
323.096	3.25
323.469	3.82
323.843	3.85
324.216	3.02
324.589	3.05
324.962	3.5
325.335	3.21
325.708	3.2
326.081	3.72
326.454	3.5
326.827	3.15
327.2	3.25
327.573	3.24
327.945	3.26
328.318	3.77
328.691	3.51
329.063	3.62
329.436	3.13
329.809	3.03
330.181	3.15
330.553	3.57
330.926	3.42
331.298	3.68
331.671	3.99
332.043	3.18
332.415	3.72
332.787	3.4
333.159	3.28
333.532	3.24
333.904	3.3
334.276	2.9
334.648	3.2
335.02	3.38
335.391	3.79
335.763	3.47
336.135	4.01
336.507	3.73
336.879	3.27
337.25	3.55
337.622	3.56
337.993	3.06
338.365	3.02
338.736	3.46
339.108	3.33
339.479	3.17
339.851	3.2
340.222	3.74
340.593	3.65
340.964	3.3
341.336	3.6
341.707	3.37
342.078	3.55
342.449	3.58
342.82	3.15
343.191	3.28
343.562	3.51
343.933	2.96
344.303	3.34
344.674	2.59
345.045	3.23
345.416	3.66
345.786	3.6
346.157	3.31
346.527	3.33
346.898	3.17
347.268	3.89
347.639	3.5
348.009	3.35
348.38	3.09
348.75	3.22
349.12	2.98
349.49	2.75
349.861	3.32
350.231	3.39
350.601	3.6
350.971	3.43
351.341	3.12
351.711	3.35
352.081	3.25
352.45	3.11
352.82	2.77
353.19	3.43
353.56	3.32
353.929	3.1
354.299	3.21
354.669	3.1
355.038	3.62
355.408	2.97
355.777	3.13
356.147	3.72
356.516	3.27
356.885	3.76
357.254	3.62
357.624	3.29
357.993	2.98
358.362	3.28
358.731	3.33
359.1	3.28
359.469	3.52
359.838	3.37
360.207	3.35
360.576	3.4
360.945	3.03
361.314	3.31
361.682	3.19
362.051	3.3
362.42	3.32
362.788	3.2
363.157	3.02
363.525	3.19
363.894	3.13
364.262	3.08
364.631	3.3
364.999	3.35
365.367	3.04
365.735	3.6
366.104	3.49
366.472	3.25
366.84	3.23
367.208	3.26
367.576	3.28
367.944	3.08
368.312	3.27
368.68	3.4
369.048	3.12
369.416	2.99
369.783	3.28
370.151	3.54
370.519	3.55
370.886	3.31
371.254	2.73
371.621	3.24
371.989	2.99
372.356	3.19
372.724	3.38
373.091	3.23
373.458	3.6
373.826	3.59
374.193	3.19
374.56	3.45
374.927	3.15
375.294	3.5
375.661	2.82
376.028	3.3
376.395	3.17
376.762	3.29
377.129	3.11
377.496	3.16
377.863	3.49
378.229	3.36
378.596	3.21
378.963	3.05
379.329	3.25
379.696	3.34
380.062	3.29
380.429	3.43
380.795	3.39
381.161	3.58
381.528	3.5
381.894	3.34
382.26	3.21
382.626	3.26
382.993	3.42
383.359	3.4
383.725	3.34
384.091	3.21
384.457	3.56
384.823	3.36
385.188	2.78
385.554	3.35
385.92	3.17
386.286	3.28
386.651	3.62
387.017	3.12
387.383	3.24
387.748	3.2
388.114	3.26
388.479	3.03
388.845	3.2
389.21	3.12
389.575	3.34
389.94	3.48
390.306	3.34
390.671	3.2
391.036	3.31
391.401	3.24
391.766	3.17
392.131	3.19
392.496	3.23
392.861	3.23
393.226	3.3
393.591	3.31
393.956	3.18
394.32	3.36
394.685	3.52
395.05	3.15
395.414	3.34
395.779	3.3
396.143	3.38
396.508	3.1
396.872	3.24
397.236	3.63
397.601	3.46
397.965	3.51
398.329	3.1
398.694	3.15
399.058	3.33
399.422	3.24
399.786	3.41
400.15	3.31
400.514	3.53
400.878	3.12
401.242	3.32
401.605	3.31
401.969	3.35
402.333	3.52
402.697	3.24
403.06	3.36
403.424	3.15
403.787	3.5
404.151	3.4
404.514	3.29
404.878	3.33
405.241	3.46
405.604	3.24
405.968	3.25
406.331	3.42
406.694	3.26
407.057	3.37
407.42	3.1
407.783	3.33
408.146	3.22
408.509	3.2
408.872	3.51
409.235	3.46
409.598	3.53
409.961	3.77
410.323	3.55
410.686	3.39
411.049	3.26
411.411	3.37
411.774	3.32
412.136	3.36
412.499	3.45
412.861	3.45
413.223	3.37
413.586	3.4
413.948	3.47
414.31	3.55
414.672	3.36
415.035	3.4
415.397	3.49
415.759	3.43
416.121	3.15
416.483	3.11
416.845	3.33
417.206	3.44
417.568	3.63
417.93	3.35
418.292	3.35
418.653	3.37
419.015	3.34
419.377	3.32
419.738	3.33
420.1	3.19
420.461	3.35
420.822	3.44
421.184	3.31
421.545	3.35
421.906	3.3
422.267	3.29
422.629	3.14
422.99	3.22
423.351	3.27
423.712	3.34
424.073	3.23
424.434	3.16
424.795	3.27
425.155	3.33
425.516	3.35
425.877	3.42
426.238	3.27
426.598	3.35
426.959	3.3
427.32	3.26
427.68	3.33
428.041	3.43
428.401	3.39
428.761	3.38
429.122	3.2
429.482	3.33
429.842	3.45
430.202	3.35
430.563	3.5
430.923	3.3
431.283	3.44
431.643	3.44
432.003	3.32
432.363	3.4
432.722	3.5
433.082	3.34
433.442	3.49
433.802	3.34
434.161	3.46
434.521	3.4
434.881	3.5
435.24	3.43
435.6	3.38
435.959	3.42
436.319	3.47
436.678	3.61
437.037	3.56
437.396	3.4
437.756	3.4
438.115	3.72
438.474	3.5
438.833	3.3
439.192	3.5
439.551	3.43
439.91	3.44
440.269	3.55
440.628	3.39
440.987	3.53
441.345	3.31
441.704	3.64
442.063	3.53
442.421	3.48
442.78	3.43
443.138	3.38
443.497	3.53
443.855	3.5
444.214	3.57
444.572	3.41
444.93	3.46
445.288	3.46
445.647	3.48
446.005	3.58
446.363	3.47
446.721	3.42
447.079	3.41
447.437	3.45
447.795	3.39
448.153	3.42
448.51	3.38
448.868	3.44
449.226	3.46
449.584	3.41
449.941	3.41
450.299	3.56
450.656	3.57
451.014	3.41
451.371	3.59
451.729	3.72
452.086	3.56
452.443	3.48
452.801	3.53
453.158	3.61
453.515	3.63
453.872	3.61
454.229	3.49
454.586	3.48
454.943	3.6
455.3	3.49
455.657	3.45
456.014	3.48
456.371	3.58
456.727	3.64
457.084	3.46
457.441	3.67
457.797	3.64
458.154	3.59
458.51	3.77
458.867	3.52
459.223	3.69
459.58	3.57
459.936	3.5
460.292	3.55
460.648	3.6
461.005	3.57
461.361	3.55
461.717	3.61
462.073	3.55
462.429	3.46
462.785	3.57
463.141	3.62
463.496	3.72
463.852	3.63
464.208	3.6
464.564	3.7
464.919	3.49
465.275	3.66
465.631	3.8
465.986	3.64
466.342	3.73
466.697	3.63
467.052	3.57
467.408	3.58
467.763	3.64
468.118	3.65
468.473	3.84
468.829	3.75
469.184	3.71
469.539	3.69
469.894	3.57
470.249	3.82
470.603	3.77
470.958	3.7
471.313	3.77
471.668	3.65
472.023	3.74
472.377	3.68
472.732	3.66
473.086	3.78
473.441	3.61
473.795	3.59
474.15	3.76
474.504	3.86
474.859	3.64
475.213	3.58
475.567	3.8
475.921	3.71
476.275	3.74
476.63	3.67
476.984	3.89
477.338	3.91
477.692	3.86
478.045	3.77
478.399	3.63
478.753	3.75
479.107	3.78
479.461	3.71
479.814	3.85
480.168	3.91
480.521	3.68
480.875	3.8
481.228	3.6
481.582	3.92
481.935	3.64
482.289	3.75
482.642	3.84
482.995	3.78
483.348	3.79
483.701	3.68
484.055	3.71
484.408	3.75
484.761	3.67
485.114	3.57
485.466	3.57
485.819	3.52
486.172	3.51
486.525	3.54
486.878	3.54
487.23	3.63
487.583	3.71
487.936	3.68
488.288	3.67
488.641	3.67
488.993	3.66
489.345	3.67
489.698	3.59
490.05	3.58
490.402	3.6
490.754	3.69
491.107	3.69
491.459	3.65
491.811	3.78
492.163	3.92
492.515	3.86
492.866	3.78
493.218	3.69
493.57	3.68
493.922	3.66
494.274	3.68
494.625	3.73
494.977	3.77
495.328	3.89
495.68	3.83
496.031	3.9
496.383	3.83
496.734	3.85
497.086	3.82
497.437	4.03
497.788	3.94
498.139	3.85
498.49	3.83
498.842	3.9
499.193	3.9
499.544	3.77
499.894	3.79
500.245	3.83
500.596	3.95
500.947	3.94
501.298	4.04
501.648	3.91
501.999	3.99
502.35	4.01
502.7	4.02
503.051	3.93
503.401	4
503.752	4.03
504.102	3.91
504.452	3.93
504.803	3.95
505.153	3.97
505.503	3.99
505.853	4.02
506.203	3.98
506.553	4.07
506.903	3.98
507.253	4.02
507.603	3.9
507.953	4.11
508.303	4
508.652	3.96
509.002	3.98
509.352	4.02
509.701	4.03
510.051	3.95
510.4	3.85
510.75	4.02
511.099	3.94
511.449	3.88
511.798	3.99
512.147	4.04
512.496	4.07
512.846	4.06
513.195	3.87
513.544	4.02
513.893	4.06
514.242	4.02
514.591	3.99
514.939	4.05
515.288	4.06
515.637	4.01
515.986	4.04
516.334	4.13
516.683	4.07
517.032	4.05
517.38	4.14
517.729	4.05
518.077	4.09
518.426	4.22
518.774	4.15
519.122	3.93
519.47	4.14
519.819	4.06
520.167	3.96
520.515	4.03
520.863	4.04
521.211	4.06
521.559	4
521.907	4.03
522.255	3.99
522.602	4.03
522.95	4.09
523.298	4.12
523.645	4.09
523.993	4.13
524.341	4.17
524.688	4.24
525.036	4.18
525.383	4.29
525.73	4.18
526.078	4.2
526.425	4.09
526.772	4.12
527.119	4.11
527.466	4.02
527.814	3.94
528.161	4
528.508	4.08
528.854	4.13
529.201	4.16
529.548	4.11
529.895	4.01
530.242	3.87
530.588	3.94
530.935	3.97
531.282	3.96
531.628	3.98
531.975	4.01
532.321	4.09
532.667	3.99
533.014	4.24
533.36	4.11
533.706	4.23
534.052	4.23
534.399	4.12
534.745	4.08
535.091	4.03
535.437	4.04
535.783	4.1
536.129	4.09
536.474	4.15
536.82	4.12
537.166	4.24
537.512	4.28
537.857	4.21
538.203	4.23
538.549	4.1
538.894	4.17
539.239	4.19
539.585	4.19
539.93	4.16
540.276	4.32
540.621	4.3
540.966	4.3
541.311	4.31
541.656	4.36
542.001	4.27
542.346	4.29
542.691	4.2
543.036	4.15
543.381	4.13
543.726	4.1
544.071	4.13
544.415	4.18
544.76	4.18
545.105	4.25
545.449	4.26
545.794	4.19
546.138	4.24
546.483	4.46
546.827	4.28
547.171	4.22
547.516	4.32
547.86	4.43
548.204	4.27
548.548	4.18
548.892	4.3
549.236	4.26
549.58	4.34
549.924	4.49
550.268	4.39
550.612	4.38
550.956	4.35
551.3	4.6
551.643	4.45
551.987	4.52
552.33	4.39
552.674	4.42
553.017	4.55
553.361	4.46
553.704	4.24
554.048	4.33
554.391	4.46
554.734	4.42
555.077	4.38
555.42	4.37
555.764	4.56
556.107	4.38
556.45	4.57
556.793	4.5
557.135	4.65
557.478	4.56
557.821	4.55
558.164	4.54
558.507	4.55
558.849	4.63
559.192	4.64
559.534	4.54
559.877	4.72
560.219	4.55
560.562	4.44
560.904	4.69
561.246	4.46
561.589	4.59
561.931	4.66
562.273	4.67
562.615	4.8
562.957	4.56
563.299	4.58
563.641	4.82
563.983	4.64
564.325	4.44
564.667	4.7
565.008	4.45
565.35	4.77
565.692	4.67
566.033	4.56
566.375	4.62
566.716	4.78
567.058	4.58
567.399	4.64
567.741	4.48
568.082	4.56
568.423	4.44
568.764	4.53
569.105	4.6
569.447	4.6
569.788	4.64
570.129	4.66
570.47	4.74
570.811	4.48
571.151	4.66
571.492	4.74
571.833	4.6
572.174	4.68
572.514	4.8
572.855	4.6
573.195	4.6
573.536	4.64
573.876	4.67
574.217	4.71
574.557	4.62
574.898	4.6
575.238	4.69
575.578	4.74
575.918	4.64
576.258	4.87
576.598	4.77
576.938	4.75
577.278	4.79
577.618	4.73
577.958	4.56
578.298	4.72
578.638	4.94
578.977	4.54
579.317	4.91
579.657	4.91
579.996	4.86
580.336	4.74
580.675	4.74
581.014	4.71
581.354	4.8
581.693	4.73
582.032	4.71
582.372	5.01
582.711	4.6
583.05	4.65
583.389	4.77
583.728	4.89
584.067	4.78
584.406	4.72
584.745	4.95
585.083	4.83
585.422	4.95
585.761	4.81
586.1	4.99
586.438	4.93
586.777	4.99
587.115	4.87
587.454	5
587.792	5.06
588.13	5.06
588.469	4.95
588.807	4.99
589.145	4.88
589.483	4.97
589.821	5.06
590.159	4.92
590.497	5.09
590.835	5.08
591.173	4.96
591.511	4.78
591.849	4.9
592.187	4.86
592.524	4.95
592.862	4.64
593.2	4.74
593.537	4.84
593.875	4.94
594.212	5.04
594.55	4.95
594.887	4.98
595.224	5.01
595.561	5.09
595.899	4.71
596.236	4.83
596.573	4.98
596.91	5.01
597.247	5.17
597.584	4.88
597.921	4.92
598.258	5.14
598.594	4.96
598.931	4.87
599.268	5.01
599.604	4.96
599.941	4.93
600.277	4.82
600.614	4.8
600.95	4.78
601.287	5.17
601.623	5.22
601.959	5.2
602.296	5.05
602.632	5.02
602.968	4.91
603.304	5.05
603.64	5.11
603.976	5.28
604.312	5.44
604.648	4.9
604.984	4.98
605.319	5.06
605.655	5.08
605.991	5.01
606.326	5.15
606.662	5.2
606.998	5.02
607.333	4.94
607.668	5.16
608.004	5.02
608.339	4.9
608.674	5.25
609.01	5.21
609.345	5.13
609.68	5.12
610.015	5.31
610.35	5.1
610.685	4.92
611.02	5.3
611.355	5.09
611.689	5.05
612.024	5.09
612.359	5.34
612.694	5.1
613.028	5.17
613.363	5.16
613.697	5.31
614.032	5.38
614.366	5.13
614.7	5.1
615.035	5.14
615.369	5.57
615.703	5.43
616.037	5.29
616.371	5.28
616.705	5.04
617.039	5.04
617.373	5.28
617.707	5.34
618.041	5.27
618.375	5.51
618.709	5.31
619.042	5.26
619.376	5.24
619.71	5.36
620.043	5.55
620.377	5.54
620.71	5.53
621.043	5.11
621.377	5.27
621.71	5.2
622.043	5.08
622.376	5.2
622.709	5.28
623.043	5.36
623.376	5.51
623.709	5.66
624.041	5.82
624.374	5.29
624.707	5.06
625.04	5.65
625.373	5.1
625.705	5.31
626.038	5.64
626.37	5.7
626.703	5.24
627.035	5.45
627.368	5.31
627.7	5.3
628.032	5.4
628.365	5.68
628.697	5.47
629.029	5.22
629.361	5.58
629.693	5.25
630.025	5.36
630.357	5.37
630.689	5.73
631.021	5.41
631.353	5.33
631.684	5.78
632.016	5.2
632.348	5.78
632.679	5.38
633.011	5.52
633.342	5.87
633.674	5.84
634.005	5.54
634.336	5.73
634.668	5.65
634.999	5.21
635.33	5.66
635.661	5.37
635.992	5.38
636.323	5.66
636.654	5.8
636.985	5.86
637.316	5.67
637.647	5.52
637.977	5.58
638.308	5.67
638.639	5.66
638.969	5.3
639.3	5.47
639.63	5.48
639.961	5.55
640.291	5.41
640.622	5.77
640.952	5.36
641.282	5.62
641.612	5.56
641.943	5.71
642.273	5.61
642.603	5.77
642.933	5.59
643.263	5.71
643.592	5.77
643.922	5.62
644.252	5.38
644.582	5.49
644.911	5.5
645.241	5.82
645.571	6.17
645.9	5.48
646.23	5.23
646.559	5.92
646.888	5.78
647.218	5.95
647.547	6.15
647.876	5.8
648.205	5.5
648.534	5.99
648.863	6
649.192	5.73
649.521	5.86
649.85	5.99
650.179	6.2
650.508	5.91
650.837	5.46
651.165	5.52
651.494	5.71
651.822	5.56
652.151	6.01
652.479	5.52
652.808	5.11
653.136	5.51
653.465	6.09
653.793	5.65
654.121	5.79
654.449	5.98
654.777	5.47
655.105	6.2
655.433	5.72
655.761	5.56
656.089	6.19
656.417	5.82
656.745	6.12
657.073	5.66
657.4	5.88
657.728	6.22
658.056	6.4
658.383	6.35
658.711	5.76
659.038	5.45
659.365	5.54
659.693	6
660.02	6.02
660.347	6.23
660.674	5.94
661.001	6
661.329	6.11
661.656	6.2
661.982	6.01
662.309	5.95
662.636	5.56
662.963	6.02
663.29	6.1
663.616	5.87
663.943	6.15
664.27	6.56
664.596	6.1
664.923	6.1
665.249	6.42
665.576	6.05
665.902	5.82
666.228	6.18
666.554	7.13
666.881	6.43
667.207	6.15
667.533	6.05
667.859	6.14
668.185	5.84
668.511	5.87
668.837	6.1
669.162	6.28
669.488	6.4
669.814	6.01
670.139	6.46
670.465	6.33
670.791	5.96
671.116	6.07
671.442	6.09
671.767	5.88
672.092	6.62
672.418	6.39
672.743	6.21
673.068	6.16
673.393	6.19
673.718	5.56
674.043	6.31
674.368	5.78
674.693	6.37
675.018	6.68
675.343	5.43
675.667	6.13
675.992	6.17
676.317	6.84
676.641	6.09
676.966	5.79
677.29	6.28
677.615	6.79
677.939	6.73
678.264	6.58
678.588	6.31
678.912	6.62
679.236	6.26
679.56	5.92
679.885	5.83
680.209	6.16
680.532	5.76
680.856	6.48
681.18	6.1
681.504	6.77
681.828	6.8
682.152	6.57
682.475	6.36
682.799	6.88
683.122	6.75
683.446	6.18
683.769	7.04
684.093	5.8
684.416	6.75
684.739	6.78
685.062	6.48
685.386	6.73
685.709	6.75
686.032	6.42
686.355	6.98
686.678	6.48
687.001	6.41
687.324	6.64
687.646	6.85
687.969	6.87
688.292	6.16
688.614	6.64
688.937	6.02
689.26	7.07
689.582	6.69
689.904	5.97
690.227	6.41
690.549	6.49
690.871	6.66
691.194	6.46
691.516	7.46
691.838	7.69
692.16	6.36
692.482	6.83
692.804	6.77
693.126	6.5
693.448	6.37
693.769	6.73
694.091	6.11
