Data from 0035_chest_Reflection__1__16.txt Node

Date: Fri Nov 04 14:46:29 CDT 2022
User: ToomeyLab
Spectrometer: FLMS14357
Trigger mode: 0
Integration Time (sec): 1.000000E-2
Scans to average: 100
Electric dark correction enabled: true
Nonlinearity correction enabled: false
Boxcar width: 0
XAxis mode: Wavelengths
Number of Pixels in Spectrum: 2048
>>>>>Begin Spectral Data<<<<<
189.047	43.1
189.435	43.1
189.823	43.1
190.211	273.66
190.599	142.6
190.987	870.97
191.375	168.37
191.763	87.11
192.151	165.22
192.538	52.07
192.926	139.5
193.314	140.71
193.702	168.19
194.089	156.6
194.477	119.29
194.864	102.3
195.252	73.1
195.639	-50.57
196.027	35.19
196.414	83.62
196.801	-6.13
197.189	-946.5
197.576	12.57
197.963	-1773.83
198.351	-11.48
198.738	47.66
199.125	-4.2
199.512	-34.6
199.899	20.95
200.286	20.78
200.673	20.49
201.06	-8
201.447	42.28
201.833	24.58
202.22	20.73
202.607	13.03
202.994	30.54
203.38	27.05
203.767	2.89
204.154	7.76
204.54	29.05
204.927	11.37
205.313	20.64
205.699	34.56
206.086	43.25
206.472	26.9
206.858	16.56
207.245	-1.79
207.631	4.27
208.017	17.48
208.403	16.27
208.789	17.14
209.175	0.66
209.561	5.48
209.947	-0.33
210.333	40.25
210.719	19.88
211.105	5.17
211.491	17.87
211.876	6.02
212.262	11.43
212.648	12.84
213.034	20.97
213.419	7.74
213.805	2.88
214.19	14.5
214.576	-18.9
214.961	19.3
215.346	15.37
215.732	13.66
216.117	-3.83
216.502	22.58
216.888	7.64
217.273	-2.11
217.658	6.24
218.043	5.18
218.428	15.46
218.813	25.29
219.198	-16.85
219.583	11.6
219.968	-20.94
220.353	6.86
220.738	15.93
221.122	-11.34
221.507	2.52
221.892	-10.34
222.276	-33.3
222.661	9.22
223.046	4.59
223.43	-0.86
223.815	2.5
224.199	2.61
224.583	-2.74
224.968	1.97
225.352	-2.93
225.736	3.65
226.121	2.65
226.505	-1.76
226.889	-2.09
227.273	-4.77
227.657	-0.88
228.041	1.14
228.425	4.17
228.809	1.49
229.193	3.78
229.577	1.68
229.961	2.41
230.344	0.15
230.728	1.04
231.112	1.86
231.495	0.98
231.879	2.39
232.263	1.43
232.646	1.78
233.03	1.56
233.413	4.07
233.797	0.45
234.18	2.37
234.563	1.11
234.946	0.61
235.33	2.89
235.713	1.35
236.096	1.27
236.479	1.9
236.862	1.27
237.245	2.09
237.628	-1.06
238.011	2.84
238.394	1.26
238.777	2.01
239.16	2.15
239.543	1.96
239.925	1.31
240.308	1.57
240.691	2.06
241.073	-0.06
241.456	2.4
241.838	1.26
242.221	0.42
242.603	1.37
242.986	1.76
243.368	1.44
243.75	1.65
244.133	1.3
244.515	1.97
244.897	1.36
245.279	1.08
245.661	1.95
246.043	1.72
246.425	0.93
246.807	1.71
247.189	1.96
247.571	1.85
247.953	0.82
248.335	1.41
248.717	1.5
249.098	1.55
249.48	1.57
249.862	1.63
250.243	1.81
250.625	1.63
251.006	1.96
251.388	2.21
251.769	1.14
252.151	1.45
252.532	0.95
252.913	0.74
253.295	1.77
253.676	1.22
254.057	1.49
254.438	1.85
254.819	1.82
255.2	1.7
255.581	1.33
255.962	1.42
256.343	1.25
256.724	0.7
257.105	2.58
257.486	2
257.867	1.78
258.247	1.49
258.628	1.08
259.009	0.96
259.389	1.33
259.77	1.42
260.15	1.85
260.531	1.82
260.911	1.2
261.292	1.24
261.672	1.39
262.052	1.36
262.432	1.4
262.813	1.56
263.193	1.99
263.573	1.58
263.953	1.94
264.333	1.51
264.713	1.25
265.093	1.23
265.473	1.12
265.853	1.6
266.233	1.76
266.612	1.44
266.992	2.35
267.372	2.16
267.752	1.7
268.131	1.3
268.511	1.39
268.89	1.41
269.27	1.19
269.649	1.52
270.029	1.19
270.408	1.45
270.787	1.73
271.167	1.68
271.546	1.56
271.925	1
272.304	0.81
272.683	1.61
273.062	1.56
273.441	1.27
273.82	0.97
274.199	1.36
274.578	1.03
274.957	1.78
275.336	1.18
275.715	1.43
276.093	1.57
276.472	1.42
276.851	2.03
277.229	0.96
277.608	1.01
277.986	1.36
278.365	1.25
278.743	1.47
279.122	1.18
279.5	1.12
279.878	1.79
280.257	1.38
280.635	1.45
281.013	1.03
281.391	1.4
281.769	1.24
282.147	1.17
282.525	1.84
282.903	1.09
283.281	1.54
283.659	1.8
284.037	1.66
284.415	1.54
284.792	1.34
285.17	1.56
285.548	1.22
285.925	1.74
286.303	1.6
286.68	1.24
287.058	0.98
287.435	1.1
287.813	0.97
288.19	1.46
288.567	1.68
288.945	1.66
289.322	1.46
289.699	1.7
290.076	1.5
290.453	2.14
290.83	1.25
291.207	1.21
291.584	1.69
291.961	1.49
292.338	1.63
292.715	1.66
293.092	1.02
293.469	1.7
293.845	1.75
294.222	1.54
294.599	2.06
294.975	1.94
295.352	1.58
295.728	1.71
296.105	2.03
296.481	1.9
296.858	1.43
297.234	1.72
297.61	1.77
297.986	1.54
298.363	1.51
298.739	1.61
299.115	1.92
299.491	1.79
299.867	2.02
300.243	1.63
300.619	1.41
300.995	2.01
301.371	1.96
301.746	1.97
302.122	1.79
302.498	1.96
302.874	1.82
303.249	1.77
303.625	2
304	1.9
304.376	1.94
304.751	1.75
305.127	2.14
305.502	1.95
305.878	1.47
306.253	1.7
306.628	2.35
307.003	1.66
307.378	1.75
307.754	2.05
308.129	1.78
308.504	1.72
308.879	1.9
309.254	2.68
309.629	2.12
310.003	2.08
310.378	2.06
310.753	2.72
311.128	2.06
311.502	2.17
311.877	2.18
312.252	2.2
312.626	1.75
313.001	1.95
313.375	2
313.75	1.84
314.124	1.94
314.498	1.95
314.873	2.05
315.247	1.92
315.621	1.67
315.995	2.18
316.369	2.44
316.743	2.15
317.117	1.45
317.491	1.88
317.865	2.62
318.239	2.24
318.613	2.44
318.987	2.37
319.361	2.33
319.734	1.71
320.108	2.57
320.482	2.18
320.855	2.22
321.229	2.16
321.602	2.55
321.976	2.23
322.349	2.18
322.723	2.02
323.096	2.02
323.469	2.25
323.843	2.21
324.216	1.82
324.589	1.71
324.962	2.76
325.335	2.28
325.708	2.54
326.081	2.42
326.454	2.51
326.827	2.39
327.2	2.47
327.573	2.28
327.945	1.92
328.318	1.87
328.691	2.19
329.063	2.15
329.436	1.48
329.809	2.25
330.181	2.3
330.553	2.49
330.926	2.53
331.298	2.98
331.671	2.59
332.043	2.22
332.415	2.29
332.787	1.82
333.159	2.81
333.532	2.39
333.904	2.43
334.276	2.6
334.648	2.54
335.02	2.2
335.391	2.64
335.763	2.23
336.135	2.5
336.507	2.4
336.879	2.03
337.25	2.49
337.622	2.35
337.993	2.19
338.365	2.47
338.736	2.48
339.108	2.68
339.479	2.46
339.851	2.61
340.222	3.01
340.593	2.2
340.964	2.27
341.336	2.39
341.707	2.62
342.078	2.65
342.449	2.43
342.82	2.14
343.191	2.29
343.562	2.24
343.933	2.43
344.303	2.49
344.674	2.26
345.045	2.62
345.416	2.71
345.786	2.17
346.157	2.63
346.527	2.21
346.898	2.18
347.268	2.7
347.639	2.28
348.009	2.27
348.38	2.09
348.75	2.81
349.12	2.39
349.49	2.09
349.861	2.45
350.231	2.21
350.601	2.63
350.971	2.52
351.341	2.55
351.711	2.48
352.081	2.2
352.45	2.16
352.82	2.55
353.19	2.25
353.56	2.53
353.929	2.46
354.299	2.38
354.669	2.08
355.038	2.22
355.408	2.49
355.777	2.39
356.147	2.5
356.516	2.64
356.885	2.87
357.254	2.85
357.624	2.7
357.993	2.28
358.362	2.3
358.731	2.24
359.1	2.32
359.469	2.71
359.838	2.47
360.207	2.62
360.576	2.18
360.945	2.4
361.314	2.7
361.682	2.66
362.051	2.14
362.42	2.67
362.788	2.27
363.157	2.47
363.525	2.58
363.894	2.42
364.262	2.55
364.631	2.29
364.999	2.57
365.367	2.41
365.735	2.69
366.104	2.81
366.472	2.54
366.84	2.61
367.208	2.38
367.576	2.5
367.944	2.46
368.312	2.52
368.68	2.49
369.048	2.56
369.416	2.72
369.783	2.27
370.151	2.74
370.519	2.84
370.886	2.56
371.254	2.23
371.621	2.38
371.989	2.47
372.356	2.7
372.724	2.63
373.091	2.35
373.458	2.56
373.826	2.75
374.193	2.5
374.56	2.66
374.927	2.6
375.294	2.56
375.661	2.44
376.028	2.56
376.395	2.28
376.762	2.89
377.129	2.48
377.496	2.46
377.863	2.71
378.229	2.48
378.596	2.45
378.963	2.53
379.329	2.55
379.696	2.59
380.062	2.65
380.429	2.71
380.795	2.94
381.161	2.6
381.528	2.58
381.894	2.87
382.26	2.77
382.626	2.61
382.993	2.63
383.359	2.84
383.725	2.59
384.091	2.52
384.457	2.72
384.823	2.43
385.188	2.49
385.554	2.68
385.92	2.53
386.286	2.64
386.651	2.97
387.017	2.57
387.383	2.7
387.748	2.62
388.114	2.74
388.479	2.42
388.845	2.68
389.21	2.64
389.575	2.51
389.94	2.82
390.306	2.77
390.671	2.56
391.036	2.53
391.401	2.58
391.766	2.41
392.131	2.8
392.496	2.47
392.861	2.71
393.226	2.54
393.591	2.69
393.956	2.39
394.32	2.48
394.685	2.93
395.05	2.47
395.414	2.78
395.779	2.67
396.143	2.75
396.508	2.34
396.872	2.46
397.236	2.85
397.601	2.72
397.965	2.9
398.329	2.47
398.694	2.66
399.058	2.58
399.422	2.73
399.786	2.78
400.15	2.55
400.514	2.89
400.878	2.52
401.242	2.63
401.605	2.51
401.969	2.74
402.333	2.79
402.697	2.76
403.06	2.8
403.424	2.55
403.787	2.54
404.151	2.44
404.514	2.95
404.878	2.72
405.241	2.76
405.604	2.69
405.968	2.72
406.331	2.85
406.694	2.62
407.057	2.62
407.42	2.57
407.783	2.78
408.146	2.71
408.509	2.63
408.872	2.69
409.235	2.91
409.598	2.92
409.961	2.98
410.323	2.73
410.686	2.43
411.049	2.82
411.411	2.71
411.774	2.73
412.136	2.69
412.499	2.64
412.861	2.87
413.223	2.69
413.586	2.93
413.948	2.97
414.31	2.86
414.672	2.87
415.035	3
415.397	2.87
415.759	2.88
416.121	2.81
416.483	2.68
416.845	2.59
417.206	2.85
417.568	2.88
417.93	2.81
418.292	2.9
418.653	2.82
419.015	2.88
419.377	2.84
419.738	2.8
420.1	2.45
420.461	2.81
420.822	2.72
421.184	2.77
421.545	2.78
421.906	2.71
422.267	2.72
422.629	2.65
422.99	2.8
423.351	2.77
423.712	2.81
424.073	2.75
424.434	2.67
424.795	2.66
425.155	2.64
425.516	2.72
425.877	2.85
426.238	2.73
426.598	2.78
426.959	2.74
427.32	2.77
427.68	2.92
428.041	2.87
428.401	2.9
428.761	3
429.122	2.73
429.482	2.94
429.842	2.95
430.202	2.81
430.563	2.99
430.923	3.04
431.283	2.99
431.643	2.69
432.003	2.88
432.363	2.8
432.722	2.83
433.082	2.98
433.442	2.75
433.802	2.78
434.161	2.83
434.521	2.83
434.881	2.82
435.24	2.94
435.6	2.84
435.959	2.86
436.319	2.81
436.678	2.93
437.037	2.96
437.396	3
437.756	3.17
438.115	3.05
438.474	2.82
438.833	2.95
439.192	2.9
439.551	2.94
439.91	2.84
440.269	2.9
440.628	2.93
440.987	2.97
441.345	2.89
441.704	2.9
442.063	2.93
442.421	2.86
442.78	2.77
443.138	2.74
443.497	2.97
443.855	3.03
444.214	3.05
444.572	3.02
444.93	2.98
445.288	2.93
445.647	2.89
446.005	3.11
446.363	2.97
446.721	2.94
447.079	2.84
447.437	2.97
447.795	2.91
448.153	2.96
448.51	2.83
448.868	2.91
449.226	2.89
449.584	2.89
449.941	2.92
450.299	2.97
450.656	3.1
451.014	2.95
451.371	3.07
451.729	3.12
452.086	2.95
452.443	3.04
452.801	3.02
453.158	3.17
453.515	3.1
453.872	3.06
454.229	2.94
454.586	3.02
454.943	3.02
455.3	3.16
455.657	3.04
456.014	3.03
456.371	2.99
456.727	3.04
457.084	3.07
457.441	3.05
457.797	3.06
458.154	3.08
458.51	3.34
458.867	3.22
459.223	3.11
459.58	3.11
459.936	3.11
460.292	3.14
460.648	3.1
461.005	3.07
461.361	2.99
461.717	3.05
462.073	3.05
462.429	2.99
462.785	3.03
463.141	2.95
463.496	3.07
463.852	3.12
464.208	3.16
464.564	3.26
464.919	3.19
465.275	3.08
465.631	3.27
465.986	3.2
466.342	3.29
466.697	3.21
467.052	3.09
467.408	3.16
467.763	3.2
468.118	3.2
468.473	3.4
468.829	3.27
469.184	3.21
469.539	3.43
469.894	3.27
470.249	3.34
470.603	3.35
470.958	3.23
471.313	3.36
471.668	3.29
472.023	3.24
472.377	3.33
472.732	3.25
473.086	3.29
473.441	3.24
473.795	3.21
474.15	3.32
474.504	3.19
474.859	3.16
475.213	3.16
475.567	3.24
475.921	3.21
476.275	3.34
476.63	3.33
476.984	3.29
477.338	3.35
477.692	3.35
478.045	3.2
478.399	3.23
478.753	3.13
479.107	3.24
479.461	3.37
479.814	3.38
480.168	3.41
480.521	3.29
480.875	3.39
481.228	3.24
481.582	3.4
481.935	3.22
482.289	3.41
482.642	3.41
482.995	3.34
483.348	3.32
483.701	3.34
484.055	3.29
484.408	3.31
484.761	3.24
485.114	3.13
485.466	3.03
485.819	3.03
486.172	3.04
486.525	3.1
486.878	3.17
487.23	3.27
487.583	3.27
487.936	3.31
488.288	3.33
488.641	3.22
488.993	3.17
489.345	3.23
489.698	3.19
490.05	3.16
490.402	3.19
490.754	3.29
491.107	3.38
491.459	3.26
491.811	3.44
492.163	3.5
492.515	3.39
492.866	3.34
493.218	3.27
493.57	3.23
493.922	3.22
494.274	3.3
494.625	3.39
494.977	3.38
495.328	3.42
495.68	3.51
496.031	3.54
496.383	3.51
496.734	3.5
497.086	3.37
497.437	3.65
497.788	3.51
498.139	3.54
498.49	3.61
498.842	3.44
499.193	3.44
499.544	3.5
499.894	3.44
500.245	3.53
500.596	3.57
500.947	3.53
501.298	3.67
501.648	3.63
501.999	3.72
502.35	3.73
502.7	3.65
503.051	3.6
503.401	3.65
503.752	3.76
504.102	3.61
504.452	3.68
504.803	3.56
505.153	3.69
505.503	3.61
505.853	3.66
506.203	3.61
506.553	3.72
506.903	3.71
507.253	3.64
507.603	3.79
507.953	3.77
508.303	3.7
508.652	3.68
509.002	3.69
509.352	3.79
509.701	3.69
510.051	3.57
510.4	3.69
510.75	3.68
511.099	3.64
511.449	3.49
511.798	3.63
512.147	3.74
512.496	3.74
512.846	3.81
513.195	3.71
513.544	3.76
513.893	3.73
514.242	3.86
514.591	3.71
514.939	3.84
515.288	3.73
515.637	3.71
515.986	3.84
516.334	4
516.683	3.93
517.032	3.9
517.38	3.82
517.729	3.75
518.077	3.95
518.426	3.95
518.774	3.86
519.122	3.78
519.47	3.86
519.819	3.78
520.167	3.77
520.515	3.85
520.863	3.73
521.211	3.84
521.559	3.85
521.907	3.86
522.255	3.82
522.602	3.95
522.95	3.9
523.298	4.02
523.645	4
523.993	4.05
524.341	4.08
524.688	4.07
525.036	4
525.383	4.16
525.73	3.85
526.078	4.08
526.425	3.98
526.772	3.87
527.119	3.93
527.466	3.91
527.814	3.87
528.161	3.93
528.508	3.95
528.854	3.97
529.201	4.02
529.548	3.98
529.895	3.95
530.242	3.77
530.588	3.75
530.935	3.85
531.282	3.85
531.628	3.92
531.975	3.93
532.321	4
532.667	4.03
533.014	4.15
533.36	4.08
533.706	4.14
534.052	4.16
534.399	4.07
534.745	4.05
535.091	3.96
535.437	3.92
535.783	4.06
536.129	4.09
536.474	4.11
536.82	4.18
537.166	4.21
537.512	4.27
537.857	4.31
538.203	4.22
538.549	4.11
538.894	4.15
539.239	4.13
539.585	4.3
539.93	4.3
540.276	4.37
540.621	4.42
540.966	4.41
541.311	4.39
541.656	4.43
542.001	4.31
542.346	4.35
542.691	4.23
543.036	4.22
543.381	4.13
543.726	4.17
544.071	4.21
544.415	4.31
544.76	4.34
545.105	4.35
545.449	4.38
545.794	4.38
546.138	4.49
546.483	4.59
546.827	4.47
547.171	4.44
547.516	4.47
547.86	4.56
548.204	4.57
548.548	4.41
548.892	4.41
549.236	4.46
549.58	4.63
549.924	4.76
550.268	4.64
550.612	4.71
550.956	4.7
551.3	4.69
551.643	4.87
551.987	4.76
552.33	4.66
552.674	4.72
553.017	4.84
553.361	4.7
553.704	4.77
554.048	4.84
554.391	4.81
554.734	4.58
555.077	4.7
555.42	4.86
555.764	4.93
556.107	4.93
556.45	5.03
556.793	4.92
557.135	5.06
557.478	4.94
557.821	5.09
558.164	5.03
558.507	4.99
558.849	5.06
559.192	5.09
559.534	5.22
559.877	5.04
560.219	4.9
560.562	4.89
560.904	5.08
561.246	5.02
561.589	5.16
561.931	5.13
562.273	5.09
562.615	5.35
562.957	5.2
563.299	5.18
563.641	5.19
563.983	4.98
564.325	5.26
564.667	5.28
565.008	5.23
565.35	5.38
565.692	5.19
566.033	5.34
566.375	5.23
566.716	5.47
567.058	5.3
567.399	5.3
567.741	5.21
568.082	5.18
568.423	5.21
568.764	5.26
569.105	5.3
569.447	5.32
569.788	5.37
570.129	5.38
570.47	5.48
570.811	5.33
571.151	5.36
571.492	5.53
571.833	5.52
572.174	5.48
572.514	5.65
572.855	5.38
573.195	5.37
573.536	5.42
573.876	5.52
574.217	5.41
574.557	5.53
574.898	5.43
575.238	5.57
575.578	5.59
575.918	5.53
576.258	5.66
576.598	5.68
576.938	5.59
577.278	5.67
577.618	5.62
577.958	5.65
578.298	5.74
578.638	5.98
578.977	5.76
579.317	5.8
579.657	5.79
579.996	5.92
580.336	5.74
580.675	5.94
581.014	5.9
581.354	5.94
581.693	5.95
582.032	5.92
582.372	5.97
582.711	5.74
583.05	5.96
583.389	6.01
583.728	5.92
584.067	6.06
584.406	6
584.745	6.13
585.083	5.97
585.422	6.19
585.761	6.17
586.1	6.35
586.438	6.12
586.777	6.35
587.115	6.25
587.454	6.2
587.792	6.13
588.13	6.52
588.469	6.36
588.807	6.2
589.145	6.31
589.483	6.45
589.821	6.38
590.159	6.24
590.497	6.37
590.835	6.41
591.173	6.37
591.511	6.09
591.849	6.29
592.187	6.34
592.524	6.47
592.862	6.07
593.2	6.31
593.537	6.27
593.875	6.44
594.212	6.62
594.55	6.56
594.887	6.4
595.224	6.66
595.561	6.66
595.899	6.36
596.236	6.36
596.573	6.77
596.91	6.7
597.247	6.77
597.584	6.55
597.921	6.58
598.258	6.89
598.594	6.63
598.931	6.64
599.268	6.6
599.604	6.61
599.941	6.55
600.277	6.63
600.614	6.65
600.95	6.64
601.287	7.03
601.623	6.92
601.959	7.06
602.296	7.05
602.632	7.04
602.968	6.96
603.304	6.75
603.64	7.02
603.976	7.3
604.312	7.04
604.648	6.87
604.984	6.86
605.319	6.87
605.655	6.88
605.991	6.92
606.326	6.94
606.662	6.88
606.998	6.97
607.333	6.99
607.668	7.04
608.004	6.95
608.339	7.06
608.674	7.05
609.01	7.51
609.345	7.3
609.68	7.24
610.015	7.28
610.35	7.37
610.685	7
611.02	7.24
611.355	7.31
611.689	7.18
612.024	7.26
612.359	7.41
612.694	7.14
613.028	7.22
613.363	7.45
613.697	7.52
614.032	7.59
614.366	7.35
614.7	7.79
615.035	7.52
615.369	7.64
615.703	7.8
616.037	7.68
616.371	7.44
616.705	7.4
617.039	7.47
617.373	7.99
617.707	7.57
618.041	7.75
618.375	7.72
618.709	7.75
619.042	7.71
619.376	7.74
619.71	7.6
620.043	8.04
620.377	8.03
620.71	8.06
621.043	7.67
621.377	7.63
621.71	7.75
622.043	7.82
622.376	7.9
622.709	8.35
623.043	8.15
623.376	7.97
623.709	7.99
624.041	8.14
624.374	8.12
624.707	7.86
625.04	8.31
625.373	7.79
625.705	7.89
626.038	8.41
626.37	8.17
626.703	8.02
627.035	7.98
627.368	8
627.7	8.05
628.032	8.13
628.365	8.21
628.697	8.08
629.029	8
629.361	8.19
629.693	8.03
630.025	8.11
630.357	8.15
630.689	8.55
631.021	8.29
631.353	8.12
631.684	8.31
632.016	8.12
632.348	8.38
632.679	8.36
633.011	8.28
633.342	8.6
633.674	8.87
634.005	8.73
634.336	8.55
634.668	8.52
634.999	8.65
635.33	8.6
635.661	8.45
635.992	8.7
636.323	8.46
636.654	8.9
636.985	8.82
637.316	8.72
637.647	8.74
637.977	8.49
638.308	8.68
638.639	8.77
638.969	8.47
639.3	8.58
639.63	8.83
639.961	8.47
640.291	8.5
640.622	9.1
640.952	8.98
641.282	8.79
641.612	8.92
641.943	8.91
642.273	8.45
642.603	8.96
642.933	8.7
643.263	8.85
643.592	9.33
643.922	8.88
644.252	8.65
644.582	8.91
644.911	8.86
645.241	9.13
645.571	9.25
645.9	9.08
646.23	9.02
646.559	9.01
646.888	9.05
647.218	9.4
647.547	9.46
647.876	8.94
648.205	9.11
648.534	9.26
648.863	9.56
649.192	9.02
649.521	9.4
649.85	9.68
650.179	9.62
650.508	9.41
650.837	9.39
651.165	9.18
651.494	9.42
651.822	9.36
652.151	9.69
652.479	9.52
652.808	9.31
653.136	9.49
653.465	9.69
653.793	9.59
654.121	9.88
654.449	9.36
654.777	9.69
655.105	9.86
655.433	9.62
655.761	9.64
656.089	10.21
656.417	9.55
656.745	9.71
657.073	9.82
657.4	9.77
657.728	9.65
658.056	10.24
658.383	9.65
658.711	9.74
659.038	9.82
659.365	9.65
659.693	9.86
660.02	10.01
660.347	10.01
660.674	9.67
661.001	9.88
661.329	10.05
661.656	10.22
661.982	9.92
662.309	10.04
662.636	9.87
662.963	9.89
663.29	9.83
663.616	9.83
663.943	10.46
664.27	10.27
664.596	10.44
664.923	10.55
665.249	10.43
665.576	9.99
665.902	9.87
666.228	10.37
666.554	10.69
666.881	10.87
667.207	9.98
667.533	10.36
667.859	10.56
668.185	10.37
668.511	10.47
668.837	10.24
669.162	10.8
669.488	10.51
669.814	10.58
670.139	10.69
670.465	10.66
670.791	9.86
671.116	10.23
671.442	10.45
671.767	10.62
672.092	10.67
672.418	10.88
672.743	10.94
673.068	10.49
673.393	10.3
673.718	10.34
674.043	10.57
674.368	10.3
674.693	10.86
675.018	11
675.343	10.6
675.667	10.82
675.992	10.6
676.317	10.7
676.641	10.72
676.966	10.57
677.29	10.23
677.615	10.94
677.939	11.4
678.264	10.45
678.588	10.61
678.912	10.74
679.236	11
679.56	10.65
679.885	10.44
680.209	10.73
680.532	10.55
680.856	11.45
681.18	11.2
681.504	11.01
681.828	11.13
682.152	11.06
682.475	10.85
682.799	10.74
683.122	10.81
683.446	10.87
683.769	11.69
684.093	11.17
684.416	11.29
684.739	11.34
685.062	11.65
685.386	11.17
685.709	11.63
686.032	11.37
686.355	11.26
686.678	11.3
687.001	11.61
687.324	11.55
687.646	11.1
687.969	11.99
688.292	11.55
688.614	11.37
688.937	11.51
689.26	11.77
689.582	11.49
689.904	11.54
690.227	11.71
690.549	11.38
690.871	11.47
691.194	11.46
691.516	12.19
