Data from 0035_crown_Reflection__2__22.txt Node

Date: Fri Nov 04 14:49:14 CDT 2022
User: ToomeyLab
Spectrometer: FLMS14357
Trigger mode: 0
Integration Time (sec): 1.000000E-2
Scans to average: 100
Electric dark correction enabled: true
Nonlinearity correction enabled: false
Boxcar width: 0
XAxis mode: Wavelengths
Number of Pixels in Spectrum: 2048
>>>>>Begin Spectral Data<<<<<
189.047	55.53
189.435	55.53
189.823	55.53
190.211	292.71
190.599	92.47
190.987	483.33
191.375	-119.69
191.763	72.3
192.151	202.91
192.538	-14.17
192.926	569.61
193.314	108.67
193.702	39.72
194.089	206.52
194.477	17.38
194.864	40.72
195.252	29.79
195.639	134.67
196.027	46.21
196.414	-16.97
196.801	449.46
197.189	785.67
197.576	59.53
197.963	-1055.61
198.351	17.28
198.738	8.21
199.125	11.43
199.512	-13.85
199.899	5.88
200.286	26.67
200.673	16.03
201.06	32.65
201.447	14.2
201.833	-4.36
202.22	-27.97
202.607	22.53
202.994	-20.15
203.38	38.45
203.767	-32.6
204.154	41.11
204.54	14.25
204.927	22.42
205.313	19.01
205.699	34.95
206.086	42.14
206.472	22.26
206.858	46.52
207.245	29.27
207.631	8.05
208.017	29.19
208.403	26.93
208.789	8.17
209.175	14.46
209.561	9.16
209.947	38.94
210.333	27.48
210.719	-3.71
211.105	-18.15
211.491	15.16
211.876	29.86
212.262	22.03
212.648	13.77
213.034	-22.75
213.419	11.45
213.805	11.58
214.19	5.51
214.576	-17.87
214.961	3.34
215.346	5.17
215.732	26.45
216.117	7.45
216.502	11.65
216.888	3.61
217.273	-2.1
217.658	0.93
218.043	23
218.428	8.38
218.813	-4.31
219.198	5.65
219.583	-10.14
219.968	-11.44
220.353	-1.21
220.738	18.54
221.122	0.59
221.507	1.62
221.892	-3.45
222.276	-5.25
222.661	9.86
223.046	13.58
223.43	-10.81
223.815	10.94
224.199	5.94
224.583	9.48
224.968	10.43
225.352	10.89
225.736	7.05
226.121	5.56
226.505	3.56
226.889	0.7
227.273	-1.27
227.657	1.57
228.041	6.97
228.425	11.82
228.809	5.8
229.193	5.92
229.577	4.42
229.961	3.54
230.344	3.74
230.728	3.79
231.112	4.83
231.495	4.28
231.879	5.71
232.263	2.86
232.646	5.34
233.03	4.82
233.413	4.72
233.797	4.52
234.18	5.01
234.563	6.2
234.946	3.11
235.33	3.54
235.713	4.09
236.096	3.64
236.479	4.74
236.862	4.63
237.245	3.38
237.628	4.13
238.011	4.65
238.394	4.85
238.777	4.3
239.16	5.66
239.543	5.9
239.925	3.95
240.308	3.85
240.691	3.23
241.073	4.58
241.456	4.16
241.838	3.38
242.221	4.44
242.603	3.48
242.986	4.85
243.368	4.03
243.75	4.65
244.133	4.04
244.515	4.2
244.897	3.75
245.279	5
245.661	4.33
246.043	4.13
246.425	4.08
246.807	4.53
247.189	4.86
247.571	4.08
247.953	3.99
248.335	4.05
248.717	3.78
249.098	3.94
249.48	3.76
249.862	4.06
250.243	4.43
250.625	3.75
251.006	4.32
251.388	4.33
251.769	3.58
252.151	4.11
252.532	3.14
252.913	3.88
253.295	4.55
253.676	3.9
254.057	3.59
254.438	4.27
254.819	4.01
255.2	4.87
255.581	4.23
255.962	4.43
256.343	4.01
256.724	4.38
257.105	4.66
257.486	4.52
257.867	5.37
258.247	3.39
258.628	4.38
259.009	3.57
259.389	3.94
259.77	4.17
260.15	4.01
260.531	4.06
260.911	3.77
261.292	3.59
261.672	3.74
262.052	3.69
262.432	3.61
262.813	4.03
263.193	4.03
263.573	4.18
263.953	3.4
264.333	3.47
264.713	4.17
265.093	4.19
265.473	3.67
265.853	3.47
266.233	3.76
266.612	4.16
266.992	5.13
267.372	4.35
267.752	3.54
268.131	3.3
268.511	3.59
268.89	3.94
269.27	3.83
269.649	3.49
270.029	3.79
270.408	3.94
270.787	4.48
271.167	3.75
271.546	3.91
271.925	3.85
272.304	3.91
272.683	2.93
273.062	3.51
273.441	3.2
273.82	3.63
274.199	4.02
274.578	3.57
274.957	3.75
275.336	3.47
275.715	3.28
276.093	3.5
276.472	3.59
276.851	3.98
277.229	2.81
277.608	2.93
277.986	3.32
278.365	3.5
278.743	3.89
279.122	3.31
279.5	3.45
279.878	3.74
280.257	3.98
280.635	3.42
281.013	4.14
281.391	3.85
281.769	3.27
282.147	3.08
282.525	3.89
282.903	3.43
283.281	3.65
283.659	3.39
284.037	3.5
284.415	3.07
284.792	3.3
285.17	3.14
285.548	2.98
285.925	3.16
286.303	3.53
286.68	3.17
287.058	3.02
287.435	3.29
287.813	3.08
288.19	3.22
288.567	3.4
288.945	3.69
289.322	3.3
289.699	3.73
290.076	3.24
290.453	3.71
290.83	3.36
291.207	3.12
291.584	3.37
291.961	3.2
292.338	3.21
292.715	3.39
293.092	2.91
293.469	3.47
293.845	3.33
294.222	2.9
294.599	3.21
294.975	3.25
295.352	2.69
295.728	3.42
296.105	3.36
296.481	3.52
296.858	3.43
297.234	3.69
297.61	3.43
297.986	3.15
298.363	3.03
298.739	2.85
299.115	3.15
299.491	3.02
299.867	3.14
300.243	2.97
300.619	3.08
300.995	3.17
301.371	3.49
301.746	3.15
302.122	3.2
302.498	2.84
302.874	2.75
303.249	2.76
303.625	3.17
304	2.91
304.376	3.36
304.751	3.25
305.127	3.44
305.502	2.97
305.878	2.99
306.253	3.34
306.628	3.15
307.003	2.74
307.378	3.04
307.754	2.93
308.129	2.97
308.504	3.18
308.879	2.73
309.254	2.7
309.629	2.83
310.003	3.17
310.378	3.02
310.753	2.95
311.128	2.22
311.502	3.21
311.877	2.86
312.252	3.03
312.626	3.04
313.001	3.09
313.375	2.64
313.75	2.75
314.124	3.13
314.498	2.77
314.873	3.34
315.247	2.89
315.621	2.61
315.995	2.91
316.369	3.1
316.743	2.46
317.117	2.75
317.491	2.7
317.865	2.98
318.239	2.98
318.613	2.68
318.987	3.18
319.361	2.94
319.734	2.59
320.108	2.98
320.482	3.22
320.855	3.54
321.229	2.74
321.602	3.37
321.976	3.23
322.349	2.52
322.723	2.57
323.096	2.63
323.469	3.06
323.843	3.01
324.216	2.82
324.589	2.3
324.962	3.12
325.335	2.32
325.708	2.86
326.081	2.7
326.454	3.38
326.827	2.69
327.2	2.74
327.573	2.92
327.945	2.52
328.318	2.74
328.691	2.83
329.063	2.97
329.436	2.66
329.809	2.76
330.181	3.17
330.553	3.26
330.926	2.86
331.298	3.08
331.671	3.51
332.043	3.04
332.415	2.73
332.787	2.73
333.159	3.05
333.532	3.12
333.904	2.42
334.276	2.46
334.648	2.79
335.02	2.81
335.391	2.89
335.763	2.63
336.135	2.96
336.507	3.02
336.879	2.34
337.25	2.89
337.622	2.9
337.993	2.61
338.365	2.64
338.736	3.13
339.108	2.75
339.479	2.82
339.851	2.94
340.222	2.77
340.593	2.85
340.964	2.92
341.336	2.85
341.707	2.94
342.078	2.7
342.449	3.2
342.82	2.56
343.191	2.99
343.562	3.04
343.933	2.88
344.303	3
344.674	2.61
345.045	2.93
345.416	3.29
345.786	2.64
346.157	2.99
346.527	2.65
346.898	2.64
347.268	3.01
347.639	2.59
348.009	2.69
348.38	2.5
348.75	3.11
349.12	2.66
349.49	2.46
349.861	2.87
350.231	2.74
350.601	2.56
350.971	2.93
351.341	2.86
351.711	2.98
352.081	2.73
352.45	2.7
352.82	2.83
353.19	2.62
353.56	2.89
353.929	2.69
354.299	2.77
354.669	2.73
355.038	2.92
355.408	2.84
355.777	2.71
356.147	2.72
356.516	3.07
356.885	3.18
357.254	3.23
357.624	2.6
357.993	2.53
358.362	2.87
358.731	2.89
359.1	2.8
359.469	2.9
359.838	2.98
360.207	2.98
360.576	2.57
360.945	2.78
361.314	3.12
361.682	2.92
362.051	2.56
362.42	3.05
362.788	3.01
363.157	3.01
363.525	2.83
363.894	2.83
364.262	2.9
364.631	2.97
364.999	2.95
365.367	2.76
365.735	2.99
366.104	3.15
366.472	2.84
366.84	2.83
367.208	2.76
367.576	3.02
367.944	2.83
368.312	2.84
368.68	3.03
369.048	2.9
369.416	2.94
369.783	2.98
370.151	3.22
370.519	3.11
370.886	2.57
371.254	2.55
371.621	3.13
371.989	3.25
372.356	3.04
372.724	2.96
373.091	2.86
373.458	3.28
373.826	3.24
374.193	2.96
374.56	3.06
374.927	3.1
375.294	3.03
375.661	2.99
376.028	2.98
376.395	2.93
376.762	2.94
377.129	2.95
377.496	2.75
377.863	2.81
378.229	3.12
378.596	3.07
378.963	2.85
379.329	2.85
379.696	2.97
380.062	2.98
380.429	3.38
380.795	3.09
381.161	3.05
381.528	3.44
381.894	3.31
382.26	2.99
382.626	2.73
382.993	3.14
383.359	3.08
383.725	3.14
384.091	2.95
384.457	3.23
384.823	2.95
385.188	3.03
385.554	3.22
385.92	2.76
386.286	2.92
386.651	3.43
387.017	2.97
387.383	3.17
387.748	2.92
388.114	3.1
388.479	2.89
388.845	3.11
389.21	3.05
389.575	3.02
389.94	3.02
390.306	3.2
390.671	2.92
391.036	2.99
391.401	2.91
391.766	3.04
392.131	3.16
392.496	2.94
392.861	3.2
393.226	3.18
393.591	3.06
393.956	3.01
394.32	2.89
394.685	3.41
395.05	2.99
395.414	3.17
395.779	3.07
396.143	3.21
396.508	2.96
396.872	2.98
397.236	3.24
397.601	3.12
397.965	3.33
398.329	2.94
398.694	3.15
399.058	3.28
399.422	3.08
399.786	3.17
400.15	3.12
400.514	3.24
400.878	3.12
401.242	3.22
401.605	3.24
401.969	3.27
402.333	3.28
402.697	3.3
403.06	3.3
403.424	2.94
403.787	3.25
404.151	3.07
404.514	3.31
404.878	3.49
405.241	3.33
405.604	3.2
405.968	3.13
406.331	3.33
406.694	3.09
407.057	3.12
407.42	3.07
407.783	3.19
408.146	3.29
408.509	3.08
408.872	3.25
409.235	3.3
409.598	3.34
409.961	3.57
410.323	3.26
410.686	3.25
411.049	3.27
411.411	3.37
411.774	3.35
412.136	3.08
412.499	3.19
412.861	3.38
413.223	3.07
413.586	3.19
413.948	3.39
414.31	3.36
414.672	3.46
415.035	3.37
415.397	3.34
415.759	3.42
416.121	3.12
416.483	3.28
416.845	3.31
417.206	3.35
417.568	3.34
417.93	3.24
418.292	3.22
418.653	3.22
419.015	3.41
419.377	3.16
419.738	3.13
420.1	3.25
420.461	3.31
420.822	3.32
421.184	3.33
421.545	3.28
421.906	3.24
422.267	3.15
422.629	3.14
422.99	3.17
423.351	3.16
423.712	3.19
424.073	3.27
424.434	3.15
424.795	3.15
425.155	3.19
425.516	3.28
425.877	3.26
426.238	3.17
426.598	3.18
426.959	3.2
427.32	3.25
427.68	3.37
428.041	3.28
428.401	3.28
428.761	3.44
429.122	3.3
429.482	3.39
429.842	3.51
430.202	3.3
430.563	3.5
430.923	3.37
431.283	3.45
431.643	3.38
432.003	3.43
432.363	3.37
432.722	3.49
433.082	3.34
433.442	3.06
433.802	3.27
434.161	3.46
434.521	3.31
434.881	3.35
435.24	3.38
435.6	3.37
435.959	3.45
436.319	3.32
436.678	3.47
437.037	3.49
437.396	3.54
437.756	3.44
438.115	3.44
438.474	3.29
438.833	3.55
439.192	3.28
439.551	3.39
439.91	3.2
440.269	3.38
440.628	3.34
440.987	3.33
441.345	3.25
441.704	3.4
442.063	3.49
442.421	3.37
442.78	3.31
443.138	3.24
443.497	3.44
443.855	3.54
444.214	3.46
444.572	3.5
444.93	3.49
445.288	3.38
445.647	3.32
446.005	3.4
446.363	3.39
446.721	3.35
447.079	3.24
447.437	3.4
447.795	3.26
448.153	3.33
448.51	3.2
448.868	3.28
449.226	3.21
449.584	3.28
449.941	3.38
450.299	3.42
450.656	3.49
451.014	3.36
451.371	3.44
451.729	3.62
452.086	3.52
452.443	3.54
452.801	3.54
453.158	3.53
453.515	3.5
453.872	3.41
454.229	3.4
454.586	3.41
454.943	3.47
455.3	3.45
455.657	3.4
456.014	3.38
456.371	3.44
456.727	3.5
457.084	3.44
457.441	3.51
457.797	3.63
458.154	3.48
458.51	3.71
458.867	3.62
459.223	3.47
459.58	3.58
459.936	3.52
460.292	3.48
460.648	3.51
461.005	3.45
461.361	3.53
461.717	3.37
462.073	3.43
462.429	3.39
462.785	3.52
463.141	3.37
463.496	3.5
463.852	3.55
464.208	3.55
464.564	3.57
464.919	3.5
465.275	3.51
465.631	3.61
465.986	3.6
466.342	3.68
466.697	3.7
467.052	3.44
467.408	3.53
467.763	3.58
468.118	3.66
468.473	3.53
468.829	3.71
469.184	3.54
469.539	3.66
469.894	3.62
470.249	3.68
470.603	3.78
470.958	3.62
471.313	3.53
471.668	3.5
472.023	3.44
472.377	3.58
472.732	3.69
473.086	3.56
473.441	3.57
473.795	3.53
474.15	3.62
474.504	3.6
474.859	3.42
475.213	3.48
475.567	3.63
475.921	3.56
476.275	3.59
476.63	3.54
476.984	3.71
477.338	3.87
477.692	3.53
478.045	3.58
478.399	3.45
478.753	3.57
479.107	3.48
479.461	3.6
479.814	3.75
480.168	3.62
480.521	3.45
480.875	3.72
481.228	3.47
481.582	3.75
481.935	3.52
482.289	3.49
482.642	3.57
482.995	3.6
483.348	3.54
483.701	3.53
484.055	3.5
484.408	3.59
484.761	3.42
485.114	3.37
485.466	3.26
485.819	3.23
486.172	3.25
486.525	3.35
486.878	3.45
487.23	3.48
487.583	3.47
487.936	3.52
488.288	3.51
488.641	3.47
488.993	3.43
489.345	3.34
489.698	3.39
490.05	3.35
490.402	3.45
490.754	3.51
491.107	3.56
491.459	3.57
491.811	3.6
492.163	3.62
492.515	3.62
492.866	3.55
493.218	3.4
493.57	3.38
493.922	3.38
494.274	3.5
494.625	3.51
494.977	3.63
495.328	3.62
495.68	3.66
496.031	3.64
496.383	3.53
496.734	3.67
497.086	3.56
497.437	3.73
497.788	3.58
498.139	3.61
498.49	3.6
498.842	3.55
499.193	3.59
499.544	3.56
499.894	3.56
500.245	3.67
500.596	3.64
500.947	3.63
501.298	3.76
501.648	3.77
501.999	3.8
502.35	3.83
502.7	3.83
503.051	3.72
503.401	3.71
503.752	3.81
504.102	3.62
504.452	3.6
504.803	3.6
505.153	3.63
505.503	3.64
505.853	3.6
506.203	3.64
506.553	3.67
506.903	3.74
507.253	3.75
507.603	3.73
507.953	3.74
508.303	3.9
508.652	3.6
509.002	3.61
509.352	3.72
509.701	3.69
510.051	3.69
510.4	3.57
510.75	3.64
511.099	3.6
511.449	3.51
511.798	3.62
512.147	3.65
512.496	3.65
512.846	3.75
513.195	3.66
513.544	3.75
513.893	3.69
514.242	3.77
514.591	3.64
514.939	3.67
515.288	3.76
515.637	3.7
515.986	3.68
516.334	3.85
516.683	3.79
517.032	3.74
517.38	3.79
517.729	3.7
518.077	3.62
518.426	3.88
518.774	3.66
519.122	3.48
519.47	3.77
519.819	3.65
520.167	3.63
520.515	3.6
520.863	3.63
521.211	3.64
521.559	3.7
521.907	3.64
522.255	3.59
522.602	3.82
522.95	3.69
523.298	3.72
523.645	3.74
523.993	3.79
524.341	3.77
524.688	3.73
525.036	3.72
525.383	3.94
525.73	3.71
526.078	3.81
526.425	3.74
526.772	3.73
527.119	3.61
527.466	3.58
527.814	3.49
528.161	3.62
528.508	3.63
528.854	3.78
529.201	3.74
529.548	3.6
529.895	3.59
530.242	3.44
530.588	3.39
530.935	3.46
531.282	3.51
531.628	3.58
531.975	3.58
532.321	3.69
532.667	3.68
533.014	3.76
533.36	3.68
533.706	3.71
534.052	3.75
534.399	3.61
534.745	3.6
535.091	3.52
535.437	3.5
535.783	3.56
536.129	3.63
536.474	3.69
536.82	3.65
537.166	3.8
537.512	3.85
537.857	3.78
538.203	3.68
538.549	3.63
538.894	3.62
539.239	3.53
539.585	3.78
539.93	3.77
540.276	3.74
540.621	3.77
540.966	3.85
541.311	3.74
541.656	3.76
542.001	3.64
542.346	3.65
542.691	3.61
543.036	3.56
543.381	3.52
543.726	3.48
544.071	3.51
544.415	3.62
544.76	3.64
545.105	3.65
545.449	3.62
545.794	3.65
546.138	3.7
546.483	3.86
546.827	3.73
547.171	3.76
547.516	3.65
547.86	3.74
548.204	3.71
548.548	3.58
548.892	3.57
549.236	3.71
549.58	3.7
549.924	3.81
550.268	3.86
550.612	3.8
550.956	3.72
551.3	3.71
551.643	3.72
551.987	3.76
552.33	3.71
552.674	3.71
553.017	3.76
553.361	3.82
553.704	3.87
554.048	3.77
554.391	3.86
554.734	3.6
555.077	3.7
555.42	3.72
555.764	3.82
556.107	3.78
556.45	3.82
556.793	3.68
557.135	3.83
557.478	3.77
557.821	3.85
558.164	3.79
558.507	3.84
558.849	3.83
559.192	3.8
559.534	3.83
559.877	3.87
560.219	3.67
560.562	3.83
560.904	3.81
561.246	3.75
561.589	4.04
561.931	3.87
562.273	3.87
562.615	4.23
562.957	3.82
563.299	3.76
563.641	3.76
563.983	3.72
564.325	3.91
564.667	3.8
565.008	3.77
565.35	3.78
565.692	3.7
566.033	3.76
566.375	3.66
566.716	3.93
567.058	3.88
567.399	3.75
567.741	3.63
568.082	3.74
568.423	3.74
568.764	3.72
569.105	3.79
569.447	3.86
569.788	3.84
570.129	3.8
570.47	3.74
570.811	3.71
571.151	3.87
571.492	3.92
571.833	3.87
572.174	3.77
572.514	4.03
572.855	3.73
573.195	3.76
573.536	3.73
573.876	3.77
574.217	3.62
574.557	3.81
574.898	3.65
575.238	3.79
575.578	3.75
575.918	3.69
576.258	3.93
576.598	3.85
576.938	3.73
577.278	3.83
577.618	3.77
577.958	3.75
578.298	3.75
578.638	3.97
578.977	3.54
579.317	3.85
579.657	3.92
579.996	3.93
580.336	3.83
580.675	3.8
581.014	3.7
581.354	3.81
581.693	3.94
582.032	3.88
582.372	3.79
582.711	3.62
583.05	3.77
583.389	3.9
583.728	3.94
584.067	3.93
584.406	3.62
584.745	3.81
585.083	3.81
585.422	3.81
585.761	3.7
586.1	4.14
586.438	3.85
586.777	3.88
587.115	3.97
587.454	3.9
587.792	3.81
588.13	4.08
588.469	3.92
588.807	3.86
589.145	3.84
589.483	3.9
589.821	3.85
590.159	3.66
590.497	3.81
590.835	4.01
591.173	3.72
591.511	3.6
591.849	3.82
592.187	3.8
592.524	3.77
592.862	3.64
593.2	3.59
593.537	3.78
593.875	4.04
594.212	3.9
594.55	3.8
594.887	3.81
595.224	3.93
595.561	3.7
595.899	3.63
596.236	3.58
596.573	3.9
596.91	3.88
597.247	3.85
597.584	3.6
597.921	3.53
598.258	3.99
598.594	3.81
598.931	3.57
599.268	3.7
599.604	3.7
599.941	3.77
600.277	3.71
600.614	3.67
600.95	3.79
601.287	3.83
601.623	3.86
601.959	3.61
602.296	3.66
602.632	3.95
602.968	3.72
603.304	3.77
603.64	3.65
603.976	3.74
604.312	3.86
604.648	3.82
604.984	3.62
605.319	3.75
605.655	3.67
605.991	3.8
606.326	3.9
606.662	3.84
606.998	3.73
607.333	3.75
607.668	3.68
608.004	3.72
608.339	3.56
608.674	3.79
609.01	4.06
609.345	3.9
609.68	3.67
610.015	3.97
610.35	3.51
610.685	3.67
611.02	3.83
611.355	3.79
611.689	3.57
612.024	3.9
612.359	3.78
612.694	3.73
613.028	3.89
613.363	3.94
613.697	3.91
614.032	3.83
614.366	3.88
614.7	3.8
615.035	3.62
615.369	4.04
615.703	3.7
616.037	3.82
616.371	3.71
616.705	3.71
617.039	3.81
617.373	3.89
617.707	3.65
618.041	3.8
618.375	3.78
618.709	4.01
619.042	4.19
619.376	3.81
619.71	3.74
620.043	4.3
620.377	4.13
620.71	4.1
621.043	3.85
621.377	3.76
621.71	3.72
622.043	3.92
622.376	4
622.709	3.72
623.043	3.43
623.376	3.75
623.709	4.23
624.041	4.18
624.374	4.04
624.707	3.84
625.04	4.43
625.373	3.62
625.705	3.6
626.038	4.07
626.37	3.9
626.703	3.52
627.035	3.62
627.368	3.55
627.7	3.69
628.032	3.83
628.365	3.68
628.697	3.71
629.029	3.9
629.361	3.82
629.693	3.57
630.025	4.12
630.357	3.82
630.689	3.81
631.021	3.72
631.353	3.83
631.684	4.11
632.016	3.8
632.348	3.98
632.679	3.51
633.011	3.71
633.342	3.93
633.674	4.41
634.005	4.11
634.336	3.94
634.668	4.02
634.999	3.91
635.33	3.91
635.661	3.5
635.992	3.8
636.323	3.88
636.654	4.14
636.985	3.9
637.316	3.81
637.647	4.13
637.977	3.64
638.308	3.92
638.639	3.95
638.969	3.76
639.3	3.94
639.63	3.84
639.961	3.77
640.291	3.56
640.622	4.24
640.952	4.01
641.282	3.78
641.612	3.98
641.943	3.38
642.273	3.34
642.603	4.06
642.933	3.46
643.263	3.77
643.592	3.8
643.922	3.67
644.252	3.69
644.582	3.84
644.911	3.8
645.241	4.14
645.571	3.98
645.9	3.92
646.23	3.88
646.559	4.05
646.888	3.76
647.218	3.83
647.547	3.97
647.876	4.11
648.205	3.63
648.534	3.98
648.863	3.92
649.192	3.9
649.521	3.97
649.85	4.3
650.179	3.74
650.508	3.57
650.837	3.78
651.165	3.81
651.494	3.63
651.822	3.61
652.151	4.18
652.479	3.79
652.808	3.74
653.136	4.01
653.465	4.24
653.793	4.23
654.121	4.11
654.449	4.08
654.777	3.71
655.105	4.04
655.433	3.98
655.761	3.78
656.089	4.07
656.417	3.69
656.745	3.99
657.073	3.61
657.4	3.64
657.728	4.15
658.056	4.06
658.383	4.19
658.711	3.68
659.038	4.02
659.365	3.85
659.693	4.12
660.02	4.16
660.347	3.91
660.674	3.83
661.001	3.83
661.329	3.72
661.656	4.27
661.982	3.98
662.309	3.77
662.636	4.1
662.963	3.98
663.29	3.48
663.616	3.74
663.943	3.87
664.27	4.02
664.596	3.92
664.923	4.41
665.249	4.03
665.576	3.84
665.902	3.64
666.228	3.72
666.554	4.47
666.881	4.58
667.207	4.02
667.533	3.88
667.859	4.13
668.185	3.94
668.511	3.87
668.837	3.25
669.162	4.2
669.488	4
669.814	4.45
670.139	4.08
670.465	3.98
670.791	3.79
671.116	4.62
671.442	4.38
671.767	4.1
672.092	4.21
672.418	3.99
672.743	4.17
673.068	4.15
673.393	4.27
673.718	3.61
674.043	4.11
674.368	4.01
674.693	3.87
675.018	4.33
675.343	3.49
675.667	3.87
675.992	4.35
676.317	4.54
676.641	3.97
676.966	4.16
677.29	4.21
677.615	4.28
677.939	4.23
678.264	4.32
678.588	3.76
678.912	4.23
679.236	4.11
679.56	4.1
679.885	3.67
680.209	4.21
680.532	4.09
680.856	4.38
681.18	3.85
681.504	4.25
681.828	4.21
682.152	4.18
682.475	3.7
682.799	4.1
683.122	4.25
683.446	4.09
683.769	4.84
684.093	4.11
684.416	4.18
684.739	4.94
685.062	4.3
685.386	4.07
685.709	4.42
686.032	4.18
686.355	3.83
686.678	4.01
687.001	4.29
687.324	4.5
687.646	3.62
687.969	4.46
688.292	4.02
688.614	4.23
688.937	3.87
689.26	4.64
689.582	4.09
689.904	3.78
690.227	4.03
690.549	3.97
690.871	4.45
691.194	4.43
691.516	4.57
691.838	4.65
692.16	3.87
692.482	3.89
692.804	3.75
