Data from 0035_forehead_Reflection__3__28.txt Node

Date: Fri Nov 04 14:50:54 CDT 2022
User: ToomeyLab
Spectrometer: FLMS14357
Trigger mode: 0
Integration Time (sec): 1.000000E-2
Scans to average: 100
Electric dark correction enabled: true
Nonlinearity correction enabled: false
Boxcar width: 0
XAxis mode: Wavelengths
Number of Pixels in Spectrum: 2048
>>>>>Begin Spectral Data<<<<<
189.047	53.71
189.435	53.71
189.823	53.71
190.211	219.57
190.599	128.8
190.987	1289.78
191.375	125.4
191.763	87.22
192.151	259.95
192.538	11.71
192.926	170.17
193.314	258.11
193.702	-19.24
194.089	177.53
194.477	3.09
194.864	132.55
195.252	152.72
195.639	349.67
196.027	91.45
196.414	-178.18
196.801	-132.52
197.189	35.35
197.576	80.25
197.963	1047.2
198.351	79.86
198.738	62.68
199.125	-12.36
199.512	18.97
199.899	30.94
200.286	63.64
200.673	37.38
201.06	63.6
201.447	51.27
201.833	28.23
202.22	109.44
202.607	58.3
202.994	38.29
203.38	76.79
203.767	17.93
204.154	46.87
204.54	47.68
204.927	36.45
205.313	39.29
205.699	77.11
206.086	48.92
206.472	54.71
206.858	35.78
207.245	39.95
207.631	29.19
208.017	22.57
208.403	31.12
208.789	36.42
209.175	42.58
209.561	39.94
209.947	18.67
210.333	49.72
210.719	27.44
211.105	18.23
211.491	45.68
211.876	48.05
212.262	28.46
212.648	31.75
213.034	97.55
213.419	27.01
213.805	27.99
214.19	70.84
214.576	18.88
214.961	44.48
215.346	20.99
215.732	58.64
216.117	13.98
216.502	50.31
216.888	35.25
217.273	25.49
217.658	29.42
218.043	8.25
218.428	31.79
218.813	24.55
219.198	9.99
219.583	27.72
219.968	-3.05
220.353	29.82
220.738	11.09
221.122	16.89
221.507	28.58
221.892	17.51
222.276	13.42
222.661	18.76
223.046	8.4
223.43	14.32
223.815	24.61
224.199	13.55
224.583	12.73
224.968	14.99
225.352	17.41
225.736	10.94
226.121	10.28
226.505	9.9
226.889	7.2
227.273	13.4
227.657	6.96
228.041	9.17
228.425	6.64
228.809	9.72
229.193	9.08
229.577	5.89
229.961	5.28
230.344	3.58
230.728	2.64
231.112	4.76
231.495	4.73
231.879	6.44
232.263	4.86
232.646	4.47
233.03	5.63
233.413	5.3
233.797	5.69
234.18	5.95
234.563	5.7
234.946	5.41
235.33	7.24
235.713	6.77
236.096	4.68
236.479	5.61
236.862	6.73
237.245	5.98
237.628	3.08
238.011	5.75
238.394	5.33
238.777	6.16
239.16	5.85
239.543	7.19
239.925	3.67
240.308	6
240.691	5.22
241.073	6.01
241.456	5.2
241.838	4.07
242.221	4.74
242.603	4.48
242.986	4.47
243.368	4.18
243.75	4.64
244.133	4.07
244.515	4.16
244.897	3.85
245.279	4.31
245.661	5.05
246.043	4.22
246.425	4.55
246.807	4.93
247.189	3.78
247.571	4.15
247.953	4.06
248.335	3.95
248.717	3.88
249.098	4.08
249.48	4.12
249.862	4.03
250.243	4.31
250.625	4.57
251.006	4.06
251.388	4.25
251.769	5.3
252.151	4.49
252.532	3.8
252.913	5.12
253.295	4.26
253.676	4.54
254.057	4.21
254.438	5.08
254.819	4.68
255.2	4.54
255.581	5.3
255.962	5.37
256.343	5.01
256.724	4.58
257.105	6.25
257.486	5.32
257.867	4.66
258.247	5.09
258.628	4.56
259.009	4.63
259.389	4.16
259.77	4.66
260.15	4.67
260.531	4.92
260.911	4.33
261.292	3.91
261.672	4.12
262.052	3.93
262.432	4.04
262.813	4.11
263.193	4.23
263.573	5.2
263.953	5.11
264.333	3.78
264.713	3.94
265.093	4.29
265.473	3.96
265.853	4.58
266.233	4.38
266.612	4.52
266.992	5.33
267.372	5.3
267.752	3.96
268.131	3.91
268.511	4.11
268.89	4.19
269.27	4.31
269.649	4.58
270.029	4.56
270.408	4.53
270.787	4.63
271.167	5.04
271.546	4.71
271.925	4.8
272.304	4.43
272.683	3.89
273.062	4.21
273.441	3.93
273.82	4.27
274.199	4.47
274.578	4.29
274.957	4.29
275.336	3.89
275.715	4.61
276.093	3.78
276.472	5.27
276.851	4.51
277.229	3.85
277.608	4.17
277.986	4.16
278.365	4.44
278.743	4.4
279.122	4.26
279.5	3.7
279.878	4.12
280.257	4.77
280.635	3.98
281.013	4.13
281.391	4.41
281.769	4.14
282.147	3.66
282.525	4.61
282.903	4.21
283.281	4.71
283.659	4.94
284.037	4.33
284.415	4.26
284.792	4.38
285.17	3.84
285.548	3.95
285.925	4.45
286.303	4.18
286.68	4.39
287.058	4.18
287.435	4.21
287.813	4.02
288.19	4.22
288.567	4.4
288.945	4.45
289.322	4.41
289.699	4.41
290.076	4.35
290.453	5.05
290.83	4.65
291.207	4.32
291.584	4.73
291.961	4.77
292.338	4.56
292.715	4.75
293.092	4.46
293.469	4.68
293.845	4.28
294.222	4.94
294.599	5.08
294.975	5.18
295.352	4.76
295.728	5.22
296.105	4.97
296.481	5.49
296.858	5.21
297.234	5.66
297.61	5.47
297.986	5.02
298.363	5.38
298.739	5.05
299.115	5.12
299.491	5.05
299.867	5.34
300.243	5.11
300.619	5.24
300.995	5.26
301.371	5.62
301.746	5.42
302.122	5.49
302.498	5.41
302.874	5.66
303.249	5.77
303.625	5.5
304	5.07
304.376	5.98
304.751	6
305.127	6.32
305.502	5.67
305.878	5.97
306.253	6.05
306.628	6.1
307.003	5.97
307.378	6.1
307.754	6.34
308.129	6.39
308.504	5.87
308.879	6.03
309.254	6.91
309.629	6.82
310.003	7.08
310.378	6.48
310.753	6.82
311.128	6.65
311.502	6.91
311.877	6.21
312.252	6.6
312.626	6.41
313.001	6.91
313.375	6.43
313.75	6.72
314.124	6.71
314.498	6.48
314.873	7.12
315.247	7.49
315.621	6.7
315.995	6.74
316.369	7.45
316.743	6.77
317.117	6.65
317.491	6.66
317.865	8.08
318.239	7.36
318.613	7.3
318.987	7.29
319.361	7.68
319.734	7.32
320.108	7.84
320.482	8.01
320.855	8.37
321.229	7.14
321.602	7.84
321.976	7.91
322.349	7.79
322.723	8.06
323.096	7.68
323.469	8.67
323.843	8.44
324.216	8.26
324.589	7.76
324.962	8.46
325.335	7.82
325.708	8.31
326.081	8.17
326.454	8.63
326.827	8.32
327.2	8.5
327.573	8.68
327.945	8.17
328.318	8.07
328.691	8.44
329.063	8.2
329.436	8.58
329.809	8.64
330.181	8.33
330.553	8.74
330.926	8.71
331.298	9.42
331.671	9.19
332.043	9.15
332.415	8.93
332.787	9.26
333.159	9.26
333.532	8.93
333.904	8.57
334.276	9.34
334.648	9.2
335.02	8.88
335.391	9.02
335.763	9.35
336.135	9.22
336.507	9.28
336.879	8.66
337.25	9.42
337.622	9.5
337.993	9.14
338.365	9.31
338.736	9.49
339.108	9.73
339.479	9.11
339.851	9.76
340.222	9.57
340.593	9.71
340.964	9.64
341.336	9.62
341.707	9.88
342.078	9.91
342.449	10.12
342.82	9.6
343.191	9.88
343.562	9.99
343.933	9.9
344.303	10.18
344.674	9.94
345.045	9.89
345.416	10.56
345.786	10.15
346.157	10.19
346.527	10.54
346.898	10.16
347.268	10.48
347.639	10.49
348.009	10.61
348.38	10.25
348.75	10.66
349.12	10.02
349.49	10.24
349.861	10.18
350.231	10.42
350.601	10.54
350.971	10.88
351.341	10.89
351.711	10.73
352.081	10.94
352.45	10.74
352.82	10.97
353.19	10.94
353.56	10.97
353.929	11.1
354.299	10.8
354.669	11.24
355.038	11.3
355.408	10.95
355.777	11.54
356.147	11.52
356.516	11.51
356.885	11.52
357.254	11.5
357.624	11.49
357.993	11.06
358.362	11.53
358.731	11.63
359.1	11.58
359.469	11.67
359.838	11.73
360.207	11.59
360.576	12.04
360.945	11.58
361.314	11.67
361.682	11.84
362.051	11.84
362.42	11.86
362.788	11.87
363.157	11.84
363.525	11.76
363.894	11.82
364.262	11.73
364.631	12.12
364.999	12.03
365.367	12.11
365.735	12.35
366.104	12.17
366.472	12.09
366.84	12.13
367.208	12.09
367.576	12.25
367.944	12.16
368.312	12.24
368.68	12.46
369.048	12.41
369.416	12.36
369.783	12.78
370.151	12.74
370.519	13.22
370.886	12.76
371.254	12.85
371.621	13.07
371.989	12.85
372.356	12.89
372.724	12.94
373.091	13.07
373.458	13.07
373.826	13.1
374.193	12.98
374.56	13.33
374.927	13.28
375.294	13.24
375.661	13.16
376.028	12.74
376.395	13.29
376.762	13.7
377.129	13.66
377.496	13.42
377.863	13.65
378.229	13.55
378.596	13.7
378.963	13.66
379.329	13.69
379.696	13.69
380.062	13.75
380.429	13.77
380.795	13.94
381.161	13.55
381.528	14.27
381.894	14.06
382.26	14
382.626	14.26
382.993	14.15
383.359	14.37
383.725	13.94
384.091	13.96
384.457	14.13
384.823	14.2
385.188	14.31
385.554	14.46
385.92	14.03
386.286	14.45
386.651	14.42
387.017	14.45
387.383	14.79
387.748	14.57
388.114	14.63
388.479	14.6
388.845	14.57
389.21	14.65
389.575	14.62
389.94	15.1
390.306	14.74
390.671	14.74
391.036	15.01
391.401	15.22
391.766	15.03
392.131	14.83
392.496	14.93
392.861	15.09
393.226	15.04
393.591	15.22
393.956	15.12
394.32	15.16
394.685	15.34
395.05	15
395.414	15.56
395.779	15.23
396.143	15.54
396.508	15.37
396.872	15.14
397.236	15.73
397.601	15.75
397.965	15.9
398.329	15.74
398.694	15.71
399.058	15.93
399.422	15.87
399.786	15.99
400.15	15.96
400.514	16
400.878	15.93
401.242	15.96
401.605	15.97
401.969	15.96
402.333	16.14
402.697	16.25
403.06	16.25
403.424	16.11
403.787	16.01
404.151	16.09
404.514	16.29
404.878	16.48
405.241	16.26
405.604	16.22
405.968	16.35
406.331	16.51
406.694	16.26
407.057	16.46
407.42	16.48
407.783	16.55
408.146	16.61
408.509	16.63
408.872	16.8
409.235	17.12
409.598	16.8
409.961	17.19
410.323	16.95
410.686	16.83
411.049	17.08
411.411	17.16
411.774	16.95
412.136	16.81
412.499	17.18
412.861	17.08
413.223	17.06
413.586	17.22
413.948	17.34
414.31	17.42
414.672	17.53
415.035	17.39
415.397	17.49
415.759	17.5
416.121	17.37
416.483	17.23
416.845	17.54
417.206	17.52
417.568	17.46
417.93	17.78
418.292	17.75
418.653	17.5
419.015	17.6
419.377	17.63
419.738	17.34
420.1	17.41
420.461	17.52
420.822	17.69
421.184	17.64
421.545	17.59
421.906	17.69
422.267	17.57
422.629	17.52
422.99	17.58
423.351	17.67
423.712	17.72
424.073	17.74
424.434	17.67
424.795	17.85
425.155	17.88
425.516	17.78
425.877	17.83
426.238	17.83
426.598	17.99
426.959	17.98
427.32	18.12
427.68	18.28
428.041	18.41
428.401	18.42
428.761	18.54
429.122	18.56
429.482	18.86
429.842	19
430.202	18.78
430.563	19.16
430.923	18.85
431.283	19.05
431.643	18.86
432.003	19.09
432.363	19.03
432.722	18.92
433.082	18.99
433.442	18.95
433.802	18.99
434.161	19.07
434.521	19.12
434.881	18.99
435.24	18.86
435.6	19.05
435.959	19.03
436.319	19.29
436.678	19.29
437.037	19.46
437.396	19.29
437.756	19.59
438.115	19.61
438.474	19.7
438.833	19.72
439.192	19.63
439.551	19.54
439.91	19.61
440.269	19.73
440.628	19.67
440.987	19.59
441.345	19.47
441.704	19.48
442.063	19.78
442.421	19.54
442.78	19.56
443.138	19.49
443.497	19.88
443.855	19.91
444.214	19.99
444.572	19.97
444.93	20.12
445.288	20.08
445.647	20.18
446.005	20.16
446.363	20.13
446.721	19.99
447.079	20.03
447.437	19.93
447.795	19.83
448.153	19.86
448.51	19.81
448.868	19.89
449.226	20.04
449.584	19.95
449.941	20.2
450.299	20.46
450.656	20.61
451.014	20.7
451.371	20.61
451.729	20.88
452.086	20.93
452.443	20.91
452.801	20.93
453.158	20.96
453.515	21.09
453.872	21.05
454.229	20.73
454.586	20.87
454.943	20.86
455.3	21.1
455.657	20.92
456.014	21.14
456.371	21.3
456.727	21
457.084	21.22
457.441	21.37
457.797	21.42
458.154	21.47
458.51	21.5
458.867	21.68
459.223	21.61
459.58	21.59
459.936	21.53
460.292	21.53
460.648	21.47
461.005	21.3
461.361	21.31
461.717	21.14
462.073	21.17
462.429	21.2
462.785	21.44
463.141	21.56
463.496	21.7
463.852	21.88
464.208	21.98
464.564	21.85
464.919	22
465.275	22.21
465.631	22.43
465.986	22.31
466.342	22.19
466.697	22.23
467.052	22.19
467.408	22.22
467.763	22.1
468.118	22.41
468.473	22.27
468.829	22.52
469.184	22.36
469.539	22.27
469.894	22.37
470.249	22.44
470.603	22.57
470.958	22.51
471.313	22.81
471.668	22.55
472.023	22.53
472.377	22.63
472.732	22.79
473.086	22.77
473.441	22.59
473.795	22.72
474.15	22.63
474.504	22.87
474.859	22.86
475.213	22.84
475.567	22.97
475.921	22.93
476.275	23.17
476.63	22.96
476.984	23.43
477.338	23.48
477.692	23.35
478.045	23.3
478.399	23.18
478.753	23.19
479.107	23.38
479.461	23.31
479.814	23.45
480.168	23.32
480.521	23.28
480.875	23.42
481.228	23.32
481.582	23.5
481.935	23.43
482.289	23.32
482.642	23.51
482.995	23.46
483.348	23.45
483.701	23.31
484.055	23.4
484.408	23.28
484.761	23.19
485.114	22.89
485.466	22.73
485.819	22.67
486.172	22.73
486.525	22.77
486.878	22.96
487.23	23.12
487.583	23.27
487.936	23.41
488.288	23.36
488.641	23.34
488.993	23.31
489.345	23.21
489.698	23.27
490.05	23.19
490.402	23.35
490.754	23.54
491.107	23.7
491.459	23.76
491.811	23.98
492.163	24.24
492.515	24.15
492.866	23.92
493.218	23.66
493.57	23.63
493.922	23.76
494.274	23.77
494.625	23.98
494.977	24.17
495.328	24.37
495.68	24.44
496.031	24.69
496.383	24.64
496.734	24.93
497.086	24.87
497.437	24.89
497.788	24.91
498.139	24.8
498.49	24.82
498.842	24.82
499.193	24.71
499.544	24.82
499.894	24.94
500.245	24.91
500.596	25.08
500.947	25.05
501.298	25.27
501.648	25.22
501.999	25.45
502.35	25.46
502.7	25.36
503.051	25.57
503.401	25.65
503.752	25.53
504.102	25.64
504.452	25.76
504.803	25.6
505.153	25.49
505.503	25.48
505.853	25.63
506.203	25.67
506.553	25.64
506.903	25.79
507.253	25.71
507.603	25.97
507.953	25.88
508.303	26.09
508.652	25.74
509.002	25.83
509.352	25.9
509.701	25.87
510.051	25.73
510.4	25.79
510.75	25.93
511.099	25.73
511.449	25.84
511.798	26.03
512.147	26.05
512.496	26.04
512.846	26.13
513.195	26.11
513.544	26.32
513.893	26.34
514.242	26.16
514.591	26.26
514.939	26.28
515.288	26.38
515.637	26.57
515.986	26.42
516.334	26.71
516.683	26.67
517.032	26.73
517.38	26.72
517.729	26.77
518.077	27.17
518.426	26.98
518.774	26.79
519.122	26.75
519.47	26.72
519.819	26.56
520.167	26.56
520.515	26.57
520.863	26.63
521.211	26.52
521.559	26.64
521.907	26.79
522.255	26.76
522.602	27.11
522.95	27.11
523.298	27.3
523.645	27.33
523.993	27.42
524.341	27.45
524.688	27.45
525.036	27.32
525.383	27.8
525.73	27.66
526.078	27.47
526.425	27.55
526.772	27.37
527.119	27.28
527.466	27.23
527.814	27.21
528.161	27.17
528.508	27.24
528.854	27.4
529.201	27.43
529.548	27.43
529.895	27.2
530.242	26.85
530.588	26.9
530.935	26.99
531.282	26.99
531.628	27.05
531.975	27.13
532.321	27.42
532.667	27.39
533.014	27.85
533.36	27.81
533.706	27.88
534.052	27.87
534.399	27.78
534.745	27.6
535.091	27.58
535.437	27.41
535.783	27.63
536.129	27.62
536.474	27.81
536.82	28.11
537.166	28.23
537.512	28.43
537.857	28.36
538.203	28.33
538.549	28.14
538.894	28.09
539.239	28.18
539.585	28.27
539.93	28.52
540.276	28.69
540.621	28.81
540.966	28.91
541.311	29.04
541.656	29.09
542.001	28.97
542.346	28.96
542.691	28.54
543.036	28.24
543.381	28.15
543.726	28.2
544.071	28.21
544.415	28.49
544.76	28.44
545.105	28.57
545.449	28.82
545.794	28.87
546.138	29.15
546.483	29.18
546.827	29.24
547.171	29.29
547.516	29.35
547.86	29.34
548.204	29.33
548.548	29.15
548.892	29.1
549.236	29.27
549.58	29.55
549.924	29.72
550.268	29.57
550.612	29.91
550.956	29.81
551.3	30.15
551.643	30.24
551.987	30.1
552.33	30
552.674	30.11
553.017	30.29
553.361	30.35
553.704	30.38
554.048	30.25
554.391	30.39
554.734	30.08
555.077	30.16
555.42	30.44
555.764	30.36
556.107	30.56
556.45	30.52
556.793	30.57
557.135	30.72
557.478	30.46
557.821	30.74
558.164	30.68
558.507	30.95
558.849	30.88
559.192	30.83
559.534	30.82
559.877	30.78
560.219	30.6
560.562	30.89
560.904	30.76
561.246	30.88
561.589	31.27
561.931	31.02
562.273	31.13
562.615	31.41
562.957	31.03
563.299	31.05
563.641	31.07
563.983	31.27
564.325	31.25
564.667	31.26
565.008	31.25
565.35	31.33
565.692	31.18
566.033	31.24
566.375	31.41
566.716	31.48
567.058	31.45
567.399	31.39
567.741	31.37
568.082	31.27
568.423	31.23
568.764	31.31
569.105	31.24
569.447	31.39
569.788	31.59
570.129	31.63
570.47	31.82
570.811	31.73
571.151	31.97
571.492	31.82
571.833	31.83
572.174	31.72
572.514	32.2
572.855	31.92
573.195	31.75
573.536	31.8
573.876	31.93
574.217	31.93
574.557	31.97
574.898	32.08
575.238	32.09
575.578	32.17
575.918	32.04
576.258	32.28
576.598	32.17
576.938	32.32
577.278	32.25
577.618	32.42
577.958	32.36
578.298	32.47
578.638	32.52
578.977	32.38
579.317	32.63
579.657	32.68
579.996	32.8
580.336	32.86
580.675	32.68
581.014	32.44
581.354	33.11
581.693	32.69
582.032	33.02
582.372	32.98
582.711	32.68
583.05	33.02
583.389	33.05
583.728	32.95
584.067	33.13
584.406	33.04
584.745	33.18
585.083	33.14
585.422	33.24
585.761	33.11
586.1	33.46
586.438	33.49
586.777	33.5
587.115	33.7
587.454	33.63
587.792	33.36
588.13	33.74
588.469	33.76
588.807	33.61
589.145	33.54
589.483	33.68
589.821	33.51
590.159	33.87
590.497	33.59
590.835	33.55
591.173	33.46
591.511	33.65
591.849	33.71
592.187	33.49
592.524	33.69
592.862	33.27
593.2	33.84
593.537	33.59
593.875	33.66
594.212	33.94
594.55	34.14
594.887	33.97
595.224	34.07
595.561	34.22
595.899	33.92
596.236	33.87
596.573	34.07
596.91	34.09
597.247	34.1
597.584	33.85
597.921	34.16
598.258	34.17
598.594	34.26
598.931	33.63
599.268	34.19
599.604	33.98
599.941	33.97
600.277	34.32
600.614	34.26
600.95	34.3
601.287	34.54
601.623	34.6
601.959	34.66
602.296	34.68
602.632	34.7
602.968	34.54
603.304	34.48
603.64	34.99
603.976	34.85
604.312	34.74
604.648	34.81
604.984	34.67
605.319	34.54
605.655	34.91
605.991	34.62
606.326	34.66
606.662	34.55
606.998	34.65
607.333	34.79
607.668	34.87
608.004	34.85
608.339	34.99
608.674	34.93
609.01	35.1
609.345	35.48
609.68	35.42
610.015	35.33
610.35	35.32
610.685	35.3
611.02	35.09
611.355	35.18
611.689	35.09
612.024	35.14
612.359	35.25
612.694	35.59
613.028	35.28
613.363	35.2
613.697	35.66
614.032	35.34
614.366	35.78
614.7	35.66
615.035	35.79
615.369	35.91
615.703	35.87
616.037	35.87
616.371	35.61
616.705	35.67
617.039	35.86
617.373	35.96
617.707	36.02
618.041	36.2
618.375	35.73
618.709	36.15
619.042	36
619.376	36.08
619.71	36.09
620.043	36.41
620.377	36.38
620.71	36.48
621.043	35.99
621.377	35.76
621.71	35.97
622.043	36.54
622.376	36.31
622.709	36.41
623.043	36.49
623.376	36.2
623.709	36.85
624.041	36.37
624.374	36.71
624.707	36.68
625.04	36.96
625.373	36.49
625.705	36.41
626.038	36.81
626.37	36.41
626.703	36.62
627.035	36.39
627.368	36.75
627.7	36.72
628.032	36.64
628.365	36.62
628.697	36.5
629.029	36.58
629.361	36.79
629.693	36.69
630.025	36.79
630.357	36.63
630.689	36.99
631.021	36.64
631.353	36.52
631.684	37.15
632.016	37.04
632.348	36.84
632.679	37.15
633.011	37.05
633.342	37.37
633.674	37.26
634.005	37.29
634.336	37.27
634.668	37.64
634.999	37.23
635.33	37.54
635.661	37.31
635.992	37.56
636.323	37.37
636.654	37.4
636.985	37.13
637.316	37.32
637.647	37.63
637.977	37.7
638.308	37.07
638.639	37.58
638.969	37.35
639.3	37.47
639.63	37.35
639.961	37.45
640.291	37.36
640.622	37.44
640.952	37.91
641.282	37.76
641.612	38.01
641.943	37.76
642.273	38.06
642.603	38.05
642.933	37.7
643.263	37.86
643.592	38.27
643.922	38.29
644.252	37.86
644.582	38.23
644.911	37.9
645.241	37.84
645.571	38.31
645.9	38.81
646.23	38.14
646.559	38.02
646.888	38.29
647.218	38.2
647.547	38.26
647.876	37.99
648.205	38.7
648.534	37.99
648.863	38.58
649.192	38.36
649.521	38.3
649.85	38.66
650.179	38.68
650.508	38.21
650.837	38.09
651.165	38.41
651.494	38.31
651.822	38.87
652.151	38.61
652.479	38.32
652.808	37.81
653.136	38.86
653.465	38.76
653.793	38.44
654.121	38.82
654.449	38.65
654.777	38.57
655.105	38.65
655.433	39.2
655.761	38.65
656.089	39.18
656.417	39.14
656.745	39.05
657.073	39.06
657.4	39.3
657.728	38.36
658.056	38.87
658.383	39.22
658.711	39.26
659.038	38.94
659.365	39.22
659.693	39.5
660.02	38.98
660.347	38.95
660.674	38.71
661.001	39.23
661.329	38.89
661.656	39.09
661.982	39.31
662.309	39.4
662.636	39.25
662.963	39.21
663.29	39.03
663.616	39.16
663.943	39
664.27	39.07
664.596	39.65
664.923	39.48
665.249	39.54
665.576	38.79
665.902	38.93
666.228	39.29
666.554	39.41
666.881	39.71
667.207	39.73
667.533	39.6
667.859	38.98
668.185	39.37
668.511	39.89
668.837	39.7
669.162	39.73
669.488	40.14
669.814	39.36
670.139	39.57
670.465	40.71
