Data from 0035_crown_Reflection__0__20.txt Node

Date: Fri Nov 04 14:48:54 CDT 2022
User: ToomeyLab
Spectrometer: FLMS14357
Trigger mode: 0
Integration Time (sec): 1.000000E-2
Scans to average: 100
Electric dark correction enabled: true
Nonlinearity correction enabled: false
Boxcar width: 0
XAxis mode: Wavelengths
Number of Pixels in Spectrum: 2048
>>>>>Begin Spectral Data<<<<<
189.047	126.36
189.435	126.36
189.823	126.36
190.211	32.69
190.599	90.53
190.987	377.96
191.375	-65.52
191.763	4.36
192.151	130.84
192.538	-19.72
192.926	300.14
193.314	69.09
193.702	-79.86
194.089	76.48
194.477	118.27
194.864	183.31
195.252	77.91
195.639	-171.04
196.027	3.92
196.414	-0.98
196.801	53.42
197.189	-219.43
197.576	128.86
197.963	-904.21
198.351	37.14
198.738	22.65
199.125	-14.31
199.512	-18.42
199.899	37.71
200.286	34.21
200.673	14.91
201.06	12.36
201.447	-4.65
201.833	14.21
202.22	44.07
202.607	5.18
202.994	-7.83
203.38	34.29
203.767	3.28
204.154	40.22
204.54	51.32
204.927	32.4
205.313	15.69
205.699	33.62
206.086	17.96
206.472	34.84
206.858	34.47
207.245	0.52
207.631	4.29
208.017	24.48
208.403	33.56
208.789	1.81
209.175	11.42
209.561	16.52
209.947	-1.77
210.333	43.66
210.719	-15.64
211.105	14.48
211.491	40.17
211.876	43.1
212.262	24.53
212.648	15.19
213.034	53.48
213.419	3.17
213.805	0.61
214.19	16.58
214.576	20
214.961	6.23
215.346	10.95
215.732	20.4
216.117	5.48
216.502	13.7
216.888	8.16
217.273	19.64
217.658	12.73
218.043	8.81
218.428	32.48
218.813	12.79
219.198	20.3
219.583	37.85
219.968	-3.72
220.353	-10.22
220.738	22.02
221.122	7.71
221.507	3.54
221.892	2.9
222.276	-23.07
222.661	10.8
223.046	8.99
223.43	-3.63
223.815	5.49
224.199	4.08
224.583	11.47
224.968	11.79
225.352	-2.3
225.736	10.42
226.121	13.45
226.505	5.55
226.889	8.54
227.273	1.18
227.657	7.21
228.041	6.91
228.425	5.43
228.809	5.8
229.193	5.22
229.577	3.84
229.961	4.34
230.344	3.04
230.728	3.18
231.112	4.23
231.495	4.06
231.879	5.86
232.263	4.22
232.646	4.36
233.03	5.04
233.413	4.5
233.797	5.02
234.18	3
234.563	5.56
234.946	1.57
235.33	3.75
235.713	5.36
236.096	4.23
236.479	4.81
236.862	5.07
237.245	4.44
237.628	3.8
238.011	5.87
238.394	4.32
238.777	3.47
239.16	3.52
239.543	6.8
239.925	3.72
240.308	4.39
240.691	3.78
241.073	3.85
241.456	4.57
241.838	2.97
242.221	4.21
242.603	3.99
242.986	4.45
243.368	4.41
243.75	4.45
244.133	3.56
244.515	4.24
244.897	3.96
245.279	3.92
245.661	4.12
246.043	3.62
246.425	3.95
246.807	3.72
247.189	3.84
247.571	4.12
247.953	4.06
248.335	3.62
248.717	3.74
249.098	3.66
249.48	3.63
249.862	3.7
250.243	4.01
250.625	4.07
251.006	3.44
251.388	3.21
251.769	3.2
252.151	3.3
252.532	3.29
252.913	3.63
253.295	3.79
253.676	3.34
254.057	3.78
254.438	4.31
254.819	4.24
255.2	3.99
255.581	4.27
255.962	3.85
256.343	2.76
256.724	2.65
257.105	3.96
257.486	4.08
257.867	2.97
258.247	3.74
258.628	3.39
259.009	3.94
259.389	3.56
259.77	3.85
260.15	3.61
260.531	3.79
260.911	3.24
261.292	3.23
261.672	3.43
262.052	3.45
262.432	3.41
262.813	3.64
263.193	3.78
263.573	3.6
263.953	3.83
264.333	3.1
264.713	3.49
265.093	3.75
265.473	3.23
265.853	3.11
266.233	2.7
266.612	4.35
266.992	3.94
267.372	4.15
267.752	3.13
268.131	3.13
268.511	3.4
268.89	3.33
269.27	3.3
269.649	3.72
270.029	3.54
270.408	3.7
270.787	3.53
271.167	3.58
271.546	3.96
271.925	3.13
272.304	3.42
272.683	2.97
273.062	3.03
273.441	2.67
273.82	2.91
274.199	3.39
274.578	3.22
274.957	3.63
275.336	3.06
275.715	3.28
276.093	3.04
276.472	3.89
276.851	3.41
277.229	3.12
277.608	2.7
277.986	3.09
278.365	3.1
278.743	3.1
279.122	3.23
279.5	3
279.878	3.06
280.257	3.68
280.635	3.2
281.013	2.97
281.391	3.16
281.769	3.22
282.147	3.12
282.525	3.36
282.903	3.34
283.281	2.86
283.659	3.6
284.037	3.29
284.415	2.91
284.792	3.36
285.17	2.84
285.548	3.32
285.925	3.14
286.303	3.35
286.68	3.46
287.058	3.02
287.435	2.98
287.813	2.75
288.19	3.03
288.567	3.21
288.945	3.01
289.322	2.76
289.699	3.23
290.076	2.77
290.453	3.63
290.83	2.8
291.207	2.82
291.584	2.91
291.961	3.16
292.338	3.27
292.715	3.03
293.092	2.54
293.469	3.48
293.845	3.17
294.222	2.88
294.599	2.8
294.975	3.12
295.352	2.97
295.728	3
296.105	3.12
296.481	3.52
296.858	3.09
297.234	3.06
297.61	2.77
297.986	2.8
298.363	3.02
298.739	2.77
299.115	3.1
299.491	2.83
299.867	3.23
300.243	3
300.619	2.75
300.995	3.26
301.371	2.61
301.746	2.47
302.122	2.75
302.498	2.8
302.874	2.93
303.249	2.51
303.625	2.61
304	2.72
304.376	3.13
304.751	3.26
305.127	2.83
305.502	2.72
305.878	2.21
306.253	2.61
306.628	2.93
307.003	2.48
307.378	3.05
307.754	2.91
308.129	2.87
308.504	2.36
308.879	2.74
309.254	3.24
309.629	3.09
310.003	3.28
310.378	2.88
310.753	3.11
311.128	2.49
311.502	2.94
311.877	2.59
312.252	2.56
312.626	2.57
313.001	2.98
313.375	2.57
313.75	3.05
314.124	2.98
314.498	2.58
314.873	3.26
315.247	2.84
315.621	2.42
315.995	2.89
316.369	2.67
316.743	2.83
317.117	2.8
317.491	2.57
317.865	3.27
318.239	3.14
318.613	3.05
318.987	2.98
319.361	2.78
319.734	2.67
320.108	3.1
320.482	2.63
320.855	3.3
321.229	2.69
321.602	2.94
321.976	3.31
322.349	3.22
322.723	2.76
323.096	2.72
323.469	2.84
323.843	2.89
324.216	3.31
324.589	2.68
324.962	3.22
325.335	2.66
325.708	3.17
326.081	2.75
326.454	2.9
326.827	2.5
327.2	3.33
327.573	2.49
327.945	2.51
328.318	2.56
328.691	2.82
329.063	2.66
329.436	2.68
329.809	3.15
330.181	3.19
330.553	2.81
330.926	2.63
331.298	3.13
331.671	2.77
332.043	2.94
332.415	2.63
332.787	2.62
333.159	2.88
333.532	3.19
333.904	2.82
334.276	2.41
334.648	3.3
335.02	3.06
335.391	2.69
335.763	2.63
336.135	2.98
336.507	2.98
336.879	2.2
337.25	2.89
337.622	2.96
337.993	2.99
338.365	2.53
338.736	2.87
339.108	2.77
339.479	2.84
339.851	3.34
340.222	3.34
340.593	3.04
340.964	2.77
341.336	3.31
341.707	3.36
342.078	2.7
342.449	3.35
342.82	2.8
343.191	2.96
343.562	3.25
343.933	2.9
344.303	2.89
344.674	2.59
345.045	2.77
345.416	3.11
345.786	3.09
346.157	2.79
346.527	2.9
346.898	2.68
347.268	3.02
347.639	2.85
348.009	2.74
348.38	2.48
348.75	3.09
349.12	2.59
349.49	2.68
349.861	3.08
350.231	2.83
350.601	3
350.971	2.96
351.341	2.78
351.711	3.05
352.081	2.61
352.45	2.45
352.82	2.75
353.19	2.84
353.56	2.84
353.929	2.72
354.299	3.02
354.669	2.73
355.038	2.65
355.408	2.93
355.777	3.05
356.147	3.13
356.516	2.87
356.885	3.15
357.254	3.01
357.624	2.92
357.993	2.57
358.362	3.06
358.731	2.64
359.1	2.79
359.469	2.93
359.838	3.11
360.207	3.06
360.576	2.95
360.945	2.78
361.314	3.08
361.682	2.93
362.051	2.5
362.42	2.73
362.788	2.66
363.157	2.76
363.525	2.8
363.894	2.75
364.262	2.78
364.631	2.83
364.999	3.02
365.367	2.66
365.735	3.02
366.104	3.16
366.472	2.69
366.84	3.03
367.208	2.52
367.576	2.96
367.944	2.81
368.312	2.88
368.68	2.83
369.048	3.02
369.416	2.8
369.783	2.89
370.151	3.05
370.519	3.52
370.886	2.83
371.254	2.66
371.621	3.19
371.989	3.03
372.356	2.82
372.724	3.03
373.091	3.06
373.458	3.31
373.826	3.1
374.193	2.98
374.56	3.17
374.927	3.39
375.294	3.21
375.661	2.88
376.028	2.9
376.395	2.91
376.762	3.28
377.129	3.02
377.496	3.01
377.863	2.96
378.229	3.04
378.596	2.9
378.963	3.04
379.329	2.85
379.696	2.88
380.062	3.16
380.429	3.19
380.795	3.01
381.161	2.9
381.528	3.21
381.894	3.36
382.26	2.96
382.626	2.95
382.993	3.26
383.359	3.19
383.725	3.04
384.091	3.02
384.457	3.11
384.823	3.07
385.188	2.99
385.554	2.9
385.92	2.97
386.286	3.09
386.651	3.31
387.017	2.76
387.383	3.14
387.748	3.1
388.114	3.22
388.479	2.99
388.845	3.3
389.21	3.17
389.575	2.98
389.94	2.85
390.306	3.14
390.671	2.98
391.036	2.94
391.401	3.1
391.766	2.83
392.131	3.03
392.496	2.92
392.861	3.1
393.226	3.2
393.591	3.16
393.956	2.71
394.32	3.05
394.685	3.09
395.05	2.93
395.414	3.12
395.779	2.99
396.143	3.19
396.508	3
396.872	3.19
397.236	3.39
397.601	3.15
397.965	3.45
398.329	3.15
398.694	3.1
399.058	3.31
399.422	3.2
399.786	3.25
400.15	3.22
400.514	3.33
400.878	2.94
401.242	3.36
401.605	2.99
401.969	3.15
402.333	3.2
402.697	3.11
403.06	3.14
403.424	3.08
403.787	3.11
404.151	2.99
404.514	3.32
404.878	3.15
405.241	3.18
405.604	2.89
405.968	3.05
406.331	3.13
406.694	3.13
407.057	3.05
407.42	2.98
407.783	3.09
408.146	3.14
408.509	3.1
408.872	3.24
409.235	3.21
409.598	3.19
409.961	3.28
410.323	3.27
410.686	3.07
411.049	3.33
411.411	3.13
411.774	3.09
412.136	3.05
412.499	3.26
412.861	3.3
413.223	3.26
413.586	3.1
413.948	3.38
414.31	3.3
414.672	3.28
415.035	3.22
415.397	3.32
415.759	3.29
416.121	3.12
416.483	3.05
416.845	3.17
417.206	3.33
417.568	3.36
417.93	3.28
418.292	3.24
418.653	3.17
419.015	3.33
419.377	3.2
419.738	2.99
420.1	2.88
420.461	3.18
420.822	3.02
421.184	3.22
421.545	3.08
421.906	3.09
422.267	3.08
422.629	2.98
422.99	3.13
423.351	3.06
423.712	3.18
424.073	3.14
424.434	2.99
424.795	2.98
425.155	3.09
425.516	3.13
425.877	3.2
426.238	3.02
426.598	3.17
426.959	3.09
427.32	3.19
427.68	3.18
428.041	3.22
428.401	3.2
428.761	3.33
429.122	3.06
429.482	3.29
429.842	3.32
430.202	3.17
430.563	3.4
430.923	3.18
431.283	3.41
431.643	3.14
432.003	3.26
432.363	3.41
432.722	3.19
433.082	3.38
433.442	3.16
433.802	3.12
434.161	3.32
434.521	3.28
434.881	3.25
435.24	3.28
435.6	3.19
435.959	3.1
436.319	3.3
436.678	3.31
437.037	3.21
437.396	3.27
437.756	3.28
438.115	3.39
438.474	3.19
438.833	3.26
439.192	3.31
439.551	3.17
439.91	3.07
440.269	3.49
440.628	3.14
440.987	3.2
441.345	3.04
441.704	3.33
442.063	3.21
442.421	3.17
442.78	3.09
443.138	3.16
443.497	3.32
443.855	3.44
444.214	3.32
444.572	3.25
444.93	3.28
445.288	3.29
445.647	3.14
446.005	3.3
446.363	3.26
446.721	3.08
447.079	3.16
447.437	3.19
447.795	3.09
448.153	3.21
448.51	3.18
448.868	3.17
449.226	3.15
449.584	3.16
449.941	3.11
450.299	3.28
450.656	3.37
451.014	3.16
451.371	3.39
451.729	3.44
452.086	3.38
452.443	3.32
452.801	3.44
453.158	3.36
453.515	3.4
453.872	3.37
454.229	3.19
454.586	3.25
454.943	3.28
455.3	3.32
455.657	3.2
456.014	3.31
456.371	3.38
456.727	3.36
457.084	3.31
457.441	3.38
457.797	3.4
458.154	3.28
458.51	3.46
458.867	3.28
459.223	3.34
459.58	3.3
459.936	3.27
460.292	3.34
460.648	3.33
461.005	3.24
461.361	3.32
461.717	3.22
462.073	3.26
462.429	3.11
462.785	3.29
463.141	3.27
463.496	3.36
463.852	3.26
464.208	3.31
464.564	3.47
464.919	3.28
465.275	3.26
465.631	3.55
465.986	3.31
466.342	3.41
466.697	3.32
467.052	3.23
467.408	3.22
467.763	3.26
468.118	3.39
468.473	3.49
468.829	3.53
469.184	3.36
469.539	3.42
469.894	3.41
470.249	3.5
470.603	3.58
470.958	3.47
471.313	3.5
471.668	3.48
472.023	3.33
472.377	3.44
472.732	3.35
473.086	3.39
473.441	3.45
473.795	3.34
474.15	3.44
474.504	3.51
474.859	3.42
475.213	3.28
475.567	3.39
475.921	3.4
476.275	3.41
476.63	3.36
476.984	3.5
477.338	3.54
477.692	3.42
478.045	3.33
478.399	3.31
478.753	3.41
479.107	3.46
479.461	3.47
479.814	3.45
480.168	3.42
480.521	3.35
480.875	3.41
481.228	3.25
481.582	3.47
481.935	3.44
482.289	3.46
482.642	3.49
482.995	3.4
483.348	3.4
483.701	3.27
484.055	3.33
484.408	3.37
484.761	3.21
485.114	3.21
485.466	3.11
485.819	3.05
486.172	3.09
486.525	3.14
486.878	3.22
487.23	3.26
487.583	3.32
487.936	3.34
488.288	3.25
488.641	3.2
488.993	3.17
489.345	3.2
489.698	3.18
490.05	3.16
490.402	3.23
490.754	3.28
491.107	3.27
491.459	3.31
491.811	3.4
492.163	3.41
492.515	3.33
492.866	3.34
493.218	3.22
493.57	3.14
493.922	3.2
494.274	3.29
494.625	3.37
494.977	3.39
495.328	3.37
495.68	3.4
496.031	3.5
496.383	3.41
496.734	3.46
497.086	3.43
497.437	3.55
497.788	3.44
498.139	3.37
498.49	3.44
498.842	3.33
499.193	3.33
499.544	3.41
499.894	3.44
500.245	3.45
500.596	3.39
500.947	3.46
501.298	3.41
501.648	3.49
501.999	3.56
502.35	3.45
502.7	3.43
503.051	3.45
503.401	3.51
503.752	3.54
504.102	3.4
504.452	3.43
504.803	3.39
505.153	3.47
505.503	3.49
505.853	3.35
506.203	3.38
506.553	3.49
506.903	3.47
507.253	3.5
507.603	3.56
507.953	3.57
508.303	3.53
508.652	3.37
509.002	3.47
509.352	3.5
509.701	3.31
510.051	3.4
510.4	3.34
510.75	3.36
511.099	3.38
511.449	3.23
511.798	3.26
512.147	3.4
512.496	3.4
512.846	3.5
513.195	3.35
513.544	3.37
513.893	3.5
514.242	3.47
514.591	3.42
514.939	3.52
515.288	3.4
515.637	3.43
515.986	3.42
516.334	3.56
516.683	3.45
517.032	3.47
517.38	3.5
517.729	3.57
518.077	3.6
518.426	3.61
518.774	3.59
519.122	3.38
519.47	3.44
519.819	3.44
520.167	3.37
520.515	3.29
520.863	3.39
521.211	3.39
521.559	3.34
521.907	3.4
522.255	3.33
522.602	3.47
522.95	3.36
523.298	3.48
523.645	3.51
523.993	3.5
524.341	3.47
524.688	3.52
525.036	3.44
525.383	3.53
525.73	3.32
526.078	3.51
526.425	3.27
526.772	3.35
527.119	3.32
527.466	3.34
527.814	3.23
528.161	3.35
528.508	3.39
528.854	3.44
529.201	3.53
529.548	3.31
529.895	3.28
530.242	3.14
530.588	3.14
530.935	3.24
531.282	3.24
531.628	3.32
531.975	3.26
532.321	3.4
532.667	3.38
533.014	3.46
533.36	3.41
533.706	3.37
534.052	3.37
534.399	3.36
534.745	3.32
535.091	3.21
535.437	3.22
535.783	3.26
536.129	3.29
536.474	3.41
536.82	3.35
537.166	3.46
537.512	3.46
537.857	3.49
538.203	3.41
538.549	3.31
538.894	3.35
539.239	3.3
539.585	3.47
539.93	3.44
540.276	3.48
540.621	3.48
540.966	3.5
541.311	3.39
541.656	3.48
542.001	3.42
542.346	3.44
542.691	3.33
543.036	3.26
543.381	3.21
543.726	3.28
544.071	3.26
544.415	3.43
544.76	3.35
545.105	3.37
545.449	3.37
545.794	3.34
546.138	3.42
546.483	3.52
546.827	3.51
547.171	3.44
547.516	3.51
547.86	3.5
548.204	3.41
548.548	3.37
548.892	3.39
549.236	3.36
549.58	3.36
549.924	3.44
550.268	3.45
550.612	3.51
550.956	3.45
551.3	3.51
551.643	3.58
551.987	3.65
552.33	3.47
552.674	3.54
553.017	3.55
553.361	3.46
553.704	3.57
554.048	3.47
554.391	3.41
554.734	3.37
555.077	3.43
555.42	3.41
555.764	3.63
556.107	3.53
556.45	3.54
556.793	3.45
557.135	3.66
557.478	3.51
557.821	3.66
558.164	3.43
558.507	3.61
558.849	3.55
559.192	3.5
559.534	3.63
559.877	3.55
560.219	3.46
560.562	3.53
560.904	3.36
561.246	3.47
561.589	3.65
561.931	3.49
562.273	3.53
562.615	3.74
562.957	3.45
563.299	3.47
563.641	3.38
563.983	3.4
564.325	3.5
564.667	3.39
565.008	3.48
565.35	3.59
565.692	3.51
566.033	3.49
566.375	3.39
566.716	3.73
567.058	3.51
567.399	3.43
567.741	3.34
568.082	3.39
568.423	3.5
568.764	3.52
569.105	3.58
569.447	3.63
569.788	3.54
570.129	3.44
570.47	3.65
570.811	3.34
571.151	3.48
571.492	3.55
571.833	3.61
572.174	3.37
572.514	3.68
572.855	3.31
573.195	3.35
573.536	3.45
573.876	3.42
574.217	3.34
574.557	3.57
574.898	3.45
575.238	3.46
575.578	3.5
575.918	3.38
576.258	3.54
576.598	3.49
576.938	3.45
577.278	3.46
577.618	3.48
577.958	3.4
578.298	3.61
578.638	3.77
578.977	3.32
579.317	3.46
579.657	3.59
579.996	3.43
580.336	3.51
580.675	3.53
581.014	3.29
581.354	3.57
581.693	3.46
582.032	3.49
582.372	3.52
582.711	3.28
583.05	3.38
583.389	3.71
583.728	3.57
584.067	3.47
584.406	3.35
584.745	3.62
585.083	3.5
585.422	3.66
585.761	3.4
586.1	3.78
586.438	3.68
586.777	3.46
587.115	3.71
587.454	3.77
587.792	3.58
588.13	3.78
588.469	3.61
588.807	3.5
589.145	3.62
589.483	3.7
589.821	3.54
590.159	3.64
590.497	3.6
590.835	3.51
591.173	3.55
591.511	3.26
591.849	3.54
592.187	3.46
592.524	3.58
592.862	3.21
593.2	3.61
593.537	3.63
593.875	3.65
594.212	3.6
594.55	3.49
594.887	3.49
595.224	3.93
595.561	3.65
595.899	3.22
596.236	3.34
596.573	3.53
596.91	3.54
597.247	3.75
597.584	3.58
597.921	3.38
598.258	3.64
598.594	3.56
598.931	3.55
599.268	3.49
599.604	3.58
599.941	3.61
600.277	3.43
600.614	3.4
600.95	3.49
601.287	3.72
601.623	3.47
601.959	3.7
602.296	3.71
602.632	3.61
602.968	3.63
603.304	3.65
603.64	3.66
603.976	3.66
604.312	3.6
604.648	3.47
604.984	3.78
605.319	3.48
605.655	3.51
605.991	3.48
606.326	3.55
606.662	3.42
606.998	3.38
607.333	3.57
607.668	3.52
608.004	3.53
608.339	3.45
608.674	3.42
609.01	3.75
609.345	3.64
609.68	3.66
610.015	3.86
610.35	3.49
610.685	3.47
611.02	3.71
611.355	3.67
611.689	3.61
612.024	3.55
612.359	3.83
612.694	3.43
613.028	3.49
613.363	3.65
613.697	3.68
614.032	3.69
614.366	3.53
614.7	3.81
615.035	3.79
615.369	3.83
615.703	3.56
616.037	3.56
616.371	3.67
616.705	3.57
617.039	3.66
617.373	4.01
617.707	3.7
618.041	3.65
618.375	3.57
618.709	4.05
619.042	3.62
619.376	3.59
619.71	3.57
620.043	3.8
620.377	4.05
620.71	3.91
621.043	3.56
621.377	3.59
621.71	3.53
622.043	3.88
622.376	3.73
622.709	3.89
623.043	3.73
623.376	3.39
623.709	3.87
624.041	3.78
624.374	3.75
624.707	3.27
625.04	4.05
625.373	3.47
625.705	3.69
626.038	3.99
626.37	3.92
626.703	3.52
627.035	3.52
627.368	3.38
627.7	3.66
628.032	3.87
628.365	3.73
628.697	3.64
629.029	3.48
629.361	3.53
629.693	3.55
630.025	3.72
630.357	3.59
630.689	3.7
631.021	3.76
631.353	3.47
631.684	4.01
632.016	3.4
632.348	3.67
632.679	3.69
633.011	3.81
633.342	3.87
633.674	4
634.005	3.91
634.336	3.79
634.668	3.94
634.999	3.82
635.33	3.61
635.661	3.33
635.992	3.74
636.323	3.82
636.654	3.88
636.985	3.77
637.316	3.63
637.647	3.83
637.977	3.66
638.308	4.04
638.639	4.23
638.969	3.45
639.3	3.56
639.63	3.72
639.961	3.72
640.291	3.36
640.622	3.75
640.952	3.46
641.282	3.79
641.612	3.78
641.943	3.77
642.273	3.65
642.603	3.91
642.933	3.6
643.263	3.74
643.592	4.3
643.922	3.81
644.252	3.59
644.582	3.74
644.911	3.86
645.241	4.01
645.571	3.73
645.9	4.18
646.23	3.24
646.559	3.8
646.888	3.7
647.218	3.85
647.547	3.58
647.876	3.71
648.205	3.6
648.534	4.22
648.863	3.84
649.192	3.58
649.521	3.55
649.85	3.8
650.179	3.78
650.508	3.89
650.837	3.76
651.165	3.42
651.494	4.16
651.822	3.92
652.151	3.7
652.479	3.43
652.808	3.43
653.136	3.51
653.465	3.96
653.793	4.03
654.121	3.98
654.449	3.94
654.777	3.93
655.105	4.15
655.433	3.9
655.761	3.73
656.089	4.36
656.417	3.23
656.745	3.4
657.073	3.8
657.4	3.88
657.728	4.29
658.056	4.25
658.383	3.89
658.711	3.93
659.038	3.85
659.365	3.38
659.693	3.81
660.02	3.97
660.347	3.99
660.674	3.77
661.001	3.82
661.329	3.96
661.656	4.29
661.982	4.27
662.309	4.06
662.636	3.92
662.963	3.89
663.29	3.49
663.616	3.45
663.943	4.08
664.27	3.92
664.596	3.76
664.923	4.01
665.249	4.19
665.576	4.06
665.902	3.35
666.228	4.11
666.554	4.66
666.881	4.19
667.207	3.83
667.533	3.72
667.859	4.49
668.185	4.37
668.511	3.84
668.837	4.23
669.162	4.44
669.488	4.05
669.814	4.17
670.139	4.18
670.465	4.38
670.791	3.48
671.116	4.39
671.442	3.83
671.767	4.25
672.092	4.38
672.418	4.55
672.743	4.16
673.068	4.08
673.393	3.59
673.718	3.96
674.043	3.89
674.368	4.16
674.693	4.11
675.018	4.59
675.343	3.61
675.667	3.57
675.992	4.12
676.317	4.47
676.641	4.31
676.966	3.85
677.29	4.03
677.615	4.2
677.939	4.25
678.264	3.59
678.588	3.94
678.912	3.59
679.236	4.2
679.56	4.26
679.885	3.75
680.209	3.92
680.532	4.11
680.856	4.45
681.18	3.74
681.504	3.91
681.828	4.23
682.152	4.21
682.475	4.23
682.799	4.36
683.122	4.22
683.446	4.04
683.769	4.72
684.093	3.97
684.416	4.24
684.739	3.96
685.062	4.82
685.386	4.37
685.709	4.38
686.032	4.08
686.355	4.14
686.678	3.89
687.001	4.1
687.324	3.92
687.646	3.88
687.969	4.01
688.292	3.88
688.614	4.48
688.937	3.78
689.26	4.24
689.582	4.63
689.904	3.74
690.227	4.19
690.549	3.83
690.871	3.97
691.194	3.61
691.516	4.36
691.838	4.4
692.16	4.38
692.482	4.47
692.804	4.31
693.126	4.03
