Data from 0035_forehead_Reflection__4__29.txt Node

Date: Fri Nov 04 14:51:09 CDT 2022
User: ToomeyLab
Spectrometer: FLMS14357
Trigger mode: 0
Integration Time (sec): 1.000000E-2
Scans to average: 100
Electric dark correction enabled: true
Nonlinearity correction enabled: false
Boxcar width: 0
XAxis mode: Wavelengths
Number of Pixels in Spectrum: 2048
>>>>>Begin Spectral Data<<<<<
189.047	83.64
189.435	83.64
189.823	83.64
190.211	317.52
190.599	139.85
190.987	916.67
191.375	-22.91
191.763	82.29
192.151	186.04
192.538	78.6
192.926	371.01
193.314	164.91
193.702	-6.86
194.089	245.14
194.477	147.75
194.864	115.19
195.252	34.43
195.639	-47.55
196.027	-39.21
196.414	-157.86
196.801	260.09
197.189	359.55
197.576	84.04
197.963	-505.14
198.351	4.05
198.738	47.51
199.125	-42.24
199.512	-13.74
199.899	30.4
200.286	41.75
200.673	25.61
201.06	17.55
201.447	56.1
201.833	26.09
202.22	37.87
202.607	18.79
202.994	23.71
203.38	52.85
203.767	44.01
204.154	67.08
204.54	71.03
204.927	15.73
205.313	15.88
205.699	65.91
206.086	12.27
206.472	48.16
206.858	46.06
207.245	30.99
207.631	5.62
208.017	30.4
208.403	35.61
208.789	27.4
209.175	17.32
209.561	-16.56
209.947	23.18
210.333	50.23
210.719	-4.38
211.105	0.29
211.491	34.93
211.876	37.91
212.262	20.8
212.648	35.03
213.034	28.43
213.419	26.14
213.805	11.55
214.19	36.12
214.576	10.55
214.961	12.81
215.346	23.98
215.732	-5.58
216.117	-0.52
216.502	19.07
216.888	10.25
217.273	6.23
217.658	22.45
218.043	10.92
218.428	26.31
218.813	3.13
219.198	-11.04
219.583	24.24
219.968	17.7
220.353	10.48
220.738	10.96
221.122	7.74
221.507	12.36
221.892	4.37
222.276	1.29
222.661	20.64
223.046	11.41
223.43	6.92
223.815	8.86
224.199	10.07
224.583	7.13
224.968	0.25
225.352	3.61
225.736	12.55
226.121	7.51
226.505	8.4
226.889	0.88
227.273	0.97
227.657	-0.03
228.041	10.85
228.425	7.39
228.809	5.63
229.193	5.94
229.577	2.53
229.961	4.48
230.344	2.81
230.728	3.12
231.112	3.86
231.495	3.87
231.879	5.78
232.263	3.86
232.646	4.17
233.03	5.41
233.413	4.97
233.797	5.15
234.18	3.87
234.563	4.97
234.946	3.87
235.33	5.64
235.713	4.81
236.096	3.4
236.479	4.25
236.862	3.3
237.245	3.81
237.628	2.06
238.011	4.81
238.394	5.38
238.777	3.85
239.16	5.45
239.543	6.66
239.925	5.02
240.308	4.99
240.691	4.46
241.073	4.23
241.456	4.51
241.838	4.03
242.221	4.51
242.603	4.3
242.986	3.98
243.368	4.43
243.75	4.62
244.133	4.28
244.515	4.38
244.897	3.87
245.279	4.49
245.661	4.74
246.043	4.2
246.425	3.99
246.807	5.33
247.189	4.74
247.571	4.7
247.953	4.51
248.335	4.49
248.717	4.22
249.098	4.55
249.48	4.5
249.862	4.43
250.243	5.05
250.625	5.14
251.006	4.78
251.388	4.54
251.769	4.6
252.151	4.59
252.532	5.54
252.913	4.72
253.295	5.14
253.676	4.43
254.057	4.55
254.438	4.81
254.819	4.48
255.2	5.07
255.581	5.29
255.962	4.74
256.343	5.77
256.724	4.52
257.105	6.23
257.486	5.41
257.867	4.32
258.247	4.82
258.628	5.21
259.009	4.4
259.389	4.34
259.77	4.51
260.15	5.2
260.531	4.95
260.911	4.37
261.292	4.22
261.672	4.33
262.052	4.41
262.432	4.47
262.813	4.83
263.193	4.57
263.573	4.38
263.953	4.39
264.333	4.2
264.713	4.28
265.093	4.56
265.473	4.65
265.853	5.01
266.233	4.84
266.612	4.55
266.992	4.8
267.372	4.27
267.752	4.36
268.131	4.12
268.511	4.33
268.89	4.5
269.27	4.3
269.649	4.3
270.029	4.48
270.408	5.09
270.787	4.71
271.167	4.42
271.546	4.36
271.925	4.47
272.304	3.59
272.683	3.96
273.062	4.56
273.441	4.23
273.82	3.98
274.199	4.54
274.578	4.07
274.957	4.46
275.336	3.84
275.715	4.19
276.093	4.4
276.472	4.65
276.851	4.56
277.229	3.78
277.608	4.17
277.986	4.11
278.365	4.03
278.743	3.68
279.122	4.28
279.5	4.03
279.878	4.36
280.257	4.55
280.635	3.92
281.013	4.09
281.391	4.27
281.769	4.05
282.147	3.73
282.525	4.68
282.903	4.12
283.281	4.37
283.659	4.71
284.037	4.35
284.415	4.29
284.792	4.77
285.17	4.06
285.548	4.25
285.925	4.48
286.303	4.08
286.68	4.63
287.058	4.25
287.435	4.18
287.813	4.34
288.19	4.61
288.567	4.7
288.945	4.31
289.322	4.29
289.699	4.56
290.076	4.77
290.453	5.18
290.83	4.62
291.207	4.45
291.584	4.61
291.961	4.69
292.338	5.14
292.715	5.14
293.092	4.47
293.469	5.42
293.845	5.15
294.222	5.44
294.599	5.7
294.975	5.56
295.352	5.74
295.728	5.54
296.105	5.84
296.481	5.86
296.858	5.49
297.234	6.24
297.61	5.96
297.986	5.98
298.363	5.83
298.739	5.91
299.115	5.93
299.491	5.65
299.867	6.43
300.243	6.37
300.619	6.1
300.995	6.13
301.371	6.05
301.746	6.01
302.122	6.36
302.498	6.53
302.874	6.77
303.249	6.75
303.625	6.79
304	6.43
304.376	7.1
304.751	6.94
305.127	7.14
305.502	6.46
305.878	6.33
306.253	6.49
306.628	7.52
307.003	6.69
307.378	6.8
307.754	7.14
308.129	6.38
308.504	6.94
308.879	6.99
309.254	7.58
309.629	7.24
310.003	7.33
310.378	7.18
310.753	8.07
311.128	7.1
311.502	7.61
311.877	7.56
312.252	7.51
312.626	7.29
313.001	7.46
313.375	7.22
313.75	7.48
314.124	7.6
314.498	7.39
314.873	7.87
315.247	8.27
315.621	7.48
315.995	8.05
316.369	7.95
316.743	7.84
317.117	8.11
317.491	7.46
317.865	8.52
318.239	8.18
318.613	8.37
318.987	8.19
319.361	8.51
319.734	8.37
320.108	8.49
320.482	8.75
320.855	8.67
321.229	8.1
321.602	8.59
321.976	8.86
322.349	8.45
322.723	8.55
323.096	8.44
323.469	9.11
323.843	8.72
324.216	8.33
324.589	8.25
324.962	9.41
325.335	8.47
325.708	9.02
326.081	9.14
326.454	9.47
326.827	8.9
327.2	8.95
327.573	8.87
327.945	9.34
328.318	9.05
328.691	8.92
329.063	8.9
329.436	8.86
329.809	8.88
330.181	9.38
330.553	8.96
330.926	8.98
331.298	9.5
331.671	9.63
332.043	8.78
332.415	8.66
332.787	8.71
333.159	9.2
333.532	9.64
333.904	8.91
334.276	9.41
334.648	9.37
335.02	8.98
335.391	9.32
335.763	8.97
336.135	10.08
336.507	9.93
336.879	9.46
337.25	9.56
337.622	9.74
337.993	9.64
338.365	9.24
338.736	9.63
339.108	9.73
339.479	9.33
339.851	9.73
340.222	10.11
340.593	9.91
340.964	9.82
341.336	10.24
341.707	10.02
342.078	9.81
342.449	10.22
342.82	9.77
343.191	9.89
343.562	10.39
343.933	10.12
344.303	10.35
344.674	9.62
345.045	10.06
345.416	10.64
345.786	10.15
346.157	9.9
346.527	10.14
346.898	10.19
347.268	10.3
347.639	10.26
348.009	10.18
348.38	9.54
348.75	10.51
349.12	10.22
349.49	10.11
349.861	10.19
350.231	10.1
350.601	10.7
350.971	10.82
351.341	10.37
351.711	10.3
352.081	10.21
352.45	10.45
352.82	10.5
353.19	10.51
353.56	10.6
353.929	10.32
354.299	10.92
354.669	10.7
355.038	10.7
355.408	10.43
355.777	10.66
356.147	10.79
356.516	10.88
356.885	11.13
357.254	10.63
357.624	10.46
357.993	10.54
358.362	10.76
358.731	11.04
359.1	10.87
359.469	11.05
359.838	10.97
360.207	10.6
360.576	10.84
360.945	10.53
361.314	11.06
361.682	10.87
362.051	10.76
362.42	11.01
362.788	10.91
363.157	11
363.525	10.89
363.894	10.67
364.262	10.84
364.631	10.96
364.999	11.18
365.367	10.77
365.735	11.35
366.104	11.36
366.472	11.16
366.84	11.12
367.208	10.88
367.576	11.23
367.944	10.91
368.312	11.39
368.68	11.18
369.048	10.88
369.416	11.36
369.783	11.21
370.151	11.79
370.519	11.73
370.886	11.35
371.254	11.09
371.621	11.25
371.989	11.26
372.356	11.43
372.724	11.73
373.091	11.34
373.458	11.58
373.826	11.47
374.193	11.69
374.56	11.77
374.927	11.56
375.294	11.66
375.661	11.45
376.028	11.62
376.395	11.46
376.762	11.98
377.129	11.87
377.496	11.85
377.863	11.75
378.229	11.9
378.596	11.66
378.963	11.74
379.329	11.71
379.696	11.84
380.062	11.89
380.429	12.12
380.795	12.03
381.161	12.1
381.528	12.17
381.894	12.59
382.26	12.07
382.626	12.11
382.993	12.02
383.359	12.17
383.725	12.22
384.091	12.11
384.457	12.13
384.823	12.3
385.188	11.99
385.554	12.13
385.92	12.2
386.286	12.09
386.651	12.33
387.017	12.29
387.383	12.44
387.748	12.2
388.114	12.4
388.479	12.04
388.845	12.32
389.21	12.34
389.575	12.46
389.94	12.51
390.306	12.39
390.671	12.39
391.036	12.35
391.401	12.44
391.766	12.46
392.131	12.19
392.496	12.4
392.861	12.63
393.226	12.59
393.591	12.63
393.956	12.34
394.32	12.43
394.685	12.66
395.05	12.48
395.414	12.72
395.779	12.5
396.143	12.78
396.508	12.77
396.872	12.72
397.236	12.79
397.601	13.05
397.965	13.14
398.329	12.9
398.694	12.93
399.058	12.84
399.422	13.01
399.786	12.94
400.15	13.32
400.514	13.08
400.878	13.14
401.242	13.07
401.605	12.69
401.969	13.15
402.333	13.31
402.697	12.91
403.06	13.18
403.424	13.05
403.787	13.17
404.151	13.26
404.514	13.32
404.878	13.22
405.241	13.15
405.604	13.06
405.968	13.17
406.331	13.12
406.694	13.22
407.057	13.19
407.42	13.19
407.783	13.34
408.146	13.32
408.509	13.38
408.872	13.41
409.235	13.56
409.598	13.55
409.961	13.67
410.323	13.44
410.686	13.34
411.049	13.54
411.411	13.56
411.774	13.22
412.136	13.47
412.499	13.49
412.861	13.86
413.223	13.67
413.586	13.83
413.948	13.85
414.31	13.52
414.672	13.63
415.035	13.54
415.397	13.86
415.759	13.71
416.121	13.6
416.483	13.54
416.845	13.63
417.206	14
417.568	13.73
417.93	13.64
418.292	13.75
418.653	13.75
419.015	13.95
419.377	13.75
419.738	13.55
420.1	13.54
420.461	13.75
420.822	13.56
421.184	13.92
421.545	13.92
421.906	13.84
422.267	13.77
422.629	13.62
422.99	13.55
423.351	13.75
423.712	13.71
424.073	13.89
424.434	13.81
424.795	13.82
425.155	13.94
425.516	13.88
425.877	13.86
426.238	13.75
426.598	13.88
426.959	13.85
427.32	13.98
427.68	14.05
428.041	14.16
428.401	14.3
428.761	14.44
429.122	14.53
429.482	14.38
429.842	14.66
430.202	14.49
430.563	14.72
430.923	14.37
431.283	14.74
431.643	14.3
432.003	14.53
432.363	14.74
432.722	14.42
433.082	14.66
433.442	14.43
433.802	14.46
434.161	14.64
434.521	14.58
434.881	14.56
435.24	14.36
435.6	14.6
435.959	14.59
436.319	14.65
436.678	14.7
437.037	14.79
437.396	14.73
437.756	15.05
438.115	14.98
438.474	14.81
438.833	14.75
439.192	14.7
439.551	14.72
439.91	14.83
440.269	14.72
440.628	14.85
440.987	14.76
441.345	14.69
441.704	14.76
442.063	14.71
442.421	14.8
442.78	14.66
443.138	14.65
443.497	14.85
443.855	14.99
444.214	15.15
444.572	14.94
444.93	15.15
445.288	15.14
445.647	15.13
446.005	15.22
446.363	14.94
446.721	14.93
447.079	14.94
447.437	14.83
447.795	14.61
448.153	14.81
448.51	14.78
448.868	14.7
449.226	14.86
449.584	14.91
449.941	15.02
450.299	15.11
450.656	15.26
451.014	15.24
451.371	15.36
451.729	15.47
452.086	15.48
452.443	15.57
452.801	15.53
453.158	15.62
453.515	15.45
453.872	15.38
454.229	15.36
454.586	15.38
454.943	15.43
455.3	15.54
455.657	15.45
456.014	15.45
456.371	15.7
456.727	15.47
457.084	15.66
457.441	15.74
457.797	15.7
458.154	15.62
458.51	15.85
458.867	15.78
459.223	15.8
459.58	15.82
459.936	15.88
460.292	15.63
460.648	15.81
461.005	15.57
461.361	15.43
461.717	15.33
462.073	15.48
462.429	15.48
462.785	15.67
463.141	15.68
463.496	15.86
463.852	15.94
464.208	16
464.564	15.86
464.919	15.92
465.275	16.14
465.631	16.1
465.986	16
466.342	16.18
466.697	16.08
467.052	15.98
467.408	16.06
467.763	16.02
468.118	16.15
468.473	16.18
468.829	16.21
469.184	16.14
469.539	16.11
469.894	16.4
470.249	16.27
470.603	16.42
470.958	16.21
471.313	16.38
471.668	16.23
472.023	16.44
472.377	16.28
472.732	16.25
473.086	16.45
473.441	16.33
473.795	16.47
474.15	16.45
474.504	16.41
474.859	16.28
475.213	16.38
475.567	16.63
475.921	16.45
476.275	16.65
476.63	16.42
476.984	16.9
477.338	16.9
477.692	16.58
478.045	16.57
478.399	16.55
478.753	16.5
479.107	16.72
479.461	16.53
479.814	16.63
480.168	16.58
480.521	16.61
480.875	16.73
481.228	16.71
481.582	16.91
481.935	16.77
482.289	16.74
482.642	16.77
482.995	16.75
483.348	16.64
483.701	16.56
484.055	16.68
484.408	16.45
484.761	16.44
485.114	16.1
485.466	15.87
485.819	15.79
486.172	15.92
486.525	16.13
486.878	16.29
487.23	16.5
487.583	16.54
487.936	16.63
488.288	16.57
488.641	16.43
488.993	16.26
489.345	16.25
489.698	16.21
490.05	16.24
490.402	16.45
490.754	16.62
491.107	16.8
491.459	16.88
491.811	17.12
492.163	17.12
492.515	16.99
492.866	16.89
493.218	16.59
493.57	16.35
493.922	16.44
494.274	16.69
494.625	17.02
494.977	17.13
495.328	17.18
495.68	17.17
496.031	17.38
496.383	17.32
496.734	17.49
497.086	17.41
497.437	17.55
497.788	17.55
498.139	17.4
498.49	17.37
498.842	17.24
499.193	17.39
499.544	17.36
499.894	17.37
500.245	17.52
500.596	17.47
500.947	17.48
501.298	17.57
501.648	17.73
501.999	17.75
502.35	17.86
502.7	17.73
503.051	17.84
503.401	17.89
503.752	17.99
504.102	17.85
504.452	17.91
504.803	17.77
505.153	17.81
505.503	17.86
505.853	17.78
506.203	17.71
506.553	17.93
506.903	17.78
507.253	17.88
507.603	18.14
507.953	18.16
508.303	18.09
508.652	18.1
509.002	17.98
509.352	18.09
509.701	17.98
510.051	17.92
510.4	17.84
510.75	17.94
511.099	17.72
511.449	17.88
511.798	17.85
512.147	17.98
512.496	18.03
512.846	18.19
513.195	18.06
513.544	18.2
513.893	18.21
514.242	18.13
514.591	18.16
514.939	18.17
515.288	18.25
515.637	18.33
515.986	18.37
516.334	18.46
516.683	18.4
517.032	18.62
517.38	18.42
517.729	18.42
518.077	18.5
518.426	18.66
518.774	18.43
519.122	18.25
519.47	18.3
519.819	18.25
520.167	18.31
520.515	18.23
520.863	18.15
521.211	18.37
521.559	18.46
521.907	18.49
522.255	18.51
522.602	18.64
522.95	18.71
523.298	18.83
523.645	18.84
523.993	18.85
524.341	18.95
524.688	18.9
525.036	18.79
525.383	19.02
525.73	18.82
526.078	18.95
526.425	18.85
526.772	18.69
527.119	18.49
527.466	18.52
527.814	18.47
528.161	18.58
528.508	18.7
528.854	18.74
529.201	18.78
529.548	18.77
529.895	18.49
530.242	18.07
530.588	18.06
530.935	18.22
531.282	18.41
531.628	18.52
531.975	18.58
532.321	18.78
532.667	18.82
533.014	19
533.36	19.08
533.706	19.08
534.052	19.03
534.399	18.81
534.745	18.83
535.091	18.55
535.437	18.54
535.783	18.78
536.129	18.91
536.474	19.16
536.82	19.28
537.166	19.4
537.512	19.46
537.857	19.36
538.203	19.28
538.549	19.05
538.894	19.06
539.239	19.17
539.585	19.4
539.93	19.58
540.276	19.58
540.621	19.71
540.966	19.86
541.311	19.66
541.656	19.7
542.001	19.54
542.346	19.58
542.691	19.18
543.036	18.96
543.381	18.88
543.726	18.91
544.071	19.12
544.415	19.35
544.76	19.39
545.105	19.49
545.449	19.43
545.794	19.67
546.138	19.82
546.483	19.87
546.827	19.87
547.171	19.86
547.516	19.87
547.86	19.8
548.204	19.83
548.548	19.75
548.892	19.76
549.236	19.74
549.58	19.88
549.924	20.09
550.268	20.2
550.612	20.4
550.956	20.21
551.3	20.41
551.643	20.56
551.987	20.62
552.33	20.47
552.674	20.26
553.017	20.47
553.361	20.49
553.704	20.55
554.048	20.54
554.391	20.39
554.734	20.31
555.077	20.28
555.42	20.49
555.764	20.45
556.107	20.65
556.45	20.69
556.793	20.79
557.135	20.97
557.478	20.74
557.821	20.77
558.164	20.57
558.507	21.05
558.849	20.77
559.192	20.78
559.534	20.82
559.877	20.91
560.219	20.61
560.562	20.93
560.904	21.15
561.246	20.89
561.589	21.03
561.931	21.07
562.273	21
562.615	21.28
562.957	21.07
563.299	20.88
563.641	21.03
563.983	20.92
564.325	21.25
564.667	20.98
565.008	21.14
565.35	21.27
565.692	21.09
566.033	21.24
566.375	20.93
566.716	21.2
567.058	21.18
567.399	21.1
567.741	20.99
568.082	20.89
568.423	20.98
568.764	21.13
569.105	21.09
569.447	21.33
569.788	21.29
570.129	21.5
570.47	21.38
570.811	21.33
571.151	21.44
571.492	21.55
571.833	21.34
572.174	21.58
572.514	21.69
572.855	21.39
573.195	21.5
573.536	21.31
573.876	21.43
574.217	21.44
574.557	21.39
574.898	21.45
575.238	21.56
575.578	21.76
575.918	21.56
576.258	21.74
576.598	21.67
576.938	21.7
577.278	21.57
577.618	21.63
577.958	21.84
578.298	21.82
578.638	21.97
578.977	21.83
579.317	21.93
579.657	21.95
579.996	21.77
580.336	21.81
580.675	21.85
581.014	21.84
581.354	22
581.693	22.06
582.032	22.02
582.372	22.14
582.711	22.01
583.05	21.96
583.389	22.11
583.728	22.21
584.067	22.19
584.406	22.12
584.745	22.2
585.083	22.14
585.422	22.19
585.761	22.26
586.1	22.69
586.438	22.43
586.777	22.47
587.115	22.49
587.454	22.45
587.792	22.43
588.13	22.56
588.469	22.37
588.807	22.55
589.145	22.5
589.483	22.45
589.821	22.56
590.159	22.53
590.497	22.41
590.835	22.73
591.173	22.54
591.511	22.15
591.849	22.42
592.187	22.45
592.524	22.64
592.862	22.44
593.2	22.47
593.537	22.62
593.875	22.57
594.212	22.6
594.55	22.83
594.887	22.67
595.224	22.79
595.561	22.86
595.899	22.61
596.236	22.52
596.573	22.7
596.91	22.87
597.247	23.01
597.584	22.59
597.921	22.81
598.258	22.8
598.594	22.68
598.931	22.52
599.268	22.93
599.604	22.85
599.941	22.89
600.277	22.89
600.614	22.91
600.95	22.9
601.287	23.26
601.623	23.12
601.959	23.29
602.296	23.15
602.632	23.35
602.968	23.14
603.304	22.87
603.64	23.42
603.976	23.23
604.312	23.25
604.648	23.1
604.984	22.92
605.319	23.02
605.655	23.27
605.991	22.93
606.326	22.98
606.662	23.03
606.998	22.89
607.333	23.14
607.668	23.33
608.004	23.39
608.339	23.26
608.674	23.46
609.01	23.61
609.345	23.7
609.68	23.79
610.015	23.63
610.35	23.63
610.685	23.47
611.02	23.42
611.355	23.63
611.689	23.28
612.024	23.41
612.359	23.65
612.694	23.44
613.028	23.58
613.363	23.8
613.697	23.7
614.032	23.86
614.366	23.68
614.7	23.92
615.035	23.9
615.369	24.34
615.703	23.96
616.037	23.62
616.371	23.99
616.705	23.63
617.039	23.86
617.373	23.94
617.707	24.13
618.041	23.86
618.375	23.71
618.709	24.41
619.042	24.11
619.376	23.89
619.71	23.86
620.043	24.35
620.377	24.32
620.71	24.09
621.043	23.86
621.377	23.94
621.71	23.83
622.043	24.05
622.376	24.09
622.709	24.32
623.043	24.07
623.376	24.17
623.709	24.37
624.041	24.35
624.374	24.19
624.707	23.76
625.04	24.36
625.373	24.43
625.705	24.03
626.038	24.29
626.37	24.47
626.703	24.15
627.035	24.1
627.368	24.14
627.7	24.29
628.032	24.42
628.365	24.23
628.697	24.26
629.029	24.13
629.361	24.31
629.693	24.31
630.025	24.26
630.357	24.58
630.689	24.57
631.021	24.39
631.353	24.54
631.684	24.54
632.016	24.39
632.348	24.96
632.679	24.37
633.011	24.45
633.342	25.03
633.674	24.75
634.005	24.84
634.336	24.62
634.668	24.92
634.999	24.78
635.33	25.07
635.661	24.04
635.992	24.44
636.323	24.83
636.654	24.8
636.985	24.72
637.316	24.78
637.647	24.8
637.977	24.82
638.308	24.7
638.639	24.99
638.969	24.82
639.3	25.01
639.63	24.84
639.961	24.96
640.291	24.72
640.622	25
640.952	25.14
641.282	24.87
641.612	25.12
641.943	25.19
642.273	25.02
642.603	25.06
642.933	24.88
643.263	25.32
643.592	25.37
643.922	25.33
644.252	24.79
644.582	25.27
644.911	25.15
645.241	25.1
645.571	25.55
645.9	25.25
646.23	25.07
646.559	25.59
646.888	25.04
647.218	25.29
647.547	25.52
647.876	25.82
648.205	24.98
648.534	25.13
648.863	26.02
649.192	25.63
649.521	25.57
649.85	25.33
650.179	25.62
650.508	25.04
650.837	25.41
651.165	25.68
651.494	25.39
651.822	25.09
652.151	25.63
652.479	25.59
652.808	25.67
653.136	25.17
653.465	25.89
653.793	25.61
654.121	25.66
654.449	25.64
654.777	25.33
655.105	26.52
655.433	25.77
655.761	25.46
656.089	25.8
656.417	25.53
656.745	26.03
657.073	25.66
657.4	26.1
657.728	25.79
658.056	25.85
658.383	26.01
658.711	25.81
659.038	25.57
659.365	25.94
659.693	25.98
660.02	26.09
660.347	26.29
660.674	25.53
661.001	25.57
661.329	25.91
661.656	26.13
661.982	25.81
662.309	25.74
662.636	25.86
662.963	25.85
663.29	26.1
663.616	25.68
663.943	25.97
664.27	25.83
664.596	25.74
664.923	26.39
665.249	26.24
665.576	26.24
665.902	25.88
666.228	26.46
666.554	26.42
666.881	26.61
667.207	26.37
667.533	26.13
667.859	26.66
668.185	26.32
668.511	25.98
668.837	26.17
669.162	26.65
669.488	26.29
669.814	26.07
670.139	26.1
670.465	26.38
