Data from 0035_crown_Reflection__4__24.txt Node

Date: Fri Nov 04 14:49:34 CDT 2022
User: ToomeyLab
Spectrometer: FLMS14357
Trigger mode: 0
Integration Time (sec): 1.000000E-2
Scans to average: 100
Electric dark correction enabled: true
Nonlinearity correction enabled: false
Boxcar width: 0
XAxis mode: Wavelengths
Number of Pixels in Spectrum: 2048
>>>>>Begin Spectral Data<<<<<
189.047	75.01
189.435	75.01
189.823	75.01
190.211	291.56
190.599	67.49
190.987	-4.3
191.375	198.54
191.763	122.84
192.151	314.52
192.538	59.72
192.926	137.82
193.314	173.32
193.702	-26.11
194.089	-0.32
194.477	31.73
194.864	-51.7
195.252	79.67
195.639	128.55
196.027	149.24
196.414	-54
196.801	126.13
197.189	-721.02
197.576	141.66
197.963	-714.02
198.351	-7.39
198.738	25.68
199.125	-15.29
199.512	23.48
199.899	18.61
200.286	32.93
200.673	18.05
201.06	14.34
201.447	33.91
201.833	27.09
202.22	1.7
202.607	14.36
202.994	25.93
203.38	44.94
203.767	-42.99
204.154	22.1
204.54	37.71
204.927	10.08
205.313	14.66
205.699	18.94
206.086	20.91
206.472	57.07
206.858	10.22
207.245	58.41
207.631	2.87
208.017	12.07
208.403	12.36
208.789	19.08
209.175	3.45
209.561	10.7
209.947	31.28
210.333	29.04
210.719	21.78
211.105	-2.43
211.491	39.64
211.876	21.07
212.262	36.67
212.648	24.67
213.034	42.96
213.419	21.9
213.805	3.93
214.19	41.65
214.576	-12.39
214.961	-2.52
215.346	6.29
215.732	-6.21
216.117	-7.74
216.502	19.81
216.888	10.42
217.273	-1.01
217.658	-13.03
218.043	13.21
218.428	15.24
218.813	11.54
219.198	12.05
219.583	24.12
219.968	-20.83
220.353	11.56
220.738	12.44
221.122	-1.78
221.507	14.74
221.892	7.15
222.276	-12.23
222.661	17.34
223.046	13.15
223.43	-0.14
223.815	13.69
224.199	13.28
224.583	6.74
224.968	10.63
225.352	2.37
225.736	10.51
226.121	11.98
226.505	12.61
226.889	4.68
227.273	1.13
227.657	6.17
228.041	12.88
228.425	11.94
228.809	5.15
229.193	6.95
229.577	5.53
229.961	6.5
230.344	5.35
230.728	6.47
231.112	7.32
231.495	6.67
231.879	8.36
232.263	7.08
232.646	6.88
233.03	7.38
233.413	7.5
233.797	6.78
234.18	8.22
234.563	8.17
234.946	6.17
235.33	7.61
235.713	8.55
236.096	6.8
236.479	6.95
236.862	7.56
237.245	6.18
237.628	7.34
238.011	5.75
238.394	7.29
238.777	5.97
239.16	8.44
239.543	8.92
239.925	7.05
240.308	7.78
240.691	6.88
241.073	4.38
241.456	6.6
241.838	5.73
242.221	6.89
242.603	7.04
242.986	7.42
243.368	6.86
243.75	6.98
244.133	6.57
244.515	6.93
244.897	6.46
245.279	6.43
245.661	6.17
246.043	7.17
246.425	6.78
246.807	6.83
247.189	6.79
247.571	6.55
247.953	6.26
248.335	6.25
248.717	6.34
249.098	6.38
249.48	6.26
249.862	6.37
250.243	6.83
250.625	6.74
251.006	6.63
251.388	5.77
251.769	6.64
252.151	6.7
252.532	6.57
252.913	5.64
253.295	7
253.676	6.56
254.057	6.88
254.438	6.51
254.819	6.71
255.2	6.2
255.581	7.25
255.962	5.95
256.343	6.17
256.724	5.77
257.105	7.05
257.486	7.52
257.867	6.79
258.247	6.09
258.628	5.72
259.009	6.25
259.389	6.1
259.77	5.63
260.15	6.89
260.531	6.06
260.911	5.7
261.292	5.78
261.672	5.85
262.052	5.7
262.432	5.76
262.813	6.09
263.193	6.2
263.573	6.49
263.953	5.48
264.333	5.69
264.713	5.81
265.093	5.15
265.473	5.48
265.853	6.48
266.233	5.5
266.612	5.3
266.992	6.67
267.372	5.47
267.752	5.92
268.131	5.79
268.511	5.48
268.89	6.06
269.27	5.51
269.649	5.56
270.029	5.75
270.408	6.11
270.787	6.18
271.167	6.16
271.546	5.57
271.925	6.13
272.304	5.67
272.683	5.48
273.062	5.36
273.441	5.31
273.82	5.7
274.199	6.01
274.578	5.16
274.957	5.73
275.336	5.55
275.715	5.55
276.093	5.36
276.472	5.85
276.851	6.17
277.229	5.28
277.608	4.99
277.986	5.73
278.365	5.75
278.743	5.43
279.122	5.53
279.5	4.74
279.878	5.49
280.257	5.36
280.635	5.07
281.013	5.66
281.391	5.57
281.769	5.28
282.147	4.86
282.525	5.86
282.903	5.8
283.281	5.31
283.659	5.55
284.037	5.37
284.415	5.03
284.792	5.38
285.17	5.05
285.548	5.15
285.925	5.29
286.303	5.18
286.68	5.27
287.058	5.22
287.435	5.19
287.813	5.04
288.19	5.25
288.567	5.38
288.945	4.91
289.322	5.23
289.699	4.9
290.076	5.15
290.453	5.31
290.83	4.76
291.207	4.94
291.584	4.94
291.961	4.88
292.338	5.26
292.715	5.31
293.092	4.51
293.469	5.36
293.845	4.95
294.222	5.1
294.599	5.26
294.975	5.47
295.352	4.6
295.728	4.78
296.105	5.02
296.481	4.79
296.858	4.76
297.234	5.09
297.61	4.95
297.986	4.77
298.363	4.73
298.739	4.66
299.115	4.66
299.491	4.54
299.867	4.8
300.243	4.83
300.619	4.53
300.995	5
301.371	4.58
301.746	4.38
302.122	4.45
302.498	4.1
302.874	4.42
303.249	4.13
303.625	4.94
304	4.17
304.376	4.25
304.751	4.52
305.127	4.56
305.502	4.35
305.878	4.23
306.253	4.59
306.628	4.61
307.003	4.42
307.378	4.75
307.754	4.88
308.129	4.57
308.504	3.99
308.879	4.34
309.254	4.86
309.629	4.4
310.003	4.33
310.378	4.79
310.753	5.35
311.128	4.41
311.502	4.65
311.877	4.16
312.252	3.99
312.626	4.32
313.001	4.15
313.375	4.31
313.75	4.59
314.124	4.49
314.498	4.27
314.873	4.71
315.247	4.09
315.621	3.86
315.995	3.85
316.369	4.67
316.743	4.06
317.117	4.07
317.491	3.9
317.865	4.26
318.239	4.15
318.613	4.25
318.987	4.17
319.361	4.31
319.734	3.79
320.108	4.21
320.482	4.53
320.855	4.64
321.229	4.04
321.602	4.16
321.976	4.27
322.349	3.94
322.723	4.33
323.096	4.14
323.469	4.51
323.843	3.8
324.216	4.07
324.589	3.85
324.962	4.48
325.335	3.82
325.708	3.96
326.081	4.24
326.454	4.39
326.827	4.14
327.2	4.25
327.573	4.17
327.945	4.02
328.318	4.15
328.691	3.93
329.063	4.03
329.436	3.8
329.809	3.91
330.181	4.11
330.553	4.02
330.926	3.93
331.298	4.2
331.671	4.21
332.043	3.73
332.415	3.76
332.787	4.11
333.159	4.2
333.532	3.88
333.904	3.96
334.276	4.21
334.648	4.21
335.02	4.2
335.391	4.37
335.763	3.73
336.135	4.16
336.507	3.67
336.879	3.34
337.25	4.11
337.622	4.12
337.993	3.81
338.365	3.71
338.736	4.09
339.108	4.04
339.479	4.1
339.851	4.11
340.222	4.52
340.593	4.01
340.964	4.42
341.336	4.13
341.707	3.78
342.078	4.13
342.449	4.61
342.82	3.97
343.191	4.13
343.562	4.27
343.933	4.13
344.303	3.99
344.674	3.75
345.045	4.1
345.416	4.48
345.786	3.97
346.157	3.62
346.527	4.42
346.898	4.08
347.268	4.42
347.639	3.75
348.009	4.18
348.38	3.6
348.75	4.06
349.12	3.84
349.49	3.78
349.861	4.17
350.231	3.86
350.601	3.9
350.971	4.02
351.341	3.82
351.711	4.08
352.081	3.78
352.45	4.08
352.82	3.96
353.19	4.19
353.56	3.8
353.929	4.01
354.299	4.12
354.669	3.91
355.038	4.11
355.408	4.14
355.777	4.41
356.147	4.12
356.516	4.18
356.885	4.43
357.254	4.22
357.624	4.27
357.993	3.78
358.362	4.02
358.731	3.98
359.1	4.18
359.469	4.36
359.838	4.11
360.207	4.22
360.576	3.89
360.945	4.2
361.314	4.06
361.682	4.38
362.051	4.06
362.42	4.19
362.788	3.92
363.157	4.02
363.525	4.06
363.894	4.06
364.262	4.06
364.631	4.07
364.999	4.28
365.367	3.89
365.735	4.1
366.104	4.13
366.472	3.92
366.84	4.16
367.208	3.98
367.576	4.31
367.944	4.15
368.312	3.99
368.68	4.03
369.048	4.03
369.416	4.17
369.783	3.99
370.151	4.43
370.519	4.63
370.886	3.97
371.254	4.03
371.621	4.34
371.989	4.02
372.356	4.33
372.724	4.24
373.091	4.15
373.458	4.45
373.826	4.47
374.193	4.45
374.56	4.37
374.927	4.3
375.294	4.23
375.661	4.05
376.028	4.18
376.395	4.2
376.762	4.34
377.129	4.43
377.496	4.1
377.863	4.34
378.229	4.2
378.596	4.16
378.963	4.22
379.329	4.32
379.696	4.45
380.062	4.44
380.429	4.42
380.795	4.77
381.161	4.51
381.528	4.24
381.894	4.53
382.26	4.25
382.626	4.32
382.993	4.29
383.359	4.56
383.725	4.56
384.091	4.58
384.457	4.67
384.823	4.31
385.188	4.41
385.554	4.47
385.92	4.48
386.286	4.36
386.651	4.72
387.017	4.44
387.383	4.47
387.748	4.47
388.114	4.69
388.479	4.29
388.845	4.39
389.21	4.4
389.575	4.41
389.94	4.67
390.306	4.61
390.671	4.35
391.036	4.6
391.401	4.49
391.766	4.37
392.131	4.59
392.496	4.38
392.861	4.54
393.226	4.45
393.591	4.73
393.956	4.45
394.32	4.38
394.685	4.55
395.05	4.37
395.414	4.72
395.779	4.4
396.143	4.64
396.508	4.33
396.872	4.46
397.236	4.59
397.601	4.4
397.965	4.79
398.329	4.43
398.694	4.67
399.058	4.76
399.422	4.86
399.786	4.89
400.15	4.57
400.514	4.66
400.878	4.65
401.242	4.6
401.605	4.56
401.969	4.78
402.333	4.95
402.697	4.94
403.06	4.68
403.424	4.58
403.787	4.59
404.151	4.53
404.514	4.9
404.878	4.75
405.241	4.8
405.604	4.84
405.968	4.6
406.331	4.84
406.694	4.68
407.057	4.67
407.42	4.42
407.783	4.73
408.146	4.7
408.509	4.68
408.872	4.59
409.235	4.8
409.598	4.89
409.961	4.95
410.323	4.73
410.686	4.62
411.049	4.89
411.411	4.96
411.774	4.76
412.136	4.59
412.499	4.82
412.861	4.76
413.223	4.76
413.586	4.68
413.948	4.91
414.31	4.7
414.672	4.88
415.035	4.9
415.397	5.05
415.759	5
416.121	4.77
416.483	4.67
416.845	4.82
417.206	5.02
417.568	4.85
417.93	4.85
418.292	4.92
418.653	4.95
419.015	4.91
419.377	4.78
419.738	4.77
420.1	4.67
420.461	4.79
420.822	4.74
421.184	4.87
421.545	4.81
421.906	4.9
422.267	4.81
422.629	4.67
422.99	4.77
423.351	4.79
423.712	4.81
424.073	4.81
424.434	4.74
424.795	4.88
425.155	4.81
425.516	4.82
425.877	4.82
426.238	4.81
426.598	4.84
426.959	4.78
427.32	4.72
427.68	4.93
428.041	4.97
428.401	4.92
428.761	4.91
429.122	4.88
429.482	5.02
429.842	5.07
430.202	4.94
430.563	5.15
430.923	5
431.283	4.99
431.643	4.89
432.003	5.05
432.363	4.91
432.722	5.08
433.082	5.04
433.442	4.89
433.802	4.82
434.161	4.99
434.521	4.85
434.881	5
435.24	5.01
435.6	4.95
435.959	4.93
436.319	4.92
436.678	4.95
437.037	5.05
437.396	5.08
437.756	5.17
438.115	5.16
438.474	5.12
438.833	5.08
439.192	5.09
439.551	5.1
439.91	5.02
440.269	5.11
440.628	5.16
440.987	4.96
441.345	4.92
441.704	5.06
442.063	5.07
442.421	5
442.78	4.96
443.138	4.98
443.497	5.07
443.855	5.21
444.214	5.17
444.572	5.11
444.93	5.18
445.288	5.04
445.647	5.06
446.005	5.13
446.363	5.13
446.721	5.12
447.079	5.02
447.437	5.13
447.795	4.95
448.153	5.09
448.51	4.88
448.868	4.87
449.226	4.96
449.584	4.97
449.941	5
450.299	5.11
450.656	5.24
451.014	5.14
451.371	5.18
451.729	5.35
452.086	5.15
452.443	5.15
452.801	5.18
453.158	5.1
453.515	5.38
453.872	5.18
454.229	5.1
454.586	5.08
454.943	5.25
455.3	5.19
455.657	5.1
456.014	5.06
456.371	5.19
456.727	5.24
457.084	5.21
457.441	5.31
457.797	5.39
458.154	5.18
458.51	5.36
458.867	5.22
459.223	5.35
459.58	5.22
459.936	5.36
460.292	5.22
460.648	5.28
461.005	5.23
461.361	5.18
461.717	5.15
462.073	5.16
462.429	5.06
462.785	5.21
463.141	5.14
463.496	5.17
463.852	5.29
464.208	5.23
464.564	5.31
464.919	5.35
465.275	5.31
465.631	5.34
465.986	5.23
466.342	5.43
466.697	5.36
467.052	5.06
467.408	5.09
467.763	5.35
468.118	5.36
468.473	5.29
468.829	5.46
469.184	5.3
469.539	5.24
469.894	5.29
470.249	5.41
470.603	5.54
470.958	5.18
471.313	5.35
471.668	5.35
472.023	5.37
472.377	5.33
472.732	5.33
473.086	5.38
473.441	5.24
473.795	5.29
474.15	5.25
474.504	5.42
474.859	5.17
475.213	5.26
475.567	5.47
475.921	5.38
476.275	5.49
476.63	5.31
476.984	5.53
477.338	5.5
477.692	5.43
478.045	5.15
478.399	5.31
478.753	5.46
479.107	5.19
479.461	5.36
479.814	5.36
480.168	5.41
480.521	5.2
480.875	5.44
481.228	5.3
481.582	5.37
481.935	5.41
482.289	5.32
482.642	5.43
482.995	5.36
483.348	5.39
483.701	5.22
484.055	5.3
484.408	5.3
484.761	5.25
485.114	5.11
485.466	5.04
485.819	4.95
486.172	5
486.525	5.06
486.878	5.08
487.23	5.16
487.583	5.15
487.936	5.22
488.288	5.28
488.641	5.12
488.993	5.13
489.345	5.15
489.698	5.13
490.05	5.1
490.402	5.12
490.754	5.19
491.107	5.23
491.459	5.22
491.811	5.3
492.163	5.35
492.515	5.23
492.866	5.28
493.218	5.18
493.57	5.15
493.922	5.17
494.274	5.21
494.625	5.18
494.977	5.2
495.328	5.36
495.68	5.38
496.031	5.55
496.383	5.34
496.734	5.59
497.086	5.42
497.437	5.53
497.788	5.45
498.139	5.33
498.49	5.49
498.842	5.39
499.193	5.37
499.544	5.39
499.894	5.35
500.245	5.33
500.596	5.39
500.947	5.44
501.298	5.39
501.648	5.55
501.999	5.59
502.35	5.37
502.7	5.47
503.051	5.41
503.401	5.49
503.752	5.53
504.102	5.45
504.452	5.49
504.803	5.44
505.153	5.4
505.503	5.48
505.853	5.36
506.203	5.43
506.553	5.58
506.903	5.44
507.253	5.43
507.603	5.62
507.953	5.54
508.303	5.53
508.652	5.36
509.002	5.46
509.352	5.54
509.701	5.4
510.051	5.39
510.4	5.38
510.75	5.48
511.099	5.48
511.449	5.31
511.798	5.31
512.147	5.41
512.496	5.46
512.846	5.44
513.195	5.43
513.544	5.37
513.893	5.56
514.242	5.46
514.591	5.41
514.939	5.43
515.288	5.45
515.637	5.44
515.986	5.53
516.334	5.58
516.683	5.53
517.032	5.5
517.38	5.56
517.729	5.54
518.077	5.62
518.426	5.63
518.774	5.43
519.122	5.4
519.47	5.46
519.819	5.37
520.167	5.42
520.515	5.46
520.863	5.43
521.211	5.37
521.559	5.34
521.907	5.36
522.255	5.36
522.602	5.49
522.95	5.47
523.298	5.53
523.645	5.46
523.993	5.53
524.341	5.53
524.688	5.57
525.036	5.53
525.383	5.72
525.73	5.52
526.078	5.58
526.425	5.47
526.772	5.48
527.119	5.35
527.466	5.3
527.814	5.31
528.161	5.33
528.508	5.38
528.854	5.45
529.201	5.4
529.548	5.37
529.895	5.28
530.242	5.14
530.588	5.15
530.935	5.21
531.282	5.21
531.628	5.21
531.975	5.24
532.321	5.3
532.667	5.32
533.014	5.47
533.36	5.41
533.706	5.39
534.052	5.42
534.399	5.26
534.745	5.29
535.091	5.2
535.437	5.24
535.783	5.27
536.129	5.3
536.474	5.34
536.82	5.39
537.166	5.47
537.512	5.43
537.857	5.48
538.203	5.42
538.549	5.27
538.894	5.32
539.239	5.3
539.585	5.38
539.93	5.41
540.276	5.4
540.621	5.49
540.966	5.56
541.311	5.48
541.656	5.49
542.001	5.42
542.346	5.38
542.691	5.29
543.036	5.23
543.381	5.19
543.726	5.21
544.071	5.25
544.415	5.28
544.76	5.29
545.105	5.31
545.449	5.29
545.794	5.3
546.138	5.39
546.483	5.48
546.827	5.38
547.171	5.42
547.516	5.31
547.86	5.41
548.204	5.46
548.548	5.23
548.892	5.28
549.236	5.36
549.58	5.41
549.924	5.48
550.268	5.48
550.612	5.49
550.956	5.4
551.3	5.41
551.643	5.5
551.987	5.42
552.33	5.36
552.674	5.38
553.017	5.51
553.361	5.4
553.704	5.32
554.048	5.42
554.391	5.5
554.734	5.36
555.077	5.26
555.42	5.49
555.764	5.47
556.107	5.42
556.45	5.56
556.793	5.48
557.135	5.59
557.478	5.36
557.821	5.56
558.164	5.35
558.507	5.5
558.849	5.46
559.192	5.54
559.534	5.63
559.877	5.49
560.219	5.28
560.562	5.53
560.904	5.37
561.246	5.42
561.589	5.46
561.931	5.5
562.273	5.49
562.615	5.64
562.957	5.49
563.299	5.31
563.641	5.68
563.983	5.46
564.325	5.38
564.667	5.42
565.008	5.27
565.35	5.52
565.692	5.44
566.033	5.21
566.375	5.35
566.716	5.59
567.058	5.4
567.399	5.37
567.741	5.27
568.082	5.32
568.423	5.41
568.764	5.34
569.105	5.32
569.447	5.35
569.788	5.48
570.129	5.51
570.47	5.33
570.811	5.26
571.151	5.5
571.492	5.47
571.833	5.36
572.174	5.37
572.514	5.42
572.855	5.21
573.195	5.25
573.536	5.23
573.876	5.36
574.217	5.24
574.557	5.38
574.898	5.27
575.238	5.31
575.578	5.44
575.918	5.16
576.258	5.35
576.598	5.36
576.938	5.41
577.278	5.15
577.618	5.34
577.958	5.17
578.298	5.37
578.638	5.4
578.977	5.24
579.317	5.33
579.657	5.4
579.996	5.26
580.336	5.27
580.675	5.39
581.014	5.25
581.354	5.39
581.693	5.39
582.032	5.13
582.372	5.26
582.711	5.37
583.05	5.24
583.389	5.27
583.728	5.3
584.067	5.23
584.406	5.35
584.745	5.32
585.083	5.14
585.422	5.16
585.761	5.05
586.1	5.52
586.438	5.39
586.777	5.33
587.115	5.42
587.454	5.26
587.792	5.1
588.13	5.4
588.469	5.37
588.807	5.44
589.145	5.31
589.483	5.48
589.821	5.27
590.159	5.22
590.497	5.5
590.835	5.34
591.173	5.27
591.511	5.02
591.849	5.48
592.187	5.2
592.524	5.26
592.862	5.08
593.2	5.03
593.537	5.15
593.875	5.32
594.212	5.09
594.55	5.25
594.887	5.12
595.224	5.25
595.561	5.26
595.899	5.09
596.236	5.03
596.573	5.21
596.91	5.21
597.247	5.23
597.584	5.08
597.921	4.97
598.258	5.15
598.594	5.14
598.931	5.1
599.268	5.11
599.604	5.05
599.941	4.99
600.277	5.03
600.614	5.02
600.95	5.08
601.287	5.32
601.623	5.16
601.959	5.28
602.296	5.25
602.632	5.34
602.968	5.07
603.304	5.14
603.64	5.14
603.976	5.17
604.312	5.14
604.648	4.98
604.984	5.21
605.319	4.94
605.655	5
605.991	5
606.326	5.04
606.662	5.03
606.998	4.91
607.333	5.03
607.668	5.08
608.004	5.08
608.339	5.04
608.674	5.01
609.01	4.96
609.345	5.18
609.68	5.09
610.015	5.24
610.35	4.91
610.685	5.02
611.02	5.21
611.355	5.21
611.689	4.95
612.024	5.03
612.359	5.24
612.694	4.78
613.028	5.08
613.363	5.22
613.697	5.22
614.032	5.33
614.366	5.12
614.7	5.22
615.035	4.8
615.369	5.39
615.703	5.06
616.037	4.94
616.371	5.11
616.705	4.9
617.039	5.18
617.373	5.15
617.707	5.04
618.041	5.23
618.375	5.03
618.709	5.44
619.042	5.14
619.376	5.01
619.71	5.14
620.043	5.34
620.377	5.25
620.71	4.9
621.043	4.8
621.377	4.55
621.71	4.87
622.043	5.04
622.376	5.19
622.709	5.04
623.043	4.78
623.376	4.88
623.709	5.49
624.041	5.33
624.374	4.91
624.707	4.82
625.04	5.55
625.373	5
625.705	4.89
626.038	5.19
626.37	5.23
626.703	4.71
627.035	4.71
627.368	4.66
627.7	4.78
628.032	5.12
628.365	5.09
628.697	4.95
629.029	4.97
629.361	5.11
629.693	4.94
630.025	4.96
630.357	4.8
630.689	5.07
631.021	4.98
631.353	4.78
631.684	5
632.016	4.76
632.348	5.1
632.679	4.83
633.011	4.94
633.342	5.19
633.674	4.86
634.005	5.14
634.336	4.97
634.668	5.22
634.999	5.23
635.33	5.16
635.661	4.75
635.992	5.14
636.323	4.9
636.654	5.41
636.985	5.15
637.316	5.02
637.647	4.81
637.977	4.95
638.308	4.81
638.639	4.97
638.969	4.92
639.3	4.74
639.63	5.05
639.961	4.88
640.291	4.38
640.622	5.03
640.952	5.08
641.282	4.79
641.612	5.13
641.943	5.1
642.273	4.62
642.603	4.94
642.933	4.6
643.263	4.8
643.592	4.95
643.922	5.08
644.252	4.99
644.582	5.3
644.911	4.79
645.241	4.83
645.571	4.82
645.9	5.36
646.23	4.64
646.559	4.94
646.888	4.99
647.218	5.03
647.547	5
647.876	4.74
648.205	4.72
648.534	4.83
648.863	5.06
649.192	4.78
649.521	5.29
649.85	5.06
650.179	5.07
650.508	5.16
650.837	4.4
651.165	5.21
651.494	5.36
651.822	4.97
652.151	5.04
652.479	5.03
652.808	4.59
653.136	4.58
653.465	5.14
653.793	5.07
654.121	4.98
654.449	4.97
654.777	4.82
655.105	5.42
655.433	5.02
655.761	4.92
656.089	5.1
656.417	4.83
656.745	4.63
657.073	5.1
657.4	4.87
657.728	4.88
658.056	5.19
658.383	5.11
658.711	4.86
659.038	4.52
659.365	4.83
659.693	5.09
660.02	5.66
660.347	4.81
660.674	4.93
661.001	4.79
661.329	4.69
661.656	5.18
661.982	5.12
662.309	4.95
662.636	4.96
662.963	5
663.29	4.79
663.616	4.72
663.943	4.74
664.27	5.05
664.596	4.76
664.923	5.23
665.249	5.34
665.576	4.59
665.902	4.4
666.228	5.13
666.554	5.23
666.881	5.25
667.207	4.79
667.533	4.95
667.859	4.88
668.185	4.82
668.511	4.44
668.837	5.22
669.162	5.36
669.488	4.95
669.814	4.98
670.139	4.96
670.465	4.54
670.791	5.15
671.116	4.72
671.442	5.12
671.767	5.01
672.092	5.04
672.418	5.04
672.743	5.41
673.068	5.12
673.393	4.58
673.718	4.61
674.043	5.05
674.368	5.06
674.693	5.2
675.018	5.47
675.343	4.45
675.667	4.34
675.992	4.71
676.317	5.49
676.641	5.14
676.966	4.45
677.29	4.99
677.615	5.34
677.939	5.38
678.264	4.78
678.588	4.96
678.912	5.08
679.236	5.26
679.56	5.38
679.885	4.7
680.209	4.66
680.532	4.77
680.856	6.19
681.18	5.24
681.504	4.84
681.828	5.07
682.152	5.06
682.475	4.98
682.799	5.1
683.122	5.04
683.446	4.76
683.769	5.62
684.093	4.75
684.416	5.01
684.739	5
685.062	4.63
685.386	5.03
685.709	5.3
686.032	4.5
686.355	4.85
686.678	4.44
687.001	4.4
687.324	4.5
687.646	5
687.969	4.95
688.292	4.85
688.614	5.31
688.937	4.99
689.26	5.27
689.582	5.19
689.904	4.83
690.227	5.1
690.549	4.66
690.871	4.88
691.194	4.6
691.516	5.53
691.838	5.64
692.16	4.5
692.482	5.57
692.804	4.59
693.126	4.67
