Data from 0035_chest_Reflection__3__18.txt Node

Date: Fri Nov 04 14:47:02 CDT 2022
User: ToomeyLab
Spectrometer: FLMS14357
Trigger mode: 0
Integration Time (sec): 1.000000E-2
Scans to average: 100
Electric dark correction enabled: true
Nonlinearity correction enabled: false
Boxcar width: 0
XAxis mode: Wavelengths
Number of Pixels in Spectrum: 2048
>>>>>Begin Spectral Data<<<<<
189.047	117.97
189.435	117.97
189.823	117.97
190.211	185.12
190.599	-79.86
190.987	-1002.69
191.375	-124.67
191.763	36.39
192.151	157.07
192.538	-133.5
192.926	668.77
193.314	29.69
193.702	-141.97
194.089	168.79
194.477	84.18
194.864	58.01
195.252	56.01
195.639	441.68
196.027	53.4
196.414	-86.44
196.801	165.14
197.189	1398.41
197.576	-25.78
197.963	-167.76
198.351	-19.89
198.738	15.62
199.125	32.74
199.512	11.26
199.899	27.7
200.286	18.32
200.673	7.86
201.06	19.7
201.447	39.07
201.833	3.49
202.22	30.37
202.607	14.86
202.994	19.54
203.38	36.88
203.767	48.51
204.154	28.48
204.54	29.74
204.927	25.52
205.313	22.26
205.699	51.97
206.086	28.78
206.472	22.37
206.858	35.96
207.245	3.27
207.631	5.49
208.017	-2.28
208.403	15.43
208.789	34.21
209.175	15.38
209.561	14.82
209.947	7.68
210.333	45.39
210.719	-11.35
211.105	-4.64
211.491	5.31
211.876	17.77
212.262	20.38
212.648	15.79
213.034	29.65
213.419	-4.28
213.805	-1.41
214.19	47.27
214.576	-23.91
214.961	-2.75
215.346	-5.47
215.732	-17.71
216.117	1.16
216.502	18.76
216.888	10.01
217.273	4.91
217.658	28.38
218.043	22.16
218.428	23.16
218.813	14.12
219.198	4.61
219.583	18.54
219.968	-7.14
220.353	7.2
220.738	4.83
221.122	-10.08
221.507	14.11
221.892	-1.96
222.276	-0.3
222.661	9.76
223.046	2.13
223.43	8.55
223.815	4.16
224.199	5.5
224.583	11.9
224.968	9.14
225.352	3.72
225.736	8.4
226.121	7.34
226.505	3.87
226.889	3.04
227.273	-1.09
227.657	3.62
228.041	7.53
228.425	7.37
228.809	3.66
229.193	6.42
229.577	4.16
229.961	4.76
230.344	4.43
230.728	4.76
231.112	5.36
231.495	4.36
231.879	5.69
232.263	4.77
232.646	4.29
233.03	5.14
233.413	5.78
233.797	4.87
234.18	6.46
234.563	4.02
234.946	2.53
235.33	5.86
235.713	5.57
236.096	4.76
236.479	3.54
236.862	5.15
237.245	4.23
237.628	4.45
238.011	5.87
238.394	6.26
238.777	4.59
239.16	6.73
239.543	5.22
239.925	4.65
240.308	3.74
240.691	5.23
241.073	3.34
241.456	4.75
241.838	3.43
242.221	3.94
242.603	4.45
242.986	5.58
243.368	4.86
243.75	5.04
244.133	4.57
244.515	4.7
244.897	4.1
245.279	5.25
245.661	4.81
246.043	4.46
246.425	4.59
246.807	5.52
247.189	5.5
247.571	4.81
247.953	4.78
248.335	4.31
248.717	4.65
249.098	4.51
249.48	4.59
249.862	4.39
250.243	4.82
250.625	4.9
251.006	4.8
251.388	4.57
251.769	4.68
252.151	4.42
252.532	5.38
252.913	4.57
253.295	5.02
253.676	4.12
254.057	4.41
254.438	4.82
254.819	4.24
255.2	4.44
255.581	3.61
255.962	4.35
256.343	4.43
256.724	2.99
257.105	4.7
257.486	5.25
257.867	4.34
258.247	4.83
258.628	4.72
259.009	3.68
259.389	4.32
259.77	3.82
260.15	4.59
260.531	4.61
260.911	4.18
261.292	4.16
261.672	4.05
262.052	4.22
262.432	4.02
262.813	4.2
263.193	4.29
263.573	4.32
263.953	4.24
264.333	4.37
264.713	4.55
265.093	4.29
265.473	3.76
265.853	4.48
266.233	4.69
266.612	3.98
266.992	3.81
267.372	4.7
267.752	4.02
268.131	4.23
268.511	3.77
268.89	4.27
269.27	3.9
269.649	4.55
270.029	4.2
270.408	4.71
270.787	4.3
271.167	4.29
271.546	4.4
271.925	4.48
272.304	3.73
272.683	3.67
273.062	3.98
273.441	3.91
273.82	3.98
274.199	4.58
274.578	4.34
274.957	4.41
275.336	3.81
275.715	4.61
276.093	4.27
276.472	4.37
276.851	4.66
277.229	3.88
277.608	3.82
277.986	3.79
278.365	4.09
278.743	4.51
279.122	3.53
279.5	4.03
279.878	4.25
280.257	3.88
280.635	4.22
281.013	4.07
281.391	4.5
281.769	4.2
282.147	4.16
282.525	3.98
282.903	4.02
283.281	3.87
283.659	4.48
284.037	4.27
284.415	3.78
284.792	4.28
285.17	3.83
285.548	3.68
285.925	3.99
286.303	4.05
286.68	4.14
287.058	3.87
287.435	3.86
287.813	3.93
288.19	4.3
288.567	4.27
288.945	3.92
289.322	3.98
289.699	4.14
290.076	3.86
290.453	4.48
290.83	3.96
291.207	3.99
291.584	4.06
291.961	4.12
292.338	4.29
292.715	3.79
293.092	3.3
293.469	4.42
293.845	3.61
294.222	4.53
294.599	4.4
294.975	4.53
295.352	3.77
295.728	4.7
296.105	4.53
296.481	3.97
296.858	4.55
297.234	4.58
297.61	4.31
297.986	3.95
298.363	4.23
298.739	4.33
299.115	4.1
299.491	3.93
299.867	4.13
300.243	4.22
300.619	4.15
300.995	4.06
301.371	4.27
301.746	3.91
302.122	3.89
302.498	3.76
302.874	4.01
303.249	3.88
303.625	3.76
304	4.26
304.376	4.35
304.751	4.25
305.127	4.07
305.502	3.85
305.878	3.9
306.253	4.11
306.628	4.42
307.003	3.92
307.378	4.34
307.754	4.07
308.129	4.03
308.504	3.79
308.879	3.88
309.254	4.41
309.629	3.99
310.003	4.56
310.378	4.09
310.753	4.15
311.128	4.13
311.502	4.43
311.877	4.08
312.252	4.12
312.626	4.1
313.001	4.33
313.375	3.99
313.75	4.26
314.124	4.13
314.498	3.98
314.873	4.39
315.247	4.12
315.621	4.06
315.995	4.09
316.369	4.45
316.743	4.01
317.117	3.63
317.491	3.78
317.865	5.04
318.239	4.29
318.613	4.03
318.987	4.18
319.361	4.4
319.734	3.68
320.108	4.4
320.482	4.42
320.855	4.65
321.229	3.94
321.602	4.13
321.976	4.14
322.349	3.85
322.723	4.13
323.096	3.67
323.469	4.26
323.843	4.2
324.216	4.13
324.589	4
324.962	4.4
325.335	3.93
325.708	3.79
326.081	3.99
326.454	4.05
326.827	3.89
327.2	3.82
327.573	4.32
327.945	4.07
328.318	3.83
328.691	4.11
329.063	3.81
329.436	3.91
329.809	4
330.181	4.39
330.553	4.18
330.926	3.92
331.298	4.4
331.671	4.08
332.043	3.91
332.415	3.41
332.787	4.26
333.159	4.69
333.532	4.38
333.904	3.55
334.276	3.85
334.648	4.46
335.02	3.96
335.391	4.11
335.763	3.67
336.135	4.52
336.507	4.52
336.879	3.57
337.25	4.05
337.622	4.1
337.993	3.93
338.365	4.15
338.736	4.18
339.108	4.13
339.479	3.95
339.851	4.34
340.222	4.49
340.593	4.04
340.964	3.73
341.336	4.3
341.707	4.28
342.078	3.79
342.449	4.05
342.82	3.71
343.191	3.85
343.562	3.93
343.933	3.69
344.303	4.17
344.674	3.55
345.045	3.64
345.416	4.26
345.786	4.04
346.157	4.01
346.527	4.35
346.898	3.75
347.268	4.33
347.639	3.97
348.009	4
348.38	3.79
348.75	4.18
349.12	3.68
349.49	4
349.861	3.8
350.231	4.1
350.601	4.01
350.971	3.99
351.341	3.97
351.711	4.04
352.081	3.98
352.45	3.93
352.82	4.2
353.19	3.82
353.56	4.13
353.929	4.1
354.299	4.15
354.669	3.77
355.038	3.88
355.408	4
355.777	3.95
356.147	4.58
356.516	3.88
356.885	4.37
357.254	4.25
357.624	4.11
357.993	3.84
358.362	3.99
358.731	3.84
359.1	4.04
359.469	4.22
359.838	3.99
360.207	3.9
360.576	3.99
360.945	3.95
361.314	4.18
361.682	4.16
362.051	3.87
362.42	4.28
362.788	3.91
363.157	3.96
363.525	4.08
363.894	4.05
364.262	3.94
364.631	4.15
364.999	4.04
365.367	3.88
365.735	4.11
366.104	4.17
366.472	3.96
366.84	4.21
367.208	4.14
367.576	3.91
367.944	3.99
368.312	4.19
368.68	3.88
369.048	4.12
369.416	3.82
369.783	4.2
370.151	4.27
370.519	4.37
370.886	3.99
371.254	3.66
371.621	4.16
371.989	4.07
372.356	4.16
372.724	4.19
373.091	4.06
373.458	4.14
373.826	4.31
374.193	4.02
374.56	4.31
374.927	4.01
375.294	4.02
375.661	3.95
376.028	3.95
376.395	3.95
376.762	4.24
377.129	4.29
377.496	4.14
377.863	4.18
378.229	4.01
378.596	4.03
378.963	3.99
379.329	3.9
379.696	4.12
380.062	4.01
380.429	4.2
380.795	4.16
381.161	3.99
381.528	4.27
381.894	4.27
382.26	4.04
382.626	4.26
382.993	3.96
383.359	4.22
383.725	4.13
384.091	4.3
384.457	4.12
384.823	4.13
385.188	3.89
385.554	4.3
385.92	3.99
386.286	4.05
386.651	4.43
387.017	3.96
387.383	4.19
387.748	3.97
388.114	4.18
388.479	3.88
388.845	4.16
389.21	4.11
389.575	4.07
389.94	4.13
390.306	4.14
390.671	4.17
391.036	4.21
391.401	4.06
391.766	3.97
392.131	4.21
392.496	3.94
392.861	4.06
393.226	4.04
393.591	4.28
393.956	3.99
394.32	3.98
394.685	4.26
395.05	3.96
395.414	4.19
395.779	3.97
396.143	4.22
396.508	4.13
396.872	3.99
397.236	4.4
397.601	4.2
397.965	4.24
398.329	3.83
398.694	4.12
399.058	4.25
399.422	4.09
399.786	4.32
400.15	4.36
400.514	4.34
400.878	4.07
401.242	4.09
401.605	4
401.969	4.16
402.333	4.34
402.697	4.22
403.06	4.33
403.424	4.04
403.787	4.3
404.151	3.98
404.514	4.14
404.878	4.12
405.241	4.17
405.604	4.02
405.968	4.14
406.331	4.07
406.694	4.12
407.057	3.8
407.42	4.06
407.783	4.06
408.146	4.44
408.509	3.99
408.872	4.16
409.235	4.18
409.598	4.24
409.961	4.44
410.323	4.07
410.686	4.02
411.049	4.12
411.411	4.2
411.774	4.15
412.136	4.19
412.499	4.15
412.861	4.32
413.223	4.23
413.586	4.17
413.948	4.5
414.31	4.22
414.672	3.98
415.035	4.08
415.397	4.45
415.759	4.2
416.121	4.16
416.483	4.04
416.845	4.16
417.206	4.39
417.568	4.1
417.93	4.11
418.292	4.2
418.653	3.95
419.015	4.12
419.377	4.04
419.738	4.12
420.1	3.9
420.461	4.22
420.822	4.1
421.184	4.25
421.545	4.13
421.906	4.11
422.267	4.03
422.629	4.11
422.99	4.06
423.351	4.09
423.712	4.09
424.073	4.11
424.434	4.04
424.795	3.97
425.155	4.15
425.516	4.16
425.877	4.12
426.238	3.98
426.598	4.14
426.959	4.03
427.32	4.05
427.68	4.14
428.041	4.29
428.401	4.22
428.761	4.28
429.122	4.14
429.482	4.3
429.842	4.4
430.202	4.32
430.563	4.41
430.923	4.16
431.283	4.38
431.643	4.27
432.003	4.21
432.363	4.28
432.722	4.35
433.082	4.32
433.442	4.21
433.802	4.29
434.161	4.41
434.521	4.18
434.881	4.38
435.24	4.37
435.6	4.2
435.959	4.27
436.319	4.24
436.678	4.3
437.037	4.28
437.396	4.19
437.756	4.49
438.115	4.48
438.474	4.29
438.833	4.27
439.192	4.37
439.551	4.27
439.91	4.27
440.269	4.4
440.628	4.26
440.987	4.21
441.345	4.22
441.704	4.33
442.063	4.41
442.421	4.24
442.78	4.17
443.138	4.22
443.497	4.34
443.855	4.39
444.214	4.27
444.572	4.29
444.93	4.37
445.288	4.26
445.647	4.38
446.005	4.26
446.363	4.3
446.721	4.23
447.079	4.16
447.437	4.27
447.795	4.14
448.153	4.27
448.51	4.17
448.868	4.22
449.226	4.29
449.584	4.27
449.941	4.27
450.299	4.45
450.656	4.43
451.014	4.24
451.371	4.41
451.729	4.49
452.086	4.31
452.443	4.35
452.801	4.47
453.158	4.49
453.515	4.36
453.872	4.36
454.229	4.26
454.586	4.39
454.943	4.38
455.3	4.45
455.657	4.24
456.014	4.34
456.371	4.44
456.727	4.36
457.084	4.41
457.441	4.32
457.797	4.46
458.154	4.38
458.51	4.55
458.867	4.56
459.223	4.62
459.58	4.52
459.936	4.52
460.292	4.28
460.648	4.45
461.005	4.41
461.361	4.42
461.717	4.39
462.073	4.41
462.429	4.32
462.785	4.42
463.141	4.44
463.496	4.51
463.852	4.44
464.208	4.49
464.564	4.59
464.919	4.47
465.275	4.45
465.631	4.52
465.986	4.35
466.342	4.62
466.697	4.58
467.052	4.47
467.408	4.47
467.763	4.46
468.118	4.5
468.473	4.61
468.829	4.48
469.184	4.49
469.539	4.48
469.894	4.57
470.249	4.62
470.603	4.66
470.958	4.54
471.313	4.69
471.668	4.49
472.023	4.57
472.377	4.55
472.732	4.57
473.086	4.46
473.441	4.57
473.795	4.56
474.15	4.54
474.504	4.64
474.859	4.49
475.213	4.48
475.567	4.54
475.921	4.68
476.275	4.49
476.63	4.61
476.984	4.72
477.338	4.72
477.692	4.7
478.045	4.69
478.399	4.55
478.753	4.63
479.107	4.66
479.461	4.56
479.814	4.6
480.168	4.65
480.521	4.65
480.875	4.64
481.228	4.58
481.582	4.77
481.935	4.61
482.289	4.65
482.642	4.71
482.995	4.57
483.348	4.67
483.701	4.53
484.055	4.52
484.408	4.61
484.761	4.5
485.114	4.48
485.466	4.38
485.819	4.34
486.172	4.35
486.525	4.37
486.878	4.44
487.23	4.5
487.583	4.56
487.936	4.54
488.288	4.59
488.641	4.51
488.993	4.53
489.345	4.54
489.698	4.51
490.05	4.46
490.402	4.57
490.754	4.6
491.107	4.65
491.459	4.59
491.811	4.8
492.163	4.67
492.515	4.68
492.866	4.63
493.218	4.54
493.57	4.54
493.922	4.53
494.274	4.61
494.625	4.66
494.977	4.71
495.328	4.76
495.68	4.78
496.031	4.88
496.383	4.77
496.734	4.83
497.086	4.8
497.437	4.97
497.788	4.84
498.139	4.82
498.49	4.86
498.842	4.78
499.193	4.82
499.544	4.85
499.894	4.84
500.245	4.86
500.596	4.92
500.947	4.88
501.298	4.99
501.648	4.95
501.999	5.03
502.35	5.07
502.7	4.98
503.051	4.88
503.401	5.05
503.752	5.02
504.102	4.76
504.452	4.98
504.803	4.88
505.153	4.99
505.503	5.03
505.853	4.91
506.203	4.99
506.553	5.01
506.903	4.96
507.253	4.8
507.603	5.1
507.953	5.22
508.303	5.07
508.652	5.06
509.002	4.94
509.352	4.99
509.701	5.01
510.051	4.96
510.4	5.03
510.75	5.07
511.099	4.97
511.449	4.9
511.798	4.9
512.147	4.99
512.496	4.99
512.846	5.09
513.195	5.04
513.544	5.2
513.893	5.2
514.242	5.06
514.591	5.05
514.939	5.16
515.288	5.11
515.637	5.09
515.986	5.19
516.334	5.37
516.683	5.16
517.032	5.08
517.38	5.29
517.729	5.22
518.077	5.28
518.426	5.41
518.774	5.22
519.122	5.05
519.47	5.26
519.819	5.19
520.167	5.16
520.515	5.18
520.863	5.21
521.211	5.21
521.559	5.19
521.907	5.18
522.255	5.2
522.602	5.29
522.95	5.39
523.298	5.43
523.645	5.43
523.993	5.39
524.341	5.4
524.688	5.46
525.036	5.44
525.383	5.58
525.73	5.41
526.078	5.52
526.425	5.5
526.772	5.56
527.119	5.39
527.466	5.36
527.814	5.36
528.161	5.35
528.508	5.36
528.854	5.49
529.201	5.53
529.548	5.45
529.895	5.39
530.242	5.29
530.588	5.23
530.935	5.33
531.282	5.33
531.628	5.37
531.975	5.41
532.321	5.49
532.667	5.56
533.014	5.63
533.36	5.57
533.706	5.61
534.052	5.68
534.399	5.56
534.745	5.55
535.091	5.54
535.437	5.45
535.783	5.6
536.129	5.6
536.474	5.72
536.82	5.74
537.166	5.92
537.512	5.85
537.857	5.85
538.203	5.76
538.549	5.75
538.894	5.74
539.239	5.75
539.585	5.87
539.93	5.77
540.276	5.86
540.621	5.94
540.966	6.09
541.311	5.97
541.656	6
542.001	6
542.346	6
542.691	5.92
543.036	5.93
543.381	5.83
543.726	5.82
544.071	5.86
544.415	6.02
544.76	5.99
545.105	6.06
545.449	6.06
545.794	6.05
546.138	6.1
546.483	6.27
546.827	6.16
547.171	6.09
547.516	6.22
547.86	6.27
548.204	6.28
548.548	6.18
548.892	6.18
549.236	6.29
549.58	6.3
549.924	6.45
550.268	6.35
550.612	6.41
550.956	6.55
551.3	6.42
551.643	6.5
551.987	6.59
552.33	6.45
552.674	6.46
553.017	6.62
553.361	6.57
553.704	6.49
554.048	6.54
554.391	6.66
554.734	6.5
555.077	6.47
555.42	6.74
555.764	6.68
556.107	6.67
556.45	6.92
556.793	6.66
557.135	6.96
557.478	6.85
557.821	6.78
558.164	6.9
558.507	6.94
558.849	6.93
559.192	6.85
559.534	7.06
559.877	7.15
560.219	6.9
560.562	6.96
560.904	7.02
561.246	7.16
561.589	7.23
561.931	7.12
562.273	7.12
562.615	7.42
562.957	7.23
563.299	7.28
563.641	7.26
563.983	7.22
564.325	7.24
564.667	7.25
565.008	7.23
565.35	7.42
565.692	7.38
566.033	7.45
566.375	7.16
566.716	7.45
567.058	7.42
567.399	7.42
567.741	7.43
568.082	7.41
568.423	7.48
568.764	7.51
569.105	7.47
569.447	7.72
569.788	7.53
570.129	7.68
570.47	7.76
570.811	7.62
571.151	7.79
571.492	7.91
571.833	7.83
572.174	7.77
572.514	7.99
572.855	7.74
573.195	7.69
573.536	7.83
573.876	7.98
574.217	7.95
574.557	8.04
574.898	8.07
575.238	7.98
575.578	8.03
575.918	8.06
576.258	8.23
576.598	8.2
576.938	8.16
577.278	8.1
577.618	8.15
577.958	8.23
578.298	8.37
578.638	8.44
578.977	8.16
579.317	8.4
579.657	8.48
579.996	8.34
580.336	8.55
580.675	8.58
581.014	8.48
581.354	8.61
581.693	8.61
582.032	8.74
582.372	8.64
582.711	8.59
583.05	8.78
583.389	8.72
583.728	8.76
584.067	8.69
584.406	8.79
584.745	8.98
585.083	8.87
585.422	8.99
585.761	8.93
586.1	9.23
586.438	8.91
586.777	8.99
587.115	9.1
587.454	9.19
587.792	9.07
588.13	9.37
588.469	9.34
588.807	9.39
589.145	9.22
589.483	9.43
589.821	9.53
590.159	9.34
590.497	9.37
590.835	9.49
591.173	9.64
591.511	9.25
591.849	9.52
592.187	9.44
592.524	9.76
592.862	9.38
593.2	9.52
593.537	9.33
593.875	9.6
594.212	9.76
594.55	9.69
594.887	9.71
595.224	10
595.561	9.74
595.899	9.71
596.236	9.92
596.573	10.03
596.91	9.85
597.247	10.23
597.584	9.87
597.921	10
598.258	10.28
598.594	10.05
598.931	10.07
599.268	10.12
599.604	10.13
599.941	10.12
600.277	10.25
600.614	10.13
600.95	10.01
601.287	10.56
601.623	10.42
601.959	10.38
602.296	10.69
602.632	10.63
602.968	10.53
603.304	10.53
603.64	10.81
603.976	10.77
604.312	10.76
604.648	10.59
604.984	10.78
605.319	10.59
605.655	10.91
605.991	10.89
606.326	10.87
606.662	10.73
606.998	10.77
607.333	10.97
607.668	11
608.004	10.96
608.339	10.91
608.674	11.01
609.01	11.33
609.345	11.35
609.68	11.46
610.015	11.57
610.35	11.2
610.685	11.47
611.02	11.34
611.355	11.55
611.689	11.38
612.024	11.44
612.359	11.65
612.694	11.3
613.028	11.64
613.363	11.68
613.697	11.95
614.032	11.76
614.366	11.54
614.7	11.93
615.035	11.89
615.369	12.06
615.703	11.83
616.037	11.78
616.371	11.86
616.705	11.75
617.039	12.07
617.373	12.35
617.707	11.98
618.041	12.19
618.375	12.31
618.709	12.05
619.042	12.4
619.376	12.37
619.71	12.24
620.043	12.85
620.377	12.38
620.71	12.48
621.043	12.12
621.377	12.32
621.71	12.51
622.043	12.78
622.376	12.73
622.709	12.98
623.043	12.72
623.376	12.65
623.709	13.15
624.041	13.14
624.374	12.99
624.707	12.6
625.04	13.17
625.373	12.58
625.705	12.93
626.038	13.22
626.37	13.12
626.703	13
627.035	13.08
627.368	13.32
627.7	13.38
628.032	13.36
628.365	13.68
628.697	13.32
629.029	13.36
629.361	13.34
629.693	13.2
630.025	13.55
630.357	13.55
630.689	13.72
631.021	13.61
631.353	13.25
631.684	13.98
632.016	13.5
632.348	13.78
632.679	13.62
633.011	13.63
633.342	14.02
633.674	14.02
634.005	14.27
634.336	14.18
634.668	14.21
634.999	14.16
635.33	14.13
635.661	13.91
635.992	14.38
636.323	14.35
636.654	14.58
636.985	14.38
637.316	14.41
637.647	14.41
637.977	14.5
638.308	14.64
638.639	14.76
638.969	14.52
639.3	14.34
639.63	14.61
639.961	14.28
640.291	14.68
640.622	14.88
640.952	14.43
641.282	14.59
641.612	14.89
641.943	15.07
642.273	15
642.603	15.32
642.933	14.82
643.263	15.08
643.592	15.06
643.922	15.03
644.252	15.18
644.582	14.84
644.911	15.16
645.241	15.41
645.571	15.71
645.9	15.32
646.23	15.36
646.559	15.72
646.888	15.11
647.218	15.47
647.547	15.68
647.876	15.72
648.205	15.13
648.534	15.62
648.863	15.88
649.192	15.77
649.521	15.99
649.85	16
650.179	16.13
650.508	15.85
650.837	15.63
651.165	15.82
651.494	15.5
651.822	16.06
652.151	16.43
652.479	15.9
652.808	15.83
653.136	15.83
653.465	16.52
653.793	16.23
654.121	16.02
654.449	16.46
654.777	16.61
655.105	16.78
655.433	16.97
655.761	16.53
656.089	16.78
656.417	16.72
656.745	16.76
657.073	17.05
657.4	16.64
657.728	16.96
658.056	16.8
658.383	17.34
658.711	16.78
659.038	16.78
659.365	16.78
659.693	16.88
660.02	17.18
660.347	17.27
660.674	17.03
661.001	17.32
661.329	17.19
661.656	17.43
661.982	17.21
662.309	17.55
662.636	17.18
662.963	17.07
663.29	17.28
663.616	16.98
663.943	17.72
664.27	17.68
664.596	17.63
664.923	18.06
665.249	17.8
665.576	18.05
665.902	17.33
666.228	17.88
666.554	18.1
666.881	17.99
667.207	17.68
667.533	18.02
667.859	17.91
668.185	17.91
668.511	17.8
668.837	17.95
669.162	18.06
669.488	18.75
669.814	18.08
670.139	18.55
670.465	18.69
670.791	17.98
671.116	18.68
671.442	18.39
671.767	18.46
672.092	18.75
672.418	19.36
672.743	18.59
673.068	18.62
673.393	18.31
673.718	18.42
674.043	18.91
674.368	18.47
674.693	19.18
675.018	18.62
675.343	17.92
675.667	18.56
675.992	18.82
676.317	19.64
676.641	19.32
676.966	18.66
677.29	19.24
677.615	19.45
677.939	19.78
678.264	18.88
678.588	19.76
678.912	19.31
679.236	19.69
679.56	19.65
679.885	18.68
680.209	19.74
680.532	19.45
680.856	20.41
681.18	20.21
681.504	19.92
681.828	19.62
682.152	20.1
682.475	19.86
682.799	19.56
683.122	19.67
683.446	19.86
683.769	20.73
684.093	19.95
684.416	20.14
684.739	20.03
685.062	19.71
685.386	20.27
685.709	20.82
686.032	19.91
686.355	20.66
