Data from 0035_chest_Reflection__4__19.txt Node

Date: Fri Nov 04 14:47:15 CDT 2022
User: ToomeyLab
Spectrometer: FLMS14357
Trigger mode: 0
Integration Time (sec): 1.000000E-2
Scans to average: 100
Electric dark correction enabled: true
Nonlinearity correction enabled: false
Boxcar width: 0
XAxis mode: Wavelengths
Number of Pixels in Spectrum: 2048
>>>>>Begin Spectral Data<<<<<
189.047	107.79
189.435	107.79
189.823	107.79
190.211	337.43
190.599	25.47
190.987	427.96
191.375	209.96
191.763	0.81
192.151	195.58
192.538	19.17
192.926	-58.82
193.314	0.87
193.702	-2.55
194.089	318.87
194.477	17.04
194.864	126.09
195.252	2.19
195.639	110.6
196.027	-10.35
196.414	-43.77
196.801	47.93
197.189	-1010.19
197.576	35.04
197.963	-798.13
198.351	12.28
198.738	3.69
199.125	-13.89
199.512	24.67
199.899	19.75
200.286	12.51
200.673	39
201.06	10.23
201.447	27.5
201.833	24.72
202.22	6.49
202.607	-9.83
202.994	-2.19
203.38	50.35
203.767	48.46
204.154	48.01
204.54	27.41
204.927	7.53
205.313	26.97
205.699	32.38
206.086	41.5
206.472	46.41
206.858	35.35
207.245	53.52
207.631	-15.37
208.017	13.71
208.403	21.88
208.789	18.12
209.175	16.46
209.561	-2.51
209.947	5.34
210.333	42.34
210.719	10.21
211.105	-12.58
211.491	35.15
211.876	12.66
212.262	25.75
212.648	34.64
213.034	16.1
213.419	8.33
213.805	-7.53
214.19	23.63
214.576	-16.29
214.961	-0.3
215.346	0.68
215.732	-1.97
216.117	-1.41
216.502	22.95
216.888	18.55
217.273	20.49
217.658	3.52
218.043	36.55
218.428	6.83
218.813	6.89
219.198	-33.13
219.583	23.19
219.968	1.15
220.353	7.54
220.738	-1.06
221.122	-1.73
221.507	17.15
221.892	13.96
222.276	11.99
222.661	10.98
223.046	10.31
223.43	5.61
223.815	7.5
224.199	-3.23
224.583	-0.12
224.968	6.14
225.352	-0.75
225.736	8.36
226.121	6.17
226.505	10.41
226.889	4.95
227.273	-0.61
227.657	3.47
228.041	6.9
228.425	7.49
228.809	3.33
229.193	4.08
229.577	3.5
229.961	3.62
230.344	3.75
230.728	3.85
231.112	4.66
231.495	3.79
231.879	5.45
232.263	3.85
232.646	5.04
233.03	5.01
233.413	5.36
233.797	5.38
234.18	5.92
234.563	6.9
234.946	4.22
235.33	3.76
235.713	5.08
236.096	4.62
236.479	3.39
236.862	4.01
237.245	5.14
237.628	3.48
238.011	4.66
238.394	4.5
238.777	3.65
239.16	4.06
239.543	5.11
239.925	1.42
240.308	4.01
240.691	2.71
241.073	3.27
241.456	4.58
241.838	2.13
242.221	4.11
242.603	3.05
242.986	4.69
243.368	4.52
243.75	4.6
244.133	4.22
244.515	4.2
244.897	3.97
245.279	4.05
245.661	4.11
246.043	4.24
246.425	4.28
246.807	4.3
247.189	4.53
247.571	4.52
247.953	3.78
248.335	3.84
248.717	3.83
249.098	4.27
249.48	3.91
249.862	4.31
250.243	4.24
250.625	4.59
251.006	4.75
251.388	4.38
251.769	4.33
252.151	4.22
252.532	4.71
252.913	3.59
253.295	4.22
253.676	4.33
254.057	4.2
254.438	4.78
254.819	3.87
255.2	4.46
255.581	4.69
255.962	4.54
256.343	3.33
256.724	4.6
257.105	5.01
257.486	4.73
257.867	3.89
258.247	4.4
258.628	3.57
259.009	3.87
259.389	3.95
259.77	4.26
260.15	3.72
260.531	4.41
260.911	3.82
261.292	3.7
261.672	3.99
262.052	3.73
262.432	4.02
262.813	4.23
263.193	4.13
263.573	3.65
263.953	4.15
264.333	3.68
264.713	3.83
265.093	3.88
265.473	3.52
265.853	3.87
266.233	4.06
266.612	3.32
266.992	4.59
267.372	4.04
267.752	3.58
268.131	3.95
268.511	3.29
268.89	4.01
269.27	3.87
269.649	3.82
270.029	3.75
270.408	4.23
270.787	4.19
271.167	4.29
271.546	3.91
271.925	4.2
272.304	3.19
272.683	3.29
273.062	3.7
273.441	3.44
273.82	3.56
274.199	3.99
274.578	3.86
274.957	3.86
275.336	3.54
275.715	3.74
276.093	4.06
276.472	3.81
276.851	4.35
277.229	3.16
277.608	3.23
277.986	3.69
278.365	4.15
278.743	3.61
279.122	3.54
279.5	2.96
279.878	4.05
280.257	3.55
280.635	3.77
281.013	3.04
281.391	3.71
281.769	3.6
282.147	3.15
282.525	3.67
282.903	3.6
283.281	4.1
283.659	4.07
284.037	3.79
284.415	3.86
284.792	4.02
285.17	3.54
285.548	3.68
285.925	3.75
286.303	3.89
286.68	3.93
287.058	3.17
287.435	3.45
287.813	3.5
288.19	3.87
288.567	4.03
288.945	3.83
289.322	4.01
289.699	3.76
290.076	3.99
290.453	4.15
290.83	3.8
291.207	3.71
291.584	3.73
291.961	3.62
292.338	4.22
292.715	4.33
293.092	3.09
293.469	4.12
293.845	3.95
294.222	4.13
294.599	3.79
294.975	4.2
295.352	4.19
295.728	4.3
296.105	4.28
296.481	4.07
296.858	4.21
297.234	4.32
297.61	4.34
297.986	4.16
298.363	4.17
298.739	4.06
299.115	4.13
299.491	4.16
299.867	4.17
300.243	3.94
300.619	4
300.995	4.41
301.371	4.05
301.746	3.92
302.122	4.27
302.498	3.96
302.874	4.1
303.249	3.91
303.625	4.09
304	4.48
304.376	4.75
304.751	4.48
305.127	4.26
305.502	4.29
305.878	4.33
306.253	4.27
306.628	5.13
307.003	4.3
307.378	3.94
307.754	4.61
308.129	3.77
308.504	4.05
308.879	3.76
309.254	4.7
309.629	3.99
310.003	4.22
310.378	4.07
310.753	4.66
311.128	4.24
311.502	4.58
311.877	4.16
312.252	4.23
312.626	4.36
313.001	4.39
313.375	4.23
313.75	4.37
314.124	4.55
314.498	3.92
314.873	4.26
315.247	4.12
315.621	3.63
315.995	4.55
316.369	4.68
316.743	3.83
317.117	4.45
317.491	3.85
317.865	4.27
318.239	4.37
318.613	4.58
318.987	5.03
319.361	4.12
319.734	3.72
320.108	4.23
320.482	4.14
320.855	4.85
321.229	4.65
321.602	4.9
321.976	4.74
322.349	4.56
322.723	4.5
323.096	4.36
323.469	4.32
323.843	4.05
324.216	4.56
324.589	4.27
324.962	5.19
325.335	4.29
325.708	4.83
326.081	4.89
326.454	4.68
326.827	4.11
327.2	4.94
327.573	4.68
327.945	4.44
328.318	4.29
328.691	4.77
329.063	4.43
329.436	4.01
329.809	4.18
330.181	4.4
330.553	4.5
330.926	3.92
331.298	4.46
331.671	4.58
332.043	4.73
332.415	4.38
332.787	4.05
333.159	4.39
333.532	4.46
333.904	4.22
334.276	4.19
334.648	4.23
335.02	4.6
335.391	4.71
335.763	4.26
336.135	4.86
336.507	4.39
336.879	4.4
337.25	4.12
337.622	4.56
337.993	4.35
338.365	4.17
338.736	4.55
339.108	4.67
339.479	4.68
339.851	4.65
340.222	4.84
340.593	4.71
340.964	4.64
341.336	4.31
341.707	4.9
342.078	4.75
342.449	4.57
342.82	4.43
343.191	4.29
343.562	4.53
343.933	4.38
344.303	4.7
344.674	4.37
345.045	4.45
345.416	4.96
345.786	4.61
346.157	4.6
346.527	4.93
346.898	4.39
347.268	4.62
347.639	4.41
348.009	4.42
348.38	4.42
348.75	4.69
349.12	4.16
349.49	4.17
349.861	4.76
350.231	4.34
350.601	4.49
350.971	4.62
351.341	4.26
351.711	4.82
352.081	4.29
352.45	4.48
352.82	4.49
353.19	4.29
353.56	4.4
353.929	4.29
354.299	4.71
354.669	4.3
355.038	4.68
355.408	4.73
355.777	4.42
356.147	4.43
356.516	4.74
356.885	4.84
357.254	4.41
357.624	4.68
357.993	4.42
358.362	4.84
358.731	4.69
359.1	4.45
359.469	4.64
359.838	4.64
360.207	4.75
360.576	4.71
360.945	4.38
361.314	4.79
361.682	4.78
362.051	4.3
362.42	4.65
362.788	4.55
363.157	4.54
363.525	4.66
363.894	4.61
364.262	4.42
364.631	4.65
364.999	4.64
365.367	4.15
365.735	4.61
366.104	4.68
366.472	4.37
366.84	4.57
367.208	4.59
367.576	4.63
367.944	4.6
368.312	4.5
368.68	4.61
369.048	4.74
369.416	4.3
369.783	4.59
370.151	4.49
370.519	4.93
370.886	4.59
371.254	4.5
371.621	4.76
371.989	4.5
372.356	4.85
372.724	4.78
373.091	4.83
373.458	4.97
373.826	4.72
374.193	4.66
374.56	4.71
374.927	4.44
375.294	4.77
375.661	4.58
376.028	4.68
376.395	4.62
376.762	4.98
377.129	4.59
377.496	4.45
377.863	4.5
378.229	4.6
378.596	4.85
378.963	4.68
379.329	4.65
379.696	4.57
380.062	4.96
380.429	4.72
380.795	4.83
381.161	4.62
381.528	4.88
381.894	4.89
382.26	4.79
382.626	4.88
382.993	4.91
383.359	4.85
383.725	5.09
384.091	4.86
384.457	4.97
384.823	4.66
385.188	4.47
385.554	4.72
385.92	4.36
386.286	4.59
386.651	5.26
387.017	4.72
387.383	5.25
387.748	4.56
388.114	4.91
388.479	4.85
388.845	4.82
389.21	4.69
389.575	4.74
389.94	4.75
390.306	4.84
390.671	4.87
391.036	4.87
391.401	4.8
391.766	4.63
392.131	4.91
392.496	4.72
392.861	4.87
393.226	4.75
393.591	4.92
393.956	4.83
394.32	4.66
394.685	4.77
395.05	4.52
395.414	4.74
395.779	4.58
396.143	4.76
396.508	4.62
396.872	4.83
397.236	5.19
397.601	4.79
397.965	5.15
398.329	4.67
398.694	4.89
399.058	5.2
399.422	4.9
399.786	5.13
400.15	4.81
400.514	4.97
400.878	4.82
401.242	4.91
401.605	4.86
401.969	4.88
402.333	4.87
402.697	5.1
403.06	4.82
403.424	4.58
403.787	4.76
404.151	4.9
404.514	4.76
404.878	4.88
405.241	5.08
405.604	5.14
405.968	4.85
406.331	5
406.694	4.92
407.057	4.84
407.42	4.91
407.783	4.83
408.146	5
408.509	4.97
408.872	4.9
409.235	5.21
409.598	5.05
409.961	5.02
410.323	4.87
410.686	4.83
411.049	5.05
411.411	4.84
411.774	4.83
412.136	4.88
412.499	5.03
412.861	4.97
413.223	4.91
413.586	4.96
413.948	5.2
414.31	4.93
414.672	5.17
415.035	5.28
415.397	5.27
415.759	5.22
416.121	4.85
416.483	5.01
416.845	4.98
417.206	5.07
417.568	5.1
417.93	5.1
418.292	5.09
418.653	5.04
419.015	5.24
419.377	4.94
419.738	4.84
420.1	4.8
420.461	5.01
420.822	5.08
421.184	5.12
421.545	4.96
421.906	5.04
422.267	4.95
422.629	4.88
422.99	5
423.351	5.04
423.712	5.09
424.073	5.02
424.434	4.98
424.795	5.01
425.155	5.05
425.516	5.07
425.877	5.12
426.238	5.06
426.598	5.01
426.959	4.95
427.32	5.09
427.68	5.17
428.041	5.12
428.401	5.12
428.761	5.13
429.122	5.02
429.482	5.16
429.842	5.37
430.202	5.27
430.563	5.11
430.923	5.17
431.283	5.41
431.643	5.24
432.003	5.28
432.363	5.3
432.722	5.17
433.082	5.34
433.442	5.26
433.802	5.11
434.161	5.18
434.521	5.25
434.881	5.13
435.24	5.23
435.6	5.18
435.959	5.13
436.319	5.29
436.678	5.36
437.037	5.15
437.396	5.38
437.756	5.58
438.115	5.33
438.474	5.32
438.833	5.37
439.192	5.23
439.551	5.36
439.91	5.24
440.269	5.35
440.628	5.24
440.987	5.19
441.345	5.16
441.704	5.34
442.063	5.42
442.421	5.25
442.78	5.26
443.138	5.11
443.497	5.25
443.855	5.42
444.214	5.42
444.572	5.52
444.93	5.43
445.288	5.32
445.647	5.3
446.005	5.36
446.363	5.38
446.721	5.21
447.079	5.31
447.437	5.29
447.795	5.22
448.153	5.26
448.51	5.25
448.868	5.29
449.226	5.29
449.584	5.34
449.941	5.36
450.299	5.41
450.656	5.41
451.014	5.44
451.371	5.53
451.729	5.52
452.086	5.56
452.443	5.59
452.801	5.58
453.158	5.56
453.515	5.57
453.872	5.41
454.229	5.43
454.586	5.56
454.943	5.55
455.3	5.66
455.657	5.49
456.014	5.51
456.371	5.63
456.727	5.5
457.084	5.58
457.441	5.55
457.797	5.61
458.154	5.58
458.51	5.74
458.867	5.59
459.223	5.72
459.58	5.49
459.936	5.6
460.292	5.61
460.648	5.65
461.005	5.6
461.361	5.56
461.717	5.5
462.073	5.55
462.429	5.43
462.785	5.47
463.141	5.47
463.496	5.69
463.852	5.62
464.208	5.63
464.564	5.82
464.919	5.75
465.275	5.48
465.631	5.78
465.986	5.76
466.342	5.8
466.697	5.77
467.052	5.77
467.408	5.71
467.763	5.78
468.118	5.8
468.473	5.77
468.829	5.78
469.184	5.7
469.539	5.81
469.894	5.67
470.249	5.86
470.603	5.81
470.958	5.59
471.313	5.84
471.668	5.74
472.023	5.65
472.377	5.79
472.732	5.86
473.086	5.95
473.441	5.71
473.795	5.67
474.15	5.82
474.504	5.84
474.859	5.72
475.213	5.72
475.567	5.81
475.921	5.95
476.275	6.01
476.63	5.84
476.984	6
477.338	6.01
477.692	5.95
478.045	5.86
478.399	5.68
478.753	5.72
479.107	5.88
479.461	5.85
479.814	6.02
480.168	6.03
480.521	5.87
480.875	6.05
481.228	5.9
481.582	6.05
481.935	5.91
482.289	5.86
482.642	6.03
482.995	5.98
483.348	6.03
483.701	5.88
484.055	5.92
484.408	5.96
484.761	5.91
485.114	5.82
485.466	5.72
485.819	5.69
486.172	5.69
486.525	5.68
486.878	5.72
487.23	5.83
487.583	5.86
487.936	5.87
488.288	5.95
488.641	5.85
488.993	5.89
489.345	5.87
489.698	5.86
490.05	5.87
490.402	5.86
490.754	5.89
491.107	5.94
491.459	5.95
491.811	6.08
492.163	6.19
492.515	6.12
492.866	6.07
493.218	6.04
493.57	5.9
493.922	5.93
494.274	5.97
494.625	6.03
494.977	6.15
495.328	6.16
495.68	6.14
496.031	6.27
496.383	6.23
496.734	6.28
497.086	6.18
497.437	6.36
497.788	6.17
498.139	6.33
498.49	6.27
498.842	6.25
499.193	6.18
499.544	6.27
499.894	6.23
500.245	6.35
500.596	6.34
500.947	6.36
501.298	6.5
501.648	6.34
501.999	6.57
502.35	6.41
502.7	6.44
503.051	6.44
503.401	6.48
503.752	6.47
504.102	6.39
504.452	6.46
504.803	6.37
505.153	6.61
505.503	6.53
505.853	6.5
506.203	6.52
506.553	6.46
506.903	6.54
507.253	6.59
507.603	6.67
507.953	6.7
508.303	6.67
508.652	6.6
509.002	6.57
509.352	6.62
509.701	6.63
510.051	6.49
510.4	6.53
510.75	6.59
511.099	6.55
511.449	6.51
511.798	6.56
512.147	6.73
512.496	6.63
512.846	6.8
513.195	6.63
513.544	6.74
513.893	6.73
514.242	6.74
514.591	6.55
514.939	6.7
515.288	6.67
515.637	6.72
515.986	6.7
516.334	7.03
516.683	6.88
517.032	6.88
517.38	6.92
517.729	6.88
518.077	7
518.426	7.05
518.774	6.95
519.122	6.84
519.47	6.95
519.819	6.93
520.167	6.92
520.515	6.91
520.863	6.94
521.211	6.91
521.559	6.92
521.907	6.87
522.255	6.84
522.602	7.11
522.95	7
523.298	6.97
523.645	7.1
523.993	7.12
524.341	7.17
524.688	7.2
525.036	7.05
525.383	7.32
525.73	7.07
526.078	7.24
526.425	7.14
526.772	7.07
527.119	7.12
527.466	7.13
527.814	7.06
528.161	7.1
528.508	7.14
528.854	7.17
529.201	7.24
529.548	7.14
529.895	7.16
530.242	6.97
530.588	6.98
530.935	7.01
531.282	7.07
531.628	7.04
531.975	7.06
532.321	7.17
532.667	7.21
533.014	7.38
533.36	7.35
533.706	7.43
534.052	7.49
534.399	7.31
534.745	7.31
535.091	7.3
535.437	7.29
535.783	7.33
536.129	7.33
536.474	7.4
536.82	7.36
537.166	7.6
537.512	7.62
537.857	7.64
538.203	7.65
538.549	7.52
538.894	7.61
539.239	7.55
539.585	7.62
539.93	7.66
540.276	7.69
540.621	7.85
540.966	7.87
541.311	7.71
541.656	7.91
542.001	7.77
542.346	7.83
542.691	7.72
543.036	7.64
543.381	7.64
543.726	7.6
544.071	7.61
544.415	7.68
544.76	7.74
545.105	7.85
545.449	7.85
545.794	7.81
546.138	8.04
546.483	8.07
546.827	8.02
547.171	8
547.516	8.17
547.86	8.07
548.204	8.09
548.548	7.94
548.892	7.98
549.236	8.03
549.58	8.19
549.924	8.27
550.268	8.15
550.612	8.13
550.956	8.16
551.3	8.31
551.643	8.31
551.987	8.34
552.33	8.43
552.674	8.51
553.017	8.49
553.361	8.28
553.704	8.3
554.048	8.52
554.391	8.42
554.734	8.61
555.077	8.48
555.42	8.52
555.764	8.5
556.107	8.56
556.45	8.8
556.793	8.6
557.135	8.69
557.478	8.69
557.821	8.76
558.164	8.68
558.507	8.7
558.849	8.77
559.192	8.82
559.534	8.84
559.877	8.93
560.219	8.6
560.562	8.85
560.904	8.73
561.246	8.76
561.589	9.09
561.931	9.01
562.273	9.03
562.615	9.2
562.957	9.07
563.299	9.05
563.641	9
563.983	8.97
564.325	9.21
564.667	9.21
565.008	9.04
565.35	9.25
565.692	9.17
566.033	9.28
566.375	9.14
566.716	9.31
567.058	9.24
567.399	9.22
567.741	9.18
568.082	9.21
568.423	9.26
568.764	9.33
569.105	9.29
569.447	9.26
569.788	9.35
570.129	9.51
570.47	9.48
570.811	9.45
571.151	9.53
571.492	9.56
571.833	9.68
572.174	9.53
572.514	9.72
572.855	9.46
573.195	9.57
573.536	9.64
573.876	9.78
574.217	9.62
574.557	9.74
574.898	9.61
575.238	9.73
575.578	9.73
575.918	9.68
576.258	9.93
576.598	9.87
576.938	9.99
577.278	9.8
577.618	9.94
577.958	9.95
578.298	9.94
578.638	9.95
578.977	9.86
579.317	9.98
579.657	10.1
579.996	10.08
580.336	10.06
580.675	10.14
581.014	10.14
581.354	10.14
581.693	10.13
582.032	10.17
582.372	10.32
582.711	10.31
583.05	10.32
583.389	10.21
583.728	10.51
584.067	10.44
584.406	10.48
584.745	10.46
585.083	10.45
585.422	10.48
585.761	10.43
586.1	10.6
586.438	10.75
586.777	10.45
587.115	10.78
587.454	10.78
587.792	10.8
588.13	11.09
588.469	10.86
588.807	10.85
589.145	10.79
589.483	10.83
589.821	10.93
590.159	10.81
590.497	10.91
590.835	10.99
591.173	10.88
591.511	10.74
591.849	10.91
592.187	10.95
592.524	10.99
592.862	10.81
593.2	10.74
593.537	10.73
593.875	11.11
594.212	11.14
594.55	11.26
594.887	11.08
595.224	11.37
595.561	11.34
595.899	11.22
596.236	11.24
596.573	11.54
596.91	11.46
597.247	11.52
597.584	11.39
597.921	11.4
598.258	11.66
598.594	11.39
598.931	11.36
599.268	11.5
599.604	11.53
599.941	11.5
600.277	11.53
600.614	11.61
600.95	11.54
601.287	11.62
601.623	11.8
601.959	11.81
602.296	11.72
602.632	11.92
602.968	11.93
603.304	11.65
603.64	11.75
603.976	11.98
604.312	11.94
604.648	11.7
604.984	11.9
605.319	11.88
605.655	12
605.991	11.93
606.326	11.99
606.662	11.96
606.998	12.03
607.333	12.15
607.668	12.13
608.004	12.13
608.339	11.93
608.674	12.14
609.01	12.41
609.345	12.38
609.68	12.36
610.015	12.44
610.35	12.54
610.685	12.48
611.02	12.58
611.355	12.45
611.689	12.31
612.024	12.42
612.359	12.7
612.694	12.31
613.028	12.52
613.363	12.83
613.697	12.61
614.032	12.45
614.366	12.55
614.7	12.96
615.035	12.72
615.369	12.9
615.703	12.72
616.037	12.55
616.371	12.9
616.705	13.07
617.039	12.87
617.373	13.03
617.707	13
618.041	13.01
618.375	13.08
618.709	13.37
619.042	13.07
619.376	13.09
619.71	13.12
620.043	13.44
620.377	13.29
620.71	13.33
621.043	12.7
621.377	13.07
621.71	13.27
622.043	13.28
622.376	13.52
622.709	13.55
623.043	13.05
623.376	13.48
623.709	13.61
624.041	13.67
624.374	13.48
624.707	13.23
625.04	14.24
625.373	13.4
625.705	13.21
626.038	13.61
626.37	13.79
626.703	13.69
627.035	13.56
627.368	13.65
627.7	13.78
628.032	13.91
628.365	13.8
628.697	13.78
629.029	13.77
629.361	13.72
629.693	13.71
630.025	13.99
630.357	13.8
630.689	13.92
631.021	14.13
631.353	13.98
631.684	14.33
632.016	14.21
632.348	14.12
632.679	14.07
633.011	14.13
633.342	14.38
633.674	14.51
634.005	14.52
634.336	14.47
634.668	14.3
634.999	14.53
635.33	14.29
635.661	14.08
635.992	14.5
636.323	14.41
636.654	14.77
636.985	14.45
637.316	14.58
637.647	14.69
637.977	14.65
638.308	14.63
638.639	14.75
638.969	14.55
639.3	14.61
639.63	14.68
639.961	14.38
640.291	14.7
640.622	14.6
640.952	14.75
641.282	14.67
641.612	15.12
641.943	14.85
642.273	14.51
642.603	15.07
642.933	15
643.263	15.1
643.592	14.95
643.922	15.3
644.252	14.65
644.582	15.28
644.911	15.16
645.241	15.59
645.571	15.43
645.9	15.4
646.23	15
646.559	14.81
646.888	15.37
647.218	16.01
647.547	15.58
647.876	15.52
648.205	15.13
648.534	15.7
648.863	15.78
649.192	15.38
649.521	15.73
649.85	15.68
650.179	15.85
650.508	15.67
650.837	15.55
651.165	15.37
651.494	15.77
651.822	15.57
652.151	15.6
652.479	15.78
652.808	15.5
653.136	16.08
653.465	16.19
653.793	15.71
654.121	15.61
654.449	16.22
654.777	15.81
655.105	16.29
655.433	16.1
655.761	15.87
656.089	16.28
656.417	16.36
656.745	16.22
657.073	16.33
657.4	15.83
657.728	16.32
658.056	16.26
658.383	16.45
658.711	15.78
659.038	15.95
659.365	16.15
659.693	16.32
660.02	16.83
660.347	16.29
660.674	16.08
661.001	16.17
661.329	16.47
661.656	16.79
661.982	16.55
662.309	16.36
662.636	16.5
662.963	16.98
663.29	16.62
663.616	16.47
663.943	16.5
664.27	17.18
664.596	16.96
664.923	17.06
665.249	16.8
665.576	16.62
665.902	16.44
666.228	16.86
666.554	17.58
666.881	17.65
667.207	16.88
667.533	16.81
667.859	17.39
668.185	16.98
668.511	17.01
668.837	17.22
669.162	17.42
669.488	16.84
669.814	17.09
670.139	17.53
670.465	17.72
670.791	16.99
671.116	17.49
671.442	17.8
671.767	17.44
672.092	17.41
672.418	17.38
672.743	17.67
673.068	17.41
673.393	17.41
673.718	16.93
674.043	17.69
674.368	17.31
674.693	17.83
675.018	17.32
675.343	17
675.667	17.25
675.992	17.76
676.317	17.97
676.641	17.47
676.966	17.5
677.29	17.49
677.615	17.64
677.939	17.97
678.264	17.83
678.588	17.57
678.912	17.85
679.236	18.29
679.56	17.9
679.885	17.41
680.209	17.84
680.532	17.64
680.856	18.18
681.18	18.24
681.504	17.95
681.828	18.1
682.152	18.73
682.475	18.21
682.799	18.21
683.122	18.28
683.446	18.11
683.769	18.36
684.093	17.88
684.416	18.25
684.739	18.66
685.062	18.56
685.386	18.82
685.709	18.43
