Data from 0035_forehead_Reflection__1__26.txt Node

Date: Fri Nov 04 14:50:23 CDT 2022
User: ToomeyLab
Spectrometer: FLMS14357
Trigger mode: 0
Integration Time (sec): 1.000000E-2
Scans to average: 100
Electric dark correction enabled: true
Nonlinearity correction enabled: false
Boxcar width: 0
XAxis mode: Wavelengths
Number of Pixels in Spectrum: 2048
>>>>>Begin Spectral Data<<<<<
189.047	115.13
189.435	115.13
189.823	115.13
190.211	354.52
190.599	127.31
190.987	-2943.55
191.375	166.54
191.763	40.23
192.151	219.2
192.538	17.52
192.926	548.6
193.314	27.33
193.702	-101.54
194.089	79.8
194.477	-109.84
194.864	-135.88
195.252	50.71
195.639	296
196.027	173.8
196.414	-193.77
196.801	21.89
197.189	1869.11
197.576	8.05
197.963	2139.72
198.351	-8.23
198.738	41.88
199.125	9.26
199.512	37.6
199.899	25.35
200.286	31.17
200.673	20.43
201.06	41.64
201.447	29.7
201.833	-1.34
202.22	5.94
202.607	16.05
202.994	34.91
203.38	57.17
203.767	35.01
204.154	37.63
204.54	35.55
204.927	19.67
205.313	7.2
205.699	61.82
206.086	39.95
206.472	33.98
206.858	42.69
207.245	15.96
207.631	5.17
208.017	2.67
208.403	37.19
208.789	24.48
209.175	34.25
209.561	6.66
209.947	17.68
210.333	48.64
210.719	26.09
211.105	1.72
211.491	35.95
211.876	19.97
212.262	35.8
212.648	31.12
213.034	36.93
213.419	19.88
213.805	19.15
214.19	23.98
214.576	3.28
214.961	32.67
215.346	25.6
215.732	10.08
216.117	-19.68
216.502	37.2
216.888	10.23
217.273	10.8
217.658	-0.12
218.043	21.64
218.428	24.99
218.813	40.78
219.198	-20.54
219.583	17.86
219.968	-7.76
220.353	5.45
220.738	20.7
221.122	-4.41
221.507	17.62
221.892	3.45
222.276	-5.01
222.661	23.77
223.046	15.03
223.43	5.41
223.815	14.43
224.199	1.91
224.583	10.88
224.968	8.02
225.352	7.28
225.736	10.79
226.121	4.57
226.505	7.03
226.889	-0.89
227.273	5.56
227.657	3.46
228.041	6.92
228.425	7.19
228.809	2.34
229.193	4.52
229.577	4.58
229.961	4.99
230.344	2.36
230.728	2.69
231.112	3.55
231.495	2.7
231.879	3.48
232.263	3.51
232.646	3.09
233.03	4.02
233.413	4.55
233.797	4.96
234.18	3.55
234.563	5.49
234.946	2.63
235.33	5.99
235.713	3.73
236.096	4.53
236.479	3.39
236.862	4.7
237.245	4.44
237.628	2.66
238.011	3.79
238.394	4.91
238.777	4.65
239.16	4.43
239.543	3.98
239.925	1.64
240.308	3.19
240.691	3.52
241.073	2.47
241.456	3.93
241.838	2.64
242.221	3.88
242.603	2.97
242.986	4.44
243.368	4.08
243.75	4.17
244.133	3.74
244.515	3.84
244.897	2.85
245.279	3.32
245.661	4.01
246.043	3.79
246.425	4.2
246.807	3.69
247.189	4.29
247.571	3.86
247.953	3.5
248.335	3.16
248.717	3.4
249.098	3.25
249.48	3.46
249.862	3.52
250.243	3.93
250.625	4.29
251.006	3.77
251.388	4.07
251.769	3.2
252.151	2.44
252.532	3.29
252.913	3.61
253.295	3.31
253.676	3.43
254.057	3.46
254.438	4.41
254.819	3.83
255.2	3
255.581	4.25
255.962	4.65
256.343	4.09
256.724	3.09
257.105	3.86
257.486	5.07
257.867	4.14
258.247	4.71
258.628	3.48
259.009	3.93
259.389	3.01
259.77	3.6
260.15	3.74
260.531	4.22
260.911	3.56
261.292	3.56
261.672	3.5
262.052	3.55
262.432	3.37
262.813	3.88
263.193	3.58
263.573	3.82
263.953	3.77
264.333	3
264.713	4.34
265.093	4.07
265.473	3.83
265.853	3.64
266.233	4.08
266.612	3.89
266.992	5.37
267.372	3.95
267.752	3.67
268.131	3.61
268.511	3.45
268.89	3.61
269.27	3.53
269.649	3.29
270.029	3.92
270.408	3.64
270.787	3.72
271.167	4.13
271.546	3.43
271.925	4.31
272.304	3.65
272.683	3.44
273.062	3.83
273.441	3.31
273.82	3.33
274.199	4.08
274.578	3.22
274.957	3.57
275.336	3.23
275.715	3.59
276.093	3.41
276.472	3.97
276.851	3.94
277.229	3.04
277.608	3.4
277.986	3.44
278.365	3.73
278.743	3.42
279.122	3.31
279.5	3.46
279.878	4.18
280.257	3.23
280.635	2.99
281.013	3.3
281.391	4.05
281.769	3.86
282.147	3.31
282.525	3.8
282.903	3.52
283.281	3.72
283.659	4.11
284.037	3.77
284.415	3.21
284.792	4.2
285.17	3.12
285.548	3.37
285.925	3.58
286.303	3.85
286.68	4.09
287.058	3.58
287.435	3.6
287.813	3.16
288.19	3.77
288.567	4.06
288.945	3.86
289.322	3.76
289.699	3.59
290.076	3.89
290.453	4.36
290.83	3.9
291.207	3.74
291.584	3.92
291.961	3.94
292.338	4.32
292.715	4.11
293.092	3.49
293.469	4.27
293.845	3.98
294.222	3.9
294.599	4.36
294.975	4
295.352	4.12
295.728	4.76
296.105	4.66
296.481	4.6
296.858	4.8
297.234	4.69
297.61	4.58
297.986	4.87
298.363	4.74
298.739	4.45
299.115	4.73
299.491	4.48
299.867	4.98
300.243	4.76
300.619	4.7
300.995	5.04
301.371	5.17
301.746	4.5
302.122	4.92
302.498	4.92
302.874	5.34
303.249	4.41
303.625	4.78
304	5.03
304.376	5.61
304.751	5.44
305.127	5.74
305.502	4.84
305.878	5.26
306.253	5.41
306.628	6.02
307.003	5.06
307.378	5.56
307.754	5.98
308.129	5.32
308.504	5.22
308.879	5.5
309.254	5.75
309.629	5.72
310.003	6.22
310.378	5.95
310.753	6.39
311.128	5.93
311.502	6.12
311.877	6.2
312.252	5.93
312.626	6.41
313.001	6.46
313.375	6.25
313.75	6.32
314.124	6.3
314.498	6.49
314.873	6.6
315.247	6.95
315.621	6.1
315.995	6.44
316.369	6.93
316.743	6.59
317.117	6.14
317.491	6.59
317.865	7.31
318.239	7.17
318.613	7.48
318.987	7.4
319.361	6.8
319.734	6.81
320.108	7.09
320.482	7.51
320.855	7.97
321.229	7.38
321.602	7.53
321.976	8.17
322.349	7.75
322.723	7.84
323.096	7.33
323.469	8.09
323.843	7.92
324.216	7.69
324.589	7.97
324.962	8.56
325.335	7.89
325.708	7.93
326.081	7.78
326.454	8.23
326.827	7.92
327.2	8.12
327.573	8.05
327.945	8.21
328.318	8.03
328.691	8.54
329.063	8.17
329.436	7.82
329.809	7.94
330.181	8.51
330.553	8.69
330.926	8.41
331.298	8.75
331.671	9.05
332.043	8.86
332.415	8.55
332.787	8.27
333.159	9.16
333.532	9.05
333.904	9
334.276	8.45
334.648	9.09
335.02	9.09
335.391	9.24
335.763	8.89
336.135	9.34
336.507	9.12
336.879	9.33
337.25	9.14
337.622	9.38
337.993	9.39
338.365	9.28
338.736	9.21
339.108	9.54
339.479	9.44
339.851	9.5
340.222	9.85
340.593	9.78
340.964	9.94
341.336	9.59
341.707	9.61
342.078	9.96
342.449	9.93
342.82	9.78
343.191	9.92
343.562	9.81
343.933	10.07
344.303	10.08
344.674	9.79
345.045	10.24
345.416	10.8
345.786	10.24
346.157	10.05
346.527	10.33
346.898	10.18
347.268	10.29
347.639	10.7
348.009	10.7
348.38	10.49
348.75	10.98
349.12	10.4
349.49	10.25
349.861	10.57
350.231	10.86
350.601	10.81
350.971	10.71
351.341	10.68
351.711	11.27
352.081	10.68
352.45	10.84
352.82	11.01
353.19	11.28
353.56	11.21
353.929	10.92
354.299	11.32
354.669	10.94
355.038	11.46
355.408	11.53
355.777	11.34
356.147	11.61
356.516	11.54
356.885	11.79
357.254	11.71
357.624	11.53
357.993	11.49
358.362	11.78
358.731	11.91
359.1	11.81
359.469	12.1
359.838	12.02
360.207	12.23
360.576	11.91
360.945	11.78
361.314	12.09
361.682	12.18
362.051	12.25
362.42	12.36
362.788	12.14
363.157	12.26
363.525	12.08
363.894	12.37
364.262	12.5
364.631	12.59
364.999	12.57
365.367	12.49
365.735	12.68
366.104	12.79
366.472	12.76
366.84	12.43
367.208	12.65
367.576	12.92
367.944	12.98
368.312	12.97
368.68	12.95
369.048	12.64
369.416	12.86
369.783	12.93
370.151	13.38
370.519	13.39
370.886	13.24
371.254	12.9
371.621	13.45
371.989	13.09
372.356	13.55
372.724	13.69
373.091	13.64
373.458	13.91
373.826	13.69
374.193	13.31
374.56	13.77
374.927	13.66
375.294	13.76
375.661	13.93
376.028	13.99
376.395	13.83
376.762	14.14
377.129	13.69
377.496	13.75
377.863	14.14
378.229	14.3
378.596	14.04
378.963	14.27
379.329	14.35
379.696	14.27
380.062	14.27
380.429	14.36
380.795	14.53
381.161	14.7
381.528	14.72
381.894	14.65
382.26	14.87
382.626	14.77
382.993	14.77
383.359	14.86
383.725	14.78
384.091	14.79
384.457	15.1
384.823	14.94
385.188	14.78
385.554	15.15
385.92	14.84
386.286	15.14
386.651	15.56
387.017	15.07
387.383	15.29
387.748	15.43
388.114	15.81
388.479	15.39
388.845	15.13
389.21	15.32
389.575	15.33
389.94	15.83
390.306	15.51
390.671	15.61
391.036	15.79
391.401	16.01
391.766	15.56
392.131	15.81
392.496	15.82
392.861	16.07
393.226	15.99
393.591	16.18
393.956	15.91
394.32	16.12
394.685	16.31
395.05	15.97
395.414	16.19
395.779	16.25
396.143	16.32
396.508	16.11
396.872	16.42
397.236	16.35
397.601	16.69
397.965	16.72
398.329	16.42
398.694	16.79
399.058	16.79
399.422	16.55
399.786	16.99
400.15	16.78
400.514	16.94
400.878	16.61
401.242	17.04
401.605	16.67
401.969	16.97
402.333	17.2
402.697	17.14
403.06	17.3
403.424	17.06
403.787	17
404.151	17.24
404.514	17.47
404.878	17.51
405.241	17.34
405.604	17.5
405.968	17.4
406.331	17.56
406.694	17.57
407.057	17.47
407.42	17.65
407.783	17.76
408.146	17.84
408.509	17.59
408.872	17.94
409.235	18.04
409.598	17.92
409.961	18.28
410.323	18.29
410.686	18.04
411.049	18.22
411.411	18.21
411.774	18
412.136	18.16
412.499	18.4
412.861	18.61
413.223	18.56
413.586	18.46
413.948	18.41
414.31	18.36
414.672	18.84
415.035	18.46
415.397	18.85
415.759	18.8
416.121	18.5
416.483	18.63
416.845	18.78
417.206	18.99
417.568	18.7
417.93	19.12
418.292	18.9
418.653	18.87
419.015	19.15
419.377	19.19
419.738	18.83
420.1	18.74
420.461	19.14
420.822	18.9
421.184	19.08
421.545	19.06
421.906	19.19
422.267	19.12
422.629	18.82
422.99	18.89
423.351	19.05
423.712	19.17
424.073	19.16
424.434	19.27
424.795	19.35
425.155	19.4
425.516	19.26
425.877	19.36
426.238	19.21
426.598	19.45
426.959	19.52
427.32	19.61
427.68	19.67
428.041	19.96
428.401	19.93
428.761	20.24
429.122	20.16
429.482	20.27
429.842	20.48
430.202	20.25
430.563	20.61
430.923	20.42
431.283	20.6
431.643	20.59
432.003	20.58
432.363	20.65
432.722	20.66
433.082	20.88
433.442	20.8
433.802	20.48
434.161	20.7
434.521	20.74
434.881	20.65
435.24	20.92
435.6	20.73
435.959	20.89
436.319	20.84
436.678	21.04
437.037	21.06
437.396	21.28
437.756	21.35
438.115	21.36
438.474	21.25
438.833	21.33
439.192	21.23
439.551	21.37
439.91	21.39
440.269	21.49
440.628	21.34
440.987	21.46
441.345	21.27
441.704	21.32
442.063	21.33
442.421	21.36
442.78	21.41
443.138	21.43
443.497	21.65
443.855	21.78
444.214	21.78
444.572	21.99
444.93	22.06
445.288	21.87
445.647	21.98
446.005	22.16
446.363	21.95
446.721	21.94
447.079	21.93
447.437	21.83
447.795	21.57
448.153	21.75
448.51	21.77
448.868	21.91
449.226	21.89
449.584	22.06
449.941	22.19
450.299	22.45
450.656	22.57
451.014	22.62
451.371	22.58
451.729	22.91
452.086	22.89
452.443	22.89
452.801	22.93
453.158	23.04
453.515	23.02
453.872	23
454.229	23.05
454.586	23.07
454.943	22.88
455.3	23.17
455.657	23.14
456.014	23.17
456.371	23.19
456.727	23.3
457.084	23.26
457.441	23.46
457.797	23.62
458.154	23.42
458.51	23.7
458.867	23.61
459.223	23.81
459.58	23.59
459.936	23.73
460.292	23.7
460.648	23.72
461.005	23.62
461.361	23.46
461.717	23.33
462.073	23.47
462.429	23.43
462.785	23.71
463.141	23.77
463.496	23.98
463.852	23.99
464.208	24.22
464.564	24.32
464.919	24.38
465.275	24.3
465.631	24.6
465.986	24.34
466.342	24.45
466.697	24.54
467.052	24.54
467.408	24.47
467.763	24.71
468.118	24.67
468.473	24.57
468.829	24.74
469.184	24.51
469.539	24.48
469.894	24.64
470.249	24.87
470.603	24.88
470.958	24.9
471.313	24.98
471.668	24.96
472.023	25.04
472.377	24.88
472.732	25.25
473.086	24.99
473.441	25.15
473.795	25.11
474.15	25.23
474.504	25.21
474.859	25.21
475.213	25.41
475.567	25.35
475.921	25.34
476.275	25.55
476.63	25.52
476.984	25.77
477.338	25.78
477.692	25.7
478.045	25.81
478.399	25.68
478.753	25.62
479.107	25.8
479.461	25.8
479.814	25.91
480.168	25.86
480.521	25.78
480.875	25.95
481.228	25.84
481.582	26.09
481.935	26.11
482.289	25.92
482.642	26.25
482.995	26.1
483.348	26.05
483.701	26.01
484.055	25.93
484.408	25.86
484.761	25.82
485.114	25.59
485.466	25.31
485.819	25.28
486.172	25.36
486.525	25.35
486.878	25.61
487.23	25.77
487.583	25.88
487.936	26.1
488.288	26.11
488.641	26.04
488.993	25.9
489.345	25.88
489.698	25.88
490.05	25.96
490.402	26.1
490.754	26.22
491.107	26.47
491.459	26.59
491.811	26.77
492.163	27
492.515	26.85
492.866	26.71
493.218	26.49
493.57	26.22
493.922	26.44
494.274	26.56
494.625	26.75
494.977	26.96
495.328	27.1
495.68	27.38
496.031	27.43
496.383	27.47
496.734	27.68
497.086	27.59
497.437	27.85
497.788	27.79
498.139	27.7
498.49	27.82
498.842	27.6
499.193	27.75
499.544	27.77
499.894	27.8
500.245	27.86
500.596	27.97
500.947	27.96
501.298	28.11
501.648	28.3
501.999	28.28
502.35	28.48
502.7	28.39
503.051	28.42
503.401	28.44
503.752	28.73
504.102	28.58
504.452	28.55
504.803	28.63
505.153	28.84
505.503	28.6
505.853	28.57
506.203	28.65
506.553	28.76
506.903	28.77
507.253	28.86
507.603	29.04
507.953	29.07
508.303	29.12
508.652	28.93
509.002	29.03
509.352	28.99
509.701	29.02
510.051	28.98
510.4	28.91
510.75	28.92
511.099	28.78
511.449	29.01
511.798	29.04
512.147	29.23
512.496	29.23
512.846	29.23
513.195	29.25
513.544	29.38
513.893	29.37
514.242	29.32
514.591	29.33
514.939	29.41
515.288	29.49
515.637	29.79
515.986	29.83
516.334	30.14
516.683	30
517.032	30.08
517.38	30.17
517.729	30.05
518.077	30.14
518.426	30.34
518.774	30.11
519.122	30.07
519.47	30.16
519.819	29.96
520.167	29.76
520.515	29.77
520.863	29.78
521.211	29.88
521.559	30
521.907	29.97
522.255	30.21
522.602	30.44
522.95	30.5
523.298	30.74
523.645	30.65
523.993	30.81
524.341	30.91
524.688	30.81
525.036	30.91
525.383	31.07
525.73	31.14
526.078	30.99
526.425	30.92
526.772	30.72
527.119	30.66
527.466	30.58
527.814	30.49
528.161	30.77
528.508	30.71
528.854	30.89
529.201	30.84
529.548	30.88
529.895	30.57
530.242	30.27
530.588	30.35
530.935	30.42
531.282	30.54
531.628	30.57
531.975	30.66
532.321	30.95
532.667	31.06
533.014	31.2
533.36	31.32
533.706	31.45
534.052	31.53
534.399	31.37
534.745	31.3
535.091	31.08
535.437	31.08
535.783	31.23
536.129	31.36
536.474	31.49
536.82	31.72
537.166	31.88
537.512	32.02
537.857	32.13
538.203	31.96
538.549	31.76
538.894	31.78
539.239	31.84
539.585	31.96
539.93	32.12
540.276	32.37
540.621	32.41
540.966	32.74
541.311	32.69
541.656	32.84
542.001	32.66
542.346	32.52
542.691	32.24
543.036	31.94
543.381	31.83
543.726	31.88
544.071	31.92
544.415	32.15
544.76	32.22
545.105	32.4
545.449	32.62
545.794	32.66
546.138	32.83
546.483	32.8
546.827	33.05
547.171	32.98
547.516	32.92
547.86	33.19
548.204	32.86
548.548	32.85
548.892	32.95
549.236	33.14
549.58	33.29
549.924	33.61
550.268	33.47
550.612	33.76
550.956	33.79
551.3	34.11
551.643	34.01
551.987	33.96
552.33	34.02
552.674	33.98
553.017	34.22
553.361	34.24
553.704	34.33
554.048	34.36
554.391	34.25
554.734	34.18
555.077	33.96
555.42	34.16
555.764	34.21
556.107	34.43
556.45	34.53
556.793	34.58
557.135	34.66
557.478	34.38
557.821	34.59
558.164	34.66
558.507	34.68
558.849	34.95
559.192	34.81
559.534	34.73
559.877	35.17
560.219	34.79
560.562	34.96
560.904	34.82
561.246	34.95
561.589	35.05
561.931	35.09
562.273	35.25
562.615	35.42
562.957	35.33
563.299	35.05
563.641	35.23
563.983	35.38
564.325	35.44
564.667	35.38
565.008	35.44
565.35	35.63
565.692	35.56
566.033	35.43
566.375	35.64
566.716	35.69
567.058	35.81
567.399	35.53
567.741	35.73
568.082	35.6
568.423	35.41
568.764	35.76
569.105	35.8
569.447	35.78
569.788	35.79
570.129	36.05
570.47	36.05
570.811	36.16
571.151	36.07
571.492	36.34
571.833	36.32
572.174	36.2
572.514	36.39
572.855	36.23
573.195	36.08
573.536	36.34
573.876	36.22
574.217	36.23
574.557	36.17
574.898	36.37
575.238	36.39
575.578	36.4
575.918	36.3
576.258	36.59
576.598	36.61
576.938	36.6
577.278	36.53
577.618	36.56
577.958	36.8
578.298	36.73
578.638	36.77
578.977	36.71
579.317	37.04
579.657	37.06
579.996	36.95
580.336	37.03
580.675	37.26
581.014	37.03
581.354	37.46
581.693	37.53
582.032	37.39
582.372	37.56
582.711	37.36
583.05	37.51
583.389	37.62
583.728	37.25
584.067	37.55
584.406	37.7
584.745	37.83
585.083	37.68
585.422	37.71
585.761	37.56
586.1	37.97
586.438	37.92
586.777	37.8
587.115	38.53
587.454	38.13
587.792	37.77
588.13	38.33
588.469	38.16
588.807	38.17
589.145	37.85
589.483	38.36
589.821	38.37
590.159	38.42
590.497	38.36
590.835	38.57
591.173	38.44
591.511	38.08
591.849	38.04
592.187	38.23
592.524	38.66
592.862	38.16
593.2	38.5
593.537	38.05
593.875	38.3
594.212	38.74
594.55	38.62
594.887	38.62
595.224	39
595.561	39
595.899	38.64
596.236	38.75
596.573	38.9
596.91	38.98
597.247	39.09
597.584	39.01
597.921	38.82
598.258	39.12
598.594	39
598.931	38.92
599.268	38.96
599.604	38.74
599.941	38.89
600.277	39.16
600.614	38.68
600.95	39.38
601.287	39.37
601.623	39.73
601.959	39.41
602.296	39.79
602.632	39.54
602.968	39.6
603.304	39.57
603.64	39.76
603.976	39.72
604.312	39.76
604.648	39.61
604.984	39.69
605.319	39.5
605.655	39.63
605.991	39.67
606.326	39.52
606.662	39.58
606.998	39.39
607.333	39.7
607.668	39.75
608.004	39.83
608.339	40.05
608.674	39.95
609.01	40.3
609.345	40.37
609.68	40.5
610.015	40.07
610.35	40.52
610.685	40.17
611.02	40.35
611.355	40.29
611.689	40.1
612.024	40.07
612.359	40.4
612.694	40.2
613.028	40.38
613.363	40.68
613.697	40.54
614.032	40.98
614.366	40.56
614.7	40.56
615.035	40.77
615.369	41.11
615.703	40.94
616.037	40.88
616.371	40.86
616.705	41.02
617.039	40.91
617.373	41.33
617.707	41.31
618.041	41.34
618.375	41.01
618.709	41.58
619.042	41.33
619.376	41.08
619.71	41.23
620.043	41.49
620.377	41.37
620.71	41.45
621.043	41.19
621.377	41.37
621.71	41.35
622.043	41.47
622.376	41.74
622.709	41.54
623.043	41.71
623.376	41.75
623.709	41.93
624.041	41.78
624.374	42.08
624.707	41.49
625.04	41.84
625.373	41.45
625.705	41.55
626.038	42.17
626.37	42.48
626.703	41.86
627.035	41.75
627.368	42.25
627.7	42.23
628.032	41.98
628.365	42.09
628.697	41.96
629.029	42.4
629.361	42.14
629.693	42.01
630.025	41.93
630.357	42.28
630.689	42.08
631.021	42.1
631.353	42.37
631.684	42.67
632.016	42.21
632.348	42.52
632.679	42.8
633.011	42.64
633.342	42.44
633.674	42.79
634.005	42.68
634.336	42.86
634.668	43.02
634.999	43
635.33	43.3
635.661	42.54
635.992	43.26
636.323	42.79
636.654	43.17
636.985	42.95
637.316	43.32
637.647	43.16
637.977	42.85
638.308	43.19
638.639	43.21
638.969	43.13
639.3	43.26
639.63	43.04
639.961	43.2
640.291	43.3
640.622	43.09
640.952	43.77
641.282	43.45
641.612	43.46
641.943	43.47
642.273	43.21
642.603	43.59
642.933	43.06
643.263	43.37
643.592	43.86
643.922	43.52
644.252	43.51
644.582	43.55
644.911	44.11
645.241	43.87
645.571	43.61
645.9	43.94
646.23	43.76
646.559	43.9
646.888	43.71
647.218	43.83
647.547	43.71
647.876	44.11
648.205	43.82
648.534	44.21
648.863	44.06
649.192	43.63
649.521	44
649.85	44.34
650.179	44.72
650.508	44.12
650.837	44.09
651.165	44.26
651.494	44.36
651.822	44.47
652.151	44.22
652.479	43.77
652.808	43.85
653.136	44.31
653.465	44.27
653.793	45.07
654.121	44.58
654.449	44.62
654.777	44.49
655.105	44.85
655.433	44.95
655.761	44.86
656.089	45.15
656.417	44.55
656.745	44.66
657.073	44.81
657.4	44.9
657.728	44.38
658.056	44.78
658.383	45.32
658.711	44.8
659.038	44.69
659.365	44.87
659.693	44.98
660.02	45.04
660.347	45.32
660.674	45.08
661.001	45.08
661.329	45.37
661.656	45.69
661.982	45.28
662.309	44.91
662.636	45.04
662.963	45.07
663.29	45.2
663.616	44.91
663.943	45.26
664.27	45.37
664.596	45.39
664.923	45.77
665.249	45.67
665.576	44.51
665.902	45.3
666.228	44.95
666.554	45.72
666.881	46.27
667.207	45.5
667.533	44.89
667.859	45.29
668.185	45.5
668.511	45.38
668.837	45.44
669.162	45.95
669.488	46
669.814	45.46
670.139	45.83
670.465	46.24
670.791	45.17
671.116	46.13
