Data from 0035_chest_Reflection__2__17.txt Node

Date: Fri Nov 04 14:46:43 CDT 2022
User: ToomeyLab
Spectrometer: FLMS14357
Trigger mode: 0
Integration Time (sec): 1.000000E-2
Scans to average: 100
Electric dark correction enabled: true
Nonlinearity correction enabled: false
Boxcar width: 0
XAxis mode: Wavelengths
Number of Pixels in Spectrum: 2048
>>>>>Begin Spectral Data<<<<<
189.047	-31.35
189.435	-31.35
189.823	-31.35
190.211	214.88
190.599	52.2
190.987	-274.73
191.375	-62.15
191.763	130.6
192.151	235.26
192.538	146.28
192.926	531.23
193.314	106.67
193.702	-161.4
194.089	218.91
194.477	127.77
194.864	93.3
195.252	53.02
195.639	13.13
196.027	12.25
196.414	-227.59
196.801	331.44
197.189	525.16
197.576	-34.31
197.963	-254.67
198.351	12.9
198.738	1.25
199.125	0.38
199.512	-9.05
199.899	-7.84
200.286	31.96
200.673	19.02
201.06	-8.66
201.447	-4.79
201.833	35.37
202.22	57.48
202.607	7.14
202.994	-9.55
203.38	9.07
203.767	9.81
204.154	31.52
204.54	65.31
204.927	44.88
205.313	5.96
205.699	12.49
206.086	25.05
206.472	37.15
206.858	28.13
207.245	7.55
207.631	4.35
208.017	10.37
208.403	6.47
208.789	6.44
209.175	1.02
209.561	8.65
209.947	50.37
210.333	29.18
210.719	11.95
211.105	0.68
211.491	28.82
211.876	5.65
212.262	33.18
212.648	1.85
213.034	27.15
213.419	-2.35
213.805	7.47
214.19	-0.81
214.576	-17.14
214.961	-1.36
215.346	4.68
215.732	-4.81
216.117	3.49
216.502	12.39
216.888	35.16
217.273	10.58
217.658	21.67
218.043	10.46
218.428	2.54
218.813	4.71
219.198	-8.21
219.583	25.05
219.968	-7.98
220.353	-7.71
220.738	9.86
221.122	7.9
221.507	11.86
221.892	-19.75
222.276	-26.23
222.661	-1.23
223.046	-0.21
223.43	13.74
223.815	7.55
224.199	0.62
224.583	-1.76
224.968	0.33
225.352	5.53
225.736	3.42
226.121	4.01
226.505	3.91
226.889	1.31
227.273	-5.99
227.657	2.45
228.041	3.23
228.425	2.43
228.809	1.94
229.193	2
229.577	0.02
229.961	1.94
230.344	0.15
230.728	1.3
231.112	1.93
231.495	1.66
231.879	2.2
232.263	2.49
232.646	1.5
233.03	2.06
233.413	3.2
233.797	0.9
234.18	1.84
234.563	1.08
234.946	-1.33
235.33	2.46
235.713	3.47
236.096	1.61
236.479	1.46
236.862	1.97
237.245	2.04
237.628	1.29
238.011	2.36
238.394	2.56
238.777	1.23
239.16	2.44
239.543	2.43
239.925	1.67
240.308	2.28
240.691	2.08
241.073	-0.24
241.456	1.75
241.838	-0.23
242.221	2.02
242.603	1.42
242.986	1.56
243.368	1.69
243.75	1.54
244.133	1.08
244.515	1.95
244.897	1.36
245.279	1.17
245.661	1
246.043	1.5
246.425	0.8
246.807	1.18
247.189	1.37
247.571	2.23
247.953	1.09
248.335	1.1
248.717	1.42
249.098	1.33
249.48	1.39
249.862	1.22
250.243	1.93
250.625	1.54
251.006	1.69
251.388	1.8
251.769	1.7
252.151	0.99
252.532	0.72
252.913	1.5
253.295	1.87
253.676	1
254.057	1.03
254.438	1.76
254.819	1.63
255.2	0.99
255.581	1.44
255.962	1.42
256.343	0.86
256.724	0.93
257.105	2.26
257.486	3.38
257.867	1.47
258.247	1.84
258.628	1.88
259.009	1.04
259.389	1.22
259.77	1.31
260.15	1.66
260.531	1.61
260.911	1.47
261.292	1.09
261.672	1.3
262.052	1.42
262.432	1.25
262.813	1.71
263.193	1.69
263.573	1.41
263.953	1.13
264.333	1.44
264.713	1.33
265.093	1.4
265.473	1.26
265.853	1.38
266.233	1.05
266.612	1.56
266.992	1.63
267.372	2.08
267.752	0.84
268.131	0.95
268.511	1.29
268.89	1.5
269.27	1.15
269.649	1.37
270.029	1.17
270.408	1.55
270.787	1.89
271.167	0.93
271.546	1.43
271.925	1.56
272.304	1.65
272.683	1.23
273.062	1.31
273.441	1.02
273.82	0.73
274.199	2.02
274.578	1.35
274.957	1.42
275.336	1
275.715	1.39
276.093	1.4
276.472	1.51
276.851	2.18
277.229	0.53
277.608	0.94
277.986	1.34
278.365	1.59
278.743	1.2
279.122	0.76
279.5	0.62
279.878	1.64
280.257	1.51
280.635	1.34
281.013	1.03
281.391	1.36
281.769	0.8
282.147	1.13
282.525	2.05
282.903	1.28
283.281	1.28
283.659	1.92
284.037	1.41
284.415	1.31
284.792	1.39
285.17	0.65
285.548	0.92
285.925	0.91
286.303	1.2
286.68	1.65
287.058	1.16
287.435	1.08
287.813	1.25
288.19	1.21
288.567	1.65
288.945	1.44
289.322	1.51
289.699	1.76
290.076	1.49
290.453	1.99
290.83	1.62
291.207	1.19
291.584	1.68
291.961	1.52
292.338	1.53
292.715	1.28
293.092	0.85
293.469	1.39
293.845	1.2
294.222	1.42
294.599	1.64
294.975	1.05
295.352	1.25
295.728	1.42
296.105	1.69
296.481	1.72
296.858	1.47
297.234	1.46
297.61	1.75
297.986	1.41
298.363	1.64
298.739	1.21
299.115	1.5
299.491	1.56
299.867	1.61
300.243	1.22
300.619	1.24
300.995	1.93
301.371	1.8
301.746	1.15
302.122	1.61
302.498	1.07
302.874	1.56
303.249	1.51
303.625	1.45
304	1.76
304.376	2.11
304.751	1.43
305.127	1.92
305.502	1.04
305.878	1.39
306.253	1.29
306.628	2
307.003	1.23
307.378	1.58
307.754	2.01
308.129	1.53
308.504	1.5
308.879	1.28
309.254	1.79
309.629	1.88
310.003	1.84
310.378	1.61
310.753	2.17
311.128	1.19
311.502	1.65
311.877	1.93
312.252	1.38
312.626	1.44
313.001	1.59
313.375	1.6
313.75	1.53
314.124	1.95
314.498	1.55
314.873	1.44
315.247	1.61
315.621	0.96
315.995	1.56
316.369	1.75
316.743	1.85
317.117	1.18
317.491	1.01
317.865	2.07
318.239	1.54
318.613	1.75
318.987	2.01
319.361	1.66
319.734	1.31
320.108	1.98
320.482	2.1
320.855	2.39
321.229	1.88
321.602	1.56
321.976	2.03
322.349	2.08
322.723	1.9
323.096	1.62
323.469	2.27
323.843	2.08
324.216	2.09
324.589	1.91
324.962	2.2
325.335	1.55
325.708	1.86
326.081	1.68
326.454	2.04
326.827	1.65
327.2	1.71
327.573	1.71
327.945	1.67
328.318	1.91
328.691	1.69
329.063	1.58
329.436	1.85
329.809	1.81
330.181	1.95
330.553	1.86
330.926	1.35
331.298	2.2
331.671	1.88
332.043	1.45
332.415	1.97
332.787	1.83
333.159	2.27
333.532	1.49
333.904	1.67
334.276	1.6
334.648	2.13
335.02	1.99
335.391	1.73
335.763	1.79
336.135	2.26
336.507	2.1
336.879	1.41
337.25	1.82
337.622	1.96
337.993	1.86
338.365	1.48
338.736	1.96
339.108	1.86
339.479	2.12
339.851	1.73
340.222	1.97
340.593	1.72
340.964	1.58
341.336	1.75
341.707	1.7
342.078	1.55
342.449	1.78
342.82	1.24
343.191	1.88
343.562	2
343.933	1.9
344.303	2.34
344.674	1.48
345.045	1.58
345.416	2.2
345.786	1.4
346.157	1.91
346.527	2.01
346.898	1.67
347.268	2.01
347.639	1.62
348.009	1.61
348.38	1.33
348.75	2.05
349.12	1.76
349.49	1.62
349.861	1.17
350.231	1.88
350.601	1.73
350.971	2.03
351.341	1.74
351.711	1.91
352.081	1.61
352.45	1.69
352.82	1.95
353.19	1.68
353.56	1.67
353.929	1.68
354.299	1.5
354.669	1.74
355.038	2.03
355.408	1.58
355.777	1.89
356.147	2.03
356.516	1.98
356.885	1.95
357.254	2.16
357.624	2.02
357.993	1.5
358.362	2.21
358.731	1.84
359.1	1.86
359.469	2.19
359.838	1.91
360.207	1.89
360.576	1.77
360.945	1.93
361.314	1.85
361.682	1.68
362.051	1.53
362.42	2
362.788	1.86
363.157	1.92
363.525	2.06
363.894	1.82
364.262	1.9
364.631	1.91
364.999	1.98
365.367	1.57
365.735	2.2
366.104	2.08
366.472	1.82
366.84	1.76
367.208	1.8
367.576	1.84
367.944	1.93
368.312	1.88
368.68	1.73
369.048	1.81
369.416	1.8
369.783	2.05
370.151	1.96
370.519	2.21
370.886	1.53
371.254	1.83
371.621	1.82
371.989	1.58
372.356	1.8
372.724	2.04
373.091	1.78
373.458	2.2
373.826	1.88
374.193	2.04
374.56	2.17
374.927	1.95
375.294	1.99
375.661	1.91
376.028	1.53
376.395	1.84
376.762	1.95
377.129	2.05
377.496	1.71
377.863	2.06
378.229	1.97
378.596	1.92
378.963	1.71
379.329	2.09
379.696	1.86
380.062	1.85
380.429	1.98
380.795	2.18
381.161	1.6
381.528	2.07
381.894	1.97
382.26	1.9
382.626	2.14
382.993	2.1
383.359	2.1
383.725	1.93
384.091	1.92
384.457	2.16
384.823	1.7
385.188	1.58
385.554	1.94
385.92	1.97
386.286	1.91
386.651	2.22
387.017	1.95
387.383	2.04
387.748	1.88
388.114	2.04
388.479	1.73
388.845	2.16
389.21	1.77
389.575	1.87
389.94	1.88
390.306	1.94
390.671	1.98
391.036	1.87
391.401	1.94
391.766	1.79
392.131	1.85
392.496	1.8
392.861	1.8
393.226	1.98
393.591	1.99
393.956	1.75
394.32	1.73
394.685	2.14
395.05	1.69
395.414	1.99
395.779	1.82
396.143	2.1
396.508	1.85
396.872	1.93
397.236	2.12
397.601	2.27
397.965	2.16
398.329	1.77
398.694	1.92
399.058	1.99
399.422	1.99
399.786	2.02
400.15	1.95
400.514	2.24
400.878	1.98
401.242	1.97
401.605	1.76
401.969	2.26
402.333	2.03
402.697	2.27
403.06	1.93
403.424	1.78
403.787	1.8
404.151	1.84
404.514	2.01
404.878	1.96
405.241	1.94
405.604	1.83
405.968	2
406.331	2.19
406.694	1.91
407.057	2.02
407.42	1.95
407.783	1.98
408.146	2.02
408.509	2.05
408.872	2.11
409.235	2.1
409.598	2.09
409.961	2.01
410.323	1.88
410.686	2.05
411.049	2.05
411.411	2.16
411.774	2.04
412.136	1.95
412.499	2.11
412.861	2.13
413.223	1.87
413.586	2.04
413.948	2.25
414.31	2.07
414.672	2.31
415.035	2
415.397	2.05
415.759	2.17
416.121	1.87
416.483	2.01
416.845	1.92
417.206	2.12
417.568	2.14
417.93	2
418.292	2.08
418.653	1.97
419.015	2.16
419.377	1.97
419.738	1.83
420.1	1.86
420.461	2.08
420.822	1.96
421.184	2.06
421.545	2.01
421.906	1.92
422.267	1.87
422.629	1.95
422.99	2.06
423.351	2.01
423.712	2.03
424.073	1.97
424.434	1.86
424.795	1.92
425.155	1.99
425.516	1.99
425.877	1.99
426.238	1.94
426.598	2.02
426.959	1.96
427.32	1.95
427.68	1.98
428.041	2.19
428.401	2.03
428.761	2.08
429.122	2.01
429.482	2.08
429.842	2.14
430.202	1.98
430.563	2.19
430.923	2.12
431.283	2.08
431.643	2.02
432.003	1.99
432.363	2.09
432.722	2.09
433.082	2.07
433.442	2
433.802	1.81
434.161	2.13
434.521	2.02
434.881	1.98
435.24	2.09
435.6	1.98
435.959	1.99
436.319	2.12
436.678	2.31
437.037	2.06
437.396	2.05
437.756	2.32
438.115	2.35
438.474	2.07
438.833	2.09
439.192	2.2
439.551	1.95
439.91	1.98
440.269	2.26
440.628	2.06
440.987	2.02
441.345	2.04
441.704	2.02
442.063	2.18
442.421	2.06
442.78	2.05
443.138	1.98
443.497	2.12
443.855	2.2
444.214	2.23
444.572	2.12
444.93	2.15
445.288	2.01
445.647	2.03
446.005	2.06
446.363	2.23
446.721	2.11
447.079	1.95
447.437	2.17
447.795	2.04
448.153	2.05
448.51	2.01
448.868	2.08
449.226	2.09
449.584	2.03
449.941	2.12
450.299	2.27
450.656	2.16
451.014	2.1
451.371	2.1
451.729	2.32
452.086	2.11
452.443	2.17
452.801	2.2
453.158	2.13
453.515	2.25
453.872	2.14
454.229	2.17
454.586	2.23
454.943	2.23
455.3	2.17
455.657	2.05
456.014	2.07
456.371	2.21
456.727	2.12
457.084	2.16
457.441	2.05
457.797	2.29
458.154	2.25
458.51	2.33
458.867	2.26
459.223	2.19
459.58	2.19
459.936	2.17
460.292	2.13
460.648	2.23
461.005	2.24
461.361	2.22
461.717	2.17
462.073	2.22
462.429	2.12
462.785	2.16
463.141	2.09
463.496	2.24
463.852	2.28
464.208	2.25
464.564	2.27
464.919	2.23
465.275	2.09
465.631	2.17
465.986	2.12
466.342	2.32
466.697	2.35
467.052	2.26
467.408	2.17
467.763	2.23
468.118	2.11
468.473	2.4
468.829	2.36
469.184	2.15
469.539	2.28
469.894	2.35
470.249	2.37
470.603	2.26
470.958	2.21
471.313	2.18
471.668	2.27
472.023	2.15
472.377	2.24
472.732	2.35
473.086	2.22
473.441	2.29
473.795	2.27
474.15	2.16
474.504	2.41
474.859	2.11
475.213	2.23
475.567	2.32
475.921	2.2
476.275	2.37
476.63	2.05
476.984	2.45
477.338	2.31
477.692	2.32
478.045	2.28
478.399	2.16
478.753	2.22
479.107	2.18
479.461	2.18
479.814	2.31
480.168	2.48
480.521	2.23
480.875	2.32
481.228	2.24
481.582	2.3
481.935	2.23
482.289	2.35
482.642	2.37
482.995	2.3
483.348	2.36
483.701	2.34
484.055	2.27
484.408	2.32
484.761	2.25
485.114	2.19
485.466	2.19
485.819	2.14
486.172	2.15
486.525	2.15
486.878	2.18
487.23	2.23
487.583	2.26
487.936	2.28
488.288	2.25
488.641	2.22
488.993	2.27
489.345	2.24
489.698	2.22
490.05	2.16
490.402	2.24
490.754	2.27
491.107	2.25
491.459	2.29
491.811	2.34
492.163	2.46
492.515	2.28
492.866	2.29
493.218	2.25
493.57	2.16
493.922	2.24
494.274	2.29
494.625	2.29
494.977	2.28
495.328	2.39
495.68	2.33
496.031	2.51
496.383	2.35
496.734	2.37
497.086	2.41
497.437	2.5
497.788	2.5
498.139	2.42
498.49	2.41
498.842	2.36
499.193	2.4
499.544	2.43
499.894	2.34
500.245	2.46
500.596	2.48
500.947	2.37
501.298	2.48
501.648	2.49
501.999	2.54
502.35	2.49
502.7	2.5
503.051	2.56
503.401	2.5
503.752	2.66
504.102	2.46
504.452	2.54
504.803	2.43
505.153	2.44
505.503	2.62
505.853	2.38
506.203	2.44
506.553	2.52
506.903	2.49
507.253	2.58
507.603	2.59
507.953	2.49
508.303	2.55
508.652	2.46
509.002	2.45
509.352	2.58
509.701	2.54
510.051	2.45
510.4	2.47
510.75	2.48
511.099	2.46
511.449	2.38
511.798	2.46
512.147	2.51
512.496	2.52
512.846	2.53
513.195	2.49
513.544	2.5
513.893	2.7
514.242	2.6
514.591	2.57
514.939	2.58
515.288	2.53
515.637	2.55
515.986	2.53
516.334	2.77
516.683	2.65
517.032	2.63
517.38	2.69
517.729	2.52
518.077	2.74
518.426	2.67
518.774	2.5
519.122	2.51
519.47	2.69
519.819	2.56
520.167	2.61
520.515	2.59
520.863	2.62
521.211	2.58
521.559	2.59
521.907	2.61
522.255	2.54
522.602	2.69
522.95	2.65
523.298	2.65
523.645	2.72
523.993	2.69
524.341	2.69
524.688	2.81
525.036	2.63
525.383	2.82
525.73	2.69
526.078	2.77
526.425	2.76
526.772	2.79
527.119	2.7
527.466	2.61
527.814	2.6
528.161	2.69
528.508	2.74
528.854	2.77
529.201	2.72
529.548	2.64
529.895	2.69
530.242	2.6
530.588	2.58
530.935	2.65
531.282	2.67
531.628	2.69
531.975	2.67
532.321	2.79
532.667	2.71
533.014	2.76
533.36	2.73
533.706	2.75
534.052	2.79
534.399	2.8
534.745	2.73
535.091	2.73
535.437	2.73
535.783	2.78
536.129	2.79
536.474	2.85
536.82	2.85
537.166	2.94
537.512	2.95
537.857	2.93
538.203	2.93
538.549	2.86
538.894	2.89
539.239	2.82
539.585	2.96
539.93	2.82
540.276	2.9
540.621	3
540.966	2.98
541.311	2.99
541.656	3.05
542.001	3
542.346	2.94
542.691	2.94
543.036	2.87
543.381	2.84
543.726	2.87
544.071	2.91
544.415	2.98
544.76	3.03
545.105	2.98
545.449	3.02
545.794	3
546.138	3.08
546.483	3.12
546.827	3.07
547.171	2.97
547.516	3.07
547.86	3.1
548.204	3.17
548.548	3.07
548.892	3.08
549.236	3.04
549.58	3.26
549.924	3.27
550.268	3.17
550.612	3.18
550.956	3.14
551.3	3.22
551.643	3.23
551.987	3.16
552.33	3.06
552.674	3.26
553.017	3.32
553.361	3.28
553.704	3.31
554.048	3.44
554.391	3.28
554.734	3.3
555.077	3.15
555.42	3.32
555.764	3.35
556.107	3.32
556.45	3.48
556.793	3.36
557.135	3.62
557.478	3.31
557.821	3.51
558.164	3.27
558.507	3.36
558.849	3.41
559.192	3.46
559.534	3.51
559.877	3.47
560.219	3.41
560.562	3.54
560.904	3.36
561.246	3.44
561.589	3.65
561.931	3.53
562.273	3.68
562.615	3.81
562.957	3.59
563.299	3.53
563.641	3.67
563.983	3.54
564.325	3.73
564.667	3.61
565.008	3.7
565.35	3.86
565.692	3.63
566.033	3.63
566.375	3.51
566.716	3.8
567.058	3.7
567.399	3.61
567.741	3.51
568.082	3.75
568.423	3.68
568.764	3.66
569.105	3.68
569.447	3.79
569.788	3.83
570.129	3.82
570.47	3.83
570.811	3.75
571.151	3.92
571.492	4.01
571.833	3.9
572.174	3.84
572.514	4.06
572.855	3.75
573.195	3.88
573.536	3.79
573.876	3.87
574.217	3.96
574.557	4.02
574.898	3.93
575.238	3.87
575.578	4
575.918	3.86
576.258	4.02
576.598	4.16
576.938	4.1
577.278	4.2
577.618	4.14
577.958	3.99
578.298	4.12
578.638	4.28
578.977	4
579.317	4.24
579.657	4.29
579.996	4.21
580.336	4.3
580.675	4.28
581.014	4.16
581.354	4.35
581.693	4.24
582.032	4.05
582.372	4.52
582.711	4.32
583.05	4.2
583.389	4.25
583.728	4.5
584.067	4.42
584.406	4.36
584.745	4.5
585.083	4.43
585.422	4.48
585.761	4.44
586.1	4.5
586.438	4.43
586.777	4.38
587.115	4.57
587.454	4.51
587.792	4.65
588.13	4.64
588.469	4.63
588.807	4.67
589.145	4.64
589.483	4.95
589.821	4.58
590.159	4.57
590.497	4.76
590.835	4.73
591.173	4.66
591.511	4.61
591.849	4.78
592.187	4.56
592.524	4.79
592.862	4.32
593.2	4.44
593.537	4.72
593.875	4.73
594.212	4.75
594.55	4.77
594.887	4.72
595.224	4.73
595.561	4.81
595.899	4.46
596.236	4.59
596.573	4.86
596.91	4.86
597.247	5.15
597.584	4.77
597.921	4.84
598.258	5.03
598.594	4.98
598.931	4.75
599.268	5.03
599.604	4.89
599.941	4.91
600.277	4.88
600.614	4.96
600.95	5.02
601.287	5.25
601.623	5.2
601.959	5.14
602.296	5.09
602.632	5.34
602.968	5.13
603.304	5.29
603.64	5.16
603.976	5.35
604.312	5.4
604.648	5.03
604.984	5.51
605.319	5.11
605.655	5.38
605.991	5.23
606.326	5.35
606.662	5.34
606.998	5.25
607.333	5.27
607.668	5.34
608.004	5.31
608.339	5.25
608.674	5.16
609.01	5.6
609.345	5.67
609.68	5.53
610.015	5.79
610.35	5.41
610.685	5.27
611.02	5.58
611.355	5.66
611.689	5.48
612.024	5.7
612.359	5.76
612.694	5.39
613.028	5.74
613.363	5.91
613.697	5.9
614.032	5.86
614.366	5.7
614.7	5.89
615.035	5.68
615.369	5.8
615.703	5.75
616.037	6.02
616.371	6.09
616.705	5.69
617.039	5.69
617.373	6.25
617.707	6.12
618.041	6.07
618.375	6.12
618.709	6.37
619.042	6.32
619.376	5.86
619.71	5.91
620.043	6.43
620.377	6.15
620.71	6.04
621.043	5.79
621.377	6.08
621.71	5.93
622.043	6.16
622.376	6.18
622.709	6.44
623.043	6.26
623.376	6.18
623.709	6.46
624.041	6.54
624.374	6.44
624.707	6.6
625.04	6.76
625.373	6.02
625.705	6.29
626.038	6.42
626.37	6.55
626.703	6.42
627.035	6.33
627.368	6.68
627.7	6.23
628.032	6.82
628.365	6.58
628.697	6.73
629.029	6.3
629.361	6.44
629.693	6.4
630.025	6.76
630.357	6.64
630.689	6.65
631.021	6.56
631.353	6.46
631.684	6.87
632.016	6.5
632.348	6.62
632.679	6.72
633.011	6.85
633.342	6.95
633.674	6.92
634.005	7.05
634.336	6.89
634.668	6.98
634.999	7.03
635.33	7.19
635.661	6.72
635.992	6.98
636.323	6.93
636.654	7.35
636.985	7.19
637.316	7.04
637.647	6.94
637.977	7.01
638.308	7.34
638.639	7.36
638.969	7.09
639.3	7.32
639.63	7.1
639.961	7.29
640.291	6.75
640.622	7.31
640.952	7.62
641.282	7.17
641.612	7.22
641.943	7.31
642.273	7.23
642.603	7.56
642.933	7.1
643.263	7.11
643.592	7.41
643.922	7.43
644.252	7.09
644.582	7.74
644.911	7.13
645.241	7.3
645.571	7.81
645.9	7.59
646.23	7.25
646.559	7.89
646.888	7.39
647.218	7.48
647.547	7.75
647.876	8.11
648.205	7.68
648.534	7.86
648.863	8.31
649.192	7.94
649.521	8.03
649.85	7.71
650.179	8.11
650.508	7.91
650.837	7.43
651.165	7.91
651.494	7.81
651.822	7.79
652.151	7.89
652.479	7.59
652.808	7.61
653.136	7.9
653.465	8.03
653.793	8.27
654.121	7.9
654.449	7.82
654.777	8.48
655.105	8.21
655.433	8.08
655.761	8.08
656.089	8.78
656.417	8.27
656.745	8.04
657.073	8.26
657.4	8.44
657.728	8.23
658.056	8.04
658.383	8.37
658.711	8.11
659.038	8.16
659.365	8.1
659.693	8.17
660.02	8.76
660.347	8.49
660.674	8.06
661.001	8.32
661.329	8.27
661.656	8.93
661.982	8.64
662.309	8.41
662.636	8.44
662.963	8.16
663.29	8.21
663.616	8.3
663.943	8.44
664.27	8.93
664.596	9.22
664.923	9.25
665.249	8.75
665.576	8.09
665.902	7.84
666.228	8.58
666.554	9.08
666.881	9.38
667.207	8.48
667.533	8.81
667.859	8.68
668.185	8.94
668.511	8.64
668.837	9.61
669.162	9.17
669.488	9.09
669.814	8.76
670.139	9.3
670.465	8.63
670.791	9.31
671.116	9.45
671.442	8.99
671.767	8.61
672.092	9.01
672.418	9.09
672.743	9.47
673.068	9.13
673.393	9.05
673.718	8.87
674.043	9.08
674.368	9.26
674.693	9.35
675.018	9.57
675.343	8.47
675.667	8.69
675.992	9.5
676.317	9.7
676.641	9.7
676.966	9.37
677.29	9.08
677.615	9.67
677.939	10.42
678.264	9.32
678.588	9.02
678.912	9.88
679.236	10.15
679.56	9.17
679.885	9.21
680.209	9.37
680.532	9.7
680.856	9.97
681.18	9.71
681.504	9.47
681.828	9.78
682.152	9.88
682.475	9.93
682.799	9.84
683.122	9.75
683.446	9.55
683.769	10.87
684.093	9.96
684.416	9.72
684.739	10.39
685.062	10.18
685.386	10.22
685.709	10
686.032	10.17
686.355	10.09
686.678	9.92
687.001	10.19
687.324	10.24
687.646	10.33
687.969	10.8
688.292	10.45
688.614	10.62
688.937	10.52
689.26	11.04
689.582	10.29
689.904	9.95
690.227	10.22
690.549	9.74
690.871	10.02
691.194	9.97
691.516	10.53
691.838	10.67
692.16	10.7
692.482	10.48
692.804	10.33
