Data from 0021_crown_Reflection__0__21.txt Node

Date: Thu Oct 20 20:31:26 CDT 2022
User: ToomeyLab
Spectrometer: FLMS14357
Trigger mode: 0
Integration Time (sec): 1.000000E-2
Scans to average: 100
Electric dark correction enabled: true
Nonlinearity correction enabled: false
Boxcar width: 0
XAxis mode: Wavelengths
Number of Pixels in Spectrum: 2048
>>>>>Begin Spectral Data<<<<<
189.047	346.29
189.435	346.29
189.823	346.29
190.211	-53.11
190.599	105.7
190.987	-70.82
191.375	50.15
191.763	-16.86
192.151	214.04
192.538	94.61
192.926	69.55
193.314	1744.7
193.702	287.5
194.089	43.31
194.477	17.37
194.864	-402.87
195.252	83.83
195.639	-40.99
196.027	78.19
196.414	-210.43
196.801	488.26
197.189	-549.11
197.576	284.04
197.963	499.49
198.351	-12.55
198.738	10.71
199.125	-3.17
199.512	-41.45
199.899	-9.55
200.286	8.99
200.673	-2.09
201.06	40.02
201.447	4.04
201.833	6.19
202.22	-17.77
202.607	8.65
202.994	5.15
203.38	-4.85
203.767	26.96
204.154	-1.21
204.54	23.72
204.927	43.76
205.313	11.08
205.699	13.56
206.086	44.45
206.472	-9.19
206.858	31.19
207.245	11.85
207.631	-26.94
208.017	25.14
208.403	-12.41
208.789	19.47
209.175	35
209.561	7.83
209.947	13.59
210.333	34.32
210.719	18.11
211.105	-3.65
211.491	-20.92
211.876	7.2
212.262	-13
212.648	11.86
213.034	-8.56
213.419	-10.23
213.805	-38.36
214.19	11.19
214.576	-4.08
214.961	-8.2
215.346	-36.07
215.732	-6.34
216.117	-4.13
216.502	1.88
216.888	25.74
217.273	16.89
217.658	1.52
218.043	-26.35
218.428	-5.76
218.813	16.38
219.198	15.11
219.583	11.64
219.968	2.82
220.353	-13.42
220.738	0.47
221.122	-6.2
221.507	-7.02
221.892	-4.06
222.276	0.15
222.661	-1.05
223.046	4.35
223.43	11.59
223.815	-15.24
224.199	-1.54
224.583	-0.15
224.968	1.79
225.352	6.84
225.736	-6.09
226.121	8.15
226.505	7.14
226.889	2.02
227.273	1.91
227.657	8.41
228.041	-1.28
228.425	1.89
228.809	3.84
229.193	1.78
229.577	2.22
229.961	1.92
230.344	2.73
230.728	3.27
231.112	1.18
231.495	2.33
231.879	1.86
232.263	3.2
232.646	2.18
233.03	-0.09
233.413	3.05
233.797	3.19
234.18	0.53
234.563	-0.49
234.946	2.36
235.33	2.11
235.713	3.13
236.096	0.08
236.479	0.67
236.862	3.24
237.245	3.45
237.628	1.32
238.011	1.62
238.394	1.91
238.777	1.45
239.16	0.11
239.543	2.26
239.925	3.01
240.308	2.51
240.691	1.02
241.073	2.69
241.456	1.66
241.838	1.51
242.221	2.73
242.603	2.62
242.986	2.52
243.368	2.35
243.75	2.12
244.133	2.54
244.515	2.07
244.897	2.63
245.279	2.85
245.661	2.51
246.043	1.63
246.425	2.35
246.807	3.67
247.189	2.71
247.571	2
247.953	2.15
248.335	2.21
248.717	2.47
249.098	1.82
249.48	2.1
249.862	2.33
250.243	1.84
250.625	2.99
251.006	3.36
251.388	2.42
251.769	2.83
252.151	2.37
252.532	1.83
252.913	2.09
253.295	1.53
253.676	2.16
254.057	2.04
254.438	3
254.819	3.5
255.2	1.67
255.581	2.35
255.962	1.73
256.343	3.59
256.724	2.67
257.105	1.83
257.486	3.04
257.867	2.04
258.247	2.26
258.628	1.64
259.009	1.8
259.389	1.97
259.77	2.57
260.15	2.26
260.531	2.08
260.911	1.98
261.292	1.89
261.672	1.92
262.052	1.97
262.432	2.24
262.813	2.26
263.193	2
263.573	2.07
263.953	2.07
264.333	2.12
264.713	2.41
265.093	1.91
265.473	2.51
265.853	2.08
266.233	1
266.612	1.97
266.992	2.74
267.372	2.31
267.752	2.33
268.131	1.59
268.511	1.82
268.89	2.04
269.27	2.34
269.649	2.33
270.029	2.98
270.408	1.62
270.787	1.63
271.167	2.11
271.546	1.59
271.925	2.48
272.304	1.69
272.683	2.04
273.062	2.1
273.441	2.15
273.82	1.95
274.199	2.3
274.578	2.06
274.957	1.98
275.336	1.71
275.715	1.46
276.093	2.02
276.472	2.25
276.851	1.57
277.229	1.45
277.608	1.56
277.986	1.33
278.365	1.76
278.743	2.03
279.122	2.75
279.5	1.23
279.878	1.42
280.257	1.98
280.635	2.29
281.013	2.21
281.391	2.65
281.769	1.68
282.147	2.13
282.525	1.88
282.903	2.01
283.281	1.62
283.659	1.92
284.037	1.9
284.415	1.81
284.792	1.9
285.17	1.48
285.548	1.35
285.925	2.24
286.303	2.04
286.68	2.04
287.058	2.11
287.435	1.79
287.813	1.49
288.19	2.01
288.567	1.42
288.945	2.23
289.322	1.17
289.699	2.2
290.076	2.26
290.453	1.76
290.83	2.29
291.207	2.09
291.584	1.2
291.961	1.81
292.338	2.13
292.715	1.52
293.092	2.17
293.469	2.55
293.845	1.63
294.222	1.55
294.599	2.01
294.975	2.32
295.352	2.14
295.728	2.23
296.105	1.61
296.481	2.03
296.858	1.82
297.234	1.83
297.61	1.38
297.986	1.62
298.363	1.89
298.739	2.28
299.115	2.49
299.491	2.17
299.867	1.7
300.243	1.7
300.619	2.18
300.995	2.06
301.371	2.04
301.746	1.44
302.122	1.28
302.498	2.29
302.874	2.04
303.249	1.62
303.625	1.85
304	1.69
304.376	1.96
304.751	2.06
305.127	1.51
305.502	1.87
305.878	1.78
306.253	2.28
306.628	1.8
307.003	1.79
307.378	1.85
307.754	1.66
308.129	1.87
308.504	1.52
308.879	1.74
309.254	1.72
309.629	2
310.003	1.81
310.378	2.14
310.753	2.09
311.128	1.62
311.502	1.41
311.877	2.01
312.252	1.61
312.626	1.84
313.001	1.73
313.375	2.43
313.75	1.73
314.124	1.84
314.498	1.84
314.873	1.55
315.247	1.76
315.621	2.23
315.995	1.68
316.369	1.54
316.743	2.65
317.117	2.02
317.491	1.81
317.865	2.18
318.239	1.93
318.613	1.71
318.987	1.9
319.361	1.65
319.734	2.18
320.108	2.16
320.482	1.39
320.855	2.14
321.229	2.02
321.602	2.07
321.976	1.92
322.349	1.61
322.723	2.39
323.096	1.75
323.469	2.32
323.843	2.1
324.216	2.52
324.589	2
324.962	2.44
325.335	1.67
325.708	2.01
326.081	2.19
326.454	1.87
326.827	1.9
327.2	2.04
327.573	2.05
327.945	2.1
328.318	1.3
328.691	1.36
329.063	1.57
329.436	1.14
329.809	2.02
330.181	2.04
330.553	1.69
330.926	2.05
331.298	1.04
331.671	2.1
332.043	2.19
332.415	1.92
332.787	1.46
333.159	1.55
333.532	2.03
333.904	1.69
334.276	1.76
334.648	1.77
335.02	1.19
335.391	2.08
335.763	1.82
336.135	1.77
336.507	2.05
336.879	1.8
337.25	1.69
337.622	1.31
337.993	2.53
338.365	2.18
338.736	1.95
339.108	1.32
339.479	1.75
339.851	2.27
340.222	1.76
340.593	1.68
340.964	1.78
341.336	1.91
341.707	2.23
342.078	1.88
342.449	1.63
342.82	1.89
343.191	1.77
343.562	1.94
343.933	1.79
344.303	2.05
344.674	1.91
345.045	1.77
345.416	1.97
345.786	2.33
346.157	1.82
346.527	1.62
346.898	2.16
347.268	1.71
347.639	1.84
348.009	1.71
348.38	1.87
348.75	1.78
349.12	1.67
349.49	1.65
349.861	2.19
350.231	2.05
350.601	1.75
350.971	1.57
351.341	1.88
351.711	1.6
352.081	2.48
352.45	1.52
352.82	2.06
353.19	2.01
353.56	1.98
353.929	2.28
354.299	1.63
354.669	1.9
355.038	2
355.408	1.72
355.777	1.75
356.147	1.6
356.516	1.89
356.885	1.97
357.254	2.4
357.624	1.37
357.993	1.91
358.362	1.86
358.731	2
359.1	2.01
359.469	2.12
359.838	2
360.207	2.07
360.576	1.94
360.945	1.47
361.314	2.07
361.682	1.91
362.051	1.9
362.42	1.93
362.788	1.81
363.157	1.9
363.525	2.09
363.894	1.98
364.262	1.89
364.631	2.25
364.999	1.64
365.367	1.66
365.735	2.04
366.104	1.95
366.472	1.83
366.84	1.59
367.208	1.7
367.576	1.97
367.944	2.42
368.312	2.26
368.68	2.11
369.048	1.83
369.416	2.44
369.783	2.11
370.151	2.08
370.519	1.92
370.886	2.05
371.254	2.01
371.621	1.87
371.989	1.89
372.356	2.18
372.724	2.37
373.091	2.2
373.458	1.77
373.826	2.09
374.193	2.29
374.56	2.06
374.927	2.04
375.294	2.26
375.661	2.24
376.028	1.83
376.395	1.63
376.762	1.94
377.129	1.93
377.496	1.91
377.863	1.91
378.229	2.08
378.596	1.88
378.963	2.27
379.329	1.8
379.696	2.18
380.062	1.96
380.429	2.03
380.795	1.72
381.161	1.99
381.528	2.01
381.894	1.78
382.26	2.05
382.626	2.2
382.993	2
383.359	2.07
383.725	2.07
384.091	1.72
384.457	1.78
384.823	1.85
385.188	1.97
385.554	2.08
385.92	1.88
386.286	2.19
386.651	2.21
387.017	1.83
387.383	2.16
387.748	1.97
388.114	2.2
388.479	2
388.845	1.97
389.21	1.99
389.575	1.92
389.94	2.09
390.306	2.08
390.671	1.7
391.036	2.28
391.401	1.93
391.766	2.06
392.131	1.8
392.496	1.81
392.861	1.96
393.226	2.1
393.591	1.95
393.956	2
394.32	2.05
394.685	2.14
395.05	2.03
395.414	2.23
395.779	2.05
396.143	2.16
396.508	1.9
396.872	1.88
397.236	2.06
397.601	2.1
397.965	2.14
398.329	1.62
398.694	2.19
399.058	2.14
399.422	2.01
399.786	2.16
400.15	1.86
400.514	1.9
400.878	1.97
401.242	2.33
401.605	2.25
401.969	2.2
402.333	2.03
402.697	2.05
403.06	1.99
403.424	1.92
403.787	1.94
404.151	1.95
404.514	1.72
404.878	2.02
405.241	1.92
405.604	2.26
405.968	2.03
406.331	2.24
406.694	2.08
407.057	1.89
407.42	2.04
407.783	1.95
408.146	2.05
408.509	1.9
408.872	2.16
409.235	1.63
409.598	2.13
409.961	1.82
410.323	1.91
410.686	2.07
411.049	1.89
411.411	2.01
411.774	2.17
412.136	2
412.499	1.98
412.861	2.02
413.223	2.15
413.586	2.11
413.948	2.09
414.31	2.06
414.672	2.18
415.035	2.14
415.397	1.98
415.759	1.95
416.121	1.89
416.483	2.19
416.845	2.06
417.206	1.9
417.568	2.07
417.93	1.82
418.292	2.08
418.653	2.07
419.015	1.87
419.377	2.03
419.738	2
420.1	1.81
420.461	1.93
420.822	1.97
421.184	1.96
421.545	2
421.906	1.95
422.267	2.03
422.629	2.07
422.99	1.99
423.351	2.08
423.712	1.98
424.073	2.01
424.434	1.99
424.795	1.95
425.155	1.95
425.516	1.98
425.877	2.04
426.238	2.13
426.598	1.93
426.959	2.03
427.32	2.11
427.68	2.03
428.041	2.09
428.401	2.19
428.761	2.15
429.122	2.21
429.482	2.14
429.842	2.08
430.202	2.15
430.563	2.19
430.923	2.11
431.283	2.2
431.643	1.99
432.003	1.98
432.363	2.14
432.722	2.19
433.082	2.13
433.442	2.19
433.802	2.26
434.161	2.17
434.521	2.22
434.881	2.13
435.24	2.03
435.6	2.18
435.959	2.11
436.319	2.09
436.678	2.05
437.037	2.22
437.396	2.09
437.756	2.05
438.115	2.11
438.474	2.17
438.833	2.06
439.192	2.11
439.551	1.97
439.91	2.15
440.269	2.15
440.628	2.12
440.987	2.14
441.345	2.17
441.704	2.11
442.063	2.08
442.421	2.11
442.78	2.12
443.138	2.24
443.497	2.1
443.855	2.21
444.214	2.11
444.572	2.13
444.93	2.06
445.288	2.17
445.647	2.03
446.005	2.03
446.363	2.11
446.721	2.18
447.079	2.07
447.437	1.98
447.795	1.95
448.153	2.08
448.51	2.02
448.868	2.08
449.226	2.14
449.584	2.16
449.941	2.07
450.299	2.02
450.656	2.02
451.014	2.08
451.371	2.05
451.729	2.12
452.086	1.96
452.443	2.18
452.801	2.26
453.158	2.02
453.515	2.04
453.872	1.98
454.229	2.19
454.586	2.12
454.943	2.29
455.3	2.21
455.657	1.97
456.014	2.23
456.371	2.12
456.727	2.23
457.084	2.1
457.441	2.07
457.797	2.38
458.154	2.23
458.51	1.96
458.867	2.18
459.223	2.14
459.58	1.95
459.936	2.1
460.292	2.12
460.648	2.11
461.005	2.04
461.361	1.94
461.717	2.09
462.073	2.05
462.429	2.11
462.785	2.11
463.141	2.17
463.496	2.05
463.852	2.46
464.208	2.09
464.564	2.17
464.919	2.35
465.275	2.05
465.631	2.12
465.986	2.12
466.342	2.01
466.697	1.98
467.052	2.13
467.408	2.03
467.763	2.13
468.118	2.16
468.473	2.01
468.829	2.14
469.184	2.07
469.539	2.04
469.894	2.2
470.249	2.01
470.603	2.22
470.958	2.28
471.313	2.18
471.668	2.05
472.023	2.24
472.377	2.2
472.732	2.06
473.086	2.1
473.441	2.15
473.795	2.36
474.15	2.14
474.504	2.07
474.859	2.14
475.213	2.13
475.567	2.01
475.921	2.1
476.275	2.08
476.63	2.04
476.984	2.18
477.338	2.08
477.692	2.32
478.045	2.17
478.399	2.23
478.753	2.08
479.107	2.04
479.461	2.16
479.814	2.05
480.168	2.09
480.521	2.08
480.875	2.04
481.228	2.23
481.582	2.11
481.935	2.04
482.289	2.13
482.642	2.08
482.995	2.12
483.348	2.04
483.701	2.09
484.055	2.02
484.408	2
484.761	1.98
485.114	1.9
485.466	1.9
485.819	1.99
486.172	2.01
486.525	2.14
486.878	2.04
487.23	2.07
487.583	2.09
487.936	2.03
488.288	1.99
488.641	2.01
488.993	1.96
489.345	2
489.698	2.02
490.05	2.09
490.402	2.08
490.754	2.07
491.107	2.06
491.459	2.06
491.811	2.19
492.163	2.1
492.515	2.04
492.866	1.99
493.218	1.95
493.57	2.02
493.922	2.14
494.274	2.12
494.625	2.12
494.977	2.19
495.328	2.17
495.68	2.08
496.031	2.2
496.383	2.07
496.734	2.2
497.086	2.08
497.437	2.11
497.788	2.05
498.139	2.03
498.49	2.04
498.842	2.02
499.193	2.08
499.544	2.15
499.894	2.05
500.245	2.08
500.596	2.04
500.947	2.15
501.298	2.16
501.648	2.25
501.999	2.24
502.35	2.15
502.7	2.31
503.051	2.37
503.401	2.24
503.752	2
504.102	2.1
504.452	2.09
504.803	2.11
505.153	2.08
505.503	2.01
505.853	2.04
506.203	2.08
506.553	2.13
506.903	2.19
507.253	2.18
507.603	2.09
507.953	2.14
508.303	2.33
508.652	2.16
509.002	2.13
509.352	2.11
509.701	2.05
510.051	2.09
510.4	1.97
510.75	2.11
511.099	2.1
511.449	2.22
511.798	2.19
512.147	2.12
512.496	2.12
512.846	2.17
513.195	2.06
513.544	2.08
513.893	2.15
514.242	2.1
514.591	2.15
514.939	2.09
515.288	2.29
515.637	2.13
515.986	2.23
516.334	2.21
516.683	2.15
517.032	2.2
517.38	2.12
517.729	2.3
518.077	2.15
518.426	2.08
518.774	2.21
519.122	2.08
519.47	2.17
519.819	2.08
520.167	2.11
520.515	2.1
520.863	2.1
521.211	2.14
521.559	2.18
521.907	2.03
522.255	2.12
522.602	2.11
522.95	2.11
523.298	2.11
523.645	2.1
523.993	2.21
524.341	2.23
524.688	2.13
525.036	2.21
525.383	2.14
525.73	2.16
526.078	2.13
526.425	2.04
526.772	2.05
527.119	2.06
527.466	2.14
527.814	2.11
528.161	2.25
528.508	2.12
528.854	2.16
529.201	1.98
529.548	2.02
529.895	1.97
530.242	1.97
530.588	2.01
530.935	2.11
531.282	2.09
531.628	2.06
531.975	2.12
532.321	2.19
532.667	2.08
533.014	2.04
533.36	2.07
533.706	2.09
534.052	1.99
534.399	2.06
534.745	2
535.091	2.08
535.437	2.11
535.783	2.12
536.129	2.09
536.474	2.02
536.82	2.24
537.166	2.21
537.512	2.1
537.857	2.13
538.203	2.16
538.549	2.13
538.894	2.12
539.239	2.23
539.585	2.02
539.93	2.12
540.276	2.11
540.621	2.05
540.966	2.16
541.311	2.13
541.656	2.25
542.001	2.06
542.346	2.1
542.691	2.03
543.036	1.99
543.381	2.09
543.726	2.09
544.071	2.12
544.415	2.08
544.76	2.12
545.105	2.11
545.449	2.03
545.794	2.15
546.138	2.17
546.483	2.19
546.827	2.13
547.171	2.11
547.516	2.18
547.86	2.21
548.204	2.13
548.548	2.11
548.892	2.11
549.236	2.21
549.58	2.09
549.924	2.31
550.268	2.27
550.612	2.23
550.956	2.09
551.3	2.12
551.643	2.1
551.987	2.07
552.33	2.27
552.674	2.34
553.017	2.12
553.361	2.11
553.704	2.25
554.048	2.21
554.391	2.36
554.734	2.11
555.077	2.16
555.42	2.3
555.764	2.35
556.107	2.32
556.45	2.44
556.793	2.27
557.135	2.29
557.478	2.49
557.821	2.16
558.164	2.01
558.507	2.24
558.849	2.26
559.192	2.39
559.534	2.43
559.877	2.18
560.219	2.24
560.562	2.39
560.904	2.42
561.246	2.1
561.589	2.09
561.931	2.27
562.273	2.14
562.615	2.19
562.957	2.24
563.299	2.27
563.641	2.34
563.983	2.19
564.325	2.29
564.667	2.19
565.008	2.3
565.35	2.24
565.692	2.11
566.033	2.3
566.375	2.03
566.716	2.31
567.058	1.94
567.399	2.25
567.741	2.25
568.082	2.11
568.423	2.15
568.764	2.23
569.105	2.18
569.447	2.35
569.788	2.15
570.129	2.25
570.47	2.3
570.811	2.11
571.151	2.22
571.492	2.27
571.833	2.17
572.174	2.07
572.514	2.19
572.855	2.26
573.195	2.16
573.536	2.2
573.876	2.05
574.217	2.14
574.557	2.28
574.898	2.13
575.238	2.31
575.578	2.34
575.918	2.31
576.258	2.26
576.598	2.12
576.938	2.15
577.278	2.13
577.618	2.04
577.958	2.4
578.298	2.42
578.638	2.19
578.977	2.13
579.317	2.06
579.657	2.18
579.996	2.36
580.336	2.09
580.675	2.06
581.014	2.41
581.354	2.36
581.693	2.38
582.032	2.27
582.372	2.26
582.711	2.16
583.05	2.34
583.389	2.26
583.728	2.06
584.067	2.14
584.406	2.09
584.745	2.21
585.083	2.18
585.422	2.21
585.761	2.39
586.1	2.27
586.438	2.21
586.777	2.28
587.115	2.18
587.454	2.43
587.792	2.1
588.13	2.14
588.469	2.3
588.807	2.01
589.145	2.11
589.483	2.13
589.821	1.97
590.159	2.18
590.497	2.28
590.835	2.33
591.173	2.06
591.511	2.29
591.849	2.31
592.187	2.24
592.524	2.04
592.862	2.36
593.2	2.02
593.537	2.42
593.875	2.08
594.212	2.2
594.55	1.96
594.887	2.44
595.224	2.17
595.561	2.35
595.899	2.02
596.236	2.35
596.573	2.15
596.91	2.47
597.247	2.38
597.584	2.29
597.921	2.3
598.258	2.3
598.594	2.2
598.931	2.4
599.268	2.23
599.604	2.25
599.941	2.5
600.277	2.33
600.614	2.04
600.95	2.51
601.287	2.23
601.623	2.39
601.959	2.33
602.296	2.08
602.632	2.15
602.968	2.53
603.304	2.01
603.64	2.46
603.976	2.31
604.312	2.23
604.648	2.32
604.984	2.15
605.319	2.35
605.655	2.07
605.991	2.07
606.326	2.11
606.662	2.13
606.998	2.14
607.333	2.23
607.668	2.47
608.004	2.19
608.339	2.3
608.674	2.4
609.01	2.08
609.345	2.21
609.68	2.36
610.015	2.15
610.35	2.36
610.685	2.08
611.02	2.25
611.355	2.24
611.689	2.51
612.024	2.27
612.359	2.14
612.694	2.37
613.028	2.22
613.363	2.11
613.697	2.32
614.032	2.05
614.366	2.23
614.7	2.37
615.035	2.41
615.369	2.4
615.703	2.1
616.037	2.24
616.371	2.25
616.705	2.52
617.039	2.38
617.373	2.42
617.707	1.98
618.041	2.19
618.375	1.9
618.709	2.48
619.042	2.45
619.376	1.97
619.71	2.36
620.043	2.12
620.377	2.51
620.71	2.17
621.043	2.1
621.377	2.4
621.71	2.62
622.043	2.23
622.376	2.52
622.709	2.32
623.043	2.87
623.376	2.37
623.709	2.5
624.041	2.4
624.374	2.55
624.707	2.23
625.04	2.42
625.373	2.79
625.705	2.59
626.038	2.31
626.37	2.43
626.703	2.28
627.035	2.11
627.368	2.26
627.7	2.58
628.032	2.44
628.365	2.34
628.697	2.37
629.029	2.17
629.361	2.54
629.693	2.13
630.025	2.25
630.357	2.09
630.689	2.47
631.021	2.17
631.353	2.33
631.684	2.24
632.016	2.35
632.348	2.48
632.679	2.43
633.011	2.17
633.342	2.17
633.674	2.34
634.005	2.35
634.336	2.73
634.668	2.39
634.999	2.15
635.33	1.96
635.661	2.39
635.992	2.19
636.323	2.87
636.654	2.15
636.985	2.65
637.316	1.98
637.647	2.43
637.977	2.33
638.308	2.01
638.639	2.24
638.969	2.13
639.3	1.92
639.63	2.63
639.961	2.29
640.291	2.27
640.622	1.83
640.952	2.49
641.282	2.56
641.612	2.17
641.943	2.53
642.273	3.07
642.603	2.05
642.933	2.24
643.263	2.47
643.592	2.01
643.922	2.26
644.252	2.52
644.582	2.11
644.911	2.23
645.241	2.8
645.571	2.59
645.9	2.64
646.23	2.02
646.559	2.46
646.888	2.03
647.218	2.61
647.547	2.56
647.876	2.37
648.205	2.9
648.534	2.36
648.863	2.31
649.192	2.29
649.521	2.15
649.85	2.53
650.179	2.38
650.508	2.59
650.837	2.32
651.165	1.97
651.494	2.07
651.822	2.38
652.151	1.92
652.479	2.5
652.808	2.78
653.136	2.17
653.465	2.18
653.793	2.27
654.121	2.35
654.449	2.44
654.777	2.25
655.105	2.23
655.433	2.51
655.761	2.12
656.089	2.41
656.417	2.23
656.745	1.89
657.073	2.72
657.4	2.16
657.728	3.19
658.056	2.6
658.383	2.71
658.711	2.89
659.038	2.46
659.365	2.38
659.693	2.27
660.02	2.01
660.347	2.62
660.674	2.13
661.001	2.35
661.329	2.56
661.656	2.36
661.982	2.27
662.309	2.01
662.636	2.36
662.963	2.44
663.29	2.22
663.616	2.77
663.943	2.06
664.27	2.63
664.596	2.25
664.923	2.06
665.249	2.39
665.576	2.67
665.902	2.94
666.228	2.63
666.554	1.89
666.881	2.31
667.207	3.13
667.533	3.06
667.859	2.56
668.185	2.66
668.511	2.11
668.837	2.76
669.162	2.55
669.488	2.67
669.814	2.42
670.139	2.33
670.465	2.32
670.791	2.39
671.116	2.89
671.442	2.85
671.767	2.64
672.092	2.66
672.418	1.99
672.743	2.99
673.068	2.63
673.393	2.01
673.718	2.66
674.043	2.5
674.368	2.82
674.693	2.28
675.018	2.62
675.343	2.24
675.667	2.59
675.992	2.53
676.317	2.51
676.641	1.76
676.966	2.99
677.29	2.3
677.615	2.06
677.939	2.51
678.264	2.6
678.588	2.83
678.912	1.68
679.236	2.78
679.56	1.73
679.885	2.41
680.209	2.66
680.532	1.63
680.856	2.3
681.18	2.08
681.504	2.23
681.828	3.03
682.152	2.11
682.475	2.01
682.799	2.17
683.122	2.47
683.446	2.74
683.769	2.35
684.093	2.69
684.416	2.65
684.739	2.56
685.062	2.99
685.386	2.35
685.709	2.61
686.032	2.73
686.355	2.54
686.678	2.38
687.001	2.61
687.324	2.71
687.646	2.88
687.969	2.56
688.292	1.96
688.614	3.1
688.937	1.72
689.26	2.21
689.582	2.19
689.904	2.56
690.227	3.49
690.549	2.57
690.871	2.57
691.194	2.3
691.516	2.3
691.838	2.35
692.16	2.58
692.482	2.92
692.804	3.2
