Data from 0021_crown_Reflection__2__23.txt Node

Date: Thu Oct 20 20:31:45 CDT 2022
User: ToomeyLab
Spectrometer: FLMS14357
Trigger mode: 0
Integration Time (sec): 1.000000E-2
Scans to average: 100
Electric dark correction enabled: true
Nonlinearity correction enabled: false
Boxcar width: 0
XAxis mode: Wavelengths
Number of Pixels in Spectrum: 2048
>>>>>Begin Spectral Data<<<<<
189.047	466.27
189.435	466.27
189.823	466.27
190.211	210.48
190.599	97.72
190.987	-109.59
191.375	-143.86
191.763	84.48
192.151	211.56
192.538	-14.34
192.926	113.13
193.314	2271.89
193.702	403.77
194.089	52.63
194.477	79.63
194.864	-1173.31
195.252	59.4
195.639	138.93
196.027	256.68
196.414	-732.17
196.801	3017.81
197.189	-165.81
197.576	86.19
197.963	-563.08
198.351	41.49
198.738	40.3
199.125	41.3
199.512	-7.13
199.899	-2.99
200.286	-21
200.673	18.29
201.06	22.69
201.447	51.28
201.833	22.95
202.22	23.12
202.607	26.72
202.994	25
203.38	-5.78
203.767	31.02
204.154	-9.15
204.54	32.9
204.927	19
205.313	28.03
205.699	8.19
206.086	67.33
206.472	-9.62
206.858	30.98
207.245	37.41
207.631	-2.14
208.017	10.01
208.403	42.84
208.789	19.82
209.175	22.51
209.561	-4.01
209.947	42.29
210.333	37.34
210.719	23.94
211.105	19.98
211.491	2.98
211.876	25.43
212.262	7.33
212.648	-50.86
213.034	-5.61
213.419	13.72
213.805	8.21
214.19	-18.82
214.576	-4.68
214.961	-2.33
215.346	-24.14
215.732	28.39
216.117	27.1
216.502	23.19
216.888	48.36
217.273	20.44
217.658	20.27
218.043	-5.97
218.428	11.92
218.813	13.82
219.198	12.09
219.583	17.74
219.968	9.93
220.353	0.34
220.738	7
221.122	-0.07
221.507	17.18
221.892	15.09
222.276	9.8
222.661	2.14
223.046	5.16
223.43	11.39
223.815	-0.95
224.199	14.67
224.583	-4.13
224.968	3.58
225.352	5.52
225.736	9.68
226.121	16.24
226.505	9.68
226.889	7.14
227.273	5.95
227.657	8.85
228.041	9.13
228.425	7.09
228.809	6.87
229.193	7.32
229.577	6.76
229.961	5.16
230.344	6.45
230.728	7.84
231.112	7.37
231.495	6.99
231.879	7.02
232.263	7.16
232.646	7.37
233.03	4.26
233.413	6.31
233.797	6.52
234.18	7.09
234.563	4.27
234.946	5.96
235.33	6.84
235.713	8.43
236.096	7.01
236.479	3.72
236.862	6.77
237.245	6.74
237.628	5.42
238.011	6.27
238.394	6.02
238.777	5.51
239.16	5.55
239.543	8.01
239.925	5.87
240.308	8.28
240.691	5.55
241.073	7.14
241.456	5.42
241.838	5.69
242.221	6.82
242.603	6.71
242.986	6.24
243.368	6.08
243.75	6.7
244.133	6.15
244.515	6.62
244.897	5.9
245.279	5.65
245.661	6.4
246.043	5.47
246.425	5.32
246.807	5.61
247.189	6.6
247.571	5.95
247.953	6.3
248.335	6.09
248.717	6.01
249.098	5.83
249.48	6.05
249.862	6.13
250.243	6.06
250.625	5.99
251.006	6.48
251.388	6.94
251.769	6.79
252.151	6.63
252.532	5.85
252.913	6.21
253.295	5.8
253.676	5.87
254.057	6.53
254.438	6.25
254.819	6.7
255.2	5.53
255.581	7.22
255.962	6.08
256.343	8.09
256.724	5.79
257.105	5.92
257.486	5.64
257.867	6.19
258.247	6.41
258.628	4.99
259.009	5.94
259.389	4.96
259.77	6.51
260.15	6.04
260.531	6.21
260.911	5.5
261.292	5.22
261.672	5.4
262.052	5.82
262.432	6.08
262.813	6.12
263.193	6.31
263.573	5.32
263.953	5.77
264.333	5.57
264.713	6.31
265.093	5.68
265.473	5.94
265.853	5.88
266.233	5.86
266.612	4.99
266.992	5.86
267.372	6.14
267.752	5.91
268.131	5.53
268.511	5.74
268.89	5.66
269.27	6.39
269.649	5.68
270.029	6.35
270.408	6.3
270.787	5.6
271.167	6.5
271.546	5.44
271.925	5.31
272.304	5.63
272.683	5.38
273.062	5.78
273.441	5.76
273.82	5.35
274.199	5
274.578	6.23
274.957	5.94
275.336	5.36
275.715	5.32
276.093	5.75
276.472	5.83
276.851	5.64
277.229	5.23
277.608	5.41
277.986	5.67
278.365	5.46
278.743	5.4
279.122	6.31
279.5	5.06
279.878	5.78
280.257	5.52
280.635	5.48
281.013	5.94
281.391	5.89
281.769	5.2
282.147	5.7
282.525	5.35
282.903	5.47
283.281	5.39
283.659	5.35
284.037	5.46
284.415	5.84
284.792	5.17
285.17	5.32
285.548	5.2
285.925	5.46
286.303	5.55
286.68	5.2
287.058	5.29
287.435	5.3
287.813	5
288.19	5.41
288.567	5.27
288.945	5.41
289.322	4.67
289.699	5.25
290.076	5.48
290.453	5.42
290.83	5.26
291.207	4.92
291.584	4.94
291.961	5.07
292.338	5.06
292.715	5.11
293.092	5.72
293.469	5.62
293.845	5.53
294.222	5.01
294.599	5.62
294.975	5.24
295.352	5.56
295.728	5.65
296.105	4.96
296.481	5.02
296.858	4.98
297.234	5.03
297.61	5.25
297.986	5.1
298.363	4.91
298.739	5.13
299.115	5.19
299.491	5.25
299.867	4.87
300.243	4.82
300.619	5.04
300.995	4.99
301.371	4.97
301.746	5.41
302.122	4.39
302.498	5.66
302.874	5.04
303.249	5.59
303.625	4.97
304	5.05
304.376	5.29
304.751	4.73
305.127	4.4
305.502	4.86
305.878	4.79
306.253	4.7
306.628	4.7
307.003	4.92
307.378	5.04
307.754	5.16
308.129	4.81
308.504	5.31
308.879	5.11
309.254	4.98
309.629	4.96
310.003	4.91
310.378	5.34
310.753	4.78
311.128	4.34
311.502	4.78
311.877	4.95
312.252	4.91
312.626	4.41
313.001	4.44
313.375	4.71
313.75	4.86
314.124	4.82
314.498	4.39
314.873	4.84
315.247	5.04
315.621	4.76
315.995	4.68
316.369	4.06
316.743	4.65
317.117	4.08
317.491	4.37
317.865	4.96
318.239	4.83
318.613	5.26
318.987	4.81
319.361	4.62
319.734	4.71
320.108	5.3
320.482	4.57
320.855	5.03
321.229	4.83
321.602	4.65
321.976	4.63
322.349	4.54
322.723	5.25
323.096	3.93
323.469	4.93
323.843	4.87
324.216	4.36
324.589	4.47
324.962	4.89
325.335	3.93
325.708	4.68
326.081	4.97
326.454	4.59
326.827	4.44
327.2	4.59
327.573	4.73
327.945	4.38
328.318	4.74
328.691	4.57
329.063	4.67
329.436	4.02
329.809	4.86
330.181	4.6
330.553	4.2
330.926	4.39
331.298	4.47
331.671	5.01
332.043	4.47
332.415	4.75
332.787	4.52
333.159	4.45
333.532	4.62
333.904	4.56
334.276	4.59
334.648	4.34
335.02	4.01
335.391	4.44
335.763	4.87
336.135	4.68
336.507	4.26
336.879	4.31
337.25	4.22
337.622	4.47
337.993	4.45
338.365	4.06
338.736	4.78
339.108	4.51
339.479	4.45
339.851	4.61
340.222	4.58
340.593	4.15
340.964	4.46
341.336	4.34
341.707	4.22
342.078	3.89
342.449	4.34
342.82	4.36
343.191	4.24
343.562	4.1
343.933	4.37
344.303	4.82
344.674	3.92
345.045	4.63
345.416	4.3
345.786	4.63
346.157	4.39
346.527	4.13
346.898	4.52
347.268	4.16
347.639	4.75
348.009	4.43
348.38	4.73
348.75	4.27
349.12	4.16
349.49	4.4
349.861	4.82
350.231	4.11
350.601	4.42
350.971	4.08
351.341	4
351.711	4.11
352.081	4.65
352.45	4.71
352.82	4.25
353.19	4.35
353.56	4.14
353.929	4.72
354.299	3.83
354.669	4.5
355.038	4.17
355.408	4.17
355.777	4.29
356.147	4.13
356.516	4.28
356.885	4.71
357.254	4.51
357.624	3.96
357.993	4.08
358.362	4.42
358.731	4.16
359.1	4.73
359.469	4.37
359.838	4.55
360.207	4.72
360.576	4.53
360.945	3.98
361.314	4.51
361.682	4.18
362.051	4.6
362.42	4.32
362.788	4.25
363.157	4.25
363.525	4.34
363.894	4.29
364.262	4.28
364.631	4.65
364.999	4.09
365.367	4.42
365.735	4.25
366.104	4.43
366.472	4.18
366.84	4.26
367.208	4.26
367.576	4.46
367.944	4.76
368.312	4.38
368.68	4.89
369.048	4.15
369.416	4.55
369.783	4.39
370.151	4.52
370.519	4.59
370.886	4.32
371.254	4.38
371.621	4.16
371.989	4.02
372.356	4.65
372.724	4.6
373.091	4.52
373.458	4.33
373.826	4.39
374.193	4.33
374.56	4.42
374.927	4.56
375.294	4.47
375.661	4.5
376.028	4.61
376.395	4.59
376.762	4.51
377.129	4.55
377.496	4.34
377.863	4.48
378.229	4.3
378.596	4.28
378.963	4.64
379.329	4.29
379.696	4.54
380.062	4.17
380.429	4.52
380.795	4.46
381.161	4.62
381.528	4.26
381.894	4.43
382.26	3.99
382.626	4.86
382.993	4.45
383.359	4.47
383.725	4.38
384.091	4.22
384.457	4.57
384.823	4.31
385.188	4.56
385.554	4.5
385.92	4.28
386.286	4.75
386.651	4.6
387.017	4.33
387.383	4.48
387.748	4.65
388.114	4.44
388.479	4.64
388.845	4.71
389.21	4.49
389.575	4.35
389.94	4.85
390.306	4.21
390.671	4.42
391.036	4.43
391.401	4.6
391.766	4.68
392.131	4.36
392.496	4.39
392.861	4.57
393.226	4.5
393.591	4.29
393.956	4.43
394.32	4.46
394.685	4.63
395.05	4.29
395.414	4.67
395.779	4.53
396.143	4.67
396.508	4.36
396.872	4.37
397.236	4.73
397.601	4.57
397.965	4.76
398.329	4.48
398.694	4.58
399.058	4.68
399.422	4.62
399.786	4.65
400.15	4.32
400.514	4.42
400.878	4.59
401.242	4.87
401.605	4.4
401.969	4.41
402.333	4.64
402.697	4.71
403.06	4.68
403.424	4.54
403.787	4.64
404.151	4.57
404.514	4.49
404.878	4.43
405.241	4.65
405.604	4.84
405.968	4.55
406.331	4.71
406.694	4.64
407.057	4.38
407.42	4.54
407.783	4.46
408.146	4.84
408.509	4.69
408.872	4.73
409.235	4.41
409.598	4.66
409.961	4.58
410.323	4.5
410.686	4.44
411.049	4.5
411.411	4.6
411.774	4.8
412.136	4.5
412.499	4.54
412.861	4.59
413.223	4.82
413.586	4.94
413.948	4.52
414.31	4.66
414.672	4.69
415.035	4.82
415.397	4.84
415.759	4.62
416.121	4.63
416.483	5.04
416.845	4.8
417.206	4.79
417.568	4.7
417.93	4.41
418.292	4.7
418.653	4.45
419.015	4.61
419.377	4.63
419.738	4.65
420.1	4.67
420.461	4.74
420.822	4.68
421.184	4.56
421.545	4.47
421.906	4.57
422.267	4.53
422.629	4.7
422.99	4.54
423.351	4.62
423.712	4.55
424.073	4.6
424.434	4.72
424.795	4.61
425.155	4.58
425.516	4.58
425.877	4.52
426.238	4.68
426.598	4.53
426.959	4.76
427.32	4.69
427.68	4.53
428.041	4.85
428.401	4.86
428.761	4.86
429.122	4.84
429.482	4.98
429.842	4.89
430.202	4.83
430.563	4.85
430.923	4.8
431.283	4.83
431.643	4.84
432.003	4.92
432.363	4.84
432.722	4.83
433.082	4.89
433.442	4.98
433.802	4.87
434.161	4.9
434.521	4.72
434.881	4.75
435.24	4.76
435.6	4.89
435.959	4.8
436.319	4.83
436.678	4.83
437.037	4.95
437.396	4.86
437.756	4.87
438.115	5.06
438.474	5
438.833	4.88
439.192	4.89
439.551	4.83
439.91	4.85
440.269	4.86
440.628	4.81
440.987	4.83
441.345	4.77
441.704	4.81
442.063	4.7
442.421	4.86
442.78	4.84
443.138	5.02
443.497	4.85
443.855	4.96
444.214	4.82
444.572	4.98
444.93	4.9
445.288	5.01
445.647	4.85
446.005	4.9
446.363	4.83
446.721	4.86
447.079	4.71
447.437	4.77
447.795	4.77
448.153	4.77
448.51	4.83
448.868	4.81
449.226	4.85
449.584	4.94
449.941	4.94
450.299	4.95
450.656	5
451.014	4.96
451.371	5.09
451.729	4.91
452.086	4.88
452.443	4.82
452.801	5.08
453.158	4.95
453.515	4.85
453.872	5
454.229	4.98
454.586	4.99
454.943	5.05
455.3	4.99
455.657	4.91
456.014	5.15
456.371	4.98
456.727	5.14
457.084	5.06
457.441	4.8
457.797	5.11
458.154	4.96
458.51	4.93
458.867	4.93
459.223	4.87
459.58	4.94
459.936	4.97
460.292	4.91
460.648	4.87
461.005	4.82
461.361	4.77
461.717	4.99
462.073	4.85
462.429	5.05
462.785	4.91
463.141	4.92
463.496	4.87
463.852	5.14
464.208	5.07
464.564	4.99
464.919	5.15
465.275	4.97
465.631	4.99
465.986	5.09
466.342	4.96
466.697	4.88
467.052	5.09
467.408	4.85
467.763	5.07
468.118	4.96
468.473	4.86
468.829	5.07
469.184	5.02
469.539	5.01
469.894	4.99
470.249	4.82
470.603	5.02
470.958	5.21
471.313	5
471.668	5.03
472.023	5.01
472.377	5.05
472.732	5.18
473.086	5
473.441	4.91
473.795	5.03
474.15	5
474.504	5.1
474.859	5.16
475.213	5.18
475.567	5.06
475.921	5.12
476.275	4.99
476.63	5.03
476.984	5.17
477.338	5.12
477.692	5.17
478.045	5.12
478.399	5.39
478.753	5.15
479.107	5.03
479.461	5.04
479.814	4.93
480.168	4.99
480.521	4.98
480.875	5.04
481.228	5.03
481.582	5.09
481.935	4.96
482.289	5.19
482.642	5.03
482.995	4.97
483.348	4.95
483.701	5.01
484.055	4.99
484.408	4.9
484.761	4.87
485.114	4.69
485.466	4.69
485.819	4.78
486.172	4.85
486.525	4.96
486.878	4.96
487.23	5
487.583	5.04
487.936	4.89
488.288	4.89
488.641	4.89
488.993	4.85
489.345	4.87
489.698	4.9
490.05	4.95
490.402	5.02
490.754	5.03
491.107	5.03
491.459	5.09
491.811	5.19
492.163	5.05
492.515	5.04
492.866	4.88
493.218	4.86
493.57	4.93
493.922	5.03
494.274	5.16
494.625	5.1
494.977	5.07
495.328	5.21
495.68	5.13
496.031	5.3
496.383	5.18
496.734	5.16
497.086	5.2
497.437	5.27
497.788	5.04
498.139	5.05
498.49	5.02
498.842	5.19
499.193	5.13
499.544	5.28
499.894	5.17
500.245	5.07
500.596	5.11
500.947	5.24
501.298	5.31
501.648	5.24
501.999	5.19
502.35	5.31
502.7	5.33
503.051	5.34
503.401	5.21
503.752	5.25
504.102	5.19
504.452	5.22
504.803	5.25
505.153	5.16
505.503	5.3
505.853	5.19
506.203	5.05
506.553	5.18
506.903	5.37
507.253	5.15
507.603	5.18
507.953	5.18
508.303	5.43
508.652	5.25
509.002	5.12
509.352	5.26
509.701	5.13
510.051	5.11
510.4	5.09
510.75	5.19
511.099	5.16
511.449	5.24
511.798	5.34
512.147	5.13
512.496	5.18
512.846	5.18
513.195	5.15
513.544	5.18
513.893	5.24
514.242	5.29
514.591	5.24
514.939	5.27
515.288	5.2
515.637	5.22
515.986	5.38
516.334	5.26
516.683	5.31
517.032	5.26
517.38	5.25
517.729	5.43
518.077	5.27
518.426	5.22
518.774	5.51
519.122	5.26
519.47	5.25
519.819	5.21
520.167	5.18
520.515	5.31
520.863	5.18
521.211	5.29
521.559	5.4
521.907	5.16
522.255	5.25
522.602	5.36
522.95	5.24
523.298	5.26
523.645	5.19
523.993	5.34
524.341	5.44
524.688	5.31
525.036	5.5
525.383	5.49
525.73	5.33
526.078	5.26
526.425	5.24
526.772	5.29
527.119	5.3
527.466	5.3
527.814	5.27
528.161	5.35
528.508	5.25
528.854	5.42
529.201	5.25
529.548	5.18
529.895	5.05
530.242	5.1
530.588	5.14
530.935	5.13
531.282	5.25
531.628	5.2
531.975	5.28
532.321	5.4
532.667	5.24
533.014	5.33
533.36	5.26
533.706	5.37
534.052	5.3
534.399	5.24
534.745	5.23
535.091	5.19
535.437	5.31
535.783	5.34
536.129	5.42
536.474	5.36
536.82	5.36
537.166	5.47
537.512	5.45
537.857	5.38
538.203	5.42
538.549	5.3
538.894	5.33
539.239	5.51
539.585	5.37
539.93	5.42
540.276	5.49
540.621	5.53
540.966	5.45
541.311	5.5
541.656	5.5
542.001	5.31
542.346	5.25
542.691	5.23
543.036	5.2
543.381	5.31
543.726	5.35
544.071	5.34
544.415	5.35
544.76	5.35
545.105	5.46
545.449	5.37
545.794	5.6
546.138	5.56
546.483	5.57
546.827	5.42
547.171	5.43
547.516	5.55
547.86	5.48
548.204	5.46
548.548	5.42
548.892	5.51
549.236	5.45
549.58	5.48
549.924	5.67
550.268	5.49
550.612	5.53
550.956	5.48
551.3	5.57
551.643	5.56
551.987	5.49
552.33	5.61
552.674	5.7
553.017	5.46
553.361	5.55
553.704	5.61
554.048	5.62
554.391	5.49
554.734	5.69
555.077	5.52
555.42	5.59
555.764	5.67
556.107	5.81
556.45	5.68
556.793	5.75
557.135	5.59
557.478	5.74
557.821	5.61
558.164	5.67
558.507	5.72
558.849	5.57
559.192	5.88
559.534	5.84
559.877	5.6
560.219	5.75
560.562	5.69
560.904	5.86
561.246	5.45
561.589	5.71
561.931	5.74
562.273	5.71
562.615	5.64
562.957	5.65
563.299	5.61
563.641	5.65
563.983	5.62
564.325	5.64
564.667	5.8
565.008	5.68
565.35	5.81
565.692	5.81
566.033	5.81
566.375	5.57
566.716	5.57
567.058	5.54
567.399	5.83
567.741	5.54
568.082	5.58
568.423	5.63
568.764	5.82
569.105	5.56
569.447	5.83
569.788	5.84
570.129	5.84
570.47	5.91
570.811	5.6
571.151	5.65
571.492	5.69
571.833	5.94
572.174	5.61
572.514	5.71
572.855	5.79
573.195	5.79
573.536	5.66
573.876	5.69
574.217	5.64
574.557	5.74
574.898	5.92
575.238	5.85
575.578	5.8
575.918	5.83
576.258	5.74
576.598	5.63
576.938	5.58
577.278	5.79
577.618	5.76
577.958	5.87
578.298	5.65
578.638	5.64
578.977	5.72
579.317	5.59
579.657	5.97
579.996	5.89
580.336	5.73
580.675	5.72
581.014	5.75
581.354	5.82
581.693	5.79
582.032	5.67
582.372	5.99
582.711	5.74
583.05	5.84
583.389	5.83
583.728	5.67
584.067	5.63
584.406	5.72
584.745	5.91
585.083	5.87
585.422	5.89
585.761	6.14
586.1	5.89
586.438	5.77
586.777	5.88
587.115	5.81
587.454	5.95
587.792	5.63
588.13	5.83
588.469	5.92
588.807	5.77
589.145	5.81
589.483	5.63
589.821	5.7
590.159	5.95
590.497	5.72
590.835	6.07
591.173	6.06
591.511	5.91
591.849	5.72
592.187	5.78
592.524	5.92
592.862	5.95
593.2	5.9
593.537	5.93
593.875	5.95
594.212	5.99
594.55	6
594.887	6.22
595.224	6.02
595.561	6.02
595.899	5.77
596.236	6.01
596.573	5.66
596.91	5.88
597.247	5.74
597.584	5.99
597.921	5.87
598.258	5.95
598.594	6.03
598.931	5.92
599.268	5.89
599.604	5.89
599.941	6.04
600.277	5.95
600.614	6.01
600.95	6.25
601.287	5.74
601.623	5.95
601.959	5.8
602.296	5.76
602.632	5.77
602.968	6.04
603.304	5.8
603.64	5.91
603.976	6.09
604.312	6.03
604.648	5.79
604.984	5.74
605.319	5.98
605.655	5.68
605.991	5.6
606.326	5.82
606.662	5.75
606.998	6.02
607.333	5.77
607.668	6.12
608.004	5.98
608.339	6.12
608.674	6.01
609.01	6.02
609.345	6
609.68	6.08
610.015	6.05
610.35	6.11
610.685	5.73
611.02	5.98
611.355	5.96
611.689	6.1
612.024	5.94
612.359	5.9
612.694	6.03
613.028	6.1
613.363	5.68
613.697	6.25
614.032	6.14
614.366	6.06
614.7	6.18
615.035	6.25
615.369	6.1
615.703	6.18
616.037	6.02
616.371	6.07
616.705	6.19
617.039	6.36
617.373	6.13
617.707	5.81
618.041	6.23
618.375	5.99
618.709	6.21
619.042	5.94
619.376	5.73
619.71	5.76
620.043	6.03
620.377	6.35
620.71	5.98
621.043	6.01
621.377	6.01
621.71	6.35
622.043	6
622.376	6.21
622.709	6.43
623.043	6.59
623.376	5.99
623.709	6.11
624.041	5.98
624.374	6.39
624.707	5.91
625.04	6.37
625.373	6.37
625.705	6.15
626.038	6
626.37	6.02
626.703	6.25
627.035	6.05
627.368	6.08
627.7	6.19
628.032	6.16
628.365	5.93
628.697	5.9
629.029	6.13
629.361	6.32
629.693	5.91
630.025	5.97
630.357	5.82
630.689	6.14
631.021	5.9
631.353	6.21
631.684	6.24
632.016	6.01
632.348	6.1
632.679	6.32
633.011	6.19
633.342	6.11
633.674	5.95
634.005	6.32
634.336	6.08
634.668	6.22
634.999	6.13
635.33	5.98
635.661	6.21
635.992	6.14
636.323	6.48
636.654	6.07
636.985	6.12
637.316	5.99
637.647	5.86
637.977	6.16
638.308	6.43
638.639	6.18
638.969	5.97
639.3	6
639.63	6.5
639.961	6.56
640.291	5.92
640.622	5.88
640.952	6.52
641.282	6.3
641.612	6.24
641.943	6.47
642.273	6.49
642.603	5.98
642.933	6.35
643.263	5.75
643.592	6.19
643.922	6.17
644.252	6.45
644.582	5.95
644.911	5.9
645.241	6.42
645.571	6.1
645.9	6.24
646.23	5.86
646.559	6.02
646.888	6.01
647.218	6.38
647.547	6.45
647.876	6.1
648.205	6.33
648.534	5.9
648.863	6.1
649.192	6.39
649.521	6.36
649.85	6.39
650.179	6.37
650.508	6.43
650.837	5.95
651.165	6.08
651.494	6.2
651.822	6.05
652.151	5.94
652.479	6.11
652.808	6.46
653.136	5.96
653.465	6.21
653.793	6.23
654.121	6.53
654.449	6.18
654.777	5.76
655.105	6.16
655.433	6.65
655.761	6.25
656.089	6.48
656.417	6.48
656.745	5.88
657.073	6.45
657.4	6.34
657.728	7.1
658.056	6.22
658.383	6.73
658.711	6.92
659.038	6.69
659.365	6.23
659.693	6.06
660.02	5.99
660.347	6.58
660.674	6.18
661.001	6.33
661.329	6.45
661.656	6.05
661.982	5.84
662.309	6.46
662.636	5.97
662.963	6.46
663.29	6.36
663.616	6.31
663.943	6.28
664.27	6.2
664.596	6.06
664.923	6.36
665.249	6.18
665.576	6.02
665.902	6.86
666.228	6.67
666.554	5.69
666.881	6.5
667.207	6.86
667.533	6.4
667.859	6.33
668.185	6.52
668.511	6.15
668.837	6.59
669.162	6.49
669.488	6.06
669.814	6.89
670.139	6.55
670.465	6.3
670.791	5.76
671.116	6.93
671.442	6.72
671.767	6.07
672.092	6.9
672.418	6.13
672.743	6.42
673.068	6.04
673.393	6.57
673.718	6.53
674.043	6.56
674.368	6.52
674.693	5.57
675.018	6.29
675.343	6.18
675.667	7.04
675.992	6.46
676.317	6.33
676.641	5.91
676.966	7.24
677.29	6.48
677.615	6.6
677.939	6.94
678.264	6.88
678.588	7.1
678.912	6.24
679.236	7.23
679.56	6.32
679.885	6.05
680.209	6.76
680.532	5.94
680.856	6.41
681.18	6.35
681.504	6.18
681.828	6.76
682.152	6.6
682.475	6.01
682.799	5.83
683.122	6.31
683.446	6.71
683.769	6.33
684.093	7.09
684.416	6.63
684.739	6.79
685.062	6.61
685.386	6.28
685.709	7.48
686.032	6.57
686.355	6.96
686.678	6.66
687.001	6.86
687.324	7.01
687.646	6.58
687.969	6.99
688.292	6.39
688.614	6.6
688.937	5.67
689.26	5.78
689.582	6.76
689.904	6.58
690.227	7.03
690.549	6.62
690.871	6.54
691.194	6.18
691.516	7.28
691.838	6.95
692.16	6.63
692.482	6.7
692.804	6.84
693.126	7.63
