Data from 0021_chest_Reflection__0__16.txt Node

Date: Thu Oct 20 20:29:45 CDT 2022
User: ToomeyLab
Spectrometer: FLMS14357
Trigger mode: 0
Integration Time (sec): 1.000000E-2
Scans to average: 100
Electric dark correction enabled: true
Nonlinearity correction enabled: false
Boxcar width: 0
XAxis mode: Wavelengths
Number of Pixels in Spectrum: 2048
>>>>>Begin Spectral Data<<<<<
189.047	118.88
189.435	118.88
189.823	118.88
190.211	-93.89
190.599	93.06
190.987	-72.04
191.375	7.63
191.763	-60.96
192.151	207.84
192.538	27.68
192.926	21.02
193.314	-509.68
193.702	147.66
194.089	18.99
194.477	-130.77
194.864	-380.7
195.252	20.35
195.639	-29.95
196.027	475.2
196.414	-297.39
196.801	616.19
197.189	127.63
197.576	97.77
197.963	303.25
198.351	34.54
198.738	13.27
199.125	29.08
199.512	24.06
199.899	12.86
200.286	-32.64
200.673	1.37
201.06	44.01
201.447	69.66
201.833	16.22
202.22	30.44
202.607	24.11
202.994	20.56
203.38	-16.07
203.767	-15.51
204.154	1.99
204.54	52.78
204.927	37.74
205.313	25.85
205.699	5.21
206.086	54.88
206.472	12.47
206.858	20.55
207.245	14.09
207.631	4.89
208.017	36.77
208.403	17.68
208.789	3.58
209.175	18.8
209.561	19.7
209.947	48.63
210.333	26.23
210.719	-0.71
211.105	12.72
211.491	6.21
211.876	18.67
212.262	-7.6
212.648	0.82
213.034	8.89
213.419	19.46
213.805	-15.61
214.19	0.1
214.576	25.55
214.961	-5.3
215.346	-18.53
215.732	-2.08
216.117	21.2
216.502	18.13
216.888	35.48
217.273	25.53
217.658	10.11
218.043	0.58
218.428	13.16
218.813	-6.49
219.198	7.03
219.583	26.4
219.968	2.3
220.353	7.15
220.738	6.69
221.122	7.6
221.507	7.29
221.892	-5.15
222.276	21.54
222.661	-1.25
223.046	17.53
223.43	15.84
223.815	-5.99
224.199	4.17
224.583	2.24
224.968	4.63
225.352	6.18
225.736	1.73
226.121	2.53
226.505	1.97
226.889	5.24
227.273	0.78
227.657	5.66
228.041	1.9
228.425	6.99
228.809	3.49
229.193	4.09
229.577	2.05
229.961	1.47
230.344	1.98
230.728	2.36
231.112	1.76
231.495	0.03
231.879	2.49
232.263	0.75
232.646	2.34
233.03	-0.11
233.413	1.33
233.797	1.87
234.18	0.69
234.563	-0.09
234.946	3.01
235.33	0.91
235.713	2.57
236.096	1.11
236.479	0.29
236.862	2.52
237.245	3.81
237.628	0.46
238.011	0.6
238.394	2.44
238.777	2.47
239.16	3.17
239.543	1.68
239.925	1.74
240.308	2.25
240.691	1.92
241.073	1.88
241.456	0.89
241.838	1.19
242.221	2.24
242.603	2.08
242.986	2.35
243.368	1.99
243.75	1.57
244.133	1.87
244.515	1.39
244.897	1.8
245.279	1.76
245.661	2.51
246.043	1.18
246.425	2.23
246.807	2.38
247.189	1.72
247.571	1.25
247.953	1.69
248.335	1.62
248.717	1.85
249.098	1.73
249.48	1.56
249.862	1.99
250.243	1.65
250.625	2.23
251.006	2.26
251.388	2.36
251.769	0.54
252.151	1.77
252.532	1.67
252.913	1.9
253.295	1.3
253.676	1.91
254.057	1.95
254.438	2.42
254.819	2.29
255.2	0.87
255.581	2.19
255.962	3.29
256.343	3.82
256.724	1.63
257.105	1.49
257.486	2.17
257.867	2.08
258.247	1.41
258.628	1.35
259.009	1.94
259.389	2.13
259.77	1.86
260.15	1.63
260.531	1.93
260.911	1.35
261.292	1.77
261.672	1.7
262.052	1.76
262.432	1.73
262.813	1.69
263.193	1.68
263.573	1.34
263.953	1.48
264.333	1.21
264.713	1.26
265.093	1.59
265.473	2.53
265.853	0.81
266.233	2.1
266.612	1.45
266.992	2.6
267.372	1.91
267.752	1.67
268.131	1.49
268.511	1.28
268.89	1.78
269.27	1.85
269.649	1.55
270.029	1.85
270.408	1.34
270.787	1.92
271.167	1.99
271.546	1.8
271.925	1.59
272.304	1.79
272.683	1.4
273.062	1.8
273.441	1.91
273.82	1.75
274.199	1.85
274.578	2.06
274.957	1.6
275.336	1.83
275.715	0.91
276.093	1.64
276.472	1.88
276.851	1.67
277.229	1.16
277.608	1.48
277.986	0.99
278.365	1.43
278.743	1.68
279.122	2.15
279.5	1.09
279.878	1.43
280.257	1.62
280.635	1.8
281.013	2.43
281.391	1.95
281.769	1.61
282.147	1.85
282.525	1.64
282.903	2.25
283.281	1.96
283.659	1.57
284.037	1.7
284.415	1.79
284.792	1.48
285.17	1.94
285.548	1.53
285.925	1.95
286.303	1.88
286.68	1.73
287.058	1.93
287.435	1.76
287.813	1.59
288.19	2.12
288.567	1.53
288.945	2.09
289.322	1.07
289.699	2.42
290.076	1.83
290.453	1.74
290.83	1.5
291.207	1.83
291.584	1.17
291.961	1.32
292.338	1.84
292.715	1.88
293.092	1.87
293.469	1.95
293.845	1.87
294.222	1.63
294.599	2.13
294.975	2.13
295.352	2.34
295.728	2.1
296.105	1.43
296.481	1.64
296.858	2.35
297.234	1.88
297.61	1.77
297.986	1.59
298.363	1.8
298.739	2.23
299.115	2.25
299.491	1.98
299.867	1.62
300.243	1.75
300.619	1.97
300.995	1.78
301.371	1.58
301.746	1.92
302.122	1.35
302.498	2.51
302.874	1.86
303.249	2.27
303.625	2.15
304	2.19
304.376	2.5
304.751	2.03
305.127	1.25
305.502	1.92
305.878	2.27
306.253	1.81
306.628	1.58
307.003	2.45
307.378	2.3
307.754	2.56
308.129	2.2
308.504	2.39
308.879	2.41
309.254	2.33
309.629	2.08
310.003	2.16
310.378	2.33
310.753	2.58
311.128	1.7
311.502	1.97
311.877	2.14
312.252	2.06
312.626	1.84
313.001	2.01
313.375	2.43
313.75	1.99
314.124	2.37
314.498	2.13
314.873	2.15
315.247	2.24
315.621	1.9
315.995	2.63
316.369	1.98
316.743	2.47
317.117	2.15
317.491	2.42
317.865	2.67
318.239	2.65
318.613	2.56
318.987	2.72
319.361	2.88
319.734	2.8
320.108	2.77
320.482	2.51
320.855	2.55
321.229	2.48
321.602	2.07
321.976	2.64
322.349	2.78
322.723	2.79
323.096	2.27
323.469	2.61
323.843	2.79
324.216	2.65
324.589	2.23
324.962	2.81
325.335	2.28
325.708	2.61
326.081	2.97
326.454	2.39
326.827	2.64
327.2	2.9
327.573	2.99
327.945	2.45
328.318	2.31
328.691	2.48
329.063	2.34
329.436	2.04
329.809	2.54
330.181	2.74
330.553	2
330.926	2.21
331.298	1.79
331.671	3.08
332.043	2.79
332.415	2.98
332.787	2.8
333.159	2.42
333.532	2.88
333.904	2.59
334.276	2.55
334.648	2.18
335.02	2.63
335.391	2.57
335.763	2.32
336.135	2.46
336.507	2.49
336.879	2.32
337.25	2.45
337.622	2.57
337.993	2.99
338.365	2.35
338.736	2.73
339.108	2.55
339.479	2.17
339.851	2.82
340.222	2.46
340.593	1.9
340.964	2.53
341.336	2.26
341.707	2.79
342.078	2.59
342.449	2.63
342.82	2.66
343.191	2.61
343.562	2.83
343.933	2.42
344.303	3.15
344.674	2.36
345.045	2.84
345.416	2.21
345.786	3.03
346.157	2.55
346.527	2.32
346.898	2.36
347.268	2.67
347.639	2.64
348.009	2.5
348.38	2.66
348.75	2.74
349.12	2.41
349.49	2.76
349.861	2.85
350.231	2.32
350.601	3.08
350.971	2.49
351.341	2.55
351.711	2.88
352.081	2.95
352.45	2.67
352.82	2.37
353.19	2.59
353.56	2.77
353.929	2.45
354.299	2.53
354.669	2.5
355.038	2.51
355.408	2.29
355.777	3
356.147	2.43
356.516	2.6
356.885	3.02
357.254	2.94
357.624	2.17
357.993	2.4
358.362	2.53
358.731	2.49
359.1	2.53
359.469	2.6
359.838	2.63
360.207	2.7
360.576	2.55
360.945	2.31
361.314	3.01
361.682	2.49
362.051	2.76
362.42	2.29
362.788	2.3
363.157	2.47
363.525	2.56
363.894	2.48
364.262	2.45
364.631	2.35
364.999	2.42
365.367	2.27
365.735	2.48
366.104	2.65
366.472	2.54
366.84	2.34
367.208	2.52
367.576	2.64
367.944	2.75
368.312	2.83
368.68	2.8
369.048	2.44
369.416	2.63
369.783	2.87
370.151	2.66
370.519	3.18
370.886	2.7
371.254	3.08
371.621	2.87
371.989	2.45
372.356	2.59
372.724	3
373.091	2.94
373.458	2.41
373.826	2.68
374.193	2.76
374.56	3.08
374.927	2.79
375.294	2.82
375.661	2.72
376.028	2.4
376.395	2.58
376.762	2.51
377.129	2.79
377.496	2.8
377.863	2.83
378.229	2.42
378.596	2.29
378.963	2.69
379.329	2.37
379.696	2.67
380.062	2.64
380.429	2.95
380.795	2.78
381.161	2.6
381.528	2.62
381.894	2.65
382.26	2.43
382.626	2.72
382.993	2.9
383.359	2.98
383.725	2.85
384.091	2.61
384.457	2.33
384.823	2.7
385.188	2.74
385.554	2.71
385.92	2.78
386.286	2.79
386.651	2.82
387.017	2.54
387.383	2.77
387.748	2.52
388.114	2.58
388.479	2.84
388.845	2.87
389.21	2.66
389.575	2.37
389.94	2.89
390.306	2.83
390.671	2.59
391.036	2.95
391.401	2.53
391.766	2.88
392.131	2.78
392.496	2.59
392.861	2.74
393.226	2.66
393.591	2.61
393.956	2.65
394.32	2.54
394.685	2.77
395.05	2.56
395.414	2.99
395.779	2.69
396.143	2.76
396.508	2.54
396.872	2.41
397.236	3
397.601	2.63
397.965	2.9
398.329	2.65
398.694	2.83
399.058	2.62
399.422	2.56
399.786	2.74
400.15	2.45
400.514	2.78
400.878	2.95
401.242	2.99
401.605	2.93
401.969	2.81
402.333	2.61
402.697	2.96
403.06	2.58
403.424	2.8
403.787	2.61
404.151	2.5
404.514	2.56
404.878	2.59
405.241	2.75
405.604	3
405.968	2.71
406.331	2.66
406.694	2.89
407.057	2.62
407.42	2.82
407.783	2.73
408.146	2.93
408.509	2.97
408.872	3.06
409.235	2.75
409.598	2.82
409.961	2.58
410.323	2.69
410.686	2.73
411.049	2.57
411.411	2.79
411.774	2.77
412.136	2.92
412.499	3.1
412.861	2.89
413.223	2.92
413.586	3.06
413.948	2.78
414.31	2.83
414.672	2.54
415.035	3.18
415.397	2.9
415.759	2.77
416.121	2.85
416.483	3.02
416.845	2.88
417.206	2.68
417.568	2.7
417.93	2.57
418.292	2.87
418.653	2.76
419.015	2.85
419.377	2.71
419.738	2.82
420.1	2.8
420.461	2.79
420.822	2.87
421.184	2.8
421.545	2.8
421.906	2.74
422.267	2.71
422.629	2.88
422.99	2.6
423.351	2.71
423.712	2.67
424.073	2.71
424.434	2.73
424.795	2.76
425.155	2.84
425.516	2.71
425.877	2.72
426.238	2.81
426.598	2.65
426.959	2.74
427.32	2.82
427.68	2.76
428.041	2.85
428.401	2.96
428.761	3.06
429.122	2.91
429.482	2.92
429.842	2.88
430.202	2.88
430.563	2.88
430.923	2.97
431.283	2.93
431.643	2.93
432.003	3.23
432.363	3.02
432.722	2.98
433.082	2.97
433.442	3.01
433.802	3.16
434.161	3
434.521	3.02
434.881	2.99
435.24	2.88
435.6	3.01
435.959	3.03
436.319	2.92
436.678	2.95
437.037	3.05
437.396	2.87
437.756	2.87
438.115	2.86
438.474	3.06
438.833	2.91
439.192	2.88
439.551	2.96
439.91	3.07
440.269	3.13
440.628	2.84
440.987	2.87
441.345	3.01
441.704	2.94
442.063	2.88
442.421	2.96
442.78	2.95
443.138	3.01
443.497	2.99
443.855	2.97
444.214	2.9
444.572	3.03
444.93	2.93
445.288	3.13
445.647	2.98
446.005	3.02
446.363	3.09
446.721	3.12
447.079	3
447.437	2.97
447.795	2.85
448.153	2.98
448.51	2.9
448.868	2.92
449.226	2.84
449.584	3.08
449.941	2.96
450.299	2.99
450.656	3.05
451.014	3.04
451.371	3.09
451.729	3.17
452.086	3.01
452.443	3.14
452.801	3.2
453.158	3.2
453.515	3.01
453.872	3.02
454.229	3.15
454.586	3.13
454.943	3.1
455.3	3.14
455.657	3.12
456.014	3.2
456.371	3.12
456.727	3.14
457.084	3.07
457.441	3.09
457.797	3.35
458.154	3.12
458.51	3.12
458.867	3.12
459.223	3.18
459.58	3.04
459.936	3.21
460.292	3.05
460.648	3.15
461.005	3.02
461.361	2.91
461.717	3.07
462.073	3.13
462.429	3.19
462.785	2.99
463.141	3.21
463.496	3.13
463.852	3.35
464.208	3.1
464.564	3.26
464.919	3.32
465.275	3.08
465.631	3.15
465.986	3.23
466.342	3.12
466.697	3.15
467.052	3.36
467.408	3.2
467.763	3.33
468.118	3.16
468.473	3.01
468.829	3.3
469.184	3.26
469.539	3.18
469.894	3.17
470.249	3.12
470.603	3.32
470.958	3.32
471.313	3.36
471.668	3.25
472.023	3.22
472.377	3.34
472.732	3.25
473.086	3.18
473.441	3.22
473.795	3.36
474.15	3.23
474.504	3.23
474.859	3.29
475.213	3.42
475.567	3.4
475.921	3.35
476.275	3.35
476.63	3.35
476.984	3.42
477.338	3.25
477.692	3.29
478.045	3.32
478.399	3.43
478.753	3.45
479.107	3.3
479.461	3.25
479.814	3.24
480.168	3.33
480.521	3.25
480.875	3.31
481.228	3.38
481.582	3.37
481.935	3.38
482.289	3.35
482.642	3.3
482.995	3.28
483.348	3.27
483.701	3.28
484.055	3.26
484.408	3.16
484.761	3.13
485.114	3.07
485.466	3.06
485.819	3.11
486.172	3.14
486.525	3.26
486.878	3.24
487.23	3.29
487.583	3.31
487.936	3.24
488.288	3.2
488.641	3.17
488.993	3.22
489.345	3.25
489.698	3.23
490.05	3.32
490.402	3.23
490.754	3.36
491.107	3.34
491.459	3.35
491.811	3.46
492.163	3.36
492.515	3.36
492.866	3.32
493.218	3.29
493.57	3.28
493.922	3.37
494.274	3.39
494.625	3.46
494.977	3.42
495.328	3.45
495.68	3.44
496.031	3.66
496.383	3.51
496.734	3.57
497.086	3.51
497.437	3.53
497.788	3.51
498.139	3.61
498.49	3.51
498.842	3.47
499.193	3.58
499.544	3.54
499.894	3.61
500.245	3.45
500.596	3.54
500.947	3.64
501.298	3.61
501.648	3.62
501.999	3.72
502.35	3.7
502.7	3.75
503.051	3.79
503.401	3.71
503.752	3.74
504.102	3.66
504.452	3.71
504.803	3.85
505.153	3.71
505.503	3.67
505.853	3.57
506.203	3.71
506.553	3.67
506.903	3.73
507.253	3.68
507.603	3.7
507.953	3.76
508.303	3.91
508.652	3.87
509.002	3.76
509.352	3.65
509.701	3.7
510.051	3.73
510.4	3.69
510.75	3.8
511.099	3.74
511.449	3.85
511.798	3.8
512.147	3.82
512.496	3.78
512.846	3.88
513.195	3.79
513.544	3.91
513.893	3.86
514.242	3.86
514.591	3.95
514.939	3.92
515.288	4.02
515.637	3.98
515.986	3.96
516.334	3.93
516.683	3.97
517.032	4
517.38	3.92
517.729	3.93
518.077	3.97
518.426	3.97
518.774	4.04
519.122	3.95
519.47	4.01
519.819	3.86
520.167	3.88
520.515	4.05
520.863	3.91
521.211	4.07
521.559	4.08
521.907	3.91
522.255	4.02
522.602	4.02
522.95	4.03
523.298	4.09
523.645	4
523.993	4.14
524.341	4.13
524.688	4.06
525.036	4.23
525.383	4.23
525.73	4.11
526.078	4.25
526.425	4.07
526.772	4.05
527.119	4.09
527.466	4.1
527.814	4.11
528.161	4.21
528.508	4.09
528.854	4.24
529.201	4.02
529.548	4.05
529.895	3.96
530.242	4
530.588	4.06
530.935	4.08
531.282	4.15
531.628	4.14
531.975	4.23
532.321	4.29
532.667	4.23
533.014	4.26
533.36	4.27
533.706	4.3
534.052	4.19
534.399	4.29
534.745	4.23
535.091	4.23
535.437	4.35
535.783	4.37
536.129	4.39
536.474	4.38
536.82	4.35
537.166	4.46
537.512	4.47
537.857	4.47
538.203	4.48
538.549	4.5
538.894	4.46
539.239	4.54
539.585	4.56
539.93	4.51
540.276	4.62
540.621	4.61
540.966	4.53
541.311	4.71
541.656	4.67
542.001	4.56
542.346	4.57
542.691	4.48
543.036	4.53
543.381	4.55
543.726	4.6
544.071	4.62
544.415	4.63
544.76	4.7
545.105	4.76
545.449	4.72
545.794	4.78
546.138	4.84
546.483	4.88
546.827	4.89
547.171	4.81
547.516	4.83
547.86	4.85
548.204	4.89
548.548	4.94
548.892	4.94
549.236	4.92
549.58	4.95
549.924	5.07
550.268	4.92
550.612	5.05
550.956	4.98
551.3	5.25
551.643	5.13
551.987	5.22
552.33	5.36
552.674	5.24
553.017	5.27
553.361	5.36
553.704	5.27
554.048	5.37
554.391	5.22
554.734	5.22
555.077	5.32
555.42	5.29
555.764	5.4
556.107	5.44
556.45	5.44
556.793	5.6
557.135	5.41
557.478	5.62
557.821	5.55
558.164	5.45
558.507	5.66
558.849	5.37
559.192	5.64
559.534	5.53
559.877	5.49
560.219	5.57
560.562	5.75
560.904	5.78
561.246	5.61
561.589	5.63
561.931	5.79
562.273	5.61
562.615	5.79
562.957	5.98
563.299	5.71
563.641	5.78
563.983	5.7
564.325	5.78
564.667	5.87
565.008	5.87
565.35	5.86
565.692	5.92
566.033	5.97
566.375	5.73
566.716	5.85
567.058	5.76
567.399	6.09
567.741	6.01
568.082	5.83
568.423	5.99
568.764	6.11
569.105	6.12
569.447	6.11
569.788	6.09
570.129	6.11
570.47	6.15
570.811	6.07
571.151	6.15
571.492	6.46
571.833	6.38
572.174	6.28
572.514	6.19
572.855	6.44
573.195	6.33
573.536	6.32
573.876	6.22
574.217	6.42
574.557	6.36
574.898	6.5
575.238	6.54
575.578	6.61
575.918	6.54
576.258	6.48
576.598	6.54
576.938	6.55
577.278	6.54
577.618	6.62
577.958	6.9
578.298	6.73
578.638	6.68
578.977	6.62
579.317	6.51
579.657	6.89
579.996	6.92
580.336	6.53
580.675	6.69
581.014	7.26
581.354	6.96
581.693	6.93
582.032	7.07
582.372	7
582.711	6.95
583.05	7.33
583.389	7.27
583.728	7.04
584.067	7.19
584.406	7.1
584.745	7.16
585.083	7.33
585.422	7.11
585.761	7.33
586.1	7.19
586.438	7.36
586.777	7.41
587.115	7.42
587.454	7.15
587.792	7.2
588.13	7.36
588.469	7.3
588.807	7.48
589.145	7.42
589.483	7.58
589.821	7.3
590.159	7.63
590.497	7.54
590.835	7.6
591.173	7.85
591.511	7.81
591.849	7.62
592.187	7.58
592.524	7.91
592.862	8.07
593.2	7.69
593.537	7.79
593.875	7.74
594.212	8.12
594.55	7.91
594.887	8.01
595.224	7.7
595.561	8.1
595.899	8.01
596.236	8.2
596.573	7.81
596.91	8.25
597.247	7.98
597.584	8.23
597.921	8.02
598.258	8.18
598.594	8.1
598.931	8.17
599.268	8.1
599.604	8.17
599.941	8.49
600.277	8.32
600.614	8.3
600.95	8.58
601.287	8.45
601.623	8.36
601.959	8.47
602.296	8.38
602.632	8.3
602.968	8.66
603.304	8.63
603.64	8.64
603.976	8.67
604.312	8.61
604.648	8.57
604.984	8.79
605.319	8.61
605.655	8.6
605.991	8.52
606.326	8.62
606.662	8.62
606.998	8.72
607.333	8.72
607.668	8.82
608.004	9.08
608.339	9.07
608.674	8.82
609.01	8.86
609.345	9.21
609.68	9.38
610.015	9.14
610.35	9.37
610.685	9.28
611.02	9.29
611.355	9.35
611.689	9.33
612.024	9.24
612.359	9.39
612.694	9.28
613.028	9.39
613.363	9.24
613.697	9.56
614.032	9.43
614.366	9.5
614.7	9.62
615.035	9.5
615.369	9.71
615.703	9.53
616.037	9.8
616.371	9.9
616.705	10.03
617.039	9.76
617.373	10.08
617.707	9.51
618.041	9.72
618.375	9.87
618.709	9.95
619.042	9.96
619.376	9.8
619.71	9.89
620.043	10.1
620.377	10.3
620.71	10.06
621.043	10.26
621.377	10.17
621.71	10.49
622.043	10.32
622.376	10.62
622.709	10.55
623.043	10.88
623.376	10.18
623.709	10.27
624.041	10.28
624.374	10.62
624.707	10.46
625.04	10.48
625.373	10.88
625.705	10.63
626.038	10.69
626.37	10.88
626.703	10.5
627.035	10.63
627.368	10.56
627.7	10.92
628.032	10.89
628.365	10.65
628.697	10.63
629.029	10.62
629.361	10.94
629.693	10.64
630.025	10.66
630.357	10.72
630.689	10.85
631.021	10.96
631.353	10.97
631.684	10.98
632.016	11.2
632.348	11
632.679	11.13
633.011	11.01
633.342	11.2
633.674	10.96
634.005	11.47
634.336	11.33
634.668	11.17
634.999	10.98
635.33	11.07
635.661	11.57
635.992	11.21
636.323	11.69
636.654	11.24
636.985	11.57
637.316	11.55
637.647	11.32
637.977	11.6
638.308	11.56
638.639	11.55
638.969	11.5
639.3	11.64
639.63	12.08
639.961	11.87
640.291	11.41
640.622	11.73
640.952	12.17
641.282	11.93
641.612	11.9
641.943	11.71
642.273	12.08
642.603	11.77
642.933	11.99
643.263	11.94
643.592	12.06
643.922	12.36
644.252	12.48
644.582	12.14
644.911	12.25
645.241	12.68
645.571	12.28
645.9	12.44
646.23	12.14
646.559	12.3
646.888	12.44
647.218	12.51
647.547	12.55
647.876	12.4
648.205	13.02
648.534	12.76
648.863	12.47
649.192	12.76
649.521	13.2
649.85	12.39
650.179	13.13
650.508	12.91
650.837	12.65
651.165	12.97
651.494	12.97
651.822	12.69
652.151	12.68
652.479	13.04
652.808	13.4
653.136	12.98
653.465	12.73
653.793	12.99
654.121	12.94
654.449	13.06
654.777	12.84
655.105	12.94
655.433	13.24
655.761	13.22
656.089	12.95
656.417	13.43
656.745	13.07
657.073	13.63
657.4	13.77
657.728	13.83
658.056	13.61
658.383	13.55
658.711	13.7
659.038	13.66
659.365	13.65
659.693	13.18
660.02	13.28
660.347	13.79
660.674	13.94
661.001	13.52
661.329	13.49
661.656	13.65
661.982	13.39
662.309	13.47
662.636	13.89
662.963	14.16
663.29	13.47
663.616	13.82
663.943	13.47
664.27	13.87
664.596	13.81
664.923	14.1
665.249	14.09
665.576	14.26
665.902	14.49
666.228	14.54
666.554	13.91
666.881	14.1
667.207	14.93
667.533	14.4
667.859	14.01
668.185	14.33
668.511	14.06
668.837	14.97
669.162	14.68
669.488	14.26
669.814	14.85
670.139	14.33
670.465	14.57
670.791	14.48
671.116	15.14
671.442	14.78
671.767	14.92
672.092	15.19
672.418	14.62
672.743	15.1
673.068	15.17
673.393	14.74
673.718	14.98
674.043	14.71
674.368	15.48
674.693	14.75
675.018	15.16
675.343	14.51
675.667	15.23
675.992	14.88
676.317	15.15
676.641	13.94
676.966	15.54
677.29	15.56
677.615	14.42
677.939	15.42
678.264	15.45
678.588	15.27
678.912	15.3
679.236	15.49
679.56	14.96
679.885	15.19
680.209	15.56
680.532	14.81
680.856	15.56
681.18	14.69
681.504	14.93
681.828	15.86
682.152	15.42
682.475	15.57
682.799	15.65
683.122	15.62
683.446	16.1
683.769	15.07
684.093	16.09
684.416	15.83
684.739	15.95
685.062	15.77
685.386	16.4
685.709	16.58
686.032	16.6
686.355	16.68
686.678	16.2
687.001	16.84
687.324	16.1
687.646	16.29
687.969	16.2
688.292	15.92
