Data from 0021_crown_Reflection__4__25.txt Node

Date: Thu Oct 20 20:32:05 CDT 2022
User: ToomeyLab
Spectrometer: FLMS14357
Trigger mode: 0
Integration Time (sec): 1.000000E-2
Scans to average: 100
Electric dark correction enabled: true
Nonlinearity correction enabled: false
Boxcar width: 0
XAxis mode: Wavelengths
Number of Pixels in Spectrum: 2048
>>>>>Begin Spectral Data<<<<<
189.047	113.7
189.435	113.7
189.823	113.7
190.211	142.02
190.599	73.83
190.987	-205.15
191.375	-273.75
191.763	92.95
192.151	65.02
192.538	284.27
192.926	69.62
193.314	10.14
193.702	235.16
194.089	70.53
194.477	-47.85
194.864	-471.05
195.252	29.79
195.639	153.73
196.027	117.71
196.414	168.7
196.801	612.96
197.189	-561.03
197.576	-104.05
197.963	118.63
198.351	29.92
198.738	8.44
199.125	22.96
199.512	15.6
199.899	16.31
200.286	-26.49
200.673	16.24
201.06	40.35
201.447	-6.3
201.833	4.5
202.22	27.17
202.607	37.94
202.994	30.72
203.38	-4.64
203.767	29.48
204.154	0.23
204.54	-22.98
204.927	30.87
205.313	9.23
205.699	5.62
206.086	-1.39
206.472	31.45
206.858	-4.54
207.245	29.61
207.631	23.44
208.017	13.14
208.403	17.32
208.789	25.36
209.175	22.56
209.561	26.21
209.947	11.99
210.333	13.98
210.719	65.74
211.105	-5.8
211.491	7.71
211.876	16.55
212.262	5.93
212.648	-25.81
213.034	7.29
213.419	-7.31
213.805	-2.55
214.19	14.35
214.576	16.32
214.961	6.48
215.346	3.96
215.732	16.56
216.117	28.76
216.502	13.18
216.888	28.06
217.273	11.6
217.658	-8.23
218.043	3.24
218.428	-1.74
218.813	-12.03
219.198	20.13
219.583	7.56
219.968	-2.03
220.353	0.11
220.738	12.7
221.122	11.82
221.507	13.65
221.892	6.75
222.276	23.61
222.661	2.08
223.046	10.5
223.43	8.95
223.815	8.8
224.199	8.63
224.583	5.39
224.968	17.61
225.352	2.21
225.736	-0.58
226.121	6.5
226.505	9.42
226.889	8.08
227.273	6.67
227.657	10.61
228.041	8.63
228.425	5.62
228.809	7.22
229.193	7.62
229.577	8.64
229.961	6.27
230.344	7.82
230.728	8.37
231.112	7.09
231.495	7.39
231.879	7.25
232.263	6.76
232.646	8.58
233.03	5.4
233.413	7.18
233.797	5.59
234.18	5.97
234.563	5.94
234.946	7.43
235.33	7.22
235.713	7.96
236.096	7.39
236.479	6.47
236.862	7.38
237.245	7.95
237.628	7.47
238.011	6.25
238.394	6.65
238.777	7.89
239.16	7.31
239.543	5.63
239.925	6.42
240.308	6.01
240.691	5.5
241.073	8.36
241.456	6.77
241.838	6.21
242.221	7.39
242.603	7.5
242.986	7.31
243.368	7.13
243.75	6.88
244.133	6.75
244.515	6.94
244.897	7.45
245.279	7.32
245.661	6.83
246.043	6.58
246.425	7.55
246.807	7.71
247.189	7.43
247.571	6.74
247.953	6.91
248.335	6.67
248.717	6.63
249.098	6.6
249.48	6.86
249.862	7.15
250.243	6.44
250.625	7.25
251.006	7.09
251.388	7.17
251.769	7.53
252.151	6.69
252.532	6.3
252.913	6.5
253.295	6.4
253.676	6.54
254.057	6.32
254.438	6.86
254.819	7.47
255.2	5.73
255.581	7.34
255.962	5.77
256.343	6.66
256.724	6.44
257.105	6.69
257.486	6.87
257.867	5.89
258.247	6.52
258.628	5.84
259.009	6.34
259.389	6.2
259.77	7.01
260.15	7.03
260.531	6.72
260.911	6.05
261.292	6.1
261.672	6.12
262.052	6.15
262.432	6.16
262.813	6.84
263.193	6.13
263.573	6.28
263.953	5.89
264.333	6.09
264.713	6.75
265.093	6.18
265.473	6.94
265.853	6.38
266.233	6.98
266.612	5.89
266.992	7.04
267.372	7.04
267.752	6.45
268.131	6
268.511	6.44
268.89	6.22
269.27	5.98
269.649	6.49
270.029	6
270.408	5.57
270.787	5.47
271.167	6.09
271.546	5.93
271.925	5.99
272.304	6.21
272.683	5.96
273.062	6.29
273.441	6.07
273.82	5.54
274.199	5.71
274.578	6.05
274.957	6.51
275.336	5.7
275.715	5.15
276.093	6.26
276.472	5.78
276.851	6.32
277.229	5.74
277.608	5.74
277.986	5.46
278.365	5.4
278.743	6.33
279.122	6.5
279.5	5.32
279.878	6.11
280.257	5.47
280.635	6.21
281.013	6.04
281.391	5.92
281.769	5.58
282.147	6.12
282.525	5.71
282.903	5.7
283.281	5.57
283.659	5.6
284.037	5.83
284.415	5.67
284.792	5.52
285.17	5.85
285.548	5.09
285.925	5.72
286.303	6.2
286.68	5.7
287.058	5.73
287.435	5.86
287.813	5.37
288.19	5.8
288.567	5.29
288.945	5.74
289.322	4.84
289.699	5.48
290.076	5.87
290.453	5.39
290.83	5.9
291.207	5.47
291.584	4.93
291.961	5.46
292.338	5.5
292.715	5.44
293.092	5.73
293.469	5.41
293.845	5.34
294.222	5.03
294.599	5.41
294.975	5.45
295.352	5.87
295.728	6.25
296.105	5.44
296.481	5.42
296.858	6.11
297.234	5.59
297.61	5.13
297.986	5
298.363	5.12
298.739	5.43
299.115	5.09
299.491	5.39
299.867	5.2
300.243	5.14
300.619	5.55
300.995	5.22
301.371	5.53
301.746	5.03
302.122	4.8
302.498	5.84
302.874	5.22
303.249	4.82
303.625	5.46
304	5.53
304.376	5.21
304.751	5.14
305.127	5.12
305.502	5.21
305.878	4.87
306.253	5.12
306.628	5.01
307.003	4.7
307.378	5.45
307.754	5.01
308.129	5.1
308.504	5.28
308.879	5.13
309.254	5.33
309.629	5.5
310.003	5.55
310.378	5.19
310.753	5.07
311.128	5.09
311.502	5.25
311.877	5.1
312.252	5.34
312.626	5.38
313.001	4.95
313.375	5.18
313.75	5.11
314.124	4.72
314.498	4.7
314.873	5.27
315.247	5.03
315.621	5.25
315.995	5.31
316.369	4.87
316.743	5.75
317.117	5
317.491	5.49
317.865	5.82
318.239	5.43
318.613	5.42
318.987	5.39
319.361	5.11
319.734	5.56
320.108	5.39
320.482	4.9
320.855	4.97
321.229	4.84
321.602	5.45
321.976	5.29
322.349	4.51
322.723	5.22
323.096	4.66
323.469	5.1
323.843	5.17
324.216	5.13
324.589	5.12
324.962	5.33
325.335	4.83
325.708	5.22
326.081	5.19
326.454	5.22
326.827	4.87
327.2	4.87
327.573	5.44
327.945	5.17
328.318	4.76
328.691	5.09
329.063	4.93
329.436	4.66
329.809	5.08
330.181	5.21
330.553	4.82
330.926	4.8
331.298	4.13
331.671	5.02
332.043	5.44
332.415	4.95
332.787	5.21
333.159	5.27
333.532	5.1
333.904	5.1
334.276	5.33
334.648	5.01
335.02	5.19
335.391	5.13
335.763	5.03
336.135	5.09
336.507	5.24
336.879	4.87
337.25	4.57
337.622	4.83
337.993	5.16
338.365	4.99
338.736	5.62
339.108	5.23
339.479	4.87
339.851	5.32
340.222	4.82
340.593	4.59
340.964	5.07
341.336	5.36
341.707	4.81
342.078	4.93
342.449	5.07
342.82	5.04
343.191	5.18
343.562	5.11
343.933	5.08
344.303	5.57
344.674	4.68
345.045	5.35
345.416	4.83
345.786	5.72
346.157	5.13
346.527	4.77
346.898	4.79
347.268	4.81
347.639	4.91
348.009	4.82
348.38	5.03
348.75	4.89
349.12	4.67
349.49	5.11
349.861	5.47
350.231	4.72
350.601	5.49
350.971	4.99
351.341	4.94
351.711	4.85
352.081	5.66
352.45	5
352.82	4.67
353.19	4.58
353.56	5.04
353.929	4.86
354.299	4.6
354.669	5.29
355.038	4.8
355.408	5.05
355.777	5.21
356.147	5.34
356.516	5.43
356.885	5.46
357.254	5.17
357.624	4.94
357.993	4.97
358.362	4.89
358.731	5.31
359.1	5.19
359.469	5.28
359.838	5.21
360.207	5.48
360.576	5.07
360.945	4.78
361.314	5.32
361.682	5.01
362.051	5.22
362.42	5
362.788	5.14
363.157	5.16
363.525	5.41
363.894	5.05
364.262	5.04
364.631	5.35
364.999	4.86
365.367	4.95
365.735	5.23
366.104	5.16
366.472	4.88
366.84	5.08
367.208	5.08
367.576	5.22
367.944	5.54
368.312	5.57
368.68	5.16
369.048	4.72
369.416	5.31
369.783	5.02
370.151	5.34
370.519	5.4
370.886	5.2
371.254	5.15
371.621	4.96
371.989	4.82
372.356	5.14
372.724	5.42
373.091	5.3
373.458	5.02
373.826	5.1
374.193	5.29
374.56	5.47
374.927	5.04
375.294	5.12
375.661	5.33
376.028	5.19
376.395	5.24
376.762	4.94
377.129	5.42
377.496	5.2
377.863	5.41
378.229	5.02
378.596	5.31
378.963	5.37
379.329	4.99
379.696	5.2
380.062	5.4
380.429	5.14
380.795	5.13
381.161	5.27
381.528	5.27
381.894	5.16
382.26	5.17
382.626	5.47
382.993	5.31
383.359	5.34
383.725	5.37
384.091	4.96
384.457	5
384.823	5.41
385.188	5.34
385.554	5.28
385.92	5.22
386.286	5.41
386.651	5.37
387.017	5.18
387.383	5.38
387.748	5.4
388.114	5.42
388.479	5.54
388.845	5.41
389.21	5.39
389.575	4.97
389.94	5.61
390.306	5.31
390.671	5.12
391.036	5.44
391.401	5.49
391.766	5.27
392.131	5.2
392.496	5.02
392.861	5.46
393.226	5.38
393.591	5.25
393.956	5.2
394.32	5.27
394.685	5.43
395.05	5.27
395.414	5.5
395.779	5.37
396.143	5.25
396.508	5.2
396.872	5.17
397.236	5.41
397.601	5.44
397.965	5.24
398.329	5.13
398.694	5.41
399.058	5.36
399.422	5.34
399.786	5.37
400.15	5.32
400.514	5.32
400.878	5.41
401.242	5.71
401.605	5.59
401.969	5.36
402.333	5.38
402.697	5.35
403.06	5.26
403.424	5.24
403.787	5.12
404.151	5.35
404.514	5.23
404.878	5.39
405.241	5.17
405.604	5.64
405.968	5.13
406.331	5.54
406.694	5.36
407.057	5.24
407.42	5.44
407.783	5.33
408.146	5.45
408.509	5.55
408.872	5.48
409.235	5.26
409.598	5.39
409.961	5.47
410.323	5.37
410.686	5.42
411.049	5.34
411.411	5.6
411.774	5.58
412.136	5.42
412.499	5.66
412.861	5.43
413.223	5.51
413.586	5.42
413.948	5.52
414.31	5.58
414.672	5.52
415.035	5.79
415.397	5.45
415.759	5.7
416.121	5.41
416.483	5.41
416.845	5.64
417.206	5.55
417.568	5.48
417.93	5.35
418.292	5.42
418.653	5.6
419.015	5.21
419.377	5.29
419.738	5.48
420.1	5.32
420.461	5.62
420.822	5.49
421.184	5.42
421.545	5.37
421.906	5.31
422.267	5.28
422.629	5.35
422.99	5.34
423.351	5.41
423.712	5.36
424.073	5.3
424.434	5.43
424.795	5.46
425.155	5.43
425.516	5.35
425.877	5.34
426.238	5.43
426.598	5.23
426.959	5.43
427.32	5.44
427.68	5.4
428.041	5.47
428.401	5.57
428.761	5.61
429.122	5.57
429.482	5.71
429.842	5.63
430.202	5.64
430.563	5.62
430.923	5.63
431.283	5.63
431.643	5.62
432.003	5.76
432.363	5.64
432.722	5.64
433.082	5.65
433.442	5.6
433.802	5.38
434.161	5.68
434.521	5.6
434.881	5.54
435.24	5.43
435.6	5.58
435.959	5.46
436.319	5.54
436.678	5.55
437.037	5.61
437.396	5.52
437.756	5.44
438.115	5.71
438.474	5.62
438.833	5.46
439.192	5.42
439.551	5.45
439.91	5.7
440.269	5.58
440.628	5.48
440.987	5.56
441.345	5.53
441.704	5.6
442.063	5.47
442.421	5.48
442.78	5.52
443.138	5.63
443.497	5.49
443.855	5.69
444.214	5.5
444.572	5.62
444.93	5.59
445.288	5.66
445.647	5.53
446.005	5.45
446.363	5.5
446.721	5.52
447.079	5.49
447.437	5.55
447.795	5.39
448.153	5.47
448.51	5.4
448.868	5.39
449.226	5.5
449.584	5.5
449.941	5.51
450.299	5.56
450.656	5.51
451.014	5.58
451.371	5.59
451.729	5.51
452.086	5.64
452.443	5.68
452.801	5.73
453.158	5.66
453.515	5.63
453.872	5.47
454.229	5.63
454.586	5.69
454.943	5.63
455.3	5.54
455.657	5.59
456.014	5.72
456.371	5.59
456.727	5.79
457.084	5.7
457.441	5.49
457.797	5.61
458.154	5.42
458.51	5.54
458.867	5.61
459.223	5.66
459.58	5.64
459.936	5.5
460.292	5.61
460.648	5.54
461.005	5.6
461.361	5.32
461.717	5.47
462.073	5.39
462.429	5.68
462.785	5.46
463.141	5.62
463.496	5.45
463.852	5.71
464.208	5.48
464.564	5.58
464.919	5.82
465.275	5.46
465.631	5.59
465.986	5.48
466.342	5.58
466.697	5.48
467.052	5.68
467.408	5.6
467.763	5.68
468.118	5.51
468.473	5.53
468.829	5.46
469.184	5.41
469.539	5.51
469.894	5.44
470.249	5.44
470.603	5.62
470.958	5.7
471.313	5.71
471.668	5.47
472.023	5.46
472.377	5.65
472.732	5.57
473.086	5.43
473.441	5.45
473.795	5.63
474.15	5.39
474.504	5.42
474.859	5.6
475.213	5.49
475.567	5.64
475.921	5.52
476.275	5.81
476.63	5.56
476.984	5.63
477.338	5.65
477.692	5.73
478.045	5.52
478.399	5.61
478.753	5.52
479.107	5.5
479.461	5.48
479.814	5.51
480.168	5.59
480.521	5.45
480.875	5.48
481.228	5.52
481.582	5.5
481.935	5.39
482.289	5.52
482.642	5.48
482.995	5.43
483.348	5.49
483.701	5.48
484.055	5.45
484.408	5.43
484.761	5.4
485.114	5.28
485.466	5.24
485.819	5.2
486.172	5.23
486.525	5.31
486.878	5.36
487.23	5.35
487.583	5.43
487.936	5.4
488.288	5.43
488.641	5.41
488.993	5.28
489.345	5.29
489.698	5.32
490.05	5.33
490.402	5.35
490.754	5.37
491.107	5.39
491.459	5.45
491.811	5.53
492.163	5.43
492.515	5.45
492.866	5.39
493.218	5.26
493.57	5.26
493.922	5.39
494.274	5.42
494.625	5.42
494.977	5.39
495.328	5.51
495.68	5.49
496.031	5.57
496.383	5.42
496.734	5.57
497.086	5.46
497.437	5.46
497.788	5.56
498.139	5.49
498.49	5.33
498.842	5.47
499.193	5.5
499.544	5.53
499.894	5.48
500.245	5.42
500.596	5.49
500.947	5.55
501.298	5.56
501.648	5.53
501.999	5.52
502.35	5.59
502.7	5.61
503.051	5.65
503.401	5.51
503.752	5.41
504.102	5.66
504.452	5.47
504.803	5.5
505.153	5.52
505.503	5.59
505.853	5.47
506.203	5.43
506.553	5.49
506.903	5.49
507.253	5.5
507.603	5.52
507.953	5.52
508.303	5.69
508.652	5.51
509.002	5.52
509.352	5.5
509.701	5.49
510.051	5.4
510.4	5.48
510.75	5.36
511.099	5.36
511.449	5.48
511.798	5.65
512.147	5.55
512.496	5.43
512.846	5.44
513.195	5.52
513.544	5.48
513.893	5.64
514.242	5.5
514.591	5.47
514.939	5.54
515.288	5.64
515.637	5.58
515.986	5.58
516.334	5.58
516.683	5.43
517.032	5.47
517.38	5.38
517.729	5.54
518.077	5.69
518.426	5.43
518.774	5.64
519.122	5.59
519.47	5.56
519.819	5.47
520.167	5.51
520.515	5.52
520.863	5.51
521.211	5.53
521.559	5.58
521.907	5.43
522.255	5.35
522.602	5.43
522.95	5.37
523.298	5.49
523.645	5.45
523.993	5.56
524.341	5.56
524.688	5.56
525.036	5.55
525.383	5.6
525.73	5.54
526.078	5.54
526.425	5.52
526.772	5.53
527.119	5.52
527.466	5.4
527.814	5.46
528.161	5.55
528.508	5.45
528.854	5.58
529.201	5.43
529.548	5.45
529.895	5.37
530.242	5.32
530.588	5.31
530.935	5.29
531.282	5.32
531.628	5.3
531.975	5.35
532.321	5.47
532.667	5.44
533.014	5.5
533.36	5.42
533.706	5.52
534.052	5.43
534.399	5.52
534.745	5.45
535.091	5.45
535.437	5.44
535.783	5.45
536.129	5.47
536.474	5.43
536.82	5.47
537.166	5.59
537.512	5.44
537.857	5.53
538.203	5.53
538.549	5.45
538.894	5.46
539.239	5.55
539.585	5.37
539.93	5.43
540.276	5.47
540.621	5.54
540.966	5.62
541.311	5.69
541.656	5.55
542.001	5.43
542.346	5.52
542.691	5.33
543.036	5.35
543.381	5.31
543.726	5.36
544.071	5.4
544.415	5.36
544.76	5.44
545.105	5.5
545.449	5.44
545.794	5.53
546.138	5.48
546.483	5.59
546.827	5.44
547.171	5.46
547.516	5.47
547.86	5.45
548.204	5.45
548.548	5.5
548.892	5.53
549.236	5.64
549.58	5.55
549.924	5.44
550.268	5.45
550.612	5.63
550.956	5.48
551.3	5.6
551.643	5.35
551.987	5.46
552.33	5.75
552.674	5.64
553.017	5.66
553.361	5.75
553.704	5.53
554.048	5.58
554.391	5.59
554.734	5.55
555.077	5.59
555.42	5.57
555.764	5.62
556.107	5.53
556.45	5.63
556.793	5.55
557.135	5.59
557.478	5.72
557.821	5.7
558.164	5.62
558.507	5.72
558.849	5.54
559.192	5.81
559.534	5.62
559.877	5.47
560.219	5.68
560.562	5.74
560.904	5.81
561.246	5.46
561.589	5.61
561.931	5.61
562.273	5.59
562.615	5.54
562.957	5.63
563.299	5.73
563.641	5.5
563.983	5.58
564.325	5.51
564.667	5.66
565.008	5.59
565.35	5.46
565.692	5.57
566.033	5.53
566.375	5.57
566.716	5.52
567.058	5.45
567.399	5.74
567.741	5.74
568.082	5.6
568.423	5.47
568.764	5.42
569.105	5.46
569.447	5.66
569.788	5.5
570.129	5.58
570.47	5.59
570.811	5.55
571.151	5.7
571.492	5.66
571.833	5.68
572.174	5.71
572.514	5.57
572.855	5.56
573.195	5.58
573.536	5.51
573.876	5.5
574.217	5.46
574.557	5.5
574.898	5.7
575.238	5.67
575.578	5.59
575.918	5.66
576.258	5.65
576.598	5.59
576.938	5.59
577.278	5.55
577.618	5.6
577.958	5.81
578.298	5.74
578.638	5.45
578.977	5.61
579.317	5.42
579.657	5.67
579.996	5.6
580.336	5.43
580.675	5.49
581.014	5.77
581.354	5.67
581.693	5.66
582.032	5.79
582.372	5.6
582.711	5.5
583.05	5.68
583.389	5.55
583.728	5.6
584.067	5.51
584.406	5.46
584.745	5.63
585.083	5.39
585.422	5.72
585.761	5.73
586.1	5.6
586.438	5.52
586.777	5.69
587.115	5.73
587.454	5.89
587.792	5.39
588.13	5.67
588.469	5.61
588.807	5.65
589.145	5.66
589.483	5.4
589.821	5.45
590.159	5.44
590.497	5.56
590.835	5.9
591.173	5.75
591.511	5.77
591.849	5.64
592.187	5.62
592.524	5.54
592.862	5.46
593.2	5.59
593.537	5.73
593.875	5.47
594.212	5.75
594.55	5.69
594.887	5.72
595.224	5.36
595.561	5.66
595.899	5.69
596.236	5.74
596.573	5.55
596.91	5.76
597.247	5.67
597.584	5.72
597.921	5.56
598.258	5.56
598.594	5.71
598.931	5.62
599.268	5.63
599.604	5.44
599.941	5.74
600.277	5.61
600.614	5.31
600.95	5.79
601.287	5.42
601.623	5.75
601.959	5.49
602.296	5.63
602.632	5.56
602.968	5.63
603.304	5.5
603.64	5.76
603.976	5.81
604.312	5.66
604.648	5.56
604.984	5.62
605.319	5.67
605.655	5.33
605.991	5.32
606.326	5.65
606.662	5.46
606.998	5.63
607.333	5.43
607.668	5.67
608.004	5.65
608.339	5.53
608.674	5.64
609.01	5.45
609.345	5.65
609.68	5.83
610.015	5.62
610.35	5.9
610.685	5.48
611.02	5.74
611.355	5.56
611.689	5.77
612.024	5.63
612.359	5.63
612.694	5.53
613.028	5.76
613.363	5.4
613.697	5.87
614.032	5.73
614.366	5.6
614.7	5.61
615.035	5.86
615.369	5.43
615.703	5.54
616.037	5.75
616.371	5.5
616.705	5.9
617.039	5.89
617.373	5.74
617.707	5.54
618.041	5.62
618.375	5.56
618.709	5.92
619.042	5.48
619.376	5.41
619.71	5.63
620.043	5.8
620.377	5.79
620.71	5.74
621.043	5.59
621.377	5.66
621.71	5.9
622.043	5.64
622.376	5.81
622.709	5.59
623.043	6.22
623.376	5.71
623.709	5.92
624.041	5.25
624.374	5.89
624.707	5.67
625.04	5.53
625.373	6.01
625.705	5.65
626.038	5.56
626.37	5.91
626.703	5.62
627.035	5.68
627.368	5.73
627.7	5.83
628.032	5.9
628.365	5.46
628.697	5.55
629.029	5.59
629.361	5.84
629.693	5.54
630.025	5.62
630.357	5.65
630.689	5.79
631.021	5.57
631.353	5.63
631.684	5.53
632.016	5.84
632.348	5.7
632.679	5.64
633.011	5.56
633.342	5.61
633.674	5.33
634.005	5.72
634.336	5.53
634.668	5.42
634.999	5.57
635.33	5.46
635.661	5.95
635.992	5.43
636.323	5.78
636.654	5.47
636.985	5.54
637.316	5.76
637.647	5.61
637.977	5.43
638.308	5.85
638.639	5.39
638.969	5.28
639.3	5.78
639.63	5.78
639.961	5.91
640.291	5.79
640.622	5.3
640.952	5.95
641.282	5.99
641.612	5.85
641.943	5.48
642.273	6.22
642.603	5.65
642.933	5.59
643.263	5.58
643.592	5.29
643.922	5.48
644.252	5.63
644.582	5.53
644.911	5.41
645.241	5.97
645.571	5.76
645.9	6
646.23	5.57
646.559	5.51
646.888	5.6
647.218	5.62
647.547	6.05
647.876	5.48
648.205	6.3
648.534	5.85
648.863	5.66
649.192	5.6
649.521	6.08
649.85	5.56
650.179	6.04
650.508	5.63
650.837	5.58
651.165	5.21
651.494	5.77
651.822	5.54
652.151	5.65
652.479	5.72
652.808	5.96
653.136	5.76
653.465	5.57
653.793	5.77
654.121	6.13
654.449	5.83
654.777	5.22
655.105	5.49
655.433	5.98
655.761	5.78
656.089	5.38
656.417	5.85
656.745	5.22
657.073	6.1
657.4	5.47
657.728	6.05
658.056	5.32
658.383	5.79
658.711	6.04
659.038	6
659.365	5.46
659.693	5.53
660.02	5.69
660.347	6.23
660.674	5.48
661.001	5.62
661.329	5.93
661.656	5.67
661.982	5.37
662.309	5.71
662.636	5.66
662.963	6.17
663.29	5.4
663.616	5.63
663.943	5.64
664.27	5.58
664.596	5.6
664.923	5.71
665.249	5.93
665.576	5.83
665.902	5.65
666.228	6.31
666.554	5.8
666.881	5.7
667.207	6.56
667.533	5.99
667.859	6.18
668.185	6.4
668.511	5.66
668.837	5.99
669.162	6.15
669.488	5.44
669.814	5.87
670.139	5.76
670.465	6.06
670.791	5.52
671.116	6.26
671.442	5.99
671.767	6.17
672.092	5.97
672.418	5.85
672.743	5.55
673.068	5.9
673.393	5
673.718	6.08
674.043	5.39
674.368	6
674.693	5.2
675.018	6.22
675.343	5.86
675.667	6.2
675.992	5.91
676.317	5.99
676.641	4.81
676.966	6.26
677.29	6.09
677.615	5.7
677.939	5.83
678.264	6.16
678.588	5.8
678.912	5.4
679.236	6.38
679.56	5.52
679.885	6.24
680.209	5.85
680.532	5.67
680.856	5.86
681.18	5.57
681.504	5.04
681.828	6.37
682.152	5.88
682.475	5.78
682.799	5.92
683.122	5.7
683.446	6.15
683.769	5.85
684.093	5.18
684.416	6.33
684.739	6.36
685.062	6.46
685.386	6.23
685.709	6.37
686.032	5.86
686.355	6.26
686.678	5.59
687.001	6.33
687.324	5.37
687.646	6.56
687.969	6.08
688.292	5.79
688.614	6.29
688.937	5.34
689.26	5.15
689.582	5.36
689.904	6.13
690.227	6.48
690.549	5.96
690.871	6.15
691.194	6.1
691.516	5.92
691.838	5.89
692.16	5.99
692.482	6.13
692.804	5.88
693.126	6.67
693.448	6.53
