Data from 0021_forehead_Reflection__0__26.txt Node

Date: Thu Oct 20 20:32:40 CDT 2022
User: ToomeyLab
Spectrometer: FLMS14357
Trigger mode: 0
Integration Time (sec): 1.000000E-2
Scans to average: 100
Electric dark correction enabled: true
Nonlinearity correction enabled: false
Boxcar width: 0
XAxis mode: Wavelengths
Number of Pixels in Spectrum: 2048
>>>>>Begin Spectral Data<<<<<
189.047	149.63
189.435	149.63
189.823	149.63
190.211	51.45
190.599	92.48
190.987	-42.46
191.375	-173.17
191.763	-59.97
192.151	69.87
192.538	41.52
192.926	33
193.314	334.1
193.702	154.42
194.089	25.38
194.477	84.37
194.864	-93.02
195.252	48.36
195.639	262.77
196.027	-56.37
196.414	548.7
196.801	-202.83
197.189	193.04
197.576	-314.56
197.963	-209.74
198.351	31.79
198.738	46.61
199.125	82.34
199.512	49.74
199.899	34.04
200.286	1.08
200.673	25.06
201.06	25.49
201.447	51.52
201.833	26.24
202.22	53.77
202.607	68.59
202.994	52.44
203.38	18.58
203.767	43.05
204.154	50.84
204.54	32.87
204.927	22.95
205.313	18.5
205.699	43.06
206.086	42.75
206.472	36.4
206.858	38.03
207.245	23.7
207.631	7.21
208.017	20.59
208.403	43.82
208.789	36.31
209.175	41.22
209.561	49.28
209.947	51.49
210.333	57.39
210.719	67.91
211.105	8.33
211.491	-23.37
211.876	28.05
212.262	0.5
212.648	33.5
213.034	33.2
213.419	27.85
213.805	8.43
214.19	20.63
214.576	12.29
214.961	31.35
215.346	18.24
215.732	21.84
216.117	46.68
216.502	28.09
216.888	47.75
217.273	35.01
217.658	49.35
218.043	6.1
218.428	33.92
218.813	20.31
219.198	22.33
219.583	18.46
219.968	29.65
220.353	2.29
220.738	20.15
221.122	-0.68
221.507	5.95
221.892	18.52
222.276	25.26
222.661	16.65
223.046	18.53
223.43	10.78
223.815	9.97
224.199	16.3
224.583	3.99
224.968	12.9
225.352	14.38
225.736	16.11
226.121	21.58
226.505	14.11
226.889	5.18
227.273	1.93
227.657	10.48
228.041	6.39
228.425	8.64
228.809	4.57
229.193	6.61
229.577	6.42
229.961	5.09
230.344	5.91
230.728	5.44
231.112	4.66
231.495	5.76
231.879	5.96
232.263	5.1
232.646	6.84
233.03	4.18
233.413	6.13
233.797	5.15
234.18	6
234.563	7.08
234.946	5.3
235.33	5.89
235.713	8.74
236.096	4.91
236.479	4.09
236.862	7.55
237.245	6.31
237.628	4.76
238.011	5.42
238.394	6.19
238.777	3.67
239.16	5.13
239.543	4.32
239.925	6.33
240.308	7.12
240.691	4.8
241.073	5.96
241.456	5.37
241.838	6.33
242.221	5.83
242.603	6.09
242.986	6.17
243.368	4.94
243.75	5.51
244.133	4.95
244.515	5.41
244.897	5.02
245.279	5.26
245.661	4.99
246.043	4.83
246.425	5.86
246.807	6.28
247.189	5.93
247.571	5.36
247.953	5.27
248.335	5.32
248.717	5.11
249.098	5
249.48	5.2
249.862	5.43
250.243	5.45
250.625	5.68
251.006	6.18
251.388	6.18
251.769	5.55
252.151	4.54
252.532	6.29
252.913	5.65
253.295	5.84
253.676	5.16
254.057	5.28
254.438	5.99
254.819	5.65
255.2	5.93
255.581	5.79
255.962	5.15
256.343	7.33
256.724	6.22
257.105	5.93
257.486	5.6
257.867	6.13
258.247	5.97
258.628	5
259.009	5.06
259.389	5.34
259.77	5.85
260.15	5.84
260.531	5.47
260.911	5.15
261.292	5.16
261.672	4.99
262.052	5.07
262.432	5.11
262.813	5.49
263.193	5.44
263.573	5.1
263.953	5.43
264.333	5.72
264.713	5.41
265.093	5.72
265.473	6.51
265.853	5.65
266.233	5.4
266.612	5.33
266.992	5.33
267.372	5.58
267.752	5.75
268.131	4.76
268.511	5.14
268.89	5.29
269.27	5.56
269.649	5.59
270.029	6.06
270.408	4.84
270.787	5.86
271.167	6.02
271.546	5.14
271.925	5.86
272.304	5.29
272.683	5.19
273.062	5.24
273.441	5.49
273.82	4.87
274.199	5.26
274.578	5.42
274.957	5.94
275.336	5.64
275.715	5.38
276.093	5.26
276.472	5.42
276.851	6.11
277.229	4.9
277.608	5.31
277.986	4.83
278.365	4.94
278.743	5.04
279.122	5.41
279.5	5.1
279.878	5.53
280.257	5.4
280.635	5.24
281.013	6.31
281.391	5.2
281.769	5.11
282.147	5.89
282.525	4.83
282.903	5.31
283.281	5.41
283.659	5.31
284.037	5.35
284.415	5.42
284.792	5.54
285.17	5.28
285.548	5.36
285.925	5.25
286.303	5.4
286.68	5.74
287.058	5.51
287.435	5.38
287.813	5.24
288.19	5.7
288.567	5.07
288.945	5.67
289.322	4.75
289.699	5.58
290.076	6.16
290.453	5.9
290.83	5.83
291.207	6.06
291.584	5.55
291.961	5.83
292.338	5.52
292.715	5.43
293.092	6.01
293.469	6.38
293.845	6.59
294.222	5.68
294.599	6.12
294.975	6.31
295.352	6.81
295.728	6.79
296.105	6.25
296.481	6.6
296.858	6.74
297.234	6.48
297.61	6.11
297.986	6.65
298.363	6.67
298.739	7.09
299.115	6.97
299.491	7.13
299.867	6.73
300.243	7.07
300.619	7.11
300.995	6.83
301.371	7.65
301.746	7.22
302.122	7.18
302.498	8.22
302.874	7.16
303.249	7.98
303.625	7.4
304	7.8
304.376	7.82
304.751	7.69
305.127	7.26
305.502	7.95
305.878	7.96
306.253	8.25
306.628	8.08
307.003	8.23
307.378	8.85
307.754	8.92
308.129	8.29
308.504	8.74
308.879	9.08
309.254	8.96
309.629	8.96
310.003	8.95
310.378	9.14
310.753	8.99
311.128	8.7
311.502	9.12
311.877	9.38
312.252	9.49
312.626	9.36
313.001	9.47
313.375	9.75
313.75	9.52
314.124	9.46
314.498	9.89
314.873	10.21
315.247	10.01
315.621	9.97
315.995	10.05
316.369	10.47
316.743	10.24
317.117	10.3
317.491	10.56
317.865	10.86
318.239	10.51
318.613	11.05
318.987	11.14
319.361	10.97
319.734	11.56
320.108	11.3
320.482	11.27
320.855	11.41
321.229	11.44
321.602	11.46
321.976	11.43
322.349	12.08
322.723	11.59
323.096	10.84
323.469	12.05
323.843	12.24
324.216	11.94
324.589	12.31
324.962	12.34
325.335	11.96
325.708	12.22
326.081	12.44
326.454	12.37
326.827	12.63
327.2	12.83
327.573	12.97
327.945	12.91
328.318	12.46
328.691	13.25
329.063	12.76
329.436	12.27
329.809	13.08
330.181	13.4
330.553	12.95
330.926	13.16
331.298	12.78
331.671	13.99
332.043	13.91
332.415	13.5
332.787	13.87
333.159	13.54
333.532	13.95
333.904	13.5
334.276	13.69
334.648	14.08
335.02	13.72
335.391	13.9
335.763	14.27
336.135	13.92
336.507	14.55
336.879	13.82
337.25	13.64
337.622	14.57
337.993	14.58
338.365	14.09
338.736	15.06
339.108	14.37
339.479	14.68
339.851	15.03
340.222	14.98
340.593	14.63
340.964	15.27
341.336	15.22
341.707	14.97
342.078	14.99
342.449	15.35
342.82	15.35
343.191	14.99
343.562	14.92
343.933	15.04
344.303	15.28
344.674	14.93
345.045	15.52
345.416	15.75
345.786	16.12
346.157	15.71
346.527	15.41
346.898	15.76
347.268	15.72
347.639	16.08
348.009	15.84
348.38	15.96
348.75	16.06
349.12	16.15
349.49	16.1
349.861	16.45
350.231	15.89
350.601	16.36
350.971	16.48
351.341	16.36
351.711	16.55
352.081	16.69
352.45	16.33
352.82	16.82
353.19	16.95
353.56	16.67
353.929	17.02
354.299	16.59
354.669	17.2
355.038	17.08
355.408	16.91
355.777	17.25
356.147	17.22
356.516	17.48
356.885	17.66
357.254	17.7
357.624	17.1
357.993	17.31
358.362	17.82
358.731	17.9
359.1	17.86
359.469	18.18
359.838	17.97
360.207	18.04
360.576	17.51
360.945	17.9
361.314	18.36
361.682	18.06
362.051	18.2
362.42	18.11
362.788	17.96
363.157	18.29
363.525	18.28
363.894	18.16
364.262	18.06
364.631	18.39
364.999	18.3
365.367	18.35
365.735	18.32
366.104	18.79
366.472	18.82
366.84	18.87
367.208	18.76
367.576	19.03
367.944	19.25
368.312	19.42
368.68	19.37
369.048	18.84
369.416	19.58
369.783	19.34
370.151	19.29
370.519	19.42
370.886	19.47
371.254	19.87
371.621	19.42
371.989	19.51
372.356	19.88
372.724	20.16
373.091	19.74
373.458	19.52
373.826	19.84
374.193	20.17
374.56	20.02
374.927	20.23
375.294	20.12
375.661	20.43
376.028	20.3
376.395	20.16
376.762	20.12
377.129	20.51
377.496	20.39
377.863	20.98
378.229	20.66
378.596	20.72
378.963	20.75
379.329	20.51
379.696	20.74
380.062	20.75
380.429	20.86
380.795	21.06
381.161	20.96
381.528	21.11
381.894	20.96
382.26	20.86
382.626	21.28
382.993	21.53
383.359	21.45
383.725	21.41
384.091	21.39
384.457	21.62
384.823	21.52
385.188	21.57
385.554	21.81
385.92	21.73
386.286	21.95
386.651	21.91
387.017	22.06
387.383	21.93
387.748	21.7
388.114	22.24
388.479	22.25
388.845	22.37
389.21	21.98
389.575	22.29
389.94	22.08
390.306	22.03
390.671	22.26
391.036	22.37
391.401	22.72
391.766	22.79
392.131	22.26
392.496	22.65
392.861	22.88
393.226	22.73
393.591	22.93
393.956	22.84
394.32	22.77
394.685	23.19
395.05	22.96
395.414	23.16
395.779	23.2
396.143	23.21
396.508	23.06
396.872	22.95
397.236	23.59
397.601	23.53
397.965	23.29
398.329	23.35
398.694	23.64
399.058	23.79
399.422	23.51
399.786	23.65
400.15	23.56
400.514	23.58
400.878	23.88
401.242	24.15
401.605	23.98
401.969	23.91
402.333	24.27
402.697	24.1
403.06	24.11
403.424	24.23
403.787	24.18
404.151	24.19
404.514	24.18
404.878	24.15
405.241	24.26
405.604	24.49
405.968	24.37
406.331	24.46
406.694	24.69
407.057	24.45
407.42	24.61
407.783	24.56
408.146	24.55
408.509	24.91
408.872	25.01
409.235	24.83
409.598	25.27
409.961	25.19
410.323	25.09
410.686	25.14
411.049	25.43
411.411	25.58
411.774	25.51
412.136	25.09
412.499	25.53
412.861	25.26
413.223	25.54
413.586	26.02
413.948	25.51
414.31	25.59
414.672	25.87
415.035	25.94
415.397	26.01
415.759	25.85
416.121	25.92
416.483	26.29
416.845	26.34
417.206	26.06
417.568	26.03
417.93	25.99
418.292	26.06
418.653	26.19
419.015	25.92
419.377	26.09
419.738	26.08
420.1	25.98
420.461	26.06
420.822	26.18
421.184	26.21
421.545	26.11
421.906	26.16
422.267	26.15
422.629	26.06
422.99	25.95
423.351	26.3
423.712	26.27
424.073	26.36
424.434	26.47
424.795	26.63
425.155	26.6
425.516	26.39
425.877	26.44
426.238	26.57
426.598	26.59
426.959	26.74
427.32	26.87
427.68	27.04
428.041	27.28
428.401	27.44
428.761	27.33
429.122	27.45
429.482	27.55
429.842	27.65
430.202	27.97
430.563	27.64
430.923	27.68
431.283	28.1
431.643	27.7
432.003	27.88
432.363	27.91
432.722	27.81
433.082	28.2
433.442	27.94
433.802	28.17
434.161	28.24
434.521	27.99
434.881	27.91
435.24	27.88
435.6	28.09
435.959	28
436.319	28.22
436.678	28.44
437.037	28.57
437.396	28.48
437.756	28.64
438.115	28.65
438.474	28.55
438.833	28.75
439.192	28.79
439.551	28.87
439.91	28.93
440.269	28.79
440.628	28.8
440.987	28.78
441.345	28.8
441.704	28.62
442.063	28.82
442.421	28.83
442.78	28.81
443.138	29.07
443.497	29.03
443.855	29.23
444.214	29.37
444.572	29.4
444.93	29.47
445.288	29.59
445.647	29.32
446.005	29.39
446.363	29.3
446.721	29.45
447.079	29.22
447.437	29.21
447.795	29.25
448.153	29.24
448.51	29.14
448.868	29.29
449.226	29.35
449.584	29.76
449.941	29.9
450.299	30.02
450.656	29.9
451.014	30.11
451.371	30.04
451.729	30.27
452.086	30.31
452.443	30.49
452.801	30.42
453.158	30.71
453.515	30.52
453.872	30.49
454.229	30.51
454.586	30.62
454.943	30.63
455.3	30.73
455.657	30.69
456.014	30.79
456.371	30.6
456.727	30.8
457.084	30.75
457.441	31.04
457.797	31.18
458.154	31
458.51	31.05
458.867	31.06
459.223	31.05
459.58	31.2
459.936	31.19
460.292	31.23
460.648	31.33
461.005	31
461.361	30.64
461.717	30.86
462.073	30.87
462.429	31.01
462.785	31.16
463.141	31.41
463.496	31.48
463.852	31.69
464.208	32.01
464.564	31.83
464.919	31.98
465.275	31.82
465.631	32.05
465.986	32.01
466.342	32.23
466.697	32.23
467.052	32.2
467.408	32.11
467.763	32.22
468.118	32.18
468.473	32.11
468.829	31.81
469.184	32.06
469.539	31.93
469.894	32.11
470.249	32.3
470.603	32.32
470.958	32.36
471.313	32.47
471.668	32.41
472.023	32.6
472.377	32.9
472.732	32.67
473.086	32.63
473.441	32.83
473.795	32.94
474.15	32.95
474.504	32.85
474.859	32.7
475.213	32.87
475.567	32.97
475.921	33.09
476.275	33.13
476.63	33.37
476.984	33.5
477.338	33.42
477.692	33.65
478.045	33.46
478.399	33.51
478.753	33.44
479.107	33.48
479.461	33.4
479.814	33.44
480.168	33.58
480.521	33.57
480.875	33.73
481.228	33.78
481.582	34
481.935	33.67
482.289	33.87
482.642	33.8
482.995	33.82
483.348	33.68
483.701	33.78
484.055	33.79
484.408	33.91
484.761	33.62
485.114	33.57
485.466	33.41
485.819	32.97
486.172	32.71
486.525	32.79
486.878	33.05
487.23	33.42
487.583	33.9
487.936	34.12
488.288	33.95
488.641	33.99
488.993	33.8
489.345	33.6
489.698	33.58
490.05	33.58
490.402	33.69
490.754	33.86
491.107	34.15
491.459	34.48
491.811	34.86
492.163	34.9
492.515	34.94
492.866	34.64
493.218	34.24
493.57	34.15
493.922	33.96
494.274	34.25
494.625	34.42
494.977	34.77
495.328	35.07
495.68	35.12
496.031	35.38
496.383	35.55
496.734	35.57
497.086	35.6
497.437	35.83
497.788	35.79
498.139	35.6
498.49	35.43
498.842	35.48
499.193	35.57
499.544	35.5
499.894	35.52
500.245	35.6
500.596	35.89
500.947	35.87
501.298	35.98
501.648	36.02
501.999	36.22
502.35	36.31
502.7	36.43
503.051	36.17
503.401	36.4
503.752	36.3
504.102	36.52
504.452	36.53
504.803	36.62
505.153	36.6
505.503	36.53
505.853	36.31
506.203	36.62
506.553	36.24
506.903	36.7
507.253	36.51
507.603	36.82
507.953	36.64
508.303	37.11
508.652	36.98
509.002	36.81
509.352	36.85
509.701	36.91
510.051	36.78
510.4	36.84
510.75	36.8
511.099	36.86
511.449	37.09
511.798	36.93
512.147	37.19
512.496	37.25
512.846	37.48
513.195	37.23
513.544	37.25
513.893	37.46
514.242	37.44
514.591	37.51
514.939	37.56
515.288	37.67
515.637	37.78
515.986	37.94
516.334	37.89
516.683	37.98
517.032	37.94
517.38	37.86
517.729	38.25
518.077	38.21
518.426	38.28
518.774	38.32
519.122	38.34
519.47	38.22
519.819	38.07
520.167	37.95
520.515	37.84
520.863	37.75
521.211	37.88
521.559	38.14
521.907	38.11
522.255	38.29
522.602	38.49
522.95	38.65
523.298	38.71
523.645	38.77
523.993	38.86
524.341	38.93
524.688	39.05
525.036	39.17
525.383	39.21
525.73	39.17
526.078	39.31
526.425	39.09
526.772	38.95
527.119	38.97
527.466	38.94
527.814	38.81
528.161	39.02
528.508	39.06
528.854	39.39
529.201	39.36
529.548	39.22
529.895	39.18
530.242	38.87
530.588	38.54
530.935	38.2
531.282	38.27
531.628	38.55
531.975	38.77
532.321	39.13
532.667	39.25
533.014	39.49
533.36	39.59
533.706	39.69
534.052	39.64
534.399	39.76
534.745	39.57
535.091	39.34
535.437	39.31
535.783	39.32
536.129	39.52
536.474	39.81
536.82	39.92
537.166	40.29
537.512	40.23
537.857	40.31
538.203	40.33
538.549	40.14
538.894	39.83
539.239	40
539.585	40.21
539.93	40.4
540.276	40.81
540.621	40.98
540.966	40.93
541.311	41.11
541.656	41.17
542.001	41.18
542.346	40.83
542.691	40.57
543.036	40.23
543.381	40.09
543.726	40.04
544.071	40.18
544.415	40.53
544.76	40.66
545.105	40.91
545.449	40.98
545.794	41.05
546.138	40.94
546.483	41.25
546.827	41.42
547.171	41.37
547.516	41.47
547.86	41.57
548.204	41.32
548.548	41.36
548.892	41.31
549.236	41.58
549.58	41.58
549.924	41.8
550.268	41.8
550.612	42.12
550.956	42.04
551.3	42.2
551.643	42.22
551.987	42.33
552.33	42.31
552.674	42.47
553.017	42.5
553.361	42.61
553.704	42.31
554.048	42.32
554.391	42.42
554.734	42.38
555.077	42.42
555.42	42.47
555.764	42.64
556.107	42.72
556.45	42.71
556.793	42.97
557.135	42.79
557.478	43.02
557.821	42.96
558.164	42.63
558.507	42.99
558.849	43.41
559.192	43.37
559.534	43.4
559.877	43.28
560.219	43.34
560.562	43.46
560.904	43.67
561.246	43.24
561.589	43.57
561.931	43.58
562.273	43.51
562.615	43.79
562.957	43.53
563.299	43.7
563.641	43.75
563.983	43.86
564.325	43.68
564.667	43.64
565.008	43.86
565.35	43.88
565.692	44.11
566.033	44.1
566.375	44.11
566.716	44.1
567.058	44.19
567.399	44.4
567.741	44.03
568.082	44.32
568.423	43.97
568.764	44.21
569.105	43.93
569.447	44.46
569.788	44.47
570.129	44.42
570.47	44.43
570.811	44.59
571.151	44.78
571.492	44.84
571.833	44.89
572.174	44.64
572.514	44.95
572.855	45.04
573.195	44.72
573.536	44.63
573.876	44.65
574.217	44.77
574.557	44.92
574.898	44.89
575.238	44.97
575.578	44.83
575.918	45.08
576.258	45.04
576.598	45.16
576.938	45.16
577.278	45.17
577.618	45.15
577.958	45.5
578.298	45.47
578.638	45.62
578.977	45.62
579.317	45.56
579.657	45.41
579.996	45.57
580.336	45.85
580.675	45.88
581.014	45.71
581.354	45.83
581.693	46.15
582.032	46.23
582.372	45.88
582.711	46.02
583.05	46.3
583.389	46.14
583.728	46.4
584.067	46.1
584.406	46.27
584.745	46.18
585.083	46.18
585.422	46.39
585.761	46.6
586.1	46.55
586.438	46.33
586.777	46.34
587.115	46.63
587.454	46.73
587.792	46.92
588.13	46.58
588.469	47.01
588.807	46.95
589.145	46.95
589.483	47.01
589.821	46.91
590.159	47.28
590.497	46.99
590.835	47.07
591.173	46.82
591.511	47.14
591.849	47.37
592.187	47.04
592.524	47.27
592.862	47.43
593.2	47.4
593.537	47.28
593.875	47.02
594.212	47.44
594.55	47.91
594.887	47.53
595.224	47.82
595.561	47.76
595.899	47.55
596.236	47.83
596.573	47.8
596.91	48.12
597.247	48.13
597.584	47.66
597.921	48.1
598.258	48.27
598.594	48.04
598.931	48
599.268	47.79
599.604	47.69
599.941	47.66
600.277	47.9
600.614	48.25
600.95	48.56
601.287	48.39
601.623	48.45
601.959	48.06
602.296	48.5
602.632	48.41
602.968	48.5
603.304	48.36
603.64	48.54
603.976	48.62
604.312	48.6
604.648	48.79
604.984	48.63
605.319	48.78
605.655	48.64
605.991	48.57
606.326	48.61
606.662	48.35
606.998	49.03
607.333	48.4
607.668	49
608.004	49.18
608.339	49.07
608.674	49.33
609.01	49.2
609.345	49.67
609.68	49.78
610.015	49.33
610.35	48.97
610.685	49.25
611.02	49.47
611.355	49.27
611.689	49.29
612.024	49.27
612.359	49.13
612.694	49.67
613.028	49.54
613.363	49.84
613.697	50.05
614.032	49.8
614.366	49.75
614.7	50.01
615.035	50.22
615.369	49.81
615.703	49.68
616.037	49.53
616.371	49.74
616.705	50.35
617.039	50.65
617.373	50.14
617.707	50.17
618.041	50.15
618.375	50.49
618.709	50.36
619.042	50.55
619.376	50.18
619.71	50.31
620.043	50.28
620.377	50.21
620.71	50.45
621.043	50.86
621.377	50.62
621.71	50.6
622.043	50.7
622.376	50.92
622.709	50.81
623.043	51.37
623.376	50.71
623.709	50.97
624.041	51.19
624.374	51.11
624.707	51.09
625.04	51.26
625.373	51.41
625.705	51.43
626.038	51.06
626.37	51.06
626.703	50.99
627.035	51.45
627.368	51.04
627.7	51.58
628.032	51.41
628.365	51.29
628.697	51.17
629.029	51.33
629.361	51.49
629.693	51.55
630.025	51.79
630.357	51.37
630.689	51.57
631.021	51.96
631.353	51.68
631.684	51.8
632.016	51.41
632.348	51.96
632.679	51.89
633.011	52.01
633.342	52.29
633.674	51.93
634.005	51.97
634.336	52.24
634.668	52.55
634.999	52.37
635.33	52.03
635.661	52.51
635.992	52.09
636.323	52.53
636.654	51.83
636.985	52.31
637.316	52.42
637.647	52.16
637.977	51.96
638.308	52.68
638.639	52.25
638.969	52.88
639.3	52.94
639.63	52.69
639.961	52.37
640.291	52.52
640.622	52.44
640.952	52.53
641.282	52.9
641.612	52.87
641.943	53.2
642.273	52.96
642.603	52.91
642.933	53
643.263	53.22
643.592	53.13
643.922	53.5
644.252	53
644.582	52.81
644.911	53.07
645.241	53.56
645.571	53.29
645.9	52.71
646.23	52.56
646.559	52.99
646.888	52.98
647.218	53.36
647.547	53.64
647.876	52.84
648.205	53.52
648.534	53.91
648.863	53.52
649.192	53.73
649.521	53.31
649.85	53.67
650.179	53.54
650.508	53.98
650.837	54.02
651.165	53.67
651.494	53.73
651.822	54.08
652.151	53.43
652.479	53.7
652.808	54.65
653.136	54.13
653.465	54.29
653.793	53.59
654.121	53.96
654.449	53.83
654.777	53.78
655.105	54.19
655.433	54.96
655.761	53.97
656.089	54.35
656.417	54.76
656.745	54.5
657.073	54.14
657.4	54.84
657.728	55.25
658.056	54.55
658.383	54.95
658.711	54.49
659.038	54.76
659.365	54.79
659.693	54.51
660.02	54.6
660.347	55.13
660.674	54.71
661.001	54.6
661.329	55.1
661.656	55.07
661.982	54.85
662.309	55.45
662.636	55
662.963	55.24
663.29	55.09
663.616	55.41
663.943	54.74
664.27	55.37
664.596	54.91
664.923	55.25
665.249	55.25
665.576	54.88
665.902	54.93
666.228	55.74
666.554	55.25
666.881	55.17
667.207	55.43
667.533	55.96
667.859	55.58
668.185	55.5
668.511	55.28
668.837	55.39
669.162	55.05
