Data from 0021_forehead_Reflection__4__30.txt Node

Date: Thu Oct 20 20:33:25 CDT 2022
User: ToomeyLab
Spectrometer: FLMS14357
Trigger mode: 0
Integration Time (sec): 1.000000E-2
Scans to average: 100
Electric dark correction enabled: true
Nonlinearity correction enabled: false
Boxcar width: 0
XAxis mode: Wavelengths
Number of Pixels in Spectrum: 2048
>>>>>Begin Spectral Data<<<<<
189.047	251.12
189.435	251.12
189.823	251.12
190.211	173.63
190.599	80.11
190.987	-60.73
191.375	94.89
191.763	-63.64
192.151	345.1
192.538	-21.35
192.926	-8.86
193.314	309.68
193.702	129.04
194.089	-5.8
194.477	121.41
194.864	-804.93
195.252	42.87
195.639	291.25
196.027	112.37
196.414	-742.03
196.801	1282.59
197.189	-120.87
197.576	246.15
197.963	-49.23
198.351	13.11
198.738	32.69
199.125	25.6
199.512	18.62
199.899	34.76
200.286	-10.8
200.673	31.09
201.06	38.68
201.447	41.73
201.833	15.35
202.22	20.53
202.607	49.8
202.994	31.4
203.38	38.78
203.767	31.15
204.154	11.1
204.54	27.63
204.927	41.59
205.313	45.35
205.699	47.49
206.086	73.51
206.472	42.04
206.858	49.77
207.245	35.75
207.631	44.35
208.017	17.95
208.403	22.08
208.789	16.5
209.175	34.08
209.561	42.65
209.947	70.71
210.333	62.41
210.719	51.73
211.105	6.3
211.491	11.77
211.876	42.68
212.262	55.61
212.648	10.73
213.034	56.81
213.419	19.95
213.805	15.86
214.19	-2.67
214.576	34.17
214.961	8.92
215.346	-0.09
215.732	47.68
216.117	18.63
216.502	29.16
216.888	45.4
217.273	46.9
217.658	28.15
218.043	-15.68
218.428	4.07
218.813	4.81
219.198	24.59
219.583	25.41
219.968	3.15
220.353	6.58
220.738	14.33
221.122	12.32
221.507	24.95
221.892	16.17
222.276	16.61
222.661	19.74
223.046	13.48
223.43	7.79
223.815	0.45
224.199	5.42
224.583	11.99
224.968	16.88
225.352	12.09
225.736	5.72
226.121	17.42
226.505	12.15
226.889	1.25
227.273	6.93
227.657	5.92
228.041	7.45
228.425	6.51
228.809	5.23
229.193	4.68
229.577	3.84
229.961	3.1
230.344	2.86
230.728	3.83
231.112	3.13
231.495	2.82
231.879	4.39
232.263	3.26
232.646	3.5
233.03	2.15
233.413	4.05
233.797	5.15
234.18	3.92
234.563	3.61
234.946	3.71
235.33	3.42
235.713	6.11
236.096	4.09
236.479	4.29
236.862	5.71
237.245	5.48
237.628	3.88
238.011	2.8
238.394	5.92
238.777	3.66
239.16	4.2
239.543	4.15
239.925	4.1
240.308	4.77
240.691	4.07
241.073	4.32
241.456	3.64
241.838	2.84
242.221	3.87
242.603	3.86
242.986	3.83
243.368	3.39
243.75	3.24
244.133	3.18
244.515	3.42
244.897	3.5
245.279	4.42
245.661	4.2
246.043	3.26
246.425	3.51
246.807	3.33
247.189	3.61
247.571	3.17
247.953	3.62
248.335	3.43
248.717	3.22
249.098	3.31
249.48	3.27
249.862	3.43
250.243	3.44
250.625	4.03
251.006	3.95
251.388	4.11
251.769	3.74
252.151	4.5
252.532	4.02
252.913	3.53
253.295	3.67
253.676	3.56
254.057	3.87
254.438	4.95
254.819	5.43
255.2	3.92
255.581	4.76
255.962	4.19
256.343	6.49
256.724	3.75
257.105	4.8
257.486	3.61
257.867	3.68
258.247	3.73
258.628	3.71
259.009	3.69
259.389	3.8
259.77	3.94
260.15	3.88
260.531	3.82
260.911	3.07
261.292	3.36
261.672	3.24
262.052	3.33
262.432	3.88
262.813	4.24
263.193	3.12
263.573	3.41
263.953	3.46
264.333	3.85
264.713	3.44
265.093	4.51
265.473	4.45
265.853	3.48
266.233	4.38
266.612	3.48
266.992	4.8
267.372	3.92
267.752	3.77
268.131	3.11
268.511	3.39
268.89	3.72
269.27	3.64
269.649	4.01
270.029	3.87
270.408	3.53
270.787	3.98
271.167	4.48
271.546	3.53
271.925	3.51
272.304	3.84
272.683	3.72
273.062	3.79
273.441	3.55
273.82	3.38
274.199	3.45
274.578	4.14
274.957	3.85
275.336	3.75
275.715	2.93
276.093	3.96
276.472	3.79
276.851	3.43
277.229	2.86
277.608	3
277.986	2.5
278.365	3.43
278.743	3.83
279.122	4.62
279.5	3.26
279.878	2.84
280.257	3.38
280.635	3.8
281.013	4.14
281.391	3.81
281.769	3.41
282.147	3.92
282.525	3.28
282.903	3.83
283.281	3.59
283.659	3.69
284.037	3.56
284.415	3.87
284.792	3.3
285.17	3.57
285.548	3.56
285.925	3.95
286.303	3.54
286.68	3.92
287.058	3.85
287.435	3.78
287.813	3.42
288.19	3.84
288.567	3.25
288.945	4.09
289.322	3.3
289.699	4.4
290.076	4.05
290.453	3.76
290.83	3.83
291.207	4.15
291.584	3.65
291.961	3.81
292.338	3.78
292.715	3.81
293.092	4.72
293.469	4.86
293.845	4.13
294.222	3.81
294.599	4.59
294.975	4.33
295.352	4.76
295.728	4.74
296.105	4.67
296.481	4.57
296.858	4.72
297.234	4.45
297.61	4.23
297.986	4.6
298.363	4.63
298.739	4.84
299.115	4.69
299.491	5.13
299.867	4.49
300.243	4.84
300.619	5.05
300.995	5.2
301.371	4.98
301.746	5.24
302.122	5.04
302.498	5.72
302.874	5.2
303.249	5.69
303.625	5.17
304	5.78
304.376	5.68
304.751	5.11
305.127	4.73
305.502	5.39
305.878	5.43
306.253	5.65
306.628	6.07
307.003	5.8
307.378	6.37
307.754	5.95
308.129	6.65
308.504	5.83
308.879	6.8
309.254	6.26
309.629	6.57
310.003	6.91
310.378	6.57
310.753	6.96
311.128	6.19
311.502	6.62
311.877	6.87
312.252	6.96
312.626	6.73
313.001	7.04
313.375	6.98
313.75	6.68
314.124	6.9
314.498	7.13
314.873	7.5
315.247	7.38
315.621	7.24
315.995	7.46
316.369	7.65
316.743	8.14
317.117	7.9
317.491	7.62
317.865	8.01
318.239	8.03
318.613	8.14
318.987	8.49
319.361	8.14
319.734	8.17
320.108	8.8
320.482	7.65
320.855	8.65
321.229	8.72
321.602	8.74
321.976	8.4
322.349	8.26
322.723	9.11
323.096	8.77
323.469	8.82
323.843	8.93
324.216	9.17
324.589	8.79
324.962	9.15
325.335	8.95
325.708	8.98
326.081	9.36
326.454	9.41
326.827	8.77
327.2	9.61
327.573	9.58
327.945	8.94
328.318	9.38
328.691	9.66
329.063	9.42
329.436	9.16
329.809	9.58
330.181	10.02
330.553	9.49
330.926	9.88
331.298	9.52
331.671	10.09
332.043	10.26
332.415	10.54
332.787	10.05
333.159	10.01
333.532	10.38
333.904	10.18
334.276	10.32
334.648	10.35
335.02	10.14
335.391	10.41
335.763	10.3
336.135	10.39
336.507	10.53
336.879	10.56
337.25	10.32
337.622	10.98
337.993	10.58
338.365	10.82
338.736	10.96
339.108	10.77
339.479	10.85
339.851	11.17
340.222	10.98
340.593	10.8
340.964	11.3
341.336	10.97
341.707	11.2
342.078	11.11
342.449	11
342.82	11.36
343.191	11.44
343.562	11.37
343.933	11.69
344.303	11.43
344.674	11.08
345.045	11.46
345.416	11.42
345.786	11.75
346.157	11.3
346.527	11.41
346.898	11.56
347.268	12.17
347.639	11.99
348.009	11.88
348.38	12.62
348.75	11.95
349.12	11.79
349.49	11.86
349.861	12.5
350.231	11.95
350.601	12.73
350.971	12.44
351.341	12.5
351.711	12.13
352.081	12.54
352.45	12.39
352.82	12.42
353.19	12.73
353.56	12.6
353.929	12.51
354.299	11.94
354.669	13.17
355.038	12.79
355.408	12.65
355.777	12.68
356.147	13.03
356.516	13.23
356.885	13.23
357.254	13.24
357.624	12.78
357.993	13.23
358.362	13.02
358.731	13.37
359.1	13.42
359.469	13.5
359.838	13.23
360.207	13.6
360.576	13.25
360.945	13.53
361.314	13.73
361.682	13.75
362.051	13.67
362.42	13.57
362.788	13.42
363.157	13.38
363.525	13.74
363.894	13.98
364.262	13.99
364.631	14.36
364.999	13.95
365.367	13.99
365.735	14.01
366.104	14.46
366.472	14.29
366.84	14.17
367.208	13.94
367.576	14.56
367.944	14.85
368.312	14.37
368.68	14.93
369.048	14.11
369.416	14.52
369.783	14.49
370.151	14.89
370.519	14.76
370.886	14.76
371.254	14.91
371.621	14.72
371.989	14.8
372.356	15.02
372.724	15.42
373.091	15.12
373.458	14.82
373.826	15.2
374.193	15.1
374.56	15.02
374.927	15.35
375.294	15.31
375.661	15.25
376.028	15.47
376.395	15.32
376.762	15.62
377.129	15.59
377.496	15.46
377.863	15.77
378.229	15.57
378.596	15.48
378.963	15.54
379.329	15.7
379.696	15.98
380.062	15.91
380.429	16.04
380.795	16.13
381.161	15.88
381.528	16.05
381.894	16.05
382.26	16.09
382.626	16.23
382.993	16.39
383.359	16.37
383.725	16.68
384.091	16.39
384.457	16.12
384.823	16.3
385.188	16.32
385.554	16.64
385.92	16.67
386.286	16.8
386.651	16.71
387.017	16.99
387.383	16.71
387.748	16.69
388.114	16.8
388.479	16.88
388.845	16.77
389.21	16.81
389.575	16.86
389.94	17.15
390.306	16.96
390.671	16.86
391.036	17.33
391.401	17.36
391.766	17.46
392.131	17.07
392.496	17.24
392.861	17.39
393.226	17.36
393.591	17.2
393.956	17.38
394.32	17.53
394.685	17.62
395.05	17.44
395.414	17.84
395.779	17.7
396.143	17.76
396.508	17.83
396.872	17.97
397.236	17.9
397.601	18.1
397.965	18.23
398.329	17.82
398.694	18.18
399.058	18.09
399.422	17.95
399.786	18.22
400.15	18.16
400.514	18.08
400.878	18.3
401.242	18.58
401.605	18.23
401.969	18.41
402.333	18.45
402.697	18.57
403.06	18.65
403.424	18.69
403.787	18.53
404.151	18.61
404.514	18.38
404.878	18.54
405.241	18.51
405.604	19
405.968	18.68
406.331	18.82
406.694	19.02
407.057	18.96
407.42	19.19
407.783	18.96
408.146	19.09
408.509	19.16
408.872	19.37
409.235	19.42
409.598	19.37
409.961	19.52
410.323	19.75
410.686	19.41
411.049	19.41
411.411	19.53
411.774	19.59
412.136	19.76
412.499	19.8
412.861	19.78
413.223	19.74
413.586	20.05
413.948	19.89
414.31	20.12
414.672	19.99
415.035	19.9
415.397	19.8
415.759	19.87
416.121	20.01
416.483	20.11
416.845	20.17
417.206	19.93
417.568	20.27
417.93	20.1
418.292	20.25
418.653	20.2
419.015	20.04
419.377	19.98
419.738	20.08
420.1	19.91
420.461	20.06
420.822	20.3
421.184	20.28
421.545	20.04
421.906	20.11
422.267	19.98
422.629	19.92
422.99	20.1
423.351	20.28
423.712	20.21
424.073	20.35
424.434	20.54
424.795	20.59
425.155	20.41
425.516	20.4
425.877	20.3
426.238	20.5
426.598	20.65
426.959	20.84
427.32	21
427.68	20.9
428.041	21.13
428.401	21.53
428.761	21.48
429.122	21.63
429.482	21.61
429.842	21.67
430.202	21.66
430.563	21.55
430.923	21.63
431.283	21.82
431.643	21.61
432.003	21.82
432.363	21.87
432.722	21.87
433.082	21.75
433.442	21.89
433.802	21.61
434.161	21.57
434.521	21.74
434.881	21.65
435.24	21.67
435.6	21.95
435.959	21.91
436.319	22.03
436.678	22.22
437.037	22.44
437.396	22.28
437.756	22.41
438.115	22.22
438.474	22.58
438.833	22.4
439.192	22.23
439.551	22.16
439.91	22.45
440.269	22.32
440.628	22.18
440.987	22.35
441.345	22.18
441.704	22.17
442.063	22.21
442.421	22.32
442.78	22.39
443.138	22.67
443.497	22.67
443.855	22.89
444.214	22.8
444.572	23.04
444.93	23.03
445.288	22.86
445.647	22.95
446.005	22.73
446.363	22.69
446.721	22.8
447.079	22.61
447.437	22.55
447.795	22.51
448.153	22.48
448.51	22.68
448.868	22.8
449.226	23.07
449.584	23.19
449.941	23.38
450.299	23.64
450.656	23.42
451.014	23.46
451.371	23.68
451.729	23.66
452.086	23.65
452.443	23.95
452.801	23.94
453.158	23.72
453.515	23.74
453.872	23.65
454.229	23.9
454.586	23.98
454.943	23.86
455.3	24.01
455.657	24
456.014	24.19
456.371	24.02
456.727	24.25
457.084	24.22
457.441	24.34
457.797	24.62
458.154	24.6
458.51	24.4
458.867	24.36
459.223	24.34
459.58	24.26
459.936	24.32
460.292	24.09
460.648	24.13
461.005	23.86
461.361	23.72
461.717	24.14
462.073	24.3
462.429	24.71
462.785	24.54
463.141	24.77
463.496	24.95
463.852	24.96
464.208	25.08
464.564	25.03
464.919	25.4
465.275	24.96
465.631	25.15
465.986	25.01
466.342	25.05
466.697	25.04
467.052	25.3
467.408	25.28
467.763	25.16
468.118	25.16
468.473	25.23
468.829	25.3
469.184	25.26
469.539	25.51
469.894	25.61
470.249	25.49
470.603	25.46
470.958	25.51
471.313	25.54
471.668	25.56
472.023	25.64
472.377	25.82
472.732	25.74
473.086	25.78
473.441	25.86
473.795	25.95
474.15	25.73
474.504	25.87
474.859	25.82
475.213	25.87
475.567	26.22
475.921	26.28
476.275	26.18
476.63	26.19
476.984	26.31
477.338	26.17
477.692	26.34
478.045	26.25
478.399	26.19
478.753	26.33
479.107	26.28
479.461	26.4
479.814	26.37
480.168	26.53
480.521	26.42
480.875	26.59
481.228	26.65
481.582	26.58
481.935	26.45
482.289	26.55
482.642	26.56
482.995	26.59
483.348	26.37
483.701	26.43
484.055	26.37
484.408	26.07
484.761	25.76
485.114	25.31
485.466	25.43
485.819	25.77
486.172	26.08
486.525	26.45
486.878	26.56
487.23	26.73
487.583	26.67
487.936	26.54
488.288	26.32
488.641	26.21
488.993	26.12
489.345	26.18
489.698	26.42
490.05	26.65
490.402	26.78
490.754	27.15
491.107	27.28
491.459	27.43
491.811	27.63
492.163	27.32
492.515	26.97
492.866	26.63
493.218	26.59
493.57	26.85
493.922	27.18
494.274	27.62
494.625	27.68
494.977	27.87
495.328	27.95
495.68	27.98
496.031	28.21
496.383	28.27
496.734	28.1
497.086	28.13
497.437	28.17
497.788	28.03
498.139	27.77
498.49	27.86
498.842	28.05
499.193	28.16
499.544	28.29
499.894	28.22
500.245	28.39
500.596	28.54
500.947	28.62
501.298	28.55
501.648	28.77
501.999	28.8
502.35	28.87
502.7	28.89
503.051	28.74
503.401	28.94
503.752	29.01
504.102	28.95
504.452	28.96
504.803	29.3
505.153	28.98
505.503	28.98
505.853	28.81
506.203	29.06
506.553	29.06
506.903	29.38
507.253	29.19
507.603	29.25
507.953	29.41
508.303	29.4
508.652	29.3
509.002	29.26
509.352	29.14
509.701	29.17
510.051	29.24
510.4	29.09
510.75	29.2
511.099	29.24
511.449	29.39
511.798	29.54
512.147	29.68
512.496	29.68
512.846	29.8
513.195	29.56
513.544	29.78
513.893	29.77
514.242	29.82
514.591	29.94
514.939	29.94
515.288	30.17
515.637	30.13
515.986	30.27
516.334	30.14
516.683	30.28
517.032	30.32
517.38	30.31
517.729	30.43
518.077	30.27
518.426	30.45
518.774	30.35
519.122	30.34
519.47	30.14
519.819	29.93
520.167	29.87
520.515	30.03
520.863	30.23
521.211	30.47
521.559	30.52
521.907	30.58
522.255	30.86
522.602	30.87
522.95	30.85
523.298	30.95
523.645	31.05
523.993	31.14
524.341	31.19
524.688	31.05
525.036	31.14
525.383	31.12
525.73	31.21
526.078	31.44
526.425	30.88
526.772	30.75
527.119	30.73
527.466	30.84
527.814	31
528.161	31.18
528.508	31.08
528.854	31.18
529.201	30.89
529.548	30.51
529.895	30.17
530.242	30.23
530.588	30.57
530.935	30.71
531.282	31.05
531.628	31.01
531.975	31.45
532.321	31.63
532.667	31.69
533.014	31.55
533.36	31.46
533.706	31.5
534.052	31.43
534.399	31.17
534.745	30.94
535.091	31.22
535.437	31.62
535.783	31.81
536.129	32.03
536.474	32.38
536.82	32.26
537.166	32.42
537.512	32.06
537.857	31.84
538.203	31.91
538.549	31.97
538.894	32.24
539.239	32.47
539.585	32.49
539.93	32.73
540.276	33.04
540.621	33.07
540.966	32.95
541.311	32.97
541.656	32.81
542.001	32.39
542.346	32.04
542.691	31.64
543.036	31.74
543.381	32.12
543.726	32.33
544.071	32.58
544.415	32.6
544.76	32.6
545.105	32.86
545.449	33.2
545.794	33.19
546.138	33.22
546.483	33.32
546.827	33.03
547.171	33.25
547.516	33.19
547.86	33.17
548.204	32.99
548.548	33.01
548.892	33.35
549.236	33.78
549.58	33.78
549.924	33.82
550.268	34.1
550.612	34.09
550.956	34.04
551.3	34.2
551.643	34.32
551.987	34.05
552.33	34.25
552.674	34.42
553.017	34.37
553.361	34.46
553.704	34.08
554.048	33.91
554.391	34.25
554.734	34.17
555.077	34.27
555.42	34.29
555.764	34.43
556.107	34.68
556.45	34.75
556.793	34.65
557.135	34.66
557.478	35
557.821	34.72
558.164	34.65
558.507	34.78
558.849	34.82
559.192	35.11
559.534	35.23
559.877	34.89
560.219	35.11
560.562	35.27
560.904	35.46
561.246	35.09
561.589	35.17
561.931	35.41
562.273	35
562.615	35.25
562.957	35.44
563.299	35.31
563.641	35.3
563.983	35.6
564.325	35.6
564.667	35.84
565.008	35.51
565.35	35.72
565.692	35.55
566.033	35.63
566.375	35.67
566.716	35.74
567.058	35.56
567.399	35.45
567.741	35.55
568.082	35.71
568.423	35.8
568.764	36.02
569.105	35.98
569.447	36.02
569.788	35.98
570.129	36.28
570.47	36.25
570.811	35.92
571.151	36.22
571.492	36.36
571.833	36.45
572.174	36.16
572.514	36.16
572.855	36.19
573.195	36.2
573.536	36.15
573.876	36.2
574.217	36.49
574.557	36.47
574.898	36.46
575.238	36.91
575.578	36.83
575.918	36.62
576.258	36.48
576.598	36.7
576.938	36.62
577.278	36.89
577.618	36.87
577.958	37.23
578.298	37.02
578.638	37.02
578.977	37.22
579.317	37.08
579.657	37.22
579.996	37.36
580.336	37.44
580.675	37.28
581.014	37.69
581.354	37.48
581.693	37.52
582.032	37.39
582.372	37.36
582.711	37.54
583.05	37.54
583.389	37.83
583.728	37.91
584.067	37.88
584.406	37.76
584.745	37.73
585.083	37.77
585.422	38.16
585.761	37.76
586.1	37.95
586.438	37.74
586.777	38.17
587.115	38.14
587.454	38.06
587.792	38.3
588.13	38.04
588.469	38.11
588.807	38.4
589.145	38.37
589.483	38.28
589.821	38.07
590.159	38.25
590.497	38.31
590.835	38.43
591.173	38.07
591.511	38.17
591.849	38.24
592.187	38.51
592.524	38.7
592.862	38.6
593.2	38.56
593.537	38.82
593.875	38.77
594.212	38.84
594.55	38.82
594.887	39.08
595.224	38.94
595.561	39.16
595.899	38.87
596.236	38.95
596.573	38.88
596.91	39.32
597.247	38.94
597.584	38.82
597.921	38.97
598.258	38.71
598.594	38.68
598.931	38.9
599.268	39.11
599.604	39.34
599.941	39.48
600.277	39.65
600.614	39.44
600.95	39.78
601.287	39.47
601.623	39.86
601.959	39.74
602.296	39.67
602.632	39.69
602.968	40.02
603.304	39.7
603.64	39.74
603.976	39.95
604.312	39.67
604.648	39.74
604.984	39.64
605.319	39.87
605.655	39.42
605.991	39.21
606.326	39.48
606.662	39.59
606.998	40.22
607.333	39.62
607.668	40.16
608.004	40.51
608.339	40.15
608.674	40.51
609.01	40.25
609.345	40.47
609.68	40.37
610.015	40.24
610.35	40.21
610.685	39.82
611.02	39.99
611.355	39.91
611.689	40.64
612.024	40.46
612.359	40.32
612.694	40.86
613.028	40.73
613.363	40.78
613.697	40.97
614.032	40.9
614.366	41.1
614.7	40.78
615.035	41.46
615.369	41.08
615.703	40.86
616.037	41.05
616.371	40.98
616.705	41.35
617.039	41.22
617.373	41.21
617.707	41.36
618.041	41.14
618.375	41.24
618.709	41.26
619.042	41.48
619.376	41.17
619.71	41.1
620.043	41.62
620.377	41.16
620.71	41
621.043	41.55
621.377	41.35
621.71	41.92
622.043	41.44
622.376	41.63
622.709	41.73
623.043	42.16
623.376	42.07
623.709	41.64
624.041	41.43
624.374	41.95
624.707	41.68
625.04	42.13
625.373	42.12
625.705	42.04
626.038	42.28
626.37	41.86
626.703	42.01
627.035	41.91
627.368	41.92
627.7	42.01
628.032	42.14
628.365	41.97
628.697	42.23
629.029	42.18
629.361	42.34
629.693	42.2
630.025	42.15
630.357	42.29
630.689	42.41
631.021	42.39
631.353	42.64
631.684	42.6
632.016	42.93
632.348	42.66
632.679	42.89
633.011	42.66
633.342	42.66
633.674	42.92
634.005	42.59
634.336	42.86
634.668	42.87
634.999	42.74
635.33	42.38
635.661	42.57
635.992	42.51
636.323	42.77
636.654	42.76
636.985	43.31
637.316	43.14
637.647	43.02
637.977	42.65
638.308	43.79
638.639	43.48
638.969	43.31
639.3	43.65
639.63	43.5
639.961	43.2
640.291	43.08
640.622	43.33
640.952	43.22
641.282	43.72
641.612	43.55
641.943	44.04
642.273	43.43
642.603	43.75
642.933	43.97
643.263	43.69
643.592	43.98
643.922	43.83
644.252	44.12
644.582	43.41
644.911	43.87
645.241	44.21
645.571	44.37
645.9	43.78
646.23	43.47
646.559	44.15
646.888	43.94
647.218	44.12
647.547	44.23
647.876	43.25
648.205	43.95
648.534	43.87
648.863	44.09
649.192	43.98
649.521	44.29
649.85	44.19
650.179	43.75
650.508	44.63
650.837	44.92
651.165	43.83
651.494	44.43
651.822	44.46
652.151	44.61
652.479	44.08
652.808	44.46
653.136	44.1
653.465	44.45
653.793	43.87
654.121	44.61
654.449	44.78
654.777	44.87
655.105	44.82
655.433	45.57
655.761	44.18
656.089	44.43
656.417	44.58
656.745	44.87
657.073	45.29
657.4	44.78
657.728	45.57
658.056	45.08
658.383	45.37
658.711	45.41
659.038	45.01
659.365	44.95
659.693	44.13
660.02	44.9
660.347	44.52
660.674	44.7
661.001	44.86
661.329	44.94
661.656	45.27
661.982	45.65
662.309	45.81
662.636	45.49
662.963	45.42
663.29	45.55
663.616	45.42
663.943	45.05
664.27	45.48
664.596	45.07
664.923	45.05
665.249	45.82
665.576	45.74
665.902	45.49
666.228	45.77
666.554	45.19
666.881	45.64
667.207	45.79
667.533	46.15
667.859	45.52
668.185	45.55
668.511	45.15
668.837	45.85
669.162	45.47
669.488	45.87
669.814	45.34
