Data from 0021_forehead_Reflection__3__29.txt Node

Date: Thu Oct 20 20:33:15 CDT 2022
User: ToomeyLab
Spectrometer: FLMS14357
Trigger mode: 0
Integration Time (sec): 1.000000E-2
Scans to average: 100
Electric dark correction enabled: true
Nonlinearity correction enabled: false
Boxcar width: 0
XAxis mode: Wavelengths
Number of Pixels in Spectrum: 2048
>>>>>Begin Spectral Data<<<<<
189.047	345.29
189.435	345.29
189.823	345.29
190.211	85.61
190.599	101.29
190.987	-43.31
191.375	-6.46
191.763	147.95
192.151	201.24
192.538	-51.47
192.926	29.58
193.314	1901.38
193.702	163.45
194.089	-2.95
194.477	-124.57
194.864	-278.85
195.252	-11.43
195.639	9.51
196.027	54.57
196.414	189.57
196.801	1102.02
197.189	1336.38
197.576	-84.86
197.963	-30.43
198.351	30.59
198.738	35.3
199.125	41.08
199.512	-1.92
199.899	44.24
200.286	31.92
200.673	36.82
201.06	70.84
201.447	76.57
201.833	35.38
202.22	17.58
202.607	70.59
202.994	16.3
203.38	6.29
203.767	49.18
204.154	15.9
204.54	74.09
204.927	72.72
205.313	37.07
205.699	36.87
206.086	61.32
206.472	36.63
206.858	74.53
207.245	56.64
207.631	57.86
208.017	54.14
208.403	46.78
208.789	45.79
209.175	42.49
209.561	43.28
209.947	25
210.333	45.33
210.719	66
211.105	-23.56
211.491	4.04
211.876	30.44
212.262	22.32
212.648	22.29
213.034	39.5
213.419	34.82
213.805	4.9
214.19	46.76
214.576	30.15
214.961	19.81
215.346	33.98
215.732	32.02
216.117	39.68
216.502	33.44
216.888	68.49
217.273	45.74
217.658	45.45
218.043	7.85
218.428	23.16
218.813	13.54
219.198	32.89
219.583	38.94
219.968	48.99
220.353	16.39
220.738	29.5
221.122	26.73
221.507	18.87
221.892	25.15
222.276	30.64
222.661	10.53
223.046	17.06
223.43	12.37
223.815	6.41
224.199	12.79
224.583	14.1
224.968	13.46
225.352	11.52
225.736	6.65
226.121	9.23
226.505	9.45
226.889	11.01
227.273	10.36
227.657	11.78
228.041	7.55
228.425	9.01
228.809	6.12
229.193	7.34
229.577	5.71
229.961	4.79
230.344	6.14
230.728	5.55
231.112	5.25
231.495	5.63
231.879	6.92
232.263	6.52
232.646	5.29
233.03	3.33
233.413	5.85
233.797	5.47
234.18	5.85
234.563	3.26
234.946	4.79
235.33	5.44
235.713	7.26
236.096	4.43
236.479	4.57
236.862	7.91
237.245	6.27
237.628	4.24
238.011	5.74
238.394	6.4
238.777	4.34
239.16	6.37
239.543	5.05
239.925	4.81
240.308	7.08
240.691	6.01
241.073	5.4
241.456	5.09
241.838	5.14
242.221	5.18
242.603	5.8
242.986	5.17
243.368	4.73
243.75	5.12
244.133	5.03
244.515	5.03
244.897	5.02
245.279	5.33
245.661	5.68
246.043	5.21
246.425	6.39
246.807	6.21
247.189	5.85
247.571	5.1
247.953	4.9
248.335	4.94
248.717	4.83
249.098	4.7
249.48	5.12
249.862	5.58
250.243	5.23
250.625	5.49
251.006	6.14
251.388	5.92
251.769	6
252.151	6.8
252.532	5.22
252.913	5.5
253.295	4.87
253.676	5.28
254.057	5.3
254.438	5.7
254.819	6.7
255.2	5.52
255.581	5.96
255.962	5.4
256.343	7.42
256.724	5.98
257.105	5.9
257.486	5.93
257.867	5.66
258.247	5.54
258.628	5.78
259.009	5.68
259.389	4.91
259.77	5.99
260.15	5.26
260.531	5.45
260.911	4.75
261.292	4.81
261.672	4.88
262.052	5.07
262.432	5.19
262.813	5.72
263.193	5.44
263.573	5.04
263.953	4.92
264.333	6.02
264.713	5.59
265.093	5.94
265.473	5.99
265.853	5.29
266.233	5.58
266.612	5.42
266.992	6.43
267.372	5.96
267.752	5.43
268.131	5.16
268.511	4.73
268.89	5.72
269.27	5
269.649	5.18
270.029	5.9
270.408	5.01
270.787	4.96
271.167	6.05
271.546	5.15
271.925	5.53
272.304	5.52
272.683	4.96
273.062	5.08
273.441	5.11
273.82	4.74
274.199	5.03
274.578	5.87
274.957	5.76
275.336	5.52
275.715	4.91
276.093	5.39
276.472	5.64
276.851	5.41
277.229	4.92
277.608	4.63
277.986	4.92
278.365	4.53
278.743	5.26
279.122	5.67
279.5	4.92
279.878	4.73
280.257	5.21
280.635	5.09
281.013	5.5
281.391	5.52
281.769	5.07
282.147	4.74
282.525	5.25
282.903	5.09
283.281	5.33
283.659	5.13
284.037	5.4
284.415	5.49
284.792	5.17
285.17	5.21
285.548	5.02
285.925	5.86
286.303	5.49
286.68	5.35
287.058	5.08
287.435	5.22
287.813	4.95
288.19	5.31
288.567	5.12
288.945	5.58
289.322	4.9
289.699	6.12
290.076	5.07
290.453	5.75
290.83	5.46
291.207	5.85
291.584	4.97
291.961	5.74
292.338	5.86
292.715	5.77
293.092	6.28
293.469	6.08
293.845	6.04
294.222	6.01
294.599	6.43
294.975	6.63
295.352	6.69
295.728	6.53
296.105	6.49
296.481	6.21
296.858	6.17
297.234	6.32
297.61	6.26
297.986	6.07
298.363	6.19
298.739	6.64
299.115	6.74
299.491	6.87
299.867	6.53
300.243	6.65
300.619	7
300.995	6.88
301.371	6.51
301.746	6.93
302.122	6.69
302.498	7.67
302.874	7.4
303.249	7.66
303.625	7.42
304	7.48
304.376	8.02
304.751	7.75
305.127	6.81
305.502	7.33
305.878	7.78
306.253	7.82
306.628	8.08
307.003	8
307.378	8.44
307.754	8.75
308.129	8.09
308.504	8.57
308.879	8.66
309.254	8.2
309.629	8.9
310.003	9
310.378	9.01
310.753	9.18
311.128	8.71
311.502	9.1
311.877	9.06
312.252	9.08
312.626	9.01
313.001	8.6
313.375	9.25
313.75	9.1
314.124	9.3
314.498	9.74
314.873	10.02
315.247	10.47
315.621	9.99
315.995	9.4
316.369	9.58
316.743	10.09
317.117	10.5
317.491	9.74
317.865	10.55
318.239	10.95
318.613	10.73
318.987	11.02
319.361	10.93
319.734	10.62
320.108	11.49
320.482	10.7
320.855	10.83
321.229	11.8
321.602	11.47
321.976	11.61
322.349	11.37
322.723	11.26
323.096	11.82
323.469	11.18
323.843	12.15
324.216	11.83
324.589	11.99
324.962	12.3
325.335	11.8
325.708	12.07
326.081	12.22
326.454	12.1
326.827	12.48
327.2	12.49
327.573	12.55
327.945	12.54
328.318	12.38
328.691	12.19
329.063	12.68
329.436	12.92
329.809	12.99
330.181	13.28
330.553	12.86
330.926	12.95
331.298	12.77
331.671	13.56
332.043	13.42
332.415	13.78
332.787	13.4
333.159	13.52
333.532	13.39
333.904	13.51
334.276	13.67
334.648	13.76
335.02	14
335.391	14.06
335.763	13.78
336.135	14.04
336.507	13.87
336.879	13.71
337.25	14.3
337.622	13.73
337.993	14.47
338.365	13.99
338.736	14.32
339.108	14.17
339.479	14.66
339.851	14.7
340.222	14.54
340.593	14.54
340.964	14.98
341.336	15.1
341.707	14.73
342.078	14.79
342.449	14.81
342.82	15.14
343.191	14.89
343.562	15.32
343.933	14.9
344.303	15.26
344.674	15.13
345.045	15.33
345.416	15.44
345.786	15.48
346.157	15.65
346.527	15.09
346.898	15.65
347.268	15.28
347.639	16.02
348.009	15.39
348.38	16.39
348.75	15.88
349.12	15.43
349.49	16.55
349.861	16.37
350.231	15.96
350.601	16.4
350.971	16.26
351.341	15.8
351.711	16.66
352.081	16.56
352.45	16.37
352.82	16.5
353.19	16.71
353.56	16.77
353.929	16.71
354.299	16.49
354.669	16.93
355.038	16.65
355.408	17.12
355.777	17.16
356.147	17.14
356.516	17.03
356.885	17.47
357.254	17.54
357.624	17.19
357.993	17.33
358.362	17.49
358.731	17.79
359.1	17.64
359.469	17.78
359.838	17.49
360.207	17.97
360.576	18.01
360.945	17.66
361.314	18.09
361.682	18.09
362.051	18.01
362.42	17.67
362.788	17.96
363.157	17.99
363.525	17.98
363.894	18.19
364.262	18.15
364.631	18.39
364.999	18.42
365.367	18.69
365.735	18.37
366.104	18.68
366.472	18.8
366.84	18.61
367.208	18.93
367.576	18.71
367.944	19.22
368.312	19.04
368.68	19.34
369.048	19.03
369.416	19.4
369.783	18.94
370.151	19.37
370.519	19.31
370.886	19.34
371.254	19.66
371.621	19.52
371.989	19.22
372.356	19.58
372.724	19.69
373.091	19.69
373.458	19.71
373.826	19.93
374.193	20.28
374.56	20.12
374.927	20.45
375.294	19.9
375.661	20.13
376.028	20.28
376.395	20.37
376.762	20.55
377.129	20.65
377.496	20.25
377.863	20.61
378.229	20.32
378.596	20.68
378.963	20.52
379.329	20.46
379.696	20.69
380.062	20.61
380.429	21.1
380.795	21.02
381.161	20.8
381.528	20.99
381.894	21.08
382.26	21.14
382.626	21.26
382.993	21.4
383.359	21.54
383.725	21.69
384.091	21.27
384.457	21.4
384.823	21.36
385.188	21.55
385.554	21.67
385.92	21.63
386.286	21.99
386.651	21.73
387.017	21.8
387.383	21.83
387.748	21.98
388.114	22.16
388.479	22.44
388.845	22.29
389.21	22.25
389.575	22.2
389.94	22.41
390.306	22.28
390.671	22.34
391.036	22.58
391.401	22.4
391.766	22.79
392.131	22.77
392.496	22.57
392.861	22.85
393.226	22.81
393.591	22.5
393.956	22.66
394.32	22.85
394.685	23.15
395.05	22.97
395.414	23.36
395.779	23.14
396.143	23.34
396.508	23.14
396.872	23.22
397.236	23.55
397.601	23.35
397.965	23.73
398.329	23.7
398.694	23.67
399.058	23.61
399.422	23.71
399.786	23.57
400.15	23.6
400.514	23.71
400.878	24.06
401.242	24.03
401.605	24.18
401.969	23.94
402.333	24.27
402.697	24.32
403.06	24.28
403.424	24.38
403.787	24.35
404.151	24.72
404.514	24.2
404.878	24.29
405.241	24.41
405.604	24.72
405.968	24.29
406.331	24.56
406.694	24.77
407.057	24.55
407.42	24.65
407.783	24.61
408.146	25
408.509	25.03
408.872	25.3
409.235	24.95
409.598	25.16
409.961	25.02
410.323	25.21
410.686	25.18
411.049	25.21
411.411	25.41
411.774	25.54
412.136	25.37
412.499	25.44
412.861	25.48
413.223	25.9
413.586	25.69
413.948	25.92
414.31	26.05
414.672	26.15
415.035	25.9
415.397	26.13
415.759	25.95
416.121	26.06
416.483	26.34
416.845	26.44
417.206	25.98
417.568	26.02
417.93	25.91
418.292	26.17
418.653	26.33
419.015	26.14
419.377	26.22
419.738	26.17
420.1	26.09
420.461	26.33
420.822	26.2
421.184	26.23
421.545	26.1
421.906	26.3
422.267	26.14
422.629	26.02
422.99	26.03
423.351	26.31
423.712	26.42
424.073	26.65
424.434	26.69
424.795	26.73
425.155	26.55
425.516	26.49
425.877	26.3
426.238	26.54
426.598	26.63
426.959	26.84
427.32	27.1
427.68	27.1
428.041	27.32
428.401	27.69
428.761	27.69
429.122	27.74
429.482	27.95
429.842	27.84
430.202	28.17
430.563	27.93
430.923	28.09
431.283	28.07
431.643	28.04
432.003	28.13
432.363	28.22
432.722	28.25
433.082	28.28
433.442	28.27
433.802	28.29
434.161	28.05
434.521	28.01
434.881	27.98
435.24	28.21
435.6	28.19
435.959	28.2
436.319	28.61
436.678	28.51
437.037	29
437.396	28.67
437.756	28.71
438.115	28.71
438.474	28.85
438.833	28.96
439.192	28.88
439.551	28.9
439.91	28.89
440.269	29
440.628	28.93
440.987	28.86
441.345	28.94
441.704	28.91
442.063	28.9
442.421	29.01
442.78	28.96
443.138	29.25
443.497	29.39
443.855	29.47
444.214	29.66
444.572	29.65
444.93	29.52
445.288	29.67
445.647	29.53
446.005	29.59
446.363	29.44
446.721	29.46
447.079	29.36
447.437	29.19
447.795	29.14
448.153	29.33
448.51	29.36
448.868	29.58
449.226	29.77
449.584	30
449.941	30.19
450.299	30.18
450.656	30.29
451.014	30.46
451.371	30.36
451.729	30.5
452.086	30.71
452.443	30.72
452.801	30.89
453.158	30.89
453.515	30.48
453.872	30.54
454.229	30.72
454.586	30.91
454.943	30.88
455.3	30.71
455.657	30.85
456.014	31.02
456.371	30.88
456.727	31.14
457.084	31.05
457.441	31.04
457.797	31.52
458.154	31.37
458.51	31.4
458.867	31.61
459.223	31.56
459.58	31.47
459.936	31.52
460.292	31.22
460.648	31.41
461.005	31.09
461.361	30.95
461.717	31.07
462.073	31.04
462.429	31.59
462.785	31.49
463.141	31.59
463.496	31.81
463.852	31.92
464.208	32.18
464.564	32.36
464.919	32.5
465.275	32.17
465.631	32.43
465.986	32.24
466.342	32.24
466.697	32.41
467.052	32.46
467.408	32.6
467.763	32.67
468.118	32.58
468.473	32.21
468.829	32.34
469.184	32.39
469.539	32.32
469.894	32.77
470.249	32.61
470.603	32.82
470.958	33.1
471.313	32.8
471.668	32.57
472.023	32.92
472.377	33.11
472.732	33.16
473.086	33.11
473.441	33.11
473.795	33.33
474.15	33.2
474.504	33.31
474.859	33.07
475.213	33.23
475.567	33.64
475.921	33.5
476.275	33.61
476.63	33.73
476.984	33.79
477.338	33.76
477.692	33.96
478.045	33.83
478.399	33.92
478.753	33.69
479.107	33.86
479.461	33.72
479.814	33.89
480.168	33.93
480.521	33.95
480.875	34.03
481.228	34.13
481.582	34.25
481.935	34.09
482.289	34.23
482.642	34.22
482.995	34.15
483.348	33.98
483.701	34.18
484.055	34.09
484.408	34.19
484.761	33.83
485.114	33.63
485.466	33.44
485.819	33.26
486.172	33.18
486.525	33.46
486.878	33.75
487.23	34.07
487.583	34.39
487.936	34.48
488.288	34.32
488.641	34.14
488.993	34
489.345	33.97
489.698	33.97
490.05	34.19
490.402	34.17
490.754	34.42
491.107	34.72
491.459	35.08
491.811	35.32
492.163	35.29
492.515	35.24
492.866	34.75
493.218	34.45
493.57	34.48
493.922	34.55
494.274	34.96
494.625	35.13
494.977	35.36
495.328	35.67
495.68	35.89
496.031	35.98
496.383	36.09
496.734	35.99
497.086	35.97
497.437	36.26
497.788	36.15
498.139	36.1
498.49	36.08
498.842	36.1
499.193	35.83
499.544	36.04
499.894	36.18
500.245	36.25
500.596	36.31
500.947	36.47
501.298	36.54
501.648	36.74
501.999	36.74
502.35	36.82
502.7	36.95
503.051	36.85
503.401	37.07
503.752	37.01
504.102	37.08
504.452	36.95
504.803	37.28
505.153	37.13
505.503	37.21
505.853	36.94
506.203	37.27
506.553	37.07
506.903	37.29
507.253	37.23
507.603	37.55
507.953	37.38
508.303	37.51
508.652	37.54
509.002	37.35
509.352	37.44
509.701	37.41
510.051	37.28
510.4	37.37
510.75	37.37
511.099	37.34
511.449	37.69
511.798	37.69
512.147	37.87
512.496	38
512.846	38.08
513.195	37.89
513.544	37.73
513.893	37.94
514.242	37.93
514.591	38.16
514.939	38.29
515.288	38.27
515.637	38.34
515.986	38.55
516.334	38.46
516.683	38.72
517.032	38.62
517.38	38.62
517.729	38.73
518.077	38.95
518.426	39.08
518.774	38.84
519.122	38.75
519.47	38.69
519.819	38.55
520.167	38.46
520.515	38.52
520.863	38.47
521.211	38.55
521.559	38.78
521.907	38.87
522.255	39.02
522.602	39.19
522.95	39.35
523.298	39.44
523.645	39.54
523.993	39.74
524.341	39.65
524.688	39.79
525.036	39.59
525.383	39.82
525.73	39.9
526.078	39.92
526.425	39.65
526.772	39.67
527.119	39.61
527.466	39.52
527.814	39.63
528.161	39.92
528.508	39.76
528.854	40.04
529.201	39.88
529.548	39.65
529.895	39.4
530.242	39.31
530.588	39.14
530.935	38.91
531.282	39.06
531.628	39.17
531.975	39.64
532.321	39.91
532.667	40.09
533.014	40.23
533.36	40.28
533.706	40.37
534.052	40.25
534.399	40.31
534.745	39.96
535.091	39.95
535.437	40
535.783	40.13
536.129	40.4
536.474	40.66
536.82	40.61
537.166	41.08
537.512	41.02
537.857	41.02
538.203	40.91
538.549	40.85
538.894	40.73
539.239	40.85
539.585	41.2
539.93	41.24
540.276	41.72
540.621	41.77
540.966	41.72
541.311	42.01
541.656	41.82
542.001	41.81
542.346	41.44
542.691	40.95
543.036	40.83
543.381	40.79
543.726	40.89
544.071	41.1
544.415	41.3
544.76	41.43
545.105	41.73
545.449	41.89
545.794	42
546.138	41.83
546.483	42.1
546.827	42.09
547.171	42.15
547.516	42.21
547.86	42.33
548.204	42.05
548.548	41.9
548.892	42.04
549.236	42.41
549.58	42.53
549.924	42.55
550.268	42.78
550.612	42.9
550.956	42.92
551.3	43.07
551.643	43.28
551.987	43.21
552.33	43.36
552.674	43.3
553.017	43.32
553.361	43.33
553.704	43.26
554.048	43.2
554.391	43.39
554.734	43.51
555.077	43.3
555.42	43.59
555.764	43.56
556.107	43.78
556.45	43.49
556.793	43.95
557.135	43.8
557.478	44.06
557.821	43.76
558.164	43.97
558.507	43.89
558.849	44.25
559.192	44.23
559.534	44.17
559.877	44.24
560.219	44.11
560.562	44.44
560.904	44.61
561.246	44.09
561.589	44.29
561.931	44.39
562.273	44.4
562.615	44.44
562.957	44.55
563.299	44.65
563.641	44.51
563.983	44.88
564.325	44.72
564.667	44.95
565.008	44.69
565.35	44.89
565.692	44.96
566.033	45.29
566.375	45.13
566.716	45.06
567.058	45.34
567.399	45.22
567.741	45.15
568.082	45.22
568.423	44.94
568.764	45.09
569.105	45.13
569.447	45.19
569.788	45.44
570.129	45.43
570.47	45.62
570.811	45.62
571.151	45.45
571.492	45.93
571.833	45.89
572.174	45.72
572.514	45.9
572.855	45.84
573.195	45.92
573.536	45.58
573.876	45.65
574.217	45.89
574.557	45.99
574.898	46.05
575.238	46.35
575.578	46.05
575.918	46.21
576.258	46.06
576.598	46.34
576.938	46.41
577.278	45.96
577.618	46.5
577.958	46.6
578.298	46.73
578.638	46.46
578.977	46.64
579.317	46.67
579.657	46.57
579.996	46.99
580.336	46.81
580.675	46.82
581.014	47.12
581.354	47.2
581.693	46.99
582.032	47.14
582.372	46.91
582.711	46.89
583.05	47.17
583.389	47.11
583.728	47.38
584.067	47.52
584.406	47.55
584.745	47.47
585.083	47.33
585.422	47.59
585.761	47.48
586.1	47.94
586.438	47.71
586.777	47.68
587.115	48.08
587.454	47.86
587.792	47.99
588.13	47.95
588.469	48.05
588.807	48.28
589.145	47.84
589.483	48.22
589.821	47.91
590.159	48
590.497	48.17
590.835	48.34
591.173	48.1
591.511	48.34
591.849	47.94
592.187	48.28
592.524	48.32
592.862	48.54
593.2	48.49
593.537	48.53
593.875	48.71
594.212	48.82
594.55	48.7
594.887	48.89
595.224	48.99
595.561	48.9
595.899	48.86
596.236	48.87
596.573	49.31
596.91	49.29
597.247	49.14
597.584	49.1
597.921	49.26
598.258	49.01
598.594	48.96
598.931	49.16
599.268	49.09
599.604	49.27
599.941	49.16
600.277	49.47
600.614	49.29
600.95	49.56
601.287	49.53
601.623	49.58
601.959	49.7
602.296	49.86
602.632	49.94
602.968	49.58
603.304	49.78
603.64	50.26
603.976	50.2
604.312	49.72
604.648	49.74
604.984	49.82
605.319	50.02
605.655	50.05
605.991	49.41
606.326	49.8
606.662	49.59
606.998	50.2
607.333	49.63
607.668	50.43
608.004	50.38
608.339	50.25
608.674	50.9
609.01	50.81
609.345	50.67
609.68	51.25
610.015	50.62
610.35	50.54
610.685	50.76
611.02	50.69
611.355	50.51
611.689	50.55
612.024	50.67
612.359	50.63
612.694	51.12
613.028	51.42
613.363	50.89
613.697	51.4
614.032	50.99
614.366	51.24
614.7	51.32
615.035	51.32
615.369	51.02
615.703	51.21
616.037	51.28
616.371	51.43
616.705	51.56
617.039	51.74
617.373	52.05
617.707	51.52
618.041	51.6
618.375	51.56
618.709	51.84
619.042	51.74
619.376	51.44
619.71	52.12
620.043	51.86
620.377	51.66
620.71	51.6
621.043	52.08
621.377	51.94
621.71	51.68
622.043	52
622.376	52.38
622.709	52.58
623.043	52.54
623.376	52.24
623.709	52.58
624.041	52.41
624.374	52.75
624.707	52.31
625.04	52.54
625.373	52.64
625.705	52.25
626.038	52.68
626.37	52.59
626.703	52.83
627.035	52.63
627.368	52.76
627.7	53.18
628.032	53.31
628.365	53.03
628.697	52.78
629.029	53.15
629.361	53.04
629.693	52.88
630.025	52.91
630.357	52.76
630.689	53.21
631.021	53.06
631.353	53.23
631.684	53.18
632.016	53.25
632.348	53.49
632.679	53.5
633.011	53.22
633.342	53.81
633.674	53.48
634.005	53.92
634.336	52.92
634.668	53.61
634.999	53.72
635.33	53.33
635.661	53.7
635.992	53.44
636.323	53.88
636.654	53.53
636.985	54.3
637.316	54
637.647	53.6
637.977	53.77
638.308	54.4
638.639	54.27
638.969	53.79
639.3	53.93
639.63	54.3
639.961	54.11
640.291	53.99
640.622	54.08
640.952	54.12
641.282	54.25
641.612	54.62
641.943	54.98
642.273	54.61
642.603	54.48
642.933	54.72
643.263	54.31
643.592	54.94
643.922	54.39
644.252	54.81
644.582	54.3
644.911	54.63
645.241	55.01
645.571	54.8
645.9	54.69
646.23	54.42
646.559	54.56
646.888	54.57
647.218	55.28
647.547	55.33
647.876	55.01
648.205	55.39
648.534	55.47
648.863	55.28
649.192	54.66
649.521	55.26
649.85	55.37
650.179	54.96
650.508	55.45
650.837	55.61
651.165	55.32
651.494	55.37
651.822	55.6
652.151	55.2
652.479	55.42
652.808	55.79
653.136	55.64
653.465	55.87
653.793	55.42
654.121	55.76
654.449	56.23
654.777	55.61
655.105	56.01
655.433	55.84
655.761	56.02
656.089	55.51
656.417	56.17
656.745	56.71
657.073	56.19
657.4	55.99
657.728	57.11
658.056	56.07
658.383	56.86
658.711	56.39
659.038	56.4
659.365	56.67
659.693	56.55
660.02	56.06
660.347	56.67
660.674	56.4
661.001	56.28
661.329	56.86
661.656	56.8
661.982	56.88
662.309	56.69
662.636	57.06
662.963	57.22
663.29	56.97
663.616	57.39
663.943	56.57
664.27	57.33
664.596	56.9
664.923	57.37
665.249	56.97
665.576	56.93
665.902	57.47
666.228	57.87
666.554	56.83
666.881	57.14
667.207	57.49
667.533	57.74
667.859	57.11
668.185	56.77
668.511	57.1
668.837	58.47
669.162	57.17
669.488	57.83
669.814	57.71
