Data from 0021_chest_Reflection__1__17.txt Node

Date: Thu Oct 20 20:29:58 CDT 2022
User: ToomeyLab
Spectrometer: FLMS14357
Trigger mode: 0
Integration Time (sec): 1.000000E-2
Scans to average: 100
Electric dark correction enabled: true
Nonlinearity correction enabled: false
Boxcar width: 0
XAxis mode: Wavelengths
Number of Pixels in Spectrum: 2048
>>>>>Begin Spectral Data<<<<<
189.047	217.54
189.435	217.54
189.823	217.54
190.211	195.39
190.599	53.05
190.987	86.14
191.375	-17.97
191.763	-6.83
192.151	350.26
192.538	1.67
192.926	25.96
193.314	-1525.35
193.702	161.47
194.089	57.18
194.477	55.34
194.864	-1423
195.252	2.44
195.639	241.34
196.027	180.11
196.414	-31.88
196.801	141.7
197.189	1103.38
197.576	4.14
197.963	-46.15
198.351	29.32
198.738	44.05
199.125	22.74
199.512	5.54
199.899	15.4
200.286	-39.87
200.673	18.97
201.06	35.15
201.447	45.3
201.833	52.29
202.22	34
202.607	26.03
202.994	15.21
203.38	11.16
203.767	25.49
204.154	35.26
204.54	42.45
204.927	27.44
205.313	5.84
205.699	54.18
206.086	62.9
206.472	29.47
206.858	38.33
207.245	5.5
207.631	-25.25
208.017	-1.35
208.403	21.77
208.789	5.86
209.175	36.34
209.561	0.7
209.947	18.5
210.333	13.91
210.719	9.9
211.105	-28.59
211.491	-1.67
211.876	33.34
212.262	-1.78
212.648	-11.69
213.034	19.85
213.419	14.57
213.805	24.08
214.19	4.14
214.576	17.11
214.961	1.1
215.346	-4.27
215.732	-0.18
216.117	2.63
216.502	-7.98
216.888	47.68
217.273	18.49
217.658	15.25
218.043	-5.65
218.428	11.28
218.813	8.7
219.198	15.77
219.583	34.37
219.968	13.58
220.353	-4.98
220.738	16.25
221.122	2.26
221.507	6.98
221.892	12.78
222.276	2.17
222.661	3.81
223.046	14.99
223.43	12.43
223.815	-6.11
224.199	-6.97
224.583	4.25
224.968	7.49
225.352	3.76
225.736	0.85
226.121	5.42
226.505	2.92
226.889	4.25
227.273	6.56
227.657	3.02
228.041	-1.56
228.425	1.03
228.809	1.86
229.193	4.08
229.577	1.91
229.961	0.69
230.344	2.44
230.728	2.22
231.112	1.94
231.495	0.89
231.879	1.02
232.263	2.87
232.646	1.41
233.03	0.59
233.413	-0.23
233.797	-0.03
234.18	2.36
234.563	1.06
234.946	0.69
235.33	0.15
235.713	3.59
236.096	2.34
236.479	-0.06
236.862	2.53
237.245	3.1
237.628	2.58
238.011	1.26
238.394	0.67
238.777	2.25
239.16	0.1
239.543	1.19
239.925	1.32
240.308	2.08
240.691	0.71
241.073	2
241.456	1.39
241.838	1.13
242.221	1.64
242.603	1.95
242.986	1.67
243.368	1.13
243.75	1.42
244.133	1.4
244.515	1.66
244.897	1.26
245.279	1.31
245.661	1.85
246.043	0.79
246.425	0.73
246.807	3.05
247.189	1.77
247.571	1.04
247.953	1.29
248.335	1.46
248.717	1.71
249.098	1.54
249.48	1.15
249.862	1.42
250.243	0.95
250.625	2.04
251.006	2.33
251.388	1.31
251.769	1.86
252.151	2.95
252.532	1.19
252.913	1.63
253.295	0.67
253.676	1.52
254.057	1.55
254.438	1.8
254.819	2.58
255.2	1.11
255.581	1.98
255.962	2.09
256.343	3.23
256.724	2.2
257.105	2.26
257.486	1.5
257.867	1.5
258.247	1.64
258.628	1.89
259.009	1.32
259.389	0.94
259.77	2.11
260.15	2.03
260.531	1.74
260.911	1.01
261.292	1.24
261.672	1.58
262.052	1.6
262.432	1.78
262.813	1.69
263.193	0.92
263.573	1.23
263.953	1.12
264.333	1.95
264.713	1.23
265.093	2.16
265.473	1.98
265.853	0.96
266.233	1.52
266.612	0.96
266.992	2.83
267.372	1.68
267.752	1.58
268.131	1.32
268.511	1.38
268.89	1.19
269.27	2.05
269.649	1.24
270.029	1.84
270.408	1.47
270.787	1.3
271.167	1.87
271.546	1.24
271.925	1.86
272.304	1.26
272.683	1.47
273.062	1.14
273.441	1.52
273.82	1.38
274.199	1.71
274.578	1.61
274.957	1.23
275.336	1.48
275.715	1.31
276.093	1.28
276.472	1.45
276.851	1.7
277.229	0.3
277.608	0.8
277.986	0.99
278.365	1.52
278.743	1.28
279.122	1.94
279.5	0.71
279.878	0.94
280.257	1.3
280.635	1.27
281.013	1.98
281.391	1.68
281.769	1.31
282.147	1.57
282.525	1.55
282.903	1.65
283.281	1.34
283.659	1.2
284.037	1.55
284.415	1.79
284.792	1.5
285.17	1.4
285.548	1.11
285.925	1.76
286.303	1.76
286.68	1.55
287.058	1.7
287.435	1.45
287.813	1.35
288.19	1.78
288.567	1.17
288.945	1.71
289.322	1.19
289.699	1.61
290.076	2.15
290.453	1.31
290.83	1.46
291.207	1.57
291.584	1.07
291.961	1.25
292.338	0.98
292.715	1.56
293.092	1.45
293.469	1.8
293.845	1.36
294.222	1.56
294.599	1.63
294.975	1.81
295.352	2.27
295.728	2.22
296.105	1.49
296.481	1.91
296.858	1.88
297.234	1.49
297.61	1.23
297.986	1.56
298.363	1.73
298.739	1.69
299.115	1.81
299.491	1.96
299.867	1.65
300.243	1.48
300.619	2.14
300.995	1.66
301.371	1.48
301.746	1.53
302.122	1.58
302.498	1.96
302.874	1.73
303.249	1.65
303.625	1.6
304	1.84
304.376	1.44
304.751	1.74
305.127	1.02
305.502	1.87
305.878	1.79
306.253	1.68
306.628	1.34
307.003	1.56
307.378	2.04
307.754	2.08
308.129	1.76
308.504	1.72
308.879	2.28
309.254	1.73
309.629	2.28
310.003	1.67
310.378	1.72
310.753	1.99
311.128	1.51
311.502	1.73
311.877	1.98
312.252	2.05
312.626	1.78
313.001	1.9
313.375	2.35
313.75	1.64
314.124	1.88
314.498	2.07
314.873	1.9
315.247	2.03
315.621	2.13
315.995	2.58
316.369	1.82
316.743	2.45
317.117	2.06
317.491	1.86
317.865	2.34
318.239	2.33
318.613	2.62
318.987	2.16
319.361	1.82
319.734	2.05
320.108	2.28
320.482	2.22
320.855	2.51
321.229	2.2
321.602	2.55
321.976	2.32
322.349	2.08
322.723	2.56
323.096	1.5
323.469	2.17
323.843	2.35
324.216	1.92
324.589	2.09
324.962	2.48
325.335	1.89
325.708	2.22
326.081	2.47
326.454	2.56
326.827	1.71
327.2	2.4
327.573	2.51
327.945	2.31
328.318	2.02
328.691	2.21
329.063	2.17
329.436	1.95
329.809	2.13
330.181	2.65
330.553	2.18
330.926	1.85
331.298	1.55
331.671	2.8
332.043	2.54
332.415	2.96
332.787	2.42
333.159	2.43
333.532	2.83
333.904	1.88
334.276	2.55
334.648	2.15
335.02	2.28
335.391	2.41
335.763	2.15
336.135	2.59
336.507	2.14
336.879	2.49
337.25	2.62
337.622	2.34
337.993	2.6
338.365	2.18
338.736	2.57
339.108	2.24
339.479	2.18
339.851	3.01
340.222	2.59
340.593	2.14
340.964	2.75
341.336	2.35
341.707	2.83
342.078	2.25
342.449	1.8
342.82	2.17
343.191	2.21
343.562	2.51
343.933	2.1
344.303	2.58
344.674	1.97
345.045	2.08
345.416	2.16
345.786	2.17
346.157	1.89
346.527	1.55
346.898	2.14
347.268	1.79
347.639	2.4
348.009	2.24
348.38	2.81
348.75	2.09
349.12	2.26
349.49	2.21
349.861	2.53
350.231	2.15
350.601	2.49
350.971	2.2
351.341	2.25
351.711	2.32
352.081	2.81
352.45	2.34
352.82	1.91
353.19	2.3
353.56	2.07
353.929	2.05
354.299	2.06
354.669	2.59
355.038	2.12
355.408	2.33
355.777	2.5
356.147	2.3
356.516	2.16
356.885	2.31
357.254	2.69
357.624	2.19
357.993	2.31
358.362	2.6
358.731	2.32
359.1	2.25
359.469	2.32
359.838	2.13
360.207	2.5
360.576	2.03
360.945	1.83
361.314	2.39
361.682	2.1
362.051	2.21
362.42	2.16
362.788	2.08
363.157	2.25
363.525	2.28
363.894	2.19
364.262	2.17
364.631	2.5
364.999	2.13
365.367	2.05
365.735	2.51
366.104	2.35
366.472	2.05
366.84	2.15
367.208	2.17
367.576	1.88
367.944	2.35
368.312	2.34
368.68	2.64
369.048	2.27
369.416	2.52
369.783	2.3
370.151	2.61
370.519	2.73
370.886	2.52
371.254	2.49
371.621	2.32
371.989	2.19
372.356	2.73
372.724	2.69
373.091	2.63
373.458	2.36
373.826	2.6
374.193	2.51
374.56	2.37
374.927	2.64
375.294	2.59
375.661	2.73
376.028	2.38
376.395	2.34
376.762	2.39
377.129	2.26
377.496	2.37
377.863	2.5
378.229	2.25
378.596	2.31
378.963	2.31
379.329	2.08
379.696	2.76
380.062	2.52
380.429	2.42
380.795	2.44
381.161	2.43
381.528	2.07
381.894	2.43
382.26	2.02
382.626	2.39
382.993	2.58
383.359	2.7
383.725	2.18
384.091	2.45
384.457	2.34
384.823	2.17
385.188	2.53
385.554	2.55
385.92	2.45
386.286	2.44
386.651	2.62
387.017	2.3
387.383	2.45
387.748	2.36
388.114	2.39
388.479	2.58
388.845	2.65
389.21	2.41
389.575	2.34
389.94	2.68
390.306	2.39
390.671	2.32
391.036	2.38
391.401	2.37
391.766	2.49
392.131	2.35
392.496	2.41
392.861	2.72
393.226	2.31
393.591	2.22
393.956	2.22
394.32	2.21
394.685	2.44
395.05	2.38
395.414	2.58
395.779	2.37
396.143	2.43
396.508	2.26
396.872	2.3
397.236	2.28
397.601	2.47
397.965	2.49
398.329	2.36
398.694	2.5
399.058	2.51
399.422	2.46
399.786	2.4
400.15	2.4
400.514	2.32
400.878	2.5
401.242	2.5
401.605	2.42
401.969	2.64
402.333	2.34
402.697	2.69
403.06	2.19
403.424	2.5
403.787	2.3
404.151	2.55
404.514	2.25
404.878	2.53
405.241	2.42
405.604	2.81
405.968	2.58
406.331	2.39
406.694	2.46
407.057	2.44
407.42	2.32
407.783	2.31
408.146	2.54
408.509	2.57
408.872	2.67
409.235	2.5
409.598	2.48
409.961	2.4
410.323	2.54
410.686	2.5
411.049	2.06
411.411	2.5
411.774	2.46
412.136	2.58
412.499	2.63
412.861	2.51
413.223	2.45
413.586	2.85
413.948	2.48
414.31	2.48
414.672	2.28
415.035	2.47
415.397	2.36
415.759	2.46
416.121	2.37
416.483	2.53
416.845	2.51
417.206	2.34
417.568	2.59
417.93	2.2
418.292	2.5
418.653	2.5
419.015	2.58
419.377	2.52
419.738	2.44
420.1	2.38
420.461	2.48
420.822	2.5
421.184	2.43
421.545	2.38
421.906	2.41
422.267	2.37
422.629	2.45
422.99	2.29
423.351	2.44
423.712	2.39
424.073	2.36
424.434	2.42
424.795	2.43
425.155	2.43
425.516	2.36
425.877	2.35
426.238	2.43
426.598	2.31
426.959	2.47
427.32	2.44
427.68	2.49
428.041	2.52
428.401	2.65
428.761	2.66
429.122	2.56
429.482	2.59
429.842	2.56
430.202	2.6
430.563	2.49
430.923	2.55
431.283	2.86
431.643	2.59
432.003	2.61
432.363	2.47
432.722	2.74
433.082	2.61
433.442	2.65
433.802	2.72
434.161	2.58
434.521	2.68
434.881	2.59
435.24	2.49
435.6	2.71
435.959	2.55
436.319	2.66
436.678	2.63
437.037	2.7
437.396	2.54
437.756	2.59
438.115	2.51
438.474	2.58
438.833	2.57
439.192	2.42
439.551	2.57
439.91	2.84
440.269	2.68
440.628	2.76
440.987	2.68
441.345	2.68
441.704	2.66
442.063	2.51
442.421	2.53
442.78	2.68
443.138	2.66
443.497	2.51
443.855	2.71
444.214	2.63
444.572	2.68
444.93	2.52
445.288	2.59
445.647	2.52
446.005	2.67
446.363	2.62
446.721	2.64
447.079	2.6
447.437	2.58
447.795	2.59
448.153	2.69
448.51	2.62
448.868	2.67
449.226	2.64
449.584	2.76
449.941	2.68
450.299	2.62
450.656	2.72
451.014	2.78
451.371	2.81
451.729	2.73
452.086	2.8
452.443	2.74
452.801	2.95
453.158	2.71
453.515	2.74
453.872	2.69
454.229	2.83
454.586	2.71
454.943	2.78
455.3	2.82
455.657	2.78
456.014	2.87
456.371	2.73
456.727	2.92
457.084	2.79
457.441	2.6
457.797	2.92
458.154	2.9
458.51	2.8
458.867	2.71
459.223	2.72
459.58	2.82
459.936	2.85
460.292	2.79
460.648	2.74
461.005	2.67
461.361	2.54
461.717	2.67
462.073	2.69
462.429	2.86
462.785	2.67
463.141	2.74
463.496	2.76
463.852	2.99
464.208	2.77
464.564	2.78
464.919	3.03
465.275	2.77
465.631	2.79
465.986	2.79
466.342	2.92
466.697	2.84
467.052	2.99
467.408	2.87
467.763	2.76
468.118	2.95
468.473	2.89
468.829	2.76
469.184	2.88
469.539	2.8
469.894	2.76
470.249	2.64
470.603	3.05
470.958	2.98
471.313	2.91
471.668	2.81
472.023	2.77
472.377	2.89
472.732	2.97
473.086	2.84
473.441	3
473.795	2.97
474.15	2.71
474.504	2.87
474.859	2.86
475.213	2.94
475.567	2.94
475.921	2.84
476.275	3.03
476.63	2.93
476.984	3
477.338	2.94
477.692	2.96
478.045	2.97
478.399	3.05
478.753	2.94
479.107	2.91
479.461	2.85
479.814	2.92
480.168	2.98
480.521	2.76
480.875	2.83
481.228	2.96
481.582	2.86
481.935	2.95
482.289	3.01
482.642	2.87
482.995	2.86
483.348	2.98
483.701	2.9
484.055	2.91
484.408	2.77
484.761	2.76
485.114	2.67
485.466	2.65
485.819	2.73
486.172	2.81
486.525	2.94
486.878	2.88
487.23	2.91
487.583	2.88
487.936	2.83
488.288	2.8
488.641	2.82
488.993	2.76
489.345	2.82
489.698	2.87
490.05	2.89
490.402	2.97
490.754	2.99
491.107	2.91
491.459	3.01
491.811	3.02
492.163	2.92
492.515	2.97
492.866	2.82
493.218	2.8
493.57	2.88
493.922	3.03
494.274	3.07
494.625	3.06
494.977	2.95
495.328	3.16
495.68	2.96
496.031	3.12
496.383	3.14
496.734	3.09
497.086	3.02
497.437	3.14
497.788	3.05
498.139	3.02
498.49	3.03
498.842	3.09
499.193	3.15
499.544	3.21
499.894	3.11
500.245	3.07
500.596	3.13
500.947	3.29
501.298	3.24
501.648	3.2
501.999	3.18
502.35	3.32
502.7	3.21
503.051	3.27
503.401	3.27
503.752	3.13
504.102	3.11
504.452	3.2
504.803	3.29
505.153	3.19
505.503	3.34
505.853	3.19
506.203	3.18
506.553	3.16
506.903	3.31
507.253	3.28
507.603	3.21
507.953	3.27
508.303	3.31
508.652	3.26
509.002	3.28
509.352	3.26
509.701	3.22
510.051	3.28
510.4	3.32
510.75	3.23
511.099	3.36
511.449	3.34
511.798	3.46
512.147	3.29
512.496	3.27
512.846	3.24
513.195	3.38
513.544	3.34
513.893	3.29
514.242	3.35
514.591	3.37
514.939	3.46
515.288	3.44
515.637	3.44
515.986	3.4
516.334	3.44
516.683	3.44
517.032	3.48
517.38	3.34
517.729	3.54
518.077	3.48
518.426	3.39
518.774	3.57
519.122	3.48
519.47	3.37
519.819	3.26
520.167	3.4
520.515	3.38
520.863	3.45
521.211	3.56
521.559	3.57
521.907	3.45
522.255	3.47
522.602	3.46
522.95	3.44
523.298	3.57
523.645	3.53
523.993	3.63
524.341	3.64
524.688	3.63
525.036	3.64
525.383	3.62
525.73	3.52
526.078	3.66
526.425	3.56
526.772	3.48
527.119	3.59
527.466	3.55
527.814	3.5
528.161	3.6
528.508	3.6
528.854	3.62
529.201	3.51
529.548	3.47
529.895	3.37
530.242	3.41
530.588	3.48
530.935	3.54
531.282	3.6
531.628	3.58
531.975	3.71
532.321	3.72
532.667	3.67
533.014	3.69
533.36	3.64
533.706	3.76
534.052	3.63
534.399	3.64
534.745	3.58
535.091	3.64
535.437	3.71
535.783	3.72
536.129	3.85
536.474	3.81
536.82	3.79
537.166	3.83
537.512	3.69
537.857	3.79
538.203	3.85
538.549	3.8
538.894	3.86
539.239	3.88
539.585	3.88
539.93	3.83
540.276	3.99
540.621	3.94
540.966	3.97
541.311	3.86
541.656	3.88
542.001	3.89
542.346	3.85
542.691	3.77
543.036	3.76
543.381	3.89
543.726	3.93
544.071	3.94
544.415	3.89
544.76	3.97
545.105	4.04
545.449	4.08
545.794	4.21
546.138	4.16
546.483	4.22
546.827	4.1
547.171	4.1
547.516	4.15
547.86	4.18
548.204	4.23
548.548	4.19
548.892	4.24
549.236	4.25
549.58	4.28
549.924	4.35
550.268	4.29
550.612	4.33
550.956	4.3
551.3	4.43
551.643	4.42
551.987	4.45
552.33	4.59
552.674	4.55
553.017	4.55
553.361	4.44
553.704	4.39
554.048	4.4
554.391	4.51
554.734	4.44
555.077	4.38
555.42	4.59
555.764	4.61
556.107	4.67
556.45	4.61
556.793	4.56
557.135	4.6
557.478	4.81
557.821	4.57
558.164	4.58
558.507	4.71
558.849	4.77
559.192	4.93
559.534	4.91
559.877	4.86
560.219	4.84
560.562	5
560.904	4.82
561.246	4.7
561.589	4.81
561.931	4.83
562.273	4.71
562.615	4.88
562.957	4.93
563.299	5.06
563.641	4.91
563.983	4.98
564.325	4.92
564.667	4.83
565.008	4.96
565.35	4.91
565.692	4.98
566.033	5.21
566.375	4.94
566.716	4.8
567.058	4.94
567.399	5.1
567.741	5.16
568.082	4.86
568.423	5.12
568.764	5.12
569.105	5
569.447	5.3
569.788	5.28
570.129	5.15
570.47	5.17
570.811	5.01
571.151	5.19
571.492	5.23
571.833	5.38
572.174	5.3
572.514	5.3
572.855	5.41
573.195	5.35
573.536	5.31
573.876	5.25
574.217	5.28
574.557	5.41
574.898	5.4
575.238	5.61
575.578	5.54
575.918	5.55
576.258	5.49
576.598	5.53
576.938	5.42
577.278	5.51
577.618	5.61
577.958	5.75
578.298	5.57
578.638	5.69
578.977	5.57
579.317	5.43
579.657	5.73
579.996	5.89
580.336	5.75
580.675	5.84
581.014	6.09
581.354	5.93
581.693	5.78
582.032	5.9
582.372	5.76
582.711	5.74
583.05	6.06
583.389	6.13
583.728	5.88
584.067	6.03
584.406	5.94
584.745	5.99
585.083	6.04
585.422	6.15
585.761	6.19
586.1	6.24
586.438	6.21
586.777	6.33
587.115	6.31
587.454	6.41
587.792	6.07
588.13	6.06
588.469	6.09
588.807	6.12
589.145	6.29
589.483	6.01
589.821	6.17
590.159	6.15
590.497	6.4
590.835	6.6
591.173	6.56
591.511	6.56
591.849	6.36
592.187	6.25
592.524	6.49
592.862	6.53
593.2	6.32
593.537	6.51
593.875	6.41
594.212	6.56
594.55	6.48
594.887	6.92
595.224	6.51
595.561	6.79
595.899	6.54
596.236	6.65
596.573	6.48
596.91	6.89
597.247	6.75
597.584	6.58
597.921	6.87
598.258	6.7
598.594	6.75
598.931	6.93
599.268	6.78
599.604	6.84
599.941	7.09
600.277	6.82
600.614	6.86
600.95	6.96
601.287	7.22
601.623	7.08
601.959	7.05
602.296	6.89
602.632	6.99
602.968	7.12
603.304	7.16
603.64	6.92
603.976	7.12
604.312	7.06
604.648	6.96
604.984	7.08
605.319	7.17
605.655	7.14
605.991	6.77
606.326	7.15
606.662	7.15
606.998	7.3
607.333	7.21
607.668	7.41
608.004	7.45
608.339	7.44
608.674	7.45
609.01	7.55
609.345	7.52
609.68	7.86
610.015	7.59
610.35	7.59
610.685	7.36
611.02	7.46
611.355	7.41
611.689	7.55
612.024	7.48
612.359	7.47
612.694	7.83
613.028	7.69
613.363	7.75
613.697	7.82
614.032	7.83
614.366	7.73
614.7	7.89
615.035	7.8
615.369	7.76
615.703	7.94
616.037	7.87
616.371	8.24
616.705	8.31
617.039	8.02
617.373	8.44
617.707	7.82
618.041	8.08
618.375	8.07
618.709	8.32
619.042	8.09
619.376	7.98
619.71	7.9
620.043	8.17
620.377	8.33
620.71	8
621.043	8.13
621.377	8.49
621.71	8.72
622.043	8.1
622.376	8.43
622.709	8.24
623.043	8.93
623.376	8.69
623.709	8.47
624.041	8.47
624.374	8.68
624.707	8.5
625.04	8.45
625.373	8.73
625.705	8.56
626.038	8.84
626.37	8.46
626.703	8.81
627.035	8.54
627.368	8.71
627.7	8.64
628.032	8.73
628.365	8.54
628.697	8.4
629.029	8.79
629.361	8.75
629.693	8.43
630.025	8.94
630.357	8.84
630.689	9.07
631.021	8.99
631.353	8.84
631.684	8.83
632.016	9.04
632.348	9.3
632.679	9.3
633.011	9.08
633.342	9.39
633.674	8.99
634.005	9.4
634.336	9.2
634.668	9.31
634.999	9.05
635.33	8.74
635.661	9.2
635.992	9.07
636.323	9.56
636.654	9.17
636.985	9.05
637.316	9.51
637.647	9.02
637.977	9.45
638.308	9.33
638.639	9.21
638.969	9.22
639.3	9.3
639.63	9.87
639.961	9.32
640.291	9.29
640.622	9.15
640.952	9.59
641.282	9.68
641.612	9.56
641.943	9.67
642.273	9.83
642.603	9.63
642.933	9.77
643.263	9.55
643.592	9.66
643.922	9.44
644.252	9.75
644.582	9.54
644.911	9.75
645.241	10.2
645.571	9.73
645.9	9.91
646.23	9.64
646.559	9.73
646.888	10.07
647.218	9.94
647.547	10.34
647.876	10.1
648.205	10.56
648.534	10.14
648.863	9.75
649.192	9.72
649.521	10.56
649.85	10.37
650.179	10.25
650.508	10.59
650.837	10.26
651.165	10.19
651.494	10.13
651.822	10.07
652.151	10.35
652.479	10.08
652.808	10.48
653.136	10.12
653.465	10.48
653.793	10.2
654.121	10.57
654.449	10.47
654.777	10.1
655.105	10.75
655.433	10.82
655.761	10.59
656.089	10.66
656.417	10.19
656.745	10.75
657.073	11.08
657.4	10.9
657.728	10.79
658.056	10.54
658.383	10.49
658.711	10.79
659.038	10.9
659.365	10.67
659.693	10.92
660.02	10.59
660.347	10.71
660.674	10.65
661.001	10.44
661.329	10.41
661.656	10.65
661.982	10.67
662.309	10.77
662.636	11.13
662.963	11.37
663.29	10.92
663.616	11.28
663.943	10.91
664.27	11.22
664.596	10.92
664.923	11.04
665.249	11.11
665.576	11.17
665.902	10.92
666.228	11.94
666.554	10.77
666.881	11.25
667.207	11.51
667.533	11.27
667.859	10.77
668.185	11.42
668.511	10.88
668.837	11.07
669.162	11.3
669.488	11.07
669.814	10.94
670.139	11.41
670.465	11.41
670.791	11.13
671.116	12.06
671.442	11.65
671.767	11.61
672.092	11.51
672.418	11.24
672.743	11.92
673.068	11.93
673.393	11.35
673.718	11.98
674.043	11.65
674.368	11.92
674.693	10.89
675.018	11.9
675.343	11.95
675.667	12.12
675.992	11.72
676.317	11.44
676.641	11
676.966	12.53
677.29	11.82
677.615	11.9
677.939	11.96
678.264	12.21
678.588	12.04
678.912	12.17
679.236	12.06
679.56	11.41
679.885	12.12
680.209	12.07
680.532	11.54
680.856	11.92
681.18	11.98
681.504	11.43
681.828	12.2
682.152	12.42
682.475	12.14
682.799	11.93
683.122	12.5
683.446	11.93
683.769	11.92
684.093	12.38
684.416	13.09
684.739	12.93
685.062	12.55
685.386	12.88
685.709	12.61
686.032	12.99
686.355	12.71
686.678	12.3
687.001	12.99
687.324	12.61
687.646	13.2
687.969	13.32
688.292	12.11
688.614	12.74
688.937	11.8
689.26	12.29
689.582	12.49
689.904	13
