Data from 0021_chest_Reflection__2__18.txt Node

Date: Thu Oct 20 20:30:13 CDT 2022
User: ToomeyLab
Spectrometer: FLMS14357
Trigger mode: 0
Integration Time (sec): 1.000000E-2
Scans to average: 100
Electric dark correction enabled: true
Nonlinearity correction enabled: false
Boxcar width: 0
XAxis mode: Wavelengths
Number of Pixels in Spectrum: 2048
>>>>>Begin Spectral Data<<<<<
189.047	163.38
189.435	163.38
189.823	163.38
190.211	121.18
190.599	124.27
190.987	-107.93
191.375	-128.77
191.763	-64.98
192.151	206.5
192.538	-118.34
192.926	92.47
193.314	258.53
193.702	184.71
194.089	39.77
194.477	-89.86
194.864	-473.31
195.252	9.61
195.639	123.02
196.027	79.61
196.414	598.55
196.801	6.07
197.189	317.89
197.576	622.08
197.963	-24.44
198.351	27.76
198.738	-2.75
199.125	4.32
199.512	-1.3
199.899	1.48
200.286	-6.84
200.673	22.95
201.06	33.04
201.447	40.13
201.833	27.13
202.22	21.02
202.607	32.35
202.994	35.55
203.38	-27.62
203.767	-2.29
204.154	-16.03
204.54	18.95
204.927	22.16
205.313	1.54
205.699	37.31
206.086	30.31
206.472	7.7
206.858	49.76
207.245	2.75
207.631	-70.34
208.017	4.96
208.403	37.63
208.789	1.19
209.175	24.64
209.561	12.19
209.947	32.24
210.333	20.83
210.719	29.11
211.105	8.79
211.491	13
211.876	-2.08
212.262	-39.44
212.648	-26.97
213.034	3.8
213.419	18.39
213.805	23.61
214.19	4.33
214.576	19.88
214.961	-13.29
215.346	17.56
215.732	13.49
216.117	-0.88
216.502	29.24
216.888	51.59
217.273	21.46
217.658	22.85
218.043	-25.57
218.428	-10.29
218.813	15.89
219.198	12.09
219.583	24.54
219.968	-0.72
220.353	8.33
220.738	5.01
221.122	-0.6
221.507	-5.61
221.892	5.53
222.276	1.39
222.661	0.04
223.046	2.24
223.43	7.44
223.815	-5.65
224.199	2.71
224.583	4.25
224.968	6.24
225.352	5.09
225.736	5.22
226.121	3.97
226.505	10.56
226.889	2.77
227.273	1.39
227.657	2.89
228.041	2.25
228.425	0.78
228.809	4.09
229.193	1.56
229.577	2.06
229.961	0.11
230.344	2.07
230.728	1.98
231.112	1.27
231.495	1.97
231.879	1.45
232.263	1.74
232.646	1.94
233.03	-0.15
233.413	0.49
233.797	2.53
234.18	1.3
234.563	1.22
234.946	0.93
235.33	-0.38
235.713	3.93
236.096	0.5
236.479	-0.21
236.862	4.53
237.245	1.01
237.628	1.49
238.011	0.33
238.394	1.29
238.777	1.73
239.16	0.9
239.543	2.44
239.925	1.29
240.308	2.61
240.691	0.52
241.073	2.41
241.456	0.46
241.838	0.47
242.221	2.54
242.603	2.19
242.986	1.5
243.368	1.33
243.75	1.79
244.133	1.25
244.515	1.5
244.897	1.22
245.279	1.32
245.661	0.99
246.043	1.37
246.425	1.99
246.807	2.11
247.189	1.28
247.571	1.38
247.953	1.2
248.335	1.27
248.717	1.49
249.098	1.26
249.48	1.41
249.862	1.69
250.243	1.21
250.625	1.75
251.006	2.54
251.388	1.73
251.769	0.77
252.151	1.46
252.532	2.12
252.913	2.31
253.295	1.32
253.676	1.21
254.057	1.04
254.438	1.84
254.819	2.11
255.2	2.01
255.581	2.64
255.962	1.67
256.343	2.62
256.724	0.75
257.105	2.43
257.486	1.08
257.867	1.56
258.247	1.08
258.628	1.41
259.009	1.16
259.389	0.65
259.77	1.76
260.15	1.36
260.531	1.65
260.911	1.18
261.292	1.23
261.672	1.27
262.052	1.26
262.432	1.46
262.813	1.38
263.193	1.44
263.573	1.68
263.953	1.09
264.333	1.56
264.713	1.25
265.093	1.13
265.473	2.23
265.853	1.2
266.233	0.59
266.612	1.67
266.992	2.59
267.372	2.12
267.752	1.48
268.131	1.02
268.511	1.6
268.89	1.05
269.27	1.66
269.649	1.33
270.029	1.35
270.408	1.09
270.787	1.38
271.167	2.06
271.546	0.59
271.925	1.75
272.304	1.62
272.683	1.27
273.062	1.58
273.441	1.54
273.82	1.18
274.199	1.45
274.578	1.84
274.957	1.69
275.336	1.61
275.715	0.82
276.093	1.76
276.472	1.39
276.851	1.49
277.229	0.68
277.608	0.89
277.986	0.98
278.365	1.46
278.743	1.52
279.122	1.8
279.5	0.81
279.878	1.38
280.257	1.14
280.635	1.18
281.013	1.75
281.391	1.22
281.769	1.03
282.147	1.8
282.525	1
282.903	1.48
283.281	0.83
283.659	1.67
284.037	1.37
284.415	1.74
284.792	1.14
285.17	1.28
285.548	1.15
285.925	1.75
286.303	1.6
286.68	1.43
287.058	1.39
287.435	1.52
287.813	1.11
288.19	1.58
288.567	0.81
288.945	1.95
289.322	0.97
289.699	1.9
290.076	2.07
290.453	1.85
290.83	1.52
291.207	1.5
291.584	0.82
291.961	1.4
292.338	1.26
292.715	0.87
293.092	1.16
293.469	1.93
293.845	1.55
294.222	1.33
294.599	1.35
294.975	1.51
295.352	1.66
295.728	1.84
296.105	1.42
296.481	1.68
296.858	1.84
297.234	1.28
297.61	1.3
297.986	1.31
298.363	1.47
298.739	1.76
299.115	1.63
299.491	1.71
299.867	1.37
300.243	1.37
300.619	1.56
300.995	1.32
301.371	1.49
301.746	1.45
302.122	1.17
302.498	1.78
302.874	1.47
303.249	1.61
303.625	1.23
304	1.77
304.376	1.24
304.751	1.62
305.127	0.96
305.502	1.18
305.878	1.59
306.253	1.51
306.628	1.64
307.003	1.6
307.378	1.91
307.754	1.69
308.129	2.02
308.504	1.52
308.879	2.05
309.254	1.75
309.629	1.71
310.003	1.69
310.378	2.02
310.753	1.53
311.128	1.32
311.502	1.87
311.877	1.43
312.252	1.58
312.626	1.58
313.001	1.69
313.375	1.85
313.75	1.52
314.124	1.41
314.498	1.56
314.873	1.99
315.247	2.04
315.621	1.68
315.995	1.56
316.369	1.19
316.743	2.09
317.117	1.26
317.491	2.16
317.865	2.19
318.239	1.76
318.613	1.88
318.987	1.78
319.361	1.93
319.734	2.25
320.108	1.99
320.482	1.4
320.855	2.15
321.229	1.67
321.602	2.11
321.976	1.95
322.349	1.99
322.723	2.19
323.096	1.33
323.469	1.71
323.843	2.45
324.216	1.85
324.589	1.79
324.962	2.25
325.335	1.26
325.708	1.84
326.081	2.13
326.454	1.85
326.827	2.16
327.2	2.13
327.573	1.87
327.945	1.94
328.318	1.92
328.691	1.93
329.063	1.44
329.436	1.77
329.809	2.29
330.181	1.88
330.553	1.46
330.926	1.31
331.298	1.55
331.671	2.05
332.043	1.84
332.415	1.8
332.787	2.11
333.159	1.7
333.532	2.02
333.904	1.76
334.276	2.12
334.648	1.42
335.02	1.61
335.391	2.37
335.763	2.29
336.135	1.64
336.507	2.08
336.879	1.84
337.25	1.56
337.622	1.58
337.993	2.13
338.365	2.12
338.736	1.63
339.108	1.67
339.479	2.08
339.851	2.09
340.222	1.74
340.593	1.83
340.964	1.58
341.336	1.91
341.707	2.06
342.078	1.79
342.449	2.2
342.82	1.62
343.191	1.84
343.562	2.26
343.933	1.81
344.303	2.19
344.674	1.19
345.045	1.91
345.416	1.83
345.786	1.82
346.157	1.8
346.527	1.29
346.898	1.91
347.268	1.91
347.639	2.2
348.009	1.48
348.38	1.93
348.75	1.64
349.12	1.53
349.49	1.9
349.861	1.98
350.231	1.62
350.601	2.04
350.971	1.88
351.341	2.19
351.711	1.67
352.081	2.31
352.45	1.52
352.82	1.66
353.19	2.2
353.56	1.44
353.929	1.96
354.299	1.64
354.669	2.2
355.038	1.82
355.408	1.19
355.777	2
356.147	1.83
356.516	2.1
356.885	2.19
357.254	2.3
357.624	1.58
357.993	1.45
358.362	2.23
358.731	2.06
359.1	1.85
359.469	2.18
359.838	1.98
360.207	2.21
360.576	2
360.945	1.73
361.314	2.24
361.682	1.85
362.051	1.93
362.42	1.55
362.788	1.68
363.157	1.91
363.525	2
363.894	1.91
364.262	1.56
364.631	2.04
364.999	1.71
365.367	1.52
365.735	1.73
366.104	1.73
366.472	2.11
366.84	1.46
367.208	1.76
367.576	2.22
367.944	2.28
368.312	2.16
368.68	2.3
369.048	1.69
369.416	1.93
369.783	1.81
370.151	1.98
370.519	2.42
370.886	1.94
371.254	2.14
371.621	1.81
371.989	1.58
372.356	1.86
372.724	2.24
373.091	1.71
373.458	1.96
373.826	1.97
374.193	1.96
374.56	2.32
374.927	2.07
375.294	1.93
375.661	1.98
376.028	2.09
376.395	1.91
376.762	1.74
377.129	2.15
377.496	1.95
377.863	1.94
378.229	1.72
378.596	1.65
378.963	1.93
379.329	1.82
379.696	2.06
380.062	1.96
380.429	2.04
380.795	2.01
381.161	1.97
381.528	1.95
381.894	1.98
382.26	1.76
382.626	2.12
382.993	2.22
383.359	2.05
383.725	1.92
384.091	1.88
384.457	1.71
384.823	1.75
385.188	2.01
385.554	1.92
385.92	1.87
386.286	1.88
386.651	1.79
387.017	1.66
387.383	2.1
387.748	2.06
388.114	1.98
388.479	1.94
388.845	1.97
389.21	1.8
389.575	1.65
389.94	2.14
390.306	1.59
390.671	1.74
391.036	2.16
391.401	1.75
391.766	1.86
392.131	1.88
392.496	1.65
392.861	1.87
393.226	2.08
393.591	1.69
393.956	1.65
394.32	1.92
394.685	2.08
395.05	1.67
395.414	1.94
395.779	1.82
396.143	1.94
396.508	2.01
396.872	1.66
397.236	2.13
397.601	2.27
397.965	2.06
398.329	1.83
398.694	1.95
399.058	1.98
399.422	1.76
399.786	2
400.15	1.89
400.514	1.89
400.878	2.03
401.242	2.16
401.605	1.89
401.969	1.76
402.333	1.89
402.697	2.06
403.06	1.82
403.424	1.89
403.787	1.69
404.151	1.81
404.514	1.73
404.878	1.91
405.241	1.85
405.604	2.03
405.968	1.79
406.331	1.9
406.694	2.08
407.057	1.68
407.42	1.94
407.783	2.03
408.146	2.08
408.509	2.1
408.872	2.05
409.235	1.8
409.598	1.82
409.961	1.71
410.323	1.88
410.686	1.92
411.049	1.65
411.411	2
411.774	2.14
412.136	1.83
412.499	1.93
412.861	1.86
413.223	1.98
413.586	2.21
413.948	1.89
414.31	1.84
414.672	2.07
415.035	2.08
415.397	1.96
415.759	1.81
416.121	1.83
416.483	2.13
416.845	2.14
417.206	1.96
417.568	1.83
417.93	1.63
418.292	2.09
418.653	1.89
419.015	1.91
419.377	1.91
419.738	1.93
420.1	1.78
420.461	1.81
420.822	1.89
421.184	1.95
421.545	1.84
421.906	1.88
422.267	1.84
422.629	1.99
422.99	1.82
423.351	1.88
423.712	1.88
424.073	1.79
424.434	1.78
424.795	1.85
425.155	1.84
425.516	1.74
425.877	1.78
426.238	1.97
426.598	1.87
426.959	1.87
427.32	1.93
427.68	1.97
428.041	1.96
428.401	2.01
428.761	1.99
429.122	2.13
429.482	2.07
429.842	1.97
430.202	1.97
430.563	1.99
430.923	2.02
431.283	2.05
431.643	1.93
432.003	2.12
432.363	2.03
432.722	1.94
433.082	1.93
433.442	2
433.802	2.11
434.161	2.03
434.521	2.05
434.881	2
435.24	1.88
435.6	2.1
435.959	1.99
436.319	2.06
436.678	2.08
437.037	2.16
437.396	2.14
437.756	2.01
438.115	2.14
438.474	2.1
438.833	1.92
439.192	1.91
439.551	1.97
439.91	2.09
440.269	1.96
440.628	2.01
440.987	2.14
441.345	2.09
441.704	1.98
442.063	1.97
442.421	1.94
442.78	1.93
443.138	2.07
443.497	2.04
443.855	2.03
444.214	1.93
444.572	1.91
444.93	2.09
445.288	2.12
445.647	1.97
446.005	2.02
446.363	2.09
446.721	1.98
447.079	2.05
447.437	2.03
447.795	1.94
448.153	1.89
448.51	1.96
448.868	2
449.226	1.97
449.584	2.16
449.941	2.02
450.299	2.05
450.656	2.07
451.014	2.07
451.371	2.08
451.729	2.13
452.086	2.03
452.443	2.11
452.801	2.16
453.158	1.93
453.515	2.03
453.872	1.96
454.229	2.17
454.586	2.13
454.943	2.2
455.3	2.1
455.657	2.11
456.014	2.28
456.371	2.17
456.727	2.16
457.084	2.06
457.441	2.02
457.797	2.35
458.154	2.11
458.51	2.12
458.867	2.06
459.223	2.07
459.58	2.02
459.936	2.02
460.292	2.08
460.648	2.06
461.005	2.03
461.361	1.9
461.717	2.02
462.073	1.98
462.429	2.15
462.785	1.99
463.141	2.14
463.496	2.15
463.852	2.26
464.208	2.29
464.564	2.26
464.919	2.2
465.275	2.11
465.631	2.1
465.986	2.11
466.342	2.08
466.697	1.98
467.052	2.13
467.408	2.15
467.763	2
468.118	2.15
468.473	2.1
468.829	2.17
469.184	2.15
469.539	2.15
469.894	2.2
470.249	2.03
470.603	2.1
470.958	2.16
471.313	2.31
471.668	1.98
472.023	2.25
472.377	2.21
472.732	2.18
473.086	2.19
473.441	2.11
473.795	2.3
474.15	2.14
474.504	2.15
474.859	2.24
475.213	2.12
475.567	2.3
475.921	2.19
476.275	2.14
476.63	2.14
476.984	2.31
477.338	2.22
477.692	2.29
478.045	2.28
478.399	2.17
478.753	2.11
479.107	2.01
479.461	2.22
479.814	2.09
480.168	2.26
480.521	1.98
480.875	2.09
481.228	2.13
481.582	2.21
481.935	2.28
482.289	2.28
482.642	2.11
482.995	2.12
483.348	2.09
483.701	2.09
484.055	2.09
484.408	2.13
484.761	2
485.114	1.94
485.466	1.95
485.819	2
486.172	2.07
486.525	2.15
486.878	2.12
487.23	2.15
487.583	2.16
487.936	2.1
488.288	2.09
488.641	2.06
488.993	2.07
489.345	2.01
489.698	2.08
490.05	2.14
490.402	2.13
490.754	2.23
491.107	2.14
491.459	2.19
491.811	2.24
492.163	2.15
492.515	2.17
492.866	2.07
493.218	2.01
493.57	2.11
493.922	2.23
494.274	2.28
494.625	2.3
494.977	2.26
495.328	2.27
495.68	2.26
496.031	2.35
496.383	2.17
496.734	2.23
497.086	2.28
497.437	2.23
497.788	2.12
498.139	2.26
498.49	2.19
498.842	2.17
499.193	2.16
499.544	2.33
499.894	2.25
500.245	2.22
500.596	2.18
500.947	2.33
501.298	2.31
501.648	2.31
501.999	2.39
502.35	2.4
502.7	2.44
503.051	2.27
503.401	2.3
503.752	2.23
504.102	2.3
504.452	2.41
504.803	2.45
505.153	2.32
505.503	2.25
505.853	2.2
506.203	2.27
506.553	2.29
506.903	2.33
507.253	2.32
507.603	2.39
507.953	2.38
508.303	2.53
508.652	2.34
509.002	2.41
509.352	2.36
509.701	2.33
510.051	2.42
510.4	2.3
510.75	2.36
511.099	2.29
511.449	2.43
511.798	2.52
512.147	2.27
512.496	2.35
512.846	2.34
513.195	2.42
513.544	2.43
513.893	2.43
514.242	2.43
514.591	2.46
514.939	2.43
515.288	2.44
515.637	2.48
515.986	2.44
516.334	2.42
516.683	2.36
517.032	2.5
517.38	2.35
517.729	2.41
518.077	2.49
518.426	2.4
518.774	2.47
519.122	2.36
519.47	2.46
519.819	2.36
520.167	2.42
520.515	2.48
520.863	2.41
521.211	2.44
521.559	2.57
521.907	2.39
522.255	2.5
522.602	2.56
522.95	2.47
523.298	2.48
523.645	2.55
523.993	2.56
524.341	2.62
524.688	2.62
525.036	2.69
525.383	2.63
525.73	2.49
526.078	2.54
526.425	2.5
526.772	2.45
527.119	2.46
527.466	2.46
527.814	2.46
528.161	2.57
528.508	2.5
528.854	2.62
529.201	2.44
529.548	2.41
529.895	2.39
530.242	2.36
530.588	2.42
530.935	2.47
531.282	2.51
531.628	2.52
531.975	2.58
532.321	2.61
532.667	2.53
533.014	2.62
533.36	2.57
533.706	2.64
534.052	2.47
534.399	2.56
534.745	2.49
535.091	2.54
535.437	2.56
535.783	2.56
536.129	2.66
536.474	2.65
536.82	2.61
537.166	2.71
537.512	2.71
537.857	2.6
538.203	2.65
538.549	2.72
538.894	2.71
539.239	2.76
539.585	2.71
539.93	2.64
540.276	2.79
540.621	2.74
540.966	2.77
541.311	2.81
541.656	2.85
542.001	2.72
542.346	2.67
542.691	2.59
543.036	2.62
543.381	2.66
543.726	2.71
544.071	2.73
544.415	2.69
544.76	2.74
545.105	2.78
545.449	2.75
545.794	2.8
546.138	2.84
546.483	2.98
546.827	2.82
547.171	2.7
547.516	2.87
547.86	2.82
548.204	2.83
548.548	2.84
548.892	2.9
549.236	2.94
549.58	2.78
549.924	2.99
550.268	2.93
550.612	2.97
550.956	3.04
551.3	2.93
551.643	2.93
551.987	3.18
552.33	3.27
552.674	3.03
553.017	2.91
553.361	3.18
553.704	3.1
554.048	3.12
554.391	3.1
554.734	3.15
555.077	3
555.42	3.14
555.764	3.14
556.107	3.18
556.45	3.26
556.793	3.27
557.135	3.13
557.478	3.32
557.821	3.21
558.164	3.03
558.507	3.23
558.849	3.07
559.192	3.4
559.534	3.42
559.877	3.21
560.219	3.24
560.562	3.4
560.904	3.56
561.246	3.02
561.589	3.32
561.931	3.37
562.273	3.24
562.615	3.27
562.957	3.27
563.299	3.42
563.641	3.32
563.983	3.36
564.325	3.42
564.667	3.46
565.008	3.54
565.35	3.41
565.692	3.5
566.033	3.5
566.375	3.23
566.716	3.24
567.058	3.3
567.399	3.5
567.741	3.44
568.082	3.43
568.423	3.59
568.764	3.45
569.105	3.39
569.447	3.59
569.788	3.45
570.129	3.47
570.47	3.43
570.811	3.41
571.151	3.44
571.492	3.69
571.833	3.71
572.174	3.55
572.514	3.46
572.855	3.7
573.195	3.7
573.536	3.62
573.876	3.62
574.217	3.48
574.557	3.66
574.898	3.84
575.238	3.96
575.578	3.88
575.918	3.69
576.258	3.72
576.598	3.54
576.938	3.82
577.278	3.82
577.618	3.51
577.958	3.99
578.298	3.88
578.638	3.73
578.977	3.71
579.317	3.66
579.657	3.71
579.996	3.87
580.336	3.72
580.675	3.95
581.014	4.1
581.354	4.12
581.693	3.89
582.032	4.08
582.372	3.89
582.711	3.77
583.05	4.08
583.389	4.07
583.728	4.03
584.067	4.13
584.406	3.95
584.745	4.04
585.083	4.08
585.422	4.27
585.761	4.02
586.1	4.3
586.438	4.08
586.777	4.08
587.115	4.2
587.454	4.25
587.792	4.17
588.13	4.14
588.469	4.19
588.807	4.28
589.145	4.19
589.483	4.44
589.821	4.22
590.159	4.29
590.497	4.33
590.835	4.57
591.173	4.38
591.511	4.26
591.849	4.36
592.187	4.25
592.524	4.39
592.862	4.32
593.2	4.3
593.537	4.68
593.875	4.27
594.212	4.29
594.55	4.17
594.887	4.79
595.224	4.43
595.561	4.55
595.899	4.49
596.236	4.64
596.573	4.7
596.91	4.68
597.247	4.44
597.584	4.61
597.921	4.57
598.258	4.5
598.594	4.6
598.931	4.59
599.268	4.66
599.604	4.57
599.941	4.75
600.277	4.76
600.614	4.61
600.95	4.79
601.287	4.71
601.623	4.91
601.959	4.79
602.296	4.85
602.632	4.68
602.968	4.82
603.304	4.6
603.64	4.81
603.976	4.89
604.312	4.98
604.648	4.89
604.984	4.81
605.319	5.08
605.655	4.84
605.991	4.78
606.326	4.92
606.662	4.71
606.998	5.1
607.333	4.81
607.668	5.07
608.004	5.14
608.339	4.98
608.674	5.18
609.01	4.96
609.345	5.03
609.68	5.27
610.015	5.29
610.35	5.09
610.685	5.01
611.02	5.16
611.355	5.1
611.689	5.02
612.024	5.14
612.359	4.89
612.694	5.11
613.028	5.38
613.363	4.9
613.697	5.48
614.032	5.41
614.366	5.68
614.7	5.57
615.035	5.21
615.369	5.09
615.703	5.23
616.037	5.39
616.371	5.41
616.705	5.44
617.039	5.74
617.373	5.81
617.707	5.4
618.041	5.64
618.375	5.08
618.709	5.63
619.042	5.68
619.376	5.29
619.71	5.31
620.043	5.67
620.377	5.67
620.71	5.44
621.043	5.66
621.377	5.67
621.71	6.03
622.043	5.57
622.376	5.9
622.709	5.86
623.043	5.91
623.376	6.19
623.709	5.73
624.041	5.52
624.374	5.81
624.707	6.17
625.04	5.67
625.373	6.19
625.705	6.11
626.038	5.52
626.37	6.11
626.703	5.91
627.035	5.96
627.368	5.85
627.7	6.2
628.032	5.92
628.365	6
628.697	5.86
629.029	6.07
629.361	6.18
629.693	6.11
630.025	6.09
630.357	5.82
630.689	6.39
631.021	6.21
631.353	6.1
631.684	6.45
632.016	6.53
632.348	6.56
632.679	6.42
633.011	6.2
633.342	6.46
633.674	6.42
634.005	6.31
634.336	6.33
634.668	6.4
634.999	6.29
635.33	6.09
635.661	6.54
635.992	6.16
636.323	6.6
636.654	5.94
636.985	6.34
637.316	6.34
637.647	6.41
637.977	6.63
638.308	6.45
638.639	6.52
638.969	6.3
639.3	6.72
639.63	6.8
639.961	6.75
640.291	6.7
640.622	6.37
640.952	6.82
641.282	6.77
641.612	6.69
641.943	7.21
642.273	7.51
642.603	6.44
642.933	6.96
643.263	6.68
643.592	6.2
643.922	6.88
644.252	7.35
644.582	6.76
644.911	6.4
645.241	6.97
645.571	7.13
645.9	7.09
646.23	6.88
646.559	6.91
646.888	6.96
647.218	7.22
647.547	7.11
647.876	7.21
648.205	7.5
648.534	7.01
648.863	6.81
649.192	6.93
649.521	7.47
649.85	7.33
650.179	7.46
650.508	7.42
650.837	7.15
651.165	7.11
651.494	7.17
651.822	7.12
652.151	6.95
652.479	7.36
652.808	7.79
653.136	7.56
653.465	7.46
653.793	7.45
654.121	7.7
654.449	7.62
654.777	7.22
655.105	7.91
655.433	7.87
655.761	7.59
656.089	7.64
656.417	7.33
656.745	7.08
657.073	7.58
657.4	7.12
657.728	8.17
658.056	7.99
658.383	7.68
658.711	8.37
659.038	7.82
659.365	7.32
659.693	7.27
660.02	7.31
660.347	8.05
660.674	7.92
661.001	7.74
661.329	7.91
661.656	7.68
661.982	7.62
662.309	7.8
662.636	7.83
662.963	7.97
663.29	7.96
663.616	8.31
663.943	7.62
664.27	8.17
664.596	7.54
664.923	7.99
665.249	8.29
665.576	8.22
665.902	8.45
666.228	8.7
666.554	7.89
666.881	8.38
667.207	8.87
667.533	8.04
667.859	7.83
668.185	8.9
668.511	8.15
668.837	8.91
669.162	8.52
669.488	8.57
669.814	8.62
670.139	8.89
670.465	8.32
670.791	8.29
671.116	8.46
671.442	8.7
671.767	8.4
672.092	8.77
672.418	8.19
672.743	8.7
673.068	8.89
673.393	8.66
673.718	8.94
674.043	8.93
674.368	8.52
674.693	8.45
675.018	9.06
675.343	8.22
675.667	9.19
675.992	8.38
676.317	8.52
676.641	7.81
676.966	9.1
677.29	9.05
677.615	8.01
677.939	9.11
678.264	9.16
678.588	8.6
678.912	8.37
679.236	8.91
679.56	8.62
679.885	9.14
680.209	9.32
680.532	8.59
680.856	8.74
681.18	8.37
681.504	8.75
681.828	9.52
682.152	8.83
682.475	9.04
682.799	8.89
683.122	9.65
683.446	9.35
683.769	9.19
684.093	9.05
684.416	9.6
684.739	9.45
685.062	10.05
685.386	9.55
685.709	9.69
686.032	9.8
686.355	9.56
686.678	9.76
687.001	10.2
687.324	9.38
687.646	10.12
687.969	9.95
688.292	9.6
688.614	10.06
688.937	9.14
689.26	9.04
689.582	9.84
689.904	9.84
690.227	9.62
690.549	9.78
690.871	10.08
691.194	9.83
691.516	9.76
691.838	9.76
692.16	9.85
692.482	9.91
692.804	9.93
