Data from 0021_forehead_Reflection__2__28.txt Node

Date: Thu Oct 20 20:33:04 CDT 2022
User: ToomeyLab
Spectrometer: FLMS14357
Trigger mode: 0
Integration Time (sec): 1.000000E-2
Scans to average: 100
Electric dark correction enabled: true
Nonlinearity correction enabled: false
Boxcar width: 0
XAxis mode: Wavelengths
Number of Pixels in Spectrum: 2048
>>>>>Begin Spectral Data<<<<<
189.047	279.12
189.435	279.12
189.823	279.12
190.211	21.44
190.599	51.92
190.987	-108.91
191.375	-34.64
191.763	-51.28
192.151	79.05
192.538	94.39
192.926	33.43
193.314	1554.84
193.702	276.7
194.089	17.34
194.477	111.01
194.864	-259.14
195.252	115.98
195.639	215.27
196.027	199.75
196.414	-74.78
196.801	1846.96
197.189	134
197.576	-181.47
197.963	35.21
198.351	22.69
198.738	31.12
199.125	56.54
199.512	35.44
199.899	39.37
200.286	22.61
200.673	61.81
201.06	50.24
201.447	47.06
201.833	37.59
202.22	9.29
202.607	49.13
202.994	57.39
203.38	-9.8
203.767	30.83
204.154	13.65
204.54	36.02
204.927	37.64
205.313	32.76
205.699	69.81
206.086	75.41
206.472	26.55
206.858	34.96
207.245	38.22
207.631	27.13
208.017	43.26
208.403	43.17
208.789	14.93
209.175	29.55
209.561	20.11
209.947	27.39
210.333	34.68
210.719	46.48
211.105	3.6
211.491	4.14
211.876	44.1
212.262	-15.08
212.648	26.98
213.034	18.67
213.419	20.03
213.805	8.01
214.19	28.04
214.576	18.9
214.961	29.25
215.346	10.12
215.732	40.48
216.117	44.87
216.502	19.42
216.888	45.24
217.273	29.51
217.658	27.75
218.043	-4.32
218.428	12.59
218.813	14.45
219.198	18.38
219.583	33.6
219.968	7.87
220.353	5.4
220.738	44.53
221.122	19.62
221.507	15.7
221.892	32.83
222.276	13.39
222.661	-4.79
223.046	23.67
223.43	14.61
223.815	7.35
224.199	0.58
224.583	16.15
224.968	11.99
225.352	7.02
225.736	3.45
226.121	16.8
226.505	12.55
226.889	4.88
227.273	5.98
227.657	11.45
228.041	6.62
228.425	7.71
228.809	5.92
229.193	7.7
229.577	5.54
229.961	4.44
230.344	5.06
230.728	6.1
231.112	5.45
231.495	5.21
231.879	7.02
232.263	7.69
232.646	6.86
233.03	4.47
233.413	7.74
233.797	4.23
234.18	5.77
234.563	5.59
234.946	6.8
235.33	4.7
235.713	7.28
236.096	6.35
236.479	5.01
236.862	6.17
237.245	7.23
237.628	6.24
238.011	4.53
238.394	7.64
238.777	5.29
239.16	6.69
239.543	6.48
239.925	6.74
240.308	8.11
240.691	4.84
241.073	7.35
241.456	6.32
241.838	5.08
242.221	6.99
242.603	6.72
242.986	5.77
243.368	5.22
243.75	5.7
244.133	5.29
244.515	5.54
244.897	6.2
245.279	6.13
245.661	5.79
246.043	5.22
246.425	6.48
246.807	6.86
247.189	6
247.571	5.38
247.953	5.89
248.335	5.5
248.717	5.55
249.098	5.55
249.48	5.88
249.862	5.81
250.243	5.49
250.625	5.75
251.006	6.6
251.388	6.78
251.769	6.11
252.151	6.45
252.532	5.29
252.913	6
253.295	5.2
253.676	5.9
254.057	5.89
254.438	6.23
254.819	7.26
255.2	6.62
255.581	7.18
255.962	6.81
256.343	7.58
256.724	6.86
257.105	6.43
257.486	6.64
257.867	5.68
258.247	6.54
258.628	5.88
259.009	5.91
259.389	5.72
259.77	6.35
260.15	5.78
260.531	5.89
260.911	5.32
261.292	5.53
261.672	5.58
262.052	5.49
262.432	6.04
262.813	6.4
263.193	5.49
263.573	5.45
263.953	5.93
264.333	5.88
264.713	5.59
265.093	6.28
265.473	6.53
265.853	5.81
266.233	6.03
266.612	5.05
266.992	6.56
267.372	6.74
267.752	5.98
268.131	5.31
268.511	5.32
268.89	5.7
269.27	5.99
269.649	6.02
270.029	6.31
270.408	5.34
270.787	6.18
271.167	6
271.546	5.6
271.925	5.89
272.304	5.71
272.683	5.9
273.062	5.79
273.441	6.07
273.82	5.47
274.199	5.62
274.578	5.57
274.957	5.94
275.336	5.53
275.715	6.03
276.093	5.79
276.472	5.86
276.851	5.45
277.229	4.8
277.608	5.77
277.986	5.26
278.365	5.63
278.743	5.49
279.122	6.12
279.5	5.21
279.878	5.79
280.257	5
280.635	6.16
281.013	5.97
281.391	5.66
281.769	5.62
282.147	6.06
282.525	5.3
282.903	5.94
283.281	6.04
283.659	5.63
284.037	5.52
284.415	5.51
284.792	5.32
285.17	5.9
285.548	5.55
285.925	6.22
286.303	5.68
286.68	5.82
287.058	5.76
287.435	5.67
287.813	5.49
288.19	5.88
288.567	5.38
288.945	5.96
289.322	5.49
289.699	6.62
290.076	6.07
290.453	5.76
290.83	5.74
291.207	6.44
291.584	5.9
291.961	6.13
292.338	6.28
292.715	5.89
293.092	6.77
293.469	7.05
293.845	6.35
294.222	6.77
294.599	7.07
294.975	6.53
295.352	7.02
295.728	7.04
296.105	6.63
296.481	6.98
296.858	7.24
297.234	6.78
297.61	6.74
297.986	6.84
298.363	6.77
298.739	7.48
299.115	7.23
299.491	7.11
299.867	7.14
300.243	7.62
300.619	7.88
300.995	7.29
301.371	7.76
301.746	7.9
302.122	7.14
302.498	8.27
302.874	7.57
303.249	7.75
303.625	8.17
304	8.11
304.376	7.87
304.751	8.24
305.127	7.56
305.502	8.31
305.878	8.41
306.253	8.63
306.628	8.32
307.003	8.64
307.378	8.83
307.754	8.95
308.129	8.54
308.504	9.08
308.879	9.55
309.254	9.3
309.629	9.76
310.003	9.24
310.378	9.4
310.753	9.64
311.128	8.97
311.502	9.51
311.877	9.48
312.252	9.79
312.626	9.77
313.001	9.6
313.375	9.91
313.75	10.25
314.124	9.47
314.498	10.22
314.873	10.55
315.247	10.87
315.621	11
315.995	10.82
316.369	10.58
316.743	11.37
317.117	10.87
317.491	10.76
317.865	11.26
318.239	11.82
318.613	11.1
318.987	11.39
319.361	11.44
319.734	11.38
320.108	11.58
320.482	11.8
320.855	11.98
321.229	11.91
321.602	12.09
321.976	12.31
322.349	12.15
322.723	12.33
323.096	11.58
323.469	12.29
323.843	12.27
324.216	12.13
324.589	12.34
324.962	12.74
325.335	12.23
325.708	12.63
326.081	12.63
326.454	12.82
326.827	12.83
327.2	13.27
327.573	12.87
327.945	12.74
328.318	12.87
328.691	12.99
329.063	12.43
329.436	12.2
329.809	13.52
330.181	13.79
330.553	13.11
330.926	13.53
331.298	12.7
331.671	13.97
332.043	14.04
332.415	14.07
332.787	14.03
333.159	14.2
333.532	14.59
333.904	13.68
334.276	14.33
334.648	13.75
335.02	14.06
335.391	14.28
335.763	14.38
336.135	14.51
336.507	14.34
336.879	14.52
337.25	14.23
337.622	14.35
337.993	14.33
338.365	14.71
338.736	14.97
339.108	14.96
339.479	14.75
339.851	15.33
340.222	15.1
340.593	14.88
340.964	15.16
341.336	15.16
341.707	15.48
342.078	15.9
342.449	15.22
342.82	15.39
343.191	15.17
343.562	15.46
343.933	15.16
344.303	16.11
344.674	14.99
345.045	15.7
345.416	15.72
345.786	16.37
346.157	15.98
346.527	15.91
346.898	15.93
347.268	15.97
347.639	16.4
348.009	15.93
348.38	16.61
348.75	16.34
349.12	15.99
349.49	16.57
349.861	16.57
350.231	16.44
350.601	17.05
350.971	16.48
351.341	16.61
351.711	16.93
352.081	17.4
352.45	16.75
352.82	16.84
353.19	17.08
353.56	17.45
353.929	17.08
354.299	16.91
354.669	18.1
355.038	17.15
355.408	17.39
355.777	17.67
356.147	17.46
356.516	17.67
356.885	17.89
357.254	18.08
357.624	17.45
357.993	17.65
358.362	17.87
358.731	18.2
359.1	17.99
359.469	18.01
359.838	18.11
360.207	18.21
360.576	18.13
360.945	18.23
361.314	18.91
361.682	18.29
362.051	18.5
362.42	18.44
362.788	18.4
363.157	18.5
363.525	18.78
363.894	18.6
364.262	18.68
364.631	18.79
364.999	18.65
365.367	18.83
365.735	18.98
366.104	19.13
366.472	19.07
366.84	19.11
367.208	19.08
367.576	19.45
367.944	19.65
368.312	19.44
368.68	19.69
369.048	19.57
369.416	20.09
369.783	19.36
370.151	20.15
370.519	19.9
370.886	19.55
371.254	19.89
371.621	19.89
371.989	19.53
372.356	19.88
372.724	20.2
373.091	19.94
373.458	20.24
373.826	20.1
374.193	20.12
374.56	20.79
374.927	20.35
375.294	20.5
375.661	20.47
376.028	20.82
376.395	20.62
376.762	20.69
377.129	20.91
377.496	20.73
377.863	20.89
378.229	21.07
378.596	20.75
378.963	20.84
379.329	21.15
379.696	21.25
380.062	21.07
380.429	21.26
380.795	21.15
381.161	21.36
381.528	21.4
381.894	21.43
382.26	21.24
382.626	21.58
382.993	22.02
383.359	21.81
383.725	21.93
384.091	21.59
384.457	21.85
384.823	21.45
385.188	21.95
385.554	21.99
385.92	21.99
386.286	22.56
386.651	22.31
387.017	22.12
387.383	22.25
387.748	22.21
388.114	22.06
388.479	22.64
388.845	22.29
389.21	22.26
389.575	22.24
389.94	22.67
390.306	22.69
390.671	22.7
391.036	23.02
391.401	23.1
391.766	23.19
392.131	22.74
392.496	22.69
392.861	23.31
393.226	23.09
393.591	23.01
393.956	22.82
394.32	23.44
394.685	23.35
395.05	23.13
395.414	23.55
395.779	23.73
396.143	23.61
396.508	23.85
396.872	23.56
397.236	24.03
397.601	23.75
397.965	23.98
398.329	23.64
398.694	23.92
399.058	23.99
399.422	24.02
399.786	24.05
400.15	24.26
400.514	23.99
400.878	24.29
401.242	24.38
401.605	24.19
401.969	24.3
402.333	24.54
402.697	24.44
403.06	24.39
403.424	24.66
403.787	24.51
404.151	24.79
404.514	24.58
404.878	24.64
405.241	24.63
405.604	25.16
405.968	24.81
406.331	24.88
406.694	25.02
407.057	24.84
407.42	25.14
407.783	25.36
408.146	25.18
408.509	25.36
408.872	25.37
409.235	25.66
409.598	25.82
409.961	25.64
410.323	25.64
410.686	25.76
411.049	25.6
411.411	25.83
411.774	25.55
412.136	25.68
412.499	26.01
412.861	25.69
413.223	25.8
413.586	26.23
413.948	25.95
414.31	26.23
414.672	26.4
415.035	26.33
415.397	26.57
415.759	26.38
416.121	26.53
416.483	26.38
416.845	26.57
417.206	26.33
417.568	26.52
417.93	26.17
418.292	26.47
418.653	26.49
419.015	26.44
419.377	26.37
419.738	26.37
420.1	26.28
420.461	26.53
420.822	26.6
421.184	26.51
421.545	26.51
421.906	26.47
422.267	26.32
422.629	26.49
422.99	26.45
423.351	26.69
423.712	26.82
424.073	26.82
424.434	27.07
424.795	26.95
425.155	26.88
425.516	26.74
425.877	26.64
426.238	26.94
426.598	27.13
426.959	27.27
427.32	27.26
427.68	27.54
428.041	27.91
428.401	27.95
428.761	28.17
429.122	28.25
429.482	28.11
429.842	28.39
430.202	28.43
430.563	28.45
430.923	28.34
431.283	28.75
431.643	28.3
432.003	28.41
432.363	28.35
432.722	28.42
433.082	28.52
433.442	28.52
433.802	28.24
434.161	28.26
434.521	28.34
434.881	28.15
435.24	28.32
435.6	28.49
435.959	28.44
436.319	28.94
436.678	28.97
437.037	29.28
437.396	28.92
437.756	29.1
438.115	29
438.474	29.14
438.833	29.22
439.192	29.01
439.551	29.01
439.91	29.33
440.269	29.14
440.628	28.93
440.987	29.12
441.345	28.99
441.704	29.19
442.063	29.17
442.421	29.19
442.78	29.33
443.138	29.55
443.497	29.59
443.855	29.82
444.214	29.87
444.572	30.09
444.93	29.98
445.288	29.89
445.647	29.9
446.005	29.7
446.363	29.73
446.721	29.7
447.079	29.55
447.437	29.37
447.795	29.36
448.153	29.38
448.51	29.57
448.868	29.82
449.226	30.15
449.584	30.33
449.941	30.4
450.299	30.48
450.656	30.62
451.014	30.63
451.371	30.61
451.729	30.88
452.086	31.07
452.443	30.8
452.801	30.99
453.158	30.93
453.515	30.7
453.872	30.94
454.229	31.04
454.586	30.98
454.943	31.02
455.3	31.17
455.657	31.26
456.014	31.14
456.371	31.34
456.727	31.22
457.084	31.32
457.441	31.29
457.797	31.56
458.154	31.74
458.51	31.64
458.867	31.58
459.223	31.68
459.58	31.68
459.936	31.57
460.292	31.42
460.648	31.45
461.005	31.05
461.361	31.03
461.717	31.16
462.073	31.41
462.429	31.83
462.785	31.89
463.141	32.06
463.496	32.09
463.852	32.34
464.208	32.44
464.564	32.27
464.919	32.52
465.275	32.28
465.631	32.33
465.986	32.52
466.342	32.57
466.697	32.42
467.052	32.55
467.408	32.54
467.763	32.62
468.118	32.62
468.473	32.32
468.829	32.31
469.184	32.43
469.539	32.48
469.894	32.67
470.249	32.83
470.603	32.75
470.958	32.93
471.313	32.83
471.668	32.92
472.023	33.08
472.377	33.31
472.732	33.39
473.086	33.29
473.441	33.24
473.795	33.07
474.15	33.32
474.504	33.25
474.859	33.26
475.213	33.43
475.567	33.6
475.921	33.61
476.275	33.74
476.63	33.81
476.984	33.97
477.338	33.85
477.692	34
478.045	33.94
478.399	33.78
478.753	33.95
479.107	33.93
479.461	33.84
479.814	33.75
480.168	34.09
480.521	33.92
480.875	34.02
481.228	34.29
481.582	34.35
481.935	34.18
482.289	34.26
482.642	34.18
482.995	34.25
483.348	34.11
483.701	34.17
484.055	33.99
484.408	34.08
484.761	33.55
485.114	33.31
485.466	33.38
485.819	33.37
486.172	33.59
486.525	33.83
486.878	33.95
487.23	34.29
487.583	34.44
487.936	34.34
488.288	34.12
488.641	34.05
488.993	33.96
489.345	33.82
489.698	34.12
490.05	34.19
490.402	34.34
490.754	34.72
491.107	34.95
491.459	35.13
491.811	35.25
492.163	35.22
492.515	35.08
492.866	34.55
493.218	34.35
493.57	34.57
493.922	34.66
494.274	35.21
494.625	35.27
494.977	35.43
495.328	35.8
495.68	35.95
496.031	35.99
496.383	36.19
496.734	36.06
497.086	36.13
497.437	36.14
497.788	36.06
498.139	35.97
498.49	35.79
498.842	35.93
499.193	35.99
499.544	36.11
499.894	36.09
500.245	36.12
500.596	36.27
500.947	36.39
501.298	36.56
501.648	36.47
501.999	36.57
502.35	36.78
502.7	36.86
503.051	36.63
503.401	36.8
503.752	36.86
504.102	37.13
504.452	36.88
504.803	37.15
505.153	36.94
505.503	37
505.853	36.84
506.203	37.02
506.553	36.78
506.903	37.4
507.253	37.23
507.603	37.24
507.953	37.41
508.303	37.51
508.652	37.31
509.002	37.21
509.352	37.09
509.701	37.02
510.051	37.07
510.4	37.12
510.75	37.34
511.099	37.25
511.449	37.35
511.798	37.4
512.147	37.56
512.496	37.64
512.846	37.8
513.195	37.79
513.544	37.75
513.893	37.7
514.242	37.84
514.591	38.08
514.939	38.14
515.288	38
515.637	38.21
515.986	38.39
516.334	38.45
516.683	38.37
517.032	38.67
517.38	38.26
517.729	38.62
518.077	38.58
518.426	38.5
518.774	38.48
519.122	38.5
519.47	38.26
519.819	38.12
520.167	38.32
520.515	38.32
520.863	38.34
521.211	38.47
521.559	38.58
521.907	38.75
522.255	39
522.602	39.09
522.95	39.11
523.298	39.27
523.645	39.51
523.993	39.21
524.341	39.53
524.688	39.49
525.036	39.48
525.383	39.64
525.73	39.35
526.078	39.78
526.425	39.51
526.772	39.22
527.119	39.18
527.466	39.1
527.814	39.25
528.161	39.54
528.508	39.66
528.854	39.78
529.201	39.44
529.548	39.14
529.895	39.01
530.242	38.98
530.588	39.03
530.935	38.9
531.282	39.13
531.628	39.28
531.975	39.54
532.321	39.94
532.667	40.07
533.014	40.08
533.36	40.04
533.706	40.07
534.052	39.97
534.399	39.81
534.745	39.66
535.091	39.53
535.437	39.83
535.783	39.86
536.129	40.24
536.474	40.52
536.82	40.53
537.166	40.66
537.512	40.64
537.857	40.39
538.203	40.43
538.549	40.43
538.894	40.51
539.239	40.57
539.585	40.84
539.93	41.01
540.276	41.29
540.621	41.48
540.966	41.57
541.311	41.67
541.656	41.43
542.001	41.27
542.346	40.85
542.691	40.51
543.036	40.45
543.381	40.58
543.726	40.71
544.071	40.91
544.415	41.13
544.76	41.18
545.105	41.54
545.449	41.68
545.794	41.73
546.138	41.7
546.483	42.02
546.827	41.53
547.171	41.71
547.516	41.82
547.86	41.78
548.204	41.58
548.548	41.61
548.892	41.78
549.236	42.21
549.58	42.27
549.924	42.43
550.268	42.47
550.612	42.48
550.956	42.62
551.3	42.91
551.643	42.73
551.987	42.8
552.33	42.78
552.674	42.82
553.017	42.9
553.361	42.73
553.704	42.71
554.048	42.62
554.391	42.85
554.734	42.86
555.077	42.76
555.42	42.93
555.764	43.11
556.107	43.22
556.45	43.15
556.793	43.36
557.135	43.25
557.478	43.62
557.821	43.49
558.164	43.09
558.507	43.7
558.849	43.56
559.192	43.91
559.534	43.69
559.877	43.47
560.219	43.62
560.562	43.87
560.904	44.07
561.246	43.52
561.589	43.73
561.931	44.02
562.273	43.69
562.615	44.1
562.957	43.82
563.299	44.13
563.641	44.13
563.983	44.21
564.325	44.04
564.667	44.27
565.008	44.03
565.35	44.38
565.692	44.16
566.033	44.22
566.375	44.46
566.716	44.22
567.058	44.22
567.399	44.45
567.741	44.4
568.082	44.38
568.423	44.67
568.764	44.57
569.105	44.67
569.447	44.78
569.788	44.8
570.129	44.83
570.47	45.07
570.811	44.82
571.151	44.95
571.492	45.15
571.833	45.21
572.174	44.97
572.514	45.22
572.855	45.05
573.195	45.01
573.536	45.05
573.876	44.74
574.217	45.27
574.557	45.15
574.898	45.5
575.238	45.68
575.578	45.52
575.918	45.55
576.258	45.47
576.598	45.57
576.938	45.46
577.278	45.31
577.618	45.5
577.958	45.95
578.298	46.06
578.638	45.8
578.977	46.16
579.317	45.9
579.657	45.81
579.996	45.87
580.336	46.1
580.675	45.96
581.014	46.6
581.354	46.32
581.693	46.34
582.032	46.44
582.372	46.37
582.711	46.19
583.05	46.36
583.389	46.44
583.728	46.49
584.067	46.58
584.406	46.62
584.745	46.54
585.083	46.58
585.422	47.08
585.761	46.68
586.1	46.99
586.438	46.79
586.777	46.73
587.115	46.93
587.454	47
587.792	47.33
588.13	46.96
588.469	47.62
588.807	47.25
589.145	46.99
589.483	47.14
589.821	47.43
590.159	47.12
590.497	47.33
590.835	47.68
591.173	47.26
591.511	47.25
591.849	47.29
592.187	47.34
592.524	47.52
592.862	47.8
593.2	47.47
593.537	47.73
593.875	47.64
594.212	47.8
594.55	48.22
594.887	48.24
595.224	47.76
595.561	47.83
595.899	47.75
596.236	48.11
596.573	47.99
596.91	48.29
597.247	48.05
597.584	48.19
597.921	48.28
598.258	48.07
598.594	48.08
598.931	47.99
599.268	48.18
599.604	48.43
599.941	48.41
600.277	48.33
600.614	48.28
600.95	48.64
601.287	48.67
601.623	48.66
601.959	48.71
602.296	48.8
602.632	49.14
602.968	48.95
603.304	48.89
603.64	48.78
603.976	49.08
604.312	48.69
604.648	48.99
604.984	48.85
605.319	48.9
605.655	48.89
605.991	48.68
606.326	48.79
606.662	48.82
606.998	49.16
607.333	49.19
607.668	49.39
608.004	49.72
608.339	49.33
608.674	49.79
609.01	50.07
609.345	49.76
609.68	49.97
610.015	49.83
610.35	49.43
610.685	49.22
611.02	49.59
611.355	49.51
611.689	49.66
612.024	49.48
612.359	49.89
612.694	50
613.028	50.07
613.363	50.05
613.697	50.44
614.032	49.95
614.366	50.03
614.7	50.3
615.035	50.48
615.369	49.59
615.703	50.02
616.037	49.98
616.371	50.28
616.705	50.94
617.039	50.84
617.373	50.4
617.707	50.43
618.041	50.49
618.375	50.68
618.709	50.76
619.042	50.77
619.376	50.15
619.71	50.1
620.043	51.11
620.377	50.63
620.71	50.65
621.043	50.76
621.377	50.8
621.71	51.08
622.043	50.85
622.376	51.33
622.709	50.97
623.043	51.3
623.376	50.93
623.709	51.05
624.041	51.32
624.374	51.62
624.707	51.19
625.04	51.42
625.373	51.42
625.705	51.35
626.038	51.27
626.37	51.65
626.703	51.46
627.035	51.72
627.368	51.54
627.7	51.45
628.032	51.54
628.365	51.97
628.697	51.66
629.029	51.81
629.361	51.92
629.693	51.23
630.025	51.84
630.357	51.63
630.689	51.87
631.021	51.61
631.353	51.65
631.684	52.45
632.016	51.91
632.348	51.95
632.679	52.5
633.011	52.1
633.342	52.2
633.674	51.87
634.005	52.61
634.336	52.03
634.668	52.35
634.999	52.23
635.33	52.22
635.661	52.35
635.992	52.11
636.323	52.47
636.654	52.13
636.985	52.66
637.316	52.77
637.647	52.5
637.977	52.62
638.308	53.37
638.639	52.82
638.969	53.02
639.3	52.85
639.63	53.15
639.961	52.74
640.291	52.65
640.622	52.79
640.952	53.08
641.282	53.31
641.612	52.76
641.943	53.31
642.273	53.23
642.603	53.32
642.933	53.93
643.263	53.32
643.592	53.59
643.922	53.28
644.252	52.92
644.582	53.63
644.911	53.41
645.241	53.5
645.571	53.7
645.9	53.22
646.23	53.23
646.559	53.4
646.888	53.32
647.218	53.31
647.547	53.9
647.876	53.77
648.205	53.96
648.534	53.57
648.863	53.89
649.192	53.68
649.521	53.69
649.85	53.9
650.179	53.38
650.508	54.08
650.837	54.19
651.165	54.68
651.494	54.06
651.822	54.37
652.151	54.13
652.479	53.9
652.808	54.9
653.136	54.78
653.465	54.01
653.793	53.67
654.121	54.62
654.449	54.57
654.777	54.55
655.105	54.72
655.433	54.87
655.761	54.4
656.089	54.61
656.417	54.62
656.745	54.27
657.073	55.51
657.4	54.94
657.728	55.09
658.056	54.69
658.383	55.22
658.711	54.59
659.038	54.67
659.365	54.81
659.693	54.6
660.02	55
660.347	54.68
660.674	54.5
661.001	54.97
661.329	55.29
661.656	55.33
661.982	54.83
662.309	55.06
662.636	55.26
662.963	55.11
663.29	54.92
663.616	55.4
663.943	54.87
664.27	54.89
664.596	54.73
664.923	55.84
665.249	55.68
665.576	55.45
665.902	55.6
666.228	55.91
666.554	55.9
666.881	56.23
667.207	55.89
667.533	55.74
667.859	55.57
668.185	54.96
668.511	55.85
668.837	56.51
669.162	56.11
