Data from 0021_chest_Reflection__4__20.txt Node

Date: Thu Oct 20 20:30:34 CDT 2022
User: ToomeyLab
Spectrometer: FLMS14357
Trigger mode: 0
Integration Time (sec): 1.000000E-2
Scans to average: 100
Electric dark correction enabled: true
Nonlinearity correction enabled: false
Boxcar width: 0
XAxis mode: Wavelengths
Number of Pixels in Spectrum: 2048
>>>>>Begin Spectral Data<<<<<
189.047	123.97
189.435	123.97
189.823	123.97
190.211	76.96
190.599	60.04
190.987	-40.94
191.375	121.67
191.763	34.93
192.151	-402.06
192.538	-53.81
192.926	3.1
193.314	269.12
193.702	166.87
194.089	23.39
194.477	-16.27
194.864	-599.59
195.252	69.4
195.639	184.62
196.027	253.08
196.414	-136.81
196.801	-340.08
197.189	36.58
197.576	166.09
197.963	-348.72
198.351	33.13
198.738	26.86
199.125	-12.68
199.512	-17.91
199.899	-29.41
200.286	30.6
200.673	1.5
201.06	43.25
201.447	35.29
201.833	-38.74
202.22	-0.19
202.607	47.22
202.994	13.68
203.38	23.8
203.767	26.43
204.154	18.2
204.54	3.01
204.927	62.18
205.313	15.73
205.699	2.37
206.086	5.84
206.472	-5.85
206.858	26.85
207.245	32.35
207.631	3.81
208.017	12.75
208.403	17.11
208.789	35.03
209.175	40.52
209.561	28.55
209.947	34.93
210.333	23.57
210.719	23.8
211.105	4.62
211.491	13.48
211.876	6.08
212.262	-18.42
212.648	7.18
213.034	3.77
213.419	21.12
213.805	-3.76
214.19	14.8
214.576	5.7
214.961	22.76
215.346	11.31
215.732	26.77
216.117	14.28
216.502	6
216.888	47.56
217.273	33.36
217.658	19.23
218.043	-13.52
218.428	-1.25
218.813	-29.54
219.198	6.25
219.583	37.45
219.968	-1.89
220.353	-12.43
220.738	11.85
221.122	6.31
221.507	1.82
221.892	5.4
222.276	5.03
222.661	3.75
223.046	20.25
223.43	12.29
223.815	-3.03
224.199	5.34
224.583	10.47
224.968	10.05
225.352	8.6
225.736	4.88
226.121	11.41
226.505	5.73
226.889	6.86
227.273	4.88
227.657	3.09
228.041	5.03
228.425	5.16
228.809	3.97
229.193	4.48
229.577	3.12
229.961	2.78
230.344	3.91
230.728	3.85
231.112	3.13
231.495	3.1
231.879	3.45
232.263	4.27
232.646	4.55
233.03	1.35
233.413	4.79
233.797	2.36
234.18	1.66
234.563	2.89
234.946	2.54
235.33	2.45
235.713	6.11
236.096	3.31
236.479	2.75
236.862	5.17
237.245	3.67
237.628	2.63
238.011	3.64
238.394	3
238.777	3.83
239.16	3.7
239.543	0.68
239.925	3.71
240.308	4.08
240.691	1.89
241.073	5.05
241.456	3.69
241.838	3.97
242.221	5.28
242.603	3.72
242.986	4.02
243.368	3.42
243.75	3.72
244.133	3.38
244.515	3.66
244.897	3.48
245.279	2.91
245.661	2.66
246.043	2.62
246.425	3.41
246.807	3.27
247.189	3.5
247.571	3.11
247.953	3.27
248.335	3.21
248.717	3.25
249.098	3.25
249.48	2.92
249.862	3.47
250.243	2.96
250.625	3.41
251.006	3.95
251.388	4.04
251.769	3.83
252.151	3.89
252.532	3.32
252.913	3.5
253.295	3.41
253.676	3.31
254.057	3.33
254.438	3.65
254.819	4.08
255.2	2.72
255.581	3.68
255.962	3.78
256.343	5.37
256.724	4
257.105	3.56
257.486	3.78
257.867	3.13
258.247	3.64
258.628	3.33
259.009	3.16
259.389	3.34
259.77	3.98
260.15	3.32
260.531	3.35
260.911	2.86
261.292	3.16
261.672	2.89
262.052	2.98
262.432	3.19
262.813	3.2
263.193	3.71
263.573	2.53
263.953	2.68
264.333	3.13
264.713	3.09
265.093	3.59
265.473	3.27
265.853	3.05
266.233	3.16
266.612	2.27
266.992	4
267.372	3.11
267.752	3.18
268.131	2.83
268.511	2.62
268.89	2.91
269.27	3.33
269.649	2.94
270.029	3.5
270.408	2.38
270.787	2.96
271.167	3.72
271.546	2.89
271.925	2.92
272.304	3.35
272.683	2.64
273.062	3.15
273.441	3.14
273.82	3.03
274.199	3.06
274.578	3.28
274.957	3.26
275.336	3.07
275.715	2.16
276.093	3.28
276.472	2.99
276.851	2.96
277.229	2.5
277.608	3.12
277.986	2.44
278.365	2.7
278.743	3.13
279.122	3.98
279.5	2.37
279.878	2.97
280.257	2.7
280.635	3.51
281.013	3.5
281.391	3.36
281.769	3.22
282.147	3.5
282.525	3.08
282.903	3.11
283.281	3.16
283.659	2.78
284.037	3.13
284.415	3.58
284.792	2.74
285.17	2.98
285.548	2.47
285.925	3.2
286.303	2.84
286.68	2.88
287.058	3.11
287.435	2.85
287.813	2.9
288.19	3.21
288.567	2.42
288.945	3.32
289.322	2.15
289.699	3.37
290.076	3.14
290.453	3.07
290.83	2.93
291.207	3.21
291.584	2.36
291.961	2.76
292.338	2.66
292.715	2.65
293.092	3.2
293.469	3.33
293.845	2.68
294.222	3.22
294.599	3.05
294.975	3.76
295.352	3.23
295.728	3.31
296.105	2.73
296.481	3.12
296.858	3.21
297.234	3.05
297.61	2.71
297.986	2.79
298.363	3.21
298.739	3.08
299.115	3.11
299.491	2.92
299.867	3.02
300.243	3.03
300.619	2.74
300.995	2.9
301.371	2.97
301.746	2.85
302.122	2.31
302.498	3.38
302.874	2.87
303.249	3.23
303.625	2.62
304	2.96
304.376	3.18
304.751	3.08
305.127	2.46
305.502	3.15
305.878	2.71
306.253	3.17
306.628	2.96
307.003	2.59
307.378	3.22
307.754	3.47
308.129	2.92
308.504	2.75
308.879	3.28
309.254	3.29
309.629	3.21
310.003	3.39
310.378	3.6
310.753	3.07
311.128	2.76
311.502	2.74
311.877	2.92
312.252	3.12
312.626	2.92
313.001	2.81
313.375	3.44
313.75	2.76
314.124	3.05
314.498	2.81
314.873	3.1
315.247	3.02
315.621	2.86
315.995	3.2
316.369	3.01
316.743	3.36
317.117	2.83
317.491	2.9
317.865	3.36
318.239	3.27
318.613	2.94
318.987	3.21
319.361	3.47
319.734	2.99
320.108	3.95
320.482	2.95
320.855	3.52
321.229	3.17
321.602	3.44
321.976	3.11
322.349	3.31
322.723	3.15
323.096	2.54
323.469	2.78
323.843	3.02
324.216	3.55
324.589	3.18
324.962	3.49
325.335	2.85
325.708	2.85
326.081	3.09
326.454	3.14
326.827	2.92
327.2	3.11
327.573	3.23
327.945	3.21
328.318	3
328.691	3.07
329.063	2.9
329.436	2.58
329.809	3.18
330.181	3.03
330.553	2.93
330.926	2.89
331.298	2.34
331.671	3.37
332.043	2.88
332.415	3.15
332.787	3.09
333.159	2.66
333.532	3.03
333.904	2.97
334.276	3.25
334.648	2.63
335.02	2.6
335.391	3.13
335.763	2.89
336.135	2.29
336.507	2.74
336.879	3.03
337.25	2.39
337.622	3.01
337.993	2.95
338.365	2.87
338.736	3.24
339.108	3.09
339.479	3.13
339.851	3.23
340.222	2.98
340.593	2.93
340.964	2.84
341.336	3.35
341.707	2.9
342.078	3.23
342.449	3.08
342.82	2.95
343.191	2.87
343.562	3.08
343.933	2.9
344.303	3.27
344.674	2.21
345.045	3.15
345.416	2.76
345.786	3.14
346.157	2.87
346.527	2.86
346.898	2.9
347.268	2.8
347.639	2.82
348.009	2.81
348.38	3.1
348.75	2.8
349.12	2.65
349.49	3.32
349.861	2.8
350.231	2.29
350.601	3.09
350.971	2.96
351.341	2.9
351.711	3
352.081	3.41
352.45	2.6
352.82	2.87
353.19	2.84
353.56	3.2
353.929	3.25
354.299	3.02
354.669	2.98
355.038	2.71
355.408	2.85
355.777	3.18
356.147	2.67
356.516	3.01
356.885	3.05
357.254	3.1
357.624	2.75
357.993	3.06
358.362	3.05
358.731	3.33
359.1	3.22
359.469	2.89
359.838	2.86
360.207	3.16
360.576	3.08
360.945	2.93
361.314	2.9
361.682	2.93
362.051	3.21
362.42	2.85
362.788	2.69
363.157	2.85
363.525	2.88
363.894	2.96
364.262	2.71
364.631	2.9
364.999	2.68
365.367	2.6
365.735	2.84
366.104	3.17
366.472	2.86
366.84	2.61
367.208	3.05
367.576	3.05
367.944	3.09
368.312	3.13
368.68	3.41
369.048	2.94
369.416	3.1
369.783	2.7
370.151	2.99
370.519	3.18
370.886	3.03
371.254	3.32
371.621	2.57
371.989	2.84
372.356	2.97
372.724	3.42
373.091	3.32
373.458	2.91
373.826	3.18
374.193	2.9
374.56	2.95
374.927	3.24
375.294	3.02
375.661	2.73
376.028	2.74
376.395	2.88
376.762	2.73
377.129	3.16
377.496	3.27
377.863	3.17
378.229	3.02
378.596	2.94
378.963	3
379.329	2.77
379.696	3.14
380.062	3.08
380.429	3.18
380.795	2.88
381.161	2.89
381.528	2.86
381.894	3.13
382.26	2.84
382.626	2.75
382.993	3.02
383.359	2.99
383.725	2.93
384.091	2.96
384.457	2.53
384.823	3.16
385.188	3.24
385.554	2.99
385.92	3.09
386.286	2.92
386.651	2.9
387.017	2.75
387.383	3
387.748	2.77
388.114	3.04
388.479	3.1
388.845	3.05
389.21	2.95
389.575	2.75
389.94	2.99
390.306	2.8
390.671	2.77
391.036	3.1
391.401	2.94
391.766	2.69
392.131	2.97
392.496	3.06
392.861	2.93
393.226	3.08
393.591	2.93
393.956	2.78
394.32	2.84
394.685	2.97
395.05	2.75
395.414	3.04
395.779	2.97
396.143	2.94
396.508	2.92
396.872	2.76
397.236	3.05
397.601	2.95
397.965	3.02
398.329	2.97
398.694	3.1
399.058	3.06
399.422	2.72
399.786	2.87
400.15	2.72
400.514	2.79
400.878	2.94
401.242	3.21
401.605	2.96
401.969	3.04
402.333	2.75
402.697	3.12
403.06	2.93
403.424	3.06
403.787	2.96
404.151	2.89
404.514	2.81
404.878	2.94
405.241	2.91
405.604	3.24
405.968	2.92
406.331	2.99
406.694	2.95
407.057	3.03
407.42	2.78
407.783	2.88
408.146	3.17
408.509	3.02
408.872	3.2
409.235	2.92
409.598	2.8
409.961	2.87
410.323	2.74
410.686	2.98
411.049	2.86
411.411	3.16
411.774	3.09
412.136	3.03
412.499	2.99
412.861	2.82
413.223	3.06
413.586	3.13
413.948	3.14
414.31	3.05
414.672	2.99
415.035	3.05
415.397	2.96
415.759	2.93
416.121	2.95
416.483	3.16
416.845	3.08
417.206	2.94
417.568	2.87
417.93	2.81
418.292	2.99
418.653	2.77
419.015	2.84
419.377	2.95
419.738	2.95
420.1	2.78
420.461	2.94
420.822	2.92
421.184	2.99
421.545	2.95
421.906	2.87
422.267	2.76
422.629	2.96
422.99	2.85
423.351	2.9
423.712	2.89
424.073	2.81
424.434	2.91
424.795	2.88
425.155	2.93
425.516	2.89
425.877	2.79
426.238	2.97
426.598	2.84
426.959	2.93
427.32	3.07
427.68	3.07
428.041	2.98
428.401	3.07
428.761	3.11
429.122	3.08
429.482	3.06
429.842	3.15
430.202	3.06
430.563	3.01
430.923	3.18
431.283	3.18
431.643	2.97
432.003	3.11
432.363	2.93
432.722	3.13
433.082	3.02
433.442	3.19
433.802	2.99
434.161	3.08
434.521	3
434.881	2.99
435.24	2.81
435.6	3.15
435.959	2.93
436.319	2.97
436.678	2.96
437.037	3.2
437.396	2.93
437.756	2.91
438.115	2.91
438.474	3.07
438.833	3.06
439.192	2.95
439.551	2.98
439.91	3.11
440.269	3.09
440.628	3.17
440.987	3.09
441.345	3
441.704	3
442.063	2.96
442.421	2.94
442.78	2.96
443.138	3.05
443.497	3.13
443.855	3.11
444.214	3.05
444.572	3.09
444.93	3.14
445.288	3.12
445.647	2.96
446.005	3.03
446.363	3.01
446.721	3.1
447.079	2.97
447.437	3.01
447.795	2.93
448.153	2.88
448.51	3.03
448.868	3.03
449.226	2.97
449.584	3.1
449.941	3.02
450.299	3.19
450.656	2.95
451.014	3.06
451.371	3.18
451.729	3.14
452.086	3.09
452.443	3.12
452.801	3.14
453.158	3.02
453.515	3.05
453.872	3.06
454.229	3.22
454.586	2.98
454.943	3.19
455.3	3.1
455.657	3.13
456.014	3.19
456.371	3.03
456.727	3.23
457.084	3.19
457.441	3
457.797	3.24
458.154	3.25
458.51	3.2
458.867	3.04
459.223	3.07
459.58	3.07
459.936	3.09
460.292	3.05
460.648	3.03
461.005	3.08
461.361	2.89
461.717	3.06
462.073	2.93
462.429	3.04
462.785	2.95
463.141	3.16
463.496	3.12
463.852	3.27
464.208	3.16
464.564	3.29
464.919	3.39
465.275	3.16
465.631	3.16
465.986	3.22
466.342	3.22
466.697	3.01
467.052	3.12
467.408	3.09
467.763	3.08
468.118	3.05
468.473	2.98
468.829	3.13
469.184	3.11
469.539	3.09
469.894	3.16
470.249	3.07
470.603	3.27
470.958	3.36
471.313	3.24
471.668	3.21
472.023	3.08
472.377	3.2
472.732	3.2
473.086	3.16
473.441	3.14
473.795	3.23
474.15	2.94
474.504	3.14
474.859	3.05
475.213	3.26
475.567	3.3
475.921	3.17
476.275	3.17
476.63	3.08
476.984	3.17
477.338	3.23
477.692	3.19
478.045	3.3
478.399	3.27
478.753	3.08
479.107	3.03
479.461	3.11
479.814	3.09
480.168	3.15
480.521	2.97
480.875	3.2
481.228	3.21
481.582	3.14
481.935	3.11
482.289	3.17
482.642	3.15
482.995	3.15
483.348	3.12
483.701	3.09
484.055	3.14
484.408	3.02
484.761	3.01
485.114	2.93
485.466	2.91
485.819	2.93
486.172	3.01
486.525	3.06
486.878	3
487.23	3.09
487.583	3.08
487.936	3.07
488.288	3.04
488.641	3.01
488.993	3
489.345	3
489.698	3.04
490.05	3.07
490.402	3.11
490.754	3.14
491.107	3.05
491.459	3.14
491.811	3.26
492.163	3.17
492.515	3.11
492.866	3.03
493.218	3.03
493.57	3.03
493.922	3.21
494.274	3.17
494.625	3.17
494.977	3.17
495.328	3.19
495.68	3.22
496.031	3.24
496.383	3.28
496.734	3.25
497.086	3.24
497.437	3.23
497.788	3.27
498.139	3.29
498.49	3.17
498.842	3.15
499.193	3.21
499.544	3.29
499.894	3.21
500.245	3.18
500.596	3.19
500.947	3.3
501.298	3.24
501.648	3.25
501.999	3.34
502.35	3.34
502.7	3.4
503.051	3.38
503.401	3.32
503.752	3.21
504.102	3.23
504.452	3.31
504.803	3.27
505.153	3.27
505.503	3.33
505.853	3.29
506.203	3.19
506.553	3.23
506.903	3.34
507.253	3.24
507.603	3.25
507.953	3.18
508.303	3.36
508.652	3.32
509.002	3.35
509.352	3.32
509.701	3.25
510.051	3.26
510.4	3.27
510.75	3.24
511.099	3.24
511.449	3.31
511.798	3.35
512.147	3.27
512.496	3.33
512.846	3.4
513.195	3.32
513.544	3.33
513.893	3.33
514.242	3.48
514.591	3.35
514.939	3.43
515.288	3.46
515.637	3.38
515.986	3.33
516.334	3.39
516.683	3.44
517.032	3.45
517.38	3.35
517.729	3.58
518.077	3.4
518.426	3.41
518.774	3.49
519.122	3.48
519.47	3.31
519.819	3.34
520.167	3.38
520.515	3.44
520.863	3.43
521.211	3.45
521.559	3.51
521.907	3.41
522.255	3.44
522.602	3.48
522.95	3.4
523.298	3.37
523.645	3.43
523.993	3.5
524.341	3.48
524.688	3.48
525.036	3.53
525.383	3.58
525.73	3.33
526.078	3.5
526.425	3.5
526.772	3.43
527.119	3.43
527.466	3.47
527.814	3.45
528.161	3.52
528.508	3.47
528.854	3.52
529.201	3.44
529.548	3.42
529.895	3.38
530.242	3.34
530.588	3.36
530.935	3.39
531.282	3.42
531.628	3.4
531.975	3.52
532.321	3.49
532.667	3.44
533.014	3.57
533.36	3.51
533.706	3.52
534.052	3.47
534.399	3.57
534.745	3.49
535.091	3.5
535.437	3.59
535.783	3.58
536.129	3.57
536.474	3.61
536.82	3.63
537.166	3.71
537.512	3.58
537.857	3.64
538.203	3.65
538.549	3.61
538.894	3.62
539.239	3.75
539.585	3.63
539.93	3.7
540.276	3.7
540.621	3.82
540.966	3.74
541.311	3.82
541.656	3.79
542.001	3.69
542.346	3.68
542.691	3.62
543.036	3.6
543.381	3.64
543.726	3.64
544.071	3.67
544.415	3.7
544.76	3.74
545.105	3.87
545.449	3.71
545.794	3.83
546.138	3.87
546.483	3.86
546.827	3.87
547.171	3.75
547.516	3.93
547.86	3.81
548.204	3.82
548.548	3.89
548.892	3.85
549.236	3.83
549.58	3.97
549.924	3.96
550.268	4.04
550.612	3.99
550.956	4.02
551.3	4.03
551.643	3.91
551.987	3.86
552.33	4.36
552.674	4.13
553.017	3.93
553.361	4.13
553.704	3.99
554.048	4.07
554.391	4.12
554.734	4.17
555.077	4.2
555.42	4.04
555.764	4.06
556.107	4.18
556.45	4.13
556.793	4.18
557.135	4.17
557.478	4.23
557.821	4.17
558.164	3.99
558.507	4.32
558.849	4.24
559.192	4.38
559.534	4.42
559.877	4.27
560.219	4.24
560.562	4.26
560.904	4.37
561.246	4.29
561.589	4.29
561.931	4.33
562.273	4.3
562.615	4.32
562.957	4.48
563.299	4.41
563.641	4.35
563.983	4.26
564.325	4.47
564.667	4.44
565.008	4.3
565.35	4.21
565.692	4.35
566.033	4.43
566.375	4.36
566.716	4.37
567.058	4.34
567.399	4.6
567.741	4.43
568.082	4.55
568.423	4.44
568.764	4.5
569.105	4.57
569.447	4.62
569.788	4.44
570.129	4.65
570.47	4.58
570.811	4.44
571.151	4.45
571.492	4.68
571.833	4.75
572.174	4.6
572.514	4.69
572.855	4.8
573.195	4.54
573.536	4.6
573.876	4.62
574.217	4.48
574.557	4.7
574.898	4.77
575.238	4.78
575.578	4.85
575.918	4.83
576.258	4.81
576.598	4.73
576.938	4.76
577.278	4.74
577.618	4.71
577.958	4.91
578.298	4.97
578.638	5
578.977	4.86
579.317	4.59
579.657	4.88
579.996	4.99
580.336	4.94
580.675	4.77
581.014	5.18
581.354	5.23
581.693	5.05
582.032	5.12
582.372	4.92
582.711	5.01
583.05	5.04
583.389	5.25
583.728	4.87
584.067	5.22
584.406	5.12
584.745	5.12
585.083	5.38
585.422	5.19
585.761	5.2
586.1	5.25
586.438	5.15
586.777	5.31
587.115	5.48
587.454	5.34
587.792	5.21
588.13	5.23
588.469	5.27
588.807	5.32
589.145	5.37
589.483	5.27
589.821	5.33
590.159	5.07
590.497	5.52
590.835	5.47
591.173	5.45
591.511	5.57
591.849	5.57
592.187	5.47
592.524	5.44
592.862	5.51
593.2	5.52
593.537	5.67
593.875	5.34
594.212	5.62
594.55	5.35
594.887	5.88
595.224	5.51
595.561	5.8
595.899	5.76
596.236	5.86
596.573	5.65
596.91	5.85
597.247	5.73
597.584	5.77
597.921	5.84
598.258	5.73
598.594	5.69
598.931	5.86
599.268	5.73
599.604	5.73
599.941	5.95
600.277	5.9
600.614	5.64
600.95	5.96
601.287	5.96
601.623	5.85
601.959	5.87
602.296	5.84
602.632	6.15
602.968	6.25
603.304	6.22
603.64	6.14
603.976	6.2
604.312	5.97
604.648	6.05
604.984	6.08
605.319	6.1
605.655	6.07
605.991	5.97
606.326	6.13
606.662	6.07
606.998	6.21
607.333	6.12
607.668	6.2
608.004	6.27
608.339	6.29
608.674	6.27
609.01	6.29
609.345	6.32
609.68	6.54
610.015	6.31
610.35	6.57
610.685	6.11
611.02	6.52
611.355	6.4
611.689	6.46
612.024	6.56
612.359	6.43
612.694	6.39
613.028	6.71
613.363	6.51
613.697	6.91
614.032	6.62
614.366	6.67
614.7	6.8
615.035	6.67
615.369	6.73
615.703	6.6
616.037	6.78
616.371	6.84
616.705	6.86
617.039	7.05
617.373	7.17
617.707	6.63
618.041	6.95
618.375	6.51
618.709	7.16
619.042	6.77
619.376	7.01
619.71	7
620.043	7.06
620.377	7.1
620.71	7.32
621.043	6.9
621.377	6.96
621.71	7.04
622.043	7.33
622.376	7.58
622.709	6.92
623.043	7.48
623.376	7.07
623.709	7.05
624.041	7.53
624.374	7.36
624.707	7.21
625.04	7.24
625.373	7.71
625.705	7.47
626.038	7.71
626.37	7.33
626.703	7.21
627.035	7.6
627.368	7.39
627.7	7.52
628.032	7.52
628.365	7.67
628.697	7.19
629.029	7.59
629.361	7.77
629.693	7.53
630.025	7.59
630.357	7.44
630.689	7.8
631.021	7.63
631.353	7.73
631.684	7.6
632.016	7.97
632.348	7.93
632.679	7.96
633.011	7.53
633.342	7.86
633.674	7.77
634.005	7.78
634.336	8.18
634.668	8.07
634.999	7.75
635.33	7.78
635.661	7.99
635.992	8.09
636.323	8.2
636.654	7.83
636.985	8.19
637.316	7.85
637.647	8.13
637.977	8.48
638.308	8.13
638.639	7.73
638.969	8.18
639.3	8.06
639.63	8.37
639.961	8.42
640.291	8.15
640.622	8.02
640.952	8.45
641.282	8.66
641.612	8.28
641.943	8.63
642.273	8.8
642.603	8.58
642.933	8.59
643.263	8.15
643.592	8.24
643.922	8.53
644.252	8.41
644.582	8.6
644.911	8.38
645.241	9.03
645.571	8.78
645.9	8.39
646.23	8.77
646.559	8.5
646.888	8.62
647.218	8.68
647.547	9.35
647.876	8.91
648.205	9.16
648.534	8.49
648.863	9.18
649.192	9.11
649.521	9.34
649.85	9.29
650.179	8.87
650.508	9.09
650.837	9.05
651.165	8.8
651.494	9.33
651.822	9.18
652.151	8.76
652.479	9.15
652.808	9.47
653.136	9.37
653.465	9.25
653.793	8.67
654.121	9.28
654.449	9.38
654.777	9.01
655.105	8.91
655.433	9.49
655.761	9.68
656.089	9.28
656.417	9.5
656.745	8.88
657.073	9.34
657.4	9.51
657.728	9.98
658.056	9.55
658.383	9.61
658.711	10.11
659.038	9.69
659.365	9.22
659.693	9.15
660.02	9.64
660.347	9.98
660.674	9.62
661.001	9.79
661.329	9.63
661.656	9.9
661.982	9.54
662.309	9.52
662.636	9.82
662.963	10.07
663.29	9.8
663.616	9.98
663.943	9.79
664.27	10.07
664.596	9.96
664.923	10.45
665.249	10.34
665.576	9.81
665.902	10.34
666.228	10.7
666.554	9.52
666.881	9.82
667.207	10.51
667.533	10.64
667.859	9.89
668.185	10.35
668.511	9.87
668.837	10.53
669.162	10.59
669.488	10.04
669.814	10.54
670.139	10.22
670.465	10.81
670.791	10.38
671.116	10.97
671.442	10.43
671.767	10.71
672.092	10.26
672.418	10.37
672.743	10.84
673.068	10.25
673.393	10.68
673.718	10.77
674.043	10.94
674.368	11.05
674.693	10.39
675.018	10.68
675.343	10.7
675.667	10.89
675.992	10.56
676.317	10.57
676.641	9.99
676.966	11.99
677.29	11.2
677.615	10.08
677.939	11.21
678.264	10.84
678.588	11.56
678.912	10.61
679.236	11.21
679.56	10.69
679.885	11.41
680.209	11.42
680.532	10.94
680.856	10.75
681.18	10.96
681.504	10.82
681.828	11.46
682.152	10.94
682.475	10.93
682.799	10.76
683.122	11.21
683.446	11.5
683.769	10.45
684.093	11.49
684.416	11.99
684.739	11.63
685.062	11.94
685.386	11.87
685.709	11.37
686.032	12.47
686.355	12.45
686.678	11.59
687.001	11.73
687.324	11.91
687.646	11.8
687.969	11.9
688.292	11.44
688.614	11.79
688.937	10.7
689.26	11.27
689.582	11.85
689.904	12.28
690.227	12.14
690.549	12.28
690.871	11.98
691.194	11.72
