Data from 0021_forehead_Reflection__1__27.txt Node

Date: Thu Oct 20 20:32:54 CDT 2022
User: ToomeyLab
Spectrometer: FLMS14357
Trigger mode: 0
Integration Time (sec): 1.000000E-2
Scans to average: 100
Electric dark correction enabled: true
Nonlinearity correction enabled: false
Boxcar width: 0
XAxis mode: Wavelengths
Number of Pixels in Spectrum: 2048
>>>>>Begin Spectral Data<<<<<
189.047	616.64
189.435	616.64
189.823	616.64
190.211	325.66
190.599	90.44
190.987	-83.23
191.375	-25.84
191.763	-43.93
192.151	-88.34
192.538	-263.7
192.926	63.08
193.314	-372.35
193.702	151.55
194.089	19.25
194.477	-83.95
194.864	642.3
195.252	64.91
195.639	39.93
196.027	388.32
196.414	484.64
196.801	825.91
197.189	450.1
197.576	-40.36
197.963	318.63
198.351	52.79
198.738	67.75
199.125	57.46
199.512	49.33
199.899	54.3
200.286	-2.92
200.673	34.53
201.06	59.32
201.447	37.15
201.833	24.13
202.22	54.74
202.607	58.7
202.994	24.64
203.38	29.22
203.767	37.06
204.154	27.48
204.54	33.43
204.927	1.98
205.313	46.53
205.699	68.12
206.086	68.21
206.472	53.21
206.858	52.69
207.245	59.63
207.631	26.55
208.017	49.41
208.403	54.64
208.789	51.69
209.175	45.61
209.561	53.98
209.947	54.63
210.333	52.76
210.719	94.95
211.105	31.89
211.491	21.12
211.876	38.01
212.262	61.12
212.648	30.25
213.034	21.24
213.419	30.67
213.805	46.57
214.19	26.51
214.576	39.51
214.961	40.34
215.346	5.1
215.732	34.23
216.117	34.43
216.502	42.81
216.888	72.34
217.273	32.97
217.658	28.11
218.043	25.28
218.428	14.9
218.813	38.1
219.198	34.24
219.583	49.66
219.968	39.79
220.353	24.19
220.738	22.46
221.122	34.59
221.507	11.25
221.892	24.47
222.276	23.47
222.661	24.13
223.046	12.38
223.43	24.28
223.815	4.58
224.199	12.04
224.583	13.8
224.968	12.24
225.352	9.85
225.736	8.89
226.121	22.66
226.505	13.76
226.889	11.95
227.273	7.68
227.657	9.25
228.041	7.95
228.425	7.15
228.809	7.1
229.193	6.24
229.577	6.8
229.961	4.93
230.344	4.66
230.728	5.83
231.112	5.4
231.495	5.73
231.879	6.61
232.263	5.89
232.646	6.69
233.03	3.99
233.413	6.03
233.797	3.88
234.18	5.85
234.563	4.88
234.946	7.44
235.33	6.89
235.713	7.98
236.096	5.2
236.479	4.18
236.862	8.31
237.245	6.05
237.628	5.31
238.011	5.54
238.394	7.29
238.777	4.56
239.16	6.19
239.543	5.51
239.925	6.81
240.308	7.02
240.691	6.33
241.073	7.14
241.456	5.86
241.838	5.61
242.221	6.37
242.603	6
242.986	5.07
243.368	4.89
243.75	5.42
244.133	5.57
244.515	5.4
244.897	5.81
245.279	5.5
245.661	5.48
246.043	5.77
246.425	6.35
246.807	6.72
247.189	6
247.571	5.21
247.953	5.46
248.335	5.07
248.717	5.32
249.098	5.28
249.48	5.37
249.862	5.73
250.243	4.82
250.625	5.9
251.006	6.23
251.388	5.75
251.769	5.55
252.151	6.76
252.532	6.32
252.913	5.45
253.295	5.62
253.676	5.83
254.057	5.71
254.438	6.16
254.819	7.03
255.2	6.99
255.581	6.39
255.962	6.83
256.343	8.07
256.724	6.03
257.105	6.92
257.486	6.3
257.867	6.36
258.247	5.92
258.628	5.48
259.009	6.07
259.389	6.08
259.77	6
260.15	5.73
260.531	5.75
260.911	5.28
261.292	5.3
261.672	5.04
262.052	5.21
262.432	5.65
262.813	5.89
263.193	5.33
263.573	5.66
263.953	5.64
264.333	5.59
264.713	6
265.093	6.28
265.473	6.35
265.853	6.67
266.233	5.65
266.612	5.41
266.992	5.9
267.372	5.18
267.752	5.46
268.131	5.14
268.511	5.22
268.89	5.67
269.27	5.31
269.649	5.6
270.029	5.98
270.408	5.16
270.787	5.29
271.167	6.34
271.546	6.16
271.925	5.64
272.304	5.48
272.683	5.51
273.062	5.69
273.441	5.61
273.82	5.21
274.199	5.34
274.578	5.53
274.957	5.84
275.336	5.46
275.715	5.94
276.093	6.01
276.472	5.95
276.851	5.94
277.229	4.72
277.608	5.44
277.986	4.96
278.365	5.82
278.743	5.83
279.122	6.18
279.5	4.79
279.878	5.25
280.257	5.29
280.635	5.38
281.013	6.18
281.391	5.75
281.769	5.31
282.147	5.67
282.525	5.51
282.903	5.23
283.281	5.29
283.659	5.72
284.037	5.32
284.415	5.73
284.792	5.76
285.17	6.08
285.548	5.57
285.925	5.49
286.303	5.58
286.68	5.87
287.058	5.71
287.435	5.66
287.813	5.37
288.19	5.92
288.567	5.55
288.945	6.29
289.322	5.38
289.699	6.32
290.076	6.29
290.453	5.8
290.83	5.76
291.207	6.07
291.584	5.39
291.961	5.95
292.338	5.82
292.715	5.98
293.092	6.38
293.469	6.59
293.845	6.29
294.222	5.74
294.599	6.85
294.975	6.27
295.352	6.58
295.728	6.94
296.105	6.92
296.481	7.29
296.858	6.95
297.234	6.72
297.61	6.59
297.986	7
298.363	6.89
298.739	6.83
299.115	7.23
299.491	7.47
299.867	7.25
300.243	7.12
300.619	7.62
300.995	7.11
301.371	7.4
301.746	7.2
302.122	7.18
302.498	7.87
302.874	7.98
303.249	7.54
303.625	7.83
304	8.36
304.376	7.63
304.751	7.84
305.127	7.09
305.502	7.77
305.878	8.19
306.253	8.22
306.628	8.22
307.003	8.45
307.378	8.68
307.754	8.91
308.129	9.15
308.504	8.52
308.879	9.43
309.254	9.41
309.629	9.2
310.003	9.36
310.378	9.51
310.753	9.28
311.128	8.94
311.502	9.34
311.877	9.41
312.252	9.16
312.626	9.33
313.001	9.54
313.375	9.56
313.75	9.33
314.124	9.8
314.498	10.08
314.873	10.18
315.247	10.12
315.621	10.81
315.995	10.11
316.369	10.58
316.743	10.53
317.117	10.21
317.491	10.8
317.865	10.95
318.239	11.19
318.613	11.17
318.987	11.12
319.361	11.06
319.734	11.19
320.108	11.26
320.482	11.22
320.855	11.59
321.229	11.88
321.602	11.93
321.976	11.51
322.349	11.74
322.723	12.17
323.096	11.81
323.469	11.72
323.843	12.26
324.216	12.4
324.589	12.19
324.962	13.05
325.335	12.25
325.708	12.41
326.081	13.46
326.454	13.13
326.827	12.74
327.2	13.37
327.573	12.84
327.945	12.92
328.318	12.69
328.691	12.7
329.063	12.62
329.436	12.28
329.809	13.42
330.181	13.16
330.553	12.91
330.926	12.91
331.298	12.8
331.671	14.12
332.043	13.43
332.415	13.63
332.787	13.88
333.159	13.42
333.532	13.65
333.904	13.5
334.276	14.02
334.648	13.68
335.02	14.01
335.391	14.12
335.763	14.5
336.135	14.5
336.507	14.41
336.879	14.37
337.25	13.94
337.622	14.49
337.993	14.71
338.365	13.82
338.736	14.59
339.108	14.69
339.479	14.7
339.851	15.21
340.222	14.49
340.593	14.32
340.964	14.87
341.336	15.07
341.707	15
342.078	14.94
342.449	14.9
342.82	14.8
343.191	15.03
343.562	15.51
343.933	15.34
344.303	15.72
344.674	15.17
345.045	15.64
345.416	15.51
345.786	16.03
346.157	15.81
346.527	15.51
346.898	15.34
347.268	15.82
347.639	15.62
348.009	15.75
348.38	15.92
348.75	16.23
349.12	15.94
349.49	16.35
349.861	16.52
350.231	15.91
350.601	16.61
350.971	16.31
351.341	16.35
351.711	16.55
352.081	16.94
352.45	16.61
352.82	16.64
353.19	16.75
353.56	16.71
353.929	16.6
354.299	16.3
354.669	16.83
355.038	16.83
355.408	16.76
355.777	17.16
356.147	17.05
356.516	17.41
356.885	17.22
357.254	17.35
357.624	17.05
357.993	16.83
358.362	17.76
358.731	17.59
359.1	17.59
359.469	17.52
359.838	17.59
360.207	17.78
360.576	17.48
360.945	17.57
361.314	18.08
361.682	17.91
362.051	18.12
362.42	17.86
362.788	17.82
363.157	17.97
363.525	17.89
363.894	18.03
364.262	18.04
364.631	18.67
364.999	18.37
365.367	18.11
365.735	18.42
366.104	18.68
366.472	18.49
366.84	18.41
367.208	18.83
367.576	18.88
367.944	19.22
368.312	18.82
368.68	19.16
369.048	18.8
369.416	19.02
369.783	19.15
370.151	19.36
370.519	19.44
370.886	18.98
371.254	19.54
371.621	19.23
371.989	19.01
372.356	19.83
372.724	19.72
373.091	19.52
373.458	19.58
373.826	19.69
374.193	19.68
374.56	19.94
374.927	20.08
375.294	20.04
375.661	19.94
376.028	19.99
376.395	20.1
376.762	20.41
377.129	20.44
377.496	19.92
377.863	20.41
378.229	20.4
378.596	20.16
378.963	20.46
379.329	20.32
379.696	20.43
380.062	20.53
380.429	20.82
380.795	20.62
381.161	20.56
381.528	20.64
381.894	20.72
382.26	20.79
382.626	20.93
382.993	21.25
383.359	21.44
383.725	21.36
384.091	20.93
384.457	21.15
384.823	21.25
385.188	21.77
385.554	21.4
385.92	21.3
386.286	21.47
386.651	21.37
387.017	21.42
387.383	21.37
387.748	21.75
388.114	21.66
388.479	21.76
388.845	22.07
389.21	21.84
389.575	21.84
389.94	21.82
390.306	21.87
390.671	21.91
391.036	22.36
391.401	22.17
391.766	22.21
392.131	22.13
392.496	22.22
392.861	22.57
393.226	22.45
393.591	22.37
393.956	22.43
394.32	22.49
394.685	22.87
395.05	22.6
395.414	23.11
395.779	22.81
396.143	23.14
396.508	22.79
396.872	22.95
397.236	23.19
397.601	23.28
397.965	23.2
398.329	22.79
398.694	23.45
399.058	23.38
399.422	23.67
399.786	23.46
400.15	23.36
400.514	23.28
400.878	23.43
401.242	23.34
401.605	23.69
401.969	23.53
402.333	23.57
402.697	24.15
403.06	23.74
403.424	23.99
403.787	23.94
404.151	23.72
404.514	24.09
404.878	23.9
405.241	24.03
405.604	24.04
405.968	23.75
406.331	23.98
406.694	24.18
407.057	24.05
407.42	24.21
407.783	24.29
408.146	24.45
408.509	24.78
408.872	24.8
409.235	24.81
409.598	24.83
409.961	24.7
410.323	24.72
410.686	24.57
411.049	24.93
411.411	25.1
411.774	24.82
412.136	24.96
412.499	25.11
412.861	24.94
413.223	25.23
413.586	25.44
413.948	25.39
414.31	25.25
414.672	25.42
415.035	25.46
415.397	25.86
415.759	25.4
416.121	25.51
416.483	25.59
416.845	25.4
417.206	25.62
417.568	25.53
417.93	25.44
418.292	25.76
418.653	25.55
419.015	25.57
419.377	25.51
419.738	25.46
420.1	25.49
420.461	25.63
420.822	25.78
421.184	25.66
421.545	25.61
421.906	25.61
422.267	25.43
422.629	25.43
422.99	25.45
423.351	25.67
423.712	25.86
424.073	25.9
424.434	25.93
424.795	25.89
425.155	26.07
425.516	25.93
425.877	25.8
426.238	26.02
426.598	26.12
426.959	26.27
427.32	26.4
427.68	26.65
428.041	26.78
428.401	27.04
428.761	27.25
429.122	27.2
429.482	27.46
429.842	27.39
430.202	27.35
430.563	27.43
430.923	27.34
431.283	27.58
431.643	27.42
432.003	27.55
432.363	27.49
432.722	27.68
433.082	27.41
433.442	27.43
433.802	27.3
434.161	27.32
434.521	27.3
434.881	27.14
435.24	27.34
435.6	27.61
435.959	27.6
436.319	27.73
436.678	27.96
437.037	28.19
437.396	27.84
437.756	28.13
438.115	28.09
438.474	28.28
438.833	28.21
439.192	28.13
439.551	28.09
439.91	28.14
440.269	28.23
440.628	28.03
440.987	28.11
441.345	28.14
441.704	28.21
442.063	28.05
442.421	28.31
442.78	28.31
443.138	28.5
443.497	28.62
443.855	28.67
444.214	28.61
444.572	28.82
444.93	28.73
445.288	28.85
445.647	28.71
446.005	28.66
446.363	28.57
446.721	28.5
447.079	28.42
447.437	28.32
447.795	28.4
448.153	28.42
448.51	28.67
448.868	28.79
449.226	29
449.584	29.07
449.941	29.47
450.299	29.34
450.656	29.31
451.014	29.54
451.371	29.69
451.729	29.68
452.086	29.82
452.443	29.99
452.801	30.03
453.158	29.73
453.515	29.62
453.872	29.77
454.229	29.78
454.586	30.01
454.943	29.91
455.3	30.02
455.657	30.03
456.014	30.09
456.371	30.02
456.727	30.32
457.084	30.24
457.441	30.33
457.797	30.41
458.154	30.52
458.51	30.64
458.867	30.37
459.223	30.4
459.58	30.5
459.936	30.44
460.292	30.44
460.648	30.44
461.005	29.99
461.361	29.88
461.717	30.28
462.073	30.34
462.429	30.55
462.785	30.75
463.141	30.93
463.496	30.82
463.852	31.05
464.208	31.24
464.564	31.12
464.919	31.15
465.275	31
465.631	31.23
465.986	31.16
466.342	31.19
466.697	31.23
467.052	31.45
467.408	31.46
467.763	31.24
468.118	31.42
468.473	31.35
468.829	31.38
469.184	31.13
469.539	31.4
469.894	31.54
470.249	31.52
470.603	31.49
470.958	31.76
471.313	31.61
471.668	31.66
472.023	31.75
472.377	32.04
472.732	31.97
473.086	32
473.441	32.03
473.795	32.01
474.15	32.31
474.504	31.88
474.859	32.1
475.213	32.12
475.567	32.22
475.921	32.35
476.275	32.61
476.63	32.63
476.984	32.69
477.338	32.65
477.692	32.55
478.045	32.68
478.399	32.58
478.753	32.55
479.107	32.62
479.461	32.73
479.814	32.63
480.168	32.85
480.521	32.52
480.875	32.86
481.228	32.92
481.582	32.86
481.935	33.03
482.289	32.91
482.642	32.86
482.995	32.87
483.348	32.6
483.701	32.63
484.055	32.78
484.408	32.55
484.761	32.25
485.114	31.96
485.466	32
485.819	32.08
486.172	32.07
486.525	32.39
486.878	32.52
487.23	32.79
487.583	32.94
487.936	33.01
488.288	32.76
488.641	32.67
488.993	32.62
489.345	32.52
489.698	32.69
490.05	32.85
490.402	33.1
490.754	33.29
491.107	33.42
491.459	33.79
491.811	33.84
492.163	33.72
492.515	33.52
492.866	33.21
493.218	32.99
493.57	33.16
493.922	33.2
494.274	33.73
494.625	33.98
494.977	33.99
495.328	34.38
495.68	34.48
496.031	34.63
496.383	34.54
496.734	34.47
497.086	34.52
497.437	34.66
497.788	34.56
498.139	34.32
498.49	34.3
498.842	34.39
499.193	34.44
499.544	34.45
499.894	34.52
500.245	34.71
500.596	34.68
500.947	34.84
501.298	34.81
501.648	35.09
501.999	35.17
502.35	35.06
502.7	35.18
503.051	35.19
503.401	35.32
503.752	35.21
504.102	35.49
504.452	35.36
504.803	35.66
505.153	35.47
505.503	35.36
505.853	35.34
506.203	35.4
506.553	35.47
506.903	35.66
507.253	35.65
507.603	35.53
507.953	35.77
508.303	35.84
508.652	35.76
509.002	35.63
509.352	35.61
509.701	35.68
510.051	35.58
510.4	35.46
510.75	35.63
511.099	35.8
511.449	35.85
511.798	35.95
512.147	36.12
512.496	36.17
512.846	36.2
513.195	36.14
513.544	36.18
513.893	36.27
514.242	36.09
514.591	36.39
514.939	36.51
515.288	36.55
515.637	36.55
515.986	36.84
516.334	36.71
516.683	36.67
517.032	36.8
517.38	36.73
517.729	36.98
518.077	36.97
518.426	36.97
518.774	36.94
519.122	37.03
519.47	36.69
519.819	36.48
520.167	36.67
520.515	36.64
520.863	36.63
521.211	36.84
521.559	36.9
521.907	37.12
522.255	37.16
522.602	37.27
522.95	37.54
523.298	37.68
523.645	37.76
523.993	37.55
524.341	37.75
524.688	37.79
525.036	37.76
525.383	37.77
525.73	37.81
526.078	37.92
526.425	37.62
526.772	37.38
527.119	37.35
527.466	37.49
527.814	37.51
528.161	37.74
528.508	37.69
528.854	37.92
529.201	37.7
529.548	37.34
529.895	37.06
530.242	37.11
530.588	37.23
530.935	37.13
531.282	37.3
531.628	37.49
531.975	37.75
532.321	38.1
532.667	38.06
533.014	38.01
533.36	38.11
533.706	38.14
534.052	38
534.399	37.94
534.745	37.81
535.091	37.78
535.437	37.88
535.783	38.05
536.129	38.32
536.474	38.55
536.82	38.58
537.166	38.76
537.512	38.64
537.857	38.45
538.203	38.53
538.549	38.6
538.894	38.62
539.239	38.75
539.585	38.94
539.93	39.05
540.276	39.24
540.621	39.3
540.966	39.4
541.311	39.65
541.656	39.38
542.001	39.14
542.346	38.85
542.691	38.34
543.036	38.28
543.381	38.56
543.726	38.66
544.071	38.87
544.415	38.91
544.76	39.14
545.105	39.4
545.449	39.45
545.794	39.65
546.138	39.74
546.483	39.73
546.827	39.64
547.171	39.87
547.516	39.66
547.86	39.67
548.204	39.58
548.548	39.57
548.892	39.68
549.236	40.13
549.58	40.26
549.924	40.4
550.268	40.41
550.612	40.52
550.956	40.49
551.3	40.6
551.643	40.72
551.987	40.78
552.33	40.8
552.674	40.79
553.017	40.69
553.361	40.83
553.704	40.62
554.048	40.68
554.391	40.87
554.734	40.86
555.077	40.82
555.42	40.82
555.764	41.05
556.107	41.09
556.45	41.17
556.793	41.21
557.135	41.13
557.478	41.39
557.821	41.33
558.164	41.2
558.507	41.2
558.849	41.55
559.192	41.49
559.534	41.44
559.877	41.43
560.219	41.49
560.562	41.51
560.904	41.97
561.246	41.62
561.589	41.61
561.931	41.55
562.273	41.54
562.615	41.79
562.957	41.91
563.299	41.89
563.641	41.78
563.983	42.11
564.325	41.78
564.667	42.01
565.008	41.98
565.35	41.98
565.692	42.19
566.033	42.15
566.375	42.41
566.716	42.18
567.058	42.09
567.399	42.45
567.741	42.25
568.082	42.22
568.423	42.08
568.764	42.24
569.105	42.32
569.447	42.51
569.788	42.43
570.129	42.69
570.47	42.84
570.811	42.7
571.151	42.91
571.492	42.73
571.833	43.01
572.174	42.61
572.514	42.88
572.855	42.79
573.195	42.72
573.536	42.57
573.876	42.47
574.217	42.69
574.557	42.94
574.898	42.97
575.238	43.34
575.578	43.12
575.918	43.16
576.258	43.07
576.598	43.17
576.938	42.85
577.278	43.22
577.618	43.37
577.958	43.6
578.298	43.54
578.638	43.45
578.977	43.71
579.317	43.59
579.657	43.63
579.996	43.42
580.336	43.38
580.675	43.61
581.014	43.81
581.354	43.93
581.693	43.73
582.032	44.03
582.372	43.76
582.711	43.79
583.05	43.9
583.389	44.07
583.728	44.27
584.067	44.03
584.406	44.03
584.745	43.95
585.083	44.27
585.422	44.46
585.761	43.94
586.1	44.5
586.438	44.23
586.777	44.29
587.115	44.4
587.454	44.28
587.792	44.44
588.13	44.58
588.469	44.63
588.807	44.57
589.145	44.48
589.483	44.45
589.821	44.41
590.159	44.62
590.497	44.85
590.835	44.67
591.173	44.61
591.511	44.67
591.849	44.74
592.187	44.85
592.524	45.05
592.862	44.96
593.2	45.13
593.537	45.11
593.875	45.07
594.212	45.12
594.55	45.62
594.887	45.32
595.224	45.01
595.561	45.14
595.899	45.37
596.236	45.38
596.573	45.34
596.91	45.62
597.247	45.62
597.584	45.38
597.921	45.47
598.258	45.47
598.594	45.25
598.931	45.42
599.268	45.37
599.604	45.41
599.941	45.64
600.277	45.59
600.614	45.92
600.95	46.16
601.287	45.78
601.623	45.9
601.959	45.95
602.296	45.95
602.632	45.78
602.968	45.99
603.304	45.66
603.64	46.29
603.976	46.3
604.312	46.17
604.648	45.85
604.984	45.95
605.319	46.1
605.655	45.86
605.991	45.64
606.326	45.85
606.662	45.73
606.998	46.29
607.333	46.17
607.668	46.23
608.004	46.48
608.339	46.48
608.674	46.98
609.01	46.45
609.345	46.84
609.68	46.61
610.015	46.73
610.35	46.25
610.685	46.46
611.02	46.5
611.355	46.1
611.689	46.71
612.024	46.47
612.359	46.62
612.694	46.87
613.028	47.3
613.363	46.99
613.697	47.31
614.032	46.96
614.366	47.1
614.7	47.13
615.035	47.62
615.369	46.89
615.703	46.99
616.037	47.23
616.371	46.75
616.705	47.53
617.039	47.8
617.373	47.3
617.707	47.24
618.041	47.55
618.375	47.61
618.709	47.54
619.042	47.53
619.376	47.32
619.71	47.48
620.043	47.4
620.377	47.22
620.71	47.72
621.043	47.62
621.377	47.46
621.71	47.87
622.043	47.57
622.376	48
622.709	48.28
623.043	48.26
623.376	47.87
623.709	47.91
624.041	47.77
624.374	48.4
624.707	47.81
625.04	48.13
625.373	48.22
625.705	48
626.038	48.44
626.37	48.1
626.703	48.53
627.035	48.26
627.368	47.9
627.7	48.2
628.032	48.3
628.365	48.7
628.697	48.05
629.029	48.14
629.361	48.07
629.693	48.43
630.025	48.48
630.357	48.21
630.689	48.71
631.021	48.53
631.353	48.61
631.684	48.74
632.016	48.61
632.348	48.68
632.679	48.75
633.011	48.95
633.342	49.15
633.674	48.86
634.005	49.37
634.336	48.53
634.668	49.2
634.999	49.11
635.33	48.56
635.661	49.08
635.992	48.94
636.323	49.07
636.654	49.08
636.985	49.03
637.316	48.95
637.647	49.14
637.977	49.08
638.308	49.81
638.639	49.39
638.969	49.1
639.3	49.91
639.63	49.43
639.961	49.45
640.291	49.26
640.622	49.18
640.952	49.2
641.282	49.57
641.612	49.82
641.943	50.09
642.273	49.92
642.603	49.67
642.933	49.52
643.263	49.52
643.592	49.89
643.922	49.7
644.252	49.62
644.582	49.66
644.911	49.65
645.241	49.58
645.571	50.21
645.9	49.26
646.23	49.37
646.559	49.89
646.888	49.76
647.218	49.79
647.547	50.26
647.876	50.06
648.205	50.46
648.534	49.95
648.863	50.44
649.192	50.21
649.521	50.23
649.85	50.57
650.179	50.35
650.508	50.58
650.837	50.85
651.165	50.3
651.494	50.62
651.822	50.05
652.151	50.32
652.479	50.31
652.808	51.13
653.136	50.43
653.465	50.69
653.793	50.29
654.121	50.19
654.449	50.93
654.777	50.6
655.105	50.79
655.433	51.58
655.761	50.57
656.089	51.12
656.417	50.91
656.745	50.65
657.073	51.39
657.4	50.79
657.728	51.67
658.056	51.4
658.383	51.61
658.711	50.62
659.038	50.87
659.365	51.08
659.693	50.82
660.02	50.82
660.347	50.74
660.674	51.24
661.001	51.24
661.329	51.22
661.656	51.49
661.982	51.52
662.309	51.15
662.636	51.79
662.963	51.91
663.29	50.71
663.616	51.56
663.943	50.83
664.27	52.39
664.596	51.18
664.923	51.54
665.249	51.31
665.576	51.16
665.902	51.61
666.228	52.29
666.554	50.78
666.881	51.66
667.207	51.65
667.533	51.76
667.859	51.51
668.185	51.34
668.511	51.11
668.837	52.72
