Data from 0032_crown_Reflection__3__160.txt Node

Date: Thu Oct 20 22:10:58 CDT 2022
User: ToomeyLab
Spectrometer: FLMS14357
Trigger mode: 0
Integration Time (sec): 1.000000E-2
Scans to average: 100
Electric dark correction enabled: true
Nonlinearity correction enabled: false
Boxcar width: 0
XAxis mode: Wavelengths
Number of Pixels in Spectrum: 2048
>>>>>Begin Spectral Data<<<<<
189.047	39.37
189.435	39.37
189.823	39.37
190.211	100.78
190.599	-70
190.987	1310.22
191.375	51.95
191.763	189.24
192.151	83.47
192.538	907.41
192.926	112.16
193.314	377.49
193.702	-518.25
194.089	140.03
194.477	75.27
194.864	-812.9
195.252	92.66
195.639	-708.42
196.027	-175.23
196.414	82.81
196.801	-142.58
197.189	-29.29
197.576	169.47
197.963	136.27
198.351	-25.77
198.738	-24.21
199.125	-9.42
199.512	27.55
199.899	-2.87
200.286	-17.15
200.673	5.93
201.06	25.1
201.447	8.75
201.833	8.43
202.22	-17.67
202.607	-9.48
202.994	-72.97
203.38	-58.92
203.767	25.17
204.154	-47.41
204.54	-21.69
204.927	-23.69
205.313	20.58
205.699	-12.66
206.086	-4.95
206.472	-1.01
206.858	-18.52
207.245	21.88
207.631	-43.75
208.017	-44.81
208.403	-74.78
208.789	12.7
209.175	2.82
209.561	10.92
209.947	-13.32
210.333	30.63
210.719	9.81
211.105	14.51
211.491	-71.69
211.876	-59.11
212.262	9.38
212.648	-34.28
213.034	-0.39
213.419	-35.48
213.805	-36.87
214.19	-34.11
214.576	-60.77
214.961	19.25
215.346	-12.29
215.732	28.1
216.117	-13.2
216.502	-21.37
216.888	-11.66
217.273	-27.16
217.658	15.16
218.043	29.51
218.428	-2.63
218.813	25.86
219.198	-10.02
219.583	0.94
219.968	20.14
220.353	-0.34
220.738	-14.16
221.122	-1.37
221.507	10.31
221.892	5.6
222.276	1.4
222.661	10.21
223.046	4.92
223.43	-4.18
223.815	3.08
224.199	-0.02
224.583	3.29
224.968	8.08
225.352	3.35
225.736	4.02
226.121	-4.95
226.505	5.81
226.889	1.54
227.273	0.12
227.657	3.63
228.041	2.11
228.425	3.04
228.809	6.94
229.193	4.9
229.577	3.57
229.961	4.71
230.344	4.68
230.728	4.8
231.112	5.43
231.495	6.06
231.879	6.37
232.263	4.66
232.646	4
233.03	5.65
233.413	2.42
233.797	2.48
234.18	6.33
234.563	5.05
234.946	3.4
235.33	4.06
235.713	4.28
236.096	3.75
236.479	5.82
236.862	4.56
237.245	4.06
237.628	4.48
238.011	4.44
238.394	5.49
238.777	4.64
239.16	3.4
239.543	2.47
239.925	4.6
240.308	5
240.691	5.42
241.073	3.79
241.456	4.96
241.838	4.55
242.221	4.76
242.603	4.78
242.986	4.82
243.368	4.61
243.75	5.17
244.133	5.23
244.515	4.88
244.897	4.58
245.279	3.83
245.661	5.2
246.043	4.84
246.425	4.89
246.807	5.21
247.189	4.94
247.571	5.18
247.953	4.8
248.335	5.03
248.717	4.84
249.098	4.92
249.48	4.81
249.862	4.85
250.243	4.49
250.625	5.63
251.006	4.71
251.388	4.27
251.769	3.86
252.151	4.78
252.532	3.83
252.913	4.67
253.295	4.87
253.676	5.11
254.057	4.29
254.438	5.13
254.819	5.52
255.2	5.49
255.581	5.27
255.962	4.9
256.343	3.85
256.724	4.5
257.105	5.22
257.486	4.78
257.867	4.15
258.247	5.32
258.628	4.98
259.009	4.23
259.389	4.72
259.77	4.95
260.15	4.67
260.531	4.72
260.911	4.52
261.292	4.98
261.672	4.6
262.052	4.2
262.432	4.94
262.813	5.04
263.193	5.3
263.573	5.01
263.953	4.22
264.333	4.75
264.713	4.93
265.093	4.86
265.473	4.71
265.853	3.95
266.233	4.5
266.612	4.86
266.992	3.99
267.372	5.21
267.752	4.46
268.131	4.84
268.511	5.2
268.89	4.83
269.27	3.98
269.649	4.27
270.029	3.75
270.408	4.4
270.787	4.1
271.167	4.66
271.546	4.41
271.925	4.91
272.304	4.45
272.683	4.47
273.062	4.34
273.441	4.22
273.82	4.64
274.199	4.06
274.578	3.74
274.957	4.01
275.336	4.38
275.715	5.09
276.093	4.79
276.472	4.52
276.851	4.71
277.229	4.16
277.608	4.03
277.986	4.82
278.365	4.05
278.743	4.41
279.122	3.75
279.5	4.16
279.878	4.42
280.257	4.57
280.635	4.24
281.013	4.74
281.391	4.68
281.769	4.31
282.147	3.98
282.525	4.34
282.903	4.67
283.281	4.32
283.659	4.24
284.037	3.88
284.415	4.31
284.792	4.45
285.17	4.96
285.548	4.61
285.925	4.07
286.303	4.26
286.68	4.19
287.058	4.22
287.435	4.18
287.813	4.25
288.19	4.26
288.567	4.08
288.945	4.41
289.322	4.07
289.699	3.67
290.076	4.14
290.453	3.97
290.83	4.23
291.207	4.45
291.584	4.11
291.961	3.78
292.338	4.17
292.715	3.99
293.092	4.39
293.469	4.03
293.845	4.43
294.222	4.22
294.599	4.92
294.975	4.1
295.352	4.61
295.728	4.11
296.105	4.51
296.481	3.59
296.858	4.47
297.234	4.64
297.61	4.15
297.986	4.39
298.363	4.1
298.739	4.39
299.115	4.47
299.491	4.24
299.867	3.98
300.243	4.28
300.619	4.78
300.995	4.09
301.371	4.28
301.746	3.99
302.122	4.67
302.498	4.2
302.874	4.73
303.249	4.51
303.625	4.26
304	4.44
304.376	4.07
304.751	4.4
305.127	4.07
305.502	4.53
305.878	4.39
306.253	3.86
306.628	4.49
307.003	4.32
307.378	4.14
307.754	4.01
308.129	4.34
308.504	4.59
308.879	4.44
309.254	4.5
309.629	3.96
310.003	3.92
310.378	4.53
310.753	4.62
311.128	4.59
311.502	4.15
311.877	4.41
312.252	4.05
312.626	4.5
313.001	4.52
313.375	4.38
313.75	4.1
314.124	4.12
314.498	3.53
314.873	4.19
315.247	4.03
315.621	4.27
315.995	4.26
316.369	4.65
316.743	3.94
317.117	4.01
317.491	4.55
317.865	4.46
318.239	4.08
318.613	4.54
318.987	4.46
319.361	4.6
319.734	4.23
320.108	4.16
320.482	4.23
320.855	4.52
321.229	4.77
321.602	4
321.976	4.26
322.349	4.55
322.723	5.09
323.096	4.64
323.469	4.23
323.843	4.76
324.216	4.29
324.589	4.91
324.962	4.46
325.335	4.7
325.708	4.79
326.081	4.6
326.454	4.25
326.827	4.41
327.2	4.98
327.573	4.71
327.945	4.3
328.318	4.21
328.691	4.69
329.063	4.71
329.436	4.24
329.809	4.55
330.181	4.66
330.553	4.25
330.926	4.67
331.298	4.61
331.671	4.44
332.043	4.34
332.415	4.19
332.787	4.53
333.159	4.84
333.532	4.64
333.904	4.58
334.276	4.78
334.648	3.91
335.02	4.5
335.391	4.44
335.763	5
336.135	4.56
336.507	4.07
336.879	4.91
337.25	4.39
337.622	4.59
337.993	4.16
338.365	4.68
338.736	4.33
339.108	4.31
339.479	4.54
339.851	4.38
340.222	4.57
340.593	4.76
340.964	5
341.336	4.28
341.707	4
342.078	4.42
342.449	4.48
342.82	4.52
343.191	4.45
343.562	4.32
343.933	4.28
344.303	4.38
344.674	4.22
345.045	5.24
345.416	4.68
345.786	4.69
346.157	4.41
346.527	4.43
346.898	4.42
347.268	4.53
347.639	4.69
348.009	4.29
348.38	4.61
348.75	4.4
349.12	4.46
349.49	4.53
349.861	4.74
350.231	4.55
350.601	4.85
350.971	4.56
351.341	4.81
351.711	4.46
352.081	4.5
352.45	4.62
352.82	4.25
353.19	4.22
353.56	4.42
353.929	4.38
354.299	4.61
354.669	4.7
355.038	4.57
355.408	4.41
355.777	4.84
356.147	5.1
356.516	4.78
356.885	4.48
357.254	4.62
357.624	4.25
357.993	4.5
358.362	4.79
358.731	4.99
359.1	4.41
359.469	4.54
359.838	4.27
360.207	4.91
360.576	4.6
360.945	4.93
361.314	4.71
361.682	4.77
362.051	4.34
362.42	4.59
362.788	4.53
363.157	4.66
363.525	4.61
363.894	4.46
364.262	4.68
364.631	4.28
364.999	4.66
365.367	5.06
365.735	4.57
366.104	4.42
366.472	4.38
366.84	4.92
367.208	4.74
367.576	4.54
367.944	4.63
368.312	4.62
368.68	4.9
369.048	4.53
369.416	4.43
369.783	4.77
370.151	5.02
370.519	4.84
370.886	4.54
371.254	4.68
371.621	4.71
371.989	4.95
372.356	4.81
372.724	4.62
373.091	4.83
373.458	4.32
373.826	4.64
374.193	4.74
374.56	4.31
374.927	4.26
375.294	4.46
375.661	5.05
376.028	4.71
376.395	4.89
376.762	4.68
377.129	4.41
377.496	4.49
377.863	4.72
378.229	4.61
378.596	4.65
378.963	4.78
379.329	5
379.696	4.5
380.062	4.8
380.429	4.89
380.795	4.84
381.161	4.96
381.528	4.92
381.894	4.94
382.26	4.56
382.626	4.91
382.993	4.48
383.359	5.19
383.725	4.88
384.091	4.96
384.457	4.73
384.823	4.73
385.188	4.78
385.554	4.41
385.92	4.52
386.286	4.43
386.651	4.45
387.017	4.75
387.383	4.95
387.748	4.84
388.114	4.72
388.479	4.83
388.845	5.03
389.21	4.69
389.575	4.46
389.94	4.88
390.306	4.71
390.671	4.63
391.036	4.93
391.401	4.65
391.766	4.9
392.131	4.73
392.496	4.83
392.861	4.91
393.226	4.86
393.591	5.04
393.956	4.82
394.32	4.94
394.685	4.97
395.05	4.85
395.414	4.84
395.779	4.51
396.143	4.84
396.508	4.84
396.872	4.94
397.236	4.78
397.601	5.08
397.965	5.11
398.329	4.99
398.694	4.96
399.058	4.71
399.422	4.93
399.786	5.06
400.15	4.83
400.514	5.12
400.878	4.73
401.242	5.06
401.605	5.1
401.969	4.91
402.333	4.67
402.697	5.13
403.06	4.71
403.424	4.92
403.787	5
404.151	4.9
404.514	4.85
404.878	4.75
405.241	5.04
405.604	4.98
405.968	4.98
406.331	4.92
406.694	4.77
407.057	4.81
407.42	5
407.783	4.9
408.146	5.03
408.509	4.7
408.872	4.98
409.235	4.65
409.598	4.86
409.961	4.93
410.323	5.03
410.686	4.95
411.049	4.73
411.411	4.78
411.774	4.67
412.136	4.91
412.499	5.01
412.861	4.6
413.223	4.85
413.586	4.74
413.948	4.79
414.31	4.99
414.672	5.08
415.035	5.02
415.397	5
415.759	5.07
416.121	4.89
416.483	4.81
416.845	5.17
417.206	4.9
417.568	5.06
417.93	4.88
418.292	5.07
418.653	5.04
419.015	4.94
419.377	4.95
419.738	4.95
420.1	4.92
420.461	4.97
420.822	4.91
421.184	4.84
421.545	4.94
421.906	4.91
422.267	4.94
422.629	4.9
422.99	4.81
423.351	4.8
423.712	4.76
424.073	4.86
424.434	4.88
424.795	4.92
425.155	4.88
425.516	4.87
425.877	4.85
426.238	4.94
426.598	4.89
426.959	4.96
427.32	4.99
427.68	4.9
428.041	5.02
428.401	4.98
428.761	5.04
429.122	4.91
429.482	4.87
429.842	5.08
430.202	5.19
430.563	4.92
430.923	5.26
431.283	5.09
431.643	4.99
432.003	5
432.363	5.23
432.722	5.33
433.082	4.95
433.442	5.11
433.802	5.1
434.161	5.16
434.521	5.01
434.881	5.07
435.24	4.9
435.6	4.95
435.959	5.09
436.319	4.94
436.678	5.05
437.037	5.13
437.396	5.16
437.756	5.03
438.115	4.99
438.474	5.08
438.833	5.03
439.192	4.97
439.551	5.06
439.91	5.11
440.269	4.92
440.628	5
440.987	5.1
441.345	5.15
441.704	5.06
442.063	5.11
442.421	4.88
442.78	5.02
443.138	5.06
443.497	5.04
443.855	5.01
444.214	5.03
444.572	5.25
444.93	5.08
445.288	5.1
445.647	5.26
446.005	5.04
446.363	5.07
446.721	5.04
447.079	5.08
447.437	4.96
447.795	5.05
448.153	5
448.51	5.03
448.868	5.07
449.226	5.09
449.584	5.05
449.941	5.08
450.299	5.15
450.656	5.16
451.014	5.18
451.371	5.32
451.729	4.99
452.086	5.31
452.443	5.06
452.801	5.15
453.158	5.23
453.515	5.22
453.872	5.15
454.229	5.25
454.586	5.16
454.943	5.11
455.3	5.16
455.657	5.15
456.014	5.23
456.371	5.16
456.727	5.19
457.084	5.21
457.441	5.37
457.797	5.14
458.154	5.3
458.51	5.11
458.867	5.22
459.223	5.26
459.58	5.09
459.936	5.3
460.292	5.21
460.648	5.13
461.005	5.19
461.361	5.13
461.717	5.14
462.073	5.19
462.429	5.19
462.785	5.15
463.141	5.24
463.496	5.14
463.852	5.22
464.208	5.32
464.564	5.32
464.919	5.35
465.275	5.37
465.631	5.14
465.986	5.3
466.342	5.15
466.697	5.28
467.052	5.18
467.408	5.22
467.763	5.28
468.118	5.37
468.473	5.41
468.829	5.4
469.184	5.36
469.539	5.2
469.894	5.24
470.249	5.51
470.603	5.3
470.958	5.28
471.313	5.34
471.668	5.27
472.023	5.37
472.377	5.22
472.732	5.3
473.086	5.33
473.441	5.29
473.795	5.36
474.15	5.31
474.504	5.27
474.859	5.29
475.213	5.38
475.567	5.4
475.921	5.31
476.275	5.44
476.63	5.4
476.984	5.33
477.338	5.22
477.692	5.32
478.045	5.3
478.399	5.41
478.753	5.24
479.107	5.42
479.461	5.16
479.814	5.28
480.168	5.31
480.521	5.28
480.875	5.3
481.228	5.39
481.582	5.23
481.935	5.33
482.289	5.19
482.642	5.14
482.995	5.37
483.348	5.38
483.701	5.2
484.055	5.2
484.408	5.19
484.761	5.13
485.114	5.05
485.466	5.03
485.819	5.05
486.172	5.05
486.525	5.06
486.878	5.12
487.23	5.19
487.583	5.14
487.936	5.18
488.288	5.17
488.641	5.13
488.993	5.12
489.345	5.13
489.698	5.17
490.05	5.14
490.402	5.21
490.754	5.22
491.107	5.22
491.459	5.33
491.811	5.28
492.163	5.28
492.515	5.23
492.866	5.23
493.218	5.16
493.57	5.16
493.922	5.18
494.274	5.21
494.625	5.24
494.977	5.33
495.328	5.23
495.68	5.38
496.031	5.37
496.383	5.5
496.734	5.4
497.086	5.44
497.437	5.45
497.788	5.41
498.139	5.35
498.49	5.4
498.842	5.34
499.193	5.37
499.544	5.41
499.894	5.38
500.245	5.32
500.596	5.45
500.947	5.37
501.298	5.41
501.648	5.37
501.999	5.46
502.35	5.37
502.7	5.38
503.051	5.47
503.401	5.4
503.752	5.43
504.102	5.48
504.452	5.53
504.803	5.52
505.153	5.35
505.503	5.52
505.853	5.4
506.203	5.57
506.553	5.43
506.903	5.37
507.253	5.49
507.603	5.52
507.953	5.51
508.303	5.48
508.652	5.45
509.002	5.36
509.352	5.42
509.701	5.47
510.051	5.45
510.4	5.34
510.75	5.31
511.099	5.35
511.449	5.47
511.798	5.44
512.147	5.45
512.496	5.53
512.846	5.59
513.195	5.45
513.544	5.47
513.893	5.35
514.242	5.48
514.591	5.49
514.939	5.5
515.288	5.54
515.637	5.51
515.986	5.53
516.334	5.53
516.683	5.47
517.032	5.38
517.38	5.44
517.729	5.55
518.077	5.38
518.426	5.48
518.774	5.46
519.122	5.53
519.47	5.37
519.819	5.36
520.167	5.39
520.515	5.41
520.863	5.45
521.211	5.46
521.559	5.54
521.907	5.44
522.255	5.39
522.602	5.4
522.95	5.48
523.298	5.46
523.645	5.48
523.993	5.54
524.341	5.62
524.688	5.54
525.036	5.52
525.383	5.53
525.73	5.52
526.078	5.53
526.425	5.53
526.772	5.46
527.119	5.42
527.466	5.45
527.814	5.46
528.161	5.45
528.508	5.37
528.854	5.45
529.201	5.44
529.548	5.34
529.895	5.28
530.242	5.29
530.588	5.32
530.935	5.36
531.282	5.33
531.628	5.36
531.975	5.44
532.321	5.47
532.667	5.43
533.014	5.57
533.36	5.43
533.706	5.45
534.052	5.46
534.399	5.48
534.745	5.37
535.091	5.39
535.437	5.39
535.783	5.35
536.129	5.34
536.474	5.43
536.82	5.53
537.166	5.44
537.512	5.55
537.857	5.53
538.203	5.51
538.549	5.43
538.894	5.45
539.239	5.48
539.585	5.64
539.93	5.54
540.276	5.69
540.621	5.56
540.966	5.59
541.311	5.51
541.656	5.6
542.001	5.46
542.346	5.38
542.691	5.36
543.036	5.32
543.381	5.4
543.726	5.34
544.071	5.39
544.415	5.51
544.76	5.4
545.105	5.47
545.449	5.53
545.794	5.55
546.138	5.66
546.483	5.59
546.827	5.5
547.171	5.46
547.516	5.64
547.86	5.56
548.204	5.5
548.548	5.55
548.892	5.53
549.236	5.53
549.58	5.59
549.924	5.6
550.268	5.62
550.612	5.64
550.956	5.63
551.3	5.73
551.643	5.57
551.987	5.76
552.33	5.73
552.674	5.68
553.017	5.57
553.361	5.7
553.704	5.67
554.048	5.71
554.391	5.65
554.734	5.65
555.077	5.73
555.42	5.79
555.764	5.65
556.107	5.59
556.45	5.71
556.793	5.73
557.135	5.8
557.478	5.65
557.821	5.75
558.164	5.65
558.507	5.63
558.849	5.73
559.192	5.77
559.534	5.89
559.877	5.88
560.219	5.86
560.562	5.85
560.904	5.74
561.246	5.66
561.589	5.8
561.931	5.61
562.273	5.68
562.615	5.78
562.957	5.59
563.299	5.76
563.641	5.64
563.983	5.85
564.325	5.62
564.667	5.81
565.008	5.91
565.35	5.92
565.692	5.75
566.033	5.57
566.375	5.79
566.716	5.73
567.058	5.83
567.399	5.79
567.741	5.76
568.082	5.77
568.423	5.77
568.764	5.65
569.105	5.7
569.447	5.88
569.788	5.84
570.129	5.85
570.47	5.74
570.811	5.57
571.151	5.84
571.492	5.6
571.833	5.58
572.174	5.77
572.514	5.69
572.855	5.92
573.195	5.71
573.536	5.65
573.876	5.67
574.217	5.63
574.557	5.83
574.898	5.69
575.238	5.93
575.578	5.89
575.918	5.83
576.258	5.73
576.598	5.91
576.938	5.64
577.278	5.93
577.618	5.8
577.958	5.81
578.298	5.81
578.638	5.82
578.977	6.08
579.317	5.69
579.657	5.74
579.996	5.93
580.336	5.95
580.675	6.09
581.014	5.84
581.354	5.62
581.693	5.71
582.032	5.79
582.372	5.94
582.711	5.64
583.05	5.91
583.389	5.76
583.728	5.92
584.067	5.79
584.406	5.71
584.745	5.72
585.083	5.6
585.422	5.96
585.761	5.73
586.1	6.02
586.438	6.06
586.777	6.12
587.115	5.82
587.454	6.09
587.792	5.91
588.13	5.97
588.469	6.13
588.807	5.66
589.145	5.89
589.483	5.92
589.821	5.83
590.159	5.85
590.497	6.14
590.835	5.86
591.173	6
591.511	6.06
591.849	6.04
592.187	6.03
592.524	6.12
592.862	5.81
593.2	6.07
593.537	5.86
593.875	5.98
594.212	5.71
594.55	5.95
594.887	5.91
595.224	5.99
595.561	6.01
595.899	6.1
596.236	6.04
596.573	6.35
596.91	5.74
597.247	6.04
597.584	5.9
597.921	5.91
598.258	5.88
598.594	5.93
598.931	5.94
599.268	5.85
599.604	5.91
599.941	6.02
600.277	5.89
600.614	5.96
600.95	6.09
601.287	5.93
601.623	6.13
601.959	5.89
602.296	5.91
602.632	5.79
602.968	6.05
603.304	6.15
603.64	6.13
603.976	5.85
604.312	6.1
604.648	6.06
604.984	5.84
605.319	6.03
605.655	5.94
605.991	5.88
606.326	6.08
606.662	6.07
606.998	6.22
607.333	6.09
607.668	6
608.004	6.11
608.339	5.95
608.674	6.43
609.01	5.95
609.345	6.28
609.68	6.21
610.015	6.17
610.35	6.16
610.685	6.2
611.02	5.99
611.355	5.96
611.689	6.19
612.024	6.2
612.359	6.14
612.694	6.06
613.028	6.17
613.363	6.11
613.697	6.21
614.032	6.17
614.366	6.21
614.7	5.94
615.035	6.11
615.369	5.84
615.703	6.06
616.037	6.42
616.371	6.04
616.705	6.13
617.039	6.13
617.373	5.92
617.707	6.05
618.041	5.82
618.375	5.95
618.709	6.16
619.042	5.88
619.376	6.07
619.71	6.15
620.043	5.98
620.377	5.96
620.71	6.01
621.043	6.24
621.377	6.06
621.71	5.98
622.043	6.05
622.376	6.24
622.709	6.17
623.043	5.95
623.376	6.35
623.709	6.11
624.041	6.18
624.374	6.34
624.707	6.1
625.04	6.35
625.373	6.54
625.705	6.19
626.038	6.29
626.37	6.05
626.703	6.34
627.035	6.47
627.368	6.09
627.7	6.28
628.032	6.31
628.365	6.12
628.697	6.55
629.029	6.51
629.361	6.32
629.693	6.52
630.025	6.24
630.357	6.2
630.689	6.24
631.021	6.11
631.353	6.33
631.684	6.22
632.016	5.99
632.348	6.28
632.679	6.02
633.011	6.42
633.342	6.37
633.674	6.28
634.005	6.59
634.336	6.16
634.668	6.56
634.999	6.1
635.33	6.64
635.661	6.09
635.992	6.55
636.323	6.75
636.654	6.39
636.985	6.7
637.316	6.36
637.647	6.41
637.977	6.78
638.308	6.32
638.639	6.68
638.969	6.39
639.3	6.31
639.63	6.43
639.961	6.29
640.291	6.05
640.622	6.45
640.952	6.76
641.282	6.5
641.612	6.66
641.943	6.62
642.273	6.29
642.603	6.14
642.933	6.68
643.263	6.53
643.592	6.69
643.922	6.03
644.252	7
644.582	6.04
644.911	6.63
645.241	7.06
645.571	6.49
645.9	6.69
646.23	6.57
646.559	6.57
646.888	6.78
647.218	6.4
647.547	6.24
647.876	6.33
648.205	6.39
648.534	6.44
648.863	6.74
649.192	6.44
649.521	6.48
649.85	6.97
650.179	6.84
650.508	6.96
650.837	6.62
651.165	6.45
651.494	6.72
651.822	7.02
652.151	6.84
652.479	6.68
652.808	6.18
653.136	6.17
653.465	6.56
653.793	6.51
654.121	7.04
654.449	7.16
654.777	6.52
655.105	7.49
655.433	6.6
655.761	6.61
656.089	6.57
656.417	6.93
656.745	7.07
657.073	6.59
657.4	6.58
657.728	6.71
658.056	6.51
658.383	6.42
658.711	7.28
659.038	6.67
659.365	6.62
659.693	6.88
660.02	6.87
660.347	7.07
660.674	7.13
661.001	6.54
661.329	6.61
661.656	6.21
661.982	6.88
662.309	6.8
662.636	7.18
662.963	6.71
663.29	6.57
663.616	6.61
663.943	7.06
664.27	7.33
664.596	7.04
664.923	6.9
665.249	7.15
665.576	6.99
665.902	6.85
666.228	7.09
666.554	6.89
666.881	6.94
667.207	7.43
667.533	6.9
667.859	6.42
668.185	7.77
668.511	6.95
668.837	6.89
669.162	7.02
669.488	6.82
669.814	7.44
670.139	7.05
670.465	6.6
670.791	7.22
671.116	7.33
671.442	6.81
671.767	7.31
672.092	7.14
672.418	7.15
672.743	6.33
673.068	6.51
673.393	6.51
673.718	7.31
674.043	6.9
674.368	6.52
674.693	7.11
675.018	6.85
675.343	6.57
675.667	7.21
675.992	7.63
676.317	7.06
676.641	7.08
676.966	7.17
677.29	6.6
677.615	7.62
677.939	7.25
678.264	6.95
678.588	7.24
678.912	7.05
679.236	7.21
679.56	6.89
679.885	6.98
680.209	6.55
680.532	7.33
680.856	7.39
681.18	7.5
681.504	7.06
681.828	7.11
682.152	7.63
682.475	7.35
682.799	7.4
683.122	7.06
683.446	6.79
683.769	7.66
684.093	6.72
684.416	7.1
684.739	7.25
685.062	6.98
685.386	6.8
685.709	6.83
686.032	7.27
686.355	7.19
686.678	7.5
687.001	6.8
687.324	7.43
687.646	6.75
687.969	7.29
688.292	7.61
688.614	7.15
688.937	7.43
689.26	6.45
689.582	7
689.904	7.36
690.227	6.86
690.549	7.86
690.871	6.57
691.194	7.62
691.516	7.59
691.838	7.33
692.16	7.77
692.482	7.71
