Data from 0032_crown_Reflection__4__161.txt Node

Date: Thu Oct 20 22:11:07 CDT 2022
User: ToomeyLab
Spectrometer: FLMS14357
Trigger mode: 0
Integration Time (sec): 1.000000E-2
Scans to average: 100
Electric dark correction enabled: true
Nonlinearity correction enabled: false
Boxcar width: 0
XAxis mode: Wavelengths
Number of Pixels in Spectrum: 2048
>>>>>Begin Spectral Data<<<<<
189.047	40.64
189.435	40.64
189.823	40.64
190.211	31.85
190.599	-37.14
190.987	435.69
191.375	46.26
191.763	163.04
192.151	35.19
192.538	-155.21
192.926	15.93
193.314	-546.61
193.702	-620.11
194.089	37.95
194.477	12.52
194.864	-60.78
195.252	100.96
195.639	225.74
196.027	-69.64
196.414	55.17
196.801	-209.81
197.189	-72.36
197.576	362.16
197.963	428.54
198.351	8.33
198.738	-52.93
199.125	3.96
199.512	-26.66
199.899	-23.55
200.286	9.2
200.673	-33.38
201.06	28.05
201.447	22.68
201.833	-55.8
202.22	-58.11
202.607	-17.99
202.994	-26.42
203.38	-77.37
203.767	-7.72
204.154	-22.34
204.54	-14.12
204.927	-6.66
205.313	10.8
205.699	11.22
206.086	-8.54
206.472	25.69
206.858	34.4
207.245	26.89
207.631	-7.97
208.017	-68.96
208.403	-55.39
208.789	-5.33
209.175	11.76
209.561	24.59
209.947	22.15
210.333	1.3
210.719	-9.27
211.105	13.37
211.491	-79.31
211.876	-18.45
212.262	-16.42
212.648	14.77
213.034	-16.58
213.419	-30.52
213.805	-59
214.19	-4.13
214.576	-46.95
214.961	-4.19
215.346	-15.44
215.732	-6.57
216.117	-42.7
216.502	-9.16
216.888	-8.71
217.273	4.17
217.658	8.86
218.043	-1.33
218.428	-6.4
218.813	15.54
219.198	22.01
219.583	18.34
219.968	22.3
220.353	-14.35
220.738	-1.96
221.122	14.25
221.507	13.01
221.892	-11.82
222.276	-7.19
222.661	2.56
223.046	16.3
223.43	5.66
223.815	3.41
224.199	-7.05
224.583	3.35
224.968	2.35
225.352	8.67
225.736	-1.04
226.121	1.72
226.505	4.17
226.889	-2.49
227.273	-0.55
227.657	1.07
228.041	-0.98
228.425	1.49
228.809	4.35
229.193	3.2
229.577	2.05
229.961	3.36
230.344	3.83
230.728	4.1
231.112	3.4
231.495	4.72
231.879	4.77
232.263	3.84
232.646	3.82
233.03	2.54
233.413	0.87
233.797	1.77
234.18	2.83
234.563	3.4
234.946	4.02
235.33	4.81
235.713	3.46
236.096	2.74
236.479	3.7
236.862	2.2
237.245	2.03
237.628	3.7
238.011	6.02
238.394	4.94
238.777	3.84
239.16	2.74
239.543	2.85
239.925	2.54
240.308	3.64
240.691	5.01
241.073	2.65
241.456	4.45
241.838	3.43
242.221	3.41
242.603	2.95
242.986	3.98
243.368	3.89
243.75	4.27
244.133	4.07
244.515	3.88
244.897	4
245.279	3.42
245.661	3.77
246.043	4.62
246.425	4.77
246.807	4.43
247.189	3.94
247.571	4.08
247.953	4.22
248.335	4.11
248.717	4
249.098	3.82
249.48	3.72
249.862	4.11
250.243	4.23
250.625	4.2
251.006	3.79
251.388	3.63
251.769	3.78
252.151	4.3
252.532	3.46
252.913	3.69
253.295	4.29
253.676	4.19
254.057	3.15
254.438	3.77
254.819	4.68
255.2	3.77
255.581	3.19
255.962	4.45
256.343	2.7
256.724	2.63
257.105	2.78
257.486	3.31
257.867	4.32
258.247	4.12
258.628	3.63
259.009	3.31
259.389	3.45
259.77	3.81
260.15	4.26
260.531	4.33
260.911	3.88
261.292	4.21
261.672	3.89
262.052	3.66
262.432	4.06
262.813	4.19
263.193	4.29
263.573	3.86
263.953	3.96
264.333	3.52
264.713	3.78
265.093	4.32
265.473	4.07
265.853	4.38
266.233	4.04
266.612	3.34
266.992	3.4
267.372	4.4
267.752	4.08
268.131	4.63
268.511	4.13
268.89	4.05
269.27	3.79
269.649	3.15
270.029	3.13
270.408	3.13
270.787	3.68
271.167	3.6
271.546	3.43
271.925	4.2
272.304	3.62
272.683	3.9
273.062	3.46
273.441	3.66
273.82	4.05
274.199	3.5
274.578	3.4
274.957	3.77
275.336	3.58
275.715	3.79
276.093	4.27
276.472	3.9
276.851	4.2
277.229	3.44
277.608	3.42
277.986	3.62
278.365	3.58
278.743	3.53
279.122	4.04
279.5	4.14
279.878	3.62
280.257	3.6
280.635	3.73
281.013	3.59
281.391	3.93
281.769	3.73
282.147	2.94
282.525	3.48
282.903	3.84
283.281	3.63
283.659	2.92
284.037	2.91
284.415	3.08
284.792	3.5
285.17	3.81
285.548	3.47
285.925	3.62
286.303	3.85
286.68	3.68
287.058	3.59
287.435	3.52
287.813	3.55
288.19	3.47
288.567	3.57
288.945	3.7
289.322	3.39
289.699	3.04
290.076	3.43
290.453	3.23
290.83	3.52
291.207	3.66
291.584	3.3
291.961	3.38
292.338	3.19
292.715	3.5
293.092	3.57
293.469	3.48
293.845	3.18
294.222	4
294.599	4.16
294.975	3.69
295.352	3.71
295.728	3.19
296.105	3.91
296.481	3.51
296.858	3.45
297.234	3.89
297.61	3.72
297.986	3.25
298.363	3.46
298.739	3.54
299.115	3.59
299.491	3.56
299.867	3.15
300.243	3.4
300.619	3.53
300.995	3.23
301.371	3.48
301.746	3.82
302.122	3.99
302.498	3.48
302.874	3.82
303.249	3.63
303.625	3.8
304	3.91
304.376	3.25
304.751	3.55
305.127	3.22
305.502	3.43
305.878	3.8
306.253	3.01
306.628	3.06
307.003	3.28
307.378	3.6
307.754	3.41
308.129	3.56
308.504	3.48
308.879	3.25
309.254	4.02
309.629	3.65
310.003	2.94
310.378	3.29
310.753	3.65
311.128	3.57
311.502	3.62
311.877	3.41
312.252	3.46
312.626	3.68
313.001	3.7
313.375	3.56
313.75	3.25
314.124	3.77
314.498	3.4
314.873	3.67
315.247	3.34
315.621	3.81
315.995	3.47
316.369	3.4
316.743	2.96
317.117	3.83
317.491	3.66
317.865	3.3
318.239	3.49
318.613	4.07
318.987	3.29
319.361	3.67
319.734	3.29
320.108	3.69
320.482	3.45
320.855	4.35
321.229	3.8
321.602	2.67
321.976	3.12
322.349	3.48
322.723	4.19
323.096	3.68
323.469	3.76
323.843	3.99
324.216	3.6
324.589	4.18
324.962	3.52
325.335	3.9
325.708	3.47
326.081	3.76
326.454	3.46
326.827	3.61
327.2	3.79
327.573	3.49
327.945	3.92
328.318	3.61
328.691	4.15
329.063	3.99
329.436	4.19
329.809	3.56
330.181	3.48
330.553	3.04
330.926	3.44
331.298	3.46
331.671	4.15
332.043	4.03
332.415	3.71
332.787	4.05
333.159	4.03
333.532	3.51
333.904	3.95
334.276	3.74
334.648	3.4
335.02	3.81
335.391	3.93
335.763	4.04
336.135	3.72
336.507	3.34
336.879	4.16
337.25	3.47
337.622	4.14
337.993	3.5
338.365	4.09
338.736	3.61
339.108	3.58
339.479	4
339.851	3.2
340.222	3.49
340.593	3.84
340.964	3.87
341.336	3.67
341.707	3.63
342.078	3.56
342.449	3.69
342.82	3.6
343.191	3.73
343.562	3.7
343.933	3.59
344.303	3.61
344.674	3.51
345.045	3.96
345.416	4.03
345.786	4
346.157	3.75
346.527	3.43
346.898	3.39
347.268	3.55
347.639	4.16
348.009	3.73
348.38	4.07
348.75	3.49
349.12	3.87
349.49	3.76
349.861	4.01
350.231	3.29
350.601	3.76
350.971	3.81
351.341	3.74
351.711	3.78
352.081	3.5
352.45	3.91
352.82	3.51
353.19	3.88
353.56	3.76
353.929	3.5
354.299	4.15
354.669	3.72
355.038	3.66
355.408	3.55
355.777	3.57
356.147	3.9
356.516	3.84
356.885	3.86
357.254	4.03
357.624	3.58
357.993	3.4
358.362	4
358.731	3.67
359.1	3.55
359.469	3.73
359.838	3.66
360.207	4.15
360.576	3.53
360.945	4.01
361.314	4.03
361.682	3.87
362.051	3.46
362.42	3.66
362.788	3.56
363.157	3.79
363.525	3.79
363.894	3.74
364.262	3.81
364.631	3.72
364.999	3.87
365.367	4.16
365.735	3.7
366.104	3.68
366.472	3.36
366.84	3.92
367.208	3.71
367.576	3.98
367.944	3.98
368.312	3.84
368.68	4.27
369.048	3.86
369.416	3.67
369.783	4
370.151	4.2
370.519	4
370.886	3.62
371.254	3.9
371.621	4.06
371.989	3.9
372.356	3.83
372.724	4.04
373.091	3.82
373.458	3.85
373.826	4.1
374.193	3.88
374.56	3.42
374.927	3.85
375.294	3.77
375.661	4.03
376.028	3.76
376.395	4.28
376.762	3.88
377.129	3.73
377.496	3.61
377.863	3.78
378.229	3.67
378.596	3.76
378.963	3.96
379.329	4.07
379.696	3.67
380.062	3.73
380.429	4.19
380.795	3.79
381.161	3.99
381.528	4.2
381.894	4.14
382.26	3.85
382.626	4.21
382.993	3.91
383.359	4.14
383.725	3.9
384.091	3.98
384.457	3.64
384.823	3.91
385.188	3.97
385.554	3.73
385.92	3.76
386.286	3.91
386.651	3.63
387.017	3.79
387.383	3.95
387.748	4.31
388.114	4.12
388.479	4.04
388.845	4
389.21	4.09
389.575	3.82
389.94	4.07
390.306	4.07
390.671	3.9
391.036	3.88
391.401	3.92
391.766	4.15
392.131	4.05
392.496	3.82
392.861	3.83
393.226	3.96
393.591	4.04
393.956	4.13
394.32	4.06
394.685	4.3
395.05	4.05
395.414	4.22
395.779	3.92
396.143	4.07
396.508	3.96
396.872	3.93
397.236	3.85
397.601	4.15
397.965	3.94
398.329	3.92
398.694	3.95
399.058	3.96
399.422	4.3
399.786	3.99
400.15	4.18
400.514	4.27
400.878	4.13
401.242	4.15
401.605	4.16
401.969	4.3
402.333	4.14
402.697	4.09
403.06	4.1
403.424	3.91
403.787	4.19
404.151	4.03
404.514	4.13
404.878	4.08
405.241	3.97
405.604	4.2
405.968	3.91
406.331	4.08
406.694	4.04
407.057	4.21
407.42	4.06
407.783	4.19
408.146	4.1
408.509	4.07
408.872	4.05
409.235	3.9
409.598	3.94
409.961	4.18
410.323	4.47
410.686	4.34
411.049	4.09
411.411	4.15
411.774	3.9
412.136	4.15
412.499	4.14
412.861	4.04
413.223	4.05
413.586	3.88
413.948	4.14
414.31	4.22
414.672	4.16
415.035	4.15
415.397	4.15
415.759	4.28
416.121	4.24
416.483	4.06
416.845	4.38
417.206	4.13
417.568	4.15
417.93	4.07
418.292	4.2
418.653	4.29
419.015	4.25
419.377	4.18
419.738	4.23
420.1	4.19
420.461	4.27
420.822	4.18
421.184	4.05
421.545	4.09
421.906	4.19
422.267	4.06
422.629	4.14
422.99	4.16
423.351	4.18
423.712	4.1
424.073	4.2
424.434	4.14
424.795	4.21
425.155	4.22
425.516	4.25
425.877	4.1
426.238	4.25
426.598	4.27
426.959	4.14
427.32	4.27
427.68	4.25
428.041	4.26
428.401	4.21
428.761	4.2
429.122	4.24
429.482	4.14
429.842	4.37
430.202	4.27
430.563	4.27
430.923	4.42
431.283	4.37
431.643	4.32
432.003	4.37
432.363	4.53
432.722	4.5
433.082	4.2
433.442	4.35
433.802	4.44
434.161	4.42
434.521	4.36
434.881	4.27
435.24	4.21
435.6	4.11
435.959	4.32
436.319	4.32
436.678	4.32
437.037	4.38
437.396	4.36
437.756	4.46
438.115	4.34
438.474	4.24
438.833	4.36
439.192	4.33
439.551	4.49
439.91	4.33
440.269	4.53
440.628	4.43
440.987	4.24
441.345	4.46
441.704	4.32
442.063	4.45
442.421	4.32
442.78	4.3
443.138	4.36
443.497	4.37
443.855	4.33
444.214	4.5
444.572	4.56
444.93	4.29
445.288	4.36
445.647	4.38
446.005	4.3
446.363	4.44
446.721	4.37
447.079	4.53
447.437	4.36
447.795	4.4
448.153	4.37
448.51	4.33
448.868	4.39
449.226	4.48
449.584	4.35
449.941	4.44
450.299	4.4
450.656	4.31
451.014	4.46
451.371	4.47
451.729	4.44
452.086	4.64
452.443	4.35
452.801	4.5
453.158	4.64
453.515	4.53
453.872	4.36
454.229	4.43
454.586	4.46
454.943	4.42
455.3	4.36
455.657	4.58
456.014	4.41
456.371	4.51
456.727	4.52
457.084	4.56
457.441	4.67
457.797	4.54
458.154	4.46
458.51	4.4
458.867	4.53
459.223	4.78
459.58	4.66
459.936	4.56
460.292	4.47
460.648	4.51
461.005	4.52
461.361	4.51
461.717	4.54
462.073	4.62
462.429	4.61
462.785	4.62
463.141	4.58
463.496	4.69
463.852	4.61
464.208	4.57
464.564	4.57
464.919	4.63
465.275	4.83
465.631	4.57
465.986	4.61
466.342	4.56
466.697	4.53
467.052	4.47
467.408	4.67
467.763	4.72
468.118	4.77
468.473	4.85
468.829	4.7
469.184	4.59
469.539	4.48
469.894	4.62
470.249	4.81
470.603	4.68
470.958	4.55
471.313	4.65
471.668	4.59
472.023	4.73
472.377	4.73
472.732	4.77
473.086	4.82
473.441	4.75
473.795	4.68
474.15	4.68
474.504	4.6
474.859	4.69
475.213	4.8
475.567	4.8
475.921	4.58
476.275	4.82
476.63	4.83
476.984	4.88
477.338	4.74
477.692	4.81
478.045	4.84
478.399	4.8
478.753	4.62
479.107	4.69
479.461	4.73
479.814	4.85
480.168	4.75
480.521	4.79
480.875	4.76
481.228	4.71
481.582	4.8
481.935	4.86
482.289	4.61
482.642	4.54
482.995	4.78
483.348	4.85
483.701	4.73
484.055	4.73
484.408	4.63
484.761	4.65
485.114	4.58
485.466	4.54
485.819	4.48
486.172	4.52
486.525	4.54
486.878	4.57
487.23	4.61
487.583	4.6
487.936	4.72
488.288	4.76
488.641	4.67
488.993	4.63
489.345	4.65
489.698	4.63
490.05	4.66
490.402	4.67
490.754	4.63
491.107	4.65
491.459	4.76
491.811	4.77
492.163	4.77
492.515	4.74
492.866	4.76
493.218	4.71
493.57	4.69
493.922	4.67
494.274	4.66
494.625	4.79
494.977	4.82
495.328	4.76
495.68	4.82
496.031	4.86
496.383	4.9
496.734	4.88
497.086	4.78
497.437	4.94
497.788	4.86
498.139	4.86
498.49	4.91
498.842	4.79
499.193	4.82
499.544	4.94
499.894	4.92
500.245	4.92
500.596	4.8
500.947	4.91
501.298	4.84
501.648	4.91
501.999	4.86
502.35	4.96
502.7	5.03
503.051	4.94
503.401	5.05
503.752	4.98
504.102	4.93
504.452	5.01
504.803	4.84
505.153	4.86
505.503	5.12
505.853	4.96
506.203	4.96
506.553	4.98
506.903	4.96
507.253	5.08
507.603	5
507.953	5.05
508.303	5.03
508.652	4.96
509.002	4.99
509.352	5.03
509.701	5.01
510.051	5.06
510.4	4.94
510.75	4.95
511.099	4.93
511.449	5.05
511.798	4.91
512.147	5.04
512.496	5.13
512.846	5.07
513.195	5.07
513.544	5.04
513.893	5.02
514.242	4.95
514.591	5.1
514.939	4.96
515.288	5.02
515.637	5
515.986	4.95
516.334	4.99
516.683	5.09
517.032	4.93
517.38	5
517.729	5.12
518.077	5.03
518.426	5.01
518.774	5.15
519.122	5.08
519.47	5
519.819	4.98
520.167	5.04
520.515	4.9
520.863	4.93
521.211	5.01
521.559	5.05
521.907	4.95
522.255	5.01
522.602	5.05
522.95	4.98
523.298	5.01
523.645	5.11
523.993	5.05
524.341	5.21
524.688	4.99
525.036	5.04
525.383	5.08
525.73	5.08
526.078	5.17
526.425	5.11
526.772	5.12
527.119	5.07
527.466	5.03
527.814	5.08
528.161	5.09
528.508	4.99
528.854	5.07
529.201	5.03
529.548	5.01
529.895	4.94
530.242	4.93
530.588	4.87
530.935	4.91
531.282	4.88
531.628	4.91
531.975	5
532.321	4.98
532.667	4.98
533.014	5.14
533.36	5.08
533.706	5.02
534.052	5.09
534.399	5.08
534.745	5.03
535.091	5.03
535.437	5
535.783	4.95
536.129	4.98
536.474	5.05
536.82	5.06
537.166	5.07
537.512	5.18
537.857	5.13
538.203	5.1
538.549	5.11
538.894	5.08
539.239	5.09
539.585	5.17
539.93	5.12
540.276	5.23
540.621	5.12
540.966	5.17
541.311	5.2
541.656	5.18
542.001	5.12
542.346	5.11
542.691	5.01
543.036	4.99
543.381	5.02
543.726	5.03
544.071	4.98
544.415	5.03
544.76	5.08
545.105	5.15
545.449	5.08
545.794	5.11
546.138	5.25
546.483	5.17
546.827	5.2
547.171	5.25
547.516	5.21
547.86	5.17
548.204	5.23
548.548	5.21
548.892	5.15
549.236	5.25
549.58	5.17
549.924	5.21
550.268	5.14
550.612	5.22
550.956	5.33
551.3	5.24
551.643	5.46
551.987	5.43
552.33	5.36
552.674	5.21
553.017	5.28
553.361	5.29
553.704	5.42
554.048	5.41
554.391	5.3
554.734	5.27
555.077	5.17
555.42	5.32
555.764	5.27
556.107	5.19
556.45	5.25
556.793	5.2
557.135	5.4
557.478	5.41
557.821	5.31
558.164	5.36
558.507	5.29
558.849	5.36
559.192	5.44
559.534	5.51
559.877	5.53
560.219	5.3
560.562	5.41
560.904	5.26
561.246	5.51
561.589	5.42
561.931	5.12
562.273	5.43
562.615	5.26
562.957	5.2
563.299	5.36
563.641	5.4
563.983	5.52
564.325	5.48
564.667	5.52
565.008	5.37
565.35	5.41
565.692	5.41
566.033	5.09
566.375	5.23
566.716	5.39
567.058	5.44
567.399	5.41
567.741	5.25
568.082	5.3
568.423	5.3
568.764	5.29
569.105	5.36
569.447	5.35
569.788	5.19
570.129	5.5
570.47	5.36
570.811	5.13
571.151	5.43
571.492	5.28
571.833	5.34
572.174	5.29
572.514	5.51
572.855	5.65
573.195	5.41
573.536	5.48
573.876	5.28
574.217	5.37
574.557	5.47
574.898	5.32
575.238	5.49
575.578	5.4
575.918	5.4
576.258	5.32
576.598	5.45
576.938	5.39
577.278	5.48
577.618	5.5
577.958	5.31
578.298	5.44
578.638	5.3
578.977	5.53
579.317	5.42
579.657	5.38
579.996	5.62
580.336	5.57
580.675	5.77
581.014	5.49
581.354	5.48
581.693	5.45
582.032	5.4
582.372	5.6
582.711	5.29
583.05	5.4
583.389	5.5
583.728	5.52
584.067	5.49
584.406	5.5
584.745	5.42
585.083	5.37
585.422	5.55
585.761	5.49
586.1	5.41
586.438	5.74
586.777	5.6
587.115	5.63
587.454	5.81
587.792	5.56
588.13	5.65
588.469	5.72
588.807	5.52
589.145	5.67
589.483	5.58
589.821	5.59
590.159	5.5
590.497	5.51
590.835	5.31
591.173	5.73
591.511	5.39
591.849	5.45
592.187	5.37
592.524	5.61
592.862	5.49
593.2	5.52
593.537	5.5
593.875	5.63
594.212	5.41
594.55	5.59
594.887	5.56
595.224	5.79
595.561	5.58
595.899	5.68
596.236	5.69
596.573	5.92
596.91	5.54
597.247	5.61
597.584	5.65
597.921	5.6
598.258	5.67
598.594	5.56
598.931	5.61
599.268	5.45
599.604	5.55
599.941	5.56
600.277	5.42
600.614	5.56
600.95	5.62
601.287	5.67
601.623	5.55
601.959	5.46
602.296	5.43
602.632	5.62
602.968	5.78
603.304	5.57
603.64	5.74
603.976	5.62
604.312	5.63
604.648	5.77
604.984	5.77
605.319	5.64
605.655	5.61
605.991	5.4
606.326	5.63
606.662	5.63
606.998	5.89
607.333	5.72
607.668	5.5
608.004	5.72
608.339	5.78
608.674	5.67
609.01	5.82
609.345	5.8
609.68	5.69
610.015	5.6
610.35	5.96
610.685	5.56
611.02	5.69
611.355	5.65
611.689	5.72
612.024	5.68
612.359	5.61
612.694	5.63
613.028	5.72
613.363	5.83
613.697	5.79
614.032	5.81
614.366	5.85
614.7	5.51
615.035	5.47
615.369	5.74
615.703	5.76
616.037	5.86
616.371	5.34
616.705	5.68
617.039	5.8
617.373	5.71
617.707	5.88
618.041	5.53
618.375	5.51
618.709	5.77
619.042	5.4
619.376	5.6
619.71	6.1
620.043	5.8
620.377	5.98
620.71	5.61
621.043	5.82
621.377	5.56
621.71	5.92
622.043	5.5
622.376	6.14
622.709	6.24
623.043	5.94
623.376	5.97
623.709	6.01
624.041	5.72
624.374	5.96
624.707	5.76
625.04	6.24
625.373	6.08
625.705	5.81
626.038	5.93
626.37	5.69
626.703	6
627.035	5.92
627.368	5.81
627.7	5.66
628.032	6.08
628.365	5.88
628.697	5.88
629.029	6.06
629.361	6.12
629.693	6.05
630.025	6.19
630.357	5.95
630.689	5.57
631.021	5.73
631.353	5.94
631.684	5.89
632.016	5.67
632.348	5.9
632.679	5.9
633.011	6.18
633.342	5.84
633.674	5.83
634.005	5.77
634.336	5.99
634.668	6.25
634.999	5.99
635.33	6.13
635.661	5.81
635.992	6.12
636.323	6.11
636.654	5.88
636.985	6.31
637.316	5.92
637.647	6.2
637.977	6.2
638.308	6.01
638.639	6.22
638.969	5.9
639.3	6.11
639.63	5.98
639.961	5.47
640.291	5.51
640.622	6.41
640.952	5.99
641.282	6.56
641.612	6.57
641.943	5.84
642.273	6.37
642.603	5.74
642.933	6.04
643.263	5.95
643.592	6.12
643.922	6.17
644.252	6.33
644.582	5.94
644.911	6.11
645.241	6.28
645.571	6.13
645.9	6.5
646.23	5.79
646.559	5.91
646.888	6.29
647.218	5.76
647.547	5.74
647.876	5.77
648.205	6.09
648.534	5.81
648.863	6.29
649.192	5.99
649.521	6.09
649.85	6.5
650.179	6.05
650.508	6.4
650.837	6.19
651.165	5.99
651.494	6.59
651.822	6.72
652.151	6.48
652.479	6.26
652.808	6.25
653.136	5.97
653.465	6.33
653.793	6.26
654.121	6.21
654.449	6.5
654.777	6.12
655.105	6.52
655.433	5.77
655.761	6.69
656.089	6.33
656.417	6.31
656.745	6.4
657.073	6.13
657.4	6.51
657.728	6.18
658.056	6.76
658.383	6.3
658.711	6.64
659.038	6.57
659.365	6.06
659.693	6.55
660.02	6.54
660.347	6.55
660.674	6.72
661.001	6.4
661.329	6.53
661.656	5.95
661.982	6.26
662.309	6.26
662.636	6.88
662.963	6.21
663.29	6.1
663.616	6.23
663.943	6.59
664.27	6.69
664.596	6.61
664.923	6.36
665.249	6.2
665.576	6.87
665.902	6.3
666.228	6.63
666.554	6.65
666.881	6.21
667.207	7.09
667.533	6.28
667.859	6.3
668.185	6.94
668.511	6.59
668.837	6.29
669.162	6.82
669.488	6.14
669.814	7.17
670.139	6.73
670.465	6.51
670.791	7.06
671.116	6.95
671.442	6.32
671.767	6.8
672.092	6.27
672.418	6.5
672.743	6.25
673.068	5.91
673.393	6.49
673.718	7.03
674.043	6.39
674.368	6.43
674.693	6.44
675.018	7.09
675.343	6.35
675.667	6.82
675.992	6.41
676.317	6.83
676.641	7.12
676.966	6.6
677.29	6.66
677.615	6.57
677.939	6.4
678.264	6.76
678.588	6.82
678.912	6.48
679.236	6.56
679.56	7.09
679.885	6.36
680.209	6.82
680.532	6.94
680.856	7.04
681.18	6.47
681.504	6.59
681.828	6.91
682.152	7.07
682.475	7
682.799	7
683.122	6.47
683.446	6.68
683.769	6.74
684.093	6.74
684.416	6.66
684.739	6.9
685.062	6.15
685.386	6.93
685.709	6.27
686.032	6.64
686.355	6.73
686.678	7.03
687.001	6.84
687.324	7.44
687.646	6.24
687.969	6.73
688.292	7.32
688.614	6.95
688.937	6.71
689.26	6.93
689.582	6.55
689.904	6.84
690.227	6.75
690.549	7.27
690.871	6.47
691.194	7.02
691.516	6.68
691.838	6.88
692.16	6.54
692.482	6.82
692.804	6.91
693.126	7.04
693.448	6.55
