Data from 0032_crown_Reflection__0__157.txt Node

Date: Thu Oct 20 22:10:28 CDT 2022
User: ToomeyLab
Spectrometer: FLMS14357
Trigger mode: 0
Integration Time (sec): 1.000000E-2
Scans to average: 100
Electric dark correction enabled: true
Nonlinearity correction enabled: false
Boxcar width: 0
XAxis mode: Wavelengths
Number of Pixels in Spectrum: 2048
>>>>>Begin Spectral Data<<<<<
189.047	31.83
189.435	31.83
189.823	31.83
190.211	75.51
190.599	-7.94
190.987	676.58
191.375	33.72
191.763	-199.49
192.151	152.04
192.538	-51.74
192.926	89.03
193.314	957.77
193.702	103.7
194.089	60.56
194.477	-22.25
194.864	-397.17
195.252	56.72
195.639	-502.97
196.027	7.06
196.414	-11.64
196.801	-7.42
197.189	-58.2
197.576	114.85
197.963	140.54
198.351	26.08
198.738	-32.35
199.125	15.97
199.512	0.71
199.899	-27.05
200.286	11.72
200.673	9.97
201.06	35.63
201.447	39.36
201.833	-43.79
202.22	-57.56
202.607	16.46
202.994	-92.93
203.38	-53.59
203.767	-10.7
204.154	-0.39
204.54	9.62
204.927	-27.05
205.313	-9.08
205.699	35.53
206.086	7.26
206.472	9.06
206.858	-0.47
207.245	38.53
207.631	-10.53
208.017	-63.99
208.403	-49.52
208.789	-3.65
209.175	-3.33
209.561	28.88
209.947	-9.49
210.333	14.82
210.719	16.73
211.105	-29.69
211.491	-31.16
211.876	-20.46
212.262	-4.91
212.648	2.28
213.034	8.01
213.419	-22.15
213.805	-2.24
214.19	-34.99
214.576	-83.91
214.961	-48.26
215.346	5.18
215.732	-17.93
216.117	-6.17
216.502	-8.59
216.888	-21.99
217.273	-28.29
217.658	10.05
218.043	13.83
218.428	0.9
218.813	13.17
219.198	-1.9
219.583	-2.84
219.968	25.33
220.353	-2.59
220.738	-7.71
221.122	-0.61
221.507	-1.79
221.892	-5.28
222.276	-7.14
222.661	11.08
223.046	20.47
223.43	-4.78
223.815	-3.08
224.199	2.57
224.583	9.13
224.968	2.66
225.352	11.53
225.736	4.89
226.121	-7.29
226.505	1.05
226.889	3.18
227.273	-7.33
227.657	2.42
228.041	-1.74
228.425	4.65
228.809	4.36
229.193	3.15
229.577	1.24
229.961	2.2
230.344	1.93
230.728	1.98
231.112	1.94
231.495	2.45
231.879	3.05
232.263	3.13
232.646	2.3
233.03	1.24
233.413	-0.16
233.797	1.15
234.18	-0.04
234.563	1.61
234.946	2.02
235.33	2.22
235.713	1.6
236.096	0.76
236.479	2.19
236.862	0.56
237.245	1.12
237.628	1.07
238.011	0.84
238.394	3.64
238.777	1.07
239.16	0.74
239.543	-0.21
239.925	0.58
240.308	1.25
240.691	4.59
241.073	0.93
241.456	0.71
241.838	1.74
242.221	2.06
242.603	1.95
242.986	2.4
243.368	1.96
243.75	2.16
244.133	2.51
244.515	2.02
244.897	1.81
245.279	1.67
245.661	2.39
246.043	2.59
246.425	2.64
246.807	2.33
247.189	2.05
247.571	2.27
247.953	1.94
248.335	2.06
248.717	2.11
249.098	2
249.48	1.87
249.862	2
250.243	2.19
250.625	2.48
251.006	2.1
251.388	1.86
251.769	1.74
252.151	2.41
252.532	1.73
252.913	1.65
253.295	1.87
253.676	2.23
254.057	1.39
254.438	2.35
254.819	2.33
255.2	1.91
255.581	1.3
255.962	3.4
256.343	2.18
256.724	3.06
257.105	1.88
257.486	2.19
257.867	2.54
258.247	2.36
258.628	1.97
259.009	1.78
259.389	1.48
259.77	1.83
260.15	1.96
260.531	2.02
260.911	1.98
261.292	2.21
261.672	2.23
262.052	2.07
262.432	2.12
262.813	1.65
263.193	2.1
263.573	2.49
263.953	1.44
264.333	1.67
264.713	1.74
265.093	1.47
265.473	1.72
265.853	2.49
266.233	2.07
266.612	2.12
266.992	1.74
267.372	2.01
267.752	2
268.131	2.56
268.511	2.35
268.89	2.25
269.27	1.97
269.649	1.77
270.029	1.9
270.408	1.58
270.787	1.68
271.167	1.33
271.546	1.8
271.925	2.17
272.304	2.41
272.683	2.27
273.062	1.51
273.441	1.96
273.82	2.15
274.199	1.83
274.578	1.79
274.957	1.63
275.336	2.01
275.715	1.89
276.093	2.1
276.472	2.63
276.851	2.55
277.229	1.91
277.608	1.58
277.986	1.99
278.365	1.64
278.743	1.91
279.122	1.95
279.5	1.79
279.878	2.28
280.257	1.75
280.635	1.79
281.013	1.31
281.391	2.1
281.769	1.87
282.147	1.64
282.525	1.48
282.903	1.69
283.281	1.29
283.659	1.59
284.037	1.58
284.415	2.2
284.792	1.76
285.17	2.36
285.548	1.58
285.925	1.33
286.303	1.5
286.68	1.99
287.058	1.78
287.435	1.94
287.813	1.75
288.19	1.93
288.567	1.96
288.945	1.98
289.322	1.95
289.699	1.53
290.076	1.78
290.453	1.62
290.83	1.98
291.207	1.96
291.584	1.65
291.961	1.69
292.338	1.8
292.715	1.82
293.092	2.51
293.469	1.87
293.845	1.79
294.222	1.89
294.599	2.64
294.975	1.63
295.352	2.5
295.728	1.67
296.105	1.99
296.481	1.44
296.858	1.99
297.234	1.96
297.61	1.88
297.986	1.61
298.363	1.74
298.739	1.83
299.115	2.11
299.491	1.83
299.867	1.55
300.243	2.05
300.619	1.85
300.995	1.59
301.371	1.83
301.746	1.45
302.122	2.19
302.498	1.94
302.874	2.21
303.249	2.05
303.625	1.97
304	2.45
304.376	1.8
304.751	2.1
305.127	1.63
305.502	2.3
305.878	1.95
306.253	1.86
306.628	2.09
307.003	1.45
307.378	1.55
307.754	2.33
308.129	2.11
308.504	2.7
308.879	2.01
309.254	1.76
309.629	1.63
310.003	2.11
310.378	1.56
310.753	2.24
311.128	1.75
311.502	1.73
311.877	2.03
312.252	1.81
312.626	2.11
313.001	2.2
313.375	2.28
313.75	1.66
314.124	2.12
314.498	2.07
314.873	2.28
315.247	1.73
315.621	1.67
315.995	1.85
316.369	2.42
316.743	1.59
317.117	2.45
317.491	2.39
317.865	1.74
318.239	2.04
318.613	2.35
318.987	1.66
319.361	2.5
319.734	1.95
320.108	2.5
320.482	1.96
320.855	2.13
321.229	2.53
321.602	1.44
321.976	2.03
322.349	1.97
322.723	2.49
323.096	2.73
323.469	2.2
323.843	2.18
324.216	2.16
324.589	2.57
324.962	1.77
325.335	2.36
325.708	2.4
326.081	2.24
326.454	2.27
326.827	2.14
327.2	2.39
327.573	2.4
327.945	2.21
328.318	2.04
328.691	2.4
329.063	2.61
329.436	2.14
329.809	2.2
330.181	2.08
330.553	2.13
330.926	2.28
331.298	1.88
331.671	2.29
332.043	2.26
332.415	1.96
332.787	2.01
333.159	2.21
333.532	2.55
333.904	2.34
334.276	2.36
334.648	1.67
335.02	2.11
335.391	1.9
335.763	2.28
336.135	2.42
336.507	1.5
336.879	2.73
337.25	2.03
337.622	2.17
337.993	1.77
338.365	2.72
338.736	2.32
339.108	2.23
339.479	1.96
339.851	1.91
340.222	1.92
340.593	2.26
340.964	2.65
341.336	2.13
341.707	1.85
342.078	2.25
342.449	1.6
342.82	2.42
343.191	2.2
343.562	2.55
343.933	2.3
344.303	2.11
344.674	2.4
345.045	2.79
345.416	2.2
345.786	1.88
346.157	2.17
346.527	2.01
346.898	2.17
347.268	2.17
347.639	2.28
348.009	2.32
348.38	2.45
348.75	2.11
349.12	2.35
349.49	2
349.861	2.52
350.231	1.98
350.601	2.26
350.971	2.09
351.341	2.44
351.711	2.59
352.081	1.99
352.45	2.25
352.82	2.04
353.19	2.27
353.56	2.49
353.929	1.8
354.299	2.88
354.669	2.22
355.038	2.56
355.408	1.89
355.777	2.07
356.147	2.27
356.516	2.17
356.885	2.06
357.254	2.38
357.624	2.28
357.993	1.82
358.362	2.44
358.731	2.28
359.1	1.98
359.469	2.44
359.838	2.03
360.207	2.59
360.576	2.16
360.945	2.65
361.314	2.22
361.682	2.03
362.051	1.9
362.42	2.27
362.788	2.06
363.157	2.3
363.525	2.3
363.894	2.18
364.262	2.39
364.631	2.38
364.999	2.13
365.367	2.42
365.735	2.25
366.104	2.21
366.472	2.11
366.84	2.53
367.208	2.43
367.576	2.49
367.944	2.41
368.312	2.47
368.68	2.65
369.048	2.49
369.416	2.34
369.783	2.07
370.151	2.48
370.519	2.37
370.886	2.07
371.254	2.49
371.621	2.23
371.989	2.58
372.356	2.15
372.724	2.58
373.091	2.49
373.458	2.03
373.826	2.24
374.193	2.48
374.56	2.06
374.927	1.98
375.294	2.24
375.661	2.64
376.028	2.22
376.395	2.58
376.762	2.42
377.129	1.91
377.496	2.23
377.863	2.35
378.229	2.19
378.596	2.04
378.963	2.29
379.329	2.3
379.696	2.31
380.062	2.38
380.429	2.81
380.795	2.05
381.161	2.42
381.528	2.34
381.894	2.59
382.26	2.01
382.626	2.28
382.993	2.13
383.359	2.3
383.725	2.37
384.091	2.39
384.457	2.2
384.823	2.29
385.188	2.57
385.554	2.03
385.92	2.31
386.286	2.14
386.651	2.22
387.017	2.27
387.383	2.5
387.748	2.52
388.114	2.3
388.479	2.38
388.845	2.38
389.21	2.37
389.575	2.43
389.94	2.49
390.306	2.59
390.671	2.17
391.036	2.29
391.401	2.17
391.766	2.57
392.131	2.42
392.496	2.14
392.861	2.35
393.226	2.4
393.591	2.46
393.956	2.46
394.32	2.4
394.685	2.65
395.05	2.32
395.414	2.31
395.779	2.22
396.143	2.33
396.508	2.4
396.872	2.54
397.236	2.37
397.601	2.77
397.965	2.52
398.329	2.47
398.694	2.41
399.058	2.3
399.422	2.52
399.786	2.49
400.15	2.54
400.514	2.74
400.878	2.24
401.242	2.51
401.605	2.57
401.969	2.43
402.333	2.32
402.697	2.69
403.06	2.28
403.424	2.33
403.787	2.46
404.151	2.42
404.514	2.38
404.878	2.29
405.241	2.29
405.604	2.64
405.968	2.42
406.331	2.55
406.694	2.48
407.057	2.57
407.42	2.59
407.783	2.47
408.146	2.61
408.509	2.43
408.872	2.8
409.235	2.48
409.598	2.44
409.961	2.42
410.323	2.8
410.686	2.45
411.049	2.33
411.411	2.36
411.774	2.31
412.136	2.47
412.499	2.38
412.861	2.57
413.223	2.55
413.586	2.51
413.948	2.62
414.31	2.41
414.672	2.59
415.035	2.4
415.397	2.27
415.759	2.78
416.121	2.5
416.483	2.52
416.845	2.47
417.206	2.34
417.568	2.67
417.93	2.49
418.292	2.48
418.653	2.5
419.015	2.42
419.377	2.51
419.738	2.45
420.1	2.45
420.461	2.61
420.822	2.46
421.184	2.41
421.545	2.41
421.906	2.39
422.267	2.4
422.629	2.38
422.99	2.47
423.351	2.42
423.712	2.41
424.073	2.4
424.434	2.29
424.795	2.41
425.155	2.47
425.516	2.45
425.877	2.42
426.238	2.56
426.598	2.5
426.959	2.47
427.32	2.47
427.68	2.5
428.041	2.44
428.401	2.58
428.761	2.49
429.122	2.48
429.482	2.6
429.842	2.52
430.202	2.69
430.563	2.61
430.923	2.65
431.283	2.49
431.643	2.58
432.003	2.64
432.363	2.72
432.722	2.88
433.082	2.48
433.442	2.44
433.802	2.46
434.161	2.58
434.521	2.55
434.881	2.49
435.24	2.41
435.6	2.63
435.959	2.61
436.319	2.59
436.678	2.58
437.037	2.67
437.396	2.72
437.756	2.59
438.115	2.48
438.474	2.43
438.833	2.58
439.192	2.48
439.551	2.45
439.91	2.66
440.269	2.65
440.628	2.55
440.987	2.49
441.345	2.58
441.704	2.5
442.063	2.63
442.421	2.45
442.78	2.54
443.138	2.47
443.497	2.51
443.855	2.65
444.214	2.61
444.572	2.66
444.93	2.4
445.288	2.46
445.647	2.61
446.005	2.55
446.363	2.57
446.721	2.56
447.079	2.55
447.437	2.45
447.795	2.51
448.153	2.58
448.51	2.6
448.868	2.6
449.226	2.58
449.584	2.57
449.941	2.57
450.299	2.64
450.656	2.7
451.014	2.64
451.371	2.63
451.729	2.52
452.086	2.74
452.443	2.49
452.801	2.62
453.158	2.67
453.515	2.65
453.872	2.6
454.229	2.66
454.586	2.59
454.943	2.57
455.3	2.63
455.657	2.6
456.014	2.71
456.371	2.65
456.727	2.69
457.084	2.59
457.441	2.81
457.797	2.61
458.154	2.68
458.51	2.46
458.867	2.68
459.223	2.8
459.58	2.65
459.936	2.74
460.292	2.63
460.648	2.58
461.005	2.53
461.361	2.54
461.717	2.64
462.073	2.76
462.429	2.68
462.785	2.95
463.141	2.84
463.496	2.82
463.852	2.56
464.208	2.69
464.564	2.77
464.919	2.76
465.275	2.69
465.631	2.68
465.986	2.7
466.342	2.49
466.697	2.66
467.052	2.8
467.408	2.78
467.763	2.59
468.118	2.79
468.473	2.89
468.829	2.78
469.184	2.68
469.539	2.61
469.894	2.76
470.249	2.83
470.603	2.67
470.958	2.79
471.313	2.61
471.668	2.61
472.023	2.78
472.377	2.65
472.732	2.78
473.086	2.91
473.441	2.77
473.795	2.67
474.15	2.68
474.504	2.62
474.859	2.92
475.213	2.84
475.567	2.88
475.921	2.61
476.275	2.9
476.63	2.73
476.984	2.74
477.338	2.7
477.692	2.77
478.045	2.71
478.399	2.75
478.753	2.75
479.107	2.73
479.461	2.62
479.814	2.73
480.168	2.77
480.521	2.7
480.875	2.8
481.228	2.76
481.582	2.74
481.935	2.71
482.289	2.68
482.642	2.58
482.995	2.77
483.348	2.78
483.701	2.63
484.055	2.61
484.408	2.63
484.761	2.54
485.114	2.46
485.466	2.42
485.819	2.55
486.172	2.64
486.525	2.74
486.878	2.74
487.23	2.79
487.583	2.65
487.936	2.64
488.288	2.66
488.641	2.57
488.993	2.59
489.345	2.59
489.698	2.63
490.05	2.68
490.402	2.79
490.754	2.77
491.107	2.72
491.459	2.85
491.811	2.69
492.163	2.66
492.515	2.59
492.866	2.63
493.218	2.56
493.57	2.67
493.922	2.71
494.274	2.77
494.625	2.83
494.977	2.81
495.328	2.82
495.68	2.8
496.031	2.87
496.383	2.8
496.734	2.8
497.086	2.66
497.437	2.94
497.788	2.86
498.139	2.68
498.49	2.77
498.842	2.71
499.193	2.73
499.544	2.79
499.894	2.86
500.245	2.9
500.596	2.84
500.947	2.7
501.298	2.78
501.648	2.71
501.999	2.87
502.35	2.85
502.7	2.92
503.051	2.99
503.401	2.95
503.752	2.91
504.102	2.85
504.452	2.85
504.803	2.82
505.153	2.88
505.503	3
505.853	2.84
506.203	2.86
506.553	2.91
506.903	2.82
507.253	2.9
507.603	2.85
507.953	2.86
508.303	2.93
508.652	2.82
509.002	2.88
509.352	2.89
509.701	2.83
510.051	2.75
510.4	2.78
510.75	2.86
511.099	2.83
511.449	2.9
511.798	2.96
512.147	3.01
512.496	2.97
512.846	3
513.195	2.85
513.544	2.85
513.893	2.92
514.242	2.79
514.591	2.98
514.939	2.92
515.288	2.88
515.637	2.93
515.986	2.94
516.334	2.87
516.683	2.92
517.032	2.88
517.38	2.91
517.729	2.94
518.077	2.84
518.426	2.88
518.774	2.91
519.122	2.87
519.47	2.82
519.819	2.84
520.167	2.83
520.515	2.85
520.863	2.8
521.211	2.95
521.559	2.94
521.907	2.8
522.255	2.92
522.602	2.91
522.95	3
523.298	2.81
523.645	2.94
523.993	3.02
524.341	3.04
524.688	2.96
525.036	2.93
525.383	2.94
525.73	2.97
526.078	2.95
526.425	2.87
526.772	2.91
527.119	2.79
527.466	2.89
527.814	2.84
528.161	2.95
528.508	2.92
528.854	2.94
529.201	2.88
529.548	2.83
529.895	2.73
530.242	2.7
530.588	2.81
530.935	2.88
531.282	2.91
531.628	2.92
531.975	2.98
532.321	2.96
532.667	2.96
533.014	3.03
533.36	2.87
533.706	2.82
534.052	2.92
534.399	2.87
534.745	2.87
535.091	2.84
535.437	2.93
535.783	2.88
536.129	2.96
536.474	3.02
536.82	2.95
537.166	3.03
537.512	3.01
537.857	2.95
538.203	2.9
538.549	2.96
538.894	2.98
539.239	3.04
539.585	3.02
539.93	3
540.276	3.05
540.621	3.01
540.966	3.12
541.311	2.95
541.656	2.99
542.001	2.83
542.346	2.89
542.691	2.84
543.036	2.79
543.381	2.86
543.726	2.95
544.071	3.01
544.415	2.97
544.76	2.93
545.105	3.05
545.449	2.97
545.794	3.07
546.138	3.14
546.483	3.09
546.827	3.15
547.171	3
547.516	2.93
547.86	3.01
548.204	3
548.548	3.06
548.892	2.96
549.236	3.11
549.58	3.14
549.924	3.11
550.268	3.15
550.612	3.16
550.956	3.19
551.3	3.09
551.643	3.11
551.987	3.29
552.33	3.21
552.674	3.03
553.017	3.09
553.361	3.19
553.704	3.29
554.048	3.22
554.391	3.1
554.734	2.99
555.077	3.07
555.42	3.2
555.764	3.07
556.107	2.97
556.45	3.17
556.793	3.13
557.135	3.28
557.478	3.16
557.821	3.1
558.164	3.15
558.507	3.08
558.849	3.32
559.192	3.46
559.534	3.19
559.877	3.24
560.219	3.33
560.562	3.13
560.904	3.12
561.246	3.03
561.589	3.26
561.931	3.1
562.273	3.02
562.615	3.1
562.957	3.14
563.299	3.1
563.641	3.12
563.983	3.33
564.325	3.09
564.667	3.23
565.008	3.28
565.35	3.32
565.692	3.27
566.033	3.06
566.375	3.23
566.716	3.31
567.058	3.13
567.399	3.25
567.741	3.15
568.082	3.15
568.423	3.24
568.764	3.14
569.105	3.17
569.447	3.23
569.788	3.2
570.129	3.29
570.47	3.23
570.811	3.1
571.151	3.17
571.492	3.04
571.833	3.12
572.174	3.33
572.514	3.29
572.855	3.31
573.195	3.2
573.536	3.1
573.876	3.05
574.217	3.29
574.557	3.26
574.898	3.15
575.238	3.45
575.578	3.34
575.918	3.22
576.258	3.18
576.598	3.28
576.938	3.2
577.278	3.31
577.618	3.3
577.958	3.11
578.298	3.37
578.638	3.15
578.977	3.5
579.317	3.27
579.657	3.2
579.996	3.4
580.336	3.5
580.675	3.38
581.014	3.36
581.354	3.3
581.693	3.3
582.032	3.37
582.372	3.51
582.711	3.21
583.05	3.36
583.389	3.29
583.728	3.58
584.067	3.57
584.406	3.34
584.745	3.38
585.083	3.13
585.422	3.53
585.761	3.46
586.1	3.6
586.438	3.53
586.777	3.37
587.115	3.27
587.454	3.51
587.792	3.29
588.13	3.43
588.469	3.68
588.807	3.26
589.145	3.39
589.483	3.38
589.821	3.16
590.159	3.45
590.497	3.43
590.835	3.34
591.173	3.4
591.511	3.36
591.849	3.35
592.187	3.2
592.524	3.42
592.862	3.38
593.2	3.59
593.537	3.32
593.875	3.53
594.212	3.32
594.55	3.38
594.887	3.33
595.224	3.41
595.561	3.43
595.899	3.62
596.236	3.45
596.573	3.65
596.91	3.34
597.247	3.41
597.584	3.38
597.921	3.46
598.258	3.35
598.594	3.36
598.931	3.5
599.268	3.43
599.604	3.39
599.941	3.48
600.277	3.27
600.614	3.49
600.95	3.54
601.287	3.45
601.623	3.48
601.959	3.38
602.296	3.35
602.632	3.14
602.968	3.72
603.304	3.55
603.64	3.8
603.976	3.36
604.312	3.44
604.648	3.41
604.984	3.34
605.319	3.38
605.655	3.48
605.991	3.33
606.326	3.56
606.662	3.51
606.998	3.74
607.333	3.49
607.668	3.46
608.004	3.63
608.339	3.64
608.674	3.81
609.01	3.42
609.345	3.72
609.68	3.41
610.015	3.49
610.35	3.54
610.685	3.31
611.02	3.45
611.355	3.5
611.689	3.73
612.024	3.45
612.359	3.62
612.694	3.65
613.028	3.43
613.363	3.62
613.697	3.67
614.032	3.69
614.366	3.63
614.7	3.41
615.035	3.36
615.369	3.54
615.703	3.81
616.037	3.92
616.371	3.38
616.705	3.36
617.039	3.59
617.373	3.34
617.707	3.56
618.041	3.48
618.375	3.32
618.709	3.8
619.042	3.34
619.376	3.27
619.71	3.55
620.043	3.75
620.377	3.74
620.71	3.73
621.043	3.95
621.377	3.53
621.71	3.76
622.043	3.57
622.376	3.98
622.709	4.01
623.043	3.81
623.376	3.78
623.709	3.74
624.041	3.66
624.374	3.79
624.707	3.5
625.04	4.03
625.373	3.8
625.705	3.26
626.038	3.96
626.37	3.52
626.703	3.68
627.035	3.54
627.368	3.77
627.7	3.92
628.032	3.85
628.365	3.38
628.697	3.84
629.029	3.78
629.361	3.86
629.693	4.08
630.025	3.84
630.357	3.63
630.689	3.63
631.021	3.83
631.353	3.76
631.684	3.77
632.016	3.75
632.348	3.86
632.679	3.37
633.011	4.04
633.342	3.96
633.674	3.63
634.005	4.22
634.336	3.95
634.668	3.59
634.999	3.8
635.33	3.98
635.661	3.71
635.992	3.88
636.323	4.2
636.654	3.61
636.985	3.99
637.316	3.73
637.647	3.64
637.977	4.16
638.308	3.83
638.639	3.83
638.969	4.13
639.3	3.61
639.63	3.55
639.961	3.62
640.291	3.72
640.622	4.21
640.952	3.91
641.282	3.93
641.612	4.21
641.943	4.05
642.273	4.1
642.603	3.55
642.933	4.21
643.263	3.5
643.592	3.6
643.922	4.1
644.252	4.29
644.582	3.81
644.911	3.95
645.241	4.04
645.571	4.05
645.9	3.98
646.23	4.06
646.559	4.06
646.888	4.11
647.218	3.91
647.547	4.13
647.876	3.54
648.205	3.73
648.534	3.74
648.863	3.87
649.192	4.02
649.521	4.14
649.85	3.74
650.179	3.89
650.508	4.34
650.837	3.73
651.165	3.88
651.494	4.05
651.822	4.45
652.151	4.18
652.479	3.66
652.808	3.94
653.136	3.89
653.465	4.67
653.793	4.03
654.121	4.26
654.449	4.07
654.777	3.59
655.105	4.58
655.433	3.99
655.761	4.3
656.089	4.03
656.417	4.3
656.745	4.2
657.073	4.46
657.4	3.84
657.728	3.73
658.056	4.17
658.383	4.4
658.711	4.35
659.038	4.32
659.365	4.14
659.693	4.41
660.02	4.38
660.347	4.38
660.674	4.35
661.001	4.03
661.329	3.94
661.656	3.7
661.982	4.03
662.309	4.28
662.636	4.33
662.963	4.02
663.29	3.9
663.616	4.29
663.943	4.54
664.27	4.13
664.596	4.15
664.923	4.18
665.249	4.02
665.576	4.62
665.902	4.03
666.228	3.96
666.554	3.83
666.881	4.57
667.207	4.33
667.533	4.51
667.859	4.15
668.185	4.82
668.511	4.41
668.837	4.2
669.162	4.43
669.488	3.81
669.814	4.32
670.139	4.49
670.465	4.01
670.791	4.34
671.116	4.34
671.442	3.99
671.767	4.53
672.092	4.29
672.418	4.38
672.743	4.06
673.068	3.72
673.393	4.2
673.718	4.37
674.043	3.96
674.368	3.5
674.693	4.45
675.018	4.16
675.343	4.11
675.667	4.68
675.992	4.31
676.317	4.49
676.641	4.59
676.966	4.02
677.29	4.67
677.615	4.51
677.939	4.22
678.264	4.11
678.588	4.25
678.912	4.2
679.236	4.89
679.56	4.39
679.885	4.3
680.209	4.4
680.532	5.01
680.856	4.6
681.18	4.43
681.504	4.16
681.828	3.96
682.152	4.96
682.475	4.36
682.799	4.69
683.122	4.74
683.446	4.23
683.769	4.5
684.093	4.48
684.416	4.42
684.739	4.32
685.062	4.86
685.386	4.83
685.709	4.12
686.032	4.67
686.355	3.96
686.678	4.89
687.001	4.5
687.324	4.25
687.646	4.32
687.969	4.43
688.292	5.06
688.614	4.55
688.937	4.42
689.26	4.18
689.582	3.96
689.904	4.87
690.227	4.49
690.549	5.23
690.871	4.05
691.194	5.13
691.516	4.46
691.838	4.35
692.16	4.98
692.482	4.49
