Data from 0032_forehead_Reflection__0__162.txt Node

Date: Thu Oct 20 22:11:54 CDT 2022
User: ToomeyLab
Spectrometer: FLMS14357
Trigger mode: 0
Integration Time (sec): 1.000000E-2
Scans to average: 100
Electric dark correction enabled: true
Nonlinearity correction enabled: false
Boxcar width: 0
XAxis mode: Wavelengths
Number of Pixels in Spectrum: 2048
>>>>>Begin Spectral Data<<<<<
189.047	63.29
189.435	63.29
189.823	63.29
190.211	-59.89
190.599	59.68
190.987	227.51
191.375	90.98
191.763	144.81
192.151	25.07
192.538	445.43
192.926	44.11
193.314	639.04
193.702	476.19
194.089	-1.45
194.477	32.56
194.864	182.33
195.252	97.96
195.639	1025.74
196.027	-105.97
196.414	51.79
196.801	-143.51
197.189	-112.39
197.576	312.87
197.963	355.89
198.351	7.71
198.738	-21.78
199.125	-55.17
199.512	1.48
199.899	-32.36
200.286	-9.01
200.673	-24.5
201.06	16.27
201.447	-2.55
201.833	0.09
202.22	49.14
202.607	4.86
202.994	-7.23
203.38	-74.01
203.767	-24.96
204.154	-30.43
204.54	4.93
204.927	-16.39
205.313	28.21
205.699	-10.51
206.086	-27.49
206.472	-37.5
206.858	19.55
207.245	14.67
207.631	-15.55
208.017	-30.85
208.403	-37.96
208.789	10.22
209.175	13.64
209.561	23.59
209.947	17.53
210.333	8.27
210.719	33.85
211.105	23.96
211.491	-7.54
211.876	-34.14
212.262	8.66
212.648	16.87
213.034	10.05
213.419	-26.07
213.805	7.68
214.19	-47.82
214.576	-13.88
214.961	-26.03
215.346	-10.02
215.732	14.2
216.117	-16.81
216.502	-16.08
216.888	-15.23
217.273	-7.06
217.658	7.32
218.043	7.97
218.428	-0.98
218.813	28.94
219.198	-0.3
219.583	-5.33
219.968	14.14
220.353	12.25
220.738	1.2
221.122	8.65
221.507	-16.48
221.892	2.31
222.276	8.32
222.661	18.4
223.046	14.51
223.43	-6.92
223.815	9.86
224.199	-5.92
224.583	-0.61
224.968	8.22
225.352	7.96
225.736	2.85
226.121	-0.37
226.505	10.41
226.889	0.44
227.273	2.78
227.657	2.32
228.041	-1.54
228.425	6.11
228.809	2.17
229.193	-0.41
229.577	1.28
229.961	3.45
230.344	2.46
230.728	2.28
231.112	2.1
231.495	2.96
231.879	4.16
232.263	2.84
232.646	3.19
233.03	2.3
233.413	2.63
233.797	2.73
234.18	0.57
234.563	3.81
234.946	2.97
235.33	1
235.713	2.56
236.096	0.71
236.479	4.18
236.862	3.27
237.245	3.57
237.628	2.94
238.011	2.22
238.394	3.92
238.777	3.55
239.16	2.51
239.543	0.52
239.925	3.34
240.308	1.45
240.691	4.81
241.073	1.86
241.456	3.37
241.838	3.3
242.221	2.85
242.603	3.28
242.986	3.56
243.368	3.16
243.75	3.41
244.133	3.4
244.515	3
244.897	3.31
245.279	2.28
245.661	3.9
246.043	4.71
246.425	3.67
246.807	4.2
247.189	2.54
247.571	3.6
247.953	3.26
248.335	3.4
248.717	3.08
249.098	3.4
249.48	3.38
249.862	3.6
250.243	2.98
250.625	3.6
251.006	3.05
251.388	3.63
251.769	3.98
252.151	2.01
252.532	2.96
252.913	3.2
253.295	3.51
253.676	3.39
254.057	2.93
254.438	3.49
254.819	3.43
255.2	3.28
255.581	3.5
255.962	4.1
256.343	3.22
256.724	3.01
257.105	3.3
257.486	3.41
257.867	3.92
258.247	4.27
258.628	3.53
259.009	2.89
259.389	3.04
259.77	3.42
260.15	3.06
260.531	3.4
260.911	3.02
261.292	3.39
261.672	3.31
262.052	3.35
262.432	3.65
262.813	3.02
263.193	3.62
263.573	3.27
263.953	3.32
264.333	2.99
264.713	3.03
265.093	3.01
265.473	3.37
265.853	4.03
266.233	3.51
266.612	3.43
266.992	3.35
267.372	3.9
267.752	3.15
268.131	2.97
268.511	3.44
268.89	3.24
269.27	3.16
269.649	2.88
270.029	2.64
270.408	2.85
270.787	3.25
271.167	3.27
271.546	2.96
271.925	3.57
272.304	3.74
272.683	3.11
273.062	2.82
273.441	3.22
273.82	3.58
274.199	2.97
274.578	3.09
274.957	2.65
275.336	2.73
275.715	3.26
276.093	3.79
276.472	3.56
276.851	3.24
277.229	2.97
277.608	2.59
277.986	3.04
278.365	3.11
278.743	2.93
279.122	3.43
279.5	3.73
279.878	3.45
280.257	3.66
280.635	3.22
281.013	3.12
281.391	4.03
281.769	3.19
282.147	2.77
282.525	2.65
282.903	3.01
283.281	3.05
283.659	2.66
284.037	2.51
284.415	3.22
284.792	3
285.17	3.48
285.548	2.75
285.925	3.25
286.303	3.06
286.68	3.61
287.058	3.26
287.435	3.07
287.813	3.61
288.19	3.43
288.567	3.03
288.945	3.29
289.322	3.49
289.699	2.83
290.076	3.41
290.453	3.07
290.83	3.32
291.207	3.5
291.584	3.15
291.961	3.37
292.338	3.22
292.715	3.62
293.092	3.72
293.469	3.59
293.845	3.48
294.222	3.3
294.599	4.26
294.975	3.68
295.352	4.34
295.728	3.47
296.105	3.9
296.481	3.64
296.858	3.31
297.234	3.89
297.61	3.68
297.986	3.49
298.363	3.68
298.739	3.77
299.115	3.97
299.491	3.81
299.867	3.66
300.243	4.09
300.619	3.93
300.995	3.91
301.371	4.01
301.746	3.82
302.122	4.3
302.498	3.98
302.874	4.34
303.249	4.43
303.625	3.94
304	4.3
304.376	4.14
304.751	4.25
305.127	4.01
305.502	4.68
305.878	4.67
306.253	3.9
306.628	4.29
307.003	4.15
307.378	3.99
307.754	4.07
308.129	4.51
308.504	4.68
308.879	4.05
309.254	4.94
309.629	4.64
310.003	3.89
310.378	4.22
310.753	4.59
311.128	4.35
311.502	4.29
311.877	4.68
312.252	4.46
312.626	4.52
313.001	4.61
313.375	4.81
313.75	4.5
314.124	4.47
314.498	4.44
314.873	4.34
315.247	4.67
315.621	4.78
315.995	4.37
316.369	4.98
316.743	4.61
317.117	5.16
317.491	5.14
317.865	5.17
318.239	4.88
318.613	5.21
318.987	4.96
319.361	4.98
319.734	4.46
320.108	5.15
320.482	5.35
320.855	5.57
321.229	5.3
321.602	4.57
321.976	4.97
322.349	5.11
322.723	5.58
323.096	5.56
323.469	4.62
323.843	5.37
324.216	5.11
324.589	5.68
324.962	5.15
325.335	5.63
325.708	5.66
326.081	5.95
326.454	5.45
326.827	5.08
327.2	5.75
327.573	5.35
327.945	5.63
328.318	5.56
328.691	6.13
329.063	5.63
329.436	5.72
329.809	5.85
330.181	5.79
330.553	5.63
330.926	5.95
331.298	5.78
331.671	5.89
332.043	5.74
332.415	5.71
332.787	5.81
333.159	5.63
333.532	5.9
333.904	5.79
334.276	5.6
334.648	5.74
335.02	5.69
335.391	5.74
335.763	5.79
336.135	6.01
336.507	5.44
336.879	6.65
337.25	5.75
337.622	6.18
337.993	5.85
338.365	6.13
338.736	5.96
339.108	5.69
339.479	5.95
339.851	6.01
340.222	6.07
340.593	6.1
340.964	6.59
341.336	6.08
341.707	5.99
342.078	5.98
342.449	5.87
342.82	6.38
343.191	6.2
343.562	6.27
343.933	6.41
344.303	6.25
344.674	6.13
345.045	6.45
345.416	6.33
345.786	6.01
346.157	6.42
346.527	6.22
346.898	6.26
347.268	6.12
347.639	6.07
348.009	6.64
348.38	6.63
348.75	6.13
349.12	6.7
349.49	6.35
349.861	6.36
350.231	6.36
350.601	6.79
350.971	6.39
351.341	6.84
351.711	6.84
352.081	6.36
352.45	6.34
352.82	6.54
353.19	6.61
353.56	6.49
353.929	6.25
354.299	7.01
354.669	6.37
355.038	6.73
355.408	6.26
355.777	6.84
356.147	7.09
356.516	6.48
356.885	6.62
357.254	6.83
357.624	6.81
357.993	6.34
358.362	7.05
358.731	6.91
359.1	6.4
359.469	6.76
359.838	6.53
360.207	7.5
360.576	6.42
360.945	7.25
361.314	6.84
361.682	6.68
362.051	6.6
362.42	6.78
362.788	6.85
363.157	6.63
363.525	6.86
363.894	7.02
364.262	6.84
364.631	7
364.999	7.22
365.367	7.21
365.735	7
366.104	7.11
366.472	6.87
366.84	7.4
367.208	6.97
367.576	7.12
367.944	7.26
368.312	7.19
368.68	7.4
369.048	7.11
369.416	7.23
369.783	7.4
370.151	7.64
370.519	7.34
370.886	7.17
371.254	7.51
371.621	7.55
371.989	7.31
372.356	7.4
372.724	7.46
373.091	7.42
373.458	7.16
373.826	7.34
374.193	7.54
374.56	7.22
374.927	7.42
375.294	7.61
375.661	8.06
376.028	7.65
376.395	7.68
376.762	7.26
377.129	7.39
377.496	7.4
377.863	7.61
378.229	7.49
378.596	7.49
378.963	7.85
379.329	7.78
379.696	7.62
380.062	7.9
380.429	7.97
380.795	7.88
381.161	8.07
381.528	7.74
381.894	7.59
382.26	7.7
382.626	8.05
382.993	7.74
383.359	7.93
383.725	7.7
384.091	7.94
384.457	7.93
384.823	7.83
385.188	8.05
385.554	7.66
385.92	7.95
386.286	7.93
386.651	8.06
387.017	8.16
387.383	7.68
387.748	8.25
388.114	7.99
388.479	8.11
388.845	8.25
389.21	8.33
389.575	7.78
389.94	8.07
390.306	8.56
390.671	8.28
391.036	8.2
391.401	8.07
391.766	8.36
392.131	8.53
392.496	8.01
392.861	8.04
393.226	8.36
393.591	8.42
393.956	8.43
394.32	8.4
394.685	8.65
395.05	8.22
395.414	8.51
395.779	8.31
396.143	8.47
396.508	8.46
396.872	8.51
397.236	8.45
397.601	8.92
397.965	8.57
398.329	8.66
398.694	8.83
399.058	8.39
399.422	8.66
399.786	8.61
400.15	8.53
400.514	8.89
400.878	8.66
401.242	8.83
401.605	9.12
401.969	8.93
402.333	8.55
402.697	8.85
403.06	8.62
403.424	8.72
403.787	8.79
404.151	8.68
404.514	8.72
404.878	8.73
405.241	9.05
405.604	8.85
405.968	8.86
406.331	8.82
406.694	8.79
407.057	9.08
407.42	8.96
407.783	9.03
408.146	8.98
408.509	8.82
408.872	9.15
409.235	8.97
409.598	9.2
409.961	8.84
410.323	9.22
410.686	9.23
411.049	9.23
411.411	8.97
411.774	9.07
412.136	9.16
412.499	9.19
412.861	9.29
413.223	9.38
413.586	9.06
413.948	9.09
414.31	9.08
414.672	9.3
415.035	9.37
415.397	9.44
415.759	9.41
416.121	9.38
416.483	9.38
416.845	9.39
417.206	9.27
417.568	9.4
417.93	9.32
418.292	9.25
418.653	9.33
419.015	9.33
419.377	9.32
419.738	9.4
420.1	9.32
420.461	9.5
420.822	9.32
421.184	9.3
421.545	9.42
421.906	9.25
422.267	9.2
422.629	9.3
422.99	9.24
423.351	9.36
423.712	9.42
424.073	9.4
424.434	9.48
424.795	9.55
425.155	9.46
425.516	9.41
425.877	9.45
426.238	9.65
426.598	9.6
426.959	9.68
427.32	9.72
427.68	9.72
428.041	9.7
428.401	9.81
428.761	9.76
429.122	9.73
429.482	9.83
429.842	9.88
430.202	10.04
430.563	10.01
430.923	10.15
431.283	9.94
431.643	10.03
432.003	10.03
432.363	10.21
432.722	10.43
433.082	10
433.442	9.99
433.802	10.06
434.161	10.04
434.521	10.04
434.881	10.11
435.24	9.95
435.6	10.09
435.959	10.23
436.319	10.19
436.678	10.02
437.037	10.27
437.396	10.28
437.756	10.36
438.115	10.31
438.474	10.27
438.833	10.32
439.192	10.26
439.551	10.2
439.91	10.26
440.269	10.35
440.628	10.28
440.987	10.27
441.345	10.3
441.704	10.24
442.063	10.38
442.421	10.09
442.78	10.22
443.138	10.46
443.497	10.47
443.855	10.53
444.214	10.45
444.572	10.59
444.93	10.54
445.288	10.53
445.647	10.53
446.005	10.41
446.363	10.54
446.721	10.44
447.079	10.5
447.437	10.43
447.795	10.32
448.153	10.43
448.51	10.55
448.868	10.57
449.226	10.68
449.584	10.64
449.941	10.83
450.299	10.7
450.656	10.92
451.014	10.88
451.371	10.99
451.729	10.83
452.086	10.96
452.443	10.95
452.801	11
453.158	11.13
453.515	11.02
453.872	10.82
454.229	11.03
454.586	11.19
454.943	10.98
455.3	11.04
455.657	11.24
456.014	11
456.371	11
456.727	11.27
457.084	11.25
457.441	11.25
457.797	11.18
458.154	11.36
458.51	11.07
458.867	11.4
459.223	11.45
459.58	11.2
459.936	11.36
460.292	11.08
460.648	11
461.005	10.92
461.361	11.12
461.717	11.14
462.073	11.46
462.429	11.47
462.785	11.57
463.141	11.72
463.496	11.74
463.852	11.59
464.208	11.67
464.564	11.74
464.919	11.73
465.275	11.97
465.631	11.52
465.986	11.67
466.342	11.59
466.697	11.73
467.052	11.8
467.408	11.72
467.763	11.67
468.118	11.8
468.473	11.94
468.829	11.81
469.184	11.82
469.539	11.78
469.894	11.86
470.249	11.98
470.603	12.09
470.958	11.98
471.313	11.9
471.668	11.98
472.023	12.16
472.377	12.02
472.732	12.11
473.086	12.16
473.441	12.14
473.795	12.16
474.15	12.07
474.504	12.13
474.859	12.17
475.213	12.24
475.567	12.46
475.921	12.28
476.275	12.39
476.63	12.58
476.984	12.45
477.338	12.37
477.692	12.34
478.045	12.33
478.399	12.36
478.753	12.34
479.107	12.35
479.461	12.27
479.814	12.38
480.168	12.61
480.521	12.45
480.875	12.56
481.228	12.45
481.582	12.47
481.935	12.44
482.289	12.35
482.642	12.26
482.995	12.45
483.348	12.47
483.701	12.28
484.055	12.27
484.408	12.07
484.761	11.83
485.114	11.65
485.466	11.68
485.819	11.99
486.172	12.23
486.525	12.45
486.878	12.5
487.23	12.58
487.583	12.42
487.936	12.41
488.288	12.3
488.641	12.16
488.993	12.1
489.345	12.22
489.698	12.3
490.05	12.44
490.402	12.68
490.754	12.88
491.107	12.87
491.459	12.98
491.811	12.89
492.163	12.81
492.515	12.5
492.866	12.39
493.218	12.39
493.57	12.66
493.922	12.96
494.274	13.09
494.625	13.25
494.977	13.28
495.328	13.39
495.68	13.45
496.031	13.49
496.383	13.5
496.734	13.48
497.086	13.39
497.437	13.43
497.788	13.5
498.139	13.29
498.49	13.36
498.842	13.39
499.193	13.52
499.544	13.58
499.894	13.63
500.245	13.67
500.596	13.58
500.947	13.72
501.298	13.75
501.648	13.73
501.999	13.84
502.35	13.88
502.7	13.91
503.051	13.98
503.401	13.88
503.752	13.84
504.102	14.02
504.452	14
504.803	13.98
505.153	14
505.503	14.04
505.853	14.09
506.203	14.05
506.553	14.07
506.903	14.06
507.253	14.29
507.603	14.18
507.953	14.11
508.303	14.17
508.652	14.17
509.002	14.23
509.352	14.08
509.701	14.3
510.051	14.14
510.4	14.17
510.75	14.16
511.099	14.21
511.449	14.39
511.798	14.31
512.147	14.43
512.496	14.55
512.846	14.54
513.195	14.45
513.544	14.35
513.893	14.46
514.242	14.44
514.591	14.59
514.939	14.48
515.288	14.65
515.637	14.67
515.986	14.63
516.334	14.72
516.683	14.77
517.032	14.8
517.38	14.83
517.729	14.84
518.077	14.79
518.426	14.74
518.774	14.79
519.122	14.71
519.47	14.69
519.819	14.63
520.167	14.65
520.515	14.59
520.863	14.86
521.211	14.75
521.559	14.95
521.907	15.05
522.255	15.13
522.602	15.18
522.95	15.34
523.298	15.16
523.645	15.41
523.993	15.38
524.341	15.38
524.688	15.25
525.036	15.28
525.383	15.42
525.73	15.28
526.078	15.41
526.425	15.23
526.772	15.06
527.119	14.92
527.466	15.1
527.814	15.15
528.161	15.34
528.508	15.24
528.854	15.28
529.201	14.97
529.548	14.85
529.895	14.65
530.242	14.71
530.588	14.96
530.935	15.23
531.282	15.32
531.628	15.55
531.975	15.57
532.321	15.68
532.667	15.66
533.014	15.75
533.36	15.56
533.706	15.65
534.052	15.52
534.399	15.38
534.745	15.26
535.091	15.47
535.437	15.7
535.783	15.82
536.129	16.02
536.474	16.08
536.82	16.23
537.166	16.11
537.512	16.02
537.857	15.92
538.203	15.77
538.549	15.99
538.894	16.13
539.239	16.33
539.585	16.29
539.93	16.45
540.276	16.61
540.621	16.65
540.966	16.49
541.311	16.48
541.656	16.24
542.001	16.14
542.346	15.85
542.691	15.66
543.036	15.82
543.381	16.09
543.726	16.17
544.071	16.39
544.415	16.46
544.76	16.44
545.105	16.56
545.449	16.72
545.794	16.73
546.138	16.94
546.483	16.9
546.827	16.8
547.171	16.83
547.516	16.86
547.86	16.84
548.204	16.82
548.548	16.87
548.892	16.86
549.236	17.19
549.58	17.28
549.924	17.28
550.268	17.36
550.612	17.54
550.956	17.34
551.3	17.37
551.643	17.36
551.987	17.63
552.33	17.57
552.674	17.48
553.017	17.5
553.361	17.81
553.704	17.58
554.048	17.63
554.391	17.55
554.734	17.58
555.077	17.59
555.42	17.77
555.764	17.8
556.107	18.09
556.45	17.82
556.793	18.04
557.135	18.14
557.478	17.87
557.821	17.88
558.164	17.94
558.507	18.05
558.849	18.17
559.192	18.31
559.534	18.17
559.877	18.31
560.219	18.37
560.562	18.33
560.904	18.26
561.246	18.53
561.589	18.55
561.931	18.04
562.273	18.36
562.615	18.37
562.957	18.15
563.299	18.49
563.641	18.46
563.983	18.68
564.325	18.57
564.667	18.61
565.008	18.73
565.35	18.96
565.692	18.63
566.033	18.59
566.375	18.49
566.716	18.68
567.058	18.72
567.399	18.74
567.741	18.73
568.082	18.77
568.423	18.82
568.764	19
569.105	18.77
569.447	19.09
569.788	19.1
570.129	19.26
570.47	18.97
570.811	18.85
571.151	18.95
571.492	19.03
571.833	19.16
572.174	19.42
572.514	19.05
572.855	19.27
573.195	19.04
573.536	19.09
573.876	19.27
574.217	19.2
574.557	19.41
574.898	19.16
575.238	19.66
575.578	19.43
575.918	19.45
576.258	19.42
576.598	19.44
576.938	19.39
577.278	19.58
577.618	19.82
577.958	19.68
578.298	19.72
578.638	19.62
578.977	19.97
579.317	19.99
579.657	19.76
579.996	19.77
580.336	20.04
580.675	20.25
581.014	20.06
581.354	19.98
581.693	20.24
582.032	20.2
582.372	20.38
582.711	20.2
583.05	20.24
583.389	20.37
583.728	20.21
584.067	20.32
584.406	20.33
584.745	20.37
585.083	20.15
585.422	20.44
585.761	20.57
586.1	20.64
586.438	20.64
586.777	20.54
587.115	20.57
587.454	20.68
587.792	20.53
588.13	20.66
588.469	20.89
588.807	20.62
589.145	20.72
589.483	20.74
589.821	20.75
590.159	20.94
590.497	20.7
590.835	20.66
591.173	20.9
591.511	20.86
591.849	20.73
592.187	20.72
592.524	21
592.862	21.07
593.2	21.24
593.537	21.18
593.875	21.26
594.212	21.25
594.55	21.12
594.887	21.21
595.224	21.02
595.561	21.22
595.899	21.38
596.236	21.25
596.573	21.58
596.91	21.25
597.247	21.55
597.584	21.21
597.921	20.98
598.258	21.17
598.594	21.14
598.931	21.5
599.268	21.42
599.604	21.51
599.941	21.59
600.277	21.72
600.614	21.61
600.95	21.97
601.287	21.79
601.623	21.67
601.959	21.72
602.296	21.7
602.632	21.48
602.968	21.99
603.304	21.87
603.64	21.87
603.976	21.57
604.312	21.88
604.648	21.62
604.984	21.54
605.319	21.67
605.655	22
605.991	21.59
606.326	21.7
606.662	21.95
606.998	22.18
607.333	22.11
607.668	22.19
608.004	22.31
608.339	22.25
608.674	22.21
609.01	22.21
609.345	22.3
609.68	22.27
610.015	22.29
610.35	22.45
610.685	22.11
611.02	22.1
611.355	22.08
611.689	22.36
612.024	22.36
612.359	22.37
612.694	22.65
613.028	22.7
613.363	22.7
613.697	23.02
614.032	22.93
614.366	22.91
614.7	22.7
615.035	22.56
615.369	22.82
615.703	23.11
616.037	22.96
616.371	22.65
616.705	22.81
617.039	23.3
617.373	23.23
617.707	23.16
618.041	22.95
618.375	22.97
618.709	23.14
619.042	23.07
619.376	23.05
619.71	23.3
620.043	23.24
620.377	23.13
620.71	23.34
621.043	23.3
621.377	23.11
621.71	23.51
622.043	23.56
622.376	23.65
622.709	23.57
623.043	23.61
623.376	24.11
623.709	23.65
624.041	23.55
624.374	23.84
624.707	23.57
625.04	23.77
625.373	23.42
625.705	23.6
626.038	23.38
626.37	23.9
626.703	23.78
627.035	23.9
627.368	23.78
627.7	23.61
628.032	23.72
628.365	23.59
628.697	23.79
629.029	23.98
629.361	24.03
629.693	23.87
630.025	23.8
630.357	23.79
630.689	24.1
631.021	24.11
631.353	24.16
631.684	24.02
632.016	23.59
632.348	24.36
632.679	24.33
633.011	24.62
633.342	24.41
633.674	24.17
634.005	24.61
634.336	24.05
634.668	24.48
634.999	24.44
635.33	24.44
635.661	24.15
635.992	24.47
636.323	24.36
636.654	24.11
636.985	24.55
637.316	24.87
637.647	24.61
637.977	25.19
638.308	24.52
638.639	25.05
638.969	24.72
639.3	24.64
639.63	24.98
639.961	24.62
640.291	24.56
640.622	24.86
640.952	25.08
641.282	24.97
641.612	24.87
641.943	24.79
642.273	24.95
642.603	24.99
642.933	25.15
643.263	25.1
643.592	25.31
643.922	24.9
644.252	25.28
644.582	25.51
644.911	25.28
645.241	25.68
645.571	25.03
645.9	25.28
646.23	25.06
646.559	25.2
646.888	24.96
647.218	25
647.547	25.16
647.876	25.27
648.205	25.67
648.534	24.86
648.863	25.05
649.192	25.49
649.521	25.67
649.85	25.76
650.179	25.59
650.508	25.62
650.837	25.84
651.165	25.74
651.494	26.05
651.822	25.94
652.151	25.64
652.479	25.32
652.808	25.35
653.136	25.77
653.465	26.07
653.793	25.96
654.121	26.16
654.449	25.65
654.777	25.53
655.105	26.14
655.433	25.75
655.761	26.11
656.089	26.12
656.417	26.21
656.745	26.59
657.073	25.88
657.4	25.94
657.728	25.9
658.056	25.77
658.383	25.76
658.711	26.38
659.038	26.04
659.365	25.81
659.693	25.99
660.02	26.32
660.347	26.22
660.674	26.08
661.001	25.7
661.329	26.03
661.656	26.05
661.982	26.5
662.309	26.44
662.636	26.69
662.963	26.22
663.29	26.07
663.616	26.61
663.943	26.7
664.27	26.78
664.596	26.39
664.923	26.53
665.249	27.25
665.576	27.18
665.902	27.08
666.228	26.59
666.554	26.7
666.881	27.18
667.207	27.48
667.533	27.07
667.859	26.27
668.185	27.09
668.511	27.09
668.837	27.3
669.162	27.13
669.488	26.79
669.814	27.34
670.139	26.99
670.465	26.6
670.791	27.28
671.116	27.05
671.442	27.3
671.767	27.52
672.092	27.43
672.418	27.03
672.743	27.13
673.068	26.88
673.393	26.96
673.718	26.74
674.043	27
674.368	26.89
674.693	27.55
675.018	27.14
675.343	27.07
675.667	27.65
675.992	27.43
