Data from 0032_forehead_Reflection__3__165.txt Node

Date: Thu Oct 20 22:12:28 CDT 2022
User: ToomeyLab
Spectrometer: FLMS14357
Trigger mode: 0
Integration Time (sec): 1.000000E-2
Scans to average: 100
Electric dark correction enabled: true
Nonlinearity correction enabled: false
Boxcar width: 0
XAxis mode: Wavelengths
Number of Pixels in Spectrum: 2048
>>>>>Begin Spectral Data<<<<<
189.047	73.51
189.435	73.51
189.823	73.51
190.211	-14.87
190.599	38.38
190.987	731.23
191.375	64.8
191.763	-109.11
192.151	47.44
192.538	-149.21
192.926	70.15
193.314	688.84
193.702	1100
194.089	88.13
194.477	-30.61
194.864	223.67
195.252	-22.33
195.639	-1513.86
196.027	-18.25
196.414	61.11
196.801	17.34
197.189	-107.7
197.576	292.96
197.963	233.41
198.351	19.48
198.738	-16.66
199.125	26.31
199.512	37.66
199.899	-26.26
200.286	-4.04
200.673	3.7
201.06	25.34
201.447	43.17
201.833	-26.79
202.22	-28.89
202.607	27.31
202.994	-53.34
203.38	-40.26
203.767	10.34
204.154	16.52
204.54	13.32
204.927	17.74
205.313	29.25
205.699	6.74
206.086	57.08
206.472	-9.24
206.858	-11.3
207.245	2.13
207.631	-16.37
208.017	-28.01
208.403	-60.97
208.789	25.18
209.175	16.36
209.561	15.87
209.947	34.47
210.333	50.88
210.719	19
211.105	16.78
211.491	-22.14
211.876	-20.24
212.262	38.54
212.648	-17.97
213.034	3.23
213.419	-26.32
213.805	12.13
214.19	-2.65
214.576	-37.52
214.961	-14.95
215.346	1.69
215.732	11.37
216.117	-17.95
216.502	19.47
216.888	-7.94
217.273	2.9
217.658	18.64
218.043	29.23
218.428	1.89
218.813	19.62
219.198	-0.41
219.583	10.75
219.968	10.6
220.353	-2.76
220.738	2.64
221.122	6.82
221.507	1.06
221.892	-1.64
222.276	9.19
222.661	11.72
223.046	18.51
223.43	1.3
223.815	8.99
224.199	-8.19
224.583	4.43
224.968	6.53
225.352	10.61
225.736	6.9
226.121	0.22
226.505	5.5
226.889	5.9
227.273	2.35
227.657	3.24
228.041	0.26
228.425	2.28
228.809	2.8
229.193	2.52
229.577	0.64
229.961	1.98
230.344	2.18
230.728	2.02
231.112	1.81
231.495	1.65
231.879	1.95
232.263	3.28
232.646	2.25
233.03	1.59
233.413	1.24
233.797	0.33
234.18	-0.02
234.563	2.26
234.946	0.81
235.33	1.36
235.713	1.22
236.096	0.11
236.479	3.4
236.862	1.87
237.245	0.63
237.628	2.57
238.011	2.17
238.394	3.74
238.777	2.17
239.16	0.69
239.543	1.56
239.925	1.06
240.308	1.78
240.691	4.14
241.073	2.51
241.456	2.35
241.838	1.33
242.221	1.76
242.603	2.06
242.986	2.49
243.368	2.5
243.75	2.76
244.133	2.03
244.515	2
244.897	1.75
245.279	1.11
245.661	2.47
246.043	3.3
246.425	2.62
246.807	2.04
247.189	1.79
247.571	1.97
247.953	1.98
248.335	1.96
248.717	2.25
249.098	2.33
249.48	2.22
249.862	2.3
250.243	2.04
250.625	2.82
251.006	2.29
251.388	1.82
251.769	2.42
252.151	2.6
252.532	1.83
252.913	1.92
253.295	2.76
253.676	2.74
254.057	1.66
254.438	2.54
254.819	2.49
255.2	3.09
255.581	2.52
255.962	3.08
256.343	1.81
256.724	2.42
257.105	2.81
257.486	2.05
257.867	2.51
258.247	2.43
258.628	2.7
259.009	1.52
259.389	2.64
259.77	2.3
260.15	2.34
260.531	2.38
260.911	2.08
261.292	2.38
261.672	2.23
262.052	2.48
262.432	2.87
262.813	2.32
263.193	3.09
263.573	2.11
263.953	2.33
264.333	2.31
264.713	2.33
265.093	2.99
265.473	2.4
265.853	2.64
266.233	2.27
266.612	1.83
266.992	1.65
267.372	2.86
267.752	2.51
268.131	2.46
268.511	2.31
268.89	2.16
269.27	1.92
269.649	1.82
270.029	2.4
270.408	2.39
270.787	1.56
271.167	2.12
271.546	2
271.925	2.1
272.304	2.16
272.683	2.29
273.062	1.78
273.441	2.27
273.82	2.27
274.199	2.01
274.578	1.88
274.957	2.01
275.336	2.06
275.715	2.07
276.093	2.54
276.472	2.72
276.851	2.85
277.229	2.04
277.608	2.17
277.986	2.16
278.365	2.09
278.743	1.87
279.122	2.44
279.5	2.2
279.878	2.27
280.257	2.15
280.635	1.86
281.013	1.9
281.391	2.55
281.769	2.34
282.147	1.67
282.525	1.6
282.903	2.21
283.281	1.8
283.659	1.89
284.037	1.63
284.415	2.16
284.792	2.09
285.17	2.46
285.548	1.89
285.925	2
286.303	2.28
286.68	2.4
287.058	2.44
287.435	2.09
287.813	2.18
288.19	2.26
288.567	2.14
288.945	2.31
289.322	2.16
289.699	1.75
290.076	2.19
290.453	1.96
290.83	2.75
291.207	2.45
291.584	2.35
291.961	2.53
292.338	2.12
292.715	2.24
293.092	2.84
293.469	2.4
293.845	2.72
294.222	2.35
294.599	3.34
294.975	2.49
295.352	2.93
295.728	2.75
296.105	2.84
296.481	2.71
296.858	2.9
297.234	2.94
297.61	2.86
297.986	2.46
298.363	2.65
298.739	2.57
299.115	2.59
299.491	2.64
299.867	2.75
300.243	2.94
300.619	2.59
300.995	2.34
301.371	3.16
301.746	2.78
302.122	3.41
302.498	3.05
302.874	3.78
303.249	3.35
303.625	3.31
304	3.25
304.376	2.71
304.751	2.98
305.127	2.82
305.502	3.26
305.878	3.44
306.253	2.75
306.628	3.49
307.003	3.3
307.378	2.81
307.754	3.13
308.129	3.06
308.504	3.44
308.879	3.83
309.254	3.47
309.629	3.36
310.003	2.99
310.378	3.15
310.753	3.5
311.128	2.66
311.502	3.27
311.877	3.69
312.252	3.08
312.626	3.36
313.001	3.58
313.375	3.63
313.75	3.25
314.124	3.7
314.498	3.44
314.873	3.75
315.247	3.5
315.621	3.7
315.995	4
316.369	4.1
316.743	3.35
317.117	3.53
317.491	3.85
317.865	4
318.239	3.59
318.613	4.5
318.987	3.82
319.361	4.3
319.734	3.61
320.108	4.4
320.482	4.14
320.855	4.09
321.229	4.22
321.602	3.72
321.976	3.91
322.349	4.31
322.723	4.34
323.096	4.31
323.469	3.96
323.843	4.16
324.216	4.46
324.589	4.88
324.962	4.33
325.335	4.05
325.708	4.4
326.081	4.63
326.454	4.42
326.827	4.16
327.2	4.32
327.573	4.3
327.945	4.37
328.318	3.93
328.691	5.05
329.063	4.38
329.436	4.15
329.809	4.81
330.181	4.57
330.553	4.22
330.926	4.55
331.298	4.93
331.671	5.04
332.043	4.33
332.415	5
332.787	4.96
333.159	5.09
333.532	4.58
333.904	4.39
334.276	4.76
334.648	4.37
335.02	4.74
335.391	4.77
335.763	4.36
336.135	5.24
336.507	4.49
336.879	5.48
337.25	4.86
337.622	4.69
337.993	4.9
338.365	5.24
338.736	4.58
339.108	4.93
339.479	5.29
339.851	4.57
340.222	4.59
340.593	4.97
340.964	4.7
341.336	4.68
341.707	5.06
342.078	5.04
342.449	4.62
342.82	5.16
343.191	5.26
343.562	5.35
343.933	5.19
344.303	4.65
344.674	5.34
345.045	5.15
345.416	5.22
345.786	5.24
346.157	5.26
346.527	5.26
346.898	5.05
347.268	4.86
347.639	5.24
348.009	5.23
348.38	5.06
348.75	4.86
349.12	5.29
349.49	5.52
349.861	5.49
350.231	5.19
350.601	5.44
350.971	5.41
351.341	5.65
351.711	5.78
352.081	5.18
352.45	5.47
352.82	5.23
353.19	5.43
353.56	5.09
353.929	5.65
354.299	5.41
354.669	5.54
355.038	5.55
355.408	4.94
355.777	5.34
356.147	5.78
356.516	5.42
356.885	5.72
357.254	5.71
357.624	5.47
357.993	5.38
358.362	5.8
358.731	5.49
359.1	5.16
359.469	5.62
359.838	5.48
360.207	6.35
360.576	5.38
360.945	5.87
361.314	5.61
361.682	5.56
362.051	5.76
362.42	5.5
362.788	5.72
363.157	5.65
363.525	5.71
363.894	5.65
364.262	5.8
364.631	5.85
364.999	5.78
365.367	5.98
365.735	6.08
366.104	5.58
366.472	5.76
366.84	6.32
367.208	5.96
367.576	6.07
367.944	6.08
368.312	6.08
368.68	6.26
369.048	5.63
369.416	5.95
369.783	6.28
370.151	6.35
370.519	6.36
370.886	5.86
371.254	6.4
371.621	6.09
371.989	6.04
372.356	6.2
372.724	6.33
373.091	6.11
373.458	5.95
373.826	6.22
374.193	6.21
374.56	6.23
374.927	6.36
375.294	6.28
375.661	6.43
376.028	6.35
376.395	6.71
376.762	6.41
377.129	6.52
377.496	6.18
377.863	6.32
378.229	6.28
378.596	6.4
378.963	6.36
379.329	6.89
379.696	6.26
380.062	6.73
380.429	6.83
380.795	6.62
381.161	6.74
381.528	6.64
381.894	6.66
382.26	6.5
382.626	6.92
382.993	6.34
383.359	6.66
383.725	6.7
384.091	6.71
384.457	6.72
384.823	6.58
385.188	6.75
385.554	6.52
385.92	6.43
386.286	6.87
386.651	6.47
387.017	6.84
387.383	6.95
387.748	7.02
388.114	6.83
388.479	6.77
388.845	6.93
389.21	7.09
389.575	6.84
389.94	7.1
390.306	7.11
390.671	7
391.036	7.12
391.401	6.85
391.766	7.13
392.131	6.98
392.496	6.73
392.861	6.67
393.226	6.91
393.591	7.26
393.956	7.33
394.32	7.41
394.685	7.12
395.05	7.18
395.414	7.26
395.779	7.3
396.143	7.25
396.508	7.14
396.872	7.41
397.236	7.08
397.601	7.6
397.965	7.66
398.329	7.37
398.694	7.35
399.058	7.29
399.422	7.41
399.786	7.44
400.15	7.17
400.514	7.67
400.878	7.42
401.242	7.56
401.605	7.57
401.969	7.78
402.333	7.61
402.697	7.53
403.06	7.29
403.424	7.46
403.787	7.61
404.151	7.34
404.514	7.53
404.878	7.47
405.241	7.59
405.604	7.69
405.968	7.44
406.331	7.46
406.694	7.69
407.057	7.79
407.42	7.68
407.783	7.77
408.146	7.72
408.509	7.88
408.872	7.66
409.235	7.73
409.598	7.77
409.961	7.7
410.323	7.92
410.686	7.74
411.049	7.88
411.411	7.6
411.774	7.85
412.136	8
412.499	8.05
412.861	8.03
413.223	7.98
413.586	7.92
413.948	8.04
414.31	7.81
414.672	7.96
415.035	8.07
415.397	7.89
415.759	7.97
416.121	8.23
416.483	8
416.845	8.15
417.206	8.02
417.568	8.18
417.93	7.91
418.292	8.13
418.653	8.1
419.015	8.06
419.377	8.03
419.738	8.08
420.1	8.11
420.461	8.2
420.822	8.07
421.184	8.14
421.545	8.12
421.906	7.98
422.267	7.95
422.629	7.94
422.99	8.08
423.351	8.05
423.712	8.13
424.073	8.19
424.434	8.11
424.795	8.2
425.155	8.1
425.516	8.17
425.877	8.13
426.238	8.25
426.598	8.22
426.959	8.36
427.32	8.37
427.68	8.49
428.041	8.45
428.401	8.53
428.761	8.44
429.122	8.55
429.482	8.57
429.842	8.46
430.202	8.63
430.563	8.58
430.923	8.71
431.283	8.69
431.643	8.62
432.003	8.6
432.363	8.67
432.722	9.09
433.082	8.76
433.442	8.73
433.802	8.72
434.161	8.92
434.521	8.67
434.881	8.69
435.24	8.76
435.6	8.71
435.959	8.96
436.319	8.87
436.678	8.77
437.037	8.92
437.396	8.96
437.756	9.09
438.115	8.94
438.474	8.89
438.833	8.84
439.192	8.86
439.551	9.06
439.91	8.95
440.269	8.98
440.628	8.9
440.987	8.84
441.345	8.91
441.704	9.05
442.063	9.04
442.421	8.85
442.78	8.94
443.138	9.1
443.497	9.1
443.855	9.04
444.214	9.16
444.572	9.33
444.93	9.08
445.288	9.22
445.647	9.23
446.005	9.18
446.363	9.26
446.721	9.17
447.079	9.13
447.437	9.11
447.795	9.06
448.153	9.14
448.51	9.13
448.868	9.26
449.226	9.24
449.584	9.33
449.941	9.53
450.299	9.39
450.656	9.52
451.014	9.55
451.371	9.61
451.729	9.54
452.086	9.74
452.443	9.7
452.801	9.73
453.158	9.5
453.515	9.75
453.872	9.57
454.229	9.67
454.586	9.65
454.943	9.65
455.3	9.66
455.657	9.68
456.014	9.71
456.371	9.65
456.727	9.9
457.084	9.64
457.441	9.96
457.797	9.88
458.154	9.95
458.51	9.79
458.867	9.97
459.223	10.04
459.58	9.91
459.936	9.96
460.292	9.78
460.648	9.71
461.005	9.67
461.361	9.66
461.717	9.84
462.073	10.01
462.429	10.04
462.785	10.04
463.141	10.17
463.496	10.27
463.852	10.13
464.208	10.24
464.564	10.23
464.919	10.05
465.275	10.25
465.631	10.23
465.986	10.21
466.342	10.16
466.697	10.35
467.052	10.34
467.408	10.41
467.763	10.28
468.118	10.52
468.473	10.48
468.829	10.38
469.184	10.35
469.539	10.58
469.894	10.55
470.249	10.61
470.603	10.49
470.958	10.61
471.313	10.59
471.668	10.47
472.023	10.57
472.377	10.53
472.732	10.69
473.086	10.74
473.441	10.73
473.795	10.78
474.15	10.75
474.504	10.59
474.859	10.7
475.213	10.78
475.567	11.1
475.921	10.81
476.275	11.02
476.63	10.92
476.984	10.91
477.338	10.8
477.692	10.87
478.045	10.93
478.399	11.04
478.753	10.81
479.107	10.96
479.461	10.92
479.814	10.95
480.168	11.09
480.521	11.15
480.875	11.01
481.228	11.07
481.582	11.1
481.935	11.14
482.289	10.91
482.642	10.86
482.995	11.06
483.348	11.08
483.701	10.93
484.055	10.76
484.408	10.71
484.761	10.52
485.114	10.41
485.466	10.42
485.819	10.56
486.172	10.8
486.525	10.98
486.878	11.01
487.23	11.11
487.583	11.09
487.936	11.06
488.288	10.97
488.641	10.86
488.993	10.83
489.345	10.88
489.698	10.97
490.05	11.04
490.402	11.28
490.754	11.34
491.107	11.39
491.459	11.58
491.811	11.48
492.163	11.42
492.515	11.23
492.866	11.12
493.218	11.05
493.57	11.18
493.922	11.37
494.274	11.53
494.625	11.79
494.977	11.75
495.328	11.76
495.68	11.94
496.031	12.05
496.383	11.88
496.734	11.94
497.086	11.91
497.437	12.03
497.788	11.99
498.139	11.74
498.49	11.93
498.842	11.91
499.193	12.03
499.544	12.01
499.894	12.03
500.245	12.09
500.596	12.14
500.947	12.19
501.298	12.31
501.648	12.28
501.999	12.29
502.35	12.35
502.7	12.47
503.051	12.57
503.401	12.47
503.752	12.37
504.102	12.48
504.452	12.44
504.803	12.41
505.153	12.49
505.503	12.43
505.853	12.35
506.203	12.52
506.553	12.61
506.903	12.72
507.253	12.6
507.603	12.71
507.953	12.77
508.303	12.73
508.652	12.75
509.002	12.77
509.352	12.65
509.701	12.75
510.051	12.66
510.4	12.69
510.75	12.71
511.099	12.76
511.449	12.85
511.798	12.88
512.147	12.98
512.496	13
512.846	13.08
513.195	13.03
513.544	13
513.893	13.13
514.242	12.95
514.591	13.22
514.939	13.07
515.288	13.26
515.637	13.17
515.986	13.29
516.334	13.21
516.683	13.29
517.032	13.36
517.38	13.37
517.729	13.28
518.077	13.31
518.426	13.29
518.774	13.28
519.122	13.34
519.47	13.22
519.819	13.18
520.167	13.09
520.515	13.22
520.863	13.29
521.211	13.35
521.559	13.53
521.907	13.5
522.255	13.59
522.602	13.57
522.95	13.82
523.298	13.69
523.645	13.78
523.993	13.63
524.341	13.67
524.688	13.68
525.036	13.89
525.383	13.73
525.73	13.81
526.078	13.77
526.425	13.78
526.772	13.61
527.119	13.51
527.466	13.66
527.814	13.68
528.161	13.74
528.508	13.71
528.854	13.69
529.201	13.62
529.548	13.41
529.895	13.24
530.242	13.27
530.588	13.48
530.935	13.63
531.282	13.71
531.628	13.91
531.975	13.96
532.321	14.03
532.667	14.06
533.014	14.16
533.36	14.12
533.706	14.14
534.052	14.06
534.399	13.94
534.745	13.91
535.091	13.98
535.437	14.07
535.783	14.05
536.129	14.33
536.474	14.36
536.82	14.54
537.166	14.47
537.512	14.51
537.857	14.37
538.203	14.39
538.549	14.41
538.894	14.59
539.239	14.6
539.585	14.9
539.93	14.79
540.276	14.96
540.621	15.05
540.966	14.92
541.311	14.76
541.656	14.84
542.001	14.72
542.346	14.4
542.691	14.27
543.036	14.37
543.381	14.54
543.726	14.67
544.071	14.75
544.415	14.86
544.76	14.83
545.105	14.98
545.449	14.94
545.794	15.27
546.138	15.34
546.483	15.25
546.827	15.27
547.171	15.18
547.516	15.28
547.86	15.26
548.204	15.3
548.548	15.23
548.892	15.38
549.236	15.46
549.58	15.7
549.924	15.72
550.268	15.78
550.612	15.93
550.956	15.78
551.3	15.86
551.643	15.92
551.987	15.93
552.33	16.03
552.674	15.92
553.017	15.88
553.361	16.13
553.704	16.07
554.048	16.16
554.391	15.96
554.734	16.06
555.077	16.16
555.42	16.15
555.764	16.2
556.107	16.17
556.45	16.23
556.793	16.3
557.135	16.39
557.478	16.57
557.821	16.28
558.164	16.2
558.507	16.63
558.849	16.56
559.192	16.82
559.534	16.75
559.877	16.69
560.219	16.73
560.562	16.75
560.904	16.66
561.246	16.62
561.589	16.91
561.931	16.62
562.273	16.85
562.615	16.89
562.957	16.6
563.299	16.91
563.641	16.7
563.983	16.99
564.325	16.88
564.667	16.93
565.008	16.86
565.35	17.21
565.692	16.86
566.033	16.91
566.375	17.03
566.716	17.09
567.058	17.09
567.399	16.99
567.741	16.83
568.082	17.08
568.423	17.17
568.764	17.25
569.105	17.19
569.447	17.3
569.788	17.37
570.129	17.46
570.47	17.52
570.811	17.24
571.151	17.43
571.492	17.43
571.833	17.56
572.174	17.63
572.514	17.29
572.855	17.53
573.195	17.3
573.536	17.47
573.876	17.39
574.217	17.61
574.557	17.74
574.898	17.65
575.238	17.84
575.578	17.76
575.918	17.91
576.258	17.62
576.598	17.9
576.938	17.86
577.278	17.78
577.618	17.93
577.958	17.88
578.298	17.97
578.638	18.05
578.977	18.33
579.317	18.07
579.657	17.98
579.996	18.26
580.336	18.44
580.675	18.68
581.014	18.22
581.354	18.49
581.693	18.52
582.032	18.49
582.372	18.54
582.711	18.44
583.05	18.7
583.389	18.43
583.728	18.52
584.067	18.68
584.406	18.7
584.745	18.71
585.083	18.51
585.422	18.89
585.761	18.99
586.1	18.9
586.438	19.11
586.777	18.85
587.115	19.05
587.454	19.07
587.792	18.89
588.13	18.94
588.469	19.21
588.807	19
589.145	18.96
589.483	19.08
589.821	18.81
590.159	19.18
590.497	19.11
590.835	19.12
591.173	19.19
591.511	19.04
591.849	19.16
592.187	18.96
592.524	19.37
592.862	19.11
593.2	19.48
593.537	19.26
593.875	19.29
594.212	19.2
594.55	19.35
594.887	19.25
595.224	19.62
595.561	19.47
595.899	19.75
596.236	19.71
596.573	19.47
596.91	19.38
597.247	19.41
597.584	19.34
597.921	19.43
598.258	19.46
598.594	19.47
598.931	19.49
599.268	19.54
599.604	19.66
599.941	19.78
600.277	19.91
600.614	19.98
600.95	20.04
601.287	20.17
601.623	19.8
601.959	19.95
602.296	20.1
602.632	19.77
602.968	20.18
603.304	20.07
603.64	20.35
603.976	20
604.312	20.25
604.648	20.05
604.984	20.06
605.319	19.92
605.655	20.22
605.991	19.98
606.326	20.25
606.662	20.09
606.998	20.21
607.333	20.34
607.668	20.14
608.004	20.52
608.339	20.6
608.674	20.74
609.01	20.63
609.345	20.64
609.68	20.8
610.015	20.41
610.35	20.57
610.685	20.36
611.02	20.48
611.355	20.36
611.689	20.44
612.024	20.67
612.359	20.86
612.694	20.76
613.028	20.9
613.363	20.81
613.697	20.99
614.032	21.12
614.366	21
614.7	20.88
615.035	20.92
615.369	21.09
615.703	20.96
616.037	20.97
616.371	21.2
616.705	20.82
617.039	21.25
617.373	21.32
617.707	21.44
618.041	21.18
618.375	21.24
618.709	21.12
619.042	21.25
619.376	21.42
619.71	21.41
620.043	21.29
620.377	21.42
620.71	21.69
621.043	21.65
621.377	21.25
621.71	21.46
622.043	21.52
622.376	21.65
622.709	22.15
623.043	21.76
623.376	22.22
623.709	21.79
624.041	21.87
624.374	21.91
624.707	21.9
625.04	21.86
625.373	22.1
625.705	22.06
626.038	21.89
626.37	21.95
626.703	22.13
627.035	21.93
627.368	21.8
627.7	21.59
628.032	21.97
628.365	21.72
628.697	21.8
629.029	21.93
629.361	22.22
629.693	22.47
630.025	21.96
630.357	22.04
630.689	22.17
631.021	22.34
631.353	22.32
631.684	22.29
632.016	22.4
632.348	22.34
632.679	22.02
633.011	22.51
633.342	22.45
633.674	22.67
634.005	22.87
634.336	22.37
634.668	22.66
634.999	22.38
635.33	22.55
635.661	22.75
635.992	22.88
636.323	22.56
636.654	22.75
636.985	22.72
637.316	22.57
637.647	22.71
637.977	23
638.308	22.64
638.639	23.03
638.969	22.73
639.3	23.03
639.63	23.23
639.961	22.79
640.291	22.72
640.622	22.9
640.952	22.92
641.282	23.29
641.612	23.52
641.943	23
642.273	23.19
642.603	23.08
642.933	23.31
643.263	23.16
643.592	23.24
643.922	23.55
644.252	23.68
644.582	23.23
644.911	23.59
645.241	23.66
645.571	23.56
645.9	23.47
646.23	23.6
646.559	23.24
646.888	23.49
647.218	23.12
647.547	23.4
647.876	23.6
648.205	23.57
648.534	23.73
648.863	23.66
649.192	23.08
649.521	23.65
649.85	24.07
650.179	23.61
650.508	24.33
650.837	23.73
651.165	23.65
651.494	24.35
651.822	24.03
652.151	24.33
652.479	24
652.808	24.07
653.136	23.6
653.465	23.47
653.793	23.93
654.121	24.1
654.449	24.22
654.777	24.21
655.105	24.33
655.433	24.16
655.761	24.37
656.089	23.76
656.417	24.6
656.745	24.23
657.073	24.31
657.4	24.02
657.728	24.32
658.056	24.53
658.383	24.22
658.711	24.71
659.038	24.21
659.365	23.73
659.693	24.11
660.02	24.5
660.347	24.53
660.674	24.44
661.001	24.18
661.329	24.16
661.656	24.01
661.982	24.5
662.309	24.62
662.636	24.93
662.963	24.41
663.29	24.57
663.616	24.77
663.943	25.03
664.27	25.09
664.596	24.72
664.923	24.93
665.249	24.88
665.576	24.53
665.902	24.56
666.228	24.89
666.554	24.68
666.881	25.08
667.207	25.14
667.533	24.9
667.859	24.68
668.185	25.17
668.511	25.21
668.837	24.58
669.162	25.34
669.488	24.67
669.814	25.32
670.139	25.16
670.465	25
670.791	24.91
671.116	24.96
671.442	24.89
671.767	25.42
672.092	24.92
672.418	25.29
672.743	25.45
673.068	25.03
673.393	25.1
673.718	24.73
674.043	24.97
674.368	24.98
674.693	24.86
675.018	25.64
675.343	25.69
675.667	26.08
675.992	25.7
676.317	25.71
676.641	25.68
676.966	25.08
677.29	25.35
677.615	25.95
677.939	25.98
