Data from 0032_crown_Reflection__3__155.txt Node

Date: Thu Oct 20 22:08:05 CDT 2022
User: ToomeyLab
Spectrometer: FLMS14357
Trigger mode: 0
Integration Time (sec): 1.000000E-2
Scans to average: 100
Electric dark correction enabled: true
Nonlinearity correction enabled: false
Boxcar width: 0
XAxis mode: Wavelengths
Number of Pixels in Spectrum: 2048
>>>>>Begin Spectral Data<<<<<
189.047	56.48
189.435	56.48
189.823	56.48
190.211	104.38
190.599	-26.03
190.987	962.27
191.375	38.94
191.763	-347.47
192.151	-20.04
192.538	332.02
192.926	66.79
193.314	1040.44
193.702	408.73
194.089	14.39
194.477	59.94
194.864	-230.57
195.252	182.14
195.639	-1239.11
196.027	50.17
196.414	78.43
196.801	-409.54
197.189	43.38
197.576	229.32
197.963	176.05
198.351	-11.61
198.738	-48.12
199.125	18.9
199.512	17.79
199.899	-21.61
200.286	-46.97
200.673	12.39
201.06	16.98
201.447	24.6
201.833	2.69
202.22	-30.67
202.607	-1.8
202.994	26.93
203.38	-89.98
203.767	-6.55
204.154	-22.35
204.54	-4.75
204.927	-31.11
205.313	12.09
205.699	38.38
206.086	1.45
206.472	4.08
206.858	9.88
207.245	-10.54
207.631	-9.76
208.017	-17.06
208.403	-47.22
208.789	4.44
209.175	31.49
209.561	26.38
209.947	-4.18
210.333	19.7
210.719	22.54
211.105	-5.78
211.491	-1.01
211.876	-22.61
212.262	7.81
212.648	-23.65
213.034	13.69
213.419	-24.12
213.805	-37.64
214.19	-63.83
214.576	-33.3
214.961	3.18
215.346	-13.67
215.732	-3.78
216.117	-33.18
216.502	-7.7
216.888	-19.61
217.273	-18.71
217.658	3.46
218.043	8.29
218.428	25.14
218.813	4.13
219.198	-3.34
219.583	-5.94
219.968	24.36
220.353	-28.07
220.738	2.55
221.122	12.49
221.507	-6.73
221.892	-2.49
222.276	-6.55
222.661	0.55
223.046	11.27
223.43	-4.9
223.815	-7.46
224.199	-4.57
224.583	-2.58
224.968	15.29
225.352	3.7
225.736	-0.6
226.121	-0.24
226.505	5.76
226.889	-0.59
227.273	-8.34
227.657	4.74
228.041	2.31
228.425	1.73
228.809	2.91
229.193	0.88
229.577	0.67
229.961	1.46
230.344	1.43
230.728	2.48
231.112	3.02
231.495	1.94
231.879	2.9
232.263	2.45
232.646	2.19
233.03	1.12
233.413	0.02
233.797	-1.86
234.18	0.24
234.563	0.52
234.946	1.68
235.33	0.56
235.713	2.47
236.096	1.17
236.479	1.99
236.862	1.36
237.245	2.43
237.628	2.47
238.011	2.28
238.394	3.12
238.777	2.65
239.16	-0.83
239.543	0.02
239.925	2.19
240.308	1.77
240.691	3.11
241.073	1.51
241.456	1.55
241.838	1.82
242.221	1.7
242.603	2.62
242.986	2.71
243.368	2.35
243.75	2.36
244.133	2.78
244.515	2.43
244.897	1.53
245.279	1.06
245.661	2.67
246.043	2.47
246.425	3.31
246.807	2.51
247.189	2.59
247.571	2.28
247.953	2.29
248.335	2.56
248.717	2.36
249.098	2.31
249.48	2.12
249.862	2.98
250.243	2.28
250.625	2.68
251.006	3.06
251.388	2.19
251.769	2.39
252.151	2.62
252.532	1.63
252.913	2.24
253.295	2.46
253.676	2.73
254.057	2.09
254.438	2.51
254.819	2.01
255.2	2.17
255.581	2.23
255.962	3.39
256.343	1.38
256.724	2.02
257.105	2.36
257.486	2.17
257.867	2.26
258.247	1.78
258.628	2.09
259.009	2.51
259.389	2.22
259.77	2.52
260.15	2.45
260.531	2.29
260.911	2.31
261.292	2.54
261.672	2.39
262.052	2.48
262.432	2.36
262.813	2.24
263.193	2.94
263.573	2.12
263.953	2.38
264.333	2.27
264.713	2.48
265.093	2.63
265.473	2.57
265.853	2.37
266.233	2.71
266.612	2.11
266.992	2.06
267.372	3.01
267.752	2.45
268.131	2.83
268.511	2.66
268.89	2.58
269.27	2.08
269.649	1.96
270.029	1.83
270.408	1.94
270.787	2.31
271.167	2.24
271.546	1.52
271.925	2.61
272.304	2.47
272.683	2.46
273.062	2.21
273.441	1.9
273.82	2.66
274.199	1.91
274.578	1.88
274.957	2.24
275.336	2.27
275.715	2.89
276.093	2.93
276.472	2.87
276.851	2.84
277.229	2.01
277.608	2.29
277.986	2.12
278.365	2.34
278.743	2.21
279.122	2.56
279.5	2.12
279.878	2.73
280.257	2.63
280.635	2.02
281.013	2.28
281.391	3.07
281.769	2.99
282.147	2.07
282.525	2
282.903	2.27
283.281	1.92
283.659	1.83
284.037	1.68
284.415	2.4
284.792	2.08
285.17	2.67
285.548	1.91
285.925	2.12
286.303	2.16
286.68	2.8
287.058	2.3
287.435	2.25
287.813	2.05
288.19	1.79
288.567	2.78
288.945	2.4
289.322	2.46
289.699	1.88
290.076	2.56
290.453	2.42
290.83	2.17
291.207	2.39
291.584	2.48
291.961	2.24
292.338	1.98
292.715	1.98
293.092	2.62
293.469	2.32
293.845	2.56
294.222	2.54
294.599	3.31
294.975	2.01
295.352	2.66
295.728	2.05
296.105	2.42
296.481	2.26
296.858	2.27
297.234	2.42
297.61	2.04
297.986	2.34
298.363	1.98
298.739	2.24
299.115	2.35
299.491	2.38
299.867	2.43
300.243	2.61
300.619	2.58
300.995	1.98
301.371	2.3
301.746	1.69
302.122	2.89
302.498	2.43
302.874	3.24
303.249	2.53
303.625	2.04
304	2.79
304.376	1.97
304.751	2.66
305.127	1.83
305.502	2.16
305.878	2.37
306.253	1.79
306.628	2.51
307.003	2.52
307.378	2
307.754	2.36
308.129	2.83
308.504	2.58
308.879	2.16
309.254	2.28
309.629	2.31
310.003	2.12
310.378	2.34
310.753	2.78
311.128	2.5
311.502	2.14
311.877	2.84
312.252	2.56
312.626	2.61
313.001	2.58
313.375	2.56
313.75	2.25
314.124	2.49
314.498	2.04
314.873	2.6
315.247	2.13
315.621	2.49
315.995	2.38
316.369	2.57
316.743	2.27
317.117	2.19
317.491	2.7
317.865	2.34
318.239	1.96
318.613	3.1
318.987	2.37
319.361	3.05
319.734	2.41
320.108	2.48
320.482	2.63
320.855	2.65
321.229	3
321.602	2.43
321.976	2.11
322.349	2.75
322.723	2.99
323.096	2.72
323.469	2.53
323.843	2.8
324.216	2.62
324.589	2.97
324.962	2.71
325.335	2.8
325.708	2.76
326.081	2.75
326.454	2.83
326.827	2.59
327.2	2.88
327.573	2.34
327.945	2.66
328.318	2.09
328.691	3.08
329.063	2.69
329.436	2.63
329.809	2.67
330.181	3.29
330.553	2.29
330.926	2.53
331.298	2.49
331.671	3.02
332.043	2.68
332.415	2.68
332.787	3.27
333.159	3.42
333.532	2.83
333.904	2.83
334.276	2.45
334.648	2.36
335.02	2.83
335.391	2.74
335.763	2.55
336.135	2.44
336.507	2.28
336.879	3.53
337.25	2.71
337.622	2.89
337.993	2.52
338.365	3.04
338.736	2.81
339.108	2.82
339.479	2.89
339.851	2.85
340.222	2.45
340.593	2.75
340.964	3.09
341.336	2.64
341.707	2.82
342.078	2.53
342.449	2.54
342.82	3.03
343.191	2.62
343.562	2.63
343.933	2.7
344.303	2.81
344.674	2.83
345.045	2.67
345.416	2.8
345.786	2.61
346.157	2.45
346.527	2.74
346.898	2.72
347.268	2.62
347.639	2.46
348.009	2.7
348.38	3.11
348.75	2.58
349.12	2.94
349.49	2.83
349.861	3.04
350.231	2.81
350.601	2.89
350.971	2.82
351.341	3.17
351.711	3.1
352.081	2.66
352.45	2.61
352.82	2.73
353.19	3.16
353.56	2.68
353.929	2.54
354.299	3.02
354.669	2.72
355.038	2.53
355.408	2.38
355.777	2.9
356.147	3.17
356.516	2.73
356.885	2.79
357.254	2.87
357.624	2.79
357.993	2.71
358.362	2.8
358.731	2.96
359.1	2.8
359.469	3.01
359.838	2.82
360.207	3.46
360.576	2.42
360.945	3.3
361.314	3
361.682	2.97
362.051	2.92
362.42	2.75
362.788	2.77
363.157	2.72
363.525	2.74
363.894	2.75
364.262	3.1
364.631	2.86
364.999	2.88
365.367	3.28
365.735	2.92
366.104	2.62
366.472	2.69
366.84	3.27
367.208	3
367.576	3.06
367.944	3
368.312	2.77
368.68	3.16
369.048	2.89
369.416	2.94
369.783	3.11
370.151	3.43
370.519	3.13
370.886	2.76
371.254	3.1
371.621	2.92
371.989	3.11
372.356	2.82
372.724	3.28
373.091	2.91
373.458	2.72
373.826	3
374.193	3.26
374.56	2.81
374.927	2.59
375.294	2.81
375.661	3.29
376.028	3.01
376.395	3.12
376.762	2.89
377.129	2.58
377.496	2.9
377.863	2.62
378.229	3.02
378.596	2.9
378.963	2.92
379.329	3.23
379.696	2.94
380.062	2.98
380.429	3.63
380.795	2.95
381.161	3.19
381.528	2.96
381.894	3.16
382.26	2.9
382.626	3.11
382.993	2.95
383.359	3.23
383.725	2.92
384.091	3.15
384.457	2.95
384.823	2.99
385.188	3.38
385.554	2.67
385.92	3.18
386.286	3.02
386.651	2.81
387.017	3.14
387.383	3.05
387.748	3.21
388.114	3.2
388.479	3.09
388.845	2.96
389.21	3.07
389.575	3.08
389.94	3.46
390.306	3.12
390.671	3.09
391.036	3.09
391.401	2.84
391.766	3.19
392.131	3.19
392.496	2.95
392.861	2.72
393.226	3.1
393.591	3.21
393.956	3.28
394.32	3.24
394.685	3.3
395.05	3.13
395.414	2.98
395.779	3.2
396.143	3.26
396.508	3.18
396.872	3.29
397.236	3.07
397.601	3.46
397.965	3.46
398.329	3.34
398.694	3.03
399.058	3.15
399.422	3.29
399.786	3.08
400.15	3.24
400.514	3.46
400.878	3.15
401.242	3.37
401.605	3.37
401.969	3.3
402.333	3.07
402.697	3.47
403.06	3.14
403.424	3.26
403.787	3.26
404.151	3.34
404.514	3.08
404.878	3.15
405.241	3.2
405.604	3.33
405.968	3.43
406.331	3.16
406.694	3.2
407.057	3.39
407.42	3.15
407.783	3.11
408.146	3.23
408.509	3.19
408.872	3.28
409.235	3.2
409.598	3.34
409.961	3.23
410.323	3.68
410.686	3.48
411.049	3.36
411.411	3.07
411.774	3.16
412.136	3.16
412.499	3.42
412.861	3.22
413.223	3.19
413.586	3.09
413.948	3.19
414.31	3.31
414.672	3.26
415.035	3.14
415.397	3.29
415.759	3.32
416.121	3.3
416.483	3.28
416.845	3.49
417.206	3.04
417.568	3.24
417.93	3.21
418.292	3.4
418.653	3.46
419.015	3.24
419.377	3.2
419.738	3.29
420.1	3.34
420.461	3.35
420.822	3.3
421.184	3.1
421.545	3.27
421.906	3.25
422.267	3.18
422.629	3.24
422.99	3.26
423.351	3.2
423.712	3.27
424.073	3.25
424.434	3.25
424.795	3.29
425.155	3.22
425.516	3.31
425.877	3.22
426.238	3.29
426.598	3.31
426.959	3.3
427.32	3.28
427.68	3.37
428.041	3.29
428.401	3.38
428.761	3.34
429.122	3.31
429.482	3.47
429.842	3.32
430.202	3.5
430.563	3.35
430.923	3.6
431.283	3.31
431.643	3.47
432.003	3.42
432.363	3.43
432.722	3.61
433.082	3.37
433.442	3.41
433.802	3.42
434.161	3.39
434.521	3.26
434.881	3.44
435.24	3.2
435.6	3.33
435.959	3.51
436.319	3.52
436.678	3.35
437.037	3.49
437.396	3.55
437.756	3.4
438.115	3.42
438.474	3.39
438.833	3.5
439.192	3.41
439.551	3.39
439.91	3.35
440.269	3.47
440.628	3.46
440.987	3.33
441.345	3.5
441.704	3.33
442.063	3.49
442.421	3.39
442.78	3.42
443.138	3.42
443.497	3.43
443.855	3.44
444.214	3.55
444.572	3.46
444.93	3.33
445.288	3.41
445.647	3.56
446.005	3.48
446.363	3.46
446.721	3.47
447.079	3.4
447.437	3.41
447.795	3.48
448.153	3.4
448.51	3.43
448.868	3.41
449.226	3.48
449.584	3.44
449.941	3.57
450.299	3.43
450.656	3.51
451.014	3.46
451.371	3.52
451.729	3.5
452.086	3.67
452.443	3.41
452.801	3.65
453.158	3.62
453.515	3.43
453.872	3.49
454.229	3.54
454.586	3.58
454.943	3.45
455.3	3.61
455.657	3.45
456.014	3.62
456.371	3.66
456.727	3.55
457.084	3.49
457.441	3.54
457.797	3.63
458.154	3.56
458.51	3.7
458.867	3.61
459.223	3.85
459.58	3.62
459.936	3.6
460.292	3.52
460.648	3.42
461.005	3.44
461.361	3.38
461.717	3.52
462.073	3.67
462.429	3.63
462.785	3.67
463.141	3.69
463.496	3.77
463.852	3.71
464.208	3.6
464.564	3.75
464.919	3.68
465.275	3.8
465.631	3.57
465.986	3.7
466.342	3.61
466.697	3.6
467.052	3.68
467.408	3.62
467.763	3.69
468.118	3.77
468.473	3.77
468.829	3.65
469.184	3.74
469.539	3.61
469.894	3.64
470.249	3.93
470.603	3.68
470.958	3.86
471.313	3.69
471.668	3.6
472.023	3.75
472.377	3.65
472.732	3.8
473.086	3.7
473.441	3.71
473.795	3.79
474.15	3.68
474.504	3.64
474.859	3.86
475.213	3.86
475.567	3.92
475.921	3.58
476.275	3.8
476.63	3.96
476.984	3.8
477.338	3.8
477.692	3.69
478.045	3.83
478.399	3.84
478.753	3.54
479.107	3.76
479.461	3.82
479.814	3.72
480.168	3.87
480.521	3.79
480.875	3.94
481.228	3.83
481.582	3.62
481.935	3.78
482.289	3.67
482.642	3.63
482.995	3.74
483.348	3.83
483.701	3.74
484.055	3.71
484.408	3.67
484.761	3.59
485.114	3.45
485.466	3.44
485.819	3.53
486.172	3.65
486.525	3.69
486.878	3.72
487.23	3.78
487.583	3.71
487.936	3.75
488.288	3.69
488.641	3.65
488.993	3.63
489.345	3.64
489.698	3.7
490.05	3.73
490.402	3.78
490.754	3.8
491.107	3.76
491.459	3.86
491.811	3.78
492.163	3.77
492.515	3.71
492.866	3.71
493.218	3.58
493.57	3.7
493.922	3.78
494.274	3.87
494.625	3.9
494.977	3.92
495.328	3.85
495.68	3.97
496.031	4
496.383	3.97
496.734	3.86
497.086	3.93
497.437	4.05
497.788	3.95
498.139	3.77
498.49	3.92
498.842	3.81
499.193	3.9
499.544	4.01
499.894	4.04
500.245	4.02
500.596	3.92
500.947	3.92
501.298	4.07
501.648	4.03
501.999	4.14
502.35	4.03
502.7	4.1
503.051	4.08
503.401	4.14
503.752	3.91
504.102	3.99
504.452	4.14
504.803	3.83
505.153	3.93
505.503	4.13
505.853	3.96
506.203	4.12
506.553	4.11
506.903	3.96
507.253	4.12
507.603	4.04
507.953	4.1
508.303	4.25
508.652	4.08
509.002	4.02
509.352	4.09
509.701	4.11
510.051	4.06
510.4	4.04
510.75	4.08
511.099	4.04
511.449	4.21
511.798	4.19
512.147	4.23
512.496	4.15
512.846	4.23
513.195	4.27
513.544	4.12
513.893	4.17
514.242	4.18
514.591	4.33
514.939	4.17
515.288	4.28
515.637	4.26
515.986	4.21
516.334	4.2
516.683	4.25
517.032	4.24
517.38	4.2
517.729	4.28
518.077	4.17
518.426	4.23
518.774	4.22
519.122	4.3
519.47	4.18
519.819	4.18
520.167	4.16
520.515	4.19
520.863	4.18
521.211	4.29
521.559	4.33
521.907	4.17
522.255	4.33
522.602	4.25
522.95	4.39
523.298	4.29
523.645	4.5
523.993	4.39
524.341	4.44
524.688	4.29
525.036	4.41
525.383	4.47
525.73	4.34
526.078	4.38
526.425	4.31
526.772	4.29
527.119	4.23
527.466	4.36
527.814	4.29
528.161	4.29
528.508	4.24
528.854	4.37
529.201	4.34
529.548	4.23
529.895	4.13
530.242	4.15
530.588	4.22
530.935	4.3
531.282	4.33
531.628	4.38
531.975	4.45
532.321	4.41
532.667	4.55
533.014	4.48
533.36	4.46
533.706	4.39
534.052	4.43
534.399	4.42
534.745	4.38
535.091	4.39
535.437	4.41
535.783	4.49
536.129	4.49
536.474	4.59
536.82	4.67
537.166	4.59
537.512	4.57
537.857	4.54
538.203	4.54
538.549	4.57
538.894	4.61
539.239	4.62
539.585	4.67
539.93	4.73
540.276	4.91
540.621	4.63
540.966	4.7
541.311	4.74
541.656	4.67
542.001	4.64
542.346	4.57
542.691	4.49
543.036	4.49
543.381	4.62
543.726	4.6
544.071	4.71
544.415	4.73
544.76	4.64
545.105	4.77
545.449	4.74
545.794	4.88
546.138	4.89
546.483	4.88
546.827	4.92
547.171	4.92
547.516	4.87
547.86	4.79
548.204	4.88
548.548	4.9
548.892	4.89
549.236	4.93
549.58	4.97
549.924	4.96
550.268	5.07
550.612	5.21
550.956	5.02
551.3	5.15
551.643	5.04
551.987	5.1
552.33	5.15
552.674	4.98
553.017	5.21
553.361	5.28
553.704	5.29
554.048	5.23
554.391	5.18
554.734	5.07
555.077	5.22
555.42	5.21
555.764	5.13
556.107	5.2
556.45	5.22
556.793	5.36
557.135	5.27
557.478	5.23
557.821	5.37
558.164	5.28
558.507	5.4
558.849	5.44
559.192	5.49
559.534	5.47
559.877	5.56
560.219	5.61
560.562	5.52
560.904	5.37
561.246	5.39
561.589	5.48
561.931	5.31
562.273	5.41
562.615	5.65
562.957	5.49
563.299	5.38
563.641	5.47
563.983	5.7
564.325	5.53
564.667	5.5
565.008	5.67
565.35	5.61
565.692	5.6
566.033	5.44
566.375	5.54
566.716	5.67
567.058	5.72
567.399	5.72
567.741	5.62
568.082	5.66
568.423	5.77
568.764	5.62
569.105	5.75
569.447	5.77
569.788	5.83
570.129	5.79
570.47	5.88
570.811	5.72
571.151	5.87
571.492	5.83
571.833	6.02
572.174	5.93
572.514	5.98
572.855	6.07
573.195	5.97
573.536	6
573.876	5.9
574.217	5.96
574.557	6.1
574.898	5.95
575.238	6.1
575.578	6.09
575.918	6.18
576.258	5.99
576.598	6.06
576.938	6.09
577.278	6.04
577.618	6.28
577.958	6.16
578.298	6.18
578.638	6.25
578.977	6.36
579.317	6.29
579.657	6.17
579.996	6.45
580.336	6.46
580.675	6.62
581.014	6.4
581.354	6.4
581.693	6.5
582.032	6.44
582.372	6.51
582.711	6.26
583.05	6.75
583.389	6.33
583.728	6.42
584.067	6.6
584.406	6.67
584.745	6.39
585.083	6.52
585.422	6.62
585.761	6.6
586.1	6.88
586.438	6.77
586.777	6.96
587.115	6.62
587.454	6.82
587.792	6.75
588.13	6.68
588.469	7.33
588.807	6.82
589.145	6.81
589.483	6.82
589.821	6.85
590.159	6.97
590.497	6.8
590.835	6.92
591.173	6.98
591.511	6.93
591.849	7.02
592.187	6.72
592.524	6.91
592.862	7.15
593.2	7.19
593.537	7.01
593.875	7.26
594.212	7.12
594.55	7.01
594.887	7.2
595.224	7.24
595.561	7.22
595.899	7.27
596.236	7.17
596.573	7.33
596.91	7.35
597.247	7.19
597.584	7.45
597.921	7.25
598.258	7.05
598.594	7.28
598.931	7.52
599.268	7.38
599.604	7.3
599.941	7.39
600.277	7.45
600.614	7.41
600.95	7.5
601.287	7.53
601.623	7.62
601.959	7.48
602.296	7.41
602.632	7.53
602.968	7.74
603.304	7.96
603.64	8.03
603.976	7.78
604.312	7.93
604.648	7.7
604.984	7.51
605.319	7.66
605.655	7.9
605.991	7.53
606.326	7.99
606.662	7.79
606.998	7.89
607.333	7.95
607.668	7.91
608.004	8.06
608.339	8.01
608.674	8.27
609.01	8.31
609.345	8.17
609.68	7.9
610.015	8.13
610.35	8.08
610.685	8.06
611.02	7.88
611.355	8.12
611.689	8.17
612.024	8.02
612.359	8.1
612.694	8.29
613.028	8.19
613.363	8.12
613.697	8.29
614.032	8.35
614.366	8.58
614.7	8.41
615.035	8.26
615.369	8.23
615.703	8.52
616.037	8.57
616.371	8.42
616.705	8.56
617.039	8.36
617.373	8.49
617.707	8.91
618.041	8.51
618.375	8.29
618.709	8.55
619.042	8.71
619.376	8.42
619.71	8.73
620.043	8.78
620.377	8.69
620.71	8.84
621.043	8.95
621.377	9.08
621.71	8.81
622.043	8.51
622.376	9.04
622.709	9.19
623.043	8.91
623.376	9.24
623.709	8.95
624.041	9.07
624.374	9.15
624.707	9.07
625.04	9.21
625.373	9.17
625.705	8.96
626.038	9.45
626.37	8.95
626.703	9.15
627.035	9.21
627.368	9.08
627.7	9.14
628.032	9.4
628.365	9.14
628.697	9.55
629.029	9.49
629.361	9.35
629.693	9.68
630.025	9.46
630.357	9.49
630.689	9.42
631.021	9.45
631.353	9.66
631.684	9.56
632.016	9.49
632.348	9.77
632.679	9.67
633.011	9.67
633.342	9.61
633.674	9.38
634.005	10
634.336	9.74
634.668	9.72
634.999	9.55
635.33	10.12
635.661	9.37
635.992	9.84
636.323	10.11
636.654	9.82
636.985	9.92
637.316	10.17
637.647	10.33
637.977	10.3
638.308	9.92
638.639	10.22
638.969	9.69
639.3	9.88
639.63	10.33
639.961	9.94
640.291	9.91
640.622	10.23
640.952	10.27
641.282	10.53
641.612	10.34
641.943	10.25
642.273	10.1
642.603	10.19
642.933	10.67
643.263	10.38
643.592	10.17
643.922	10.6
644.252	10.26
644.582	10.31
644.911	10.67
645.241	10.45
645.571	10.4
645.9	10.8
646.23	10.75
646.559	10.45
646.888	10.77
647.218	10.64
647.547	10.12
647.876	10.54
648.205	10.53
648.534	10.73
648.863	10.74
649.192	10.52
649.521	10.77
649.85	11.36
650.179	11.09
650.508	10.99
650.837	10.89
651.165	10.89
651.494	11.32
651.822	11.39
652.151	11.42
652.479	10.71
652.808	10.78
653.136	10.73
653.465	10.9
653.793	11.28
654.121	11.35
654.449	11.26
654.777	11.22
655.105	11.56
655.433	11.11
655.761	11.61
656.089	11.39
656.417	11.58
656.745	11.4
657.073	11.71
657.4	11.38
657.728	11.79
658.056	11.96
658.383	11.5
658.711	11.65
659.038	12.09
659.365	11.5
659.693	11.33
660.02	11.88
660.347	11.58
660.674	11.76
661.001	11.67
661.329	11.73
661.656	11.59
661.982	11.5
662.309	11.85
662.636	11.81
662.963	11.54
663.29	11.75
663.616	11.79
663.943	12.01
664.27	12.13
664.596	12.09
664.923	11.9
665.249	12.07
665.576	12.53
665.902	12.12
666.228	11.89
666.554	12.51
666.881	12.46
667.207	12.41
667.533	11.9
667.859	12.45
668.185	13.07
668.511	12.29
668.837	12.27
669.162	12.26
669.488	12.51
669.814	12.63
670.139	12.53
670.465	12.41
670.791	13.15
671.116	12.54
671.442	12.3
671.767	12.68
672.092	12.65
672.418	12.82
672.743	12.25
673.068	11.73
673.393	11.95
673.718	12.38
674.043	12.64
674.368	13
674.693	12.8
675.018	12.64
675.343	12.58
675.667	12.63
675.992	12.75
676.317	12.74
676.641	13.01
676.966	12.66
677.29	12.87
677.615	13.59
677.939	13.96
678.264	12.71
678.588	12.79
678.912	12.86
679.236	13.28
679.56	12.81
679.885	12.72
680.209	13.12
680.532	13.27
680.856	13.36
681.18	13.05
681.504	13.04
681.828	13.2
682.152	13.53
682.475	13.02
682.799	13.78
683.122	13.49
683.446	13.53
683.769	13.83
684.093	13.09
684.416	13.29
684.739	13.7
685.062	13.36
685.386	13.85
685.709	13.51
686.032	13.57
686.355	13.23
686.678	13.83
687.001	14.06
687.324	13.77
687.646	13.57
687.969	13.89
688.292	14.39
688.614	14.27
