Data from 0032_forehead_Reflection__4__166.txt Node

Date: Thu Oct 20 22:12:39 CDT 2022
User: ToomeyLab
Spectrometer: FLMS14357
Trigger mode: 0
Integration Time (sec): 1.000000E-2
Scans to average: 100
Electric dark correction enabled: true
Nonlinearity correction enabled: false
Boxcar width: 0
XAxis mode: Wavelengths
Number of Pixels in Spectrum: 2048
>>>>>Begin Spectral Data<<<<<
189.047	39.97
189.435	39.97
189.823	39.97
190.211	-34.38
190.599	27.04
190.987	937.36
191.375	50.92
191.763	21.9
192.151	91.46
192.538	-34.86
192.926	46.71
193.314	-246.02
193.702	-1281.75
194.089	114.39
194.477	84.81
194.864	-342.58
195.252	77.9
195.639	-299.5
196.027	156.9
196.414	149.07
196.801	-46.07
197.189	18.98
197.576	326.68
197.963	595.19
198.351	-10.61
198.738	-36.93
199.125	-23.15
199.512	-4.78
199.899	-20.57
200.286	26.69
200.673	-21.7
201.06	26.47
201.447	-5.95
201.833	21.9
202.22	-16.32
202.607	-8.9
202.994	-28.71
203.38	-4.53
203.767	5.3
204.154	13.67
204.54	-16.49
204.927	4.84
205.313	19.22
205.699	16.56
206.086	20.78
206.472	29.09
206.858	-19.79
207.245	-3.29
207.631	-22.31
208.017	-8.45
208.403	-41.29
208.789	4.63
209.175	44.11
209.561	15.94
209.947	7.32
210.333	7.89
210.719	13.59
211.105	15.78
211.491	-48.55
211.876	-10.09
212.262	39.72
212.648	-28.86
213.034	-20.7
213.419	-31.21
213.805	-23.96
214.19	-31.52
214.576	-18.58
214.961	-26.7
215.346	-9
215.732	10.58
216.117	-5.94
216.502	8.78
216.888	-37.39
217.273	-23.93
217.658	18.76
218.043	26.93
218.428	-3.23
218.813	25.56
219.198	2.69
219.583	-7.73
219.968	22.21
220.353	-7.13
220.738	29.47
221.122	-1.53
221.507	-5.83
221.892	-6.59
222.276	3.05
222.661	7.28
223.046	10.7
223.43	-2.48
223.815	-0.89
224.199	-6.02
224.583	-0.6
224.968	5.47
225.352	5.99
225.736	0.48
226.121	-7.39
226.505	2.08
226.889	1.64
227.273	-3.75
227.657	-0.09
228.041	-0.78
228.425	-0.29
228.809	3.63
229.193	1.67
229.577	1.21
229.961	2.24
230.344	0.64
230.728	1.12
231.112	1.2
231.495	0.82
231.879	1.6
232.263	2.29
232.646	0.92
233.03	1.68
233.413	-0.59
233.797	-0.1
234.18	1.63
234.563	1.15
234.946	1.85
235.33	2.49
235.713	1.64
236.096	0.59
236.479	2.45
236.862	1.64
237.245	0.94
237.628	2.1
238.011	4.13
238.394	2.93
238.777	3.03
239.16	2.19
239.543	-0.26
239.925	0.37
240.308	1.65
240.691	3.3
241.073	0.75
241.456	2.84
241.838	1.23
242.221	2.03
242.603	1.43
242.986	1.73
243.368	1.97
243.75	1.92
244.133	2.02
244.515	1.55
244.897	1.77
245.279	1.53
245.661	2.05
246.043	2.41
246.425	2.71
246.807	1.75
247.189	2.69
247.571	1.95
247.953	1.86
248.335	2.02
248.717	1.78
249.098	1.98
249.48	2.21
249.862	2.26
250.243	2.11
250.625	2.89
251.006	2.51
251.388	2.43
251.769	2.39
252.151	1.14
252.532	1.55
252.913	1.54
253.295	2
253.676	2.54
254.057	1.15
254.438	2.14
254.819	1.88
255.2	2.23
255.581	1.08
255.962	2.57
256.343	0.92
256.724	1.82
257.105	2.49
257.486	1.79
257.867	2.23
258.247	2.62
258.628	2.06
259.009	1.16
259.389	1.84
259.77	2
260.15	1.95
260.531	2.03
260.911	1.73
261.292	2.19
261.672	1.9
262.052	2.14
262.432	2.15
262.813	2.15
263.193	2.51
263.573	2.32
263.953	1.98
264.333	2.11
264.713	1.51
265.093	1.95
265.473	1.44
265.853	1.67
266.233	1.9
266.612	1.78
266.992	1.18
267.372	2.33
267.752	2.23
268.131	2.31
268.511	2.33
268.89	2.04
269.27	2.11
269.649	1.15
270.029	1.53
270.408	1.97
270.787	1.46
271.167	1.71
271.546	2.08
271.925	2.41
272.304	1.92
272.683	1.98
273.062	1.52
273.441	1.43
273.82	2.15
274.199	1.56
274.578	1.65
274.957	1.5
275.336	2.11
275.715	2.13
276.093	2.45
276.472	2.04
276.851	2.03
277.229	1.97
277.608	1.18
277.986	1.79
278.365	1.49
278.743	1.5
279.122	2.28
279.5	1.78
279.878	2.04
280.257	1.84
280.635	2.11
281.013	1.99
281.391	2.41
281.769	1.94
282.147	1.65
282.525	1.54
282.903	2.03
283.281	1.26
283.659	1.71
284.037	1.46
284.415	1.71
284.792	1.8
285.17	2.19
285.548	2.19
285.925	1.57
286.303	1.77
286.68	2.11
287.058	1.81
287.435	1.96
287.813	1.7
288.19	1.77
288.567	2.08
288.945	2.44
289.322	2.01
289.699	1.76
290.076	1.82
290.453	1.96
290.83	2.41
291.207	2.52
291.584	1.82
291.961	1.85
292.338	1.93
292.715	2.19
293.092	2.28
293.469	2.38
293.845	2.24
294.222	2.49
294.599	2.48
294.975	1.98
295.352	2.43
295.728	2.35
296.105	2.83
296.481	1.95
296.858	2.61
297.234	2.45
297.61	2.25
297.986	2.1
298.363	2.33
298.739	2.37
299.115	2.49
299.491	2.53
299.867	2.19
300.243	2.49
300.619	2.74
300.995	2.28
301.371	2.6
301.746	2.02
302.122	2.9
302.498	2.56
302.874	3.03
303.249	3.04
303.625	2.72
304	3.06
304.376	2.34
304.751	3.09
305.127	2.44
305.502	2.88
305.878	2.74
306.253	2.41
306.628	2.56
307.003	2.76
307.378	2.5
307.754	3.21
308.129	2.97
308.504	3.34
308.879	2.96
309.254	3
309.629	2.9
310.003	2.73
310.378	3.1
310.753	3.14
311.128	2.96
311.502	2.98
311.877	3.3
312.252	2.97
312.626	3.2
313.001	3
313.375	3.29
313.75	3.1
314.124	3.38
314.498	3.28
314.873	3.92
315.247	3.05
315.621	2.9
315.995	3.31
316.369	3.66
316.743	3.08
317.117	3.29
317.491	3.7
317.865	3.61
318.239	3.69
318.613	4.02
318.987	3.55
319.361	3.69
319.734	3.1
320.108	3.34
320.482	3.74
320.855	3.82
321.229	3.61
321.602	3.48
321.976	3.82
322.349	3.78
322.723	4.25
323.096	4.01
323.469	3.68
323.843	4.18
324.216	4.07
324.589	4.29
324.962	3.93
325.335	4.25
325.708	4.12
326.081	4.24
326.454	4.06
326.827	4.23
327.2	4.58
327.573	3.82
327.945	4.1
328.318	3.82
328.691	4.44
329.063	4.19
329.436	4.5
329.809	4.23
330.181	4.08
330.553	4.08
330.926	3.96
331.298	4.15
331.671	4.64
332.043	4.28
332.415	4.33
332.787	4.85
333.159	4.48
333.532	4.62
333.904	4.38
334.276	4.5
334.648	4.41
335.02	5.04
335.391	4.49
335.763	4.7
336.135	4.76
336.507	4.25
336.879	4.64
337.25	4.46
337.622	4.7
337.993	4.69
338.365	5.05
338.736	4.83
339.108	4.82
339.479	4.64
339.851	4.65
340.222	4.45
340.593	4.91
340.964	4.93
341.336	4.41
341.707	4.32
342.078	4.98
342.449	4.37
342.82	4.95
343.191	4.84
343.562	5.09
343.933	5.08
344.303	4.91
344.674	4.75
345.045	4.86
345.416	5.03
345.786	5.01
346.157	4.96
346.527	4.85
346.898	4.79
347.268	4.9
347.639	4.93
348.009	5.16
348.38	5.3
348.75	4.68
349.12	5.43
349.49	5.31
349.861	5.19
350.231	4.95
350.601	5.59
350.971	5.53
351.341	5.29
351.711	5.38
352.081	5.04
352.45	5.19
352.82	5.24
353.19	5.48
353.56	5.3
353.929	4.99
354.299	5.75
354.669	5.35
355.038	5.35
355.408	5.21
355.777	5.34
356.147	5.58
356.516	5.37
356.885	5.17
357.254	5.69
357.624	5.5
357.993	5.31
358.362	5.83
358.731	5.73
359.1	5.21
359.469	5.5
359.838	5.33
360.207	6.11
360.576	5.36
360.945	5.73
361.314	5.81
361.682	5.71
362.051	5.52
362.42	5.51
362.788	5.53
363.157	5.3
363.525	5.53
363.894	5.73
364.262	6
364.631	5.65
364.999	5.67
365.367	5.7
365.735	5.82
366.104	5.52
366.472	5.79
366.84	6.24
367.208	5.66
367.576	5.79
367.944	6.21
368.312	6.01
368.68	5.98
369.048	5.84
369.416	5.64
369.783	5.99
370.151	6.07
370.519	5.86
370.886	6.08
371.254	6.15
371.621	6.09
371.989	6.31
372.356	5.85
372.724	6.14
373.091	6.08
373.458	5.72
373.826	5.98
374.193	6.21
374.56	6.19
374.927	6.12
375.294	6.3
375.661	6.57
376.028	6.06
376.395	6.49
376.762	6.26
377.129	6.45
377.496	6.29
377.863	6.26
378.229	6.22
378.596	6.4
378.963	6.42
379.329	6.92
379.696	6.23
380.062	6.58
380.429	7.1
380.795	6.65
381.161	6.78
381.528	6.72
381.894	6.75
382.26	6.3
382.626	6.69
382.993	6.49
383.359	6.67
383.725	6.68
384.091	6.7
384.457	6.32
384.823	6.79
385.188	6.44
385.554	6.41
385.92	6.52
386.286	6.65
386.651	6.49
387.017	6.63
387.383	6.68
387.748	7.07
388.114	6.69
388.479	6.85
388.845	6.9
389.21	6.81
389.575	6.69
389.94	7.11
390.306	6.99
390.671	6.6
391.036	6.97
391.401	6.78
391.766	7.09
392.131	6.88
392.496	7
392.861	6.69
393.226	6.73
393.591	7.34
393.956	7.27
394.32	7.09
394.685	7.39
395.05	6.93
395.414	6.99
395.779	6.76
396.143	7.19
396.508	7.21
396.872	7.52
397.236	7.01
397.601	7.52
397.965	7.3
398.329	7.18
398.694	7.38
399.058	7.42
399.422	7.49
399.786	7.12
400.15	7.28
400.514	7.6
400.878	7.34
401.242	7.34
401.605	7.51
401.969	7.36
402.333	7.55
402.697	7.56
403.06	7.43
403.424	7.39
403.787	7.58
404.151	7.42
404.514	7.42
404.878	7.55
405.241	7.42
405.604	7.76
405.968	7.48
406.331	7.53
406.694	7.61
407.057	7.71
407.42	7.74
407.783	7.5
408.146	7.77
408.509	7.72
408.872	7.87
409.235	7.51
409.598	7.65
409.961	7.72
410.323	8.02
410.686	7.93
411.049	7.91
411.411	7.7
411.774	7.73
412.136	7.84
412.499	8.03
412.861	8.13
413.223	7.89
413.586	7.92
413.948	8.01
414.31	7.86
414.672	7.98
415.035	7.81
415.397	7.87
415.759	7.96
416.121	7.8
416.483	7.93
416.845	8.22
417.206	8.02
417.568	8.04
417.93	8.08
418.292	8.23
418.653	8.26
419.015	8.1
419.377	8.08
419.738	8.03
420.1	8.05
420.461	8.14
420.822	8.07
421.184	8.1
421.545	8.06
421.906	8
422.267	7.96
422.629	7.93
422.99	8.12
423.351	8.08
423.712	8.13
424.073	8.27
424.434	8.2
424.795	8.34
425.155	8.23
425.516	8.11
425.877	8.18
426.238	8.35
426.598	8.37
426.959	8.36
427.32	8.48
427.68	8.47
428.041	8.4
428.401	8.54
428.761	8.69
429.122	8.63
429.482	8.57
429.842	8.62
430.202	8.89
430.563	8.66
430.923	8.84
431.283	8.69
431.643	8.62
432.003	8.87
432.363	8.99
432.722	8.87
433.082	8.75
433.442	8.8
433.802	8.76
434.161	8.85
434.521	8.74
434.881	8.73
435.24	8.9
435.6	8.91
435.959	8.94
436.319	8.93
436.678	9.01
437.037	9
437.396	9.05
437.756	9.08
438.115	8.98
438.474	8.94
438.833	9.12
439.192	9.1
439.551	9.03
439.91	8.89
440.269	9.13
440.628	9.12
440.987	8.93
441.345	9.12
441.704	9.03
442.063	9.17
442.421	8.96
442.78	9.11
443.138	9.18
443.497	9.31
443.855	9.3
444.214	9.26
444.572	9.44
444.93	9.34
445.288	9.17
445.647	9.41
446.005	9.22
446.363	9.27
446.721	9.22
447.079	9.18
447.437	9.17
447.795	9.12
448.153	9.29
448.51	9.34
448.868	9.45
449.226	9.4
449.584	9.37
449.941	9.63
450.299	9.65
450.656	9.7
451.014	9.57
451.371	9.67
451.729	9.69
452.086	9.97
452.443	9.66
452.801	9.79
453.158	9.72
453.515	9.71
453.872	9.68
454.229	9.8
454.586	9.84
454.943	9.74
455.3	9.85
455.657	9.99
456.014	9.96
456.371	10.12
456.727	10.02
457.084	9.83
457.441	10.09
457.797	9.95
458.154	10.24
458.51	9.93
458.867	10.2
459.223	10.27
459.58	10.17
459.936	10.06
460.292	9.91
460.648	9.88
461.005	9.75
461.361	9.81
461.717	10.02
462.073	10.27
462.429	10.42
462.785	10.44
463.141	10.52
463.496	10.64
463.852	10.47
464.208	10.6
464.564	10.54
464.919	10.35
465.275	10.51
465.631	10.48
465.986	10.49
466.342	10.43
466.697	10.57
467.052	10.55
467.408	10.6
467.763	10.79
468.118	10.74
468.473	10.84
468.829	10.9
469.184	10.81
469.539	10.73
469.894	10.63
470.249	10.87
470.603	10.8
470.958	10.91
471.313	10.82
471.668	10.88
472.023	10.83
472.377	10.92
472.732	10.96
473.086	11.06
473.441	10.96
473.795	10.97
474.15	11.11
474.504	10.87
474.859	11.18
475.213	11.11
475.567	11.35
475.921	11.05
476.275	11.35
476.63	11.35
476.984	11.19
477.338	11.12
477.692	11.09
478.045	11.1
478.399	11.24
478.753	11.27
479.107	11.26
479.461	11.4
479.814	11.14
480.168	11.35
480.521	11.45
480.875	11.43
481.228	11.38
481.582	11.32
481.935	11.4
482.289	11.21
482.642	11.1
482.995	11.34
483.348	11.3
483.701	11.21
484.055	11.18
484.408	10.95
484.761	10.8
485.114	10.55
485.466	10.61
485.819	10.85
486.172	11.13
486.525	11.4
486.878	11.52
487.23	11.58
487.583	11.46
487.936	11.33
488.288	11.27
488.641	11.06
488.993	11.05
489.345	11.22
489.698	11.31
490.05	11.42
490.402	11.67
490.754	11.84
491.107	11.92
491.459	11.98
491.811	11.9
492.163	11.74
492.515	11.54
492.866	11.37
493.218	11.27
493.57	11.56
493.922	11.83
494.274	12.07
494.625	12.29
494.977	12.36
495.328	12.28
495.68	12.33
496.031	12.33
496.383	12.32
496.734	12.3
497.086	12.33
497.437	12.41
497.788	12.36
498.139	12.14
498.49	12.23
498.842	12.26
499.193	12.4
499.544	12.55
499.894	12.53
500.245	12.6
500.596	12.57
500.947	12.63
501.298	12.77
501.648	12.67
501.999	12.8
502.35	12.91
502.7	12.95
503.051	12.97
503.401	12.9
503.752	12.91
504.102	12.92
504.452	12.92
504.803	12.95
505.153	13.06
505.503	13.17
505.853	12.97
506.203	12.95
506.553	13.14
506.903	12.97
507.253	13.17
507.603	13.23
507.953	13.16
508.303	13.36
508.652	13.31
509.002	13.24
509.352	13.17
509.701	13.22
510.051	13.05
510.4	13.05
510.75	13.2
511.099	13.29
511.449	13.32
511.798	13.45
512.147	13.4
512.496	13.53
512.846	13.56
513.195	13.5
513.544	13.49
513.893	13.54
514.242	13.47
514.591	13.69
514.939	13.73
515.288	13.84
515.637	13.82
515.986	13.81
516.334	13.88
516.683	13.75
517.032	13.85
517.38	13.92
517.729	14.01
518.077	13.8
518.426	14
518.774	13.96
519.122	13.76
519.47	13.7
519.819	13.68
520.167	13.67
520.515	13.79
520.863	13.86
521.211	13.92
521.559	14.07
521.907	14.16
522.255	14.2
522.602	14.21
522.95	14.55
523.298	14.31
523.645	14.36
523.993	14.45
524.341	14.42
524.688	14.44
525.036	14.47
525.383	14.48
525.73	14.33
526.078	14.43
526.425	14.39
526.772	14.2
527.119	14.03
527.466	14.24
527.814	14.3
528.161	14.36
528.508	14.35
528.854	14.38
529.201	14.13
529.548	13.91
529.895	13.67
530.242	13.83
530.588	14.08
530.935	14.34
531.282	14.52
531.628	14.76
531.975	14.82
532.321	14.84
532.667	14.82
533.014	15.04
533.36	14.88
533.706	14.8
534.052	14.75
534.399	14.62
534.745	14.4
535.091	14.51
535.437	14.78
535.783	14.95
536.129	15.11
536.474	15.31
536.82	15.34
537.166	15.38
537.512	15.15
537.857	14.93
538.203	14.96
538.549	15.11
538.894	15.3
539.239	15.51
539.585	15.7
539.93	15.66
540.276	15.88
540.621	15.69
540.966	15.76
541.311	15.65
541.656	15.43
542.001	15.31
542.346	15.11
542.691	15.01
543.036	14.95
543.381	15.28
543.726	15.44
544.071	15.66
544.415	15.76
544.76	15.7
545.105	15.91
545.449	15.92
545.794	16.07
546.138	16.08
546.483	16.23
546.827	15.99
547.171	15.99
547.516	16.04
547.86	16.11
548.204	16.1
548.548	16.09
548.892	16.24
549.236	16.33
549.58	16.65
549.924	16.63
550.268	16.83
550.612	16.74
550.956	16.73
551.3	16.86
551.643	16.92
551.987	16.96
552.33	17.01
552.674	16.8
553.017	16.86
553.361	16.88
553.704	16.86
554.048	16.97
554.391	16.94
554.734	16.84
555.077	16.96
555.42	17.07
555.764	17.36
556.107	17.24
556.45	17.3
556.793	17.22
557.135	17.37
557.478	17.44
557.821	17.29
558.164	17.39
558.507	17.52
558.849	17.68
559.192	17.64
559.534	17.71
559.877	17.66
560.219	17.79
560.562	17.69
560.904	17.67
561.246	17.79
561.589	17.84
561.931	17.79
562.273	17.89
562.615	17.71
562.957	17.76
563.299	17.86
563.641	17.95
563.983	18.24
564.325	17.96
564.667	18.23
565.008	18.13
565.35	18.21
565.692	18.13
566.033	18.02
566.375	17.98
566.716	18.17
567.058	18.09
567.399	18.1
567.741	18.11
568.082	18.09
568.423	18.18
568.764	18.12
569.105	18.26
569.447	18.55
569.788	18.77
570.129	18.5
570.47	18.75
570.811	18.44
571.151	18.64
571.492	18.7
571.833	18.5
572.174	18.69
572.514	18.54
572.855	18.98
573.195	18.59
573.536	18.61
573.876	18.56
574.217	18.83
574.557	18.82
574.898	18.82
575.238	19.11
575.578	18.96
575.918	18.96
576.258	18.96
576.598	18.96
576.938	19.04
577.278	18.97
577.618	19.14
577.958	19.16
578.298	19.2
578.638	19.28
578.977	19.35
579.317	19.55
579.657	19.28
579.996	19.65
580.336	19.52
580.675	19.73
581.014	19.53
581.354	19.59
581.693	19.77
582.032	19.83
582.372	19.87
582.711	19.63
583.05	19.84
583.389	19.97
583.728	20.02
584.067	19.82
584.406	19.79
584.745	19.85
585.083	19.79
585.422	20
585.761	20.03
586.1	20.16
586.438	20.42
586.777	20.35
587.115	20.25
587.454	20.6
587.792	20.35
588.13	20.2
588.469	20.44
588.807	20.28
589.145	20.51
589.483	20.45
589.821	20.1
590.159	20.55
590.497	20.38
590.835	20.3
591.173	20.41
591.511	20.59
591.849	20.73
592.187	20.36
592.524	20.6
592.862	20.83
593.2	20.77
593.537	20.9
593.875	20.72
594.212	20.81
594.55	20.45
594.887	20.65
595.224	20.92
595.561	20.74
595.899	21.06
596.236	20.98
596.573	21.14
596.91	20.93
597.247	21.03
597.584	20.83
597.921	20.81
598.258	21.05
598.594	20.9
598.931	20.92
599.268	20.91
599.604	21.17
599.941	21.52
600.277	21.52
600.614	21.65
600.95	21.58
601.287	21.58
601.623	21.37
601.959	21.4
602.296	21.45
602.632	21.52
602.968	21.62
603.304	21.56
603.64	21.76
603.976	21.62
604.312	21.75
604.648	21.33
604.984	21.43
605.319	21.62
605.655	21.65
605.991	21.42
606.326	21.51
606.662	21.67
606.998	21.93
607.333	21.9
607.668	22
608.004	22.11
608.339	22.38
608.674	22.39
609.01	22.09
609.345	22.08
609.68	21.84
610.015	21.93
610.35	22.06
610.685	22.01
611.02	21.89
611.355	21.92
611.689	22.19
612.024	22.15
612.359	22.44
612.694	22.49
613.028	22.5
613.363	22.4
613.697	22.72
614.032	22.74
614.366	22.65
614.7	22.43
615.035	22.85
615.369	22.81
615.703	22.63
616.037	23.03
616.371	22.47
616.705	22.83
617.039	23.03
617.373	22.7
617.707	23.36
618.041	22.98
618.375	22.71
618.709	23.06
619.042	22.89
619.376	23.35
619.71	23.15
620.043	22.97
620.377	23.29
620.71	23.3
621.043	23.22
621.377	23.23
621.71	23.1
622.043	23.21
622.376	23.5
622.709	23.41
623.043	23.61
623.376	23.76
623.709	23.85
624.041	23.64
624.374	23.6
624.707	23.79
625.04	23.76
625.373	23.57
625.705	23.76
626.038	23.7
626.37	23.81
626.703	23.84
627.035	23.9
627.368	23.64
627.7	23.53
628.032	23.83
628.365	23.6
628.697	23.91
629.029	23.96
629.361	24.19
629.693	24.28
630.025	24.1
630.357	24.3
630.689	24.28
631.021	24.3
631.353	24.38
631.684	24.24
632.016	24.37
632.348	24.26
632.679	24.21
633.011	24.68
633.342	24.54
633.674	23.94
634.005	24.72
634.336	24.49
634.668	24.79
634.999	24.55
635.33	24.73
635.661	24.23
635.992	24.67
636.323	24.69
636.654	24.4
636.985	24.74
637.316	24.76
637.647	24.76
637.977	24.98
638.308	24.71
638.639	24.78
638.969	24.94
639.3	25.18
639.63	25.03
639.961	24.7
640.291	24.65
640.622	25.06
640.952	25.04
641.282	25.14
641.612	25.24
641.943	25.14
642.273	25.31
642.603	25.29
642.933	25.45
643.263	25.07
643.592	25.33
643.922	25.29
644.252	25.6
644.582	25.22
644.911	25.59
645.241	25.73
645.571	25.38
645.9	25.72
646.23	25.62
646.559	25.31
646.888	25.69
647.218	25.42
647.547	25.37
647.876	25.64
648.205	25.83
648.534	25.97
648.863	25.62
649.192	25.51
649.521	25.89
649.85	26.01
650.179	26.1
650.508	26.25
650.837	26.2
651.165	26.06
651.494	25.93
651.822	26.37
652.151	26.35
652.479	25.82
652.808	25.88
653.136	25.76
653.465	25.95
653.793	26.27
654.121	26.47
654.449	26.06
654.777	26.63
655.105	27.01
655.433	26.08
655.761	26.47
656.089	26.33
656.417	26.33
656.745	26.95
657.073	26.11
657.4	26.33
657.728	26.72
658.056	26.63
658.383	26.7
658.711	26.9
659.038	26.6
659.365	26.33
659.693	26.65
660.02	26.95
660.347	26.64
660.674	26.24
661.001	26.18
661.329	26.49
661.656	26.49
661.982	26.95
662.309	26.8
662.636	26.88
662.963	26.92
663.29	26.49
663.616	27.15
663.943	27.49
664.27	26.82
664.596	26.98
664.923	26.69
665.249	27.42
665.576	27.71
665.902	27.19
666.228	27.64
666.554	26.86
666.881	27.02
667.207	27.4
667.533	26.89
667.859	26.59
668.185	27.85
668.511	27.28
668.837	27.4
669.162	27.54
669.488	28
669.814	27.61
670.139	27.44
670.465	27.26
670.791	27.82
671.116	27.88
671.442	27.19
671.767	28.02
672.092	27.61
672.418	27.64
672.743	27.52
673.068	27.2
673.393	27.25
673.718	27.82
674.043	27.83
674.368	27.58
674.693	28.23
675.018	28.16
675.343	28.21
675.667	28.08
675.992	27.98
676.317	27.78
676.641	28.07
676.966	27.31
677.29	27.18
677.615	28.07
