Data from 0032_crown_Reflection__1__153.txt Node

Date: Thu Oct 20 22:07:39 CDT 2022
User: ToomeyLab
Spectrometer: FLMS14357
Trigger mode: 0
Integration Time (sec): 1.000000E-2
Scans to average: 100
Electric dark correction enabled: true
Nonlinearity correction enabled: false
Boxcar width: 0
XAxis mode: Wavelengths
Number of Pixels in Spectrum: 2048
>>>>>Begin Spectral Data<<<<<
189.047	26.58
189.435	26.58
189.823	26.58
190.211	77.07
190.599	20.46
190.987	36.8
191.375	101.12
191.763	-298.48
192.151	25.59
192.538	311.36
192.926	64.54
193.314	664.94
193.702	-252.38
194.089	128.02
194.477	30.53
194.864	538.87
195.252	115.88
195.639	-527.72
196.027	45.33
196.414	130.79
196.801	-147.11
197.189	-59.35
197.576	244.11
197.963	484.65
198.351	0.25
198.738	-34.18
199.125	3.31
199.512	13.18
199.899	-56.67
200.286	-13.63
200.673	19.09
201.06	28.86
201.447	45.58
201.833	-19.74
202.22	-9.77
202.607	19.38
202.994	-81.33
203.38	-100
203.767	-6.43
204.154	-38.51
204.54	22.75
204.927	-18.11
205.313	13.5
205.699	-31.94
206.086	10.53
206.472	7.6
206.858	-17.99
207.245	-9.18
207.631	10.1
208.017	-20.35
208.403	-72.79
208.789	-2.52
209.175	5.36
209.561	-2.53
209.947	-4.36
210.333	19
210.719	-0.15
211.105	2.7
211.491	-74.56
211.876	-30.1
212.262	6.25
212.648	-10.55
213.034	18.88
213.419	18.34
213.805	-8.33
214.19	-39.55
214.576	-26.66
214.961	-21.16
215.346	20
215.732	10.82
216.117	-23.92
216.502	4.12
216.888	-3.69
217.273	-31.99
217.658	16.51
218.043	15.73
218.428	-11.64
218.813	8.95
219.198	-8.31
219.583	-4.11
219.968	8.58
220.353	-22.59
220.738	-4.77
221.122	-6.08
221.507	-13.59
221.892	-6.97
222.276	-9.35
222.661	6.86
223.046	-2.62
223.43	-6.11
223.815	-5.8
224.199	-13.88
224.583	-7.97
224.968	-3.97
225.352	2.45
225.736	6.18
226.121	-9.74
226.505	2.49
226.889	-0.16
227.273	-1.8
227.657	0.47
228.041	-1.85
228.425	0.13
228.809	-1.26
229.193	1.87
229.577	0.9
229.961	2.76
230.344	1.05
230.728	2.01
231.112	2.39
231.495	2.77
231.879	2.3
232.263	2.12
232.646	0.55
233.03	0.94
233.413	0.55
233.797	1.12
234.18	1.02
234.563	1.28
234.946	2.74
235.33	2.7
235.713	1.4
236.096	0.83
236.479	1.18
236.862	2.44
237.245	0.79
237.628	0.61
238.011	2.86
238.394	2.63
238.777	1.57
239.16	0.75
239.543	0.08
239.925	2.25
240.308	1.45
240.691	3.06
241.073	2.1
241.456	2.47
241.838	1.83
242.221	1.98
242.603	2.49
242.986	1.81
243.368	1.76
243.75	2.36
244.133	2.54
244.515	2.31
244.897	2.26
245.279	1.27
245.661	3.27
246.043	3.22
246.425	1.84
246.807	3.36
247.189	2.13
247.571	2.43
247.953	2.09
248.335	2.34
248.717	2.36
249.098	2.3
249.48	2.49
249.862	2.52
250.243	2.27
250.625	2.81
251.006	2.33
251.388	1.71
251.769	2.07
252.151	2.76
252.532	1.7
252.913	1.99
253.295	2.49
253.676	2.4
254.057	1.53
254.438	2
254.819	2.39
255.2	2.73
255.581	1.44
255.962	2.83
256.343	1.8
256.724	1.9
257.105	1.61
257.486	2.06
257.867	2.85
258.247	2.55
258.628	2.38
259.009	2.09
259.389	1.52
259.77	2.38
260.15	2.07
260.531	2.43
260.911	2.12
261.292	2.4
261.672	2.49
262.052	2.52
262.432	2.57
262.813	1.98
263.193	2.66
263.573	2.44
263.953	1.42
264.333	2.18
264.713	1.87
265.093	2.03
265.473	2.11
265.853	2.15
266.233	2.33
266.612	2.33
266.992	1.87
267.372	2.95
267.752	2.43
268.131	2.34
268.511	2.29
268.89	2.08
269.27	1.86
269.649	2
270.029	1.55
270.408	1.72
270.787	1.96
271.167	2.12
271.546	2.04
271.925	2.37
272.304	1.92
272.683	1.97
273.062	1.81
273.441	2.06
273.82	2.6
274.199	2.18
274.578	1.81
274.957	2.15
275.336	2.03
275.715	2.27
276.093	2.49
276.472	2.33
276.851	2.57
277.229	1.48
277.608	1.91
277.986	2.09
278.365	2.19
278.743	1.99
279.122	1.79
279.5	1.81
279.878	2.65
280.257	1.86
280.635	1.74
281.013	1.93
281.391	2.64
281.769	2.43
282.147	1.75
282.525	2.28
282.903	2
283.281	1.64
283.659	1.77
284.037	1.59
284.415	2.31
284.792	1.57
285.17	2.33
285.548	2.03
285.925	1.97
286.303	1.91
286.68	2.3
287.058	2.24
287.435	2.15
287.813	2.22
288.19	2.13
288.567	1.91
288.945	1.95
289.322	1.73
289.699	1.6
290.076	2.08
290.453	1.89
290.83	2.16
291.207	2.43
291.584	2.02
291.961	2.08
292.338	1.77
292.715	1.76
293.092	2.46
293.469	2.15
293.845	2.27
294.222	2.54
294.599	2.74
294.975	2.3
295.352	2.7
295.728	2.12
296.105	2.16
296.481	1.85
296.858	1.93
297.234	2.48
297.61	2.43
297.986	2.02
298.363	2.13
298.739	1.95
299.115	2.24
299.491	2.15
299.867	2.08
300.243	1.84
300.619	2.2
300.995	1.95
301.371	1.99
301.746	1.89
302.122	1.97
302.498	2.46
302.874	2.3
303.249	2.9
303.625	2.3
304	2.57
304.376	2.36
304.751	2.29
305.127	1.51
305.502	2.24
305.878	2.69
306.253	1.79
306.628	2.17
307.003	2.13
307.378	1.33
307.754	2.57
308.129	2.21
308.504	2.45
308.879	2.29
309.254	2.49
309.629	1.86
310.003	2.17
310.378	2.64
310.753	2.55
311.128	2.06
311.502	2.12
311.877	2.64
312.252	2.49
312.626	2.49
313.001	2.54
313.375	2.55
313.75	2.3
314.124	2.2
314.498	2.48
314.873	2.57
315.247	2.25
315.621	2.34
315.995	2.24
316.369	2.44
316.743	1.89
317.117	2.4
317.491	2.33
317.865	1.96
318.239	2
318.613	2.64
318.987	2.26
319.361	2.72
319.734	1.74
320.108	2.3
320.482	2.28
320.855	2.35
321.229	2.66
321.602	1.34
321.976	2.5
322.349	2.61
322.723	2.58
323.096	2.49
323.469	2.37
323.843	2.88
324.216	2.26
324.589	2.24
324.962	2.37
325.335	2.54
325.708	2.88
326.081	2.76
326.454	2.29
326.827	2.69
327.2	3.24
327.573	2.21
327.945	2.68
328.318	2.22
328.691	2.44
329.063	2.7
329.436	2.44
329.809	2.81
330.181	2.14
330.553	2.57
330.926	2.24
331.298	1.89
331.671	2.35
332.043	2.73
332.415	2.55
332.787	2.73
333.159	2.63
333.532	3.19
333.904	2.51
334.276	2.64
334.648	2.5
335.02	2.67
335.391	2.44
335.763	2.62
336.135	2.77
336.507	1.95
336.879	2.7
337.25	2.29
337.622	2.76
337.993	2.43
338.365	3.03
338.736	2.62
339.108	2.16
339.479	2.07
339.851	2.58
340.222	2.24
340.593	2.6
340.964	2.53
341.336	2.47
341.707	2.28
342.078	2.49
342.449	2.25
342.82	2.55
343.191	2.8
343.562	2.74
343.933	2.57
344.303	2.17
344.674	2.83
345.045	2.6
345.416	2.79
345.786	2.64
346.157	2.53
346.527	2.44
346.898	2.72
347.268	2.45
347.639	2.9
348.009	2.77
348.38	2.9
348.75	2.24
349.12	2.97
349.49	2.77
349.861	2.87
350.231	2.63
350.601	2.47
350.971	2.35
351.341	2.88
351.711	2.82
352.081	2.54
352.45	2.58
352.82	2.49
353.19	2.71
353.56	2.62
353.929	2.4
354.299	2.87
354.669	2.59
355.038	2.64
355.408	2.2
355.777	2.6
356.147	2.82
356.516	2.52
356.885	2.73
357.254	2.63
357.624	2.69
357.993	2.61
358.362	2.94
358.731	2.69
359.1	2.46
359.469	3
359.838	2.55
360.207	3.42
360.576	2.55
360.945	2.98
361.314	2.57
361.682	2.54
362.051	2.57
362.42	2.65
362.788	2.65
363.157	2.67
363.525	2.78
363.894	2.82
364.262	2.83
364.631	2.6
364.999	2.75
365.367	2.94
365.735	2.6
366.104	2.6
366.472	2.51
366.84	2.86
367.208	2.68
367.576	2.75
367.944	2.92
368.312	2.67
368.68	2.87
369.048	2.83
369.416	2.79
369.783	2.88
370.151	2.86
370.519	2.87
370.886	2.83
371.254	3.02
371.621	2.4
371.989	2.82
372.356	2.56
372.724	2.84
373.091	2.64
373.458	2.45
373.826	2.68
374.193	2.82
374.56	2.45
374.927	2.48
375.294	2.67
375.661	2.99
376.028	2.49
376.395	2.9
376.762	2.7
377.129	2.72
377.496	2.76
377.863	2.81
378.229	2.76
378.596	2.63
378.963	2.72
379.329	3.05
379.696	2.75
380.062	2.67
380.429	3.23
380.795	3
381.161	3.17
381.528	2.93
381.894	2.73
382.26	2.64
382.626	2.79
382.993	2.48
383.359	2.95
383.725	3.08
384.091	3.01
384.457	2.79
384.823	2.69
385.188	3.02
385.554	2.58
385.92	2.89
386.286	2.85
386.651	2.61
387.017	2.68
387.383	2.81
387.748	3.26
388.114	2.99
388.479	3.1
388.845	2.79
389.21	2.91
389.575	2.87
389.94	3.03
390.306	3.03
390.671	2.89
391.036	2.98
391.401	2.72
391.766	2.89
392.131	2.77
392.496	2.67
392.861	2.92
393.226	2.94
393.591	3.06
393.956	2.97
394.32	2.98
394.685	3.09
395.05	2.71
395.414	2.78
395.779	2.85
396.143	3.17
396.508	2.89
396.872	2.92
397.236	3.09
397.601	3.16
397.965	3.06
398.329	2.98
398.694	3.07
399.058	2.89
399.422	3.13
399.786	2.92
400.15	2.82
400.514	3.1
400.878	2.98
401.242	2.94
401.605	3.14
401.969	3.17
402.333	2.87
402.697	3.26
403.06	2.84
403.424	2.96
403.787	3.02
404.151	2.73
404.514	3.05
404.878	2.96
405.241	2.99
405.604	3.15
405.968	2.91
406.331	2.96
406.694	2.88
407.057	3.16
407.42	2.96
407.783	2.98
408.146	2.95
408.509	3.13
408.872	2.96
409.235	2.94
409.598	3.14
409.961	3.16
410.323	3.37
410.686	3.32
411.049	3.04
411.411	3.05
411.774	3
412.136	3.13
412.499	3.13
412.861	3.01
413.223	2.99
413.586	2.95
413.948	3.18
414.31	3.02
414.672	3.14
415.035	3.04
415.397	3.09
415.759	3.25
416.121	2.94
416.483	2.93
416.845	3.11
417.206	2.84
417.568	3.02
417.93	3.01
418.292	3.09
418.653	3.03
419.015	3.05
419.377	3
419.738	3.03
420.1	3.1
420.461	3.2
420.822	2.99
421.184	2.92
421.545	3.13
421.906	2.96
422.267	2.99
422.629	2.94
422.99	2.97
423.351	2.94
423.712	3.04
424.073	3.06
424.434	3.04
424.795	3.05
425.155	3.04
425.516	2.95
425.877	2.93
426.238	3.12
426.598	3.1
426.959	3.12
427.32	3.14
427.68	3.03
428.041	3.12
428.401	3.26
428.761	3.15
429.122	3.17
429.482	3.22
429.842	3.08
430.202	3.14
430.563	3.12
430.923	3.13
431.283	3.15
431.643	3.26
432.003	3.23
432.363	3.21
432.722	3.47
433.082	3.21
433.442	3.06
433.802	3.26
434.161	3.31
434.521	3.11
434.881	3.13
435.24	3.07
435.6	3.08
435.959	3.21
436.319	3.28
436.678	3.21
437.037	3.32
437.396	3.23
437.756	3.05
438.115	3.24
438.474	3.19
438.833	3.15
439.192	3.14
439.551	3.2
439.91	3.18
440.269	3.23
440.628	3.13
440.987	3.09
441.345	3.27
441.704	3.14
442.063	3.32
442.421	3.05
442.78	3.25
443.138	3.17
443.497	3.26
443.855	3.16
444.214	3.18
444.572	3.3
444.93	3.2
445.288	3.21
445.647	3.32
446.005	3.11
446.363	3.25
446.721	3.13
447.079	3.2
447.437	3.25
447.795	3.11
448.153	3.11
448.51	3.18
448.868	3.21
449.226	3.16
449.584	3.17
449.941	3.26
450.299	3.25
450.656	3.25
451.014	3.36
451.371	3.41
451.729	3.22
452.086	3.35
452.443	3.15
452.801	3.22
453.158	3.35
453.515	3.39
453.872	3.21
454.229	3.3
454.586	3.18
454.943	3.27
455.3	3.39
455.657	3.38
456.014	3.42
456.371	3.32
456.727	3.22
457.084	3.2
457.441	3.61
457.797	3.31
458.154	3.41
458.51	3.32
458.867	3.35
459.223	3.6
459.58	3.43
459.936	3.36
460.292	3.16
460.648	3.19
461.005	3.19
461.361	3.23
461.717	3.33
462.073	3.43
462.429	3.46
462.785	3.35
463.141	3.5
463.496	3.56
463.852	3.43
464.208	3.51
464.564	3.41
464.919	3.45
465.275	3.36
465.631	3.41
465.986	3.3
466.342	3.25
466.697	3.51
467.052	3.51
467.408	3.44
467.763	3.55
468.118	3.68
468.473	3.77
468.829	3.47
469.184	3.43
469.539	3.42
469.894	3.57
470.249	3.57
470.603	3.37
470.958	3.41
471.313	3.4
471.668	3.42
472.023	3.54
472.377	3.44
472.732	3.61
473.086	3.48
473.441	3.48
473.795	3.58
474.15	3.53
474.504	3.51
474.859	3.59
475.213	3.58
475.567	3.54
475.921	3.39
476.275	3.73
476.63	3.62
476.984	3.57
477.338	3.39
477.692	3.45
478.045	3.55
478.399	3.55
478.753	3.53
479.107	3.51
479.461	3.59
479.814	3.54
480.168	3.63
480.521	3.65
480.875	3.67
481.228	3.59
481.582	3.49
481.935	3.59
482.289	3.39
482.642	3.39
482.995	3.49
483.348	3.58
483.701	3.45
484.055	3.43
484.408	3.42
484.761	3.3
485.114	3.19
485.466	3.17
485.819	3.28
486.172	3.42
486.525	3.48
486.878	3.57
487.23	3.58
487.583	3.49
487.936	3.47
488.288	3.44
488.641	3.36
488.993	3.37
489.345	3.37
489.698	3.39
490.05	3.46
490.402	3.61
490.754	3.61
491.107	3.53
491.459	3.67
491.811	3.53
492.163	3.51
492.515	3.44
492.866	3.4
493.218	3.43
493.57	3.46
493.922	3.58
494.274	3.67
494.625	3.71
494.977	3.75
495.328	3.68
495.68	3.7
496.031	3.85
496.383	3.76
496.734	3.74
497.086	3.63
497.437	3.79
497.788	3.72
498.139	3.63
498.49	3.6
498.842	3.57
499.193	3.68
499.544	3.87
499.894	3.84
500.245	3.74
500.596	3.69
500.947	3.71
501.298	3.78
501.648	3.78
501.999	3.91
502.35	3.85
502.7	3.88
503.051	3.77
503.401	3.8
503.752	3.84
504.102	3.77
504.452	3.83
504.803	3.7
505.153	3.81
505.503	3.89
505.853	3.71
506.203	3.8
506.553	3.87
506.903	3.77
507.253	3.88
507.603	4
507.953	3.94
508.303	3.88
508.652	3.84
509.002	3.84
509.352	3.84
509.701	3.84
510.051	3.8
510.4	3.85
510.75	3.81
511.099	3.85
511.449	3.91
511.798	3.8
512.147	3.88
512.496	3.94
512.846	3.91
513.195	3.94
513.544	3.98
513.893	3.93
514.242	3.91
514.591	4.03
514.939	3.94
515.288	4.03
515.637	3.92
515.986	3.91
516.334	4.06
516.683	3.95
517.032	4
517.38	4.02
517.729	4.06
518.077	4.05
518.426	3.97
518.774	3.91
519.122	3.93
519.47	3.93
519.819	3.92
520.167	3.9
520.515	3.93
520.863	3.95
521.211	4.01
521.559	4.05
521.907	4
522.255	4.04
522.602	4.14
522.95	4.13
523.298	4.06
523.645	4.09
523.993	4.07
524.341	4.26
524.688	4.14
525.036	4.12
525.383	4.24
525.73	4.08
526.078	4.05
526.425	4.18
526.772	4.08
527.119	3.97
527.466	4.18
527.814	4.11
528.161	4.11
528.508	4.16
528.854	4.23
529.201	4.04
529.548	3.98
529.895	3.86
530.242	3.88
530.588	4.01
530.935	4.12
531.282	4.15
531.628	4.21
531.975	4.31
532.321	4.3
532.667	4.27
533.014	4.36
533.36	4.23
533.706	4.13
534.052	4.19
534.399	4.17
534.745	4.14
535.091	4.11
535.437	4.26
535.783	4.29
536.129	4.33
536.474	4.41
536.82	4.45
537.166	4.43
537.512	4.34
537.857	4.35
538.203	4.34
538.549	4.37
538.894	4.42
539.239	4.47
539.585	4.56
539.93	4.58
540.276	4.67
540.621	4.53
540.966	4.45
541.311	4.5
541.656	4.5
542.001	4.39
542.346	4.27
542.691	4.2
543.036	4.27
543.381	4.37
543.726	4.44
544.071	4.61
544.415	4.56
544.76	4.45
545.105	4.58
545.449	4.62
545.794	4.68
546.138	4.75
546.483	4.71
546.827	4.72
547.171	4.64
547.516	4.64
547.86	4.69
548.204	4.68
548.548	4.78
548.892	4.71
549.236	4.83
549.58	4.89
549.924	4.85
550.268	4.91
550.612	5.13
550.956	4.91
551.3	4.97
551.643	5.03
551.987	4.87
552.33	4.97
552.674	4.9
553.017	4.93
553.361	5.13
553.704	5.09
554.048	4.96
554.391	5.02
554.734	4.94
555.077	5.01
555.42	5.12
555.764	5.04
556.107	5.06
556.45	5.08
556.793	5.07
557.135	5.25
557.478	5.12
557.821	5.29
558.164	5.14
558.507	5.18
558.849	5.35
559.192	5.2
559.534	5.41
559.877	5.42
560.219	5.33
560.562	5.43
560.904	5.39
561.246	5.45
561.589	5.45
561.931	5.32
562.273	5.41
562.615	5.36
562.957	5.27
563.299	5.39
563.641	5.41
563.983	5.6
564.325	5.42
564.667	5.59
565.008	5.49
565.35	5.56
565.692	5.53
566.033	5.38
566.375	5.55
566.716	5.72
567.058	5.64
567.399	5.61
567.741	5.46
568.082	5.55
568.423	5.68
568.764	5.61
569.105	5.58
569.447	5.73
569.788	5.8
570.129	5.81
570.47	5.65
570.811	5.61
571.151	5.75
571.492	5.75
571.833	5.72
572.174	5.95
572.514	5.8
572.855	5.85
573.195	5.73
573.536	5.67
573.876	5.67
574.217	5.75
574.557	5.78
574.898	5.88
575.238	6.34
575.578	5.91
575.918	5.86
576.258	5.94
576.598	5.98
576.938	5.96
577.278	6.16
577.618	6.22
577.958	6.09
578.298	6.3
578.638	6.17
578.977	6.31
579.317	6.29
579.657	6.08
579.996	6.49
580.336	6.42
580.675	6.65
581.014	6.26
581.354	6.31
581.693	6.48
582.032	6.58
582.372	6.62
582.711	6.4
583.05	6.57
583.389	6.44
583.728	6.52
584.067	6.69
584.406	6.57
584.745	6.51
585.083	6.56
585.422	6.69
585.761	6.77
586.1	6.61
586.438	6.77
586.777	6.95
587.115	6.72
587.454	6.75
587.792	6.55
588.13	6.72
588.469	7.15
588.807	6.65
589.145	6.95
589.483	6.84
589.821	6.79
590.159	6.89
590.497	7.01
590.835	6.84
591.173	7
591.511	7.02
591.849	7.09
592.187	6.94
592.524	6.95
592.862	6.96
593.2	7.05
593.537	6.91
593.875	7.25
594.212	7.01
594.55	7.04
594.887	7.08
595.224	7.4
595.561	7.3
595.899	7.18
596.236	7.46
596.573	7.47
596.91	7.26
597.247	7.24
597.584	7.26
597.921	7.17
598.258	7.11
598.594	7.06
598.931	7.48
599.268	7.34
599.604	7.41
599.941	7.62
600.277	7.6
600.614	7.5
600.95	7.77
601.287	7.64
601.623	7.46
601.959	7.59
602.296	7.67
602.632	7.61
602.968	7.88
603.304	7.77
603.64	7.87
603.976	7.63
604.312	7.85
604.648	7.83
604.984	7.75
605.319	7.69
605.655	7.91
605.991	7.56
606.326	7.9
606.662	7.93
606.998	8.19
607.333	7.96
607.668	8.11
608.004	8.18
608.339	8.01
608.674	8.17
609.01	8.25
609.345	8.32
609.68	8.19
610.015	8.12
610.35	8.2
610.685	8.27
611.02	8.05
611.355	8.15
611.689	8.27
612.024	8.33
612.359	8.08
612.694	8.25
613.028	8.48
613.363	8.49
613.697	8.51
614.032	8.71
614.366	8.62
614.7	8.48
615.035	8.5
615.369	8.58
615.703	8.72
616.037	8.66
616.371	8.65
616.705	8.28
617.039	8.93
617.373	8.5
617.707	8.84
618.041	8.96
618.375	8.51
618.709	8.71
619.042	8.69
619.376	8.8
619.71	8.89
620.043	8.73
620.377	9.23
620.71	8.88
621.043	8.81
621.377	8.64
621.71	8.67
622.043	8.95
622.376	8.9
622.709	9.03
623.043	9.01
623.376	9.08
623.709	9.33
624.041	9.01
624.374	9.24
624.707	9.01
625.04	9.53
625.373	9.45
625.705	9.12
626.038	9.45
626.37	9.33
626.703	9.27
627.035	9.49
627.368	9.41
627.7	9.22
628.032	9.5
628.365	9.37
628.697	9.65
629.029	9.73
629.361	9.58
629.693	9.57
630.025	9.69
630.357	9.6
630.689	9.93
631.021	9.93
631.353	9.84
631.684	9.88
632.016	9.92
632.348	9.84
632.679	9.71
633.011	9.96
633.342	10.13
633.674	9.94
634.005	9.83
634.336	9.84
634.668	9.94
634.999	9.81
635.33	10.17
635.661	10.02
635.992	10.13
636.323	10.39
636.654	9.99
636.985	10.47
637.316	10.12
637.647	10.32
637.977	10.53
638.308	10.22
638.639	10.39
638.969	10.31
639.3	10.36
639.63	10.47
639.961	10.54
640.291	10.41
640.622	10.73
640.952	10.41
641.282	10.66
641.612	10.81
641.943	10.91
642.273	10.8
642.603	10.34
642.933	10.58
643.263	10.67
643.592	10.88
643.922	10.85
644.252	10.72
644.582	10.73
644.911	11.11
645.241	11.3
645.571	11.18
645.9	11.31
646.23	10.73
646.559	11.04
646.888	10.97
647.218	10.91
647.547	10.83
647.876	10.67
648.205	11.29
648.534	11.04
648.863	11.39
649.192	11.14
649.521	11.06
649.85	11.29
650.179	11.46
650.508	11.92
650.837	11.39
651.165	11.08
651.494	11.22
651.822	11.5
652.151	11.55
652.479	11.43
652.808	11.22
653.136	11.39
653.465	11.7
653.793	11.42
654.121	11.68
654.449	11.68
654.777	11.58
655.105	12.4
655.433	11.62
655.761	11.95
656.089	11.73
656.417	11.52
656.745	11.89
657.073	11.75
657.4	11.71
657.728	11.46
658.056	12.16
658.383	11.89
658.711	12.36
659.038	12.06
659.365	11.94
659.693	12.32
660.02	12.33
660.347	12.3
660.674	12.24
661.001	12.17
661.329	12.05
661.656	11.89
661.982	12.47
662.309	12.21
662.636	12.82
662.963	11.75
663.29	12.07
663.616	12.15
663.943	12.52
664.27	12.75
664.596	12.4
664.923	12.37
665.249	12.78
665.576	13.09
665.902	12.51
666.228	12.34
666.554	12.58
666.881	12.8
667.207	12.59
667.533	12.72
667.859	12.68
668.185	13.09
668.511	12.6
668.837	12.64
669.162	12.69
669.488	12.31
669.814	12.89
670.139	13.44
670.465	13.15
670.791	13.26
671.116	13.11
671.442	13.31
671.767	13.75
672.092	13.36
672.418	13.19
672.743	13.56
673.068	12.81
673.393	12.76
673.718	13.51
674.043	12.99
674.368	12.91
674.693	13.62
675.018	13.82
675.343	13.17
675.667	13.64
675.992	13.4
676.317	13.72
676.641	13.5
676.966	13.18
677.29	13.75
677.615	13.6
677.939	13.94
678.264	13.64
678.588	14.12
678.912	13.67
679.236	14.21
679.56	13.22
679.885	13.7
680.209	13.6
680.532	13.88
680.856	14.12
681.18	14.31
681.504	13.81
681.828	13.94
682.152	14.04
682.475	13.93
682.799	14.33
683.122	14.18
683.446	14.03
683.769	14.19
684.093	14.33
684.416	14.37
684.739	13.97
685.062	14.54
685.386	14.73
685.709	14.24
686.032	14.7
686.355	14.29
686.678	14.87
687.001	14.21
687.324	14.96
687.646	14.76
687.969	14.43
688.292	14.32
