Data from 0032_forehead_Reflection__1__163.txt Node

Date: Thu Oct 20 22:12:07 CDT 2022
User: ToomeyLab
Spectrometer: FLMS14357
Trigger mode: 0
Integration Time (sec): 1.000000E-2
Scans to average: 100
Electric dark correction enabled: true
Nonlinearity correction enabled: false
Boxcar width: 0
XAxis mode: Wavelengths
Number of Pixels in Spectrum: 2048
>>>>>Begin Spectral Data<<<<<
189.047	-44.07
189.435	-44.07
189.823	-44.07
190.211	3.66
190.599	-26.56
190.987	262.08
191.375	71.49
191.763	-158.23
192.151	137.95
192.538	-88.01
192.926	14.87
193.314	573.31
193.702	550.79
194.089	63.02
194.477	38.27
194.864	-104.95
195.252	-19.25
195.639	1537.62
196.027	12.2
196.414	50.57
196.801	-109.81
197.189	88.61
197.576	272.94
197.963	45.08
198.351	44.5
198.738	-54.9
199.125	-2.07
199.512	-35.6
199.899	-21.13
200.286	-18.62
200.673	7.36
201.06	1.86
201.447	15.56
201.833	27.14
202.22	-21.8
202.607	-0.7
202.994	-55.77
203.38	-63.55
203.767	-6.72
204.154	-19.63
204.54	-10.64
204.927	-6.96
205.313	45.13
205.699	-1.16
206.086	-16.29
206.472	3.2
206.858	-1.74
207.245	26.73
207.631	9.24
208.017	-3.74
208.403	-51.77
208.789	-2.33
209.175	9.67
209.561	15.55
209.947	5.11
210.333	-3.97
210.719	31.59
211.105	11.19
211.491	-67.25
211.876	-5.65
212.262	11.49
212.648	-12.86
213.034	6.94
213.419	-22.63
213.805	2.28
214.19	-12.08
214.576	-1.74
214.961	-19.22
215.346	0.97
215.732	-18.33
216.117	-22.39
216.502	1.7
216.888	-6.13
217.273	-23.72
217.658	27.59
218.043	14.38
218.428	7.05
218.813	-0.97
219.198	-21.47
219.583	-6.36
219.968	20.65
220.353	-16.95
220.738	-1.53
221.122	22.37
221.507	17.38
221.892	2.46
222.276	3.75
222.661	0.12
223.046	3.46
223.43	6.55
223.815	-3.79
224.199	-4.59
224.583	3.4
224.968	0.3
225.352	12.16
225.736	1.76
226.121	-2.84
226.505	4.16
226.889	1.66
227.273	-2.42
227.657	2.26
228.041	-3.15
228.425	-1.29
228.809	2.29
229.193	1.63
229.577	0.07
229.961	1.36
230.344	0.79
230.728	0.8
231.112	1.45
231.495	0.77
231.879	2.57
232.263	3
232.646	1.74
233.03	0.9
233.413	-0.37
233.797	1.95
234.18	0.98
234.563	-0.14
234.946	0.46
235.33	2.25
235.713	1.33
236.096	2.13
236.479	2.42
236.862	1.66
237.245	0.87
237.628	1.18
238.011	2.75
238.394	4.71
238.777	1.71
239.16	-0.65
239.543	-1.32
239.925	0.04
240.308	1.43
240.691	3.32
241.073	0.85
241.456	1.02
241.838	1.35
242.221	1.35
242.603	0.99
242.986	1.34
243.368	1.27
243.75	1.29
244.133	1.83
244.515	1.46
244.897	0.96
245.279	1.05
245.661	2.22
246.043	1.59
246.425	2.05
246.807	1.39
247.189	1.74
247.571	1.72
247.953	1.76
248.335	1.3
248.717	1.42
249.098	1.37
249.48	1.6
249.862	1.53
250.243	1.29
250.625	1.48
251.006	1.73
251.388	1.44
251.769	1.17
252.151	1.79
252.532	0.61
252.913	1.62
253.295	1.76
253.676	1.44
254.057	0.75
254.438	1.63
254.819	1.73
255.2	1.92
255.581	0.71
255.962	1.56
256.343	1.6
256.724	0.91
257.105	1.34
257.486	1.58
257.867	1.88
258.247	2.2
258.628	2.03
259.009	1.48
259.389	1.67
259.77	1.39
260.15	1.77
260.531	1.58
260.911	1.44
261.292	1.76
261.672	1.53
262.052	1.6
262.432	1.59
262.813	1.29
263.193	1.61
263.573	1.35
263.953	2
264.333	1.83
264.713	1.73
265.093	0.9
265.473	2.17
265.853	2
266.233	1.07
266.612	2.17
266.992	1.06
267.372	2.43
267.752	1.99
268.131	2.01
268.511	1.69
268.89	1.06
269.27	1.38
269.649	1.51
270.029	1.25
270.408	0.96
270.787	0.85
271.167	1.44
271.546	1.38
271.925	1.92
272.304	1.67
272.683	1.49
273.062	1.42
273.441	1.55
273.82	1.68
274.199	1.1
274.578	1.08
274.957	1.19
275.336	1.26
275.715	1.41
276.093	1.71
276.472	1.89
276.851	1.9
277.229	0.98
277.608	1.59
277.986	1.57
278.365	1.51
278.743	1.81
279.122	1.68
279.5	1.42
279.878	1.77
280.257	1.54
280.635	1.29
281.013	2.07
281.391	2.16
281.769	1.89
282.147	1.04
282.525	1.32
282.903	1.6
283.281	1.4
283.659	1.2
284.037	1.09
284.415	1.45
284.792	0.83
285.17	2.1
285.548	1.45
285.925	1.3
286.303	1.41
286.68	1.82
287.058	1.44
287.435	1.58
287.813	1.19
288.19	1.37
288.567	1.46
288.945	1.85
289.322	1.5
289.699	0.87
290.076	1.51
290.453	1.15
290.83	1.53
291.207	1.72
291.584	1.33
291.961	1.55
292.338	1.22
292.715	1.76
293.092	2.13
293.469	1.74
293.845	1.8
294.222	1.91
294.599	2.61
294.975	1.7
295.352	2.2
295.728	1.91
296.105	2.04
296.481	1.79
296.858	1.92
297.234	1.79
297.61	1.8
297.986	1.46
298.363	1.92
298.739	1.87
299.115	1.88
299.491	1.75
299.867	1.47
300.243	1.64
300.619	1.89
300.995	1.08
301.371	1.85
301.746	1.86
302.122	2.04
302.498	1.62
302.874	2.27
303.249	2.48
303.625	1.79
304	2.32
304.376	1.72
304.751	1.8
305.127	1.11
305.502	2.38
305.878	2.19
306.253	2.04
306.628	1.92
307.003	1.6
307.378	1.67
307.754	1.76
308.129	1.96
308.504	1.82
308.879	1.94
309.254	1.77
309.629	1.86
310.003	2.09
310.378	1.87
310.753	2.4
311.128	2.07
311.502	1.7
311.877	2.33
312.252	2.03
312.626	1.99
313.001	2.06
313.375	2.38
313.75	2
314.124	2.37
314.498	1.95
314.873	2.18
315.247	2.22
315.621	1.9
315.995	2.11
316.369	2.7
316.743	2.09
317.117	2.42
317.491	2.74
317.865	2.15
318.239	2.04
318.613	3.11
318.987	2.52
319.361	2.38
319.734	1.93
320.108	2.49
320.482	3.09
320.855	2.46
321.229	2.81
321.602	1.99
321.976	2.15
322.349	1.85
322.723	2.97
323.096	2.35
323.469	2.71
323.843	3.14
324.216	2.83
324.589	3.1
324.962	2.39
325.335	2.78
325.708	2.57
326.081	2.94
326.454	2.73
326.827	2.28
327.2	2.94
327.573	2.69
327.945	2.37
328.318	2.56
328.691	3.03
329.063	3.23
329.436	2.14
329.809	2.81
330.181	2.74
330.553	2.3
330.926	2.9
331.298	2.52
331.671	3.22
332.043	2.56
332.415	2.47
332.787	3.77
333.159	3.19
333.532	3.07
333.904	3.32
334.276	3.09
334.648	2.12
335.02	3.19
335.391	2.61
335.763	2.76
336.135	3.13
336.507	2.7
336.879	3.53
337.25	3.13
337.622	3.13
337.993	2.96
338.365	3.43
338.736	3.3
339.108	2.84
339.479	3.14
339.851	2.83
340.222	2.92
340.593	2.59
340.964	3.87
341.336	2.82
341.707	2.88
342.078	2.99
342.449	2.96
342.82	3.09
343.191	3.22
343.562	3.15
343.933	3.18
344.303	3.35
344.674	3.54
345.045	3.17
345.416	3.38
345.786	3.19
346.157	3.18
346.527	3
346.898	3.29
347.268	3.28
347.639	3.26
348.009	3.26
348.38	3.54
348.75	3.06
349.12	3.53
349.49	3.73
349.861	3.77
350.231	3.45
350.601	3.35
350.971	3.34
351.341	3.84
351.711	3.6
352.081	2.93
352.45	3.34
352.82	3.54
353.19	3.3
353.56	3.1
353.929	3.68
354.299	3.57
354.669	3.89
355.038	3.54
355.408	3.25
355.777	3.53
356.147	3.8
356.516	3.49
356.885	3.52
357.254	3.8
357.624	3.5
357.993	3.35
358.362	3.81
358.731	3.75
359.1	3.58
359.469	3.89
359.838	3.56
360.207	4.31
360.576	3.49
360.945	3.88
361.314	3.62
361.682	3.79
362.051	3.58
362.42	3.67
362.788	3.81
363.157	3.84
363.525	3.74
363.894	4
364.262	3.85
364.631	3.93
364.999	3.67
365.367	4.26
365.735	3.91
366.104	3.6
366.472	3.56
366.84	4.17
367.208	3.94
367.576	4.19
367.944	4.25
368.312	4.2
368.68	4.18
369.048	3.88
369.416	3.92
369.783	4.03
370.151	4.39
370.519	4.4
370.886	4.03
371.254	4.45
371.621	3.99
371.989	4.37
372.356	3.87
372.724	4.47
373.091	4.28
373.458	3.68
373.826	4.24
374.193	4.5
374.56	4.01
374.927	4.02
375.294	4.33
375.661	4.65
376.028	3.99
376.395	4.77
376.762	4.37
377.129	4.43
377.496	4.11
377.863	4.39
378.229	4.11
378.596	4.4
378.963	4.51
379.329	4.67
379.696	4.37
380.062	4.58
380.429	4.95
380.795	4.49
381.161	4.54
381.528	4.41
381.894	4.36
382.26	4.38
382.626	4.92
382.993	4.26
383.359	4.6
383.725	4.65
384.091	4.72
384.457	4.38
384.823	4.54
385.188	4.62
385.554	4.34
385.92	4.67
386.286	4.52
386.651	4.52
387.017	4.56
387.383	4.82
387.748	5.26
388.114	4.96
388.479	4.71
388.845	4.79
389.21	5.09
389.575	4.73
389.94	4.9
390.306	4.97
390.671	4.96
391.036	4.71
391.401	5
391.766	5.06
392.131	4.9
392.496	4.75
392.861	4.71
393.226	4.86
393.591	5.16
393.956	5.02
394.32	5.05
394.685	5.26
395.05	4.87
395.414	5.22
395.779	5.09
396.143	5.14
396.508	5.12
396.872	5.05
397.236	5.15
397.601	5.43
397.965	5.17
398.329	5.07
398.694	5.21
399.058	5.22
399.422	5.49
399.786	5.28
400.15	5.28
400.514	5.62
400.878	5.19
401.242	5.32
401.605	5.5
401.969	5.43
402.333	5.3
402.697	5.55
403.06	5.27
403.424	5.46
403.787	5.41
404.151	5.24
404.514	5.29
404.878	5.18
405.241	5.51
405.604	5.52
405.968	5.27
406.331	5.57
406.694	5.42
407.057	5.38
407.42	5.45
407.783	5.32
408.146	5.57
408.509	5.51
408.872	5.72
409.235	5.41
409.598	5.71
409.961	5.61
410.323	5.92
410.686	5.65
411.049	5.66
411.411	5.57
411.774	5.56
412.136	5.74
412.499	5.82
412.861	5.63
413.223	5.73
413.586	5.52
413.948	5.75
414.31	5.62
414.672	5.9
415.035	5.83
415.397	5.82
415.759	5.83
416.121	5.83
416.483	5.58
416.845	5.95
417.206	5.91
417.568	5.92
417.93	5.81
418.292	5.9
418.653	5.8
419.015	5.94
419.377	5.9
419.738	5.91
420.1	6.02
420.461	6.06
420.822	5.84
421.184	5.84
421.545	5.94
421.906	5.92
422.267	6.02
422.629	5.82
422.99	5.97
423.351	5.84
423.712	5.89
424.073	5.87
424.434	5.96
424.795	6.07
425.155	6.02
425.516	6.07
425.877	5.99
426.238	6.12
426.598	6.01
426.959	6.04
427.32	6.03
427.68	6.14
428.041	6.12
428.401	6.2
428.761	6.31
429.122	6.26
429.482	6.3
429.842	6.33
430.202	6.42
430.563	6.19
430.923	6.51
431.283	6.24
431.643	6.4
432.003	6.39
432.363	6.49
432.722	6.61
433.082	6.45
433.442	6.52
433.802	6.48
434.161	6.54
434.521	6.52
434.881	6.5
435.24	6.53
435.6	6.45
435.959	6.52
436.319	6.59
436.678	6.59
437.037	6.67
437.396	6.71
437.756	6.69
438.115	6.72
438.474	6.62
438.833	6.62
439.192	6.67
439.551	6.78
439.91	6.82
440.269	6.86
440.628	6.76
440.987	6.66
441.345	6.74
441.704	6.83
442.063	6.8
442.421	6.66
442.78	6.67
443.138	6.73
443.497	6.59
443.855	6.8
444.214	6.83
444.572	7.03
444.93	6.76
445.288	6.98
445.647	7.08
446.005	6.88
446.363	6.9
446.721	6.86
447.079	6.96
447.437	6.86
447.795	6.96
448.153	6.85
448.51	6.86
448.868	6.99
449.226	6.9
449.584	7.01
449.941	6.96
450.299	7.08
450.656	7.14
451.014	7.19
451.371	7.24
451.729	7.08
452.086	7.27
452.443	7.09
452.801	7.19
453.158	7.36
453.515	7.3
453.872	7.2
454.229	7.32
454.586	7.24
454.943	7.22
455.3	7.32
455.657	7.3
456.014	7.35
456.371	7.34
456.727	7.36
457.084	7.25
457.441	7.49
457.797	7.49
458.154	7.5
458.51	7.34
458.867	7.68
459.223	7.67
459.58	7.53
459.936	7.64
460.292	7.57
460.648	7.55
461.005	7.44
461.361	7.47
461.717	7.44
462.073	7.44
462.429	7.55
462.785	7.66
463.141	7.73
463.496	7.76
463.852	7.84
464.208	7.62
464.564	7.8
464.919	7.91
465.275	7.86
465.631	7.72
465.986	7.84
466.342	7.84
466.697	7.88
467.052	7.81
467.408	7.94
467.763	8.03
468.118	8.09
468.473	8.01
468.829	8.02
469.184	7.92
469.539	8.03
469.894	7.95
470.249	8.12
470.603	8
470.958	8.08
471.313	8.23
471.668	8.05
472.023	8.21
472.377	8.05
472.732	8.18
473.086	8.28
473.441	8.16
473.795	8.33
474.15	8.36
474.504	8.16
474.859	8.42
475.213	8.44
475.567	8.4
475.921	8.2
476.275	8.33
476.63	8.43
476.984	8.4
477.338	8.49
477.692	8.34
478.045	8.34
478.399	8.59
478.753	8.48
479.107	8.36
479.461	8.52
479.814	8.48
480.168	8.48
480.521	8.55
480.875	8.59
481.228	8.52
481.582	8.53
481.935	8.54
482.289	8.46
482.642	8.37
482.995	8.59
483.348	8.57
483.701	8.61
484.055	8.5
484.408	8.45
484.761	8.46
485.114	8.31
485.466	8.28
485.819	8.18
486.172	8.14
486.525	8.14
486.878	8.2
487.23	8.4
487.583	8.42
487.936	8.64
488.288	8.67
488.641	8.55
488.993	8.51
489.345	8.49
489.698	8.49
490.05	8.5
490.402	8.55
490.754	8.6
491.107	8.63
491.459	8.85
491.811	8.83
492.163	8.91
492.515	8.9
492.866	8.88
493.218	8.74
493.57	8.73
493.922	8.77
494.274	8.75
494.625	8.83
494.977	8.92
495.328	9.12
495.68	9.22
496.031	9.23
496.383	9.22
496.734	9.29
497.086	9.29
497.437	9.43
497.788	9.35
498.139	9.3
498.49	9.31
498.842	9.31
499.193	9.33
499.544	9.32
499.894	9.42
500.245	9.41
500.596	9.44
500.947	9.42
501.298	9.6
501.648	9.46
501.999	9.59
502.35	9.65
502.7	9.74
503.051	9.78
503.401	9.82
503.752	9.72
504.102	9.71
504.452	9.9
504.803	9.75
505.153	9.72
505.503	9.92
505.853	9.78
506.203	9.85
506.553	9.83
506.903	9.87
507.253	9.92
507.603	9.91
507.953	10.09
508.303	10.06
508.652	10.02
509.002	10.12
509.352	10.04
509.701	10.07
510.051	10.13
510.4	9.99
510.75	9.99
511.099	10.04
511.449	9.97
511.798	10.03
512.147	10.27
512.496	10.2
512.846	10.36
513.195	10.25
513.544	10.29
513.893	10.2
514.242	10.23
514.591	10.38
514.939	10.33
515.288	10.32
515.637	10.33
515.986	10.38
516.334	10.4
516.683	10.41
517.032	10.34
517.38	10.59
517.729	10.59
518.077	10.44
518.426	10.63
518.774	10.61
519.122	10.57
519.47	10.5
519.819	10.6
520.167	10.47
520.515	10.41
520.863	10.43
521.211	10.6
521.559	10.5
521.907	10.56
522.255	10.6
522.602	10.72
522.95	10.91
523.298	10.78
523.645	10.99
523.993	10.77
524.341	10.93
524.688	11.09
525.036	10.93
525.383	10.94
525.73	10.88
526.078	11.11
526.425	11.06
526.772	10.98
527.119	11
527.466	10.99
527.814	10.92
528.161	10.98
528.508	10.93
528.854	10.99
529.201	11.01
529.548	10.98
529.895	10.93
530.242	10.88
530.588	10.85
530.935	10.69
531.282	10.68
531.628	10.8
531.975	10.88
532.321	11.05
532.667	11.2
533.014	11.26
533.36	11.26
533.706	11.31
534.052	11.33
534.399	11.36
534.745	11.34
535.091	11.32
535.437	11.2
535.783	11.16
536.129	11.23
536.474	11.41
536.82	11.41
537.166	11.55
537.512	11.62
537.857	11.63
538.203	11.72
538.549	11.69
538.894	11.58
539.239	11.63
539.585	11.64
539.93	11.91
540.276	11.78
540.621	11.86
540.966	11.91
541.311	11.91
541.656	11.93
542.001	12
542.346	11.94
542.691	11.83
543.036	11.77
543.381	11.68
543.726	11.65
544.071	11.67
544.415	11.8
544.76	11.88
545.105	12.01
545.449	12.01
545.794	12.07
546.138	12.23
546.483	12.28
546.827	12.41
547.171	12.31
547.516	12.34
547.86	12.35
548.204	12.43
548.548	12.47
548.892	12.41
549.236	12.52
549.58	12.54
549.924	12.42
550.268	12.68
550.612	12.88
550.956	12.66
551.3	12.88
551.643	12.75
551.987	12.95
552.33	12.89
552.674	12.69
553.017	12.93
553.361	13.04
553.704	13.1
554.048	13.07
554.391	13.06
554.734	13.01
555.077	13
555.42	13.14
555.764	12.96
556.107	12.91
556.45	12.97
556.793	13.24
557.135	13.37
557.478	13.31
557.821	13.11
558.164	13.35
558.507	13.44
558.849	13.6
559.192	13.59
559.534	13.6
559.877	13.56
560.219	13.47
560.562	13.61
560.904	13.55
561.246	13.58
561.589	13.66
561.931	13.61
562.273	13.61
562.615	13.8
562.957	13.61
563.299	13.73
563.641	13.64
563.983	13.76
564.325	13.72
564.667	13.67
565.008	13.66
565.35	13.99
565.692	13.8
566.033	13.8
566.375	13.96
566.716	14
567.058	13.94
567.399	14.05
567.741	13.92
568.082	14.07
568.423	13.96
568.764	14.06
569.105	13.9
569.447	14.02
569.788	14.22
570.129	14.23
570.47	14.14
570.811	14.26
571.151	14.42
571.492	14.24
571.833	14.33
572.174	14.39
572.514	14.41
572.855	14.57
573.195	14.44
573.536	14.44
573.876	14.33
574.217	14.41
574.557	14.53
574.898	14.25
575.238	14.53
575.578	14.46
575.918	14.63
576.258	14.7
576.598	14.72
576.938	14.5
577.278	14.74
577.618	14.82
577.958	14.58
578.298	14.76
578.638	14.66
578.977	15
579.317	14.76
579.657	14.85
579.996	15.1
580.336	15.16
580.675	15.04
581.014	15.03
581.354	15.07
581.693	15.07
582.032	15.14
582.372	15.21
582.711	15.14
583.05	15.29
583.389	15.18
583.728	15.46
584.067	15.34
584.406	15.23
584.745	15.46
585.083	15.15
585.422	15.77
585.761	15.76
586.1	15.75
586.438	15.77
586.777	15.68
587.115	15.69
587.454	15.64
587.792	15.69
588.13	15.79
588.469	15.97
588.807	15.4
589.145	15.77
589.483	15.85
589.821	15.68
590.159	15.76
590.497	15.88
590.835	15.83
591.173	15.96
591.511	16.02
591.849	15.97
592.187	15.78
592.524	15.84
592.862	16.01
593.2	16.2
593.537	15.89
593.875	16.03
594.212	16
594.55	16.23
594.887	16.33
595.224	16.11
595.561	16.22
595.899	16.56
596.236	16.44
596.573	16.37
596.91	16.35
597.247	16.13
597.584	16.45
597.921	16.49
598.258	16.31
598.594	16.42
598.931	16.47
599.268	16.32
599.604	16.39
599.941	16.6
600.277	16.72
600.614	16.35
600.95	16.54
601.287	16.61
601.623	16.7
601.959	16.84
602.296	16.73
602.632	16.52
602.968	17.17
603.304	16.81
603.64	17.1
603.976	17.08
604.312	17.23
604.648	17.01
604.984	16.96
605.319	17.16
605.655	17.07
605.991	16.97
606.326	17.07
606.662	17.15
606.998	16.97
607.333	16.97
607.668	16.98
608.004	16.96
608.339	17.06
608.674	17.36
609.01	17.33
609.345	17.39
609.68	17.59
610.015	17.61
610.35	17.4
610.685	17.48
611.02	17.52
611.355	17.42
611.689	17.53
612.024	17.48
612.359	17.46
612.694	17.36
613.028	17.67
613.363	17.66
613.697	17.68
614.032	17.81
614.366	17.96
614.7	17.46
615.035	17.77
615.369	17.68
615.703	17.86
616.037	18.16
616.371	17.69
616.705	17.68
617.039	18.28
617.373	18.04
617.707	18.14
618.041	18.03
618.375	18.12
618.709	18.31
619.042	18.19
619.376	18.12
619.71	18.09
620.043	18.37
620.377	18.18
620.71	18.57
621.043	18.59
621.377	18.11
621.71	18.29
622.043	18.54
622.376	18.55
622.709	18.69
623.043	18.61
623.376	18.83
623.709	18.45
624.041	18.54
624.374	18.73
624.707	18.7
625.04	18.92
625.373	19.37
625.705	18.73
626.038	18.62
626.37	18.87
626.703	19.11
627.035	18.94
627.368	19.18
627.7	18.87
628.032	19.29
628.365	19.08
628.697	18.92
629.029	18.87
629.361	19.05
629.693	19.14
630.025	18.95
630.357	18.97
630.689	19.04
631.021	19.13
631.353	19.21
631.684	18.95
632.016	19.27
632.348	19.53
632.679	19.21
633.011	19.42
633.342	19.46
633.674	19.08
634.005	19.57
634.336	19.3
634.668	19.41
634.999	19.33
635.33	19.96
635.661	19.5
635.992	19.72
636.323	19.71
636.654	19.61
636.985	19.61
637.316	19.53
637.647	19.61
637.977	19.95
638.308	19.62
638.639	19.99
638.969	19.64
639.3	19.63
639.63	20.05
639.961	19.71
640.291	19.84
640.622	20.33
640.952	20.01
641.282	20.1
641.612	20.11
641.943	19.74
642.273	19.94
642.603	20.19
642.933	20.61
643.263	20.33
643.592	20.38
643.922	20.67
644.252	20.31
644.582	20.4
644.911	20.7
645.241	20.86
645.571	20.43
645.9	20.79
646.23	20.7
646.559	20.66
646.888	20.18
647.218	20.54
647.547	20.42
647.876	20.36
648.205	20.27
648.534	20.34
648.863	20.29
649.192	21.06
649.521	20.8
649.85	21.23
650.179	20.82
650.508	20.86
650.837	20.84
651.165	21.26
651.494	21.45
651.822	21.27
652.151	21.21
652.479	20.97
652.808	20.81
653.136	20.91
653.465	21.19
653.793	21.44
654.121	21.44
654.449	21.31
654.777	21.21
655.105	21.31
655.433	20.88
655.761	21.4
656.089	21.5
656.417	21.29
656.745	21.58
657.073	21.51
657.4	21.31
657.728	21.92
658.056	21.78
658.383	21.48
658.711	21.6
659.038	21.76
659.365	21.36
659.693	21.73
660.02	21.88
660.347	22.12
660.674	21.76
661.001	21.7
661.329	21.77
661.656	21.48
661.982	21.65
662.309	21.66
662.636	21.91
662.963	21.53
663.29	22.12
663.616	22.56
663.943	22.5
664.27	22.23
664.596	21.98
664.923	21.77
665.249	22.36
665.576	22.81
665.902	22.33
666.228	21.99
666.554	22.65
666.881	22.58
667.207	22.28
667.533	22.25
667.859	22.05
668.185	22.52
668.511	23.12
668.837	22.09
669.162	22.62
669.488	22.18
669.814	22.56
670.139	22.64
670.465	22.92
670.791	23.09
671.116	22.65
671.442	22.07
671.767	23.26
672.092	23.02
672.418	22.5
672.743	22.61
673.068	22.36
673.393	22.42
673.718	23.08
674.043	22.76
674.368	23.04
674.693	23.01
675.018	23.5
675.343	23.37
675.667	23.26
675.992	23.22
676.317	23.34
676.641	23.46
676.966	22.88
677.29	23.43
677.615	23.59
677.939	22.94
678.264	23.49
678.588	23.2
678.912	23.22
679.236	23.4
679.56	23.04
679.885	22.95
680.209	23.24
680.532	23.89
680.856	24.35
