Data from 0032_crown_Reflection__4__156.txt Node

Date: Thu Oct 20 22:08:17 CDT 2022
User: ToomeyLab
Spectrometer: FLMS14357
Trigger mode: 0
Integration Time (sec): 1.000000E-2
Scans to average: 100
Electric dark correction enabled: true
Nonlinearity correction enabled: false
Boxcar width: 0
XAxis mode: Wavelengths
Number of Pixels in Spectrum: 2048
>>>>>Begin Spectral Data<<<<<
189.047	36.62
189.435	36.62
189.823	36.62
190.211	25.44
190.599	35.66
190.987	1158.36
191.375	59.75
191.763	104.3
192.151	43.93
192.538	18.93
192.926	115.15
193.314	-336.25
193.702	91.01
194.089	115.14
194.477	6.92
194.864	-29.68
195.252	12.14
195.639	130.69
196.027	-35.32
196.414	115.56
196.801	-112.1
197.189	70.52
197.576	56.77
197.963	248.65
198.351	-35.26
198.738	-46.07
199.125	61.97
199.512	25.63
199.899	-6.22
200.286	41.93
200.673	4.32
201.06	21
201.447	32.19
201.833	45.18
202.22	0.46
202.607	16.29
202.994	9.86
203.38	11.61
203.767	17.51
204.154	4.75
204.54	1.48
204.927	-1.45
205.313	42.29
205.699	23.52
206.086	-20.75
206.472	34.68
206.858	-11.96
207.245	46.04
207.631	-4.29
208.017	-3.8
208.403	-67.84
208.789	25.45
209.175	46.83
209.561	19.2
209.947	-16.73
210.333	30.43
210.719	3.02
211.105	22.63
211.491	22.62
211.876	-3.82
212.262	21.26
212.648	20.03
213.034	7.67
213.419	-12.24
213.805	-5.01
214.19	-19.88
214.576	-30.7
214.961	6.82
215.346	-6.96
215.732	11.15
216.117	-30.36
216.502	14.29
216.888	-13.16
217.273	-16.64
217.658	24.7
218.043	13.05
218.428	16.52
218.813	42.97
219.198	21.08
219.583	20.98
219.968	15.92
220.353	-7.76
220.738	-1.32
221.122	-2.01
221.507	18.3
221.892	-5.65
222.276	17.61
222.661	6.69
223.046	22.88
223.43	26.09
223.815	14.17
224.199	-9.04
224.583	-0.11
224.968	6.4
225.352	10.42
225.736	8.78
226.121	-3.93
226.505	6.57
226.889	2.33
227.273	1.41
227.657	7.33
228.041	3.52
228.425	2.8
228.809	5.89
229.193	4.74
229.577	5.23
229.961	4.75
230.344	4.44
230.728	5.25
231.112	4.84
231.495	5.5
231.879	5.84
232.263	4.79
232.646	5.5
233.03	5.37
233.413	3.13
233.797	5.66
234.18	4.74
234.563	3.89
234.946	5.13
235.33	3.37
235.713	3.66
236.096	5.04
236.479	5.56
236.862	5.43
237.245	4.37
237.628	4.39
238.011	6.49
238.394	5.99
238.777	6.25
239.16	2.9
239.543	3.57
239.925	3.48
240.308	4.22
240.691	6.81
241.073	4.03
241.456	6.38
241.838	3.64
242.221	3.1
242.603	4.15
242.986	5.29
243.368	4.72
243.75	4.83
244.133	4.7
244.515	4.56
244.897	4.42
245.279	3.94
245.661	4.92
246.043	5.59
246.425	4.57
246.807	4.67
247.189	4.47
247.571	4.84
247.953	4.61
248.335	4.74
248.717	4.38
249.098	4.4
249.48	4.63
249.862	4.54
250.243	3.93
250.625	4.8
251.006	4.9
251.388	5.16
251.769	4.82
252.151	4.73
252.532	3.8
252.913	4.57
253.295	4.89
253.676	4.77
254.057	4.34
254.438	4.25
254.819	5.26
255.2	4.46
255.581	3.89
255.962	4.79
256.343	5.05
256.724	4.16
257.105	4.52
257.486	3.03
257.867	4.82
258.247	4.7
258.628	4.26
259.009	3.49
259.389	4.37
259.77	3.98
260.15	4.28
260.531	4.53
260.911	4.25
261.292	4.52
261.672	4.23
262.052	4.28
262.432	4.54
262.813	4
263.193	4.43
263.573	4.01
263.953	4.32
264.333	4.61
264.713	4.61
265.093	3.88
265.473	4.21
265.853	4.94
266.233	4.68
266.612	5.42
266.992	3.67
267.372	4.69
267.752	4.81
268.131	4.28
268.511	3.97
268.89	4.52
269.27	4
269.649	3.77
270.029	3.76
270.408	3.68
270.787	3.91
271.167	4.47
271.546	3.98
271.925	4.49
272.304	4.45
272.683	3.89
273.062	3.72
273.441	3.93
273.82	4.51
274.199	3.88
274.578	3.63
274.957	3.85
275.336	4.03
275.715	4.11
276.093	4.8
276.472	4.51
276.851	4.8
277.229	3.29
277.608	3.9
277.986	4.27
278.365	3.44
278.743	3.86
279.122	4.02
279.5	4.26
279.878	4.5
280.257	4.15
280.635	3.76
281.013	3.85
281.391	4.32
281.769	4.45
282.147	4.04
282.525	3.78
282.903	4.57
283.281	3.75
283.659	3.5
284.037	3.92
284.415	3.83
284.792	3.92
285.17	4.09
285.548	4.02
285.925	3.98
286.303	3.91
286.68	4.27
287.058	4.04
287.435	3.58
287.813	4
288.19	4.09
288.567	4.19
288.945	4.03
289.322	4.07
289.699	3.64
290.076	3.87
290.453	3.73
290.83	3.78
291.207	4.52
291.584	3.79
291.961	3.76
292.338	3.81
292.715	3.89
293.092	4.21
293.469	4.05
293.845	4.22
294.222	4.51
294.599	4.91
294.975	3.61
295.352	4.6
295.728	4.3
296.105	4.33
296.481	3.86
296.858	4.25
297.234	4.72
297.61	4.17
297.986	3.99
298.363	4.02
298.739	4.08
299.115	3.84
299.491	3.96
299.867	3.65
300.243	4.06
300.619	4.13
300.995	3.76
301.371	4.21
301.746	3.73
302.122	4.05
302.498	4.36
302.874	4.32
303.249	4.24
303.625	3.94
304	4.3
304.376	3.69
304.751	4.25
305.127	3.73
305.502	4.49
305.878	4.09
306.253	4.07
306.628	4.07
307.003	4.22
307.378	3.36
307.754	4.28
308.129	3.8
308.504	4.33
308.879	4.01
309.254	4.11
309.629	4.01
310.003	3.65
310.378	4.01
310.753	4.02
311.128	3.97
311.502	3.99
311.877	4.28
312.252	4.04
312.626	4.1
313.001	4.13
313.375	4.37
313.75	3.46
314.124	3.88
314.498	3.87
314.873	3.95
315.247	3.81
315.621	3.59
315.995	3.65
316.369	3.99
316.743	4.07
317.117	3.88
317.491	4.51
317.865	3.94
318.239	4.17
318.613	4.74
318.987	3.83
319.361	4.52
319.734	3.54
320.108	4.59
320.482	4.45
320.855	3.87
321.229	4.57
321.602	3.83
321.976	4.02
322.349	3.68
322.723	4.63
323.096	4.51
323.469	3.96
323.843	4.01
324.216	4.32
324.589	4.66
324.962	4.16
325.335	4.25
325.708	4.19
326.081	4.58
326.454	3.84
326.827	3.94
327.2	4.48
327.573	3.98
327.945	4.33
328.318	4.04
328.691	4.18
329.063	4.21
329.436	4.23
329.809	4.38
330.181	4.61
330.553	4.18
330.926	4.25
331.298	4.03
331.671	4.75
332.043	4.39
332.415	3.61
332.787	4.57
333.159	4.71
333.532	4.13
333.904	4.07
334.276	4.65
334.648	4.19
335.02	4.12
335.391	4.23
335.763	3.93
336.135	4.38
336.507	3.61
336.879	4.74
337.25	4.14
337.622	4.2
337.993	4.26
338.365	4.43
338.736	4.13
339.108	4.38
339.479	4.67
339.851	3.98
340.222	4.14
340.593	4.39
340.964	4.41
341.336	4.03
341.707	3.8
342.078	4.11
342.449	4.09
342.82	4.4
343.191	4.16
343.562	4.32
343.933	4.02
344.303	4.43
344.674	4.43
345.045	4.3
345.416	4.22
345.786	4.11
346.157	3.94
346.527	4.31
346.898	4.17
347.268	4.25
347.639	4.32
348.009	4.25
348.38	4.51
348.75	3.76
349.12	4.2
349.49	4.27
349.861	4.74
350.231	4.39
350.601	4.5
350.971	4.44
351.341	4.4
351.711	4.31
352.081	4.1
352.45	4.4
352.82	4.28
353.19	4.32
353.56	4.36
353.929	3.92
354.299	4.57
354.669	4.12
355.038	4.17
355.408	3.89
355.777	4.19
356.147	4.41
356.516	4.41
356.885	4.2
357.254	4.46
357.624	4.45
357.993	4.23
358.362	4.41
358.731	4.74
359.1	4.1
359.469	4.67
359.838	4.34
360.207	4.76
360.576	4.06
360.945	4.68
361.314	4.77
361.682	4.26
362.051	4.21
362.42	4.39
362.788	4.26
363.157	4.26
363.525	4.42
363.894	4.16
364.262	4.39
364.631	4.06
364.999	4.26
365.367	4.69
365.735	4.48
366.104	4.25
366.472	4.25
366.84	4.56
367.208	4.37
367.576	4.41
367.944	4.76
368.312	4.41
368.68	4.62
369.048	4.23
369.416	4.09
369.783	4.22
370.151	4.58
370.519	4.44
370.886	4.15
371.254	4.58
371.621	4.08
371.989	4.82
372.356	4.32
372.724	4.56
373.091	4.34
373.458	4.38
373.826	4.3
374.193	4.49
374.56	4.25
374.927	4.27
375.294	4.4
375.661	4.77
376.028	4.39
376.395	4.55
376.762	4.45
377.129	4.43
377.496	4.11
377.863	4.46
378.229	4.39
378.596	4.62
378.963	4.52
379.329	4.84
379.696	4.34
380.062	4.21
380.429	4.6
380.795	4.41
381.161	4.69
381.528	4.48
381.894	4.52
382.26	4.58
382.626	4.72
382.993	4.3
383.359	4.56
383.725	4.67
384.091	4.63
384.457	4.33
384.823	4.29
385.188	4.53
385.554	4.17
385.92	4.56
386.286	4.6
386.651	4.33
387.017	4.58
387.383	4.38
387.748	4.73
388.114	4.44
388.479	4.53
388.845	4.66
389.21	4.42
389.575	4.49
389.94	4.77
390.306	4.61
390.671	4.49
391.036	4.65
391.401	4.27
391.766	4.79
392.131	4.63
392.496	4.6
392.861	4.62
393.226	4.62
393.591	4.48
393.956	4.58
394.32	4.66
394.685	4.7
395.05	4.61
395.414	4.48
395.779	4.62
396.143	4.58
396.508	4.52
396.872	4.49
397.236	4.54
397.601	4.95
397.965	4.63
398.329	4.55
398.694	4.6
399.058	4.52
399.422	4.82
399.786	4.86
400.15	4.37
400.514	4.8
400.878	4.5
401.242	4.57
401.605	4.93
401.969	4.79
402.333	4.7
402.697	4.98
403.06	4.54
403.424	4.47
403.787	5.02
404.151	4.58
404.514	4.69
404.878	4.64
405.241	4.6
405.604	4.88
405.968	4.53
406.331	4.62
406.694	4.76
407.057	4.91
407.42	4.75
407.783	4.65
408.146	4.59
408.509	4.55
408.872	4.75
409.235	4.48
409.598	4.86
409.961	4.61
410.323	5.08
410.686	4.63
411.049	4.65
411.411	4.65
411.774	4.57
412.136	4.69
412.499	4.74
412.861	4.76
413.223	4.75
413.586	4.75
413.948	4.78
414.31	4.67
414.672	4.66
415.035	4.6
415.397	4.84
415.759	4.81
416.121	4.86
416.483	4.67
416.845	4.82
417.206	4.73
417.568	4.77
417.93	4.78
418.292	4.77
418.653	4.87
419.015	4.81
419.377	4.74
419.738	4.75
420.1	4.84
420.461	4.79
420.822	4.75
421.184	4.65
421.545	4.91
421.906	4.66
422.267	4.68
422.629	4.69
422.99	4.6
423.351	4.64
423.712	4.68
424.073	4.67
424.434	4.67
424.795	4.73
425.155	4.68
425.516	4.69
425.877	4.6
426.238	4.8
426.598	4.7
426.959	4.65
427.32	4.75
427.68	4.76
428.041	4.79
428.401	4.75
428.761	4.79
429.122	4.77
429.482	4.85
429.842	4.89
430.202	4.99
430.563	4.91
430.923	5.15
431.283	4.97
431.643	4.81
432.003	4.88
432.363	5.02
432.722	5.07
433.082	4.76
433.442	5.01
433.802	4.79
434.161	4.84
434.521	4.83
434.881	4.73
435.24	4.75
435.6	4.77
435.959	4.93
436.319	4.87
436.678	4.89
437.037	4.84
437.396	4.86
437.756	5
438.115	5
438.474	4.74
438.833	4.89
439.192	4.83
439.551	4.95
439.91	4.89
440.269	4.92
440.628	4.8
440.987	4.8
441.345	4.95
441.704	4.86
442.063	4.96
442.421	4.75
442.78	4.76
443.138	4.86
443.497	4.77
443.855	4.84
444.214	4.89
444.572	4.93
444.93	4.58
445.288	5.03
445.647	4.98
446.005	4.82
446.363	4.93
446.721	4.92
447.079	4.86
447.437	4.87
447.795	4.89
448.153	4.93
448.51	4.77
448.868	4.84
449.226	4.8
449.584	4.78
449.941	4.94
450.299	4.88
450.656	4.86
451.014	4.79
451.371	5.09
451.729	4.96
452.086	5.04
452.443	4.85
452.801	4.95
453.158	5.15
453.515	5.02
453.872	5.05
454.229	4.89
454.586	4.93
454.943	4.86
455.3	4.98
455.657	5.01
456.014	5.03
456.371	4.88
456.727	5.03
457.084	4.86
457.441	5.01
457.797	5.08
458.154	4.9
458.51	5
458.867	5.07
459.223	5.27
459.58	5.04
459.936	5.04
460.292	4.95
460.648	4.91
461.005	4.9
461.361	4.99
461.717	4.92
462.073	4.99
462.429	4.96
462.785	5.01
463.141	5.16
463.496	5.19
463.852	4.99
464.208	5.16
464.564	5.11
464.919	5.08
465.275	5.17
465.631	5.13
465.986	5.17
466.342	4.82
466.697	5.23
467.052	5.06
467.408	5.04
467.763	5.17
468.118	5.21
468.473	5.21
468.829	5.12
469.184	5.13
469.539	5.13
469.894	5.13
470.249	5.27
470.603	5.14
470.958	5.16
471.313	5.02
471.668	4.96
472.023	5.17
472.377	5.1
472.732	5.14
473.086	5.26
473.441	5.27
473.795	5.12
474.15	5.2
474.504	5.13
474.859	5.14
475.213	5.34
475.567	5.31
475.921	5.05
476.275	5.37
476.63	5.34
476.984	5.09
477.338	5.22
477.692	5.14
478.045	5.23
478.399	5.27
478.753	5.2
479.107	5.24
479.461	5.31
479.814	5.25
480.168	5.22
480.521	5.21
480.875	5.31
481.228	5.21
481.582	5.18
481.935	5.23
482.289	5.09
482.642	5.09
482.995	5.3
483.348	5.24
483.701	5.1
484.055	5.07
484.408	5.04
484.761	5.03
485.114	4.89
485.466	4.88
485.819	4.89
486.172	4.91
486.525	4.94
486.878	4.99
487.23	5.04
487.583	5.11
487.936	5.13
488.288	5.1
488.641	5.09
488.993	5
489.345	5.01
489.698	5
490.05	5.07
490.402	5.08
490.754	5.14
491.107	5.15
491.459	5.24
491.811	5.21
492.163	5.18
492.515	5.15
492.866	5.13
493.218	5.08
493.57	5.1
493.922	5.1
494.274	5.12
494.625	5.26
494.977	5.18
495.328	5.24
495.68	5.33
496.031	5.37
496.383	5.4
496.734	5.25
497.086	5.28
497.437	5.48
497.788	5.37
498.139	5.29
498.49	5.39
498.842	5.23
499.193	5.27
499.544	5.43
499.894	5.39
500.245	5.36
500.596	5.34
500.947	5.35
501.298	5.36
501.648	5.43
501.999	5.53
502.35	5.47
502.7	5.58
503.051	5.48
503.401	5.45
503.752	5.49
504.102	5.35
504.452	5.39
504.803	5.38
505.153	5.45
505.503	5.53
505.853	5.44
506.203	5.57
506.553	5.49
506.903	5.51
507.253	5.56
507.603	5.46
507.953	5.57
508.303	5.6
508.652	5.57
509.002	5.45
509.352	5.55
509.701	5.56
510.051	5.52
510.4	5.51
510.75	5.53
511.099	5.49
511.449	5.56
511.798	5.6
512.147	5.62
512.496	5.67
512.846	5.63
513.195	5.59
513.544	5.49
513.893	5.7
514.242	5.56
514.591	5.72
514.939	5.59
515.288	5.7
515.637	5.62
515.986	5.68
516.334	5.68
516.683	5.67
517.032	5.7
517.38	5.73
517.729	5.67
518.077	5.67
518.426	5.76
518.774	5.75
519.122	5.82
519.47	5.63
519.819	5.55
520.167	5.57
520.515	5.59
520.863	5.68
521.211	5.58
521.559	5.67
521.907	5.61
522.255	5.79
522.602	5.58
522.95	5.77
523.298	5.74
523.645	5.81
523.993	5.84
524.341	5.84
524.688	5.76
525.036	5.93
525.383	5.91
525.73	5.8
526.078	5.8
526.425	5.97
526.772	5.89
527.119	5.73
527.466	5.87
527.814	5.76
528.161	5.74
528.508	5.82
528.854	5.82
529.201	5.81
529.548	5.74
529.895	5.7
530.242	5.63
530.588	5.67
530.935	5.7
531.282	5.67
531.628	5.75
531.975	5.84
532.321	5.87
532.667	5.86
533.014	5.97
533.36	5.91
533.706	5.82
534.052	5.95
534.399	5.95
534.745	5.87
535.091	5.88
535.437	5.91
535.783	5.82
536.129	5.85
536.474	5.97
536.82	5.94
537.166	6.12
537.512	5.99
537.857	6.07
538.203	6.06
538.549	6.09
538.894	6.18
539.239	6.11
539.585	6.2
539.93	6.14
540.276	6.24
540.621	6.2
540.966	6.21
541.311	6.24
541.656	6.21
542.001	6.2
542.346	6.14
542.691	6.08
543.036	6.03
543.381	6.1
543.726	6.11
544.071	6.11
544.415	6.23
544.76	6.18
545.105	6.26
545.449	6.33
545.794	6.34
546.138	6.41
546.483	6.45
546.827	6.3
547.171	6.42
547.516	6.48
547.86	6.45
548.204	6.46
548.548	6.47
548.892	6.47
549.236	6.55
549.58	6.55
549.924	6.43
550.268	6.64
550.612	6.73
550.956	6.7
551.3	6.86
551.643	6.7
551.987	6.81
552.33	6.57
552.674	6.66
553.017	6.87
553.361	6.93
553.704	6.94
554.048	6.93
554.391	6.84
554.734	6.76
555.077	6.89
555.42	6.94
555.764	6.88
556.107	6.96
556.45	6.94
556.793	6.99
557.135	7.02
557.478	6.98
557.821	6.96
558.164	7.11
558.507	6.94
558.849	7.24
559.192	7.16
559.534	7.36
559.877	7.31
560.219	7.38
560.562	7.22
560.904	7.12
561.246	7.32
561.589	7.5
561.931	7.14
562.273	7.12
562.615	7.25
562.957	7.17
563.299	7.26
563.641	7.18
563.983	7.45
564.325	7.39
564.667	7.41
565.008	7.39
565.35	7.53
565.692	7.41
566.033	7.32
566.375	7.43
566.716	7.5
567.058	7.37
567.399	7.66
567.741	7.38
568.082	7.55
568.423	7.48
568.764	7.47
569.105	7.59
569.447	7.55
569.788	7.47
570.129	7.77
570.47	7.71
570.811	7.58
571.151	7.7
571.492	7.65
571.833	7.73
572.174	7.82
572.514	7.64
572.855	7.76
573.195	7.74
573.536	7.82
573.876	7.77
574.217	7.81
574.557	7.92
574.898	7.71
575.238	7.95
575.578	7.84
575.918	7.99
576.258	7.98
576.598	8.06
576.938	8.02
577.278	8.08
577.618	8.24
577.958	8.11
578.298	8.23
578.638	8.1
578.977	8.31
579.317	8.23
579.657	7.98
579.996	8.51
580.336	8.34
580.675	8.71
581.014	8.32
581.354	8.44
581.693	8.6
582.032	8.57
582.372	8.38
582.711	8.53
583.05	8.48
583.389	8.43
583.728	8.51
584.067	8.53
584.406	8.82
584.745	8.56
585.083	8.45
585.422	8.86
585.761	8.83
586.1	8.96
586.438	8.9
586.777	8.88
587.115	8.78
587.454	9.09
587.792	8.78
588.13	9.05
588.469	9.04
588.807	8.86
589.145	9.23
589.483	9
589.821	9.08
590.159	9.09
590.497	9.19
590.835	9.05
591.173	9.12
591.511	9.1
591.849	9.02
592.187	9.07
592.524	9.24
592.862	9.25
593.2	9.29
593.537	9.19
593.875	9.32
594.212	9.09
594.55	9.2
594.887	9.25
595.224	9.55
595.561	9.45
595.899	9.62
596.236	9.55
596.573	9.69
596.91	9.34
597.247	9.63
597.584	9.55
597.921	9.58
598.258	9.42
598.594	9.6
598.931	9.49
599.268	9.53
599.604	9.56
599.941	9.65
600.277	9.53
600.614	9.67
600.95	9.72
601.287	9.8
601.623	9.9
601.959	9.81
602.296	9.75
602.632	9.72
602.968	9.84
603.304	9.86
603.64	10.3
603.976	9.96
604.312	9.99
604.648	10.11
604.984	9.94
605.319	9.96
605.655	10.23
605.991	10.02
606.326	10.11
606.662	10.26
606.998	10.4
607.333	10.08
607.668	10.11
608.004	10.34
608.339	10.46
608.674	10.55
609.01	10.27
609.345	10.61
609.68	10.39
610.015	10.61
610.35	10.77
610.685	10.51
611.02	10.49
611.355	10.56
611.689	10.43
612.024	10.47
612.359	10.58
612.694	10.58
613.028	10.83
613.363	10.55
613.697	10.86
614.032	10.76
614.366	11
614.7	11.09
615.035	10.99
615.369	10.98
615.703	10.82
616.037	11.3
616.371	10.83
616.705	10.82
617.039	11.39
617.373	10.73
617.707	11.3
618.041	11.07
618.375	11
618.709	11.3
619.042	11.17
619.376	11.41
619.71	11.56
620.043	11.31
620.377	11.47
620.71	11.54
621.043	11.37
621.377	11.17
621.71	11.42
622.043	11.59
622.376	11.81
622.709	11.78
623.043	11.92
623.376	11.87
623.709	11.74
624.041	11.91
624.374	11.63
624.707	11.97
625.04	11.95
625.373	11.97
625.705	11.95
626.038	12.05
626.37	11.61
626.703	11.88
627.035	12.12
627.368	12.12
627.7	11.83
628.032	12.39
628.365	11.98
628.697	12.27
629.029	12.25
629.361	12.55
629.693	12.62
630.025	12.25
630.357	12.3
630.689	12.24
631.021	12.63
631.353	12.7
631.684	12.22
632.016	12.47
632.348	12.69
632.679	12.64
633.011	12.8
633.342	12.68
633.674	12.31
634.005	12.32
634.336	12.92
634.668	12.87
634.999	12.81
635.33	13.02
635.661	12.96
635.992	13.06
636.323	12.85
636.654	12.75
636.985	12.95
637.316	12.93
637.647	13
637.977	13.3
638.308	13
638.639	12.96
638.969	13.29
639.3	12.89
639.63	13.12
639.961	12.84
640.291	13.16
640.622	13.88
640.952	13.3
641.282	13.46
641.612	14.06
641.943	13.51
642.273	13.4
642.603	13.16
642.933	13.54
643.263	13.34
643.592	13.55
643.922	13.64
644.252	13.98
644.582	13.41
644.911	14.02
645.241	13.91
645.571	13.96
645.9	13.77
646.23	13.92
646.559	13.84
646.888	14.29
647.218	13.49
647.547	13.58
647.876	13.68
648.205	14.06
648.534	14
648.863	14.33
649.192	14.04
649.521	14.47
649.85	14.27
650.179	14.19
650.508	14.46
650.837	14.19
651.165	13.93
651.494	14.26
651.822	14.08
652.151	14.36
652.479	14.26
652.808	14.38
653.136	14.15
653.465	14.55
653.793	14.72
654.121	14.54
654.449	14.91
654.777	14.84
655.105	14.69
655.433	14.68
655.761	15.07
656.089	14.6
656.417	14.96
656.745	14.74
657.073	15.2
657.4	14.48
657.728	15.15
658.056	15.13
658.383	14.89
658.711	15.12
659.038	15.05
659.365	15.16
659.693	14.84
660.02	15.34
660.347	15.22
660.674	15.26
661.001	15.22
661.329	15.05
661.656	14.89
661.982	14.9
662.309	15.47
662.636	15.48
662.963	15.3
663.29	15.36
663.616	15.63
663.943	15.79
664.27	16.4
664.596	15.88
664.923	15.44
665.249	15.98
665.576	16.19
665.902	15.74
666.228	15.32
666.554	15.75
666.881	15.62
667.207	15.76
667.533	15.66
667.859	15.46
668.185	16.56
668.511	16.16
668.837	15.57
669.162	15.76
669.488	16.04
669.814	16.03
670.139	16.17
670.465	15.25
670.791	16.72
671.116	16.17
671.442	16.2
671.767	16.6
672.092	16.62
672.418	16.47
672.743	16.41
673.068	15.79
673.393	16.37
673.718	15.96
674.043	15.78
674.368	16.28
674.693	16.44
675.018	16.46
675.343	16.57
675.667	17.29
675.992	16.32
676.317	17.44
676.641	16.83
676.966	16.57
677.29	16.59
677.615	17.04
677.939	17.28
678.264	17.37
678.588	17.25
678.912	17.51
679.236	17.26
679.56	17.17
679.885	16.97
680.209	17.41
680.532	17.42
680.856	17.77
681.18	17.44
681.504	17.08
681.828	17.52
682.152	17.86
682.475	17.19
682.799	17.86
683.122	17.38
683.446	17.46
683.769	17.58
684.093	17.19
684.416	17.25
684.739	17.15
685.062	17.53
685.386	17.94
685.709	17.44
686.032	17.7
686.355	17.93
686.678	17.43
687.001	17.4
