Data from 0032_crown_Reflection__2__159.txt Node

Date: Thu Oct 20 22:10:48 CDT 2022
User: ToomeyLab
Spectrometer: FLMS14357
Trigger mode: 0
Integration Time (sec): 1.000000E-2
Scans to average: 100
Electric dark correction enabled: true
Nonlinearity correction enabled: false
Boxcar width: 0
XAxis mode: Wavelengths
Number of Pixels in Spectrum: 2048
>>>>>Begin Spectral Data<<<<<
189.047	57.64
189.435	57.64
189.823	57.64
190.211	-15.25
190.599	-35.87
190.987	1040.71
191.375	94.63
191.763	265.44
192.151	108.14
192.538	383.44
192.926	59.14
193.314	561.16
193.702	922.49
194.089	86.54
194.477	68.97
194.864	486.4
195.252	58.19
195.639	981.68
196.027	87.43
196.414	61.43
196.801	-373.45
197.189	-72.02
197.576	324.7
197.963	254.22
198.351	-31.28
198.738	-49.3
199.125	3.19
199.512	-6.93
199.899	-45.42
200.286	-63.7
200.673	-9.68
201.06	21.5
201.447	-0.27
201.833	-50.13
202.22	-17.01
202.607	1.89
202.994	-5.5
203.38	-54.55
203.767	15.76
204.154	-26.3
204.54	-29.39
204.927	14.37
205.313	29.78
205.699	2.3
206.086	-32.3
206.472	11.14
206.858	1.13
207.245	-18.66
207.631	-56.27
208.017	-32.57
208.403	-42.67
208.789	3.05
209.175	32.32
209.561	2.3
209.947	22.51
210.333	3.65
210.719	-12.61
211.105	24.71
211.491	-75.94
211.876	-49.5
212.262	16.24
212.648	4.56
213.034	3.82
213.419	-6.09
213.805	-17.83
214.19	-28.44
214.576	-23.14
214.961	-45.58
215.346	4.35
215.732	4.84
216.117	-16.96
216.502	-3.41
216.888	-13.75
217.273	-51.11
217.658	11.77
218.043	21.48
218.428	-20.63
218.813	23.01
219.198	2.79
219.583	15.96
219.968	25.31
220.353	-10.26
220.738	4.05
221.122	5.95
221.507	-0.06
221.892	7.23
222.276	0.74
222.661	0.41
223.046	15.62
223.43	-0.72
223.815	-0.29
224.199	-7.03
224.583	0.28
224.968	6.63
225.352	6.95
225.736	12.32
226.121	-0.41
226.505	1.53
226.889	3.17
227.273	-4.87
227.657	1.6
228.041	3.46
228.425	5.77
228.809	6.3
229.193	5.91
229.577	3.36
229.961	4.74
230.344	4.73
230.728	4.71
231.112	4.86
231.495	4.68
231.879	5.7
232.263	3.33
232.646	4.36
233.03	4.91
233.413	0.32
233.797	4.12
234.18	2.86
234.563	2.88
234.946	4.48
235.33	4.34
235.713	4.41
236.096	2.96
236.479	4.87
236.862	5.39
237.245	3.19
237.628	2.98
238.011	4.34
238.394	6.08
238.777	4.12
239.16	2.76
239.543	2.37
239.925	3.93
240.308	5.17
240.691	6.27
241.073	4.84
241.456	4.28
241.838	4.11
242.221	3.81
242.603	4.95
242.986	4.68
243.368	4.73
243.75	4.85
244.133	5
244.515	4.4
244.897	4.27
245.279	3.38
245.661	5.03
246.043	4.86
246.425	4.7
246.807	4.6
247.189	4.74
247.571	4.77
247.953	4.67
248.335	4.77
248.717	4.68
249.098	4.68
249.48	4.5
249.862	4.5
250.243	4.27
250.625	5.08
251.006	4.48
251.388	4.44
251.769	4.78
252.151	4.83
252.532	5.04
252.913	4.01
253.295	4.63
253.676	4.9
254.057	4.11
254.438	4.38
254.819	4.83
255.2	4.46
255.581	3.93
255.962	5.49
256.343	3.67
256.724	4.75
257.105	3.7
257.486	4.59
257.867	4.93
258.247	4.44
258.628	4.44
259.009	4.08
259.389	4.73
259.77	4.27
260.15	3.96
260.531	4.42
260.911	4.36
261.292	4.58
261.672	4.34
262.052	4.51
262.432	4.71
262.813	4.35
263.193	4.15
263.573	3.94
263.953	4.04
264.333	4.29
264.713	4.74
265.093	3.35
265.473	4.41
265.853	4.76
266.233	4.62
266.612	4.45
266.992	3.81
267.372	4.63
267.752	3.96
268.131	4.81
268.511	4.86
268.89	3.77
269.27	4.2
269.649	3.73
270.029	3.89
270.408	4.27
270.787	4.22
271.167	4.44
271.546	3.9
271.925	4.47
272.304	4.59
272.683	3.96
273.062	3.88
273.441	4.15
273.82	4.48
274.199	3.86
274.578	3.94
274.957	4
275.336	4.22
275.715	3.89
276.093	4.95
276.472	4.03
276.851	4.83
277.229	4.11
277.608	4.08
277.986	3.93
278.365	3.72
278.743	3.92
279.122	3.71
279.5	3.76
279.878	4.36
280.257	4.32
280.635	3.97
281.013	3.7
281.391	4.49
281.769	4.02
282.147	3.65
282.525	3.07
282.903	4.08
283.281	3.9
283.659	3.96
284.037	3.56
284.415	3.68
284.792	3.68
285.17	4.66
285.548	3.83
285.925	4.03
286.303	3.84
286.68	4.14
287.058	3.96
287.435	3.93
287.813	3.94
288.19	4.05
288.567	4.16
288.945	4.18
289.322	3.84
289.699	3.67
290.076	3.81
290.453	3.72
290.83	3.94
291.207	4.3
291.584	4.1
291.961	4.04
292.338	3.73
292.715	3.88
293.092	4.24
293.469	4.09
293.845	4.17
294.222	4.05
294.599	4.5
294.975	3.55
295.352	4.23
295.728	3.97
296.105	3.97
296.481	3.8
296.858	3.8
297.234	4.14
297.61	3.94
297.986	3.9
298.363	4.03
298.739	3.73
299.115	3.91
299.491	3.85
299.867	3.51
300.243	3.77
300.619	4.08
300.995	3.85
301.371	3.86
301.746	3.89
302.122	3.91
302.498	4.33
302.874	4.26
303.249	4.42
303.625	3.48
304	4.3
304.376	3.85
304.751	3.92
305.127	3.22
305.502	4.19
305.878	4.11
306.253	3.64
306.628	3.87
307.003	3.98
307.378	3.47
307.754	4.15
308.129	3.89
308.504	4.09
308.879	3.44
309.254	3.87
309.629	3.86
310.003	4.17
310.378	3.95
310.753	4.26
311.128	4
311.502	3.97
311.877	4.16
312.252	3.82
312.626	4.1
313.001	4.04
313.375	4
313.75	3.88
314.124	4.09
314.498	3.65
314.873	4
315.247	3.91
315.621	4.01
315.995	4.03
316.369	4.67
316.743	3.62
317.117	4.53
317.491	4.32
317.865	3.79
318.239	3.8
318.613	4.23
318.987	3.74
319.361	4.1
319.734	3.81
320.108	4.1
320.482	4.09
320.855	4.09
321.229	4.72
321.602	2.89
321.976	3.61
322.349	4.01
322.723	4.29
323.096	4.26
323.469	4.23
323.843	4.12
324.216	4.09
324.589	4.49
324.962	3.64
325.335	4.17
325.708	3.99
326.081	4.49
326.454	4.48
326.827	3.78
327.2	4.21
327.573	4.05
327.945	3.77
328.318	3.76
328.691	4.14
329.063	4.19
329.436	3.97
329.809	4.3
330.181	4.43
330.553	3.78
330.926	4.19
331.298	4.05
331.671	4.44
332.043	4.06
332.415	4.35
332.787	4.12
333.159	4.31
333.532	3.95
333.904	4.17
334.276	4.11
334.648	3.7
335.02	4.23
335.391	3.88
335.763	3.9
336.135	3.94
336.507	3.48
336.879	4.81
337.25	4.02
337.622	4.36
337.993	4.11
338.365	4.41
338.736	4.1
339.108	3.82
339.479	4.03
339.851	3.94
340.222	3.91
340.593	4.01
340.964	4.61
341.336	3.96
341.707	3.78
342.078	4.05
342.449	3.9
342.82	4.24
343.191	4.12
343.562	4.32
343.933	4.35
344.303	4.16
344.674	4.17
345.045	4.64
345.416	4.05
345.786	4.08
346.157	4.12
346.527	4.08
346.898	4.29
347.268	4.04
347.639	4.17
348.009	4.25
348.38	4.38
348.75	3.85
349.12	4.02
349.49	4.15
349.861	4.17
350.231	4.32
350.601	4.37
350.971	4.15
351.341	4.69
351.711	4.45
352.081	3.88
352.45	4.28
352.82	4.01
353.19	4.13
353.56	4.46
353.929	4.26
354.299	4.39
354.669	3.94
355.038	3.83
355.408	3.98
355.777	4.24
356.147	4.2
356.516	4.01
356.885	3.79
357.254	4.36
357.624	4.3
357.993	3.96
358.362	4.48
358.731	4.66
359.1	3.89
359.469	4.17
359.838	4.01
360.207	4.55
360.576	4.13
360.945	4.28
361.314	4.28
361.682	4.25
362.051	4.21
362.42	3.99
362.788	4.18
363.157	4.14
363.525	4.24
363.894	4.31
364.262	4.18
364.631	4.2
364.999	4.07
365.367	4.34
365.735	4.29
366.104	4.15
366.472	3.92
366.84	4.47
367.208	4.22
367.576	4.09
367.944	4.48
368.312	3.98
368.68	4.36
369.048	4.34
369.416	4.16
369.783	4.56
370.151	4.58
370.519	4.43
370.886	4.4
371.254	4.71
371.621	4.19
371.989	4.65
372.356	4.45
372.724	4.46
373.091	4.5
373.458	4
373.826	4.4
374.193	4.39
374.56	4.06
374.927	4.21
375.294	4.09
375.661	4.52
376.028	4.26
376.395	4.47
376.762	4.21
377.129	4.22
377.496	4.14
377.863	4.36
378.229	4.21
378.596	4.2
378.963	4.3
379.329	4.32
379.696	4.3
380.062	4.49
380.429	4.64
380.795	4.51
381.161	4.54
381.528	4.38
381.894	4.44
382.26	4.3
382.626	4.68
382.993	4.25
383.359	4.36
383.725	4.38
384.091	4.7
384.457	4.32
384.823	4.39
385.188	4.41
385.554	4.12
385.92	3.97
386.286	4.25
386.651	4.35
387.017	4.32
387.383	4.47
387.748	4.59
388.114	4.65
388.479	4.4
388.845	4.39
389.21	4.38
389.575	4.49
389.94	4.5
390.306	4.4
390.671	4.54
391.036	4.52
391.401	4.14
391.766	4.72
392.131	4.45
392.496	4.25
392.861	4.08
393.226	4.43
393.591	4.51
393.956	4.43
394.32	4.63
394.685	4.83
395.05	4.25
395.414	4.43
395.779	4.39
396.143	4.33
396.508	4.62
396.872	4.56
397.236	4.44
397.601	4.89
397.965	4.62
398.329	4.59
398.694	4.62
399.058	4.36
399.422	4.58
399.786	4.41
400.15	4.42
400.514	4.73
400.878	4.4
401.242	4.66
401.605	4.65
401.969	4.38
402.333	4.57
402.697	4.74
403.06	4.32
403.424	4.68
403.787	4.51
404.151	4.44
404.514	4.54
404.878	4.43
405.241	4.53
405.604	4.58
405.968	4.73
406.331	4.53
406.694	4.51
407.057	4.69
407.42	4.51
407.783	4.36
408.146	4.49
408.509	4.45
408.872	4.64
409.235	4.58
409.598	4.61
409.961	4.5
410.323	4.63
410.686	4.48
411.049	4.4
411.411	4.38
411.774	4.43
412.136	4.67
412.499	4.69
412.861	4.6
413.223	4.54
413.586	4.55
413.948	4.74
414.31	4.46
414.672	4.7
415.035	4.57
415.397	4.52
415.759	4.74
416.121	4.47
416.483	4.57
416.845	4.59
417.206	4.59
417.568	4.75
417.93	4.46
418.292	4.7
418.653	4.68
419.015	4.64
419.377	4.62
419.738	4.6
420.1	4.61
420.461	4.58
420.822	4.61
421.184	4.55
421.545	4.66
421.906	4.56
422.267	4.49
422.629	4.5
422.99	4.48
423.351	4.52
423.712	4.49
424.073	4.56
424.434	4.55
424.795	4.57
425.155	4.61
425.516	4.61
425.877	4.51
426.238	4.63
426.598	4.56
426.959	4.6
427.32	4.67
427.68	4.61
428.041	4.65
428.401	4.73
428.761	4.7
429.122	4.59
429.482	4.69
429.842	4.68
430.202	4.74
430.563	4.7
430.923	5.02
431.283	4.64
431.643	4.66
432.003	4.69
432.363	4.77
432.722	5.05
433.082	4.78
433.442	4.72
433.802	4.7
434.161	4.79
434.521	4.66
434.881	4.67
435.24	4.56
435.6	4.7
435.959	4.85
436.319	4.73
436.678	4.52
437.037	4.85
437.396	4.86
437.756	4.85
438.115	4.7
438.474	4.68
438.833	4.7
439.192	4.8
439.551	4.69
439.91	4.84
440.269	4.72
440.628	4.67
440.987	4.78
441.345	4.9
441.704	4.75
442.063	4.91
442.421	4.71
442.78	4.65
443.138	4.74
443.497	4.7
443.855	4.78
444.214	4.79
444.572	4.94
444.93	4.72
445.288	4.72
445.647	4.93
446.005	4.76
446.363	4.79
446.721	4.69
447.079	4.71
447.437	4.72
447.795	4.75
448.153	4.82
448.51	4.75
448.868	4.81
449.226	4.8
449.584	4.82
449.941	4.84
450.299	4.85
450.656	4.83
451.014	4.92
451.371	4.93
451.729	4.63
452.086	4.96
452.443	4.9
452.801	4.76
453.158	4.8
453.515	4.96
453.872	4.8
454.229	4.97
454.586	4.91
454.943	4.7
455.3	4.82
455.657	4.85
456.014	4.97
456.371	4.83
456.727	5.02
457.084	4.78
457.441	4.94
457.797	4.98
458.154	5
458.51	4.85
458.867	4.82
459.223	5.14
459.58	4.93
459.936	4.88
460.292	4.83
460.648	4.85
461.005	4.79
461.361	4.85
461.717	4.84
462.073	4.92
462.429	5
462.785	5.01
463.141	5.05
463.496	5.08
463.852	5.04
464.208	5.13
464.564	5.03
464.919	5.13
465.275	5.16
465.631	4.85
465.986	5.09
466.342	4.98
466.697	4.9
467.052	4.97
467.408	5
467.763	5.01
468.118	5.04
468.473	5.1
468.829	5.1
469.184	5.1
469.539	4.92
469.894	4.97
470.249	5.11
470.603	5.07
470.958	5.05
471.313	4.88
471.668	4.95
472.023	5
472.377	5.07
472.732	5.01
473.086	5.07
473.441	5.06
473.795	5.09
474.15	5.05
474.504	5
474.859	5.11
475.213	5.17
475.567	5.18
475.921	4.89
476.275	5.28
476.63	5.26
476.984	5.11
477.338	5.13
477.692	5.05
478.045	4.99
478.399	5.2
478.753	4.94
479.107	5.08
479.461	5.15
479.814	5.06
480.168	5.12
480.521	5.09
480.875	5.1
481.228	5.14
481.582	5.11
481.935	5.07
482.289	4.95
482.642	5
482.995	5.13
483.348	5.12
483.701	4.98
484.055	4.95
484.408	4.95
484.761	4.84
485.114	4.79
485.466	4.79
485.819	4.84
486.172	4.9
486.525	4.93
486.878	5
487.23	5.01
487.583	4.99
487.936	5.04
488.288	4.95
488.641	4.92
488.993	4.87
489.345	4.91
489.698	4.93
490.05	4.96
490.402	5.06
490.754	5.1
491.107	4.96
491.459	5.14
491.811	5.1
492.163	5.03
492.515	4.96
492.866	5
493.218	4.93
493.57	4.96
493.922	5.05
494.274	5.06
494.625	5.09
494.977	5.19
495.328	5.15
495.68	5.14
496.031	5.11
496.383	5.25
496.734	5.12
497.086	5.14
497.437	5.29
497.788	5.33
498.139	5.16
498.49	5.23
498.842	5.08
499.193	5.21
499.544	5.2
499.894	5.17
500.245	5.32
500.596	5.26
500.947	5.22
501.298	5.3
501.648	5.17
501.999	5.16
502.35	5.27
502.7	5.22
503.051	5.39
503.401	5.28
503.752	5.32
504.102	5.19
504.452	5.33
504.803	5.13
505.153	5.34
505.503	5.43
505.853	5.18
506.203	5.37
506.553	5.34
506.903	5.33
507.253	5.29
507.603	5.22
507.953	5.36
508.303	5.43
508.652	5.25
509.002	5.32
509.352	5.38
509.701	5.33
510.051	5.34
510.4	5.2
510.75	5.2
511.099	5.25
511.449	5.41
511.798	5.31
512.147	5.3
512.496	5.47
512.846	5.36
513.195	5.37
513.544	5.29
513.893	5.3
514.242	5.3
514.591	5.44
514.939	5.42
515.288	5.34
515.637	5.43
515.986	5.34
516.334	5.36
516.683	5.39
517.032	5.48
517.38	5.43
517.729	5.41
518.077	5.31
518.426	5.35
518.774	5.38
519.122	5.47
519.47	5.25
519.819	5.26
520.167	5.31
520.515	5.2
520.863	5.28
521.211	5.33
521.559	5.32
521.907	5.41
522.255	5.32
522.602	5.37
522.95	5.34
523.298	5.43
523.645	5.49
523.993	5.39
524.341	5.57
524.688	5.48
525.036	5.4
525.383	5.54
525.73	5.35
526.078	5.43
526.425	5.35
526.772	5.33
527.119	5.24
527.466	5.42
527.814	5.34
528.161	5.37
528.508	5.32
528.854	5.38
529.201	5.28
529.548	5.24
529.895	5.15
530.242	5.2
530.588	5.2
530.935	5.23
531.282	5.26
531.628	5.31
531.975	5.35
532.321	5.4
532.667	5.42
533.014	5.46
533.36	5.38
533.706	5.32
534.052	5.37
534.399	5.38
534.745	5.29
535.091	5.33
535.437	5.31
535.783	5.29
536.129	5.34
536.474	5.41
536.82	5.44
537.166	5.4
537.512	5.46
537.857	5.37
538.203	5.36
538.549	5.41
538.894	5.39
539.239	5.43
539.585	5.4
539.93	5.5
540.276	5.56
540.621	5.5
540.966	5.47
541.311	5.45
541.656	5.5
542.001	5.33
542.346	5.36
542.691	5.28
543.036	5.28
543.381	5.31
543.726	5.34
544.071	5.38
544.415	5.41
544.76	5.31
545.105	5.49
545.449	5.41
545.794	5.54
546.138	5.53
546.483	5.49
546.827	5.42
547.171	5.5
547.516	5.57
547.86	5.57
548.204	5.52
548.548	5.54
548.892	5.51
549.236	5.54
549.58	5.58
549.924	5.5
550.268	5.56
550.612	5.64
550.956	5.7
551.3	5.68
551.643	5.61
551.987	5.7
552.33	5.68
552.674	5.48
553.017	5.66
553.361	5.68
553.704	5.65
554.048	5.67
554.391	5.62
554.734	5.57
555.077	5.64
555.42	5.74
555.764	5.66
556.107	5.5
556.45	5.64
556.793	5.53
557.135	5.77
557.478	5.73
557.821	5.66
558.164	5.63
558.507	5.7
558.849	5.77
559.192	5.96
559.534	5.69
559.877	5.69
560.219	5.87
560.562	5.67
560.904	5.7
561.246	5.75
561.589	5.92
561.931	5.6
562.273	5.65
562.615	5.76
562.957	5.56
563.299	5.72
563.641	5.57
563.983	5.86
564.325	5.84
564.667	5.85
565.008	5.69
565.35	5.77
565.692	5.7
566.033	5.37
566.375	5.74
566.716	5.79
567.058	5.61
567.399	5.71
567.741	5.7
568.082	5.73
568.423	5.77
568.764	5.65
569.105	5.67
569.447	5.77
569.788	5.76
570.129	5.8
570.47	5.65
570.811	5.62
571.151	5.86
571.492	5.53
571.833	5.76
572.174	5.93
572.514	5.82
572.855	5.92
573.195	5.7
573.536	5.74
573.876	5.56
574.217	5.68
574.557	5.82
574.898	5.65
575.238	5.88
575.578	5.68
575.918	5.93
576.258	5.76
576.598	5.81
576.938	5.83
577.278	5.73
577.618	5.91
577.958	5.63
578.298	5.86
578.638	5.8
578.977	5.84
579.317	5.8
579.657	5.78
579.996	6.01
580.336	6.1
580.675	6.18
581.014	5.9
581.354	5.79
581.693	5.94
582.032	5.81
582.372	5.87
582.711	5.72
583.05	5.93
583.389	5.92
583.728	6.02
584.067	5.96
584.406	5.88
584.745	5.77
585.083	5.74
585.422	6.1
585.761	6.12
586.1	6.04
586.438	6.05
586.777	5.89
587.115	5.85
587.454	6.07
587.792	6
588.13	6.07
588.469	6.35
588.807	5.72
589.145	5.84
589.483	5.89
589.821	5.82
590.159	6.03
590.497	5.95
590.835	5.82
591.173	5.95
591.511	6.04
591.849	5.91
592.187	5.6
592.524	5.95
592.862	6.05
593.2	6.05
593.537	5.93
593.875	6.05
594.212	5.86
594.55	5.89
594.887	5.76
595.224	6.05
595.561	5.92
595.899	6.01
596.236	5.99
596.573	6.31
596.91	5.93
597.247	5.99
597.584	5.88
597.921	5.8
598.258	5.77
598.594	6
598.931	5.88
599.268	5.92
599.604	5.93
599.941	6.05
600.277	5.89
600.614	5.94
600.95	6.02
601.287	5.91
601.623	5.91
601.959	6.05
602.296	5.93
602.632	5.71
602.968	6.22
603.304	6.01
603.64	6.11
603.976	5.92
604.312	6.08
604.648	6.01
604.984	5.99
605.319	6.15
605.655	6.07
605.991	6.02
606.326	5.99
606.662	6.14
606.998	6.2
607.333	5.96
607.668	5.9
608.004	6.06
608.339	6.17
608.674	6.17
609.01	6.05
609.345	6.18
609.68	5.94
610.015	5.97
610.35	6.02
610.685	5.96
611.02	5.93
611.355	5.95
611.689	6.03
612.024	5.96
612.359	6.06
612.694	6.11
613.028	6
613.363	6.23
613.697	5.91
614.032	6.38
614.366	6.13
614.7	5.95
615.035	5.89
615.369	6.1
615.703	6.2
616.037	6.31
616.371	5.88
616.705	6.06
617.039	6.24
617.373	5.93
617.707	6.4
618.041	6.02
618.375	5.9
618.709	6.15
619.042	6.1
619.376	5.94
619.71	6.09
620.043	6.34
620.377	6.09
620.71	6.22
621.043	6.39
621.377	6.12
621.71	6.11
622.043	6.26
622.376	6.39
622.709	6.31
623.043	6.32
623.376	6.53
623.709	6.29
624.041	6.35
624.374	6.17
624.707	6.05
625.04	6.22
625.373	6.44
625.705	6.43
626.038	6.54
626.37	6.12
626.703	6.33
627.035	6.59
627.368	6.63
627.7	6.24
628.032	6.49
628.365	6
628.697	6.16
629.029	6.24
629.361	6.2
629.693	6.58
630.025	6.31
630.357	6.36
630.689	6.51
631.021	6.26
631.353	6.44
631.684	6.11
632.016	6.04
632.348	6.29
632.679	6.24
633.011	6.47
633.342	6.64
633.674	6.23
634.005	6.51
634.336	6.44
634.668	6.33
634.999	6.27
635.33	6.56
635.661	6.41
635.992	6.49
636.323	6.58
636.654	6.56
636.985	6.45
637.316	6.51
637.647	6.42
637.977	6.96
638.308	6.29
638.639	6.48
638.969	6.72
639.3	6.39
639.63	6.61
639.961	6.18
640.291	6.31
640.622	6.78
640.952	6.49
641.282	6.75
641.612	6.91
641.943	6.36
642.273	6.49
642.603	6.3
642.933	6.67
643.263	6.42
643.592	6.68
643.922	6.72
644.252	6.75
644.582	6.19
644.911	6.82
645.241	6.57
645.571	6.18
645.9	6.79
646.23	6.4
646.559	6.41
646.888	6.66
647.218	6.13
647.547	6.44
647.876	6.41
648.205	6.51
648.534	6.54
648.863	6.94
649.192	6.55
649.521	6.57
649.85	6.63
650.179	6.5
650.508	6.45
650.837	6.51
651.165	6.48
651.494	6.93
651.822	7.06
652.151	6.59
652.479	6.51
652.808	6.45
653.136	6.44
653.465	6.92
653.793	6.83
654.121	7.01
654.449	6.79
654.777	6.4
655.105	7.1
655.433	6.79
655.761	7.01
656.089	6.72
656.417	6.89
656.745	6.68
657.073	6.49
657.4	6.19
657.728	6.77
658.056	6.62
658.383	6.51
658.711	7.03
659.038	6.8
659.365	6.8
659.693	7.14
660.02	7.12
660.347	6.92
660.674	6.95
661.001	6.55
661.329	6.65
661.656	6.49
661.982	6.79
662.309	7.09
662.636	7.14
662.963	6.32
663.29	6.87
663.616	6.58
663.943	6.98
664.27	7.14
664.596	7.1
664.923	6.54
665.249	7.29
665.576	7.27
665.902	6.82
666.228	7.01
666.554	6.73
666.881	6.92
667.207	7.08
667.533	6.85
667.859	7.08
668.185	7.05
668.511	6.85
668.837	7.07
669.162	7.11
669.488	6.58
669.814	7.16
670.139	7.02
670.465	6.96
670.791	7.74
671.116	7.22
671.442	6.39
671.767	6.84
672.092	7.19
672.418	6.82
672.743	6.67
673.068	6.34
673.393	6.63
673.718	6.72
674.043	6.53
674.368	6.6
674.693	6.95
675.018	7.01
675.343	7.17
675.667	7.25
675.992	7.55
676.317	7.41
676.641	7.58
676.966	6.73
677.29	6.88
677.615	7.42
677.939	8.06
678.264	7.37
678.588	7.45
678.912	7.04
679.236	7.6
679.56	6.97
679.885	7.24
680.209	6.67
680.532	7.63
680.856	7.81
681.18	7.39
681.504	6.76
681.828	7.32
682.152	7.63
682.475	7.12
682.799	7.42
683.122	7.28
683.446	6.89
683.769	7.32
684.093	7.44
684.416	7.11
684.739	7.25
685.062	7.13
685.386	7.39
685.709	7.22
686.032	7.56
686.355	7.25
686.678	7.46
687.001	7.4
687.324	7.38
687.646	7.23
687.969	7.38
688.292	7.67
688.614	7.35
688.937	6.94
689.26	6.84
689.582	7.19
689.904	7.25
690.227	7.22
690.549	7.97
690.871	7.08
691.194	7.46
691.516	7
691.838	7.61
692.16	7.65
692.482	7.06
692.804	7.37
693.126	7.55
693.448	6.96
