Data from 0032_crown_Reflection__2__154.txt Node

Date: Thu Oct 20 22:07:50 CDT 2022
User: ToomeyLab
Spectrometer: FLMS14357
Trigger mode: 0
Integration Time (sec): 1.000000E-2
Scans to average: 100
Electric dark correction enabled: true
Nonlinearity correction enabled: false
Boxcar width: 0
XAxis mode: Wavelengths
Number of Pixels in Spectrum: 2048
>>>>>Begin Spectral Data<<<<<
189.047	78.06
189.435	78.06
189.823	78.06
190.211	116.9
190.599	-87.27
190.987	689.41
191.375	41.13
191.763	531.01
192.151	-63.86
192.538	261.99
192.926	88.96
193.314	587.05
193.702	206.61
194.089	104.91
194.477	-5.25
194.864	455.65
195.252	-17.03
195.639	386.63
196.027	69.18
196.414	9.85
196.801	-100.49
197.189	-79.95
197.576	197.85
197.963	72.49
198.351	-4.33
198.738	-58.55
199.125	-16.27
199.512	-13.08
199.899	-22.62
200.286	17.85
200.673	-3.55
201.06	38.54
201.447	20.98
201.833	-6.06
202.22	-14.06
202.607	26.47
202.994	-63.57
203.38	-73.82
203.767	-9.14
204.154	-11.96
204.54	-17.98
204.927	-9.01
205.313	-3.2
205.699	-24.42
206.086	-34.38
206.472	-18.35
206.858	-16.21
207.245	13.97
207.631	23.65
208.017	-44.15
208.403	-35.17
208.789	-5.92
209.175	-10.16
209.561	18.57
209.947	-17.46
210.333	7.09
210.719	-14.13
211.105	20.05
211.491	-47.02
211.876	-60.48
212.262	6.93
212.648	-15.98
213.034	-7.95
213.419	-37.98
213.805	-30.79
214.19	-19.41
214.576	-25.28
214.961	-19.29
215.346	-31.07
215.732	-10.58
216.117	-12.13
216.502	-8.13
216.888	-11.04
217.273	-10.9
217.658	7.51
218.043	0.79
218.428	-19.6
218.813	7.89
219.198	-15.45
219.583	11.89
219.968	18.99
220.353	10.06
220.738	7.86
221.122	17.02
221.507	2.89
221.892	-14.39
222.276	3.37
222.661	1.69
223.046	12.78
223.43	-13.33
223.815	-2.56
224.199	-1.16
224.583	1.5
224.968	1.79
225.352	7.58
225.736	1.82
226.121	-1.12
226.505	4.93
226.889	-0.96
227.273	-5.22
227.657	0.17
228.041	-6.25
228.425	-1.28
228.809	4.74
229.193	0.65
229.577	0.6
229.961	1.81
230.344	1.64
230.728	1.13
231.112	2.29
231.495	1.59
231.879	4.1
232.263	2.2
232.646	1.95
233.03	1.81
233.413	-0.27
233.797	2.6
234.18	0.62
234.563	0.5
234.946	1.68
235.33	0.67
235.713	1.66
236.096	0.74
236.479	2.43
236.862	3.3
237.245	1.09
237.628	1.68
238.011	3
238.394	2.22
238.777	2.53
239.16	2.74
239.543	1.04
239.925	2.56
240.308	2.79
240.691	3.85
241.073	1.3
241.456	2.28
241.838	1.68
242.221	1.22
242.603	2.27
242.986	2.06
243.368	2.17
243.75	2.34
244.133	2.17
244.515	2.35
244.897	2.2
245.279	1.02
245.661	2.14
246.043	2.83
246.425	2.88
246.807	3.15
247.189	2.48
247.571	2.61
247.953	2
248.335	2.17
248.717	2.12
249.098	2.17
249.48	1.98
249.862	2.25
250.243	2.09
250.625	2.34
251.006	2.15
251.388	1.7
251.769	2.1
252.151	2.3
252.532	1.51
252.913	1.83
253.295	2.12
253.676	2.55
254.057	1.2
254.438	2.65
254.819	2.18
255.2	2.52
255.581	1.8
255.962	2.57
256.343	1.77
256.724	1.48
257.105	1.61
257.486	1.79
257.867	2.72
258.247	2.84
258.628	1.96
259.009	1.58
259.389	1.53
259.77	2.52
260.15	2.27
260.531	2.18
260.911	1.69
261.292	2.2
261.672	2.01
262.052	2.22
262.432	2.26
262.813	1.79
263.193	2.33
263.573	2.76
263.953	2.37
264.333	1.68
264.713	1.69
265.093	1.71
265.473	1.84
265.853	1.88
266.233	2.14
266.612	2.51
266.992	1.5
267.372	2.99
267.752	2.29
268.131	2.64
268.511	2.02
268.89	1.91
269.27	2.37
269.649	1.77
270.029	1.96
270.408	1.59
270.787	1.9
271.167	1.74
271.546	1.36
271.925	2.53
272.304	1.95
272.683	1.9
273.062	1.92
273.441	2.14
273.82	2.23
274.199	1.67
274.578	1.93
274.957	1.58
275.336	2.02
275.715	2.13
276.093	2.84
276.472	2.25
276.851	2.18
277.229	2.14
277.608	1.65
277.986	1.78
278.365	1.45
278.743	1.78
279.122	2.19
279.5	2.3
279.878	2.6
280.257	2.36
280.635	1.76
281.013	1.66
281.391	2.78
281.769	2.12
282.147	1.53
282.525	1.51
282.903	2.05
283.281	1.59
283.659	1.69
284.037	1.58
284.415	1.78
284.792	1.68
285.17	2.3
285.548	1.97
285.925	1.69
286.303	1.9
286.68	2.18
287.058	2.05
287.435	1.82
287.813	1.57
288.19	1.82
288.567	2.11
288.945	2.05
289.322	1.7
289.699	1.52
290.076	1.87
290.453	1.67
290.83	1.97
291.207	2.26
291.584	2.04
291.961	1.93
292.338	1.63
292.715	1.89
293.092	2.5
293.469	1.98
293.845	2.19
294.222	2.42
294.599	3.26
294.975	1.38
295.352	2.34
295.728	1.79
296.105	2.68
296.481	2
296.858	2.18
297.234	2.17
297.61	1.95
297.986	1.76
298.363	1.82
298.739	2.08
299.115	2.2
299.491	1.93
299.867	2.02
300.243	2.17
300.619	2.38
300.995	1.69
301.371	2.23
301.746	1.77
302.122	2.42
302.498	2
302.874	2.48
303.249	2.37
303.625	2.17
304	2.62
304.376	2.4
304.751	2.45
305.127	1.52
305.502	2.52
305.878	2.1
306.253	1.9
306.628	1.81
307.003	2.13
307.378	1.61
307.754	2.04
308.129	2.15
308.504	1.85
308.879	1.81
309.254	2.18
309.629	2.14
310.003	1.92
310.378	2.29
310.753	2.45
311.128	2.04
311.502	2.39
311.877	2.2
312.252	1.97
312.626	2.28
313.001	1.97
313.375	2.53
313.75	1.72
314.124	1.91
314.498	1.93
314.873	1.8
315.247	1.65
315.621	2.12
315.995	1.85
316.369	2.36
316.743	2.01
317.117	2.34
317.491	2.53
317.865	2.29
318.239	2.63
318.613	2.62
318.987	2.26
319.361	2.68
319.734	2.19
320.108	2.28
320.482	2.15
320.855	2.6
321.229	2.2
321.602	1.23
321.976	2.31
322.349	2.62
322.723	3.2
323.096	2.09
323.469	2.41
323.843	2.52
324.216	2.01
324.589	2.48
324.962	2.08
325.335	2.32
325.708	2.15
326.081	2.62
326.454	2.21
326.827	2.3
327.2	2.63
327.573	2.54
327.945	2.47
328.318	1.98
328.691	2.58
329.063	3.05
329.436	2.6
329.809	2.75
330.181	2.41
330.553	2.06
330.926	2.14
331.298	2.32
331.671	2.54
332.043	2.53
332.415	2.31
332.787	2.81
333.159	2.51
333.532	2.35
333.904	2.61
334.276	2.13
334.648	2.14
335.02	2.92
335.391	2.67
335.763	2.62
336.135	2.32
336.507	2.32
336.879	2.75
337.25	2.06
337.622	2.15
337.993	2.23
338.365	2.54
338.736	2.14
339.108	2.24
339.479	2.78
339.851	2.54
340.222	2.25
340.593	2.44
340.964	2.87
341.336	2.05
341.707	2.25
342.078	2.23
342.449	2.41
342.82	2.47
343.191	2.31
343.562	2.46
343.933	2.38
344.303	2.4
344.674	2.45
345.045	2.75
345.416	2.23
345.786	2.25
346.157	2.24
346.527	2.17
346.898	2.52
347.268	2.55
347.639	2.84
348.009	2.54
348.38	2.48
348.75	1.97
349.12	2.49
349.49	2.32
349.861	2.96
350.231	2.34
350.601	2.87
350.971	2.57
351.341	2.84
351.711	2.45
352.081	2.04
352.45	2.57
352.82	2.38
353.19	2.55
353.56	2.36
353.929	2.63
354.299	2.71
354.669	2.46
355.038	2.17
355.408	2.34
355.777	2.7
356.147	2.82
356.516	2.94
356.885	2.18
357.254	2.65
357.624	2.39
357.993	2.41
358.362	2.75
358.731	2.78
359.1	2.15
359.469	2.57
359.838	2.53
360.207	2.96
360.576	2.46
360.945	2.85
361.314	2.81
361.682	2.62
362.051	2.57
362.42	2.49
362.788	2.5
363.157	2.42
363.525	2.75
363.894	2.86
364.262	2.56
364.631	2.41
364.999	2.53
365.367	2.7
365.735	2.68
366.104	2.66
366.472	2.46
366.84	2.74
367.208	2.74
367.576	2.74
367.944	2.87
368.312	2.48
368.68	2.65
369.048	2.48
369.416	2.45
369.783	2.58
370.151	3.08
370.519	2.56
370.886	2.42
371.254	2.92
371.621	2.65
371.989	2.84
372.356	2.52
372.724	2.57
373.091	2.68
373.458	2.45
373.826	2.76
374.193	2.53
374.56	2.52
374.927	2.31
375.294	2.75
375.661	2.68
376.028	2.6
376.395	3.04
376.762	2.67
377.129	2.53
377.496	2.28
377.863	2.74
378.229	2.7
378.596	2.49
378.963	2.69
379.329	2.98
379.696	2.64
380.062	2.83
380.429	3.21
380.795	2.94
381.161	2.81
381.528	2.87
381.894	2.53
382.26	2.52
382.626	2.93
382.993	2.45
383.359	2.72
383.725	2.98
384.091	2.83
384.457	2.75
384.823	2.72
385.188	2.61
385.554	2.44
385.92	3.02
386.286	2.64
386.651	2.75
387.017	2.74
387.383	2.98
387.748	3.15
388.114	2.96
388.479	2.86
388.845	2.88
389.21	2.93
389.575	2.68
389.94	3.07
390.306	2.85
390.671	2.59
391.036	2.81
391.401	2.67
391.766	2.84
392.131	2.83
392.496	2.82
392.861	2.63
393.226	3.02
393.591	3.01
393.956	2.91
394.32	2.87
394.685	3.05
395.05	2.95
395.414	2.8
395.779	2.69
396.143	2.81
396.508	2.96
396.872	3.03
397.236	2.76
397.601	3.22
397.965	2.99
398.329	2.84
398.694	2.89
399.058	2.53
399.422	2.84
399.786	2.92
400.15	2.86
400.514	3.24
400.878	2.84
401.242	2.81
401.605	3.02
401.969	2.88
402.333	2.72
402.697	2.8
403.06	2.8
403.424	2.98
403.787	2.95
404.151	3
404.514	2.88
404.878	3.07
405.241	2.78
405.604	2.83
405.968	2.9
406.331	2.93
406.694	2.9
407.057	2.93
407.42	2.92
407.783	2.82
408.146	2.92
408.509	2.94
408.872	3
409.235	3.07
409.598	2.98
409.961	2.75
410.323	3.11
410.686	3.06
411.049	2.91
411.411	2.8
411.774	2.97
412.136	2.78
412.499	3
412.861	3.07
413.223	3.07
413.586	2.85
413.948	3.09
414.31	2.74
414.672	2.92
415.035	3.02
415.397	2.93
415.759	3.1
416.121	3.23
416.483	3.02
416.845	3.08
417.206	3.04
417.568	3.25
417.93	2.91
418.292	3.13
418.653	2.97
419.015	2.95
419.377	2.86
419.738	2.91
420.1	2.97
420.461	3
420.822	2.99
421.184	2.89
421.545	2.99
421.906	2.97
422.267	2.99
422.629	2.91
422.99	2.98
423.351	2.84
423.712	2.99
424.073	3.04
424.434	2.97
424.795	2.95
425.155	3.02
425.516	2.96
425.877	2.97
426.238	3.03
426.598	3.02
426.959	2.96
427.32	3.11
427.68	3.01
428.041	2.97
428.401	3.03
428.761	3.11
429.122	3.1
429.482	3.15
429.842	3.18
430.202	3.14
430.563	3.08
430.923	3.27
431.283	2.99
431.643	3.08
432.003	3.07
432.363	3.17
432.722	3.43
433.082	3.12
433.442	3.04
433.802	3.17
434.161	3.08
434.521	2.95
434.881	3.04
435.24	2.96
435.6	3.09
435.959	3.18
436.319	3.07
436.678	3.05
437.037	3.12
437.396	3.1
437.756	3.12
438.115	3.06
438.474	2.94
438.833	3.17
439.192	3.02
439.551	3.08
439.91	3.15
440.269	3.09
440.628	3.11
440.987	2.95
441.345	3.11
441.704	3.22
442.063	3.21
442.421	2.98
442.78	3.02
443.138	3.1
443.497	3.03
443.855	3.02
444.214	3.2
444.572	3.32
444.93	3.04
445.288	3.13
445.647	3.28
446.005	3.04
446.363	3.26
446.721	3.22
447.079	3.12
447.437	3.15
447.795	3.11
448.153	3.11
448.51	3.07
448.868	3.21
449.226	3.2
449.584	3.18
449.941	3.17
450.299	3.16
450.656	3.2
451.014	3.24
451.371	3.19
451.729	3.25
452.086	3.33
452.443	3.1
452.801	3.15
453.158	3.21
453.515	3.2
453.872	3.14
454.229	3.18
454.586	3.17
454.943	3.19
455.3	3.25
455.657	3.33
456.014	3.33
456.371	3.13
456.727	3.37
457.084	3.18
457.441	3.27
457.797	3.17
458.154	3.25
458.51	3.16
458.867	3.41
459.223	3.49
459.58	3.23
459.936	3.33
460.292	3.26
460.648	3.13
461.005	3.07
461.361	3.09
461.717	3.3
462.073	3.35
462.429	3.31
462.785	3.34
463.141	3.4
463.496	3.47
463.852	3.3
464.208	3.29
464.564	3.45
464.919	3.48
465.275	3.49
465.631	3.28
465.986	3.47
466.342	3.18
466.697	3.21
467.052	3.29
467.408	3.36
467.763	3.26
468.118	3.37
468.473	3.53
468.829	3.43
469.184	3.44
469.539	3.27
469.894	3.29
470.249	3.41
470.603	3.4
470.958	3.29
471.313	3.18
471.668	3.31
472.023	3.53
472.377	3.4
472.732	3.37
473.086	3.42
473.441	3.42
473.795	3.52
474.15	3.38
474.504	3.36
474.859	3.51
475.213	3.51
475.567	3.5
475.921	3.4
476.275	3.46
476.63	3.54
476.984	3.49
477.338	3.41
477.692	3.45
478.045	3.4
478.399	3.51
478.753	3.33
479.107	3.41
479.461	3.44
479.814	3.44
480.168	3.46
480.521	3.41
480.875	3.5
481.228	3.47
481.582	3.44
481.935	3.43
482.289	3.33
482.642	3.33
482.995	3.62
483.348	3.4
483.701	3.37
484.055	3.35
484.408	3.34
484.761	3.31
485.114	3.2
485.466	3.16
485.819	3.25
486.172	3.3
486.525	3.38
486.878	3.43
487.23	3.47
487.583	3.44
487.936	3.42
488.288	3.36
488.641	3.3
488.993	3.33
489.345	3.37
489.698	3.36
490.05	3.36
490.402	3.49
490.754	3.44
491.107	3.43
491.459	3.53
491.811	3.58
492.163	3.49
492.515	3.43
492.866	3.42
493.218	3.36
493.57	3.41
493.922	3.41
494.274	3.56
494.625	3.52
494.977	3.59
495.328	3.52
495.68	3.56
496.031	3.63
496.383	3.58
496.734	3.58
497.086	3.66
497.437	3.61
497.788	3.63
498.139	3.55
498.49	3.67
498.842	3.45
499.193	3.57
499.544	3.63
499.894	3.73
500.245	3.62
500.596	3.62
500.947	3.6
501.298	3.72
501.648	3.75
501.999	3.62
502.35	3.68
502.7	3.8
503.051	3.82
503.401	3.84
503.752	3.78
504.102	3.68
504.452	3.83
504.803	3.62
505.153	3.68
505.503	3.94
505.853	3.76
506.203	3.72
506.553	3.68
506.903	3.75
507.253	3.82
507.603	3.82
507.953	3.91
508.303	3.77
508.652	3.91
509.002	3.8
509.352	3.74
509.701	3.81
510.051	3.8
510.4	3.72
510.75	3.73
511.099	3.76
511.449	3.8
511.798	3.79
512.147	3.86
512.496	3.91
512.846	3.94
513.195	3.89
513.544	3.8
513.893	3.84
514.242	3.88
514.591	3.97
514.939	3.94
515.288	3.9
515.637	3.93
515.986	3.88
516.334	3.91
516.683	3.97
517.032	4.04
517.38	3.89
517.729	3.96
518.077	3.94
518.426	3.89
518.774	3.98
519.122	3.93
519.47	3.84
519.819	3.88
520.167	3.8
520.515	3.95
520.863	3.95
521.211	3.99
521.559	3.97
521.907	3.92
522.255	3.99
522.602	4.06
522.95	4.11
523.298	4.03
523.645	4.08
523.993	3.98
524.341	4.09
524.688	4.06
525.036	4.1
525.383	4.16
525.73	3.94
526.078	4.1
526.425	4.09
526.772	4
527.119	4.02
527.466	4.08
527.814	4.09
528.161	4
528.508	4.02
528.854	4.1
529.201	4.05
529.548	3.99
529.895	3.93
530.242	3.88
530.588	3.95
530.935	3.99
531.282	4
531.628	4.12
531.975	4.15
532.321	4.16
532.667	4.2
533.014	4.21
533.36	4.1
533.706	4.13
534.052	4.21
534.399	4.22
534.745	4.09
535.091	4.12
535.437	4.12
535.783	4.18
536.129	4.18
536.474	4.27
536.82	4.29
537.166	4.27
537.512	4.22
537.857	4.27
538.203	4.3
538.549	4.31
538.894	4.36
539.239	4.35
539.585	4.35
539.93	4.41
540.276	4.51
540.621	4.47
540.966	4.58
541.311	4.58
541.656	4.49
542.001	4.47
542.346	4.35
542.691	4.24
543.036	4.23
543.381	4.37
543.726	4.37
544.071	4.42
544.415	4.42
544.76	4.33
545.105	4.56
545.449	4.55
545.794	4.57
546.138	4.68
546.483	4.6
546.827	4.65
547.171	4.65
547.516	4.59
547.86	4.54
548.204	4.68
548.548	4.7
548.892	4.73
549.236	4.71
549.58	4.74
549.924	4.81
550.268	4.75
550.612	4.88
550.956	4.84
551.3	4.91
551.643	4.83
551.987	4.88
552.33	4.8
552.674	4.74
553.017	4.93
553.361	5.04
553.704	5.02
554.048	5.05
554.391	4.88
554.734	4.85
555.077	4.8
555.42	4.95
555.764	5.03
556.107	4.94
556.45	4.81
556.793	5.01
557.135	5.08
557.478	5.13
557.821	5.22
558.164	5.12
558.507	5.09
558.849	5.07
559.192	5.21
559.534	5.39
559.877	5.19
560.219	5.39
560.562	5.15
560.904	5.26
561.246	5.24
561.589	5.4
561.931	5.06
562.273	5.38
562.615	5.42
562.957	5.27
563.299	5.36
563.641	5.29
563.983	5.47
564.325	5.47
564.667	5.52
565.008	5.28
565.35	5.55
565.692	5.34
566.033	5.33
566.375	5.46
566.716	5.4
567.058	5.47
567.399	5.46
567.741	5.37
568.082	5.44
568.423	5.43
568.764	5.4
569.105	5.56
569.447	5.77
569.788	5.69
570.129	5.55
570.47	5.74
570.811	5.6
571.151	5.62
571.492	5.7
571.833	5.62
572.174	5.89
572.514	5.66
572.855	5.77
573.195	5.79
573.536	5.68
573.876	5.72
574.217	5.77
574.557	5.86
574.898	5.81
575.238	6.13
575.578	5.73
575.918	5.97
576.258	5.9
576.598	5.92
576.938	5.99
577.278	5.89
577.618	6.27
577.958	6.13
578.298	6.15
578.638	6.03
578.977	6.17
579.317	6.03
579.657	6.25
579.996	6.14
580.336	6.38
580.675	6.37
581.014	6.17
581.354	6.24
581.693	6.13
582.032	6.39
582.372	6.33
582.711	6.17
583.05	6.21
583.389	6.34
583.728	6.28
584.067	6.53
584.406	6.51
584.745	6.55
585.083	6.3
585.422	6.67
585.761	6.74
586.1	6.59
586.438	6.53
586.777	6.48
587.115	6.74
587.454	6.8
587.792	6.55
588.13	6.78
588.469	6.98
588.807	6.59
589.145	6.73
589.483	6.68
589.821	6.61
590.159	6.71
590.497	6.99
590.835	6.69
591.173	6.84
591.511	6.82
591.849	6.89
592.187	6.67
592.524	6.74
592.862	6.88
593.2	6.86
593.537	6.73
593.875	6.85
594.212	6.84
594.55	7.11
594.887	6.99
595.224	7.11
595.561	7.06
595.899	7.35
596.236	7.42
596.573	7.32
596.91	7.3
597.247	7.16
597.584	7.21
597.921	7.04
598.258	7.04
598.594	7.22
598.931	7.4
599.268	7.28
599.604	7.29
599.941	7.31
600.277	7.41
600.614	7.39
600.95	7.55
601.287	7.42
601.623	7.72
601.959	7.24
602.296	7.4
602.632	7.48
602.968	7.58
603.304	7.52
603.64	7.73
603.976	7.73
604.312	7.64
604.648	7.59
604.984	7.68
605.319	7.63
605.655	7.68
605.991	7.66
606.326	7.76
606.662	7.68
606.998	7.9
607.333	7.89
607.668	7.72
608.004	7.79
608.339	7.96
608.674	8.09
609.01	7.93
609.345	7.94
609.68	7.98
610.015	8.16
610.35	8.05
610.685	8.03
611.02	7.96
611.355	7.98
611.689	8.2
612.024	7.94
612.359	8.09
612.694	8.15
613.028	8.29
613.363	8.17
613.697	8.45
614.032	8.42
614.366	8.35
614.7	8.2
615.035	8.16
615.369	8.18
615.703	8.32
616.037	8.61
616.371	7.96
616.705	8.31
617.039	8.54
617.373	8.46
617.707	8.62
618.041	8.63
618.375	8.43
618.709	8.51
619.042	8.38
619.376	8.78
619.71	8.75
620.043	8.81
620.377	8.66
620.71	8.69
621.043	8.96
621.377	8.45
621.71	8.87
622.043	8.78
622.376	9.3
622.709	9.09
623.043	8.97
623.376	9.11
623.709	8.88
624.041	8.99
624.374	9
624.707	9.32
625.04	9.35
625.373	9.35
625.705	9.07
626.038	9.42
626.37	9.17
626.703	9.2
627.035	9.21
627.368	9.22
627.7	9.29
628.032	9.33
628.365	9.22
628.697	9.44
629.029	9.46
629.361	9.45
629.693	9.61
630.025	9.32
630.357	9.34
630.689	9.59
631.021	9.79
631.353	9.73
631.684	9.79
632.016	9.34
632.348	9.49
632.679	9.44
633.011	9.75
633.342	9.86
633.674	9.43
634.005	9.58
634.336	9.82
634.668	10.11
634.999	9.83
635.33	9.99
635.661	9.48
635.992	9.97
636.323	9.85
636.654	10.02
636.985	10.07
637.316	9.87
637.647	10.01
637.977	10.47
638.308	10.13
638.639	10.33
638.969	10.18
639.3	10.22
639.63	10.17
639.961	10.15
640.291	10.08
640.622	10.39
640.952	10.26
641.282	10.64
641.612	10.4
641.943	10.52
642.273	10.21
642.603	10.09
642.933	10.53
643.263	10.23
643.592	10.67
643.922	10.94
644.252	10.66
644.582	10.34
644.911	10.78
645.241	10.95
645.571	10.53
645.9	11.06
646.23	10.64
646.559	10.41
646.888	10.36
647.218	10.65
647.547	10.63
647.876	10.36
648.205	10.63
648.534	10.78
648.863	10.93
649.192	10.74
649.521	10.38
649.85	11.05
650.179	11.04
650.508	11.22
650.837	11.14
651.165	11.09
651.494	10.99
651.822	11.1
652.151	11.32
652.479	10.98
652.808	10.8
653.136	10.64
653.465	11.56
653.793	11.61
654.121	11.33
654.449	11.18
654.777	11.28
655.105	11.7
655.433	11.08
655.761	11.6
656.089	11.41
656.417	11.4
656.745	11.86
657.073	11.74
657.4	11.5
657.728	11.17
658.056	11.67
658.383	11.43
658.711	11.62
659.038	11.67
659.365	11.44
659.693	11.48
660.02	11.87
660.347	12.04
660.674	12.22
661.001	11.75
661.329	11.94
661.656	11.7
661.982	11.72
662.309	11.9
662.636	12.62
662.963	11.65
663.29	11.86
663.616	12.2
663.943	11.85
664.27	12.6
664.596	12.39
664.923	11.68
665.249	12.63
665.576	12.38
665.902	11.96
666.228	12.03
666.554	12.24
666.881	12.29
667.207	12.34
667.533	12.35
667.859	12.16
668.185	12.75
668.511	12.41
668.837	11.71
669.162	12.7
669.488	12.14
669.814	12.83
670.139	12.85
670.465	12.47
670.791	13.11
671.116	12.98
671.442	12.7
671.767	12.59
672.092	12.72
672.418	12.96
672.743	12.56
673.068	12.26
673.393	12.7
673.718	12.61
674.043	12.41
674.368	12.43
674.693	13.52
675.018	13.22
675.343	12.98
675.667	12.73
675.992	13.01
676.317	13.42
676.641	13.14
676.966	13.62
677.29	12.98
677.615	13.53
677.939	13.69
678.264	13.57
678.588	13.41
678.912	12.95
679.236	13.71
679.56	12.83
679.885	12.71
680.209	13.18
680.532	13.57
680.856	13.6
681.18	13.77
681.504	13.21
681.828	13.38
682.152	14.07
682.475	13.58
682.799	13.72
683.122	13.65
683.446	13.13
683.769	13.71
684.093	14.01
684.416	13.89
684.739	13.83
685.062	13.51
685.386	13.68
685.709	12.95
686.032	13.51
686.355	14.21
686.678	13.72
687.001	13.58
687.324	14.18
687.646	13.84
687.969	13.57
688.292	14.4
