Data from 2019-1_forehead_Reflection__1__186.txt Node

Date: Fri Nov 11 18:20:17 CST 2022
User: ToomeyLab
Spectrometer: FLMS14357
Trigger mode: 0
Integration Time (sec): 1.000000E-2
Scans to average: 100
Electric dark correction enabled: true
Nonlinearity correction enabled: false
Boxcar width: 0
XAxis mode: Wavelengths
Number of Pixels in Spectrum: 2048
>>>>>Begin Spectral Data<<<<<
189.047	176.27
189.435	176.27
189.823	176.27
190.211	-534.11
190.599	0.12
190.987	-23.82
191.375	126.51
191.763	34.94
192.151	564.14
192.538	135.98
192.926	-159.8
193.314	-203.02
193.702	423.6
194.089	15.22
194.477	86.55
194.864	1202.24
195.252	9.16
195.639	-587.84
196.027	144.57
196.414	128.12
196.801	-159.42
197.189	-295.92
197.576	82.34
197.963	93.33
198.351	8.19
198.738	-4.81
199.125	25.87
199.512	9.88
199.899	38.2
200.286	-36.6
200.673	9.48
201.06	-18.42
201.447	-1.46
201.833	32.92
202.22	11.26
202.607	15.05
202.994	20.9
203.38	19.43
203.767	32.2
204.154	-26.79
204.54	48.38
204.927	-23.39
205.313	17.9
205.699	24.88
206.086	-24.9
206.472	-46.56
206.858	0.36
207.245	4.14
207.631	24.08
208.017	-35.82
208.403	17.11
208.789	43.83
209.175	-10.81
209.561	-10.69
209.947	29.92
210.333	25.68
210.719	16.73
211.105	16.35
211.491	36.88
211.876	-24.92
212.262	-27.07
212.648	-12.1
213.034	20.59
213.419	-11.02
213.805	4.66
214.19	-21.39
214.576	33.7
214.961	-2.36
215.346	-8.76
215.732	-3.25
216.117	2.98
216.502	24.91
216.888	-13.95
217.273	0.14
217.658	-32.05
218.043	14.11
218.428	32.53
218.813	15.62
219.198	7.77
219.583	10.03
219.968	15.89
220.353	26.21
220.738	-7.28
221.122	-19.18
221.507	24.95
221.892	15.62
222.276	19.18
222.661	6.17
223.046	-12.38
223.43	11.52
223.815	-1.23
224.199	-15.56
224.583	18.13
224.968	5.12
225.352	12.8
225.736	-4.44
226.121	6.37
226.505	3.73
226.889	7.53
227.273	7.66
227.657	4.96
228.041	-6.52
228.425	0.33
228.809	-0.27
229.193	1.29
229.577	2.18
229.961	1.83
230.344	1.09
230.728	0.9
231.112	1.29
231.495	2.22
231.879	1.41
232.263	3.08
232.646	1.36
233.03	0.66
233.413	1.87
233.797	2.48
234.18	0.58
234.563	2.99
234.946	1.32
235.33	1.7
235.713	-1.43
236.096	1.55
236.479	0.54
236.862	0.48
237.245	1.84
237.628	-0.4
238.011	-0.65
238.394	1.87
238.777	-0.47
239.16	0.93
239.543	3.18
239.925	-0.04
240.308	1.6
240.691	2.04
241.073	0.79
241.456	0.29
241.838	1.28
242.221	1.12
242.603	0.91
242.986	0.89
243.368	1.26
243.75	1.45
244.133	1.2
244.515	1.13
244.897	1.42
245.279	1.47
245.661	0.35
246.043	1.04
246.425	1.38
246.807	1.47
247.189	1.95
247.571	1.27
247.953	0.74
248.335	1.48
248.717	1.39
249.098	1.33
249.48	1.22
249.862	0.87
250.243	1.37
250.625	0.97
251.006	0.35
251.388	1.59
251.769	1.04
252.151	1.79
252.532	2.03
252.913	1.68
253.295	1.1
253.676	1.7
254.057	1.41
254.438	1.27
254.819	1.4
255.2	2.25
255.581	1.05
255.962	2.12
256.343	2.35
256.724	1.53
257.105	1.39
257.486	0.73
257.867	1.8
258.247	1.24
258.628	1.72
259.009	1.45
259.389	1.91
259.77	1.17
260.15	1.17
260.531	1.35
260.911	0.88
261.292	1.2
261.672	1.19
262.052	1.09
262.432	1.04
262.813	1.44
263.193	1.45
263.573	0.86
263.953	1.37
264.333	1.09
264.713	1.56
265.093	1.47
265.473	1.15
265.853	1.21
266.233	1.65
266.612	1.58
266.992	1.26
267.372	2.06
267.752	1.37
268.131	1.15
268.511	0.78
268.89	1.76
269.27	1.13
269.649	1.63
270.029	1.22
270.408	0.81
270.787	1.74
271.167	1.42
271.546	1.1
271.925	1.12
272.304	1.27
272.683	1.4
273.062	1.06
273.441	0.74
273.82	1.79
274.199	1.17
274.578	1.03
274.957	1.35
275.336	0.95
275.715	0.91
276.093	0.65
276.472	1.4
276.851	1.01
277.229	1.69
277.608	0.94
277.986	1.71
278.365	1.2
278.743	1.34
279.122	1.08
279.5	1.02
279.878	1.47
280.257	1.56
280.635	1.19
281.013	1.32
281.391	1.12
281.769	0.57
282.147	1
282.525	1.26
282.903	1.07
283.281	1.89
283.659	1.31
284.037	1.36
284.415	1.01
284.792	1.52
285.17	0.9
285.548	1.27
285.925	1.37
286.303	0.99
286.68	1.06
287.058	1.32
287.435	1.31
287.813	1.29
288.19	1.21
288.567	0.9
288.945	1.06
289.322	1.03
289.699	1.31
290.076	1.46
290.453	1.18
290.83	0.85
291.207	1.28
291.584	1.63
291.961	1.56
292.338	1.28
292.715	1.1
293.092	1.37
293.469	0.99
293.845	1.36
294.222	1.31
294.599	1.37
294.975	0.47
295.352	1.5
295.728	1.33
296.105	2
296.481	1.68
296.858	1.87
297.234	1.5
297.61	1.24
297.986	1.53
298.363	1.16
298.739	1.18
299.115	1.63
299.491	1.49
299.867	1.56
300.243	1.44
300.619	1.62
300.995	1.05
301.371	1.48
301.746	1.09
302.122	1.13
302.498	2.22
302.874	1.73
303.249	1.82
303.625	1.47
304	1.51
304.376	1.09
304.751	1.54
305.127	1.59
305.502	1.62
305.878	1.68
306.253	1.48
306.628	1.65
307.003	1.59
307.378	1.16
307.754	1.56
308.129	1.63
308.504	1.69
308.879	1.95
309.254	1.39
309.629	1.55
310.003	2.17
310.378	1.54
310.753	1.6
311.128	1.88
311.502	1.41
311.877	1.85
312.252	2.38
312.626	1.89
313.001	2.11
313.375	1.44
313.75	2.2
314.124	1.95
314.498	1.94
314.873	1.86
315.247	1.83
315.621	2.17
315.995	1.92
316.369	1.67
316.743	1.98
317.117	2.11
317.491	2.23
317.865	2.56
318.239	2.56
318.613	2.8
318.987	2.13
319.361	2.58
319.734	2.98
320.108	2.44
320.482	1.91
320.855	1.98
321.229	2.1
321.602	2.69
321.976	2.37
322.349	2.76
322.723	2.67
323.096	1.9
323.469	2.71
323.843	2.03
324.216	2.26
324.589	2.37
324.962	2.1
325.335	1.92
325.708	2.66
326.081	2.3
326.454	2.33
326.827	2.47
327.2	2.95
327.573	2.59
327.945	2.9
328.318	2.35
328.691	2.6
329.063	2.71
329.436	2.77
329.809	2.69
330.181	2.6
330.553	2.41
330.926	2.65
331.298	2.41
331.671	2.61
332.043	3
332.415	2.22
332.787	2.48
333.159	1.96
333.532	2.58
333.904	2.79
334.276	2.58
334.648	2.06
335.02	2.63
335.391	2.74
335.763	2.95
336.135	2.62
336.507	3.1
336.879	2.91
337.25	3.02
337.622	3.14
337.993	3.41
338.365	3.31
338.736	3.04
339.108	2.9
339.479	2.57
339.851	3.19
340.222	2.98
340.593	2.85
340.964	2.89
341.336	2.74
341.707	3.21
342.078	2.55
342.449	2.91
342.82	3.06
343.191	3.14
343.562	3.29
343.933	2.72
344.303	3.04
344.674	3.01
345.045	3.06
345.416	3.27
345.786	3.13
346.157	3.1
346.527	3.33
346.898	2.82
347.268	2.82
347.639	3.25
348.009	3.04
348.38	3.29
348.75	3.29
349.12	2.9
349.49	3.21
349.861	2.99
350.231	3.27
350.601	3.23
350.971	3.4
351.341	3.22
351.711	3.25
352.081	3.31
352.45	3.46
352.82	3.85
353.19	3.63
353.56	3.5
353.929	2.91
354.299	3.34
354.669	3.24
355.038	3.51
355.408	2.94
355.777	3.71
356.147	3.14
356.516	3.17
356.885	3.35
357.254	3.61
357.624	2.96
357.993	3.18
358.362	3.66
358.731	3.34
359.1	3.62
359.469	3.51
359.838	3.44
360.207	3.48
360.576	3.43
360.945	3.41
361.314	3.49
361.682	3.59
362.051	3.89
362.42	3.21
362.788	3.81
363.157	3.42
363.525	3.49
363.894	3.46
364.262	3.49
364.631	3.75
364.999	3.61
365.367	3.67
365.735	3.89
366.104	3.76
366.472	3.87
366.84	3.84
367.208	3.88
367.576	3.95
367.944	3.79
368.312	3.35
368.68	3.73
369.048	3.77
369.416	3.99
369.783	4.07
370.151	4
370.519	3.81
370.886	3.57
371.254	3.82
371.621	3.98
371.989	4.06
372.356	3.86
372.724	3.92
373.091	4.26
373.458	3.9
373.826	4.09
374.193	3.85
374.56	3.55
374.927	3.78
375.294	4.14
375.661	3.9
376.028	4.32
376.395	4.12
376.762	4.35
377.129	3.83
377.496	4.21
377.863	3.86
378.229	4.44
378.596	3.98
378.963	4.31
379.329	4.19
379.696	4.25
380.062	4.12
380.429	4.22
380.795	3.91
381.161	4.37
381.528	4.53
381.894	4.02
382.26	4.25
382.626	4.27
382.993	4.41
383.359	4.23
383.725	4.2
384.091	4.29
384.457	4.18
384.823	4.06
385.188	4.63
385.554	4.53
385.92	4.42
386.286	4.37
386.651	4.64
387.017	4.33
387.383	4.21
387.748	4.14
388.114	4.27
388.479	4.22
388.845	4.47
389.21	4.53
389.575	4.43
389.94	4.55
390.306	4.68
390.671	4.48
391.036	4.43
391.401	4.69
391.766	4.67
392.131	4.64
392.496	4.41
392.861	4.5
393.226	4.52
393.591	4.43
393.956	4.68
394.32	4.59
394.685	4.56
395.05	4.38
395.414	4.82
395.779	4.37
396.143	4.62
396.508	4.65
396.872	4.43
397.236	4.58
397.601	4.74
397.965	4.64
398.329	4.72
398.694	4.98
399.058	4.56
399.422	4.94
399.786	4.68
400.15	4.77
400.514	4.73
400.878	4.59
401.242	4.6
401.605	4.58
401.969	4.89
402.333	4.72
402.697	4.75
403.06	4.67
403.424	4.55
403.787	4.74
404.151	4.65
404.514	4.76
404.878	4.38
405.241	4.64
405.604	4.71
405.968	4.77
406.331	4.53
406.694	4.57
407.057	4.37
407.42	4.63
407.783	4.58
408.146	4.6
408.509	4.67
408.872	4.64
409.235	4.75
409.598	4.75
409.961	4.83
410.323	4.85
410.686	5.01
411.049	4.81
411.411	4.88
411.774	4.71
412.136	4.68
412.499	4.86
412.861	4.88
413.223	4.87
413.586	4.75
413.948	4.42
414.31	4.84
414.672	4.6
415.035	4.88
415.397	5.08
415.759	4.88
416.121	5.02
416.483	4.89
416.845	4.53
417.206	4.93
417.568	4.85
417.93	4.98
418.292	4.94
418.653	4.83
419.015	4.95
419.377	4.9
419.738	4.88
420.1	4.99
420.461	4.9
420.822	4.95
421.184	4.94
421.545	5.02
421.906	4.92
422.267	4.95
422.629	4.85
422.99	4.92
423.351	4.91
423.712	4.9
424.073	4.96
424.434	5.13
424.795	5.12
425.155	5.11
425.516	5.12
425.877	5.11
426.238	5.18
426.598	5.14
426.959	5.18
427.32	5.19
427.68	5.4
428.041	5.26
428.401	5.55
428.761	5.52
429.122	5.48
429.482	5.63
429.842	5.46
430.202	5.82
430.563	5.74
430.923	5.64
431.283	5.92
431.643	5.7
432.003	5.87
432.363	5.78
432.722	5.92
433.082	5.96
433.442	6.16
433.802	5.73
434.161	5.93
434.521	6.04
434.881	5.94
435.24	5.88
435.6	6.02
435.959	5.97
436.319	6.02
436.678	6.15
437.037	6.24
437.396	6.27
437.756	6.15
438.115	6.32
438.474	6.19
438.833	6.37
439.192	6.28
439.551	6.31
439.91	6.28
440.269	6.42
440.628	6.3
440.987	6.21
441.345	6.32
441.704	6.41
442.063	6.52
442.421	6.4
442.78	6.35
443.138	6.46
443.497	6.52
443.855	6.55
444.214	6.66
444.572	6.71
444.93	6.61
445.288	6.54
445.647	6.77
446.005	6.73
446.363	6.71
446.721	6.8
447.079	6.71
447.437	6.64
447.795	6.69
448.153	6.75
448.51	6.74
448.868	6.78
449.226	6.86
449.584	6.88
449.941	6.83
450.299	6.86
450.656	6.92
451.014	6.96
451.371	7.1
451.729	6.94
452.086	7.16
452.443	7.27
452.801	7.15
453.158	7.15
453.515	7.25
453.872	7.13
454.229	7.35
454.586	7.35
454.943	7.32
455.3	7.3
455.657	7.29
456.014	7.44
456.371	7.53
456.727	7.47
457.084	7.5
457.441	7.5
457.797	7.56
458.154	7.74
458.51	7.59
458.867	7.62
459.223	7.64
459.58	7.58
459.936	7.65
460.292	7.64
460.648	7.48
461.005	7.66
461.361	7.58
461.717	7.56
462.073	7.54
462.429	7.57
462.785	7.75
463.141	7.79
463.496	7.94
463.852	8.01
464.208	8.01
464.564	7.87
464.919	8.06
465.275	8.05
465.631	8.07
465.986	8.03
466.342	8.27
466.697	8.15
467.052	8.15
467.408	8.35
467.763	8.33
468.118	8.13
468.473	8.27
468.829	8.27
469.184	8.33
469.539	8.26
469.894	8.49
470.249	8.4
470.603	8.44
470.958	8.33
471.313	8.38
471.668	8.43
472.023	8.43
472.377	8.64
472.732	8.46
473.086	8.68
473.441	8.57
473.795	8.64
474.15	8.66
474.504	8.81
474.859	8.68
475.213	8.67
475.567	8.79
475.921	8.87
476.275	8.91
476.63	8.81
476.984	8.91
477.338	8.67
477.692	8.93
478.045	8.74
478.399	8.78
478.753	8.88
479.107	8.94
479.461	8.85
479.814	8.93
480.168	8.89
480.521	8.93
480.875	8.89
481.228	8.94
481.582	9.08
481.935	8.96
482.289	8.96
482.642	9.03
482.995	9.03
483.348	8.87
483.701	8.92
484.055	8.9
484.408	8.76
484.761	8.65
485.114	8.47
485.466	8.32
485.819	8.38
486.172	8.55
486.525	8.71
486.878	8.82
487.23	8.9
487.583	8.92
487.936	8.93
488.288	8.9
488.641	8.85
488.993	8.75
489.345	8.82
489.698	8.78
490.05	8.89
490.402	9.01
490.754	9.15
491.107	9.11
491.459	9.28
491.811	9.2
492.163	9.3
492.515	9.29
492.866	9.13
493.218	8.99
493.57	9.01
493.922	9.17
494.274	9.32
494.625	9.49
494.977	9.55
495.328	9.76
495.68	9.87
496.031	9.83
496.383	9.92
496.734	9.86
497.086	9.93
497.437	9.89
497.788	9.84
498.139	9.77
498.49	9.81
498.842	9.85
499.193	9.88
499.544	9.97
499.894	9.9
500.245	10
500.596	10.02
500.947	9.93
501.298	10.06
501.648	10.22
501.999	10.18
502.35	10.21
502.7	10.16
503.051	10.35
503.401	10.29
503.752	10.36
504.102	10.42
504.452	10.43
504.803	10.38
505.153	10.33
505.503	10.32
505.853	10.4
506.203	10.42
506.553	10.43
506.903	10.5
507.253	10.5
507.603	10.56
507.953	10.63
508.303	10.57
508.652	10.65
509.002	10.6
509.352	10.53
509.701	10.45
510.051	10.54
510.4	10.66
510.75	10.54
511.099	10.54
511.449	10.54
511.798	10.58
512.147	10.66
512.496	10.63
512.846	10.69
513.195	10.58
513.544	10.63
513.893	10.6
514.242	10.69
514.591	10.64
514.939	10.74
515.288	10.81
515.637	10.75
515.986	10.83
516.334	10.96
516.683	11.1
517.032	11.09
517.38	11.03
517.729	10.97
518.077	11.04
518.426	10.86
518.774	10.98
519.122	10.78
519.47	10.74
519.819	10.9
520.167	10.81
520.515	10.68
520.863	10.81
521.211	10.91
521.559	10.9
521.907	11.14
522.255	11.07
522.602	11.13
522.95	11.07
523.298	11.33
523.645	11.21
523.993	11.38
524.341	11.22
524.688	11.16
525.036	11.22
525.383	11.41
525.73	11.32
526.078	11.33
526.425	11.26
526.772	11.19
527.119	11.01
527.466	10.94
527.814	10.98
528.161	11.07
528.508	11.23
528.854	11.22
529.201	11.09
529.548	10.91
529.895	10.6
530.242	10.6
530.588	10.61
530.935	10.81
531.282	10.9
531.628	11.05
531.975	11.11
532.321	11.15
532.667	11.29
533.014	11.36
533.36	11.56
533.706	11.4
534.052	11.38
534.399	11.27
534.745	11.1
535.091	11.07
535.437	11.14
535.783	11.33
536.129	11.47
536.474	11.5
536.82	11.53
537.166	11.6
537.512	11.67
537.857	11.62
538.203	11.53
538.549	11.52
538.894	11.55
539.239	11.62
539.585	11.79
539.93	11.93
540.276	11.99
540.621	12.03
540.966	12.05
541.311	11.97
541.656	11.99
542.001	11.82
542.346	11.69
542.691	11.47
543.036	11.3
543.381	11.39
543.726	11.59
544.071	11.71
544.415	11.8
544.76	11.79
545.105	11.87
545.449	11.95
545.794	11.99
546.138	12.16
546.483	12.23
546.827	12.2
547.171	12.31
547.516	12.2
547.86	12.29
548.204	12.24
548.548	12.29
548.892	12.14
549.236	12.38
549.58	12.44
549.924	12.64
550.268	12.58
550.612	12.74
550.956	12.66
551.3	12.76
551.643	12.93
551.987	12.81
552.33	13.05
552.674	13.05
553.017	13.03
553.361	13.13
553.704	13.05
554.048	12.98
554.391	12.88
554.734	12.89
555.077	12.91
555.42	13.11
555.764	13.11
556.107	13.04
556.45	13.2
556.793	13.46
557.135	13.23
557.478	13.39
557.821	13.27
558.164	13.18
558.507	13.21
558.849	13.37
559.192	13.34
559.534	13.49
559.877	13.55
560.219	13.28
560.562	13.36
560.904	13.59
561.246	13.64
561.589	13.58
561.931	13.45
562.273	13.56
562.615	13.5
562.957	13.57
563.299	13.52
563.641	13.68
563.983	13.85
564.325	13.44
564.667	13.59
565.008	13.54
565.35	13.87
565.692	13.85
566.033	13.72
566.375	13.74
566.716	13.64
567.058	13.63
567.399	13.74
567.741	13.75
568.082	13.64
568.423	13.7
568.764	13.8
569.105	13.8
569.447	13.8
569.788	13.99
570.129	13.91
570.47	13.88
570.811	14.13
571.151	13.97
571.492	13.84
571.833	13.96
572.174	13.96
572.514	14.12
572.855	14.07
573.195	13.88
573.536	13.94
573.876	13.98
574.217	13.95
574.557	13.93
574.898	14.26
575.238	14.18
575.578	14.09
575.918	14
576.258	14.15
576.598	14.14
576.938	14.21
577.278	14.23
577.618	14.24
577.958	14.35
578.298	14.48
578.638	14.46
578.977	14.55
579.317	14.65
579.657	14.7
579.996	14.67
580.336	14.53
580.675	14.8
581.014	14.67
581.354	15.06
581.693	14.79
582.032	14.78
582.372	15.05
582.711	15.01
583.05	14.97
583.389	14.86
583.728	14.93
584.067	15.18
584.406	14.89
584.745	15.43
585.083	14.82
585.422	14.79
585.761	15
586.1	15.33
586.438	14.97
586.777	15.16
587.115	15.33
587.454	15.19
587.792	15.28
588.13	15.22
588.469	15.38
588.807	15.1
589.145	15.37
589.483	15.55
589.821	15.55
590.159	15.47
590.497	15.27
590.835	15.85
591.173	15.4
591.511	15.74
591.849	15.53
592.187	15.7
592.524	15.48
592.862	15.55
593.2	15.51
593.537	15.5
593.875	15.74
594.212	15.71
594.55	15.67
594.887	15.88
595.224	15.99
595.561	15.72
595.899	15.92
596.236	15.72
596.573	15.58
596.91	15.9
597.247	15.71
597.584	15.78
597.921	15.65
598.258	15.67
598.594	15.62
598.931	15.57
599.268	15.7
599.604	15.65
599.941	16.01
600.277	16.21
600.614	15.87
600.95	16.06
601.287	15.88
601.623	16.42
601.959	16.31
602.296	16.2
602.632	16.16
602.968	16.34
603.304	16.1
603.64	16.44
603.976	16.6
604.312	16.4
604.648	16.39
604.984	15.93
605.319	16.12
605.655	15.95
605.991	16.21
606.326	16.28
606.662	16.2
606.998	16.07
607.333	16.41
607.668	16.44
608.004	16.63
608.339	16.59
608.674	16.68
609.01	16.74
609.345	16.61
609.68	16.63
610.015	16.72
610.35	16.46
610.685	16.58
611.02	16.36
611.355	16.64
611.689	16.75
612.024	16.56
612.359	16.83
612.694	16.8
613.028	16.99
613.363	17.08
613.697	16.95
614.032	17.13
614.366	17.11
614.7	17.07
615.035	17.14
615.369	17.27
615.703	16.64
616.037	17.29
616.371	17.36
616.705	17.4
617.039	17.24
617.373	17.45
617.707	17.67
618.041	17.77
618.375	17.57
618.709	17.19
619.042	17.5
619.376	17.63
619.71	17.45
620.043	17.6
620.377	17.32
620.71	17.7
621.043	17.52
621.377	17.44
621.71	17.41
622.043	18.08
622.376	18.03
622.709	17.82
623.043	17.76
623.376	17.41
623.709	17.37
624.041	17.91
624.374	17.82
624.707	17.9
625.04	17.99
625.373	18.12
625.705	17.74
626.038	17.83
626.37	17.79
626.703	17.9
627.035	17.89
627.368	17.89
627.7	18.05
628.032	17.62
628.365	17.68
628.697	17.69
629.029	17.78
629.361	17.68
629.693	18.07
630.025	18.17
630.357	18
630.689	18.11
631.021	17.67
631.353	18.12
631.684	18.06
632.016	18.31
632.348	18.37
632.679	18.22
633.011	18.4
633.342	18.51
633.674	17.9
634.005	17.88
634.336	18.43
634.668	18.5
634.999	18.55
635.33	18.48
635.661	18.27
635.992	18.36
636.323	18.44
636.654	18.86
636.985	18.66
637.316	18.68
637.647	18.76
637.977	18.88
638.308	18.47
638.639	18.47
638.969	18.59
639.3	18.88
639.63	18.77
639.961	18.87
640.291	18.83
640.622	18.56
640.952	18.96
641.282	18.89
641.612	19.09
641.943	19.41
642.273	19.16
642.603	19.02
642.933	19
643.263	18.89
643.592	19.2
643.922	19.24
644.252	19.33
644.582	19.22
644.911	19.05
645.241	19.16
645.571	19.01
645.9	19.58
646.23	19.32
646.559	18.94
646.888	19.26
647.218	19.6
647.547	19.53
647.876	19.42
648.205	19.45
648.534	19.4
648.863	19.57
649.192	19.77
649.521	19.61
649.85	19.57
650.179	19.7
650.508	19.62
650.837	19.23
651.165	19.35
651.494	19.82
651.822	19.51
652.151	19.8
652.479	19.6
652.808	19.97
653.136	20.11
653.465	19.88
653.793	20.12
654.121	19.95
654.449	19.92
654.777	19.88
655.105	20.12
655.433	19.69
655.761	19.87
656.089	19.89
656.417	19.84
656.745	19.79
657.073	19.79
657.4	20.44
657.728	20.14
658.056	19.91
658.383	20.33
658.711	19.86
659.038	20.73
659.365	20.46
659.693	19.97
660.02	20.15
660.347	19.75
660.674	19.67
661.001	20.11
661.329	20.19
661.656	19.9
661.982	19.94
662.309	20.5
662.636	20.59
662.963	20.22
663.29	20.25
663.616	20.13
663.943	20.56
664.27	20.55
664.596	20.32
664.923	19.39
665.249	20.27
665.576	21.02
665.902	20.45
666.228	20.3
666.554	20.3
666.881	21.01
667.207	20.71
667.533	20.96
667.859	20.56
668.185	20.14
668.511	20.13
668.837	20.69
669.162	21.07
669.488	21.31
669.814	20.62
670.139	21.1
670.465	20.4
670.791	20.65
671.116	20.88
671.442	20.67
671.767	21.16
672.092	20.44
672.418	21
672.743	20.75
673.068	21.55
673.393	20.78
673.718	20.75
674.043	20.8
674.368	21.62
674.693	21.74
675.018	21.08
675.343	21.34
675.667	21.39
675.992	20.95
676.317	21.41
676.641	20.84
676.966	21.04
677.29	21.34
677.615	21.35
677.939	21.74
678.264	21.35
678.588	21.61
678.912	21.32
679.236	20.99
679.56	21.2
679.885	21.45
