Data from 2019-1_forehead_Reflection__4__189.txt Node

Date: Fri Nov 11 18:21:07 CST 2022
User: ToomeyLab
Spectrometer: FLMS14357
Trigger mode: 0
Integration Time (sec): 1.000000E-2
Scans to average: 100
Electric dark correction enabled: true
Nonlinearity correction enabled: false
Boxcar width: 0
XAxis mode: Wavelengths
Number of Pixels in Spectrum: 2048
>>>>>Begin Spectral Data<<<<<
189.047	36.31
189.435	36.31
189.823	36.31
190.211	87.95
190.599	43.23
190.987	91.3
191.375	-22.19
191.763	64.96
192.151	238.82
192.538	220.03
192.926	48.13
193.314	269.03
193.702	-470.56
194.089	-33.33
194.477	72.65
194.864	-1840.3
195.252	64.92
195.639	-225.53
196.027	75.3
196.414	43.16
196.801	-105.71
197.189	-391.38
197.576	-33.46
197.963	131.13
198.351	32.43
198.738	3.11
199.125	26.46
199.512	24.68
199.899	14.46
200.286	-18.08
200.673	-9.39
201.06	-9.81
201.447	25
201.833	38.36
202.22	-4.48
202.607	-7.19
202.994	21.28
203.38	5.23
203.767	36.8
204.154	-5.65
204.54	49.43
204.927	24.43
205.313	8.87
205.699	26.27
206.086	12.18
206.472	-36.97
206.858	27.01
207.245	22.08
207.631	-5.17
208.017	-45.17
208.403	-7.03
208.789	38.63
209.175	-6.47
209.561	31.83
209.947	-4.69
210.333	23.85
210.719	1.22
211.105	11.57
211.491	42.52
211.876	-18.28
212.262	-7.87
212.648	10.58
213.034	13
213.419	-8.67
213.805	14.08
214.19	16.33
214.576	-11.53
214.961	-0.34
215.346	-8.78
215.732	35.42
216.117	18.51
216.502	21.17
216.888	-43.33
217.273	21.88
217.658	-12.02
218.043	24.91
218.428	27.89
218.813	6.45
219.198	17.52
219.583	-10.81
219.968	-27.32
220.353	14.01
220.738	1.02
221.122	-5.87
221.507	11.67
221.892	6.53
222.276	7.88
222.661	4.22
223.046	5.09
223.43	4.75
223.815	-4.89
224.199	6.23
224.583	18.32
224.968	6.49
225.352	5.58
225.736	3.21
226.121	-2.25
226.505	0.76
226.889	4.23
227.273	5.6
227.657	5.01
228.041	2.81
228.425	-0.88
228.809	5.41
229.193	3.55
229.577	4.26
229.961	3.1
230.344	2.87
230.728	2.62
231.112	3
231.495	4.38
231.879	3.2
232.263	4.26
232.646	2.52
233.03	4.77
233.413	3.93
233.797	5.73
234.18	2.55
234.563	3
234.946	2.83
235.33	3.9
235.713	2.55
236.096	2.26
236.479	0.96
236.862	1.75
237.245	4.22
237.628	2.57
238.011	3.13
238.394	2.15
238.777	1.15
239.16	2.84
239.543	4.79
239.925	2.72
240.308	3.78
240.691	5.43
241.073	4.4
241.456	2.25
241.838	3.15
242.221	3.53
242.603	2.38
242.986	2.87
243.368	2.7
243.75	2.78
244.133	2.54
244.515	2.91
244.897	3.44
245.279	2.69
245.661	3.58
246.043	2.88
246.425	2.56
246.807	2.76
247.189	3.06
247.571	3.26
247.953	2.99
248.335	2.97
248.717	3.12
249.098	3.01
249.48	2.86
249.862	2.8
250.243	2.67
250.625	2.76
251.006	2.5
251.388	3.38
251.769	2.45
252.151	3.1
252.532	2.1
252.913	2.77
253.295	2.65
253.676	3.3
254.057	3.08
254.438	3.23
254.819	3.26
255.2	3.43
255.581	2.48
255.962	3.34
256.343	2.82
256.724	2.05
257.105	2.69
257.486	2.87
257.867	2.69
258.247	3.49
258.628	2.28
259.009	2.99
259.389	2.56
259.77	3.52
260.15	2.64
260.531	3.4
260.911	2.94
261.292	2.61
261.672	2.99
262.052	2.97
262.432	2.75
262.813	2.65
263.193	3.03
263.573	2.61
263.953	2.72
264.333	2.72
264.713	3.59
265.093	3.55
265.473	3.42
265.853	3.23
266.233	3.45
266.612	3.66
266.992	2.94
267.372	3.21
267.752	2.68
268.131	2.98
268.511	2.62
268.89	3.13
269.27	3.05
269.649	2.8
270.029	2.61
270.408	2.76
270.787	2.71
271.167	2.68
271.546	3.05
271.925	2.62
272.304	2.46
272.683	3.2
273.062	2.49
273.441	2.52
273.82	3.17
274.199	2.51
274.578	2.7
274.957	2.88
275.336	2.63
275.715	2.85
276.093	2.3
276.472	3.17
276.851	2.95
277.229	2.81
277.608	2.34
277.986	3.14
278.365	2.94
278.743	2.66
279.122	3.15
279.5	2.75
279.878	2.65
280.257	2.78
280.635	2.47
281.013	2.54
281.391	3.13
281.769	1.68
282.147	2.83
282.525	2.82
282.903	2.96
283.281	2.97
283.659	3.02
284.037	2.88
284.415	2.69
284.792	3.08
285.17	2.67
285.548	3.18
285.925	2.54
286.303	2.45
286.68	2.23
287.058	2.9
287.435	3.11
287.813	2.93
288.19	2.74
288.567	2.71
288.945	2.08
289.322	2.88
289.699	2.72
290.076	3.2
290.453	2.44
290.83	2.36
291.207	2.71
291.584	3.11
291.961	2.65
292.338	2.94
292.715	2.85
293.092	2.81
293.469	2.83
293.845	2.84
294.222	3.19
294.599	2.98
294.975	2.51
295.352	3.21
295.728	3.02
296.105	2.81
296.481	3.49
296.858	3.19
297.234	2.82
297.61	3.01
297.986	2.84
298.363	3.02
298.739	2.84
299.115	3.2
299.491	3.15
299.867	3.17
300.243	2.94
300.619	3.14
300.995	3.25
301.371	3.42
301.746	2.83
302.122	2.96
302.498	3.48
302.874	3.65
303.249	3.25
303.625	3.43
304	3.44
304.376	3.04
304.751	3.69
305.127	3.27
305.502	2.9
305.878	3.27
306.253	3.6
306.628	3.44
307.003	3.42
307.378	3.14
307.754	2.91
308.129	3.72
308.504	3.33
308.879	4.16
309.254	3.16
309.629	3.91
310.003	4.09
310.378	3.98
310.753	3.35
311.128	4.17
311.502	3.41
311.877	4.09
312.252	3.99
312.626	3.97
313.001	3.97
313.375	3.69
313.75	4.24
314.124	3.93
314.498	3.69
314.873	4.05
315.247	3.98
315.621	4.3
315.995	4.12
316.369	4.28
316.743	4.18
317.117	3.98
317.491	4.03
317.865	4.61
318.239	4.27
318.613	4.27
318.987	4.72
319.361	4.77
319.734	4.75
320.108	4.23
320.482	4.32
320.855	4.53
321.229	4.32
321.602	4.25
321.976	4.93
322.349	5.09
322.723	5.39
323.096	4.6
323.469	4.64
323.843	5.12
324.216	4.91
324.589	5.39
324.962	4.75
325.335	4.29
325.708	4.8
326.081	4.42
326.454	5.2
326.827	4.86
327.2	5.64
327.573	5.11
327.945	5.29
328.318	5.22
328.691	4.5
329.063	5
329.436	5.25
329.809	5.27
330.181	4.89
330.553	4.87
330.926	5.08
331.298	5.16
331.671	5.2
332.043	5.27
332.415	5.5
332.787	5.26
333.159	5.13
333.532	5
333.904	5.64
334.276	5.26
334.648	5.05
335.02	5.6
335.391	5.31
335.763	5.81
336.135	5.53
336.507	5.67
336.879	5.6
337.25	6
337.622	6.3
337.993	5.7
338.365	5.56
338.736	5.52
339.108	5.79
339.479	5.71
339.851	5.94
340.222	5.83
340.593	5.21
340.964	5.63
341.336	5.89
341.707	5.63
342.078	6.01
342.449	5.94
342.82	6.35
343.191	5.74
343.562	6.36
343.933	5.41
344.303	6
344.674	5.96
345.045	6.02
345.416	6.3
345.786	6.08
346.157	6.11
346.527	5.99
346.898	6.21
347.268	5.99
347.639	6.35
348.009	6.07
348.38	6.17
348.75	6.21
349.12	6.27
349.49	6.29
349.861	6.2
350.231	6.62
350.601	6.18
350.971	6.07
351.341	6.37
351.711	6.4
352.081	6.44
352.45	6.45
352.82	6.49
353.19	6.78
353.56	6.96
353.929	6.56
354.299	6.71
354.669	6.74
355.038	6.68
355.408	6.45
355.777	6.65
356.147	6.48
356.516	6.78
356.885	6.71
357.254	7.19
357.624	6.23
357.993	6.45
358.362	6.94
358.731	6.72
359.1	7.01
359.469	6.84
359.838	6.99
360.207	6.94
360.576	6.66
360.945	6.86
361.314	7.02
361.682	6.91
362.051	7.11
362.42	6.9
362.788	7.06
363.157	7.02
363.525	7.02
363.894	7.18
364.262	7.01
364.631	7.2
364.999	7.26
365.367	7.33
365.735	7.21
366.104	7.55
366.472	7.34
366.84	7.37
367.208	7.17
367.576	7.61
367.944	7.23
368.312	7.22
368.68	7.28
369.048	7.25
369.416	7.65
369.783	7.69
370.151	7.18
370.519	7.59
370.886	7.34
371.254	7.78
371.621	7.62
371.989	7.73
372.356	7.25
372.724	7.69
373.091	7.8
373.458	7.72
373.826	8.24
374.193	7.66
374.56	7.93
374.927	7.63
375.294	8.17
375.661	7.83
376.028	7.85
376.395	8.12
376.762	7.85
377.129	7.85
377.496	8.1
377.863	8.03
378.229	8.12
378.596	8
378.963	8.23
379.329	8.17
379.696	8.2
380.062	8.15
380.429	8.24
380.795	7.86
381.161	7.89
381.528	8.51
381.894	8.37
382.26	8.27
382.626	8.14
382.993	8.01
383.359	8.39
383.725	8.3
384.091	8.51
384.457	8.62
384.823	8.25
385.188	8.4
385.554	8.62
385.92	8.62
386.286	8.45
386.651	8.48
387.017	8.37
387.383	8.33
387.748	8.53
388.114	8.32
388.479	8.58
388.845	8.73
389.21	8.52
389.575	8.49
389.94	8.67
390.306	8.44
390.671	8.59
391.036	8.92
391.401	8.78
391.766	9.1
392.131	8.75
392.496	8.66
392.861	8.55
393.226	8.77
393.591	8.88
393.956	8.96
394.32	8.98
394.685	8.77
395.05	8.7
395.414	8.87
395.779	8.87
396.143	8.9
396.508	8.97
396.872	8.71
397.236	8.8
397.601	8.92
397.965	8.85
398.329	8.96
398.694	9.05
399.058	8.81
399.422	9.01
399.786	9.16
400.15	9.11
400.514	8.83
400.878	8.98
401.242	9
401.605	8.87
401.969	8.96
402.333	9.04
402.697	9.06
403.06	9.17
403.424	8.95
403.787	9.22
404.151	8.87
404.514	9.46
404.878	8.86
405.241	8.94
405.604	8.98
405.968	8.82
406.331	8.79
406.694	8.95
407.057	8.89
407.42	8.94
407.783	8.84
408.146	9.18
408.509	9.05
408.872	9
409.235	9.04
409.598	9.01
409.961	9.07
410.323	9.19
410.686	9.03
411.049	9.06
411.411	9.16
411.774	9.03
412.136	8.95
412.499	9.18
412.861	9.16
413.223	9.1
413.586	8.98
413.948	9.04
414.31	9.09
414.672	9.06
415.035	8.95
415.397	9.21
415.759	9.36
416.121	9.29
416.483	9.23
416.845	8.93
417.206	9.22
417.568	9.29
417.93	9.27
418.292	9.09
418.653	9.26
419.015	9.33
419.377	9.36
419.738	9.41
420.1	9.39
420.461	9.46
420.822	9.54
421.184	9.47
421.545	9.51
421.906	9.55
422.267	9.5
422.629	9.35
422.99	9.65
423.351	9.57
423.712	9.55
424.073	9.66
424.434	9.77
424.795	9.66
425.155	9.78
425.516	9.81
425.877	9.92
426.238	9.91
426.598	10.07
426.959	10.03
427.32	10.16
427.68	10.33
428.041	10.23
428.401	10.34
428.761	10.5
429.122	10.34
429.482	10.51
429.842	10.58
430.202	10.81
430.563	11.02
430.923	10.89
431.283	11.06
431.643	10.93
432.003	10.94
432.363	10.97
432.722	11.07
433.082	11.14
433.442	11.15
433.802	11.12
434.161	11.45
434.521	11.51
434.881	11.21
435.24	11.26
435.6	11.43
435.959	11.33
436.319	11.5
436.678	11.64
437.037	11.88
437.396	11.78
437.756	11.8
438.115	11.69
438.474	11.8
438.833	11.93
439.192	12.02
439.551	12.04
439.91	11.94
440.269	12.03
440.628	12.03
440.987	12.19
441.345	12.19
441.704	12.32
442.063	12.23
442.421	12.19
442.78	12.23
443.138	12.31
443.497	12.32
443.855	12.47
444.214	12.55
444.572	12.59
444.93	12.62
445.288	12.63
445.647	12.67
446.005	12.65
446.363	12.68
446.721	12.78
447.079	12.76
447.437	12.69
447.795	12.87
448.153	12.84
448.51	12.87
448.868	12.9
449.226	12.94
449.584	12.91
449.941	13.15
450.299	13.01
450.656	13.18
451.014	13.26
451.371	13.43
451.729	13.31
452.086	13.52
452.443	13.65
452.801	13.7
453.158	13.59
453.515	13.55
453.872	13.62
454.229	13.62
454.586	13.76
454.943	13.77
455.3	13.89
455.657	13.9
456.014	14.13
456.371	14.07
456.727	14.22
457.084	14.13
457.441	13.98
457.797	14.02
458.154	14.15
458.51	14.32
458.867	14.31
459.223	14.31
459.58	14.47
459.936	14.25
460.292	14.36
460.648	14.4
461.005	14.49
461.361	14.31
461.717	14.3
462.073	14.41
462.429	14.32
462.785	14.52
463.141	14.64
463.496	14.53
463.852	14.89
464.208	15.01
464.564	14.95
464.919	15.24
465.275	15.09
465.631	14.99
465.986	15.15
466.342	15.31
466.697	15.32
467.052	15.31
467.408	15.44
467.763	15.33
468.118	15.45
468.473	15.44
468.829	15.48
469.184	15.45
469.539	15.68
469.894	15.67
470.249	15.74
470.603	15.86
470.958	15.77
471.313	15.73
471.668	15.93
472.023	15.92
472.377	15.91
472.732	16.09
473.086	16.11
473.441	16.14
473.795	16.12
474.15	15.99
474.504	16.16
474.859	16.22
475.213	16.14
475.567	16.36
475.921	16.28
476.275	16.31
476.63	16.29
476.984	16.48
477.338	16.25
477.692	16.46
478.045	16.45
478.399	16.42
478.753	16.58
479.107	16.62
479.461	16.48
479.814	16.67
480.168	16.72
480.521	16.65
480.875	16.73
481.228	16.88
481.582	16.86
481.935	16.69
482.289	16.7
482.642	16.8
482.995	16.74
483.348	16.7
483.701	16.72
484.055	16.72
484.408	16.46
484.761	16.4
485.114	16.06
485.466	16.09
485.819	16.18
486.172	16.29
486.525	16.35
486.878	16.49
487.23	16.48
487.583	16.59
487.936	16.68
488.288	16.69
488.641	16.62
488.993	16.6
489.345	16.57
489.698	16.64
490.05	16.77
490.402	16.86
490.754	17.07
491.107	17.03
491.459	17.33
491.811	17.25
492.163	17.28
492.515	17.15
492.866	17.14
493.218	17.05
493.57	17.14
493.922	17.2
494.274	17.39
494.625	17.68
494.977	17.62
495.328	17.87
495.68	18.03
496.031	18.09
496.383	18.16
496.734	18.13
497.086	18.29
497.437	18.43
497.788	18.47
498.139	18.31
498.49	18.24
498.842	18.25
499.193	18.37
499.544	18.33
499.894	18.56
500.245	18.38
500.596	18.51
500.947	18.51
501.298	18.76
501.648	18.85
501.999	18.81
502.35	18.94
502.7	18.92
503.051	19.07
503.401	18.96
503.752	19.01
504.102	19.06
504.452	19.29
504.803	19.11
505.153	19.09
505.503	19.15
505.853	19.24
506.203	19.36
506.553	19.37
506.903	19.28
507.253	19.41
507.603	19.35
507.953	19.49
508.303	19.47
508.652	19.53
509.002	19.6
509.352	19.55
509.701	19.49
510.051	19.44
510.4	19.48
510.75	19.54
511.099	19.64
511.449	19.54
511.798	19.54
512.147	19.6
512.496	19.6
512.846	19.67
513.195	19.64
513.544	19.69
513.893	19.77
514.242	19.75
514.591	19.73
514.939	19.95
515.288	19.9
515.637	19.9
515.986	20.07
516.334	20.17
516.683	20.29
517.032	20.14
517.38	20.31
517.729	20.1
518.077	20.26
518.426	20.26
518.774	20.24
519.122	20.01
519.47	20.2
519.819	19.99
520.167	19.99
520.515	19.97
520.863	20.01
521.211	20.03
521.559	20.13
521.907	20.3
522.255	20.26
522.602	20.32
522.95	20.53
523.298	20.58
523.645	20.57
523.993	20.59
524.341	20.67
524.688	20.79
525.036	20.76
525.383	20.79
525.73	20.79
526.078	20.83
526.425	20.65
526.772	20.54
527.119	20.29
527.466	20.41
527.814	20.38
528.161	20.46
528.508	20.58
528.854	20.46
529.201	20.49
529.548	20.18
529.895	20.04
530.242	20.12
530.588	20.1
530.935	20.33
531.282	20.4
531.628	20.41
531.975	20.53
532.321	20.68
532.667	20.8
533.014	20.96
533.36	21.03
533.706	21.03
534.052	20.96
534.399	20.81
534.745	20.65
535.091	20.74
535.437	20.75
535.783	20.91
536.129	21.05
536.474	21.23
536.82	21.26
537.166	21.37
537.512	21.32
537.857	21.43
538.203	21.28
538.549	21.36
538.894	21.43
539.239	21.56
539.585	21.58
539.93	21.72
540.276	21.77
540.621	22.02
540.966	21.82
541.311	21.92
541.656	21.93
542.001	21.72
542.346	21.67
542.691	21.46
543.036	21.34
543.381	21.44
543.726	21.52
544.071	21.62
544.415	21.71
544.76	21.78
545.105	21.88
545.449	21.84
545.794	22.13
546.138	22.29
546.483	22.41
546.827	22.29
547.171	22.43
547.516	22.45
547.86	22.37
548.204	22.45
548.548	22.48
548.892	22.46
549.236	22.65
549.58	22.68
549.924	22.92
550.268	22.97
550.612	23.07
550.956	23.03
551.3	23.37
551.643	23.39
551.987	23.53
552.33	23.58
552.674	23.44
553.017	23.74
553.361	23.76
553.704	23.7
554.048	23.69
554.391	23.52
554.734	23.76
555.077	23.62
555.42	23.77
555.764	23.74
556.107	23.82
556.45	23.77
556.793	24
557.135	24.08
557.478	24.12
557.821	24.12
558.164	24.05
558.507	23.95
558.849	24.29
559.192	24.15
559.534	24.49
559.877	24.48
560.219	24.46
560.562	24.54
560.904	24.52
561.246	24.41
561.589	24.57
561.931	24.62
562.273	24.75
562.615	24.6
562.957	24.73
563.299	24.7
563.641	24.81
563.983	24.79
564.325	24.77
564.667	24.79
565.008	24.64
565.35	24.96
565.692	25.09
566.033	24.94
566.375	24.88
566.716	24.89
567.058	24.83
567.399	25
567.741	24.92
568.082	24.97
568.423	25.02
568.764	24.99
569.105	25.11
569.447	25.14
569.788	25.3
570.129	25.31
570.47	25.17
570.811	25.46
571.151	25.25
571.492	25.34
571.833	25.32
572.174	25.46
572.514	25.42
572.855	25.46
573.195	25.47
573.536	25.46
573.876	25.4
574.217	25.57
574.557	25.33
574.898	25.73
575.238	25.8
575.578	25.58
575.918	25.62
576.258	25.79
576.598	25.77
576.938	25.88
577.278	25.85
577.618	25.86
577.958	25.94
578.298	26.07
578.638	26.16
578.977	26.45
579.317	26.47
579.657	26.51
579.996	26.7
580.336	26.61
580.675	26.71
581.014	26.62
581.354	26.93
581.693	27.06
582.032	26.8
582.372	26.76
582.711	26.84
583.05	26.89
583.389	26.86
583.728	27.08
584.067	27.33
584.406	27.37
584.745	27.11
585.083	27.18
585.422	27.34
585.761	27.07
586.1	27.62
586.438	27.4
586.777	27.47
587.115	27.86
587.454	27.52
587.792	27.55
588.13	27.59
588.469	27.62
588.807	27.43
589.145	27.82
589.483	27.79
589.821	27.78
590.159	27.98
590.497	27.5
590.835	27.83
591.173	27.58
591.511	27.81
591.849	27.69
592.187	28.05
592.524	27.96
592.862	28.03
593.2	27.96
593.537	28.11
593.875	28.31
594.212	28.35
594.55	28.33
594.887	28.23
595.224	28.46
595.561	28.49
595.899	28.41
596.236	28.39
596.573	28.13
596.91	28.48
597.247	28.38
597.584	28.65
597.921	28.46
598.258	28.34
598.594	28.3
598.931	28.21
599.268	28.49
599.604	28.41
599.941	28.62
600.277	29.02
600.614	28.9
600.95	29.06
601.287	28.91
601.623	28.97
601.959	29.1
602.296	29.2
602.632	29.35
602.968	29.21
603.304	29.16
603.64	29.71
603.976	29.52
604.312	29.35
604.648	29.11
604.984	29.05
605.319	29.28
605.655	28.85
605.991	29.18
606.326	29.15
606.662	29.27
606.998	29.17
607.333	29.57
607.668	29.3
608.004	29.57
608.339	29.47
608.674	29.52
609.01	29.85
609.345	29.75
609.68	29.72
610.015	29.86
610.35	29.78
610.685	30.15
611.02	29.86
611.355	29.6
611.689	29.88
612.024	29.97
612.359	29.71
612.694	30.19
613.028	30.16
613.363	30.19
613.697	30.16
614.032	30.58
614.366	30.49
614.7	30.85
615.035	30.59
615.369	30.55
615.703	30.8
616.037	30.86
616.371	30.82
616.705	31.21
617.039	31.09
617.373	31.12
617.707	31.1
618.041	31.31
618.375	31.23
618.709	31.1
619.042	31.2
619.376	31.45
619.71	31.78
620.043	31.08
620.377	31.08
620.71	31.53
621.043	31.45
621.377	31.49
621.71	31.26
622.043	31.44
622.376	31.48
622.709	31.61
623.043	31.65
623.376	31.74
623.709	31.45
624.041	31.89
624.374	31.65
624.707	31.88
625.04	31.68
625.373	32.02
625.705	31.74
626.038	31.73
626.37	31.59
626.703	32.25
627.035	32.01
627.368	31.95
627.7	31.74
628.032	31.67
628.365	31.93
628.697	31.97
629.029	32.05
629.361	31.96
629.693	32.06
630.025	32.48
630.357	31.97
630.689	32.12
631.021	32.07
631.353	32.51
631.684	32.37
632.016	32.78
632.348	32.49
632.679	32.65
633.011	32.84
633.342	33.12
633.674	32.34
634.005	32.23
634.336	32.69
634.668	32.81
634.999	32.71
635.33	32.56
635.661	32.7
635.992	32.96
636.323	32.71
636.654	32.96
636.985	33.03
637.316	33.19
637.647	33.28
637.977	33.65
638.308	33.28
638.639	33.24
638.969	32.98
639.3	33.77
639.63	33.62
639.961	33.91
640.291	33.62
640.622	33.38
640.952	33.71
641.282	33.58
641.612	33.93
641.943	33.69
642.273	33.62
642.603	33.92
642.933	33.48
643.263	33.46
643.592	33.78
643.922	34.14
644.252	34.37
644.582	34.59
644.911	34.18
645.241	34.28
645.571	34.38
645.9	33.93
646.23	34.56
646.559	33.9
646.888	34.47
647.218	34.24
647.547	34.57
647.876	34.36
648.205	34.44
648.534	34.41
648.863	34.55
649.192	34.71
649.521	34.18
649.85	35.09
650.179	35.07
650.508	34.78
650.837	34.26
651.165	34.38
651.494	34.22
651.822	34.9
652.151	35.19
652.479	34.84
652.808	34.58
653.136	35.14
653.465	34.81
653.793	34.86
654.121	34.84
654.449	34.74
654.777	35.37
655.105	35.66
655.433	35.61
655.761	35.34
656.089	35.32
656.417	35.75
656.745	35.74
657.073	35.71
657.4	35.77
657.728	35.2
658.056	35.21
658.383	35.74
658.711	35.28
659.038	34.99
659.365	35.96
659.693	35.14
660.02	35.6
660.347	35.38
660.674	35.27
661.001	35.65
661.329	35.78
661.656	35.35
661.982	36.03
662.309	35.89
662.636	35.92
662.963	35.55
663.29	35.87
663.616	36.02
663.943	36.54
664.27	36.46
664.596	36
664.923	36.27
665.249	35.65
665.576	36.52
665.902	36.3
666.228	36.16
666.554	36.81
666.881	36.57
667.207	36.57
667.533	37.47
667.859	36.28
668.185	36.32
668.511	36.96
668.837	37.13
669.162	36.71
669.488	36.92
669.814	36.76
670.139	36.55
670.465	36.48
670.791	36.89
671.116	36.54
671.442	36.9
671.767	37
672.092	37.08
672.418	37.38
672.743	37.06
673.068	37.62
673.393	37.37
673.718	37.94
674.043	37.37
674.368	37.35
674.693	37.11
675.018	38
675.343	37.64
675.667	37.36
