Data from 2019-1_crown_Reflection__1__181.txt Node

Date: Fri Nov 11 18:18:41 CST 2022
User: ToomeyLab
Spectrometer: FLMS14357
Trigger mode: 0
Integration Time (sec): 1.000000E-2
Scans to average: 100
Electric dark correction enabled: true
Nonlinearity correction enabled: false
Boxcar width: 0
XAxis mode: Wavelengths
Number of Pixels in Spectrum: 2048
>>>>>Begin Spectral Data<<<<<
189.047	142.97
189.435	142.97
189.823	142.97
190.211	-623.15
190.599	29.66
190.987	-39.8
191.375	100.05
191.763	127.55
192.151	-136.38
192.538	64.88
192.926	-137.61
193.314	-250.52
193.702	1355.08
194.089	32.52
194.477	-3.23
194.864	2427.61
195.252	-7.68
195.639	-793.54
196.027	203.28
196.414	-195.77
196.801	-90.61
197.189	-688.69
197.576	21.7
197.963	-21.6
198.351	24.54
198.738	-32.09
199.125	-13.73
199.512	-16.44
199.899	12.79
200.286	-56.28
200.673	-36.9
201.06	-8.91
201.447	-10.92
201.833	40.99
202.22	-4.53
202.607	9.81
202.994	37.6
203.38	-7.41
203.767	-27.93
204.154	-17.34
204.54	27.31
204.927	-43.7
205.313	22
205.699	-47.45
206.086	-11.14
206.472	-79.58
206.858	-4.77
207.245	-1.97
207.631	-30.44
208.017	-19.38
208.403	-0.87
208.789	38.82
209.175	-20.94
209.561	-15.15
209.947	-22.41
210.333	11.46
210.719	-15.4
211.105	5.24
211.491	6.89
211.876	-33.8
212.262	-29.75
212.648	-7.25
213.034	-34.02
213.419	-14.67
213.805	-15.5
214.19	22.07
214.576	-8.61
214.961	15.26
215.346	-8.04
215.732	14.63
216.117	23.05
216.502	16.39
216.888	-33.18
217.273	-7.96
217.658	-44.38
218.043	6.43
218.428	13.56
218.813	-6.98
219.198	-16.11
219.583	-5.18
219.968	-30.7
220.353	-6.16
220.738	-0.78
221.122	-36.72
221.507	15.71
221.892	-7.66
222.276	2.21
222.661	1.93
223.046	2.3
223.43	4.35
223.815	-7.24
224.199	-3.29
224.583	8.67
224.968	8.73
225.352	5.66
225.736	-3.59
226.121	-2.65
226.505	-5.89
226.889	4.49
227.273	2.7
227.657	-1.69
228.041	-2.69
228.425	-4.02
228.809	0.61
229.193	0.03
229.577	2.71
229.961	3.44
230.344	2.56
230.728	2.88
231.112	3.52
231.495	3.16
231.879	2.42
232.263	5.04
232.646	2.01
233.03	2.08
233.413	2.45
233.797	2.17
234.18	0.6
234.563	1.37
234.946	1.16
235.33	4.87
235.713	0.16
236.096	3.71
236.479	0.81
236.862	2
237.245	3.87
237.628	-0.54
238.011	1
238.394	2.02
238.777	1.18
239.16	2.54
239.543	2.68
239.925	3.2
240.308	1.18
240.691	4.42
241.073	2.85
241.456	2.83
241.838	2.95
242.221	2.9
242.603	1.65
242.986	2.51
243.368	3.41
243.75	2.84
244.133	2.37
244.515	2.96
244.897	3.27
245.279	2.69
245.661	2.48
246.043	2.25
246.425	2.1
246.807	2.88
247.189	3.4
247.571	2.16
247.953	2.12
248.335	2.99
248.717	3.12
249.098	3.07
249.48	2.91
249.862	3.18
250.243	2.75
250.625	2.96
251.006	2.26
251.388	3.8
251.769	2.4
252.151	3.12
252.532	2.66
252.913	2.68
253.295	2.54
253.676	3.72
254.057	2.58
254.438	1.97
254.819	2.15
255.2	4.2
255.581	2.47
255.962	2.1
256.343	1.92
256.724	1.57
257.105	3.1
257.486	1.38
257.867	2.03
258.247	2.83
258.628	2.58
259.009	1.91
259.389	2.14
259.77	2.65
260.15	2.16
260.531	2.53
260.911	2.75
261.292	2.56
261.672	2.77
262.052	2.66
262.432	2.46
262.813	2.53
263.193	2.88
263.573	2.19
263.953	2.63
264.333	2.47
264.713	2.42
265.093	2.47
265.473	2.61
265.853	2.64
266.233	3.16
266.612	2.3
266.992	1.8
267.372	2.77
267.752	2.82
268.131	2.47
268.511	2.79
268.89	2.67
269.27	2.4
269.649	2.36
270.029	2.48
270.408	2.62
270.787	2.94
271.167	2.64
271.546	3.03
271.925	2.24
272.304	2.82
272.683	2.47
273.062	2.47
273.441	2.37
273.82	2.84
274.199	2.19
274.578	2.3
274.957	2.64
275.336	2.25
275.715	2.27
276.093	2.23
276.472	2.67
276.851	1.81
277.229	2.94
277.608	2.26
277.986	2.64
278.365	2.39
278.743	2.33
279.122	2.29
279.5	2.15
279.878	2.22
280.257	2.64
280.635	2.47
281.013	2.48
281.391	2.32
281.769	1.79
282.147	2.41
282.525	2.48
282.903	3.09
283.281	2.82
283.659	2.25
284.037	2.61
284.415	2.62
284.792	2.19
285.17	2.55
285.548	2.46
285.925	2.1
286.303	2.28
286.68	2.26
287.058	2.46
287.435	2.4
287.813	2.79
288.19	2.4
288.567	2.1
288.945	2.05
289.322	2.3
289.699	2.6
290.076	2.28
290.453	2.63
290.83	2.3
291.207	2.71
291.584	2.28
291.961	2.32
292.338	2.39
292.715	1.86
293.092	2.39
293.469	2.08
293.845	1.94
294.222	2.75
294.599	2.36
294.975	1.64
295.352	2.25
295.728	2.39
296.105	2.4
296.481	2.5
296.858	2.94
297.234	2.49
297.61	2.44
297.986	2.58
298.363	2.32
298.739	2.31
299.115	2.72
299.491	2.51
299.867	2.51
300.243	2.67
300.619	2.58
300.995	2.44
301.371	2.57
301.746	2.08
302.122	2.28
302.498	2.96
302.874	3.03
303.249	2.79
303.625	2.57
304	2.44
304.376	2.42
304.751	2.42
305.127	2.12
305.502	2.34
305.878	2.48
306.253	2.32
306.628	2.32
307.003	2.21
307.378	2.47
307.754	2.56
308.129	2.13
308.504	2.2
308.879	2.93
309.254	2.41
309.629	2.53
310.003	2.96
310.378	2.63
310.753	2.08
311.128	2.49
311.502	2.16
311.877	2.48
312.252	2.72
312.626	2.57
313.001	2.51
313.375	1.91
313.75	2.88
314.124	2.28
314.498	2.46
314.873	2.69
315.247	2.03
315.621	2.49
315.995	2.1
316.369	2.53
316.743	2.07
317.117	2.28
317.491	1.95
317.865	2.64
318.239	3.19
318.613	2.64
318.987	2.25
319.361	2.81
319.734	2.73
320.108	2.22
320.482	2.28
320.855	2.44
321.229	2.65
321.602	2.01
321.976	2.76
322.349	2.96
322.723	2.27
323.096	2.61
323.469	2.69
323.843	2.14
324.216	1.76
324.589	2.32
324.962	1.89
325.335	1.66
325.708	2.62
326.081	2.35
326.454	2.41
326.827	2.73
327.2	2.89
327.573	2.58
327.945	2.6
328.318	2.34
328.691	1.87
329.063	2.57
329.436	2.36
329.809	2.39
330.181	2.09
330.553	1.84
330.926	2.11
331.298	2.36
331.671	2.42
332.043	2.57
332.415	2.19
332.787	2.15
333.159	2.23
333.532	2.05
333.904	2.52
334.276	2.67
334.648	2.13
335.02	2.4
335.391	2.52
335.763	2.15
336.135	2.62
336.507	2.96
336.879	2.47
337.25	2.71
337.622	2.6
337.993	2.93
338.365	2.6
338.736	2.5
339.108	2.42
339.479	2.64
339.851	2.8
340.222	2.64
340.593	2.44
340.964	2.38
341.336	2.41
341.707	2.32
342.078	2.14
342.449	2.64
342.82	2.91
343.191	2.51
343.562	2.76
343.933	2.14
344.303	2.25
344.674	2.47
345.045	2.41
345.416	2.5
345.786	2.53
346.157	2.24
346.527	2.71
346.898	2.58
347.268	2.43
347.639	2.46
348.009	2.41
348.38	2.61
348.75	2.06
349.12	2.55
349.49	2.24
349.861	2.44
350.231	2.98
350.601	2.26
350.971	2.32
351.341	2.51
351.711	2.66
352.081	2.44
352.45	2.48
352.82	2.74
353.19	2.73
353.56	2.97
353.929	2.35
354.299	2.31
354.669	2.59
355.038	2.86
355.408	2.55
355.777	2.71
356.147	2.43
356.516	2.41
356.885	2.41
357.254	3.02
357.624	2.24
357.993	2.21
358.362	2.52
358.731	2.33
359.1	2.54
359.469	2.52
359.838	2.63
360.207	2.92
360.576	2.56
360.945	2.65
361.314	2.73
361.682	2.47
362.051	2.63
362.42	2.5
362.788	2.6
363.157	2.41
363.525	2.55
363.894	2.67
364.262	2.49
364.631	2.79
364.999	2.66
365.367	2.6
365.735	2.76
366.104	3.02
366.472	2.74
366.84	2.77
367.208	2.51
367.576	2.8
367.944	2.48
368.312	2.56
368.68	2.61
369.048	2.59
369.416	3.06
369.783	2.67
370.151	2.51
370.519	2.66
370.886	2.4
371.254	2.58
371.621	2.76
371.989	3.24
372.356	2.43
372.724	2.64
373.091	2.91
373.458	2.57
373.826	2.68
374.193	2.6
374.56	2.61
374.927	2.78
375.294	2.6
375.661	2.5
376.028	3
376.395	2.84
376.762	2.8
377.129	2.43
377.496	2.73
377.863	2.46
378.229	2.65
378.596	2.84
378.963	2.77
379.329	2.77
379.696	2.8
380.062	2.64
380.429	2.61
380.795	2.58
381.161	2.76
381.528	2.81
381.894	2.82
382.26	2.84
382.626	2.65
382.993	2.6
383.359	2.67
383.725	2.49
384.091	2.7
384.457	2.78
384.823	2.6
385.188	2.65
385.554	2.78
385.92	3.12
386.286	2.84
386.651	2.73
387.017	2.5
387.383	2.85
387.748	2.51
388.114	2.64
388.479	2.89
388.845	2.9
389.21	2.43
389.575	2.69
389.94	2.9
390.306	2.74
390.671	2.69
391.036	2.84
391.401	2.83
391.766	3.25
392.131	2.76
392.496	2.83
392.861	2.59
393.226	2.72
393.591	2.95
393.956	2.9
394.32	2.85
394.685	2.86
395.05	2.58
395.414	2.93
395.779	2.69
396.143	2.65
396.508	2.84
396.872	2.75
397.236	2.78
397.601	2.96
397.965	2.7
398.329	2.84
398.694	3.22
399.058	2.87
399.422	3.04
399.786	3.07
400.15	2.93
400.514	2.72
400.878	2.7
401.242	2.85
401.605	2.83
401.969	2.9
402.333	2.62
402.697	3.02
403.06	2.83
403.424	2.61
403.787	2.89
404.151	2.77
404.514	2.95
404.878	2.67
405.241	2.86
405.604	2.77
405.968	2.83
406.331	2.59
406.694	2.9
407.057	2.79
407.42	2.69
407.783	2.72
408.146	2.88
408.509	2.83
408.872	2.64
409.235	2.96
409.598	2.69
409.961	2.75
410.323	2.96
410.686	3.05
411.049	2.78
411.411	2.99
411.774	2.78
412.136	2.66
412.499	2.82
412.861	2.97
413.223	2.76
413.586	2.75
413.948	2.76
414.31	2.8
414.672	2.79
415.035	2.82
415.397	3.03
415.759	3.17
416.121	2.83
416.483	2.86
416.845	2.58
417.206	2.93
417.568	2.78
417.93	2.94
418.292	2.75
418.653	2.94
419.015	2.93
419.377	2.91
419.738	2.82
420.1	2.9
420.461	2.97
420.822	2.96
421.184	2.92
421.545	3
421.906	2.93
422.267	2.88
422.629	2.89
422.99	2.88
423.351	2.89
423.712	2.81
424.073	2.86
424.434	2.9
424.795	2.86
425.155	2.8
425.516	2.74
425.877	2.8
426.238	2.86
426.598	2.79
426.959	2.9
427.32	2.91
427.68	2.99
428.041	2.81
428.401	3
428.761	2.9
429.122	2.96
429.482	2.95
429.842	2.78
430.202	3.01
430.563	2.95
430.923	2.96
431.283	3.07
431.643	2.91
432.003	3.02
432.363	3.06
432.722	3.06
433.082	2.94
433.442	3.06
433.802	2.8
434.161	3.09
434.521	3
434.881	2.81
435.24	2.94
435.6	2.97
435.959	3
436.319	2.94
436.678	2.93
437.037	3.08
437.396	3
437.756	2.94
438.115	2.9
438.474	2.98
438.833	3.15
439.192	2.96
439.551	3.01
439.91	2.9
440.269	2.96
440.628	2.95
440.987	3.02
441.345	2.9
441.704	2.97
442.063	3.03
442.421	3.01
442.78	2.99
443.138	2.97
443.497	2.95
443.855	3
444.214	3.13
444.572	3.17
444.93	3.02
445.288	3.01
445.647	3.09
446.005	3.03
446.363	2.96
446.721	3.14
447.079	2.94
447.437	2.98
447.795	2.97
448.153	2.92
448.51	3.03
448.868	3.02
449.226	3.05
449.584	3.08
449.941	2.98
450.299	2.97
450.656	3.15
451.014	3.11
451.371	3.18
451.729	3.1
452.086	3.01
452.443	3.08
452.801	3
453.158	2.96
453.515	3.06
453.872	3.04
454.229	3.09
454.586	3.03
454.943	3.06
455.3	3.16
455.657	3.1
456.014	3.11
456.371	3.12
456.727	3.2
457.084	3.1
457.441	3.07
457.797	3.08
458.154	3.04
458.51	3.09
458.867	3.11
459.223	3.01
459.58	3.05
459.936	3.12
460.292	3.1
460.648	3.04
461.005	3.12
461.361	3.05
461.717	3.08
462.073	3.04
462.429	2.94
462.785	3.09
463.141	3.01
463.496	3.08
463.852	3.24
464.208	3.09
464.564	3.14
464.919	3.12
465.275	3.24
465.631	3.13
465.986	3.01
466.342	3.23
466.697	3.09
467.052	3.14
467.408	3.37
467.763	3.23
468.118	3.14
468.473	3.2
468.829	3
469.184	3.09
469.539	3.14
469.894	3.3
470.249	3.08
470.603	3.11
470.958	3.18
471.313	2.95
471.668	3.19
472.023	3.28
472.377	3.26
472.732	3.27
473.086	3.25
473.441	3.2
473.795	3.15
474.15	3.07
474.504	3.37
474.859	3.12
475.213	3.14
475.567	3.32
475.921	3.2
476.275	3.15
476.63	3.16
476.984	3.2
477.338	3.17
477.692	3.22
478.045	3.04
478.399	3.12
478.753	3.16
479.107	3.27
479.461	3.27
479.814	3.09
480.168	3.23
480.521	3.22
480.875	3.19
481.228	3.11
481.582	3.18
481.935	3.1
482.289	3.14
482.642	3.26
482.995	3.21
483.348	3.13
483.701	3.17
484.055	3.19
484.408	3.06
484.761	3.04
485.114	2.97
485.466	2.9
485.819	2.93
486.172	3.02
486.525	3.06
486.878	3.14
487.23	3.16
487.583	3.14
487.936	3.05
488.288	3.13
488.641	3.09
488.993	3.02
489.345	3.02
489.698	3.03
490.05	3.12
490.402	3.1
490.754	3.15
491.107	3.12
491.459	3.22
491.811	3.09
492.163	3.13
492.515	3.13
492.866	3.04
493.218	3
493.57	3.09
493.922	3.1
494.274	3.19
494.625	3.24
494.977	3.21
495.328	3.27
495.68	3.28
496.031	3.22
496.383	3.25
496.734	3.24
497.086	3.15
497.437	3.26
497.788	3.31
498.139	3.21
498.49	3.25
498.842	3.22
499.193	3.2
499.544	3.21
499.894	3.38
500.245	3.18
500.596	3.32
500.947	3.22
501.298	3.22
501.648	3.28
501.999	3.32
502.35	3.27
502.7	3.26
503.051	3.34
503.401	3.21
503.752	3.27
504.102	3.22
504.452	3.3
504.803	3.17
505.153	3.38
505.503	3.29
505.853	3.32
506.203	3.37
506.553	3.37
506.903	3.38
507.253	3.38
507.603	3.26
507.953	3.34
508.303	3.34
508.652	3.37
509.002	3.31
509.352	3.31
509.701	3.22
510.051	3.28
510.4	3.33
510.75	3.33
511.099	3.37
511.449	3.31
511.798	3.36
512.147	3.34
512.496	3.29
512.846	3.37
513.195	3.27
513.544	3.31
513.893	3.2
514.242	3.32
514.591	3.27
514.939	3.27
515.288	3.44
515.637	3.23
515.986	3.4
516.334	3.32
516.683	3.41
517.032	3.34
517.38	3.32
517.729	3.31
518.077	3.42
518.426	3.24
518.774	3.34
519.122	3.29
519.47	3.26
519.819	3.21
520.167	3.25
520.515	3.27
520.863	3.27
521.211	3.29
521.559	3.25
521.907	3.34
522.255	3.25
522.602	3.4
522.95	3.33
523.298	3.4
523.645	3.33
523.993	3.29
524.341	3.33
524.688	3.3
525.036	3.29
525.383	3.34
525.73	3.41
526.078	3.33
526.425	3.21
526.772	3.3
527.119	3.18
527.466	3.26
527.814	3.21
528.161	3.26
528.508	3.35
528.854	3.34
529.201	3.34
529.548	3.2
529.895	3.11
530.242	3.12
530.588	3.14
530.935	3.2
531.282	3.19
531.628	3.25
531.975	3.3
532.321	3.26
532.667	3.32
533.014	3.34
533.36	3.4
533.706	3.29
534.052	3.28
534.399	3.24
534.745	3.19
535.091	3.22
535.437	3.27
535.783	3.26
536.129	3.33
536.474	3.29
536.82	3.35
537.166	3.27
537.512	3.36
537.857	3.39
538.203	3.37
538.549	3.31
538.894	3.31
539.239	3.31
539.585	3.41
539.93	3.38
540.276	3.39
540.621	3.46
540.966	3.44
541.311	3.47
541.656	3.37
542.001	3.35
542.346	3.34
542.691	3.26
543.036	3.17
543.381	3.24
543.726	3.21
544.071	3.3
544.415	3.4
544.76	3.29
545.105	3.25
545.449	3.28
545.794	3.43
546.138	3.32
546.483	3.42
546.827	3.31
547.171	3.46
547.516	3.37
547.86	3.34
548.204	3.37
548.548	3.43
548.892	3.35
549.236	3.44
549.58	3.5
549.924	3.38
550.268	3.4
550.612	3.5
550.956	3.54
551.3	3.41
551.643	3.34
551.987	3.46
552.33	3.66
552.674	3.48
553.017	3.47
553.361	3.53
553.704	3.52
554.048	3.34
554.391	3.39
554.734	3.45
555.077	3.46
555.42	3.55
555.764	3.52
556.107	3.37
556.45	3.54
556.793	3.52
557.135	3.43
557.478	3.48
557.821	3.4
558.164	3.5
558.507	3.3
558.849	3.39
559.192	3.41
559.534	3.54
559.877	3.58
560.219	3.42
560.562	3.47
560.904	3.63
561.246	3.48
561.589	3.61
561.931	3.53
562.273	3.43
562.615	3.6
562.957	3.56
563.299	3.43
563.641	3.52
563.983	3.39
564.325	3.45
564.667	3.5
565.008	3.61
565.35	3.63
565.692	3.62
566.033	3.62
566.375	3.52
566.716	3.29
567.058	3.42
567.399	3.57
567.741	3.62
568.082	3.47
568.423	3.4
568.764	3.67
569.105	3.58
569.447	3.5
569.788	3.64
570.129	3.51
570.47	3.5
570.811	3.42
571.151	3.52
571.492	3.55
571.833	3.45
572.174	3.52
572.514	3.54
572.855	3.44
573.195	3.47
573.536	3.54
573.876	3.51
574.217	3.44
574.557	3.39
574.898	3.72
575.238	3.51
575.578	3.58
575.918	3.38
576.258	3.48
576.598	3.7
576.938	3.66
577.278	3.49
577.618	3.56
577.958	3.52
578.298	3.55
578.638	3.57
578.977	3.63
579.317	3.64
579.657	3.74
579.996	3.82
580.336	3.71
580.675	3.47
581.014	3.53
581.354	3.71
581.693	3.49
582.032	3.51
582.372	3.78
582.711	3.67
583.05	3.55
583.389	3.64
583.728	3.49
584.067	3.73
584.406	3.65
584.745	3.77
585.083	3.47
585.422	3.48
585.761	3.51
586.1	3.77
586.438	3.35
586.777	3.54
587.115	3.57
587.454	3.43
587.792	3.57
588.13	3.56
588.469	3.52
588.807	3.6
589.145	3.71
589.483	3.68
589.821	3.78
590.159	3.59
590.497	3.5
590.835	3.77
591.173	3.57
591.511	3.75
591.849	3.65
592.187	3.68
592.524	3.54
592.862	3.63
593.2	3.57
593.537	3.52
593.875	3.85
594.212	3.62
594.55	3.67
594.887	3.96
595.224	3.66
595.561	3.74
595.899	3.6
596.236	3.46
596.573	3.54
596.91	3.59
597.247	3.6
597.584	3.65
597.921	3.58
598.258	3.69
598.594	3.43
598.931	3.47
599.268	3.57
599.604	3.48
599.941	3.56
600.277	3.71
600.614	3.55
600.95	3.48
601.287	3.6
601.623	3.56
601.959	3.54
602.296	3.75
602.632	3.86
602.968	3.66
603.304	3.43
603.64	3.82
603.976	3.65
604.312	3.65
604.648	3.69
604.984	3.61
605.319	3.64
605.655	3.45
605.991	3.71
606.326	3.54
606.662	3.7
606.998	3.68
607.333	3.63
607.668	3.64
608.004	3.75
608.339	3.69
608.674	3.85
609.01	3.73
609.345	3.68
609.68	3.63
610.015	3.66
610.35	3.7
610.685	3.66
611.02	3.53
611.355	3.66
611.689	3.68
612.024	3.66
612.359	3.53
612.694	3.82
613.028	3.71
613.363	3.62
613.697	3.43
614.032	3.64
614.366	3.81
614.7	3.62
615.035	3.33
615.369	3.51
615.703	3.4
616.037	3.53
616.371	3.72
616.705	3.91
617.039	3.67
617.373	3.7
617.707	3.82
618.041	3.99
618.375	3.96
618.709	3.37
619.042	3.65
619.376	3.7
619.71	3.72
620.043	3.75
620.377	3.57
620.71	3.96
621.043	3.8
621.377	3.73
621.71	3.6
622.043	3.83
622.376	3.84
622.709	3.58
623.043	3.9
623.376	3.56
623.709	3.57
624.041	3.81
624.374	3.67
624.707	3.75
625.04	3.47
625.373	3.74
625.705	3.48
626.038	3.44
626.37	3.55
626.703	3.78
627.035	3.63
627.368	3.75
627.7	3.97
628.032	3.75
628.365	3.68
628.697	3.76
629.029	3.78
629.361	3.73
629.693	3.7
630.025	3.85
630.357	3.68
630.689	3.67
631.021	3.42
631.353	3.76
631.684	3.81
632.016	3.5
632.348	3.32
632.679	3.79
633.011	3.61
633.342	4.04
633.674	3.53
634.005	3.28
634.336	3.85
634.668	3.75
634.999	3.86
635.33	3.66
635.661	3.68
635.992	3.83
636.323	3.82
636.654	3.57
636.985	3.94
637.316	3.81
637.647	3.93
637.977	3.67
638.308	3.87
638.639	3.58
638.969	3.34
639.3	3.86
639.63	3.63
639.961	3.96
640.291	3.96
640.622	3.6
640.952	4.35
641.282	4
641.612	3.95
641.943	4.05
642.273	3.65
642.603	3.59
642.933	3.69
643.263	3.51
643.592	3.8
643.922	3.57
644.252	3.76
644.582	3.77
644.911	3.75
645.241	3.35
645.571	3.82
645.9	3.77
646.23	3.56
646.559	3.87
646.888	4.04
647.218	3.93
647.547	4.21
647.876	3.8
648.205	3.6
648.534	3.77
648.863	3.98
649.192	4.37
649.521	3.59
649.85	3.98
650.179	4.09
650.508	3.88
650.837	3.69
651.165	3.52
651.494	4.03
651.822	3.93
652.151	4.42
652.479	4.05
652.808	4.17
653.136	3.94
653.465	3.9
653.793	3.66
654.121	3.78
654.449	3.53
654.777	3.86
655.105	3.94
655.433	3.67
655.761	3.88
656.089	3.82
656.417	3.98
656.745	4.13
657.073	3.84
657.4	4.43
657.728	3.95
658.056	3.89
658.383	3.86
658.711	3.75
659.038	3.86
659.365	4.2
659.693	3.88
660.02	4.16
660.347	3.72
660.674	3.58
661.001	3.74
661.329	4.06
661.656	3.95
661.982	4.25
662.309	4.04
662.636	4.02
662.963	3.98
663.29	3.79
663.616	3.56
663.943	4.38
664.27	4.36
664.596	3.74
664.923	3.13
665.249	3.69
665.576	4.3
665.902	3.77
666.228	3.51
666.554	4.29
666.881	4.02
667.207	3.49
667.533	3.93
667.859	3.78
668.185	2.8
668.511	3.85
668.837	3.78
669.162	3.62
669.488	3.93
669.814	3.67
670.139	4.03
670.465	3.94
670.791	3.61
671.116	3.8
671.442	4.16
671.767	4.33
672.092	3.77
672.418	3.71
672.743	3.42
673.068	4.15
673.393	4.04
673.718	4.24
674.043	3.69
674.368	4.15
674.693	4.28
675.018	4.16
675.343	4.51
675.667	4.47
675.992	3.55
676.317	4.04
676.641	4.21
676.966	3.58
677.29	4.14
677.615	4.59
677.939	4.04
678.264	4.1
678.588	3.89
678.912	3.46
679.236	3.88
679.56	3.59
679.885	4
680.209	2.89
680.532	3.05
680.856	3.99
681.18	3.84
681.504	3.78
681.828	4.34
682.152	3.89
682.475	4.19
682.799	4.21
683.122	4.19
683.446	4.1
683.769	4.54
684.093	4.05
684.416	3.86
684.739	4.14
685.062	3.97
685.386	3.74
685.709	4.42
686.032	4.49
686.355	4.15
686.678	3.5
687.001	3.84
687.324	4.49
687.646	4.59
687.969	4.24
688.292	3.85
688.614	4.27
688.937	3.71
689.26	4.08
689.582	3.98
689.904	4.16
690.227	3.87
690.549	4.14
690.871	4.15
691.194	4.76
691.516	3.84
691.838	3
692.16	3.76
692.482	4.41
