Data from 2019-1_crown_Reflection__0__180.txt Node

Date: Fri Nov 11 18:18:31 CST 2022
User: ToomeyLab
Spectrometer: FLMS14357
Trigger mode: 0
Integration Time (sec): 1.000000E-2
Scans to average: 100
Electric dark correction enabled: true
Nonlinearity correction enabled: false
Boxcar width: 0
XAxis mode: Wavelengths
Number of Pixels in Spectrum: 2048
>>>>>Begin Spectral Data<<<<<
189.047	62.25
189.435	62.25
189.823	62.25
190.211	-6.44
190.599	33.9
190.987	-54.58
191.375	57.24
191.763	23.91
192.151	283.93
192.538	170.55
192.926	57.49
193.314	84.12
193.702	-373.35
194.089	115.98
194.477	105.85
194.864	-955.97
195.252	-8.93
195.639	-268.92
196.027	163.66
196.414	13.21
196.801	-70.11
197.189	-482.87
197.576	111.86
197.963	14.22
198.351	-20.66
198.738	-8.21
199.125	33.98
199.512	7.35
199.899	40.22
200.286	-59.52
200.673	-40.51
201.06	-16.5
201.447	10.47
201.833	4.18
202.22	0.12
202.607	-19.21
202.994	36.13
203.38	-13.04
203.767	28.85
204.154	7.47
204.54	35.34
204.927	-39.11
205.313	-12.14
205.699	-56.76
206.086	-15.83
206.472	-6.18
206.858	22.6
207.245	10.55
207.631	12.85
208.017	-37.32
208.403	-9.67
208.789	44.42
209.175	-50.29
209.561	8.04
209.947	39.65
210.333	16.94
210.719	31.94
211.105	10.85
211.491	44.71
211.876	-28.56
212.262	-47.36
212.648	4.75
213.034	-8.69
213.419	-1.22
213.805	5.98
214.19	-20.05
214.576	-35.14
214.961	-12.72
215.346	-41.32
215.732	7.2
216.117	9.15
216.502	28.69
216.888	-31.12
217.273	-6.33
217.658	-10.19
218.043	7.89
218.428	21.8
218.813	-1.77
219.198	-2.94
219.583	23.63
219.968	-24.46
220.353	18.41
220.738	-12.59
221.122	-29.42
221.507	21.59
221.892	5.15
222.276	13.4
222.661	10.42
223.046	-0.41
223.43	9.7
223.815	-2.7
224.199	1.15
224.583	16.07
224.968	15.44
225.352	6.78
225.736	3.78
226.121	2.26
226.505	4.88
226.889	4.93
227.273	9.22
227.657	7.47
228.041	8.72
228.425	3.2
228.809	8
229.193	7.16
229.577	6.2
229.961	8.58
230.344	6.84
230.728	7.04
231.112	6.49
231.495	6.73
231.879	6.39
232.263	5.97
232.646	6.81
233.03	5.41
233.413	6.49
233.797	5.44
234.18	4.93
234.563	4.28
234.946	4.97
235.33	6.29
235.713	5.3
236.096	6.21
236.479	5.39
236.862	6
237.245	6.97
237.628	5.72
238.011	5.66
238.394	6.71
238.777	6.12
239.16	5.92
239.543	6.22
239.925	5.81
240.308	6.26
240.691	6.76
241.073	6.26
241.456	5.56
241.838	7.02
242.221	6.12
242.603	5.44
242.986	6.17
243.368	6.18
243.75	6.03
244.133	5.81
244.515	6.18
244.897	6.28
245.279	5.75
245.661	5.03
246.043	5.94
246.425	5.33
246.807	5.83
247.189	5.92
247.571	6.02
247.953	5.96
248.335	5.78
248.717	6.19
249.098	6
249.48	5.93
249.862	5.81
250.243	5.89
250.625	5.79
251.006	5.83
251.388	6.21
251.769	6.35
252.151	5.99
252.532	5.64
252.913	5.31
253.295	5.54
253.676	6.67
254.057	5.96
254.438	5.27
254.819	5.84
255.2	6.07
255.581	5.57
255.962	5.98
256.343	5.64
256.724	5.81
257.105	5.04
257.486	5.12
257.867	5.36
258.247	5.12
258.628	5.49
259.009	4.98
259.389	5.64
259.77	6.52
260.15	5.65
260.531	5.67
260.911	5.19
261.292	5.23
261.672	5.57
262.052	5.51
262.432	5.28
262.813	5.26
263.193	5.46
263.573	5.57
263.953	5.36
264.333	5.15
264.713	5.31
265.093	4.68
265.473	5.56
265.853	5.65
266.233	5.98
266.612	5.01
266.992	5.05
267.372	5.82
267.752	5.2
268.131	5.38
268.511	5.36
268.89	5.41
269.27	5.15
269.649	5.3
270.029	5.28
270.408	4.98
270.787	5.14
271.167	5.18
271.546	5.3
271.925	4.99
272.304	5.23
272.683	5.21
273.062	4.9
273.441	5.05
273.82	5.26
274.199	5.1
274.578	5.06
274.957	5.3
275.336	5.2
275.715	4.75
276.093	5.17
276.472	5.39
276.851	4.74
277.229	4.95
277.608	4.32
277.986	5.4
278.365	4.79
278.743	5.28
279.122	5.63
279.5	4.92
279.878	4.85
280.257	5.38
280.635	5.11
281.013	4.49
281.391	5.39
281.769	4.75
282.147	4.86
282.525	5.27
282.903	5.62
283.281	5.31
283.659	4.71
284.037	5.07
284.415	4.66
284.792	5.27
285.17	5.12
285.548	4.99
285.925	5.16
286.303	5
286.68	4.75
287.058	5.11
287.435	5.14
287.813	5.1
288.19	4.78
288.567	4.4
288.945	4.33
289.322	4.89
289.699	4.82
290.076	4.91
290.453	4.6
290.83	4.32
291.207	4.79
291.584	4.68
291.961	4.99
292.338	4.97
292.715	4.54
293.092	4.75
293.469	4.7
293.845	4.5
294.222	4.8
294.599	4.36
294.975	4.34
295.352	4.98
295.728	4.39
296.105	4.5
296.481	4.77
296.858	4.87
297.234	4.84
297.61	4.86
297.986	4.36
298.363	4.65
298.739	4.75
299.115	4.59
299.491	4.27
299.867	4.89
300.243	4.48
300.619	4.58
300.995	4.59
301.371	4.65
301.746	3.85
302.122	4.38
302.498	4.82
302.874	4.4
303.249	4.7
303.625	4.27
304	3.98
304.376	4.66
304.751	4.65
305.127	4.47
305.502	4.14
305.878	4.7
306.253	4.38
306.628	4.89
307.003	4.79
307.378	4.17
307.754	4.33
308.129	4.97
308.504	4.42
308.879	4.51
309.254	4.43
309.629	4.73
310.003	4.8
310.378	4.64
310.753	4.15
311.128	4.38
311.502	4.03
311.877	4.63
312.252	4.93
312.626	4.58
313.001	4.73
313.375	3.89
313.75	4.82
314.124	4.57
314.498	4.46
314.873	4.31
315.247	4.57
315.621	4.3
315.995	4.46
316.369	3.84
316.743	4.24
317.117	4.16
317.491	4.14
317.865	4.85
318.239	4.68
318.613	4.68
318.987	4
319.361	4.47
319.734	4.48
320.108	3.83
320.482	4.16
320.855	4.3
321.229	4.31
321.602	3.98
321.976	4.41
322.349	4.91
322.723	4.94
323.096	4.12
323.469	3.87
323.843	4.59
324.216	4.37
324.589	4.53
324.962	3.75
325.335	3.99
325.708	4.15
326.081	4.4
326.454	4.2
326.827	4.33
327.2	4.78
327.573	4.44
327.945	4.5
328.318	4.35
328.691	3.92
329.063	4.59
329.436	4
329.809	4.32
330.181	3.98
330.553	3.97
330.926	4.22
331.298	3.98
331.671	4.27
332.043	4.02
332.415	3.53
332.787	3.99
333.159	3.86
333.532	4.22
333.904	4.65
334.276	3.91
334.648	3.61
335.02	4.41
335.391	3.66
335.763	4.46
336.135	4.36
336.507	4.5
336.879	4.61
337.25	4.46
337.622	4.93
337.993	4.34
338.365	4.48
338.736	4.04
339.108	4.39
339.479	4.13
339.851	4.46
340.222	4.04
340.593	4.19
340.964	4.33
341.336	4.29
341.707	3.92
342.078	4.29
342.449	4.23
342.82	4.4
343.191	4.44
343.562	4.67
343.933	4.04
344.303	4.22
344.674	4.51
345.045	4.01
345.416	4.58
345.786	4.4
346.157	4.28
346.527	4.4
346.898	4.6
347.268	4.14
347.639	4.45
348.009	4.47
348.38	4.48
348.75	4.5
349.12	4.53
349.49	4.25
349.861	4.04
350.231	4.54
350.601	4.42
350.971	4.16
351.341	4.64
351.711	4.37
352.081	4.28
352.45	4.39
352.82	4.4
353.19	4.34
353.56	5.04
353.929	4.01
354.299	4.52
354.669	4.12
355.038	4.43
355.408	4.2
355.777	4.76
356.147	4.54
356.516	3.99
356.885	4.45
357.254	4.61
357.624	4.29
357.993	4.05
358.362	4.47
358.731	4.5
359.1	4.56
359.469	4.43
359.838	4.27
360.207	4.49
360.576	4.21
360.945	4.46
361.314	4.3
361.682	4.39
362.051	4.32
362.42	4.18
362.788	4.44
363.157	4.18
363.525	4.24
363.894	4.44
364.262	4.17
364.631	4.34
364.999	4.22
365.367	4.21
365.735	4.81
366.104	4.58
366.472	4.39
366.84	4.49
367.208	4.27
367.576	4.45
367.944	4.12
368.312	3.96
368.68	4.3
369.048	4.67
369.416	4.61
369.783	4.54
370.151	4.22
370.519	4.34
370.886	4.29
371.254	4.35
371.621	4.62
371.989	4.39
372.356	4.29
372.724	4.23
373.091	4.38
373.458	4.37
373.826	4.93
374.193	4.64
374.56	4.41
374.927	4.35
375.294	4.35
375.661	4.6
376.028	4.56
376.395	4.53
376.762	4.39
377.129	4.6
377.496	4.61
377.863	4.38
378.229	4.47
378.596	4.54
378.963	4.55
379.329	4.68
379.696	4.57
380.062	4.53
380.429	4.28
380.795	4.25
381.161	4.64
381.528	4.76
381.894	4.7
382.26	4.31
382.626	4.45
382.993	4.6
383.359	4.48
383.725	4.67
384.091	4.43
384.457	4.35
384.823	4.52
385.188	4.42
385.554	4.72
385.92	4.7
386.286	4.47
386.651	4.38
387.017	4.48
387.383	4.59
387.748	4.64
388.114	4.76
388.479	4.66
388.845	4.55
389.21	4.56
389.575	4.48
389.94	4.57
390.306	4.88
390.671	4.61
391.036	4.56
391.401	4.59
391.766	4.87
392.131	4.73
392.496	4.75
392.861	4.45
393.226	4.72
393.591	4.81
393.956	4.74
394.32	4.45
394.685	4.48
395.05	4.58
395.414	4.74
395.779	4.38
396.143	4.59
396.508	4.73
396.872	4.45
397.236	4.48
397.601	4.44
397.965	4.65
398.329	4.68
398.694	4.73
399.058	4.53
399.422	5.02
399.786	4.7
400.15	4.64
400.514	4.58
400.878	4.76
401.242	4.54
401.605	4.33
401.969	4.51
402.333	4.73
402.697	4.74
403.06	4.68
403.424	4.56
403.787	4.5
404.151	4.67
404.514	4.82
404.878	4.52
405.241	4.76
405.604	4.79
405.968	4.63
406.331	4.56
406.694	4.56
407.057	4.58
407.42	4.48
407.783	4.53
408.146	4.75
408.509	4.66
408.872	4.84
409.235	4.66
409.598	4.63
409.961	4.57
410.323	4.83
410.686	4.63
411.049	4.63
411.411	4.72
411.774	4.52
412.136	4.64
412.499	4.79
412.861	4.59
413.223	4.49
413.586	4.64
413.948	4.43
414.31	4.71
414.672	4.63
415.035	4.86
415.397	4.79
415.759	4.74
416.121	4.48
416.483	4.65
416.845	4.58
417.206	4.73
417.568	4.67
417.93	4.6
418.292	4.58
418.653	4.63
419.015	4.48
419.377	4.76
419.738	4.72
420.1	4.78
420.461	4.73
420.822	4.64
421.184	4.59
421.545	4.68
421.906	4.69
422.267	4.61
422.629	4.57
422.99	4.62
423.351	4.65
423.712	4.54
424.073	4.56
424.434	4.62
424.795	4.58
425.155	4.58
425.516	4.6
425.877	4.59
426.238	4.69
426.598	4.65
426.959	4.56
427.32	4.69
427.68	4.74
428.041	4.54
428.401	4.88
428.761	4.64
429.122	4.73
429.482	4.78
429.842	4.62
430.202	4.8
430.563	4.73
430.923	4.75
431.283	4.78
431.643	4.65
432.003	4.8
432.363	4.73
432.722	4.78
433.082	4.63
433.442	4.89
433.802	4.68
434.161	4.8
434.521	4.73
434.881	4.6
435.24	4.7
435.6	4.77
435.959	4.72
436.319	4.83
436.678	4.7
437.037	4.85
437.396	4.85
437.756	4.81
438.115	4.68
438.474	4.8
438.833	4.75
439.192	4.73
439.551	4.72
439.91	4.72
440.269	4.86
440.628	4.74
440.987	4.72
441.345	4.76
441.704	4.83
442.063	4.86
442.421	4.85
442.78	4.75
443.138	4.7
443.497	4.65
443.855	4.83
444.214	4.84
444.572	4.94
444.93	4.66
445.288	4.75
445.647	4.91
446.005	4.83
446.363	4.79
446.721	4.67
447.079	4.71
447.437	4.68
447.795	4.72
448.153	4.75
448.51	4.73
448.868	4.72
449.226	4.71
449.584	4.72
449.941	4.76
450.299	4.67
450.656	4.82
451.014	4.79
451.371	4.91
451.729	4.72
452.086	4.98
452.443	4.81
452.801	4.86
453.158	4.77
453.515	4.92
453.872	4.75
454.229	4.99
454.586	4.83
454.943	4.92
455.3	4.9
455.657	4.81
456.014	4.99
456.371	4.85
456.727	4.82
457.084	4.69
457.441	4.84
457.797	4.85
458.154	4.89
458.51	4.91
458.867	4.9
459.223	4.78
459.58	4.83
459.936	4.81
460.292	4.83
460.648	4.87
461.005	4.95
461.361	4.76
461.717	4.8
462.073	4.73
462.429	4.72
462.785	4.86
463.141	4.8
463.496	4.7
463.852	5
464.208	4.81
464.564	4.81
464.919	4.85
465.275	4.87
465.631	4.9
465.986	4.79
466.342	5.08
466.697	4.7
467.052	4.94
467.408	5.09
467.763	4.94
468.118	4.92
468.473	4.82
468.829	4.74
469.184	4.83
469.539	4.8
469.894	4.9
470.249	4.88
470.603	4.87
470.958	5.14
471.313	4.69
471.668	4.8
472.023	4.89
472.377	5.19
472.732	4.87
473.086	4.88
473.441	4.91
473.795	4.86
474.15	4.83
474.504	4.94
474.859	5.01
475.213	4.92
475.567	4.91
475.921	4.98
476.275	4.96
476.63	4.91
476.984	4.86
477.338	4.88
477.692	5.1
478.045	4.84
478.399	4.85
478.753	4.98
479.107	4.97
479.461	4.97
479.814	4.93
480.168	4.94
480.521	4.93
480.875	4.84
481.228	5.07
481.582	5.04
481.935	4.82
482.289	4.94
482.642	4.9
482.995	4.87
483.348	4.72
483.701	4.76
484.055	4.88
484.408	4.72
484.761	4.73
485.114	4.65
485.466	4.58
485.819	4.58
486.172	4.64
486.525	4.59
486.878	4.72
487.23	4.73
487.583	4.77
487.936	4.74
488.288	4.72
488.641	4.72
488.993	4.68
489.345	4.65
489.698	4.66
490.05	4.67
490.402	4.69
490.754	4.85
491.107	4.71
491.459	4.8
491.811	4.78
492.163	4.88
492.515	4.78
492.866	4.7
493.218	4.69
493.57	4.72
493.922	4.72
494.274	4.77
494.625	4.81
494.977	4.82
495.328	4.94
495.68	4.96
496.031	4.93
496.383	4.95
496.734	4.85
497.086	4.92
497.437	5.02
497.788	4.93
498.139	4.91
498.49	4.93
498.842	4.84
499.193	4.91
499.544	4.91
499.894	4.87
500.245	4.92
500.596	4.9
500.947	4.92
501.298	4.95
501.648	4.99
501.999	4.92
502.35	4.93
502.7	5
503.051	4.79
503.401	4.96
503.752	4.89
504.102	4.96
504.452	5.01
504.803	4.94
505.153	5.05
505.503	4.94
505.853	4.94
506.203	5.07
506.553	5.05
506.903	5.05
507.253	5.07
507.603	4.75
507.953	5.06
508.303	4.96
508.652	5.14
509.002	5
509.352	4.97
509.701	4.9
510.051	4.91
510.4	5.06
510.75	5.02
511.099	5.03
511.449	5.01
511.798	5.03
512.147	4.99
512.496	4.95
512.846	5
513.195	4.88
513.544	5.06
513.893	4.9
514.242	4.9
514.591	4.86
514.939	5.05
515.288	5.1
515.637	4.97
515.986	5.02
516.334	5.09
516.683	5
517.032	4.97
517.38	5.01
517.729	4.99
518.077	5.16
518.426	4.91
518.774	4.97
519.122	4.93
519.47	4.96
519.819	5.01
520.167	4.9
520.515	4.92
520.863	4.92
521.211	4.98
521.559	4.9
521.907	5
522.255	4.97
522.602	5.01
522.95	5.05
523.298	4.97
523.645	5.03
523.993	5.04
524.341	5.09
524.688	5.01
525.036	5
525.383	5.02
525.73	5.14
526.078	5.04
526.425	5.07
526.772	4.9
527.119	4.98
527.466	4.93
527.814	4.8
528.161	4.92
528.508	4.92
528.854	4.92
529.201	4.99
529.548	4.82
529.895	4.78
530.242	4.76
530.588	4.75
530.935	4.77
531.282	4.8
531.628	4.86
531.975	4.89
532.321	4.84
532.667	4.97
533.014	4.99
533.36	4.95
533.706	4.96
534.052	5
534.399	4.85
534.745	4.86
535.091	4.81
535.437	4.87
535.783	4.89
536.129	4.87
536.474	4.92
536.82	4.93
537.166	4.99
537.512	5.04
537.857	4.96
538.203	4.91
538.549	4.92
538.894	4.99
539.239	4.95
539.585	5
539.93	5.08
540.276	5.04
540.621	5.14
540.966	5
541.311	5.06
541.656	5.03
542.001	5.04
542.346	4.92
542.691	4.86
543.036	4.84
543.381	4.89
543.726	4.83
544.071	4.8
544.415	4.95
544.76	4.83
545.105	4.86
545.449	4.85
545.794	4.95
546.138	4.96
546.483	4.98
546.827	4.9
547.171	5.07
547.516	5.06
547.86	4.95
548.204	4.98
548.548	4.97
548.892	4.91
549.236	5.03
549.58	5
549.924	5.08
550.268	5.13
550.612	5.11
550.956	5.05
551.3	5.1
551.643	5.06
551.987	4.99
552.33	5.18
552.674	5.21
553.017	5.27
553.361	5.21
553.704	5.25
554.048	5.07
554.391	5.04
554.734	5.12
555.077	5.16
555.42	5.26
555.764	5.22
556.107	5
556.45	5.14
556.793	5.24
557.135	5.19
557.478	5.2
557.821	5.27
558.164	5.11
558.507	5.03
558.849	5.16
559.192	5.14
559.534	5.14
559.877	5.32
560.219	4.96
560.562	5.2
560.904	5.2
561.246	5.31
561.589	5.25
561.931	5.18
562.273	5.18
562.615	5.27
562.957	5.13
563.299	5.27
563.641	5.28
563.983	5.05
564.325	5.03
564.667	5.03
565.008	5.15
565.35	5.21
565.692	5.16
566.033	5.16
566.375	4.99
566.716	5.1
567.058	4.99
567.399	5.36
567.741	5.11
568.082	5.16
568.423	5.13
568.764	5.26
569.105	5.16
569.447	5.28
569.788	5.2
570.129	5.19
570.47	5.21
570.811	5.18
571.151	5.14
571.492	5.1
571.833	5.14
572.174	5.09
572.514	5.17
572.855	5.11
573.195	5.17
573.536	5.22
573.876	5.11
574.217	5.04
574.557	5.02
574.898	5.26
575.238	5.3
575.578	5.17
575.918	5
576.258	5
576.598	5.16
576.938	5.1
577.278	5.16
577.618	5.14
577.958	5.04
578.298	5.31
578.638	5.07
578.977	5.18
579.317	5.33
579.657	5.24
579.996	5.2
580.336	5.29
580.675	5.14
581.014	5.18
581.354	5.32
581.693	5.33
582.032	5.29
582.372	5.07
582.711	5.29
583.05	5.12
583.389	5.13
583.728	5.2
584.067	5.49
584.406	5.22
584.745	5.35
585.083	5.12
585.422	5.1
585.761	5.16
586.1	5.18
586.438	5.11
586.777	5.11
587.115	5.58
587.454	5.17
587.792	5.41
588.13	5.13
588.469	5.29
588.807	5.29
589.145	5.09
589.483	5.43
589.821	5.44
590.159	5.19
590.497	5.15
590.835	5.4
591.173	4.98
591.511	5.39
591.849	5.33
592.187	5.1
592.524	5.11
592.862	5.15
593.2	5.19
593.537	5.1
593.875	5.22
594.212	5.12
594.55	5.27
594.887	5.16
595.224	5.09
595.561	5.35
595.899	5.05
596.236	5.18
596.573	5.13
596.91	5.31
597.247	5.01
597.584	5.36
597.921	5.2
598.258	5.08
598.594	4.98
598.931	4.94
599.268	5.16
599.604	5.15
599.941	5.16
600.277	5.18
600.614	5.06
600.95	5.14
601.287	5.21
601.623	5
601.959	5.15
602.296	5.08
602.632	5.09
602.968	5.21
603.304	5.17
603.64	5.42
603.976	5.29
604.312	5.34
604.648	5.06
604.984	5.17
605.319	5.1
605.655	5
605.991	5.17
606.326	5.04
606.662	5.13
606.998	5.08
607.333	5.26
607.668	5.14
608.004	5.32
608.339	5.1
608.674	5.21
609.01	5.32
609.345	5.27
609.68	5.16
610.015	5.04
610.35	4.99
610.685	5.14
611.02	5.07
611.355	5.16
611.689	5.24
612.024	5.06
612.359	4.96
612.694	5.44
613.028	5.13
613.363	5.04
613.697	5.06
614.032	5.26
614.366	5.17
614.7	5.12
615.035	5.07
615.369	4.93
615.703	4.69
616.037	5.31
616.371	5.14
616.705	5.41
617.039	5.11
617.373	5.26
617.707	5.34
618.041	5.32
618.375	5.29
618.709	5
619.042	5.11
619.376	5.14
619.71	5.17
620.043	5.3
620.377	5.03
620.71	5.4
621.043	5.09
621.377	5.47
621.71	4.99
622.043	5.67
622.376	5.41
622.709	5.03
623.043	5.39
623.376	5.16
623.709	5.17
624.041	5.44
624.374	5.06
624.707	5.18
625.04	5.25
625.373	5.51
625.705	5.27
626.038	5.35
626.37	5.33
626.703	5.3
627.035	5.27
627.368	4.95
627.7	5.16
628.032	5.15
628.365	5.21
628.697	5.35
629.029	5.35
629.361	5.22
629.693	5.11
630.025	5.42
630.357	5.26
630.689	5.18
631.021	4.98
631.353	5.32
631.684	5.46
632.016	5.34
632.348	5.14
632.679	5.04
633.011	5.27
633.342	5.4
633.674	5.2
634.005	4.81
634.336	5.41
634.668	5.42
634.999	5.4
635.33	5.12
635.661	5.18
635.992	5.31
636.323	4.88
636.654	4.95
636.985	5.2
637.316	5.63
637.647	5.36
637.977	5.33
638.308	5.37
638.639	5.27
638.969	4.78
639.3	5.3
639.63	5.35
639.961	5.25
640.291	5.26
640.622	4.92
640.952	5.32
641.282	5.43
641.612	5.14
641.943	5.65
642.273	5.34
642.603	5.06
642.933	5.27
643.263	5.08
643.592	5.07
643.922	5.37
644.252	5.49
644.582	5.48
644.911	5.47
645.241	5.06
645.571	4.99
645.9	5.13
646.23	5.25
646.559	5.35
646.888	5.47
647.218	5.74
647.547	5.62
647.876	5.22
648.205	5.3
648.534	5.13
648.863	5.06
649.192	5.36
649.521	5.12
649.85	5.04
650.179	5.65
650.508	5.36
650.837	5.2
651.165	4.65
651.494	5.54
651.822	5.4
652.151	5.77
652.479	5.44
652.808	5.65
653.136	5.2
653.465	5.35
653.793	5.3
654.121	4.99
654.449	5.1
654.777	4.77
655.105	5.37
655.433	5.17
655.761	5.16
656.089	5.32
656.417	6
656.745	5.22
657.073	5.36
657.4	5.32
657.728	5.39
658.056	5.31
658.383	5.06
658.711	5.63
659.038	5.36
659.365	5.56
659.693	5.01
660.02	5.18
660.347	5.26
660.674	5.18
661.001	5.41
661.329	5.49
661.656	5.42
661.982	5.43
662.309	5.15
662.636	5.54
662.963	4.91
663.29	5.06
663.616	5.47
663.943	5.42
664.27	5.47
664.596	5.31
664.923	4.8
665.249	5.04
665.576	5.83
665.902	5.71
666.228	4.84
666.554	5.67
666.881	5.24
667.207	4.98
667.533	5.51
667.859	5.11
668.185	4.53
668.511	5.01
668.837	5.41
669.162	5.05
669.488	5.61
669.814	5.26
670.139	5.26
670.465	5.46
670.791	5.14
671.116	5.16
671.442	5.74
671.767	5.66
672.092	4.92
672.418	5.45
672.743	4.64
673.068	5.6
673.393	5.81
673.718	5.69
674.043	4.7
674.368	5.97
674.693	5.97
675.018	5.44
675.343	5.36
675.667	5.35
675.992	5.07
676.317	5.05
676.641	5.24
676.966	5.08
677.29	5.47
677.615	5.48
677.939	5.79
678.264	5.38
678.588	5.38
678.912	5.19
679.236	4.81
679.56	4.88
679.885	5.19
680.209	5.24
680.532	5.32
680.856	5.14
681.18	5.21
681.504	5.17
681.828	5.66
682.152	5.3
682.475	5.52
682.799	5.56
683.122	5.33
683.446	5.75
683.769	5.75
684.093	5.56
684.416	5.73
684.739	5.64
685.062	5.42
685.386	5.11
685.709	5.77
686.032	5.64
686.355	5.77
686.678	5.65
687.001	5.13
687.324	5.58
687.646	5.78
687.969	5.65
688.292	5.62
688.614	4.91
688.937	4.81
689.26	5.19
689.582	5.27
689.904	5.01
690.227	5.02
690.549	5.57
690.871	5.44
691.194	5.63
691.516	5.45
691.838	5.12
692.16	5.04
692.482	5.88
692.804	5.33
693.126	4.88
693.448	5.43
