Data from 2019-1_chest_Reflection__2__177.txt Node

Date: Fri Nov 11 18:16:10 CST 2022
User: ToomeyLab
Spectrometer: FLMS14357
Trigger mode: 0
Integration Time (sec): 1.000000E-2
Scans to average: 100
Electric dark correction enabled: true
Nonlinearity correction enabled: false
Boxcar width: 0
XAxis mode: Wavelengths
Number of Pixels in Spectrum: 2048
>>>>>Begin Spectral Data<<<<<
189.047	87.73
189.435	87.73
189.823	87.73
190.211	-334.38
190.599	142.37
190.987	0.26
191.375	163
191.763	49.03
192.151	-470.05
192.538	21.71
192.926	443.95
193.314	-167.06
193.702	684.01
194.089	-140.88
194.477	127
194.864	-100.75
195.252	-41.37
195.639	-227.18
196.027	22.74
196.414	104.32
196.801	-94.19
197.189	-635.08
197.576	108.89
197.963	-35.89
198.351	22.15
198.738	2.75
199.125	-7.31
199.512	-18.98
199.899	38.96
200.286	-20.72
200.673	15.23
201.06	5.98
201.447	4.96
201.833	60.46
202.22	-14.88
202.607	-1.75
202.994	41.68
203.38	15.59
203.767	23.19
204.154	-53.02
204.54	24.83
204.927	7.51
205.313	6.22
205.699	-1.92
206.086	-35.07
206.472	-17.69
206.858	34.36
207.245	3.03
207.631	-7.25
208.017	-30.22
208.403	-12.72
208.789	5.98
209.175	-24.65
209.561	-1.07
209.947	43.04
210.333	22.76
210.719	-6.72
211.105	-4.21
211.491	31.24
211.876	-16.77
212.262	-52.96
212.648	24.44
213.034	-31
213.419	-8.03
213.805	-0.75
214.19	13.98
214.576	3.12
214.961	-7.83
215.346	-23.21
215.732	26.16
216.117	21.98
216.502	41.84
216.888	-13.18
217.273	8.81
217.658	-2.24
218.043	16.22
218.428	11.17
218.813	-16.49
219.198	14.1
219.583	2.31
219.968	-11.21
220.353	-5.47
220.738	6.76
221.122	-34.37
221.507	25.85
221.892	4.8
222.276	5.3
222.661	16.03
223.046	-1.09
223.43	-3.42
223.815	0.42
224.199	-3.46
224.583	13.35
224.968	10.87
225.352	14.54
225.736	5.3
226.121	4.11
226.505	5.14
226.889	2.99
227.273	10.03
227.657	10.15
228.041	1.75
228.425	-0.14
228.809	2.6
229.193	4.14
229.577	4.18
229.961	3.04
230.344	2.65
230.728	3.18
231.112	3.13
231.495	3.57
231.879	3.59
232.263	3.63
232.646	3.4
233.03	1.82
233.413	2.97
233.797	1.45
234.18	1.51
234.563	1.34
234.946	1.11
235.33	3.35
235.713	1.91
236.096	3.12
236.479	0.88
236.862	1.97
237.245	2.5
237.628	2.65
238.011	1.06
238.394	3.49
238.777	1.47
239.16	3.7
239.543	5.04
239.925	2.7
240.308	4.4
240.691	5.07
241.073	2.3
241.456	3.77
241.838	3.42
242.221	3.39
242.603	2.51
242.986	3.23
243.368	3.51
243.75	3.39
244.133	3.27
244.515	3.71
244.897	3.51
245.279	3.69
245.661	3.56
246.043	2.5
246.425	2.83
246.807	3.58
247.189	3.14
247.571	3.6
247.953	3.24
248.335	3.38
248.717	3.42
249.098	3.32
249.48	3.13
249.862	3.11
250.243	3.44
250.625	2.84
251.006	2.85
251.388	3.41
251.769	3.04
252.151	3.45
252.532	3.13
252.913	3.6
253.295	2.86
253.676	3.69
254.057	3.16
254.438	2.77
254.819	3.33
255.2	3.97
255.581	3.37
255.962	2.72
256.343	3.22
256.724	3.14
257.105	4.45
257.486	2.9
257.867	3.39
258.247	3.57
258.628	3.08
259.009	2.79
259.389	2.7
259.77	3.74
260.15	2.86
260.531	3.03
260.911	3
261.292	3.08
261.672	3.16
262.052	3.11
262.432	2.86
262.813	3.26
263.193	3
263.573	2.41
263.953	2.92
264.333	2.91
264.713	3.48
265.093	3.13
265.473	3.35
265.853	3.11
266.233	3.52
266.612	2.94
266.992	2.28
267.372	4.12
267.752	3.81
268.131	2.81
268.511	2.98
268.89	3.56
269.27	3.01
269.649	3.1
270.029	2.9
270.408	3.66
270.787	2.88
271.167	2.97
271.546	3.33
271.925	3.26
272.304	3.38
272.683	3
273.062	3.06
273.441	2.6
273.82	3.43
274.199	3.23
274.578	3.1
274.957	3.22
275.336	2.77
275.715	2.91
276.093	2.77
276.472	2.95
276.851	3.24
277.229	3.05
277.608	2.97
277.986	2.95
278.365	3.01
278.743	3.07
279.122	3.35
279.5	2.65
279.878	2.52
280.257	3
280.635	2.46
281.013	2.8
281.391	3.47
281.769	2.37
282.147	3.41
282.525	3.22
282.903	2.96
283.281	3.63
283.659	2.96
284.037	2.99
284.415	2.81
284.792	3
285.17	3.05
285.548	3.1
285.925	3.11
286.303	2.87
286.68	2.73
287.058	2.82
287.435	3.15
287.813	3.17
288.19	2.88
288.567	2.64
288.945	2.39
289.322	2.85
289.699	2.92
290.076	2.79
290.453	3.08
290.83	3.03
291.207	2.95
291.584	3.13
291.961	2.95
292.338	3.1
292.715	3.11
293.092	3.31
293.469	2.7
293.845	2.61
294.222	3.6
294.599	3.4
294.975	2.36
295.352	3.43
295.728	2.98
296.105	2.81
296.481	3.41
296.858	3.29
297.234	3.19
297.61	2.82
297.986	3.03
298.363	3.24
298.739	2.95
299.115	3.23
299.491	3.07
299.867	3.18
300.243	2.88
300.619	3.37
300.995	3.25
301.371	3.29
301.746	2.78
302.122	3.05
302.498	3.33
302.874	3.55
303.249	3.23
303.625	3.54
304	3.34
304.376	3.16
304.751	3.6
305.127	3.39
305.502	3.1
305.878	3.37
306.253	3.41
306.628	3.15
307.003	3.62
307.378	2.76
307.754	3.28
308.129	3.3
308.504	2.67
308.879	3.68
309.254	3.42
309.629	3.41
310.003	3.52
310.378	3.42
310.753	3.17
311.128	3.75
311.502	2.51
311.877	3.14
312.252	3.53
312.626	3.42
313.001	3.56
313.375	2.84
313.75	3.22
314.124	3.1
314.498	3.02
314.873	3
315.247	3.17
315.621	3.67
315.995	3.07
316.369	2.87
316.743	2.96
317.117	3.14
317.491	3.18
317.865	4.01
318.239	3.59
318.613	3.26
318.987	3.25
319.361	3.47
319.734	3.72
320.108	3.04
320.482	3.25
320.855	2.77
321.229	3.08
321.602	2.79
321.976	3.26
322.349	3.75
322.723	3.47
323.096	3.18
323.469	3.54
323.843	3.17
324.216	2.78
324.589	3.5
324.962	3.22
325.335	2.6
325.708	3.16
326.081	3.17
326.454	3.02
326.827	3.08
327.2	3.59
327.573	3.01
327.945	3.42
328.318	3.7
328.691	3.04
329.063	3.4
329.436	3.24
329.809	3.75
330.181	3.05
330.553	3.06
330.926	3.21
331.298	3.15
331.671	3.09
332.043	3.04
332.415	3
332.787	3.45
333.159	2.96
333.532	3.15
333.904	3.48
334.276	3.1
334.648	3.21
335.02	3.58
335.391	2.96
335.763	3.26
336.135	3.69
336.507	3.53
336.879	3.37
337.25	3.62
337.622	3.73
337.993	3.66
338.365	3.91
338.736	3.06
339.108	3.39
339.479	3.7
339.851	3.51
340.222	3.37
340.593	3.52
340.964	3.25
341.336	2.98
341.707	3.47
342.078	3
342.449	3.23
342.82	3.53
343.191	3.62
343.562	3.51
343.933	3
344.303	3.04
344.674	3.29
345.045	3.4
345.416	3.13
345.786	3.21
346.157	3.86
346.527	3.5
346.898	3.31
347.268	3.25
347.639	3.43
348.009	3.32
348.38	3.48
348.75	3.48
349.12	3.61
349.49	3.42
349.861	3.11
350.231	3.72
350.601	3.3
350.971	3.41
351.341	3.22
351.711	3.42
352.081	3.55
352.45	3.14
352.82	3.77
353.19	3.96
353.56	3.9
353.929	3
354.299	3.37
354.669	3.81
355.038	3.98
355.408	3.21
355.777	3.83
356.147	3.64
356.516	3.1
356.885	3.33
357.254	3.88
357.624	3.27
357.993	3.27
358.362	3.61
358.731	3.23
359.1	3.13
359.469	3.31
359.838	3.6
360.207	3.7
360.576	3.32
360.945	3.36
361.314	3.5
361.682	3.36
362.051	3.49
362.42	3.3
362.788	3.44
363.157	3.14
363.525	3.33
363.894	3.41
364.262	3.2
364.631	3.44
364.999	3.49
365.367	3.61
365.735	3.65
366.104	3.33
366.472	3.37
366.84	3.64
367.208	3.36
367.576	3.68
367.944	3.41
368.312	3.01
368.68	3.23
369.048	3.39
369.416	3.58
369.783	3.51
370.151	3.4
370.519	3.29
370.886	3.3
371.254	3.47
371.621	3.86
371.989	3.62
372.356	3.39
372.724	3.46
373.091	3.47
373.458	3.37
373.826	3.53
374.193	3.45
374.56	3.28
374.927	3.12
375.294	3.47
375.661	3.35
376.028	3.6
376.395	3.61
376.762	3.61
377.129	3.34
377.496	3.78
377.863	3.19
378.229	3.6
378.596	3.6
378.963	3.43
379.329	3.44
379.696	3.62
380.062	3.26
380.429	3.28
380.795	3.71
381.161	3.52
381.528	3.98
381.894	3.53
382.26	3.47
382.626	3.39
382.993	3.6
383.359	3.74
383.725	3.61
384.091	3.45
384.457	3.48
384.823	3.47
385.188	3.49
385.554	3.75
385.92	3.8
386.286	3.57
386.651	3.43
387.017	3.49
387.383	3.52
387.748	3.54
388.114	3.32
388.479	3.62
388.845	3.43
389.21	3.37
389.575	3.33
389.94	3.48
390.306	3.5
390.671	3.58
391.036	3.65
391.401	3.73
391.766	3.76
392.131	3.48
392.496	3.46
392.861	3.41
393.226	3.59
393.591	3.79
393.956	3.73
394.32	3.62
394.685	3.55
395.05	3.49
395.414	3.78
395.779	3.45
396.143	3.69
396.508	3.73
396.872	3.49
397.236	3.36
397.601	3.64
397.965	3.5
398.329	3.7
398.694	3.96
399.058	3.55
399.422	3.59
399.786	3.74
400.15	3.67
400.514	3.7
400.878	3.47
401.242	3.65
401.605	3.45
401.969	3.65
402.333	3.54
402.697	3.87
403.06	3.5
403.424	3.46
403.787	3.71
404.151	3.71
404.514	3.67
404.878	3.75
405.241	3.71
405.604	3.67
405.968	3.54
406.331	3.5
406.694	3.73
407.057	3.68
407.42	3.53
407.783	3.5
408.146	3.88
408.509	3.46
408.872	3.64
409.235	3.83
409.598	3.5
409.961	3.78
410.323	3.63
410.686	3.89
411.049	3.67
411.411	3.81
411.774	3.58
412.136	3.54
412.499	3.73
412.861	3.67
413.223	3.49
413.586	3.69
413.948	3.6
414.31	3.85
414.672	3.58
415.035	3.61
415.397	3.8
415.759	3.91
416.121	3.76
416.483	3.68
416.845	3.47
417.206	3.88
417.568	3.79
417.93	3.71
418.292	3.55
418.653	3.58
419.015	3.71
419.377	3.7
419.738	3.8
420.1	3.7
420.461	3.74
420.822	3.76
421.184	3.73
421.545	3.64
421.906	3.67
422.267	3.7
422.629	3.64
422.99	3.6
423.351	3.71
423.712	3.55
424.073	3.68
424.434	3.63
424.795	3.69
425.155	3.56
425.516	3.65
425.877	3.62
426.238	3.66
426.598	3.67
426.959	3.61
427.32	3.69
427.68	3.75
428.041	3.66
428.401	3.79
428.761	3.8
429.122	3.72
429.482	3.79
429.842	3.76
430.202	3.68
430.563	3.84
430.923	3.79
431.283	3.83
431.643	3.69
432.003	3.98
432.363	3.81
432.722	3.92
433.082	3.81
433.442	3.93
433.802	3.55
434.161	3.95
434.521	3.91
434.881	3.76
435.24	3.89
435.6	3.77
435.959	3.66
436.319	3.86
436.678	3.74
437.037	3.97
437.396	3.86
437.756	3.93
438.115	3.76
438.474	3.89
438.833	3.94
439.192	3.8
439.551	3.9
439.91	3.79
440.269	3.88
440.628	3.84
440.987	3.83
441.345	3.87
441.704	3.84
442.063	3.89
442.421	3.86
442.78	3.9
443.138	3.83
443.497	3.81
443.855	3.86
444.214	3.91
444.572	3.97
444.93	3.85
445.288	3.76
445.647	3.94
446.005	3.78
446.363	3.89
446.721	3.94
447.079	3.83
447.437	3.86
447.795	3.86
448.153	3.79
448.51	3.85
448.868	3.94
449.226	3.94
449.584	3.96
449.941	3.84
450.299	3.82
450.656	4.02
451.014	3.98
451.371	4.02
451.729	3.92
452.086	3.95
452.443	4.04
452.801	3.99
453.158	3.95
453.515	4.04
453.872	3.96
454.229	4.12
454.586	3.98
454.943	3.93
455.3	3.93
455.657	3.97
456.014	3.97
456.371	4.04
456.727	3.97
457.084	4.27
457.441	4
457.797	3.92
458.154	4.19
458.51	4.06
458.867	4.03
459.223	4.02
459.58	4.01
459.936	3.95
460.292	4.1
460.648	3.93
461.005	4.01
461.361	3.95
461.717	4.03
462.073	3.96
462.429	3.91
462.785	4.09
463.141	4
463.496	4.05
463.852	4.11
464.208	4.19
464.564	3.99
464.919	4.08
465.275	4.04
465.631	4.1
465.986	3.95
466.342	4.14
466.697	4.05
467.052	4.14
467.408	4.38
467.763	4.31
468.118	4.14
468.473	4.14
468.829	4
469.184	4.12
469.539	4.14
469.894	4.12
470.249	4.17
470.603	4.22
470.958	4.17
471.313	4
471.668	4.07
472.023	4.21
472.377	4.25
472.732	4.36
473.086	4.31
473.441	4.34
473.795	4.26
474.15	4.21
474.504	4.33
474.859	4.27
475.213	4.23
475.567	4.37
475.921	4.21
476.275	4.13
476.63	4.15
476.984	4.36
477.338	4.14
477.692	4.21
478.045	4.14
478.399	4.09
478.753	4.26
479.107	4.34
479.461	4.28
479.814	4.29
480.168	4.27
480.521	4.26
480.875	4.26
481.228	4.29
481.582	4.31
481.935	4.3
482.289	4.3
482.642	4.32
482.995	4.27
483.348	4.13
483.701	4.25
484.055	4.18
484.408	4.07
484.761	4.12
485.114	3.99
485.466	3.97
485.819	4.04
486.172	4.05
486.525	4.1
486.878	4.18
487.23	4.18
487.583	4.22
487.936	4.16
488.288	4.21
488.641	4.18
488.993	4.14
489.345	4.12
489.698	4.13
490.05	4.16
490.402	4.13
490.754	4.24
491.107	4.16
491.459	4.27
491.811	4.26
492.163	4.28
492.515	4.25
492.866	4.21
493.218	4.16
493.57	4.22
493.922	4.19
494.274	4.25
494.625	4.34
494.977	4.24
495.328	4.42
495.68	4.47
496.031	4.42
496.383	4.46
496.734	4.43
497.086	4.44
497.437	4.51
497.788	4.53
498.139	4.43
498.49	4.45
498.842	4.41
499.193	4.45
499.544	4.47
499.894	4.48
500.245	4.53
500.596	4.56
500.947	4.41
501.298	4.55
501.648	4.62
501.999	4.52
502.35	4.56
502.7	4.48
503.051	4.63
503.401	4.62
503.752	4.52
504.102	4.63
504.452	4.56
504.803	4.54
505.153	4.65
505.503	4.62
505.853	4.67
506.203	4.75
506.553	4.71
506.903	4.72
507.253	4.75
507.603	4.69
507.953	4.7
508.303	4.68
508.652	4.86
509.002	4.69
509.352	4.66
509.701	4.61
510.051	4.7
510.4	4.71
510.75	4.69
511.099	4.69
511.449	4.71
511.798	4.76
512.147	4.74
512.496	4.6
512.846	4.67
513.195	4.72
513.544	4.72
513.893	4.71
514.242	4.71
514.591	4.72
514.939	4.79
515.288	4.73
515.637	4.83
515.986	4.86
516.334	4.81
516.683	4.82
517.032	4.86
517.38	4.76
517.729	4.78
518.077	4.86
518.426	4.83
518.774	4.77
519.122	4.79
519.47	4.8
519.819	4.88
520.167	4.8
520.515	4.8
520.863	4.8
521.211	4.75
521.559	4.88
521.907	4.99
522.255	4.91
522.602	4.9
522.95	5
523.298	4.98
523.645	4.99
523.993	4.96
524.341	4.89
524.688	4.97
525.036	5.05
525.383	5.07
525.73	5.06
526.078	5.02
526.425	5.01
526.772	4.98
527.119	4.94
527.466	4.91
527.814	4.82
528.161	4.94
528.508	4.96
528.854	5
529.201	5.01
529.548	4.93
529.895	4.81
530.242	4.85
530.588	4.82
530.935	4.88
531.282	4.91
531.628	4.95
531.975	5
532.321	5.06
532.667	5.04
533.014	5.1
533.36	5.24
533.706	5.09
534.052	5.17
534.399	5.07
534.745	5.02
535.091	5
535.437	5.07
535.783	5.06
536.129	5.16
536.474	5.24
536.82	5.24
537.166	5.35
537.512	5.26
537.857	5.32
538.203	5.26
538.549	5.27
538.894	5.23
539.239	5.33
539.585	5.26
539.93	5.3
540.276	5.47
540.621	5.54
540.966	5.38
541.311	5.49
541.656	5.42
542.001	5.42
542.346	5.44
542.691	5.3
543.036	5.27
543.381	5.26
543.726	5.31
544.071	5.34
544.415	5.42
544.76	5.36
545.105	5.37
545.449	5.4
545.794	5.55
546.138	5.54
546.483	5.53
546.827	5.51
547.171	5.62
547.516	5.66
547.86	5.55
548.204	5.61
548.548	5.58
548.892	5.59
549.236	5.7
549.58	5.72
549.924	5.77
550.268	5.81
550.612	5.87
550.956	5.66
551.3	5.92
551.643	5.87
551.987	5.88
552.33	5.97
552.674	5.88
553.017	5.82
553.361	6.05
553.704	6.03
554.048	6.02
554.391	5.87
554.734	5.98
555.077	6.02
555.42	5.98
555.764	5.96
556.107	5.93
556.45	6.09
556.793	6.25
557.135	6.15
557.478	6.01
557.821	6.1
558.164	6.18
558.507	5.97
558.849	6.23
559.192	6.24
559.534	6.22
559.877	6.3
560.219	6.28
560.562	6.17
560.904	6.24
561.246	6.28
561.589	6.34
561.931	6.29
562.273	6.48
562.615	6.25
562.957	6.35
563.299	6.42
563.641	6.43
563.983	6.38
564.325	6.3
564.667	6.45
565.008	6.41
565.35	6.69
565.692	6.52
566.033	6.49
566.375	6.48
566.716	6.46
567.058	6.6
567.399	6.59
567.741	6.66
568.082	6.6
568.423	6.56
568.764	6.62
569.105	6.57
569.447	6.73
569.788	6.79
570.129	6.7
570.47	6.75
570.811	6.62
571.151	6.72
571.492	6.82
571.833	6.82
572.174	6.66
572.514	6.74
572.855	6.79
573.195	6.68
573.536	6.82
573.876	6.83
574.217	6.91
574.557	6.84
574.898	7.07
575.238	7.08
575.578	6.85
575.918	6.81
576.258	7.07
576.598	7.06
576.938	7.07
577.278	7.08
577.618	7.06
577.958	7.1
578.298	7.2
578.638	7.14
578.977	7.31
579.317	7.31
579.657	7.31
579.996	7.22
580.336	7.37
580.675	7.17
581.014	7.41
581.354	7.47
581.693	7.4
582.032	7.36
582.372	7.28
582.711	7.37
583.05	7.51
583.389	7.66
583.728	7.57
584.067	7.7
584.406	7.42
584.745	7.79
585.083	7.7
585.422	7.57
585.761	7.59
586.1	7.79
586.438	7.65
586.777	7.53
587.115	7.84
587.454	7.66
587.792	7.8
588.13	7.74
588.469	7.81
588.807	7.77
589.145	7.91
589.483	7.8
589.821	8.11
590.159	8.08
590.497	7.64
590.835	8.1
591.173	7.91
591.511	8.01
591.849	8.03
592.187	8.09
592.524	8.01
592.862	8.03
593.2	7.97
593.537	8.03
593.875	8.03
594.212	8.16
594.55	8.23
594.887	8.15
595.224	8.27
595.561	8.07
595.899	8.08
596.236	8.36
596.573	8.19
596.91	8.27
597.247	8.22
597.584	8.43
597.921	8.37
598.258	8.42
598.594	8.33
598.931	8.26
599.268	8.36
599.604	8.25
599.941	8.5
600.277	8.37
600.614	8.4
600.95	8.62
601.287	8.37
601.623	8.56
601.959	8.5
602.296	8.74
602.632	8.44
602.968	8.72
603.304	8.64
603.64	8.89
603.976	8.9
604.312	8.66
604.648	8.84
604.984	8.73
605.319	8.85
605.655	8.56
605.991	8.76
606.326	8.92
606.662	8.88
606.998	8.79
607.333	9.06
607.668	8.98
608.004	8.98
608.339	9.12
608.674	9.17
609.01	8.85
609.345	9.07
609.68	9.12
610.015	9.09
610.35	9.31
610.685	9.35
611.02	9.18
611.355	9.15
611.689	9.22
612.024	9.11
612.359	9.12
612.694	9.54
613.028	9.38
613.363	9.38
613.697	9.3
614.032	9.46
614.366	9.56
614.7	9.43
615.035	9.54
615.369	9.65
615.703	9.35
616.037	9.44
616.371	9.57
616.705	9.97
617.039	9.83
617.373	9.7
617.707	10.09
618.041	9.88
618.375	9.71
618.709	9.65
619.042	9.9
619.376	9.91
619.71	10.09
620.043	9.84
620.377	9.59
620.71	10.08
621.043	9.92
621.377	10.06
621.71	9.98
622.043	9.88
622.376	10.18
622.709	9.85
623.043	10.44
623.376	10.1
623.709	9.89
624.041	10.18
624.374	10.17
624.707	10.03
625.04	10.1
625.373	10.09
625.705	10.09
626.038	10.21
626.37	9.98
626.703	10.42
627.035	10.49
627.368	10.49
627.7	10.69
628.032	10.4
628.365	10.55
628.697	10.59
629.029	10.6
629.361	10.55
629.693	10.43
630.025	10.89
630.357	10.82
630.689	10.59
631.021	10.41
631.353	10.9
631.684	10.69
632.016	10.83
632.348	10.55
632.679	10.76
633.011	10.88
633.342	11.05
633.674	10.98
634.005	10.61
634.336	11.11
634.668	10.9
634.999	11.02
635.33	10.8
635.661	10.8
635.992	11.22
636.323	10.83
636.654	10.9
636.985	11.11
637.316	11.13
637.647	11.16
637.977	11.41
638.308	11.22
638.639	10.92
638.969	11.27
639.3	11.33
639.63	11.32
639.961	11.42
640.291	11.64
640.622	11.34
640.952	11.94
641.282	11.68
641.612	11.64
641.943	11.98
642.273	11.6
642.603	11.7
642.933	11.77
643.263	11.7
643.592	11.93
643.922	11.6
644.252	12.23
644.582	12.06
644.911	11.91
645.241	11.62
645.571	11.74
645.9	11.61
646.23	11.9
646.559	11.67
646.888	11.65
647.218	12.17
647.547	12.3
647.876	12.03
648.205	11.95
648.534	12.04
648.863	12.18
649.192	12.5
649.521	11.78
649.85	12.47
650.179	12.34
650.508	12.61
650.837	12.16
651.165	12.03
651.494	12.24
651.822	12.42
652.151	12.82
652.479	12.31
652.808	12.31
653.136	12.34
653.465	12.44
653.793	12.52
654.121	12.47
654.449	12.62
654.777	12.38
655.105	12.78
655.433	12.37
655.761	13.25
656.089	12.72
656.417	12.39
656.745	12.68
657.073	12.45
657.4	13.35
657.728	12.54
658.056	12.67
658.383	12.52
658.711	12.6
659.038	13.23
659.365	13.33
659.693	12.75
660.02	13.1
660.347	13.15
660.674	12.75
661.001	13.05
661.329	13.27
661.656	13.24
661.982	13.57
662.309	13.28
662.636	13.36
662.963	13.34
663.29	13.32
663.616	13.48
663.943	13.08
664.27	13.61
664.596	13.14
664.923	12.42
665.249	13.06
665.576	13.49
665.902	13.81
666.228	13.16
666.554	13.86
666.881	13.8
667.207	13.47
667.533	13.81
667.859	13.31
668.185	13
668.511	13.31
668.837	13.51
669.162	13.98
669.488	14.44
669.814	13.28
670.139	13.7
670.465	14.2
670.791	13.58
671.116	13.43
671.442	13.65
671.767	13.97
672.092	13.67
672.418	14.51
672.743	13.96
673.068	14.29
673.393	14.59
673.718	14.43
674.043	13.87
674.368	14.59
674.693	15.1
675.018	14.47
675.343	14.1
675.667	14.73
675.992	14.51
676.317	14.47
676.641	14.15
676.966	14.35
677.29	14.1
677.615	14.72
677.939	14.81
678.264	14.83
678.588	14.87
678.912	14.64
679.236	14.17
679.56	14.04
679.885	14.85
680.209	14.14
680.532	14.01
680.856	14.75
681.18	14.88
681.504	15.26
681.828	14.56
682.152	14.65
682.475	15.01
682.799	15.1
683.122	14.76
683.446	15.14
683.769	15.27
684.093	14.97
684.416	15.53
684.739	15.45
685.062	14.74
685.386	14.59
685.709	15.24
686.032	15.35
686.355	14.69
686.678	15.08
687.001	14.79
687.324	15.78
687.646	15.32
687.969	14.78
688.292	14.8
688.614	15.08
