Data from 2019-1_forehead_Reflection__3__188.txt Node

Date: Fri Nov 11 18:20:57 CST 2022
User: ToomeyLab
Spectrometer: FLMS14357
Trigger mode: 0
Integration Time (sec): 1.000000E-2
Scans to average: 100
Electric dark correction enabled: true
Nonlinearity correction enabled: false
Boxcar width: 0
XAxis mode: Wavelengths
Number of Pixels in Spectrum: 2048
>>>>>Begin Spectral Data<<<<<
189.047	85.95
189.435	85.95
189.823	85.95
190.211	92.19
190.599	84.9
190.987	59.45
191.375	11.19
191.763	-41.5
192.151	454.63
192.538	-21.37
192.926	22.91
193.314	-251.84
193.702	1157.61
194.089	-51.79
194.477	157.99
194.864	1527.61
195.252	-36.4
195.639	-350.6
196.027	177.64
196.414	-29.34
196.801	98.18
197.189	-466.08
197.576	27.3
197.963	-5.08
198.351	2.52
198.738	2.3
199.125	26.29
199.512	17.65
199.899	32.56
200.286	-34.24
200.673	15.36
201.06	-16.7
201.447	8.01
201.833	27
202.22	-14.93
202.607	4.69
202.994	35.93
203.38	-16.78
203.767	2.5
204.154	-27.43
204.54	-5
204.927	27.01
205.313	20.71
205.699	-1.84
206.086	-66.64
206.472	-5.53
206.858	10.23
207.245	1.8
207.631	17.45
208.017	-2.04
208.403	25.93
208.789	30.23
209.175	-32.07
209.561	-5.98
209.947	-39.63
210.333	25.57
210.719	29.89
211.105	0.51
211.491	47.15
211.876	-10.38
212.262	23.87
212.648	45.63
213.034	-16.93
213.419	-4.29
213.805	6.21
214.19	-14.53
214.576	2.86
214.961	-3.26
215.346	-21
215.732	7.47
216.117	30.6
216.502	23.7
216.888	-28.34
217.273	8.25
217.658	23.38
218.043	11.32
218.428	34.89
218.813	16.79
219.198	32.68
219.583	1.4
219.968	-5.97
220.353	34.61
220.738	16.55
221.122	-35.87
221.507	6.2
221.892	22.13
222.276	10.73
222.661	1.33
223.046	2.82
223.43	-0.63
223.815	6.1
224.199	-1.96
224.583	17.72
224.968	13.62
225.352	6.54
225.736	-0.4
226.121	0.73
226.505	0.37
226.889	7.25
227.273	-1.04
227.657	8.47
228.041	1.99
228.425	-1.24
228.809	2.22
229.193	2.14
229.577	0.72
229.961	2.23
230.344	1.34
230.728	1.31
231.112	1.64
231.495	2.73
231.879	2.75
232.263	1.77
232.646	1.07
233.03	0.54
233.413	2.4
233.797	1.49
234.18	1.05
234.563	0.18
234.946	-0.04
235.33	1.6
235.713	0.46
236.096	3.44
236.479	0.68
236.862	0.91
237.245	3.11
237.628	0.87
238.011	0.79
238.394	0.92
238.777	1.94
239.16	2.24
239.543	2.45
239.925	0.85
240.308	3.55
240.691	2.66
241.073	1.15
241.456	1.32
241.838	0.65
242.221	1.31
242.603	0.22
242.986	1.23
243.368	1.84
243.75	1
244.133	1.14
244.515	1.71
244.897	1.62
245.279	2.04
245.661	0.93
246.043	0.73
246.425	1.99
246.807	2.38
247.189	1.08
247.571	2.01
247.953	1.04
248.335	1.54
248.717	1.59
249.098	1.6
249.48	1.46
249.862	1.58
250.243	1.17
250.625	0.89
251.006	0.61
251.388	2.05
251.769	1.47
252.151	2.05
252.532	1.83
252.913	1.36
253.295	1.17
253.676	1.77
254.057	1.32
254.438	0.93
254.819	1.03
255.2	2.2
255.581	1.1
255.962	1.77
256.343	1.98
256.724	1.22
257.105	1.75
257.486	1.02
257.867	1.07
258.247	1.63
258.628	0.75
259.009	1.35
259.389	1.35
259.77	1.41
260.15	0.97
260.531	1.38
260.911	1.46
261.292	1.38
261.672	1.36
262.052	1.39
262.432	1.36
262.813	1.58
263.193	1.6
263.573	1.92
263.953	1.17
264.333	1.23
264.713	1.42
265.093	1.4
265.473	2.03
265.853	1.37
266.233	1.88
266.612	1.89
266.992	0.96
267.372	2.44
267.752	1.48
268.131	1.84
268.511	1.1
268.89	1.97
269.27	1.7
269.649	1.79
270.029	1.63
270.408	1.34
270.787	2.44
271.167	1.63
271.546	1.88
271.925	1.59
272.304	1.74
272.683	1.23
273.062	1.43
273.441	0.99
273.82	1.48
274.199	1.12
274.578	1.06
274.957	1.14
275.336	1.26
275.715	1.44
276.093	1.45
276.472	1.67
276.851	0.86
277.229	1.62
277.608	1.02
277.986	1.83
278.365	0.86
278.743	1.18
279.122	1.4
279.5	1.38
279.878	1.29
280.257	1.12
280.635	1.2
281.013	1.25
281.391	1.33
281.769	0.78
282.147	1.38
282.525	1.88
282.903	1.36
283.281	2.16
283.659	1.6
284.037	1.34
284.415	1.49
284.792	1.88
285.17	1.32
285.548	1.55
285.925	1.16
286.303	1.38
286.68	1.44
287.058	1.79
287.435	1.62
287.813	1.91
288.19	1.21
288.567	0.82
288.945	1.29
289.322	1.74
289.699	1.24
290.076	1.42
290.453	1.44
290.83	1.19
291.207	1.39
291.584	1.78
291.961	1.54
292.338	1.35
292.715	1.59
293.092	1.58
293.469	1.39
293.845	1.38
294.222	1.84
294.599	1.53
294.975	0.71
295.352	1.66
295.728	1.6
296.105	1.6
296.481	1.6
296.858	1.65
297.234	1.87
297.61	1.49
297.986	1.49
298.363	1.99
298.739	1.66
299.115	1.84
299.491	1.74
299.867	1.71
300.243	1.54
300.619	1.47
300.995	1.54
301.371	2.35
301.746	1.3
302.122	1.5
302.498	1.99
302.874	1.99
303.249	2.04
303.625	2.19
304	1.79
304.376	1.86
304.751	2.52
305.127	2.15
305.502	1.65
305.878	2.26
306.253	2.09
306.628	1.9
307.003	2.43
307.378	1.38
307.754	1.62
308.129	2.13
308.504	1.82
308.879	2.39
309.254	2.01
309.629	2.15
310.003	2.28
310.378	2.55
310.753	2.32
311.128	2.5
311.502	1.74
311.877	2.38
312.252	2.68
312.626	2.33
313.001	2.66
313.375	1.77
313.75	2.56
314.124	2.58
314.498	2.21
314.873	2.13
315.247	2.73
315.621	2.67
315.995	2.6
316.369	2.53
316.743	2.68
317.117	2.73
317.491	2.42
317.865	3.43
318.239	2.83
318.613	2.53
318.987	2.51
319.361	2.81
319.734	2.66
320.108	2.44
320.482	2.88
320.855	2.86
321.229	2.35
321.602	2.46
321.976	2.77
322.349	3.16
322.723	2.95
323.096	2.82
323.469	3.39
323.843	2.8
324.216	2.74
324.589	3.19
324.962	2.71
325.335	2.54
325.708	2.94
326.081	2.72
326.454	2.68
326.827	3.24
327.2	3.27
327.573	2.47
327.945	3.55
328.318	2.91
328.691	2.69
329.063	2.77
329.436	3.22
329.809	3.18
330.181	3.05
330.553	2.82
330.926	3.16
331.298	2.87
331.671	3.17
332.043	3.26
332.415	3.02
332.787	3.6
333.159	3.32
333.532	3.17
333.904	3.48
334.276	3.48
334.648	3.16
335.02	3.63
335.391	3.24
335.763	3.75
336.135	3.35
336.507	3.68
336.879	3.61
337.25	3.66
337.622	3.72
337.993	3.48
338.365	4.19
338.736	3.81
339.108	3.59
339.479	3.58
339.851	3.84
340.222	3.55
340.593	3.3
340.964	3.51
341.336	3.6
341.707	3.69
342.078	3.48
342.449	3.92
342.82	3.9
343.191	3.67
343.562	4.05
343.933	3.29
344.303	3.61
344.674	3.68
345.045	4.23
345.416	3.95
345.786	3.86
346.157	4.06
346.527	3.99
346.898	3.8
347.268	3.91
347.639	4.17
348.009	3.93
348.38	4.36
348.75	3.99
349.12	4.11
349.49	3.82
349.861	3.53
350.231	4.42
350.601	3.98
350.971	3.97
351.341	4.08
351.711	4.1
352.081	3.91
352.45	4.24
352.82	4.23
353.19	4.51
353.56	4.53
353.929	3.92
354.299	4
354.669	4.34
355.038	4.68
355.408	4.12
355.777	4.71
356.147	4.09
356.516	4.19
356.885	4.3
357.254	4.6
357.624	4.15
357.993	4.01
358.362	4.16
358.731	4.28
359.1	4.55
359.469	4.14
359.838	4.19
360.207	4.59
360.576	4.29
360.945	4.37
361.314	4.84
361.682	4.26
362.051	4.55
362.42	4.3
362.788	4.35
363.157	4.32
363.525	4.46
363.894	4.53
364.262	4.24
364.631	4.51
364.999	4.5
365.367	4.43
365.735	4.85
366.104	4.66
366.472	4.66
366.84	4.64
367.208	4.84
367.576	4.62
367.944	4.76
368.312	4.53
368.68	4.54
369.048	4.72
369.416	4.69
369.783	4.94
370.151	4.79
370.519	4.65
370.886	4.77
371.254	4.76
371.621	4.9
371.989	5.15
372.356	4.51
372.724	4.72
373.091	4.9
373.458	5.06
373.826	5.22
374.193	5.06
374.56	5.09
374.927	5.01
375.294	4.89
375.661	4.9
376.028	5.11
376.395	5.28
376.762	5.45
377.129	5.02
377.496	5.17
377.863	4.78
378.229	5.48
378.596	5.07
378.963	5.14
379.329	5.23
379.696	5.43
380.062	5.07
380.429	4.85
380.795	5.09
381.161	5.36
381.528	5.61
381.894	5.08
382.26	5.11
382.626	5.42
382.993	5.22
383.359	5.22
383.725	5.48
384.091	5.38
384.457	5.29
384.823	5.19
385.188	5.53
385.554	5.4
385.92	5.38
386.286	5.38
386.651	5.49
387.017	5.3
387.383	5.22
387.748	5.04
388.114	5.38
388.479	5.33
388.845	5.39
389.21	5.27
389.575	5.35
389.94	5.68
390.306	5.71
390.671	5.45
391.036	5.51
391.401	5.76
391.766	5.79
392.131	5.59
392.496	5.5
392.861	5.62
393.226	5.4
393.591	5.66
393.956	5.46
394.32	5.58
394.685	5.62
395.05	5.6
395.414	5.66
395.779	5.33
396.143	5.52
396.508	5.64
396.872	5.62
397.236	5.52
397.601	5.61
397.965	5.39
398.329	5.84
398.694	5.89
399.058	5.73
399.422	5.7
399.786	5.73
400.15	5.8
400.514	5.55
400.878	5.7
401.242	5.84
401.605	5.53
401.969	5.59
402.333	5.4
402.697	5.69
403.06	5.74
403.424	5.48
403.787	5.74
404.151	5.65
404.514	5.8
404.878	5.47
405.241	5.7
405.604	5.56
405.968	5.73
406.331	5.43
406.694	5.58
407.057	5.5
407.42	5.48
407.783	5.46
408.146	5.66
408.509	5.48
408.872	5.61
409.235	5.76
409.598	5.69
409.961	5.67
410.323	5.77
410.686	5.83
411.049	5.59
411.411	5.72
411.774	5.57
412.136	5.55
412.499	5.7
412.861	5.79
413.223	5.8
413.586	5.63
413.948	5.64
414.31	5.72
414.672	5.59
415.035	5.59
415.397	5.72
415.759	5.77
416.121	5.81
416.483	5.84
416.845	5.53
417.206	5.69
417.568	5.74
417.93	5.77
418.292	5.55
418.653	5.76
419.015	5.82
419.377	5.76
419.738	5.78
420.1	5.83
420.461	5.88
420.822	5.86
421.184	5.83
421.545	5.83
421.906	5.87
422.267	5.87
422.629	5.82
422.99	5.91
423.351	6
423.712	5.89
424.073	5.9
424.434	6.02
424.795	6.2
425.155	6.03
425.516	6.15
425.877	6.25
426.238	6.24
426.598	6.4
426.959	6.28
427.32	6.37
427.68	6.48
428.041	6.5
428.401	6.7
428.761	6.67
429.122	6.54
429.482	6.62
429.842	6.62
430.202	7
430.563	7.05
430.923	6.91
431.283	7.22
431.643	7.07
432.003	7.12
432.363	7.1
432.722	7.05
433.082	7.21
433.442	7.33
433.802	7.22
434.161	7.38
434.521	7.41
434.881	7.5
435.24	7.34
435.6	7.42
435.959	7.4
436.319	7.54
436.678	7.53
437.037	7.79
437.396	7.69
437.756	7.6
438.115	7.6
438.474	7.83
438.833	7.85
439.192	7.78
439.551	7.85
439.91	7.77
440.269	7.91
440.628	7.94
440.987	7.96
441.345	8.05
441.704	8
442.063	8.07
442.421	8.07
442.78	8.03
443.138	7.97
443.497	8.09
443.855	8.24
444.214	8.24
444.572	8.42
444.93	8.41
445.288	8.4
445.647	8.55
446.005	8.47
446.363	8.42
446.721	8.48
447.079	8.38
447.437	8.38
447.795	8.44
448.153	8.44
448.51	8.54
448.868	8.56
449.226	8.61
449.584	8.61
449.941	8.64
450.299	8.61
450.656	8.77
451.014	8.87
451.371	9.02
451.729	9.01
452.086	9.15
452.443	9.07
452.801	9.12
453.158	9.08
453.515	9.08
453.872	9.03
454.229	9.21
454.586	9.26
454.943	9.4
455.3	9.37
455.657	9.27
456.014	9.6
456.371	9.5
456.727	9.52
457.084	9.58
457.441	9.6
457.797	9.62
458.154	9.64
458.51	9.68
458.867	9.66
459.223	9.75
459.58	9.75
459.936	9.68
460.292	9.83
460.648	9.5
461.005	9.88
461.361	9.71
461.717	9.67
462.073	9.69
462.429	9.66
462.785	9.9
463.141	10.01
463.496	9.93
463.852	10.14
464.208	10.18
464.564	10.17
464.919	10.31
465.275	10.36
465.631	10.28
465.986	10.21
466.342	10.53
466.697	10.49
467.052	10.53
467.408	10.61
467.763	10.46
468.118	10.62
468.473	10.54
468.829	10.59
469.184	10.74
469.539	10.75
469.894	10.82
470.249	10.83
470.603	10.85
470.958	10.88
471.313	10.76
471.668	11.04
472.023	10.96
472.377	11.07
472.732	11.05
473.086	11.01
473.441	11.01
473.795	10.99
474.15	11.14
474.504	11.21
474.859	11.11
475.213	11.29
475.567	11.34
475.921	11.29
476.275	11.26
476.63	11.26
476.984	11.4
477.338	11.24
477.692	11.46
478.045	11.16
478.399	11.28
478.753	11.44
479.107	11.59
479.461	11.52
479.814	11.5
480.168	11.54
480.521	11.68
480.875	11.59
481.228	11.72
481.582	11.75
481.935	11.74
482.289	11.67
482.642	11.76
482.995	11.63
483.348	11.51
483.701	11.54
484.055	11.54
484.408	11.36
484.761	11.24
485.114	11.07
485.466	10.93
485.819	11.01
486.172	11.16
486.525	11.26
486.878	11.45
487.23	11.48
487.583	11.5
487.936	11.54
488.288	11.52
488.641	11.55
488.993	11.5
489.345	11.49
489.698	11.46
490.05	11.56
490.402	11.62
490.754	11.84
491.107	11.94
491.459	12.07
491.811	12.04
492.163	12.11
492.515	12.09
492.866	11.93
493.218	11.78
493.57	11.83
493.922	11.96
494.274	12.11
494.625	12.32
494.977	12.38
495.328	12.57
495.68	12.75
496.031	12.79
496.383	12.89
496.734	12.82
497.086	12.86
497.437	12.93
497.788	12.89
498.139	12.83
498.49	12.75
498.842	12.78
499.193	12.83
499.544	12.9
499.894	12.99
500.245	13.09
500.596	13.11
500.947	13
501.298	13.14
501.648	13.35
501.999	13.33
502.35	13.28
502.7	13.37
503.051	13.42
503.401	13.52
503.752	13.53
504.102	13.6
504.452	13.57
504.803	13.58
505.153	13.67
505.503	13.59
505.853	13.64
506.203	13.67
506.553	13.67
506.903	13.92
507.253	13.81
507.603	13.93
507.953	13.96
508.303	13.94
508.652	13.89
509.002	13.79
509.352	13.85
509.701	13.78
510.051	13.75
510.4	13.82
510.75	13.78
511.099	13.91
511.449	13.9
511.798	14.05
512.147	13.99
512.496	14.06
512.846	14
513.195	13.93
513.544	14.02
513.893	13.99
514.242	14.02
514.591	14.11
514.939	14.13
515.288	14.22
515.637	14.32
515.986	14.28
516.334	14.24
516.683	14.42
517.032	14.48
517.38	14.62
517.729	14.31
518.077	14.45
518.426	14.36
518.774	14.38
519.122	14.27
519.47	14.46
519.819	14.26
520.167	14.16
520.515	14.21
520.863	14.27
521.211	14.35
521.559	14.42
521.907	14.54
522.255	14.48
522.602	14.65
522.95	14.67
523.298	14.73
523.645	14.74
523.993	14.81
524.341	14.75
524.688	14.74
525.036	14.85
525.383	14.9
525.73	14.88
526.078	14.88
526.425	14.83
526.772	14.68
527.119	14.59
527.466	14.44
527.814	14.61
528.161	14.54
528.508	14.63
528.854	14.64
529.201	14.59
529.548	14.38
529.895	14.13
530.242	14.11
530.588	14.17
530.935	14.33
531.282	14.5
531.628	14.53
531.975	14.64
532.321	14.71
532.667	14.84
533.014	14.94
533.36	15.1
533.706	15.12
534.052	14.96
534.399	14.81
534.745	14.74
535.091	14.75
535.437	14.77
535.783	14.95
536.129	15.02
536.474	15.2
536.82	15.25
537.166	15.39
537.512	15.37
537.857	15.4
538.203	15.28
538.549	15.23
538.894	15.35
539.239	15.45
539.585	15.56
539.93	15.74
540.276	15.86
540.621	15.82
540.966	15.88
541.311	15.92
541.656	15.84
542.001	15.63
542.346	15.53
542.691	15.36
543.036	15.24
543.381	15.31
543.726	15.41
544.071	15.53
544.415	15.61
544.76	15.66
545.105	15.68
545.449	15.77
545.794	16.01
546.138	16.19
546.483	16.18
546.827	16.21
547.171	16.33
547.516	16.22
547.86	16.38
548.204	16.26
548.548	16.33
548.892	16.35
549.236	16.42
549.58	16.67
549.924	16.54
550.268	16.84
550.612	16.84
550.956	16.89
551.3	16.97
551.643	17.1
551.987	17.2
552.33	17.19
552.674	17.37
553.017	17.27
553.361	17.32
553.704	17.46
554.048	17.24
554.391	17.27
554.734	17.26
555.077	17.25
555.42	17.43
555.764	17.46
556.107	17.4
556.45	17.56
556.793	17.81
557.135	17.48
557.478	17.76
557.821	17.71
558.164	17.81
558.507	17.62
558.849	17.78
559.192	18.06
559.534	18
559.877	17.98
560.219	18.06
560.562	18.13
560.904	18.06
561.246	17.95
561.589	18.14
561.931	18.12
562.273	18.19
562.615	18.14
562.957	17.95
563.299	18.31
563.641	18.39
563.983	18.3
564.325	18.4
564.667	18.17
565.008	18.36
565.35	18.48
565.692	18.53
566.033	18.45
566.375	18.46
566.716	18.5
567.058	18.36
567.399	18.56
567.741	18.46
568.082	18.32
568.423	18.35
568.764	18.53
569.105	18.7
569.447	18.82
569.788	18.82
570.129	18.77
570.47	18.71
570.811	18.8
571.151	18.91
571.492	18.94
571.833	19.04
572.174	18.88
572.514	19.07
572.855	18.81
573.195	18.8
573.536	18.83
573.876	18.92
574.217	18.94
574.557	18.97
574.898	19.18
575.238	19.14
575.578	19.11
575.918	19.06
576.258	19.05
576.598	19.32
576.938	19.24
577.278	19.38
577.618	19.24
577.958	19.33
578.298	19.59
578.638	19.66
578.977	19.79
579.317	19.69
579.657	19.98
579.996	19.95
580.336	19.98
580.675	19.84
581.014	19.94
581.354	20.24
581.693	20.31
582.032	20.14
582.372	20.31
582.711	20.31
583.05	20.37
583.389	20.07
583.728	20.41
584.067	20.73
584.406	20.36
584.745	20.76
585.083	20.52
585.422	20.43
585.761	20.54
586.1	20.77
586.438	20.72
586.777	21.05
587.115	21.1
587.454	20.86
587.792	21.01
588.13	21.02
588.469	21.02
588.807	21.05
589.145	21.2
589.483	20.97
589.821	21.35
590.159	20.99
590.497	20.71
590.835	21.36
591.173	20.92
591.511	21.09
591.849	20.96
592.187	21.11
592.524	21.21
592.862	21.39
593.2	21.3
593.537	21.44
593.875	21.45
594.212	21.36
594.55	21.65
594.887	21.54
595.224	21.72
595.561	21.63
595.899	21.52
596.236	21.68
596.573	21.38
596.91	21.86
597.247	21.66
597.584	21.69
597.921	21.65
598.258	21.61
598.594	21.61
598.931	21.4
599.268	21.59
599.604	21.8
599.941	21.98
600.277	22.13
600.614	22.02
600.95	22.15
601.287	22.29
601.623	22.35
601.959	22.5
602.296	22.43
602.632	22.37
602.968	22.47
603.304	22.5
603.64	22.78
603.976	22.91
604.312	22.51
604.648	22.56
604.984	22.32
605.319	22.25
605.655	22.15
605.991	22.42
606.326	22.37
606.662	22.41
606.998	22.45
607.333	22.69
607.668	22.82
608.004	22.89
608.339	22.76
608.674	23
609.01	23.17
609.345	23
609.68	22.94
610.015	22.92
610.35	23.07
610.685	23.1
611.02	22.96
611.355	22.83
611.689	23.09
612.024	23.06
612.359	23.15
612.694	23.53
613.028	23.47
613.363	23.4
613.697	23.36
614.032	23.62
614.366	23.88
614.7	24.1
615.035	23.79
615.369	24.08
615.703	23.85
616.037	23.96
616.371	23.93
616.705	24.52
617.039	23.69
617.373	24.3
617.707	24.32
618.041	24.46
618.375	24.25
618.709	24.03
619.042	24.48
619.376	24.46
619.71	24.4
620.043	24.42
620.377	24.15
620.71	24.92
621.043	24.75
621.377	24.39
621.71	24.44
622.043	24.78
622.376	25.11
622.709	24.68
623.043	24.69
623.376	24.56
623.709	24.72
624.041	25.07
624.374	24.94
624.707	25
625.04	24.88
625.373	25.38
625.705	25.06
626.038	24.99
626.37	25.09
626.703	25.37
627.035	24.84
627.368	25.21
627.7	25.21
628.032	25.12
628.365	25.02
628.697	24.89
629.029	25.22
629.361	25.25
629.693	25.13
630.025	25.5
630.357	25.45
630.689	25.6
631.021	25.39
631.353	25.82
631.684	25.75
632.016	25.51
632.348	25.57
632.679	25.71
633.011	26.21
633.342	26.12
633.674	26.04
634.005	25.42
634.336	26.38
634.668	25.98
634.999	26.09
635.33	25.74
635.661	25.69
635.992	26.05
636.323	26.15
636.654	26.11
636.985	26.48
637.316	26.19
637.647	26.55
637.977	26.21
638.308	26.49
638.639	26.82
638.969	26.1
639.3	26.79
639.63	26.9
639.961	26.59
640.291	26.98
640.622	26.68
640.952	26.78
641.282	26.83
641.612	27.1
641.943	27.15
642.273	27.49
642.603	27.23
642.933	27.18
643.263	26.75
643.592	27.51
643.922	27.07
644.252	27.26
644.582	27.04
644.911	27.18
645.241	26.83
645.571	27.37
645.9	27.16
646.23	27.35
646.559	27.51
646.888	27.57
647.218	27.83
647.547	27.98
647.876	27.96
648.205	27.87
648.534	27.59
648.863	27.6
649.192	27.96
649.521	27.86
649.85	28.06
650.179	28.01
650.508	28.08
650.837	27.6
651.165	27.46
651.494	28.36
651.822	28.23
652.151	28.3
652.479	27.9
652.808	27.99
653.136	28.27
653.465	28.6
653.793	28.01
654.121	28.11
654.449	27.95
654.777	28.39
655.105	28.26
655.433	28.35
655.761	28.69
656.089	28.49
656.417	28.71
656.745	28.31
657.073	28.52
657.4	29.17
657.728	29.05
658.056	28.82
658.383	28.67
658.711	28.9
659.038	29.32
659.365	29.26
659.693	28.76
660.02	28.95
660.347	28.6
660.674	28.41
661.001	29.11
661.329	28.94
661.656	28.59
661.982	29.07
662.309	29.08
662.636	29.33
662.963	29.06
663.29	29.35
663.616	29.83
663.943	29.46
664.27	29.31
664.596	29.64
664.923	28.83
665.249	28.83
665.576	29.85
665.902	29.69
666.228	29.46
666.554	29.75
666.881	29.99
667.207	29.81
667.533	30.62
667.859	30.26
668.185	28.98
668.511	29.7
668.837	30.16
669.162	30.29
669.488	30.64
669.814	29.69
670.139	30.05
670.465	30.39
670.791	30.06
671.116	30.05
671.442	30.47
671.767	30.33
672.092	29.71
672.418	30.53
672.743	29.74
673.068	31.11
673.393	30.82
673.718	30.66
674.043	30.23
674.368	30.73
674.693	31.38
675.018	30.51
675.343	30.81
675.667	30.7
675.992	30.83
676.317	31.12
676.641	31.53
676.966	31.09
677.29	30.44
677.615	30.19
677.939	31.73
678.264	31.13
