Data from 2019-1_crown_Reflection__3__183.txt Node

Date: Fri Nov 11 18:19:06 CST 2022
User: ToomeyLab
Spectrometer: FLMS14357
Trigger mode: 0
Integration Time (sec): 1.000000E-2
Scans to average: 100
Electric dark correction enabled: true
Nonlinearity correction enabled: false
Boxcar width: 0
XAxis mode: Wavelengths
Number of Pixels in Spectrum: 2048
>>>>>Begin Spectral Data<<<<<
189.047	125.94
189.435	125.94
189.823	125.94
190.211	-204.79
190.599	15.1
190.987	48.35
191.375	-89.46
191.763	-47.99
192.151	576.99
192.538	14.75
192.926	-388.62
193.314	366.54
193.702	-261.68
194.089	-26.9
194.477	48.85
194.864	5473.88
195.252	-41.42
195.639	-164.41
196.027	34.15
196.414	100.04
196.801	-87.89
197.189	-86.6
197.576	107.77
197.963	40.62
198.351	17.47
198.738	-4.64
199.125	6.08
199.512	16.32
199.899	-8.02
200.286	-31.77
200.673	-31.4
201.06	-11.88
201.447	-1.33
201.833	61.97
202.22	47.78
202.607	6.31
202.994	38.29
203.38	-27.61
203.767	-0.76
204.154	-36
204.54	4.68
204.927	-9.45
205.313	30.69
205.699	-12.69
206.086	-5.52
206.472	0.42
206.858	35.56
207.245	8.8
207.631	-8.89
208.017	-34.42
208.403	19.12
208.789	21.29
209.175	-9.55
209.561	1.93
209.947	1.15
210.333	25.79
210.719	24.5
211.105	14.15
211.491	11.94
211.876	-13.37
212.262	-51.57
212.648	29.03
213.034	13.39
213.419	-17.31
213.805	17.17
214.19	1.41
214.576	-11.27
214.961	-15.33
215.346	-35.31
215.732	10.34
216.117	25.36
216.502	29.58
216.888	-39.62
217.273	-8.6
217.658	3.16
218.043	-4.48
218.428	23.41
218.813	-11.65
219.198	-13.42
219.583	1.29
219.968	-34.74
220.353	4.84
220.738	14.49
221.122	-18.91
221.507	11.13
221.892	7.51
222.276	12.38
222.661	-6.89
223.046	3.12
223.43	-2.24
223.815	-2.83
224.199	-6.53
224.583	16.38
224.968	10.46
225.352	2.16
225.736	-1.92
226.121	3.2
226.505	4.08
226.889	-0.14
227.273	3.41
227.657	6.69
228.041	3.07
228.425	1.02
228.809	7.09
229.193	3.93
229.577	3.89
229.961	5.28
230.344	2.84
230.728	3.76
231.112	3.23
231.495	4.74
231.879	4.6
232.263	4.23
232.646	4.01
233.03	2.56
233.413	2.12
233.797	3.67
234.18	0.7
234.563	3.72
234.946	2.04
235.33	5
235.713	2.57
236.096	4.4
236.479	2.26
236.862	3.83
237.245	5.66
237.628	1.57
238.011	1.46
238.394	3.56
238.777	2.43
239.16	2.61
239.543	3.41
239.925	2.28
240.308	2.78
240.691	4.38
241.073	3.86
241.456	3.26
241.838	2.66
242.221	4.46
242.603	2.34
242.986	3.44
243.368	3.33
243.75	3.51
244.133	3.39
244.515	4.01
244.897	3.93
245.279	3.22
245.661	2.97
246.043	2.66
246.425	2.7
246.807	3.75
247.189	2.87
247.571	3.33
247.953	3.17
248.335	3.71
248.717	3.75
249.098	3.85
249.48	3.54
249.862	3.63
250.243	3.52
250.625	3.02
251.006	3.11
251.388	3.35
251.769	3.2
252.151	4.02
252.532	3.46
252.913	3.24
253.295	3.46
253.676	3.76
254.057	3.12
254.438	3.68
254.819	3.21
255.2	3.88
255.581	3.42
255.962	2.83
256.343	3.35
256.724	2.43
257.105	3.22
257.486	3.65
257.867	3.24
258.247	3.39
258.628	3.44
259.009	2.15
259.389	2.58
259.77	3.72
260.15	2.61
260.531	3.44
260.911	3
261.292	3.13
261.672	3.44
262.052	3.22
262.432	3.05
262.813	3.37
263.193	3.27
263.573	3.01
263.953	2.69
264.333	2.76
264.713	3.13
265.093	3.64
265.473	3.09
265.853	3.84
266.233	3.98
266.612	3.81
266.992	2.57
267.372	3.25
267.752	3.46
268.131	2.97
268.511	2.66
268.89	2.77
269.27	3.35
269.649	3.18
270.029	2.5
270.408	2.87
270.787	3.74
271.167	3.33
271.546	3.32
271.925	3.53
272.304	3.15
272.683	3.28
273.062	3.11
273.441	2.74
273.82	3.59
274.199	3.12
274.578	2.89
274.957	3.31
275.336	2.98
275.715	3.12
276.093	2.87
276.472	3.45
276.851	2.69
277.229	3.4
277.608	3.08
277.986	3.35
278.365	2.99
278.743	3.21
279.122	3.19
279.5	3.56
279.878	3.41
280.257	3.14
280.635	3.04
281.013	3.23
281.391	3.39
281.769	2.74
282.147	3.49
282.525	3.08
282.903	3.52
283.281	3.52
283.659	3.14
284.037	2.84
284.415	2.79
284.792	2.84
285.17	3.11
285.548	3.25
285.925	2.85
286.303	2.66
286.68	2.74
287.058	2.91
287.435	3.21
287.813	3.35
288.19	2.91
288.567	2.54
288.945	2.68
289.322	3.33
289.699	2.99
290.076	3.01
290.453	3.09
290.83	2.9
291.207	3.18
291.584	3.21
291.961	2.96
292.338	3.01
292.715	3.04
293.092	2.86
293.469	3.06
293.845	2.99
294.222	3.26
294.599	3.26
294.975	2.55
295.352	3.38
295.728	2.73
296.105	2.48
296.481	3.15
296.858	3
297.234	3.19
297.61	2.96
297.986	2.82
298.363	3.04
298.739	2.87
299.115	2.73
299.491	3.01
299.867	2.9
300.243	2.9
300.619	2.62
300.995	2.88
301.371	3.44
301.746	2.63
302.122	2.56
302.498	3.5
302.874	3.06
303.249	3.25
303.625	3.19
304	2.93
304.376	3.17
304.751	2.99
305.127	3.18
305.502	2.81
305.878	3.17
306.253	2.89
306.628	2.65
307.003	2.76
307.378	2.59
307.754	2.59
308.129	2.43
308.504	2.46
308.879	3.31
309.254	2.17
309.629	2.79
310.003	2.84
310.378	2.92
310.753	2.97
311.128	2.66
311.502	2.27
311.877	2.86
312.252	2.94
312.626	2.55
313.001	3.04
313.375	2.41
313.75	3.05
314.124	3.04
314.498	3.05
314.873	2.61
315.247	2.78
315.621	2.59
315.995	2.83
316.369	2.6
316.743	2.6
317.117	2.76
317.491	2.52
317.865	3.11
318.239	2.86
318.613	3.03
318.987	2.48
319.361	3.48
319.734	3.12
320.108	2.52
320.482	3.18
320.855	2.68
321.229	2.49
321.602	2.77
321.976	2.92
322.349	2.92
322.723	3.04
323.096	2.78
323.469	2.78
323.843	2.43
324.216	2.41
324.589	3.32
324.962	2.68
325.335	2.61
325.708	2.89
326.081	2.71
326.454	2.73
326.827	2.77
327.2	3.07
327.573	2.16
327.945	3.27
328.318	2.71
328.691	2.46
329.063	2.53
329.436	2.77
329.809	2.93
330.181	2.36
330.553	2.37
330.926	2.54
331.298	2.96
331.671	2.57
332.043	2.41
332.415	2.52
332.787	2.41
333.159	2.36
333.532	2.35
333.904	3.05
334.276	2.75
334.648	2.27
335.02	2.59
335.391	2.2
335.763	2.7
336.135	2.72
336.507	2.6
336.879	2.74
337.25	2.63
337.622	3.54
337.993	2.87
338.365	2.92
338.736	2.41
339.108	2.44
339.479	2.79
339.851	2.88
340.222	2.49
340.593	2.22
340.964	2.43
341.336	2.36
341.707	2.23
342.078	2.4
342.449	2.62
342.82	3.02
343.191	2.74
343.562	2.86
343.933	2.34
344.303	2.36
344.674	2.62
345.045	2.66
345.416	2.58
345.786	2.88
346.157	2.62
346.527	2.85
346.898	2.59
347.268	2.37
347.639	2.71
348.009	2.83
348.38	2.73
348.75	2.64
349.12	2.5
349.49	2.79
349.861	2.19
350.231	2.75
350.601	2.52
350.971	2.69
351.341	2.64
351.711	2.72
352.081	2.78
352.45	2.58
352.82	2.93
353.19	2.99
353.56	3.08
353.929	2.54
354.299	2.23
354.669	2.88
355.038	3.03
355.408	2.46
355.777	2.91
356.147	2.53
356.516	2.85
356.885	2.79
357.254	3.07
357.624	2.52
357.993	2.56
358.362	2.73
358.731	2.4
359.1	2.8
359.469	2.74
359.838	2.69
360.207	2.64
360.576	2.63
360.945	2.73
361.314	2.8
361.682	2.85
362.051	2.94
362.42	2.71
362.788	2.8
363.157	2.65
363.525	2.75
363.894	2.66
364.262	2.52
364.631	2.84
364.999	2.81
365.367	2.88
365.735	2.69
366.104	2.82
366.472	2.73
366.84	2.8
367.208	2.77
367.576	2.95
367.944	2.99
368.312	2.66
368.68	2.67
369.048	2.81
369.416	2.76
369.783	2.97
370.151	2.51
370.519	2.65
370.886	2.64
371.254	2.57
371.621	2.61
371.989	3.15
372.356	2.63
372.724	3.01
373.091	2.78
373.458	2.58
373.826	2.93
374.193	2.6
374.56	2.48
374.927	2.92
375.294	2.99
375.661	2.9
376.028	2.8
376.395	2.74
376.762	2.69
377.129	2.69
377.496	2.82
377.863	2.38
378.229	2.9
378.596	2.56
378.963	3.11
379.329	2.69
379.696	2.99
380.062	2.5
380.429	2.68
380.795	2.65
381.161	2.81
381.528	2.98
381.894	2.87
382.26	2.79
382.626	2.73
382.993	2.62
383.359	2.74
383.725	2.95
384.091	2.94
384.457	2.79
384.823	2.48
385.188	2.74
385.554	3
385.92	2.89
386.286	2.92
386.651	2.78
387.017	2.73
387.383	2.78
387.748	2.77
388.114	2.88
388.479	2.85
388.845	2.92
389.21	2.74
389.575	2.63
389.94	3.01
390.306	2.69
390.671	2.97
391.036	3.07
391.401	2.97
391.766	3.15
392.131	2.86
392.496	3.03
392.861	2.56
393.226	2.79
393.591	2.95
393.956	3.04
394.32	2.84
394.685	2.9
395.05	2.73
395.414	2.95
395.779	2.72
396.143	2.91
396.508	2.89
396.872	2.65
397.236	2.8
397.601	2.77
397.965	2.67
398.329	2.76
398.694	2.85
399.058	2.84
399.422	3.05
399.786	2.85
400.15	2.92
400.514	2.91
400.878	2.94
401.242	2.67
401.605	2.81
401.969	2.86
402.333	2.7
402.697	2.96
403.06	2.77
403.424	2.76
403.787	2.9
404.151	3.02
404.514	2.98
404.878	2.83
405.241	2.74
405.604	2.9
405.968	2.85
406.331	2.74
406.694	2.91
407.057	2.83
407.42	2.89
407.783	2.81
408.146	2.8
408.509	2.79
408.872	2.8
409.235	3.09
409.598	3.06
409.961	2.95
410.323	2.82
410.686	2.96
411.049	2.83
411.411	2.84
411.774	2.95
412.136	2.86
412.499	3.09
412.861	2.93
413.223	2.9
413.586	2.71
413.948	2.74
414.31	3.04
414.672	2.69
415.035	2.92
415.397	2.84
415.759	3.16
416.121	3.02
416.483	2.98
416.845	2.73
417.206	2.75
417.568	2.94
417.93	2.96
418.292	2.78
418.653	2.87
419.015	2.91
419.377	2.8
419.738	2.88
420.1	2.99
420.461	2.97
420.822	2.93
421.184	2.87
421.545	2.9
421.906	2.95
422.267	2.81
422.629	2.86
422.99	2.84
423.351	2.8
423.712	2.77
424.073	2.87
424.434	2.88
424.795	2.75
425.155	2.79
425.516	2.79
425.877	2.72
426.238	2.89
426.598	2.89
426.959	2.9
427.32	2.83
427.68	2.96
428.041	2.73
428.401	2.89
428.761	2.97
429.122	2.91
429.482	2.98
429.842	2.87
430.202	3.14
430.563	3.07
430.923	3.09
431.283	3.11
431.643	2.91
432.003	2.9
432.363	3.01
432.722	2.92
433.082	3.04
433.442	3.07
433.802	2.97
434.161	3.07
434.521	3.01
434.881	2.8
435.24	2.9
435.6	2.95
435.959	2.9
436.319	2.98
436.678	2.92
437.037	3.07
437.396	3.04
437.756	2.98
438.115	2.9
438.474	3.04
438.833	3.1
439.192	2.91
439.551	2.94
439.91	2.87
440.269	3.04
440.628	2.96
440.987	3.06
441.345	2.97
441.704	3.03
442.063	3.05
442.421	3.11
442.78	2.94
443.138	3.01
443.497	2.88
443.855	3.1
444.214	3.13
444.572	3.09
444.93	2.96
445.288	2.9
445.647	3.04
446.005	3.03
446.363	2.91
446.721	3.03
447.079	3.05
447.437	2.94
447.795	2.97
448.153	2.97
448.51	2.96
448.868	3.03
449.226	2.96
449.584	3.07
449.941	3.05
450.299	3.02
450.656	3.14
451.014	3.21
451.371	3.14
451.729	2.96
452.086	3.16
452.443	2.97
452.801	3.16
453.158	3.08
453.515	3.08
453.872	3
454.229	3.07
454.586	3.04
454.943	3.14
455.3	3.13
455.657	3
456.014	3.08
456.371	3.24
456.727	3.23
457.084	3.08
457.441	3.01
457.797	3.04
458.154	3.11
458.51	2.95
458.867	3.13
459.223	3.12
459.58	3.05
459.936	3.01
460.292	3.18
460.648	2.97
461.005	3.11
461.361	3.07
461.717	3.03
462.073	3.02
462.429	2.95
462.785	3.09
463.141	3.09
463.496	3.12
463.852	3.29
464.208	3.13
464.564	3.04
464.919	3.2
465.275	3.15
465.631	3.17
465.986	3.08
466.342	3.22
466.697	3.12
467.052	3.18
467.408	3.24
467.763	3.25
468.118	3.25
468.473	3.1
468.829	3.05
469.184	3.07
469.539	3.25
469.894	3.16
470.249	3.15
470.603	3.07
470.958	3.19
471.313	2.99
471.668	3.08
472.023	3.21
472.377	3.26
472.732	3.09
473.086	3.18
473.441	3.27
473.795	3.1
474.15	3.14
474.504	3.21
474.859	3.01
475.213	3.29
475.567	3.29
475.921	3.3
476.275	3.22
476.63	3.14
476.984	3.2
477.338	3.09
477.692	3.2
478.045	3.05
478.399	3.06
478.753	3.1
479.107	3.25
479.461	3.1
479.814	3.21
480.168	3.1
480.521	3.11
480.875	3.2
481.228	3.17
481.582	3.34
481.935	3.13
482.289	3.11
482.642	3.24
482.995	3.2
483.348	3.11
483.701	3.1
484.055	3.15
484.408	3.05
484.761	3
485.114	2.92
485.466	2.91
485.819	2.93
486.172	3.02
486.525	3.05
486.878	3.12
487.23	3.1
487.583	3.12
487.936	3.11
488.288	3.08
488.641	3.1
488.993	3.02
489.345	3.02
489.698	3.02
490.05	3.07
490.402	3.05
490.754	3.17
491.107	3.11
491.459	3.18
491.811	3.05
492.163	3.15
492.515	3.11
492.866	3.07
493.218	3
493.57	3.08
493.922	3.08
494.274	3.13
494.625	3.22
494.977	3.15
495.328	3.26
495.68	3.2
496.031	3.26
496.383	3.27
496.734	3.22
497.086	3.19
497.437	3.27
497.788	3.3
498.139	3.16
498.49	3.25
498.842	3.15
499.193	3.24
499.544	3.17
499.894	3.26
500.245	3.24
500.596	3.27
500.947	3.2
501.298	3.35
501.648	3.28
501.999	3.23
502.35	3.21
502.7	3.29
503.051	3.3
503.401	3.29
503.752	3.26
504.102	3.25
504.452	3.27
504.803	3.22
505.153	3.23
505.503	3.33
505.853	3.26
506.203	3.39
506.553	3.36
506.903	3.29
507.253	3.37
507.603	3.31
507.953	3.4
508.303	3.44
508.652	3.28
509.002	3.28
509.352	3.28
509.701	3.25
510.051	3.31
510.4	3.29
510.75	3.35
511.099	3.42
511.449	3.32
511.798	3.39
512.147	3.34
512.496	3.32
512.846	3.37
513.195	3.41
513.544	3.2
513.893	3.26
514.242	3.22
514.591	3.25
514.939	3.28
515.288	3.31
515.637	3.25
515.986	3.35
516.334	3.36
516.683	3.41
517.032	3.33
517.38	3.33
517.729	3.26
518.077	3.38
518.426	3.31
518.774	3.39
519.122	3.29
519.47	3.3
519.819	3.25
520.167	3.3
520.515	3.29
520.863	3.36
521.211	3.33
521.559	3.26
521.907	3.41
522.255	3.33
522.602	3.43
522.95	3.4
523.298	3.43
523.645	3.37
523.993	3.37
524.341	3.4
524.688	3.3
525.036	3.33
525.383	3.42
525.73	3.4
526.078	3.49
526.425	3.42
526.772	3.3
527.119	3.22
527.466	3.19
527.814	3.18
528.161	3.25
528.508	3.38
528.854	3.29
529.201	3.34
529.548	3.23
529.895	3.09
530.242	3.15
530.588	3.15
530.935	3.21
531.282	3.25
531.628	3.31
531.975	3.32
532.321	3.28
532.667	3.32
533.014	3.4
533.36	3.38
533.706	3.39
534.052	3.37
534.399	3.31
534.745	3.18
535.091	3.19
535.437	3.26
535.783	3.26
536.129	3.33
536.474	3.39
536.82	3.37
537.166	3.38
537.512	3.34
537.857	3.4
538.203	3.33
538.549	3.38
538.894	3.29
539.239	3.37
539.585	3.34
539.93	3.37
540.276	3.31
540.621	3.52
540.966	3.39
541.311	3.42
541.656	3.35
542.001	3.4
542.346	3.4
542.691	3.33
543.036	3.22
543.381	3.28
543.726	3.25
544.071	3.29
544.415	3.33
544.76	3.36
545.105	3.32
545.449	3.34
545.794	3.43
546.138	3.41
546.483	3.39
546.827	3.43
547.171	3.41
547.516	3.4
547.86	3.44
548.204	3.45
548.548	3.4
548.892	3.41
549.236	3.41
549.58	3.45
549.924	3.43
550.268	3.46
550.612	3.67
550.956	3.47
551.3	3.55
551.643	3.35
551.987	3.48
552.33	3.6
552.674	3.62
553.017	3.63
553.361	3.6
553.704	3.57
554.048	3.42
554.391	3.28
554.734	3.42
555.077	3.39
555.42	3.54
555.764	3.53
556.107	3.45
556.45	3.57
556.793	3.73
557.135	3.58
557.478	3.5
557.821	3.57
558.164	3.63
558.507	3.46
558.849	3.58
559.192	3.4
559.534	3.62
559.877	3.81
560.219	3.45
560.562	3.57
560.904	3.67
561.246	3.44
561.589	3.54
561.931	3.54
562.273	3.81
562.615	3.51
562.957	3.63
563.299	3.56
563.641	3.67
563.983	3.57
564.325	3.6
564.667	3.51
565.008	3.57
565.35	3.63
565.692	3.84
566.033	3.48
566.375	3.55
566.716	3.47
567.058	3.53
567.399	3.62
567.741	3.67
568.082	3.65
568.423	3.65
568.764	3.56
569.105	3.71
569.447	3.61
569.788	3.67
570.129	3.55
570.47	3.63
570.811	3.55
571.151	3.59
571.492	3.63
571.833	3.56
572.174	3.52
572.514	3.62
572.855	3.46
573.195	3.42
573.536	3.64
573.876	3.6
574.217	3.52
574.557	3.44
574.898	3.74
575.238	3.74
575.578	3.59
575.918	3.39
576.258	3.5
576.598	3.44
576.938	3.56
577.278	3.63
577.618	3.54
577.958	3.48
578.298	3.71
578.638	3.68
578.977	3.7
579.317	3.7
579.657	3.67
579.996	3.61
580.336	3.74
580.675	3.59
581.014	3.52
581.354	3.92
581.693	3.55
582.032	3.61
582.372	3.62
582.711	3.79
583.05	3.64
583.389	3.55
583.728	3.74
584.067	3.83
584.406	3.65
584.745	4
585.083	3.63
585.422	3.6
585.761	3.68
586.1	3.77
586.438	3.69
586.777	3.67
587.115	4.13
587.454	3.53
587.792	3.83
588.13	3.74
588.469	3.78
588.807	3.71
589.145	3.82
589.483	3.76
589.821	3.86
590.159	3.74
590.497	3.5
590.835	3.85
591.173	3.7
591.511	3.71
591.849	3.67
592.187	3.7
592.524	3.71
592.862	3.63
593.2	3.63
593.537	3.53
593.875	3.74
594.212	3.89
594.55	3.88
594.887	3.69
595.224	3.58
595.561	3.83
595.899	3.61
596.236	3.67
596.573	3.65
596.91	3.73
597.247	3.62
597.584	3.83
597.921	3.77
598.258	3.68
598.594	3.69
598.931	3.62
599.268	3.71
599.604	3.64
599.941	3.66
600.277	3.69
600.614	3.65
600.95	3.9
601.287	3.6
601.623	3.74
601.959	3.91
602.296	3.54
602.632	3.66
602.968	3.7
603.304	3.63
603.64	3.84
603.976	3.89
604.312	3.94
604.648	3.61
604.984	3.65
605.319	3.7
605.655	3.59
605.991	3.87
606.326	3.6
606.662	3.7
606.998	3.7
607.333	3.67
607.668	3.67
608.004	3.72
608.339	3.7
608.674	3.83
609.01	3.79
609.345	3.84
609.68	3.71
610.015	3.7
610.35	3.56
610.685	3.72
611.02	3.76
611.355	3.68
611.689	3.65
612.024	3.62
612.359	3.62
612.694	4
613.028	3.82
613.363	3.65
613.697	3.67
614.032	3.73
614.366	3.93
614.7	3.75
615.035	3.6
615.369	3.55
615.703	3.5
616.037	3.6
616.371	3.84
616.705	3.93
617.039	3.96
617.373	3.82
617.707	3.81
618.041	3.85
618.375	3.68
618.709	3.55
619.042	3.66
619.376	3.76
619.71	3.78
620.043	3.85
620.377	3.53
620.71	3.94
621.043	3.66
621.377	4.07
621.71	3.77
622.043	3.61
622.376	3.83
622.709	3.44
623.043	3.73
623.376	3.57
623.709	3.74
624.041	3.82
624.374	3.92
624.707	3.85
625.04	3.72
625.373	3.98
625.705	3.59
626.038	3.59
626.37	3.8
626.703	3.73
627.035	3.66
627.368	3.67
627.7	3.94
628.032	3.84
628.365	3.83
628.697	3.8
629.029	3.91
629.361	3.83
629.693	3.76
630.025	4.05
630.357	3.92
630.689	3.92
631.021	3.69
631.353	3.94
631.684	3.91
632.016	4.11
632.348	3.8
632.679	3.9
633.011	3.84
633.342	3.79
633.674	3.52
634.005	3.65
634.336	3.88
634.668	3.74
634.999	3.9
635.33	3.78
635.661	3.72
635.992	3.86
636.323	3.76
636.654	3.6
636.985	3.76
637.316	3.89
637.647	4.19
637.977	4.09
638.308	4.26
638.639	3.84
638.969	3.75
639.3	4.36
639.63	3.96
639.961	3.8
640.291	4.05
640.622	3.6
640.952	4.28
641.282	4.13
641.612	3.9
641.943	4.43
642.273	3.8
642.603	3.85
642.933	3.92
643.263	3.88
643.592	3.84
643.922	3.84
644.252	4.31
644.582	3.81
644.911	3.69
645.241	3.47
645.571	3.8
645.9	3.53
646.23	3.9
646.559	3.84
646.888	3.46
647.218	4.19
647.547	4.2
647.876	4.06
648.205	3.86
648.534	3.78
648.863	4.01
649.192	4.11
649.521	4.07
649.85	4.23
650.179	3.73
650.508	3.85
650.837	4.06
651.165	3.41
651.494	3.91
651.822	3.84
652.151	4.2
652.479	4.03
652.808	3.96
653.136	3.81
653.465	3.82
653.793	3.71
654.121	3.72
654.449	3.74
654.777	3.66
655.105	4.16
655.433	3.82
655.761	3.84
656.089	3.44
656.417	3.94
656.745	3.75
657.073	3.73
657.4	4.34
657.728	3.76
658.056	4.09
658.383	3.93
658.711	3.5
659.038	4.16
659.365	4.34
659.693	4.01
660.02	3.86
660.347	3.87
660.674	3.8
661.001	3.71
661.329	4.16
661.656	3.96
661.982	4.25
662.309	3.84
662.636	4.43
662.963	3.77
663.29	3.87
663.616	3.81
663.943	4.24
664.27	4.01
664.596	3.53
664.923	3.43
665.249	3.24
665.576	4.42
665.902	4.07
666.228	3.45
666.554	4.3
666.881	3.9
667.207	3.71
667.533	4.02
667.859	3.36
668.185	2.94
668.511	3.76
668.837	3.96
669.162	3.94
669.488	4.16
669.814	3.96
670.139	3.91
670.465	3.72
670.791	3.75
671.116	3.74
671.442	4.48
671.767	3.95
672.092	3.58
672.418	3.88
672.743	3.96
673.068	4.38
673.393	4.05
673.718	4.19
674.043	3.97
674.368	4.13
674.693	4.34
675.018	4.14
675.343	3.92
675.667	4.07
675.992	4.08
676.317	4.24
676.641	3.86
676.966	3.57
677.29	4.34
677.615	4.33
677.939	4.28
678.264	4.13
678.588	4.27
678.912	4.16
679.236	3.49
679.56	3.14
679.885	3.9
680.209	3.91
680.532	3.31
680.856	4.05
681.18	3.56
681.504	4.09
681.828	4.12
682.152	4
682.475	4.02
682.799	4.04
683.122	3.3
683.446	4.37
683.769	4.35
684.093	3.84
684.416	4.06
684.739	4.04
685.062	3.67
685.386	3.78
685.709	4.36
686.032	4.62
686.355	4.16
686.678	3.9
687.001	4.21
687.324	4.05
687.646	4.82
687.969	3.95
688.292	3.85
688.614	4.05
688.937	3.73
689.26	3.87
689.582	3.87
689.904	3.81
690.227	4.22
690.549	4.75
690.871	4.58
691.194	3.97
691.516	4.68
691.838	3.55
692.16	3.83
692.482	3.67
692.804	4.14
