Data from 2019-1_chest_Reflection__4__179.txt Node

Date: Fri Nov 11 18:16:31 CST 2022
User: ToomeyLab
Spectrometer: FLMS14357
Trigger mode: 0
Integration Time (sec): 1.000000E-2
Scans to average: 100
Electric dark correction enabled: true
Nonlinearity correction enabled: false
Boxcar width: 0
XAxis mode: Wavelengths
Number of Pixels in Spectrum: 2048
>>>>>Begin Spectral Data<<<<<
189.047	-19
189.435	-19
189.823	-19
190.211	-221.1
190.599	69.66
190.987	87.1
191.375	55.06
191.763	43.15
192.151	-59.38
192.538	-14.53
192.926	357.06
193.314	80.05
193.702	-15.74
194.089	60.78
194.477	32.78
194.864	1920.9
195.252	45.61
195.639	-194.29
196.027	152.15
196.414	-18.22
196.801	-167.82
197.189	59.91
197.576	133.32
197.963	69.96
198.351	2.37
198.738	5.67
199.125	-14.74
199.512	10.95
199.899	20.28
200.286	-18.38
200.673	-11.64
201.06	20.47
201.447	15.07
201.833	48.43
202.22	2.26
202.607	12.63
202.994	21.38
203.38	-22.44
203.767	31.46
204.154	15.53
204.54	26.15
204.927	6.49
205.313	28.52
205.699	-9.63
206.086	-10.18
206.472	-5.68
206.858	25.83
207.245	7.57
207.631	24.17
208.017	-6.59
208.403	-4.41
208.789	10.13
209.175	-34.19
209.561	5.6
209.947	-48
210.333	47.18
210.719	14.17
211.105	19.17
211.491	32.57
211.876	-19.07
212.262	-37.91
212.648	24.1
213.034	1.82
213.419	-34.53
213.805	0.87
214.19	9.19
214.576	33.25
214.961	20.51
215.346	-2.43
215.732	7.02
216.117	6.83
216.502	22.27
216.888	-27.33
217.273	11.42
217.658	-0.33
218.043	-0.41
218.428	28.38
218.813	12.47
219.198	11.88
219.583	21.72
219.968	4.72
220.353	20.53
220.738	-3.6
221.122	-9.71
221.507	22.66
221.892	28.77
222.276	-1.73
222.661	26.29
223.046	8.47
223.43	-0.33
223.815	-5.69
224.199	-4.34
224.583	12.54
224.968	10.32
225.352	13.26
225.736	0.74
226.121	-1.62
226.505	16.56
226.889	4.08
227.273	4.87
227.657	3
228.041	5.58
228.425	4.96
228.809	4.46
229.193	6.47
229.577	5.69
229.961	5.13
230.344	4
230.728	5.36
231.112	4.57
231.495	5.24
231.879	5.78
232.263	4.94
232.646	3.62
233.03	3.44
233.413	4.22
233.797	5.47
234.18	2.02
234.563	4.72
234.946	3.15
235.33	3.53
235.713	1.65
236.096	4.39
236.479	2.9
236.862	5.07
237.245	4.56
237.628	4.76
238.011	2.17
238.394	3.7
238.777	4.93
239.16	4.53
239.543	5.14
239.925	4.43
240.308	4.91
240.691	3.47
241.073	3.81
241.456	4.82
241.838	4.12
242.221	4.22
242.603	3.49
242.986	4.27
243.368	4.2
243.75	3.89
244.133	4.14
244.515	4.55
244.897	4.48
245.279	3.67
245.661	3.41
246.043	3.78
246.425	4.5
246.807	5.16
247.189	4.43
247.571	4.29
247.953	3.85
248.335	3.91
248.717	4.25
249.098	4.2
249.48	4.12
249.862	4.02
250.243	4.07
250.625	4.39
251.006	3.33
251.388	4.43
251.769	3.54
252.151	3.66
252.532	4.9
252.913	4.66
253.295	3.87
253.676	4.63
254.057	3.69
254.438	3.64
254.819	3.93
255.2	5.16
255.581	3.34
255.962	3
256.343	4.13
256.724	3.43
257.105	3.56
257.486	4.1
257.867	4.9
258.247	4.38
258.628	3.44
259.009	3.71
259.389	3.72
259.77	4.37
260.15	3.85
260.531	4.1
260.911	3.59
261.292	3.56
261.672	3.83
262.052	3.7
262.432	3.47
262.813	3.85
263.193	4.21
263.573	3.82
263.953	3.23
264.333	3.53
264.713	3.97
265.093	4.07
265.473	3.94
265.853	4.29
266.233	4.24
266.612	4.6
266.992	3.4
267.372	4.47
267.752	3.8
268.131	4.04
268.511	3.84
268.89	3.73
269.27	3.64
269.649	4.06
270.029	3.46
270.408	3.72
270.787	4.13
271.167	3.9
271.546	3.79
271.925	3.48
272.304	4
272.683	4.07
273.062	3.54
273.441	3.56
273.82	3.74
274.199	3.5
274.578	3.46
274.957	4.02
275.336	3.68
275.715	3.43
276.093	3.66
276.472	3.75
276.851	3.93
277.229	3.91
277.608	3.44
277.986	3.5
278.365	3.23
278.743	4.37
279.122	3.73
279.5	3.56
279.878	4.08
280.257	3.91
280.635	4.01
281.013	3.51
281.391	4.12
281.769	2.85
282.147	3.66
282.525	3.56
282.903	3.92
283.281	4.11
283.659	3.54
284.037	3.69
284.415	3.86
284.792	3.99
285.17	3.9
285.548	4.01
285.925	3.6
286.303	3.3
286.68	3.55
287.058	3.86
287.435	3.88
287.813	3.6
288.19	3.54
288.567	3.19
288.945	3.48
289.322	3.72
289.699	3.7
290.076	3.8
290.453	3.97
290.83	3.24
291.207	3.48
291.584	3.79
291.961	3.48
292.338	3.92
292.715	3.8
293.092	3.49
293.469	3.93
293.845	3.38
294.222	4.04
294.599	3.93
294.975	3.48
295.352	3.66
295.728	3.43
296.105	3.62
296.481	3.77
296.858	3.75
297.234	4.01
297.61	3.76
297.986	3.59
298.363	3.99
298.739	3.86
299.115	4.16
299.491	3.82
299.867	4.01
300.243	3.63
300.619	3.56
300.995	3.95
301.371	4.04
301.746	3.25
302.122	3.84
302.498	4.22
302.874	4.67
303.249	4.12
303.625	3.8
304	3.99
304.376	3.67
304.751	3.7
305.127	3.86
305.502	3.78
305.878	3.96
306.253	3.8
306.628	3.71
307.003	4.12
307.378	3.31
307.754	4.02
308.129	4.13
308.504	3.79
308.879	4.19
309.254	3.66
309.629	4
310.003	3.99
310.378	3.86
310.753	3.74
311.128	3.91
311.502	3.55
311.877	4.02
312.252	4.1
312.626	3.93
313.001	3.96
313.375	3.27
313.75	4
314.124	3.94
314.498	4.23
314.873	3.59
315.247	4.02
315.621	4.16
315.995	4.11
316.369	4.1
316.743	3.92
317.117	3.95
317.491	3.98
317.865	3.98
318.239	4.13
318.613	4.33
318.987	4.03
319.361	4.46
319.734	3.91
320.108	4.21
320.482	4.43
320.855	3.57
321.229	3.91
321.602	3.66
321.976	4.21
322.349	4.28
322.723	4.06
323.096	3.57
323.469	3.86
323.843	3.87
324.216	3.8
324.589	4.36
324.962	3.89
325.335	3.49
325.708	3.77
326.081	3.47
326.454	4.24
326.827	3.98
327.2	4.32
327.573	3.94
327.945	4.35
328.318	3.71
328.691	4.18
329.063	4.32
329.436	4.19
329.809	4.49
330.181	3.29
330.553	3.94
330.926	3.57
331.298	3.77
331.671	3.85
332.043	4.36
332.415	3.73
332.787	3.64
333.159	4.12
333.532	3.8
333.904	4.29
334.276	3.66
334.648	3.77
335.02	4.01
335.391	3.85
335.763	3.8
336.135	3.84
336.507	4.69
336.879	3.78
337.25	4.04
337.622	4.67
337.993	4.61
338.365	4.29
338.736	3.76
339.108	4.08
339.479	3.77
339.851	4.17
340.222	3.91
340.593	4.09
340.964	4.1
341.336	3.87
341.707	3.82
342.078	4.01
342.449	4.48
342.82	4.24
343.191	4.34
343.562	4.42
343.933	3.83
344.303	4.11
344.674	4.23
345.045	4.06
345.416	4.28
345.786	4.18
346.157	4.25
346.527	3.87
346.898	3.85
347.268	3.93
347.639	4.06
348.009	4.15
348.38	4.12
348.75	4.07
349.12	4.16
349.49	4.04
349.861	3.9
350.231	4.48
350.601	4.36
350.971	4.22
351.341	4.28
351.711	4.24
352.081	4.25
352.45	4.06
352.82	4.3
353.19	4.52
353.56	4.51
353.929	3.87
354.299	3.8
354.669	3.97
355.038	4.46
355.408	3.96
355.777	4.43
356.147	3.99
356.516	4.04
356.885	4.12
357.254	4.39
357.624	3.94
357.993	3.75
358.362	4.07
358.731	4.05
359.1	4.17
359.469	4.08
359.838	4.08
360.207	4.24
360.576	3.8
360.945	3.97
361.314	4.04
361.682	4.08
362.051	4.28
362.42	3.81
362.788	3.97
363.157	3.88
363.525	4.07
363.894	4.12
364.262	3.86
364.631	4.06
364.999	4.06
365.367	3.95
365.735	4.04
366.104	4.13
366.472	4.32
366.84	4.25
367.208	4.06
367.576	4.04
367.944	4.18
368.312	3.95
368.68	3.94
369.048	4.04
369.416	4.45
369.783	4.5
370.151	3.97
370.519	3.92
370.886	4.08
371.254	4.15
371.621	4.43
371.989	4.61
372.356	4.01
372.724	3.97
373.091	4.29
373.458	3.92
373.826	4.53
374.193	3.83
374.56	4.01
374.927	4.18
375.294	4.14
375.661	4.15
376.028	4.28
376.395	4.37
376.762	4.2
377.129	4.27
377.496	4.53
377.863	3.87
378.229	3.97
378.596	4.32
378.963	4.4
379.329	4.2
379.696	4.24
380.062	4.16
380.429	4.2
380.795	4
381.161	4.01
381.528	4.3
381.894	3.78
382.26	3.88
382.626	4.1
382.993	4.18
383.359	4.22
383.725	4.35
384.091	3.89
384.457	4.48
384.823	3.94
385.188	3.98
385.554	4.24
385.92	4.24
386.286	4.27
386.651	4.29
387.017	4.18
387.383	4.04
387.748	4.16
388.114	4.15
388.479	4.33
388.845	4.31
389.21	4.2
389.575	3.98
389.94	4.27
390.306	4.29
390.671	4.01
391.036	4.11
391.401	4.21
391.766	4.44
392.131	4.16
392.496	4.13
392.861	3.95
393.226	4.05
393.591	4.34
393.956	4.31
394.32	4.27
394.685	4.22
395.05	4.15
395.414	4.24
395.779	3.87
396.143	4.44
396.508	4.26
396.872	4.11
397.236	4.04
397.601	4.36
397.965	4.09
398.329	4.19
398.694	4.53
399.058	4.35
399.422	4.36
399.786	4.33
400.15	4.4
400.514	4.25
400.878	4.09
401.242	4.12
401.605	4.07
401.969	4.01
402.333	4.04
402.697	4.56
403.06	4.46
403.424	4.19
403.787	4.4
404.151	4.27
404.514	4.4
404.878	3.96
405.241	4.21
405.604	4.06
405.968	4.14
406.331	4.1
406.694	4.23
407.057	4
407.42	4.12
407.783	4.02
408.146	4.23
408.509	4.16
408.872	4.23
409.235	4.19
409.598	4.14
409.961	4
410.323	4.38
410.686	4.17
411.049	4.39
411.411	4.16
411.774	4.09
412.136	4.04
412.499	4.41
412.861	4.26
413.223	4.15
413.586	4.12
413.948	4.33
414.31	4.24
414.672	4.09
415.035	4.24
415.397	4.34
415.759	4.36
416.121	4.41
416.483	4.39
416.845	4.23
417.206	4.31
417.568	4.28
417.93	4.2
418.292	3.99
418.653	4.28
419.015	4.05
419.377	4.08
419.738	4.23
420.1	4.16
420.461	4.31
420.822	4.18
421.184	4.14
421.545	4.19
421.906	4.13
422.267	4.03
422.629	4.14
422.99	4.16
423.351	4.17
423.712	4.02
424.073	4.07
424.434	4.15
424.795	4.11
425.155	4.15
425.516	4.14
425.877	4.12
426.238	4.15
426.598	4.13
426.959	4.07
427.32	4.11
427.68	4.22
428.041	4.09
428.401	4.37
428.761	4.31
429.122	4.15
429.482	4.2
429.842	4.21
430.202	4.42
430.563	4.34
430.923	4.34
431.283	4.3
431.643	4.11
432.003	4.26
432.363	4.29
432.722	4.22
433.082	4.38
433.442	4.46
433.802	4.13
434.161	4.36
434.521	4.19
434.881	4.16
435.24	4.14
435.6	4.33
435.959	4.13
436.319	4.38
436.678	4.23
437.037	4.4
437.396	4.33
437.756	4.34
438.115	4.37
438.474	4.47
438.833	4.29
439.192	4.22
439.551	4.35
439.91	4.26
440.269	4.4
440.628	4.29
440.987	4.23
441.345	4.4
441.704	4.26
442.063	4.33
442.421	4.3
442.78	4.33
443.138	4.41
443.497	4.18
443.855	4.29
444.214	4.36
444.572	4.46
444.93	4.29
445.288	4.37
445.647	4.48
446.005	4.27
446.363	4.27
446.721	4.4
447.079	4.29
447.437	4.16
447.795	4.3
448.153	4.26
448.51	4.33
448.868	4.27
449.226	4.31
449.584	4.4
449.941	4.34
450.299	4.3
450.656	4.38
451.014	4.4
451.371	4.44
451.729	4.33
452.086	4.46
452.443	4.45
452.801	4.27
453.158	4.45
453.515	4.38
453.872	4.46
454.229	4.51
454.586	4.38
454.943	4.39
455.3	4.46
455.657	4.48
456.014	4.48
456.371	4.65
456.727	4.58
457.084	4.5
457.441	4.56
457.797	4.25
458.154	4.52
458.51	4.46
458.867	4.55
459.223	4.5
459.58	4.53
459.936	4.45
460.292	4.53
460.648	4.3
461.005	4.5
461.361	4.41
461.717	4.4
462.073	4.41
462.429	4.35
462.785	4.43
463.141	4.36
463.496	4.45
463.852	4.59
464.208	4.41
464.564	4.5
464.919	4.54
465.275	4.38
465.631	4.51
465.986	4.54
466.342	4.56
466.697	4.41
467.052	4.48
467.408	4.63
467.763	4.56
468.118	4.68
468.473	4.61
468.829	4.3
469.184	4.47
469.539	4.39
469.894	4.46
470.249	4.53
470.603	4.55
470.958	4.56
471.313	4.43
471.668	4.44
472.023	4.58
472.377	4.7
472.732	4.57
473.086	4.77
473.441	4.55
473.795	4.48
474.15	4.59
474.504	4.65
474.859	4.58
475.213	4.52
475.567	4.65
475.921	4.62
476.275	4.61
476.63	4.52
476.984	4.61
477.338	4.57
477.692	4.75
478.045	4.56
478.399	4.49
478.753	4.58
479.107	4.62
479.461	4.55
479.814	4.67
480.168	4.65
480.521	4.49
480.875	4.58
481.228	4.6
481.582	4.65
481.935	4.5
482.289	4.55
482.642	4.64
482.995	4.53
483.348	4.47
483.701	4.48
484.055	4.47
484.408	4.42
484.761	4.42
485.114	4.28
485.466	4.19
485.819	4.24
486.172	4.29
486.525	4.36
486.878	4.46
487.23	4.41
487.583	4.48
487.936	4.4
488.288	4.42
488.641	4.45
488.993	4.39
489.345	4.36
489.698	4.36
490.05	4.44
490.402	4.41
490.754	4.49
491.107	4.51
491.459	4.57
491.811	4.52
492.163	4.57
492.515	4.51
492.866	4.43
493.218	4.4
493.57	4.4
493.922	4.45
494.274	4.5
494.625	4.6
494.977	4.54
495.328	4.71
495.68	4.68
496.031	4.67
496.383	4.78
496.734	4.73
497.086	4.68
497.437	4.76
497.788	4.72
498.139	4.64
498.49	4.71
498.842	4.61
499.193	4.65
499.544	4.73
499.894	4.73
500.245	4.6
500.596	4.74
500.947	4.74
501.298	4.7
501.648	4.78
501.999	4.76
502.35	4.71
502.7	4.77
503.051	4.75
503.401	4.74
503.752	4.81
504.102	4.75
504.452	4.74
504.803	4.7
505.153	4.86
505.503	4.9
505.853	4.82
506.203	4.93
506.553	4.84
506.903	4.91
507.253	4.78
507.603	4.83
507.953	4.79
508.303	4.89
508.652	4.88
509.002	4.91
509.352	4.83
509.701	4.73
510.051	4.8
510.4	4.82
510.75	4.93
511.099	4.88
511.449	4.9
511.798	4.87
512.147	4.91
512.496	4.83
512.846	4.93
513.195	4.91
513.544	4.82
513.893	4.92
514.242	4.9
514.591	4.86
514.939	4.9
515.288	4.92
515.637	4.93
515.986	5.04
516.334	5.01
516.683	4.91
517.032	4.99
517.38	4.92
517.729	4.87
518.077	5.01
518.426	5.07
518.774	4.99
519.122	4.82
519.47	4.95
519.819	4.86
520.167	4.91
520.515	4.88
520.863	4.88
521.211	4.91
521.559	4.91
521.907	5.01
522.255	4.98
522.602	5.05
522.95	5.08
523.298	4.95
523.645	5.04
523.993	5.07
524.341	5.09
524.688	4.9
525.036	5.11
525.383	5.22
525.73	5.08
526.078	5.07
526.425	5.09
526.772	4.99
527.119	4.99
527.466	4.94
527.814	4.88
528.161	4.94
528.508	5.05
528.854	5.08
529.201	5.03
529.548	4.92
529.895	4.87
530.242	4.82
530.588	4.84
530.935	4.88
531.282	4.92
531.628	4.99
531.975	5.08
532.321	5.03
532.667	5.04
533.014	5.14
533.36	5.23
533.706	5.05
534.052	5.17
534.399	5.04
534.745	5.05
535.091	4.99
535.437	5.03
535.783	5.07
536.129	5.19
536.474	5.22
536.82	5.17
537.166	5.23
537.512	5.29
537.857	5.2
538.203	5.18
538.549	5.24
538.894	5.3
539.239	5.22
539.585	5.33
539.93	5.39
540.276	5.35
540.621	5.49
540.966	5.48
541.311	5.4
541.656	5.47
542.001	5.34
542.346	5.25
542.691	5.2
543.036	5.17
543.381	5.25
543.726	5.17
544.071	5.28
544.415	5.37
544.76	5.3
545.105	5.31
545.449	5.3
545.794	5.45
546.138	5.42
546.483	5.49
546.827	5.47
547.171	5.5
547.516	5.5
547.86	5.48
548.204	5.5
548.548	5.45
548.892	5.49
549.236	5.57
549.58	5.61
549.924	5.68
550.268	5.74
550.612	5.8
550.956	5.61
551.3	5.79
551.643	5.7
551.987	5.71
552.33	5.98
552.674	6
553.017	5.85
553.361	5.86
553.704	5.94
554.048	5.75
554.391	5.83
554.734	5.83
555.077	5.79
555.42	5.88
555.764	5.88
556.107	5.81
556.45	6.06
556.793	6.02
557.135	5.99
557.478	5.89
557.821	5.94
558.164	6.08
558.507	5.95
558.849	6.11
559.192	6.11
559.534	6.08
559.877	6.17
560.219	6.04
560.562	6.14
560.904	6.34
561.246	6.01
561.589	6.24
561.931	6.19
562.273	6.31
562.615	6.31
562.957	6.27
563.299	6.32
563.641	6.27
563.983	6.21
564.325	6.18
564.667	6.33
565.008	6.3
565.35	6.34
565.692	6.44
566.033	6.35
566.375	6.5
566.716	6.37
567.058	6.47
567.399	6.61
567.741	6.32
568.082	6.48
568.423	6.39
568.764	6.47
569.105	6.52
569.447	6.6
569.788	6.48
570.129	6.52
570.47	6.57
570.811	6.68
571.151	6.58
571.492	6.67
571.833	6.57
572.174	6.55
572.514	6.52
572.855	6.63
573.195	6.5
573.536	6.67
573.876	6.52
574.217	6.7
574.557	6.57
574.898	6.91
575.238	6.82
575.578	6.72
575.918	6.67
576.258	6.78
576.598	6.79
576.938	6.96
577.278	6.76
577.618	6.81
577.958	6.83
578.298	6.92
578.638	6.99
578.977	7.01
579.317	7.06
579.657	7.04
579.996	7.25
580.336	7.15
580.675	6.98
581.014	6.95
581.354	7.37
581.693	7.09
582.032	7.01
582.372	7.22
582.711	7.23
583.05	7.13
583.389	7.13
583.728	7.27
584.067	7.51
584.406	7.44
584.745	7.51
585.083	7.43
585.422	7.31
585.761	7.55
586.1	7.54
586.438	7.32
586.777	7.39
587.115	7.59
587.454	7.35
587.792	7.5
588.13	7.65
588.469	7.66
588.807	7.63
589.145	7.62
589.483	7.69
589.821	7.8
590.159	7.66
590.497	7.67
590.835	7.83
591.173	7.73
591.511	7.88
591.849	7.93
592.187	7.86
592.524	7.75
592.862	7.91
593.2	7.68
593.537	7.56
593.875	7.78
594.212	7.93
594.55	8.04
594.887	8.04
595.224	7.95
595.561	7.99
595.899	8.06
596.236	8
596.573	7.85
596.91	8.1
597.247	8.05
597.584	8.2
597.921	7.95
598.258	8.13
598.594	8.1
598.931	7.91
599.268	8.16
599.604	8.19
599.941	8.17
600.277	8.47
600.614	8.38
600.95	8.45
601.287	8.54
601.623	8.37
601.959	8.4
602.296	8.49
602.632	8.49
602.968	8.47
603.304	8.38
603.64	8.77
603.976	8.52
604.312	8.7
604.648	8.42
604.984	8.55
605.319	8.67
605.655	8.61
605.991	8.75
606.326	8.5
606.662	8.66
606.998	8.59
607.333	8.78
607.668	8.78
608.004	8.97
608.339	8.77
608.674	9.02
609.01	8.82
609.345	9.17
609.68	8.81
610.015	8.94
610.35	8.98
610.685	8.91
611.02	9.06
611.355	9
611.689	9.1
612.024	8.93
612.359	9.04
612.694	9.32
613.028	9.2
613.363	9.28
613.697	9.06
614.032	9.29
614.366	9.46
614.7	9.17
615.035	9.34
615.369	9.32
615.703	9.25
616.037	9.35
616.371	9.37
616.705	10.09
617.039	9.61
617.373	9.58
617.707	9.79
618.041	9.94
618.375	9.9
618.709	9.52
619.042	9.88
619.376	9.92
619.71	9.97
620.043	10.11
620.377	9.67
620.71	10.09
621.043	9.89
621.377	9.99
621.71	10.17
622.043	10.14
622.376	10.06
622.709	10
623.043	10.19
623.376	9.92
623.709	9.96
624.041	10.28
624.374	10.36
624.707	10
625.04	10.28
625.373	10.22
625.705	10.19
626.038	10.27
626.37	10.39
626.703	10.55
627.035	10.3
627.368	10.26
627.7	10.59
628.032	10.47
628.365	10.57
628.697	10.61
629.029	10.62
629.361	10.57
629.693	10.61
630.025	10.83
630.357	10.86
630.689	10.89
631.021	10.45
631.353	10.81
631.684	10.75
632.016	10.86
632.348	10.84
632.679	10.79
633.011	11.16
633.342	10.68
633.674	10.91
634.005	10.68
634.336	11.08
634.668	10.71
634.999	11.29
635.33	11.14
635.661	10.85
635.992	11.39
636.323	11.33
636.654	11.43
636.985	11.52
637.316	11.57
637.647	11.41
637.977	11.47
638.308	11.43
638.639	11.38
638.969	11.28
639.3	11.82
639.63	11.61
639.961	11.5
640.291	11.68
640.622	11.61
640.952	12.06
641.282	12.11
641.612	11.99
641.943	12.19
642.273	11.7
642.603	11.68
642.933	11.81
643.263	11.7
643.592	11.92
643.922	11.84
644.252	12.26
644.582	11.86
644.911	12.45
645.241	12.23
645.571	12.05
645.9	12.41
646.23	12.07
646.559	12.28
646.888	12.41
647.218	12.13
647.547	12.54
647.876	12.31
648.205	12.57
648.534	12.41
648.863	12.41
649.192	12.51
649.521	12.33
649.85	12.63
650.179	12.87
650.508	12.78
650.837	12.74
651.165	12.26
651.494	12.51
651.822	12.7
652.151	12.9
652.479	12.82
652.808	13.17
653.136	12.89
653.465	12.74
653.793	12.91
654.121	13.16
654.449	12.62
654.777	12.66
655.105	12.75
655.433	13.37
655.761	12.94
656.089	12.77
656.417	12.96
656.745	13.12
657.073	12.99
657.4	13.73
657.728	13.48
658.056	13.13
658.383	13.13
658.711	12.81
659.038	13.63
659.365	13.64
659.693	13.31
660.02	13.5
660.347	13.48
660.674	13.28
661.001	13.67
661.329	13.74
661.656	13.31
661.982	13.67
662.309	13.92
662.636	13.92
662.963	13.68
663.29	14.2
663.616	13.57
663.943	14.26
664.27	13.95
664.596	14.29
664.923	13.4
665.249	13.92
665.576	14.34
665.902	13.97
666.228	13.77
666.554	14.77
666.881	14.67
667.207	14.28
667.533	14.65
667.859	14.11
668.185	13.5
668.511	14.24
668.837	14.74
669.162	14.47
669.488	15.13
669.814	14.7
670.139	14.47
670.465	14.54
670.791	14.59
671.116	14.63
671.442	15.18
671.767	15.02
672.092	14.3
672.418	14.66
672.743	14.77
673.068	15.23
673.393	15.1
673.718	14.83
674.043	14.82
674.368	14.99
674.693	15.47
675.018	15.37
675.343	15.48
675.667	15.11
675.992	14.86
676.317	15.2
676.641	14.91
676.966	15.64
677.29	15.16
677.615	15.23
677.939	15.85
678.264	16.1
678.588	15.64
678.912	15.09
679.236	14.86
679.56	15.29
679.885	15.91
680.209	15.37
680.532	15.58
680.856	15.89
681.18	15.73
681.504	15.87
681.828	15.67
682.152	15.45
682.475	15.8
682.799	16.19
683.122	15.85
683.446	16.72
683.769	16.42
684.093	16.07
684.416	16.37
684.739	16.27
685.062	16.51
685.386	16.13
685.709	16.62
686.032	16.34
686.355	15.85
686.678	16.28
687.001	15.8
687.324	16.6
687.646	17.38
687.969	16.45
688.292	16.64
688.614	16.48
