Data from 2019-1_forehead_Reflection__0__185.txt Node

Date: Fri Nov 11 18:20:02 CST 2022
User: ToomeyLab
Spectrometer: FLMS14357
Trigger mode: 0
Integration Time (sec): 1.000000E-2
Scans to average: 100
Electric dark correction enabled: true
Nonlinearity correction enabled: false
Boxcar width: 0
XAxis mode: Wavelengths
Number of Pixels in Spectrum: 2048
>>>>>Begin Spectral Data<<<<<
189.047	133.11
189.435	133.11
189.823	133.11
190.211	-70.41
190.599	129.5
190.987	34.73
191.375	-193.22
191.763	86.11
192.151	629.05
192.538	112.21
192.926	67.15
193.314	-273.23
193.702	360.91
194.089	240.66
194.477	35.21
194.864	-141.79
195.252	28.26
195.639	-944.44
196.027	71.93
196.414	-4.1
196.801	-73.19
197.189	-345.22
197.576	26.84
197.963	-44.83
198.351	-23.35
198.738	-28.7
199.125	42.09
199.512	72.88
199.899	44.62
200.286	-13.48
200.673	-42.59
201.06	20.23
201.447	28.92
201.833	49.04
202.22	13.01
202.607	11.03
202.994	59.89
203.38	18.47
203.767	16.72
204.154	-5.98
204.54	14.06
204.927	12.27
205.313	46.03
205.699	18.01
206.086	16.26
206.472	5.03
206.858	33.76
207.245	32.16
207.631	1.05
208.017	-14.13
208.403	4.41
208.789	60.93
209.175	-9.29
209.561	-1.51
209.947	-29.88
210.333	37.83
210.719	21.88
211.105	-8.02
211.491	43.26
211.876	-24.52
212.262	-8.43
212.648	28.2
213.034	26.97
213.419	8.49
213.805	43.92
214.19	-7.4
214.576	15.55
214.961	10.77
215.346	-5.78
215.732	41.95
216.117	14.76
216.502	33.16
216.888	-35.67
217.273	27.56
217.658	-2.19
218.043	12.4
218.428	11.25
218.813	6.18
219.198	3.36
219.583	24.43
219.968	16.41
220.353	24.53
220.738	2.85
221.122	-27.63
221.507	24.54
221.892	29.5
222.276	17.85
222.661	9.47
223.046	13.68
223.43	13.81
223.815	7.08
224.199	-5.33
224.583	24.88
224.968	11.45
225.352	22.43
225.736	7.25
226.121	9.5
226.505	9.21
226.889	9.2
227.273	5.86
227.657	2.8
228.041	4.62
228.425	-2.55
228.809	2.54
229.193	4.71
229.577	4.3
229.961	3.04
230.344	2.69
230.728	2.52
231.112	2.95
231.495	3.47
231.879	2.97
232.263	4.26
232.646	4.66
233.03	3.89
233.413	1.57
233.797	4.55
234.18	1.85
234.563	2.94
234.946	2.08
235.33	4.37
235.713	0.26
236.096	2.89
236.479	2.14
236.862	2.65
237.245	4
237.628	1.77
238.011	1.68
238.394	3.37
238.777	3.41
239.16	3.55
239.543	2.89
239.925	2.21
240.308	4.12
240.691	4.09
241.073	3.29
241.456	2.87
241.838	1.2
242.221	2.99
242.603	3.1
242.986	2.96
243.368	3.24
243.75	2.72
244.133	2.7
244.515	2.99
244.897	3.31
245.279	2.98
245.661	3
246.043	3.74
246.425	2.28
246.807	3.26
247.189	3.69
247.571	2.8
247.953	2.65
248.335	2.87
248.717	3.17
249.098	2.91
249.48	2.84
249.862	2.59
250.243	2.94
250.625	2.72
251.006	2.64
251.388	4.42
251.769	3.83
252.151	3.12
252.532	3.49
252.913	2.97
253.295	2.71
253.676	3.44
254.057	2.64
254.438	2.77
254.819	2.87
255.2	3.93
255.581	3.84
255.962	3.2
256.343	3.39
256.724	2.39
257.105	3.49
257.486	2.65
257.867	3.13
258.247	3.49
258.628	3.9
259.009	2.54
259.389	3.05
259.77	2.75
260.15	2.5
260.531	2.86
260.911	2.72
261.292	2.77
261.672	2.78
262.052	2.73
262.432	2.58
262.813	3.11
263.193	3.63
263.573	2.73
263.953	2.64
264.333	2.93
264.713	2.5
265.093	3.1
265.473	2.87
265.853	3.19
266.233	3.54
266.612	2.97
266.992	2.27
267.372	3.26
267.752	2.43
268.131	3.14
268.511	2.82
268.89	3.05
269.27	3.05
269.649	2.87
270.029	2.52
270.408	2.74
270.787	2.88
271.167	2.85
271.546	3.28
271.925	3.22
272.304	3.08
272.683	2.98
273.062	2.49
273.441	2.7
273.82	3.04
274.199	2.85
274.578	2.51
274.957	2.94
275.336	2.57
275.715	2.88
276.093	2.39
276.472	3.11
276.851	3.1
277.229	3.27
277.608	3.03
277.986	3.42
278.365	2.51
278.743	2.96
279.122	2.82
279.5	2.69
279.878	3.14
280.257	2.87
280.635	2.27
281.013	2.23
281.391	2.79
281.769	2.4
282.147	2.63
282.525	2.85
282.903	2.92
283.281	3.3
283.659	2.86
284.037	2.8
284.415	2.12
284.792	2.69
285.17	3.33
285.548	2.95
285.925	2.94
286.303	2.67
286.68	2.44
287.058	2.97
287.435	2.6
287.813	2.49
288.19	2.39
288.567	2.54
288.945	2.46
289.322	2.87
289.699	2.89
290.076	2.66
290.453	2.84
290.83	3.04
291.207	2.7
291.584	2.98
291.961	2.82
292.338	3.08
292.715	3.07
293.092	2.68
293.469	2.72
293.845	2.64
294.222	3.11
294.599	2.81
294.975	2.71
295.352	3.46
295.728	2.82
296.105	2.91
296.481	3.06
296.858	3.24
297.234	3.45
297.61	3.15
297.986	2.94
298.363	3.01
298.739	2.98
299.115	3.36
299.491	3.36
299.867	3.24
300.243	3.32
300.619	3.11
300.995	3.52
301.371	3.83
301.746	2.8
302.122	3.31
302.498	3.9
302.874	3.89
303.249	3.84
303.625	3.56
304	3.33
304.376	3.44
304.751	3.88
305.127	3.82
305.502	3.45
305.878	3.54
306.253	3.63
306.628	3.85
307.003	4.04
307.378	3.34
307.754	3.53
308.129	4.4
308.504	3.38
308.879	4.3
309.254	3.97
309.629	3.93
310.003	3.98
310.378	4.23
310.753	4.22
311.128	4.34
311.502	3.78
311.877	4.05
312.252	4.39
312.626	4.18
313.001	4.19
313.375	4.15
313.75	4.4
314.124	4.43
314.498	4.25
314.873	4.24
315.247	4.79
315.621	4.34
315.995	4.55
316.369	4.2
316.743	4.33
317.117	4.58
317.491	4.88
317.865	5.24
318.239	5.23
318.613	5.03
318.987	5.22
319.361	5.71
319.734	5.65
320.108	5.06
320.482	5.23
320.855	4.96
321.229	5.34
321.602	5.08
321.976	5.34
322.349	5.48
322.723	5.96
323.096	5.6
323.469	5.72
323.843	5.59
324.216	5.2
324.589	5.59
324.962	5.32
325.335	5.11
325.708	5.78
326.081	5.69
326.454	6.09
326.827	5.86
327.2	6.29
327.573	5.77
327.945	6.58
328.318	5.97
328.691	5.72
329.063	6.15
329.436	5.93
329.809	5.83
330.181	5.95
330.553	5.72
330.926	6.07
331.298	5.89
331.671	6.26
332.043	6.39
332.415	6.01
332.787	6.68
333.159	5.93
333.532	6.23
333.904	6.51
334.276	6.47
334.648	6.27
335.02	6.78
335.391	6.53
335.763	6.6
336.135	6.57
336.507	6.82
336.879	6.6
337.25	6.91
337.622	7.39
337.993	7.52
338.365	7.28
338.736	7.01
339.108	6.89
339.479	6.64
339.851	6.9
340.222	6.92
340.593	6.77
340.964	7.15
341.336	6.96
341.707	7
342.078	7.05
342.449	7.31
342.82	7.21
343.191	7.38
343.562	7.62
343.933	7.34
344.303	7.28
344.674	7.26
345.045	7.36
345.416	7.32
345.786	7.48
346.157	7.44
346.527	7.35
346.898	7.61
347.268	7.58
347.639	7.8
348.009	7.65
348.38	7.93
348.75	7.62
349.12	7.64
349.49	8.14
349.861	7.71
350.231	8.07
350.601	8.01
350.971	7.59
351.341	7.86
351.711	7.91
352.081	7.96
352.45	7.82
352.82	7.99
353.19	8.27
353.56	8.59
353.929	7.94
354.299	7.9
354.669	8.28
355.038	8.18
355.408	8.14
355.777	8.34
356.147	8.23
356.516	8.15
356.885	8.52
357.254	8.6
357.624	8.24
357.993	8.06
358.362	8.46
358.731	8.39
359.1	8.61
359.469	8.59
359.838	8.51
360.207	8.81
360.576	8.62
360.945	8.66
361.314	8.87
361.682	8.75
362.051	8.88
362.42	8.61
362.788	8.84
363.157	8.59
363.525	8.66
363.894	8.59
364.262	8.61
364.631	8.54
364.999	8.86
365.367	9.19
365.735	9.19
366.104	8.98
366.472	9.55
366.84	9.08
367.208	9.4
367.576	9.32
367.944	9.22
368.312	9.15
368.68	9.05
369.048	9.36
369.416	9.74
369.783	9.87
370.151	9.44
370.519	9.51
370.886	9.36
371.254	9.7
371.621	9.83
371.989	10.19
372.356	9.64
372.724	9.48
373.091	9.75
373.458	9.43
373.826	10.28
374.193	9.67
374.56	9.66
374.927	10.01
375.294	10.13
375.661	10.2
376.028	10.22
376.395	10
376.762	10.08
377.129	10.03
377.496	10.34
377.863	10.09
378.229	10.2
378.596	10.15
378.963	10.15
379.329	10.18
379.696	10.34
380.062	10.07
380.429	10.23
380.795	10.29
381.161	10.31
381.528	10.85
381.894	10.67
382.26	10.59
382.626	10.48
382.993	10.5
383.359	10.37
383.725	10.69
384.091	10.6
384.457	10.74
384.823	10.69
385.188	10.76
385.554	10.99
385.92	10.94
386.286	10.93
386.651	11.01
387.017	10.77
387.383	10.74
387.748	10.77
388.114	11.09
388.479	11.07
388.845	11.12
389.21	10.78
389.575	10.78
389.94	10.97
390.306	10.94
390.671	10.96
391.036	11.2
391.401	11.29
391.766	11.18
392.131	11.21
392.496	11.34
392.861	11.02
393.226	11.06
393.591	11.19
393.956	11.17
394.32	11.2
394.685	11.22
395.05	11.15
395.414	11.3
395.779	11.44
396.143	11.4
396.508	11.37
396.872	11.2
397.236	11.28
397.601	11.2
397.965	11.49
398.329	11.62
398.694	11.57
399.058	11.38
399.422	11.9
399.786	11.73
400.15	11.69
400.514	11.55
400.878	11.49
401.242	11.7
401.605	11.38
401.969	11.76
402.333	11.37
402.697	11.53
403.06	11.39
403.424	11.43
403.787	11.7
404.151	11.79
404.514	11.83
404.878	11.49
405.241	11.58
405.604	11.59
405.968	11.54
406.331	11.42
406.694	11.35
407.057	11.59
407.42	11.39
407.783	11.47
408.146	11.72
408.509	11.59
408.872	11.65
409.235	11.63
409.598	11.83
409.961	11.82
410.323	11.94
410.686	11.79
411.049	11.75
411.411	11.78
411.774	11.69
412.136	11.53
412.499	11.81
412.861	11.89
413.223	11.71
413.586	11.56
413.948	11.65
414.31	11.7
414.672	12.07
415.035	11.81
415.397	11.88
415.759	12.04
416.121	11.95
416.483	11.93
416.845	11.75
417.206	12.07
417.568	12
417.93	11.95
418.292	11.92
418.653	12.13
419.015	12.03
419.377	12.05
419.738	12.02
420.1	12.17
420.461	12.22
420.822	12.14
421.184	12.23
421.545	12.32
421.906	12.14
422.267	12.3
422.629	12.14
422.99	12.3
423.351	12.32
423.712	12.39
424.073	12.52
424.434	12.71
424.795	12.67
425.155	12.88
425.516	12.66
425.877	12.7
426.238	12.75
426.598	13.02
426.959	13.1
427.32	13.15
427.68	13.31
428.041	13.26
428.401	13.46
428.761	13.55
429.122	13.65
429.482	13.71
429.842	13.81
430.202	14
430.563	13.92
430.923	14.06
431.283	14.42
431.643	14.1
432.003	14.31
432.363	14.42
432.722	14.46
433.082	14.83
433.442	14.8
433.802	14.49
434.161	14.65
434.521	14.83
434.881	14.76
435.24	14.71
435.6	14.92
435.959	14.99
436.319	15.02
436.678	15.03
437.037	15.19
437.396	15.32
437.756	15.1
438.115	15.36
438.474	15.52
438.833	15.52
439.192	15.56
439.551	15.63
439.91	15.63
440.269	15.7
440.628	15.73
440.987	15.83
441.345	15.82
441.704	15.87
442.063	15.76
442.421	15.86
442.78	15.94
443.138	16.06
443.497	16.18
443.855	16.15
444.214	16.3
444.572	16.44
444.93	16.5
445.288	16.51
445.647	16.54
446.005	16.63
446.363	16.62
446.721	16.76
447.079	16.51
447.437	16.53
447.795	16.65
448.153	16.67
448.51	16.73
448.868	16.81
449.226	16.85
449.584	16.89
449.941	17.05
450.299	17.09
450.656	17.36
451.014	17.43
451.371	17.45
451.729	17.54
452.086	17.76
452.443	17.94
452.801	17.81
453.158	17.84
453.515	17.78
453.872	17.9
454.229	17.79
454.586	17.97
454.943	18.17
455.3	18.37
455.657	18.18
456.014	18.35
456.371	18.41
456.727	18.42
457.084	18.41
457.441	18.69
457.797	18.64
458.154	18.77
458.51	18.83
458.867	18.78
459.223	18.84
459.58	18.8
459.936	18.84
460.292	18.95
460.648	18.79
461.005	18.97
461.361	18.75
461.717	18.66
462.073	18.77
462.429	18.71
462.785	19.01
463.141	19.28
463.496	19.27
463.852	19.56
464.208	19.71
464.564	19.51
464.919	19.87
465.275	19.85
465.631	19.77
465.986	19.81
466.342	20.09
466.697	19.95
467.052	20.11
467.408	20.4
467.763	20.21
468.118	20.28
468.473	20.32
468.829	20.18
469.184	20.51
469.539	20.45
469.894	20.54
470.249	20.67
470.603	20.78
470.958	20.66
471.313	20.66
471.668	20.85
472.023	20.9
472.377	20.99
472.732	20.96
473.086	21.35
473.441	21.02
473.795	21.2
474.15	21.14
474.504	21.49
474.859	21.19
475.213	21.26
475.567	21.34
475.921	21.53
476.275	21.68
476.63	21.58
476.984	21.78
477.338	21.41
477.692	21.82
478.045	21.67
478.399	21.7
478.753	21.81
479.107	21.93
479.461	21.77
479.814	21.75
480.168	21.85
480.521	21.82
480.875	21.83
481.228	22.08
481.582	22.13
481.935	21.93
482.289	22.16
482.642	22.09
482.995	21.98
483.348	21.99
483.701	21.89
484.055	21.98
484.408	21.65
484.761	21.59
485.114	21.25
485.466	21.17
485.819	21.26
486.172	21.39
486.525	21.51
486.878	21.75
487.23	21.74
487.583	21.97
487.936	21.99
488.288	22.05
488.641	21.91
488.993	21.91
489.345	21.9
489.698	21.99
490.05	22.09
490.402	22.13
490.754	22.36
491.107	22.41
491.459	22.77
491.811	22.76
492.163	22.91
492.515	22.83
492.866	22.68
493.218	22.54
493.57	22.52
493.922	22.59
494.274	22.96
494.625	23.14
494.977	23.2
495.328	23.59
495.68	23.71
496.031	23.83
496.383	24.11
496.734	23.96
497.086	23.97
497.437	24.26
497.788	24.28
498.139	24.02
498.49	23.95
498.842	23.89
499.193	24.11
499.544	23.96
499.894	24.23
500.245	24.23
500.596	24.39
500.947	24.33
501.298	24.58
501.648	24.77
501.999	24.81
502.35	24.79
502.7	24.76
503.051	25.02
503.401	25.17
503.752	25.25
504.102	25.27
504.452	25.24
504.803	25.19
505.153	25.25
505.503	25.26
505.853	25.48
506.203	25.35
506.553	25.54
506.903	25.52
507.253	25.42
507.603	25.63
507.953	25.73
508.303	25.78
508.652	25.63
509.002	25.55
509.352	25.64
509.701	25.75
510.051	25.68
510.4	25.73
510.75	25.67
511.099	25.67
511.449	25.81
511.798	25.79
512.147	25.72
512.496	25.91
512.846	25.91
513.195	25.88
513.544	25.93
513.893	25.99
514.242	25.93
514.591	26.05
514.939	26.15
515.288	26.27
515.637	26.16
515.986	26.39
516.334	26.47
516.683	26.53
517.032	26.69
517.38	26.64
517.729	26.53
518.077	26.77
518.426	26.6
518.774	26.68
519.122	26.67
519.47	26.49
519.819	26.35
520.167	26.37
520.515	26.31
520.863	26.47
521.211	26.37
521.559	26.6
521.907	26.86
522.255	26.82
522.602	26.92
522.95	27.04
523.298	27.22
523.645	27.34
523.993	27.19
524.341	27.32
524.688	27.25
525.036	27.29
525.383	27.57
525.73	27.47
526.078	27.42
526.425	27.33
526.772	27.11
527.119	27.1
527.466	26.96
527.814	26.88
528.161	27
528.508	27.08
528.854	27.1
529.201	26.99
529.548	26.77
529.895	26.53
530.242	26.59
530.588	26.54
530.935	26.72
531.282	26.79
531.628	27.01
531.975	27.14
532.321	27.2
532.667	27.41
533.014	27.47
533.36	27.7
533.706	27.72
534.052	27.74
534.399	27.55
534.745	27.31
535.091	27.29
535.437	27.33
535.783	27.46
536.129	27.61
536.474	27.91
536.82	28.12
537.166	28.06
537.512	28.23
537.857	28.22
538.203	27.9
538.549	28.03
538.894	28.17
539.239	28.31
539.585	28.34
539.93	28.53
540.276	28.96
540.621	29.01
540.966	28.88
541.311	29.03
541.656	28.82
542.001	28.72
542.346	28.54
542.691	28.23
543.036	28.12
543.381	28.21
543.726	28.28
544.071	28.4
544.415	28.63
544.76	28.66
545.105	28.75
545.449	28.87
545.794	29.06
546.138	29.27
546.483	29.33
546.827	29.4
547.171	29.64
547.516	29.53
547.86	29.53
548.204	29.49
548.548	29.58
548.892	29.59
549.236	29.75
549.58	29.98
549.924	29.96
550.268	30.2
550.612	30.44
550.956	30.58
551.3	30.59
551.643	30.69
551.987	30.92
552.33	30.95
552.674	30.96
553.017	31.01
553.361	31.03
553.704	30.94
554.048	31.19
554.391	30.89
554.734	30.95
555.077	30.91
555.42	31.07
555.764	31.05
556.107	31.19
556.45	31.54
556.793	31.52
557.135	31.47
557.478	31.71
557.821	31.6
558.164	31.35
558.507	31.6
558.849	31.82
559.192	31.98
559.534	32.09
559.877	31.73
560.219	32
560.562	31.98
560.904	32.08
561.246	32.12
561.589	32.27
561.931	32.42
562.273	32.26
562.615	32.23
562.957	32.42
563.299	32.18
563.641	32.39
563.983	32.37
564.325	32.38
564.667	32.44
565.008	32.43
565.35	32.5
565.692	32.65
566.033	32.62
566.375	32.59
566.716	32.61
567.058	32.52
567.399	32.74
567.741	32.86
568.082	32.54
568.423	32.66
568.764	32.7
569.105	32.78
569.447	32.8
569.788	33.02
570.129	33.16
570.47	33.04
570.811	33.12
571.151	33.11
571.492	33.3
571.833	33.25
572.174	33.32
572.514	33.4
572.855	33.22
573.195	33.26
573.536	33.37
573.876	33.14
574.217	33.48
574.557	33.22
574.898	33.58
575.238	33.53
575.578	33.47
575.918	33.53
576.258	33.74
576.598	33.66
576.938	33.94
577.278	33.82
577.618	33.97
577.958	34.04
578.298	33.93
578.638	34.27
578.977	34.31
579.317	34.57
579.657	34.57
579.996	35
580.336	34.51
580.675	34.76
581.014	34.59
581.354	35.2
581.693	35.17
582.032	34.96
582.372	34.98
582.711	34.93
583.05	35.22
583.389	35.15
583.728	35.21
584.067	35.62
584.406	35.42
584.745	35.42
585.083	35.58
585.422	35.36
585.761	35.7
586.1	36.07
586.438	35.74
586.777	35.83
587.115	36.03
587.454	35.96
587.792	36.16
588.13	36.18
588.469	36.1
588.807	36.18
589.145	36.33
589.483	36.26
589.821	36.45
590.159	36.37
590.497	36.28
590.835	36.33
591.173	36.36
591.511	36.48
591.849	36.36
592.187	36.69
592.524	36.5
592.862	36.58
593.2	36.35
593.537	36.43
593.875	36.91
594.212	36.79
594.55	36.77
594.887	37.04
595.224	36.8
595.561	37.27
595.899	36.93
596.236	36.84
596.573	36.77
596.91	37.11
597.247	36.94
597.584	37.04
597.921	37.07
598.258	36.82
598.594	36.88
598.931	36.93
599.268	36.82
599.604	37.27
599.941	37.27
600.277	37.37
600.614	37.33
600.95	37.65
601.287	37.65
601.623	37.86
601.959	38.04
602.296	38.02
602.632	37.92
602.968	38.12
603.304	38.13
603.64	38.3
603.976	38.32
604.312	38.49
604.648	38.09
604.984	37.84
605.319	37.9
605.655	38.02
605.991	37.95
606.326	37.84
606.662	37.91
606.998	37.98
607.333	38.03
607.668	38.28
608.004	38.51
608.339	38.28
608.674	38.82
609.01	38.8
609.345	39
609.68	39
610.015	38.99
610.35	38.77
610.685	39.16
611.02	38.76
611.355	38.83
611.689	38.94
612.024	38.84
612.359	38.58
612.694	38.99
613.028	39.17
613.363	39.13
613.697	39.57
614.032	39.68
614.366	39.72
614.7	39.7
615.035	40.05
615.369	40.09
615.703	39.73
616.037	39.9
616.371	39.85
616.705	40.44
617.039	40.38
617.373	40.41
617.707	40.64
618.041	40.44
618.375	40.17
618.709	40.44
619.042	40.56
619.376	40.37
619.71	40.6
620.043	40.9
620.377	40.43
620.71	40.79
621.043	40.69
621.377	40.57
621.71	40.56
622.043	41.17
622.376	40.91
622.709	41.19
623.043	41.18
623.376	41.13
623.709	41.07
624.041	41.13
624.374	41.53
624.707	41.08
625.04	41.03
625.373	41.64
625.705	41.57
626.038	41.41
626.37	41.32
626.703	41.91
627.035	41.62
627.368	41.2
627.7	41.73
628.032	41.2
628.365	41.49
628.697	41.59
629.029	41.58
629.361	41.58
629.693	41.85
630.025	41.65
630.357	41.97
630.689	41.95
631.021	41.76
631.353	42.45
631.684	41.79
632.016	41.93
632.348	41.95
632.679	42.59
633.011	42.5
633.342	42.29
633.674	42.21
634.005	42.11
634.336	42.47
634.668	42.49
634.999	42.48
635.33	42.54
635.661	42.23
635.992	42.55
636.323	42.77
636.654	43.02
636.985	43.02
637.316	43.1
637.647	42.83
637.977	43.11
638.308	43.16
638.639	43.33
638.969	42.81
639.3	43.53
639.63	43.06
639.961	43.33
640.291	43.4
640.622	42.95
640.952	43.77
641.282	43.34
641.612	44.17
641.943	43.68
642.273	43.46
642.603	43.72
642.933	43.18
643.263	43.48
643.592	44.04
643.922	44.33
644.252	44.02
644.582	44.18
644.911	44.08
645.241	44.2
645.571	44.32
645.9	44.19
646.23	44.49
646.559	43.82
646.888	44.38
647.218	44.34
647.547	45.18
647.876	43.59
648.205	44.71
648.534	44.53
648.863	44.59
649.192	44.69
649.521	44.5
649.85	44.8
650.179	45.16
650.508	44.76
650.837	44.5
651.165	44.29
651.494	44.83
651.822	44.73
652.151	45.29
652.479	44.99
652.808	45.05
653.136	45.11
653.465	45.09
653.793	45.09
654.121	45.11
654.449	44.96
654.777	45.37
655.105	45.96
655.433	45.46
655.761	45.4
656.089	45.26
656.417	45.6
656.745	45.43
657.073	45.26
657.4	45.52
657.728	45.28
658.056	45.69
658.383	45.9
658.711	45.32
659.038	45.6
659.365	45.91
659.693	45.81
660.02	46.02
660.347	46.08
660.674	45.88
661.001	46.07
661.329	45.95
661.656	45.36
661.982	46.02
662.309	45.85
662.636	46.53
662.963	45.98
663.29	46.32
663.616	46.49
663.943	47.17
664.27	46.82
664.596	46.55
664.923	46.73
665.249	46.24
665.576	46.64
665.902	47.13
666.228	46.36
666.554	46.89
666.881	47.45
667.207	46.98
667.533	47.83
667.859	46.72
668.185	46.37
668.511	46.76
668.837	47.23
669.162	47.16
669.488	47.25
669.814	47.32
670.139	46.77
670.465	47.94
670.791	47.5
671.116	47.64
671.442	47.76
671.767	47.57
672.092	47.34
672.418	47.91
