Data from 2019-1_chest_Reflection__1__176.txt Node

Date: Fri Nov 11 18:15:49 CST 2022
User: ToomeyLab
Spectrometer: FLMS14357
Trigger mode: 0
Integration Time (sec): 1.000000E-2
Scans to average: 100
Electric dark correction enabled: true
Nonlinearity correction enabled: false
Boxcar width: 0
XAxis mode: Wavelengths
Number of Pixels in Spectrum: 2048
>>>>>Begin Spectral Data<<<<<
189.047	72.42
189.435	72.42
189.823	72.42
190.211	405.21
190.599	12.24
190.987	30.53
191.375	222.75
191.763	72.1
192.151	287.66
192.538	146.6
192.926	249.28
193.314	-311.02
193.702	957.87
194.089	-87.38
194.477	132.33
194.864	1446.27
195.252	49.05
195.639	-72.37
196.027	100.37
196.414	80.99
196.801	-39.22
197.189	260.84
197.576	34.24
197.963	121.21
198.351	-20.85
198.738	18.03
199.125	14.27
199.512	9.81
199.899	0.96
200.286	-40.4
200.673	7.96
201.06	6.46
201.447	10.98
201.833	28.91
202.22	-6.86
202.607	47.55
202.994	43.84
203.38	-6.25
203.767	49.59
204.154	-20.45
204.54	26.79
204.927	3.21
205.313	6.88
205.699	-24
206.086	-66.02
206.472	-31.15
206.858	21.39
207.245	-7.19
207.631	-6.85
208.017	6.13
208.403	21.47
208.789	54.63
209.175	-15.66
209.561	2.04
209.947	-5.09
210.333	23.4
210.719	7.24
211.105	8.6
211.491	23.02
211.876	-43.37
212.262	-2.77
212.648	13.67
213.034	27.42
213.419	-17.72
213.805	10.6
214.19	-7.4
214.576	-1.92
214.961	1.14
215.346	-12.52
215.732	30.21
216.117	17.51
216.502	10.57
216.888	-28.11
217.273	-14.91
217.658	-36.91
218.043	-2.78
218.428	25.8
218.813	6.18
219.198	22.72
219.583	27.22
219.968	-6.68
220.353	9.74
220.738	-11.52
221.122	-31.31
221.507	12.88
221.892	-9.88
222.276	21.76
222.661	8.23
223.046	0.83
223.43	6.13
223.815	-1.94
224.199	8.68
224.583	11.94
224.968	8.95
225.352	3.1
225.736	2.6
226.121	-2.71
226.505	6.66
226.889	9.57
227.273	5.8
227.657	3.07
228.041	6.17
228.425	-2.38
228.809	4.96
229.193	6.57
229.577	2.87
229.961	1.27
230.344	2.51
230.728	2.2
231.112	2.07
231.495	2.7
231.879	2.75
232.263	3.45
232.646	1.26
233.03	2.56
233.413	2.33
233.797	3.66
234.18	-1.46
234.563	1.38
234.946	1.5
235.33	1.86
235.713	1.01
236.096	2.79
236.479	-0.04
236.862	1.88
237.245	3.18
237.628	2.79
238.011	2.15
238.394	0.58
238.777	1.3
239.16	2.41
239.543	3.16
239.925	1.89
240.308	2.59
240.691	3.9
241.073	2.64
241.456	1.33
241.838	1.16
242.221	1.5
242.603	1.33
242.986	1.3
243.368	1.49
243.75	2.17
244.133	1.69
244.515	2.27
244.897	1.93
245.279	2.62
245.661	1.78
246.043	2.04
246.425	1.5
246.807	2.81
247.189	2.31
247.571	2.18
247.953	1.38
248.335	1.88
248.717	2.16
249.098	2.25
249.48	2.06
249.862	1.84
250.243	2.14
250.625	1.7
251.006	0.79
251.388	2.41
251.769	2.53
252.151	2.49
252.532	2.68
252.913	1.37
253.295	1.85
253.676	2.79
254.057	1.9
254.438	2.07
254.819	2.46
255.2	2.7
255.581	2.69
255.962	1.79
256.343	2.36
256.724	1.16
257.105	1.57
257.486	1.2
257.867	3.21
258.247	2.02
258.628	2.51
259.009	1.51
259.389	2.35
259.77	2.37
260.15	1.72
260.531	2.11
260.911	1.65
261.292	1.8
261.672	2.16
262.052	1.85
262.432	1.62
262.813	2.32
263.193	2.4
263.573	1.93
263.953	1.79
264.333	1.74
264.713	2.5
265.093	1.77
265.473	2.24
265.853	2.31
266.233	2.29
266.612	2.21
266.992	2.48
267.372	2.23
267.752	1.69
268.131	2.04
268.511	1.82
268.89	2.27
269.27	1.78
269.649	1.82
270.029	2.18
270.408	1.77
270.787	2.03
271.167	1.93
271.546	2.5
271.925	1.62
272.304	1.87
272.683	2.13
273.062	1.78
273.441	1.42
273.82	2.14
274.199	1.94
274.578	1.84
274.957	2.34
275.336	1.84
275.715	1.84
276.093	1.95
276.472	1.76
276.851	2.06
277.229	1.87
277.608	2.18
277.986	1.63
278.365	1.54
278.743	1.88
279.122	2
279.5	2.03
279.878	1.43
280.257	2.42
280.635	2.04
281.013	1.36
281.391	1.76
281.769	1.32
282.147	2.05
282.525	1.95
282.903	1.99
283.281	2.3
283.659	1.8
284.037	1.65
284.415	2.14
284.792	1.99
285.17	2.23
285.548	1.9
285.925	1.58
286.303	1.58
286.68	2
287.058	2.18
287.435	2.05
287.813	2.21
288.19	1.83
288.567	1.46
288.945	1.64
289.322	2.08
289.699	2.01
290.076	1.8
290.453	1.97
290.83	1.39
291.207	1.65
291.584	2.24
291.961	2.04
292.338	2.13
292.715	1.99
293.092	2.12
293.469	2.05
293.845	1.89
294.222	2.69
294.599	1.83
294.975	1.91
295.352	2.26
295.728	1.85
296.105	2.29
296.481	2.4
296.858	2.37
297.234	2.16
297.61	2.18
297.986	1.98
298.363	2.02
298.739	2.09
299.115	2.35
299.491	2.16
299.867	2.34
300.243	2.36
300.619	2.21
300.995	2.3
301.371	2.6
301.746	2.08
302.122	1.95
302.498	2.87
302.874	2.54
303.249	2.31
303.625	2.12
304	2.48
304.376	2.22
304.751	2.27
305.127	2.3
305.502	2.05
305.878	2.4
306.253	2.22
306.628	2.72
307.003	2.6
307.378	1.71
307.754	1.7
308.129	2.54
308.504	1.87
308.879	2.7
309.254	2.16
309.629	2.39
310.003	2.27
310.378	2.15
310.753	2.24
311.128	2.4
311.502	1.73
311.877	2.25
312.252	2.65
312.626	2.48
313.001	2.27
313.375	2.22
313.75	2.46
314.124	2.39
314.498	2.41
314.873	2.47
315.247	2.46
315.621	2.64
315.995	2.5
316.369	2.03
316.743	2.34
317.117	2.25
317.491	1.84
317.865	2.98
318.239	2.51
318.613	2.6
318.987	2.42
319.361	3.07
319.734	2.51
320.108	1.89
320.482	2.46
320.855	2.32
321.229	2.52
321.602	2.28
321.976	2.87
322.349	2.11
322.723	2.82
323.096	2.18
323.469	2.7
323.843	2.22
324.216	2.19
324.589	3.06
324.962	1.92
325.335	2.49
325.708	2.59
326.081	2.18
326.454	2.32
326.827	2.55
327.2	2.89
327.573	2.34
327.945	2.45
328.318	2.21
328.691	2.47
329.063	2.37
329.436	2.54
329.809	2.28
330.181	2.25
330.553	2.19
330.926	2.87
331.298	2.43
331.671	2.29
332.043	2.22
332.415	2.28
332.787	2.39
333.159	2.58
333.532	2.27
333.904	2.35
334.276	2.6
334.648	2
335.02	2.64
335.391	2.47
335.763	2.57
336.135	2.6
336.507	2.76
336.879	2.46
337.25	2.68
337.622	2.75
337.993	2.48
338.365	2.71
338.736	2.23
339.108	2.45
339.479	2.45
339.851	2.53
340.222	2.46
340.593	2.59
340.964	2.38
341.336	2.49
341.707	2.35
342.078	2.76
342.449	2.81
342.82	2.85
343.191	2.63
343.562	2.58
343.933	1.74
344.303	2.3
344.674	2.49
345.045	2.38
345.416	2.54
345.786	2.36
346.157	2.77
346.527	2.67
346.898	2.68
347.268	2.2
347.639	2.38
348.009	2.78
348.38	2.72
348.75	2.58
349.12	2.44
349.49	2.43
349.861	2.55
350.231	2.61
350.601	2.88
350.971	2.73
351.341	2.76
351.711	2.59
352.081	2.5
352.45	2.62
352.82	2.66
353.19	2.71
353.56	3.02
353.929	2.19
354.299	2.37
354.669	2.78
355.038	2.77
355.408	2.6
355.777	2.92
356.147	2.7
356.516	2.43
356.885	2.5
357.254	3.05
357.624	2.33
357.993	2.45
358.362	2.83
358.731	2.54
359.1	2.66
359.469	2.64
359.838	2.77
360.207	2.91
360.576	2.49
360.945	2.61
361.314	2.37
361.682	2.59
362.051	2.64
362.42	2.45
362.788	2.59
363.157	2.39
363.525	2.48
363.894	2.72
364.262	2.54
364.631	2.67
364.999	2.6
365.367	2.59
365.735	2.75
366.104	2.63
366.472	2.86
366.84	2.67
367.208	2.69
367.576	2.78
367.944	2.63
368.312	2.58
368.68	2.73
369.048	2.78
369.416	2.95
369.783	2.77
370.151	2.55
370.519	2.62
370.886	2.58
371.254	2.58
371.621	2.78
371.989	2.94
372.356	2.34
372.724	2.58
373.091	2.73
373.458	2.5
373.826	2.81
374.193	2.49
374.56	2.89
374.927	2.6
375.294	2.54
375.661	2.65
376.028	2.86
376.395	2.65
376.762	2.78
377.129	2.62
377.496	2.96
377.863	2.66
378.229	2.6
378.596	2.77
378.963	2.83
379.329	2.77
379.696	2.76
380.062	2.66
380.429	2.68
380.795	2.75
381.161	2.73
381.528	3
381.894	2.35
382.26	2.53
382.626	2.63
382.993	2.79
383.359	2.56
383.725	2.77
384.091	2.77
384.457	2.7
384.823	2.39
385.188	2.76
385.554	2.79
385.92	2.88
386.286	3.05
386.651	2.91
387.017	2.79
387.383	2.75
387.748	2.77
388.114	2.64
388.479	2.68
388.845	2.67
389.21	2.66
389.575	2.61
389.94	2.94
390.306	3
390.671	2.78
391.036	2.74
391.401	2.8
391.766	2.96
392.131	2.9
392.496	2.8
392.861	2.46
393.226	2.54
393.591	2.91
393.956	2.87
394.32	2.82
394.685	2.81
395.05	2.5
395.414	2.88
395.779	2.72
396.143	2.83
396.508	2.8
396.872	2.64
397.236	2.62
397.601	2.68
397.965	2.78
398.329	2.7
398.694	3.04
399.058	2.85
399.422	2.91
399.786	2.87
400.15	2.83
400.514	2.71
400.878	2.76
401.242	2.71
401.605	2.85
401.969	2.71
402.333	2.73
402.697	2.93
403.06	2.75
403.424	2.67
403.787	3.02
404.151	2.77
404.514	2.96
404.878	2.63
405.241	2.67
405.604	2.71
405.968	2.76
406.331	2.67
406.694	2.75
407.057	2.98
407.42	2.72
407.783	2.78
408.146	2.8
408.509	2.77
408.872	2.76
409.235	2.88
409.598	2.93
409.961	2.93
410.323	2.87
410.686	2.89
411.049	2.74
411.411	2.86
411.774	2.86
412.136	2.72
412.499	3.11
412.861	2.86
413.223	2.75
413.586	2.68
413.948	2.83
414.31	2.83
414.672	2.86
415.035	2.89
415.397	2.9
415.759	2.78
416.121	2.95
416.483	3.03
416.845	2.7
417.206	3.06
417.568	2.83
417.93	2.81
418.292	2.83
418.653	2.85
419.015	2.8
419.377	2.76
419.738	2.91
420.1	2.8
420.461	2.91
420.822	2.81
421.184	2.85
421.545	2.85
421.906	2.85
422.267	2.83
422.629	2.74
422.99	2.8
423.351	2.8
423.712	2.77
424.073	2.87
424.434	2.95
424.795	2.77
425.155	2.71
425.516	2.82
425.877	2.73
426.238	2.84
426.598	2.86
426.959	2.86
427.32	2.83
427.68	2.92
428.041	2.82
428.401	2.87
428.761	2.98
429.122	2.83
429.482	2.95
429.842	2.98
430.202	3.04
430.563	3.04
430.923	3.09
431.283	3.08
431.643	2.87
432.003	3
432.363	2.96
432.722	3.01
433.082	3.01
433.442	3.1
433.802	2.92
434.161	3.11
434.521	2.97
434.881	2.94
435.24	2.94
435.6	3.06
435.959	2.93
436.319	3.12
436.678	2.96
437.037	3.1
437.396	3.09
437.756	2.93
438.115	3.01
438.474	3.1
438.833	3.14
439.192	2.89
439.551	3.02
439.91	3
440.269	3.12
440.628	3.01
440.987	2.93
441.345	3
441.704	3.01
442.063	3.04
442.421	3.05
442.78	3.01
443.138	3.05
443.497	2.99
443.855	3.12
444.214	3
444.572	3.15
444.93	3.06
445.288	3.06
445.647	3.13
446.005	3.08
446.363	3.1
446.721	3.13
447.079	3.01
447.437	3.01
447.795	3.05
448.153	3.1
448.51	3.07
448.868	3.06
449.226	3.08
449.584	3.08
449.941	3.1
450.299	3.08
450.656	3.07
451.014	3.26
451.371	3.12
451.729	3.03
452.086	3.25
452.443	3.38
452.801	3.11
453.158	3.04
453.515	3.2
453.872	3.06
454.229	3.19
454.586	3.18
454.943	3.2
455.3	3.24
455.657	3.15
456.014	3.22
456.371	3.23
456.727	3.3
457.084	3.19
457.441	3.09
457.797	3.14
458.154	3.28
458.51	3.14
458.867	3.33
459.223	3.25
459.58	3.13
459.936	3.19
460.292	3.25
460.648	3.13
461.005	3.24
461.361	3.21
461.717	3.2
462.073	3.2
462.429	3.01
462.785	3.27
463.141	3.2
463.496	3.26
463.852	3.42
464.208	3.19
464.564	3.26
464.919	3.28
465.275	3.18
465.631	3.41
465.986	3.2
466.342	3.32
466.697	3.26
467.052	3.3
467.408	3.55
467.763	3.27
468.118	3.31
468.473	3.32
468.829	3.26
469.184	3.2
469.539	3.46
469.894	3.34
470.249	3.31
470.603	3.27
470.958	3.39
471.313	3.1
471.668	3.2
472.023	3.29
472.377	3.44
472.732	3.34
473.086	3.44
473.441	3.4
473.795	3.44
474.15	3.34
474.504	3.39
474.859	3.35
475.213	3.46
475.567	3.57
475.921	3.54
476.275	3.3
476.63	3.32
476.984	3.41
477.338	3.36
477.692	3.58
478.045	3.22
478.399	3.28
478.753	3.41
479.107	3.37
479.461	3.43
479.814	3.4
480.168	3.5
480.521	3.46
480.875	3.36
481.228	3.55
481.582	3.43
481.935	3.34
482.289	3.4
482.642	3.45
482.995	3.29
483.348	3.33
483.701	3.28
484.055	3.39
484.408	3.3
484.761	3.32
485.114	3.24
485.466	3.17
485.819	3.19
486.172	3.23
486.525	3.27
486.878	3.33
487.23	3.36
487.583	3.4
487.936	3.35
488.288	3.38
488.641	3.31
488.993	3.27
489.345	3.3
489.698	3.34
490.05	3.33
490.402	3.37
490.754	3.44
491.107	3.44
491.459	3.47
491.811	3.38
492.163	3.42
492.515	3.45
492.866	3.43
493.218	3.37
493.57	3.43
493.922	3.36
494.274	3.5
494.625	3.58
494.977	3.53
495.328	3.58
495.68	3.56
496.031	3.63
496.383	3.55
496.734	3.55
497.086	3.5
497.437	3.66
497.788	3.63
498.139	3.47
498.49	3.56
498.842	3.61
499.193	3.65
499.544	3.59
499.894	3.62
500.245	3.63
500.596	3.66
500.947	3.63
501.298	3.79
501.648	3.73
501.999	3.65
502.35	3.66
502.7	3.65
503.051	3.76
503.401	3.71
503.752	3.64
504.102	3.76
504.452	3.81
504.803	3.64
505.153	3.86
505.503	3.82
505.853	3.71
506.203	3.88
506.553	3.82
506.903	3.89
507.253	3.82
507.603	3.89
507.953	3.84
508.303	3.99
508.652	3.9
509.002	3.94
509.352	3.78
509.701	3.79
510.051	3.79
510.4	3.92
510.75	3.86
511.099	3.89
511.449	3.9
511.798	3.9
512.147	3.87
512.496	3.86
512.846	3.9
513.195	3.83
513.544	3.94
513.893	3.87
514.242	3.9
514.591	3.83
514.939	3.86
515.288	3.85
515.637	3.97
515.986	4
516.334	3.98
516.683	4.08
517.032	4.08
517.38	4.03
517.729	4.1
518.077	4.11
518.426	3.99
518.774	3.99
519.122	3.98
519.47	4.04
519.819	3.94
520.167	3.98
520.515	3.99
520.863	3.98
521.211	4.05
521.559	4
521.907	4.1
522.255	4.02
522.602	4.08
522.95	4.13
523.298	4.2
523.645	4.2
523.993	4.13
524.341	4.15
524.688	4.22
525.036	4.2
525.383	4.25
525.73	4.08
526.078	4.15
526.425	4.19
526.772	4.18
527.119	4.12
527.466	4.09
527.814	4.04
528.161	4.1
528.508	4.15
528.854	4.14
529.201	4.12
529.548	4.15
529.895	4.03
530.242	4.05
530.588	4.01
530.935	4.11
531.282	4.09
531.628	4.18
531.975	4.19
532.321	4.22
532.667	4.27
533.014	4.34
533.36	4.31
533.706	4.35
534.052	4.36
534.399	4.22
534.745	4.25
535.091	4.27
535.437	4.28
535.783	4.31
536.129	4.4
536.474	4.42
536.82	4.33
537.166	4.42
537.512	4.53
537.857	4.5
538.203	4.5
538.549	4.44
538.894	4.39
539.239	4.44
539.585	4.58
539.93	4.57
540.276	4.6
540.621	4.71
540.966	4.56
541.311	4.68
541.656	4.65
542.001	4.66
542.346	4.67
542.691	4.56
543.036	4.42
543.381	4.42
543.726	4.53
544.071	4.61
544.415	4.63
544.76	4.58
545.105	4.56
545.449	4.68
545.794	4.81
546.138	4.82
546.483	4.75
546.827	4.73
547.171	4.84
547.516	4.82
547.86	4.82
548.204	4.9
548.548	4.94
548.892	4.82
549.236	4.88
549.58	4.85
549.924	4.98
550.268	5.01
550.612	4.98
550.956	5.08
551.3	5.1
551.643	5.05
551.987	4.92
552.33	5.35
552.674	5.24
553.017	5.16
553.361	5.15
553.704	5.27
554.048	5.26
554.391	5.18
554.734	5.17
555.077	5.16
555.42	5.31
555.764	5.31
556.107	5.25
556.45	5.36
556.793	5.56
557.135	5.44
557.478	5.26
557.821	5.38
558.164	5.51
558.507	5.37
558.849	5.41
559.192	5.41
559.534	5.67
559.877	5.62
560.219	5.32
560.562	5.49
560.904	5.61
561.246	5.42
561.589	5.59
561.931	5.6
562.273	5.69
562.615	5.67
562.957	5.74
563.299	5.54
563.641	5.73
563.983	5.75
564.325	5.77
564.667	5.81
565.008	5.89
565.35	5.86
565.692	5.96
566.033	5.83
566.375	5.86
566.716	5.86
567.058	5.88
567.399	6.03
567.741	6.03
568.082	5.91
568.423	6.06
568.764	5.99
569.105	5.93
569.447	5.94
569.788	6.15
570.129	6.13
570.47	6.1
570.811	6.11
571.151	6.05
571.492	6.09
571.833	6.28
572.174	6.28
572.514	6.41
572.855	6.18
573.195	6.16
573.536	6.22
573.876	6.27
574.217	6.28
574.557	6.18
574.898	6.53
575.238	6.51
575.578	6.41
575.918	6.43
576.258	6.4
576.598	6.41
576.938	6.62
577.278	6.57
577.618	6.29
577.958	6.5
578.298	6.63
578.638	6.66
578.977	6.63
579.317	6.82
579.657	6.76
579.996	6.8
580.336	6.75
580.675	6.89
581.014	6.82
581.354	6.91
581.693	6.89
582.032	6.8
582.372	6.68
582.711	6.87
583.05	6.88
583.389	7.04
583.728	7.12
584.067	7.08
584.406	6.94
584.745	7.46
585.083	7.14
585.422	7.32
585.761	7.32
586.1	7.09
586.438	7.04
586.777	7.34
587.115	7.45
587.454	7.23
587.792	7.36
588.13	7.47
588.469	7.5
588.807	7.38
589.145	7.46
589.483	7.5
589.821	7.4
590.159	7.59
590.497	7.49
590.835	7.71
591.173	7.36
591.511	7.75
591.849	7.73
592.187	7.63
592.524	7.7
592.862	7.59
593.2	7.74
593.537	7.59
593.875	7.72
594.212	7.76
594.55	7.89
594.887	7.86
595.224	7.85
595.561	7.93
595.899	7.72
596.236	7.85
596.573	7.65
596.91	8.02
597.247	8.06
597.584	8.11
597.921	8.2
598.258	8.03
598.594	7.94
598.931	8.01
599.268	8.16
599.604	8.17
599.941	8.29
600.277	8.22
600.614	8.29
600.95	8.42
601.287	8.46
601.623	8.5
601.959	8.62
602.296	8.69
602.632	8.51
602.968	8.68
603.304	8.24
603.64	8.66
603.976	8.81
604.312	8.66
604.648	8.63
604.984	8.47
605.319	8.69
605.655	8.67
605.991	8.57
606.326	8.79
606.662	8.89
606.998	8.64
607.333	8.85
607.668	9.02
608.004	9.06
608.339	8.99
608.674	9.07
609.01	9.1
609.345	9.23
609.68	9.18
610.015	9.12
610.35	9.01
610.685	9.09
611.02	9.2
611.355	9.16
611.689	9.33
612.024	9.28
612.359	9.21
612.694	9.33
613.028	9.54
613.363	9.27
613.697	9.39
614.032	9.54
614.366	9.75
614.7	9.47
615.035	9.51
615.369	9.91
615.703	9.69
616.037	9.66
616.371	9.6
616.705	9.95
617.039	9.5
617.373	9.82
617.707	10.05
618.041	10.11
618.375	10.02
618.709	9.96
619.042	9.99
619.376	10.26
619.71	10.15
620.043	9.96
620.377	10.19
620.71	10.29
621.043	10.15
621.377	10.47
621.71	10.52
622.043	10.46
622.376	10.62
622.709	10.43
623.043	10.45
623.376	10.36
623.709	10.37
624.041	10.78
624.374	10.57
624.707	10.49
625.04	10.88
625.373	10.81
625.705	10.19
626.038	10.45
626.37	10.63
626.703	10.76
627.035	10.51
627.368	10.72
627.7	10.72
628.032	10.82
628.365	10.88
628.697	10.74
629.029	10.82
629.361	10.76
629.693	10.98
630.025	11.21
630.357	11.36
630.689	11.29
631.021	10.82
631.353	11.22
631.684	11.28
632.016	11.04
632.348	11.18
632.679	11.38
633.011	11.43
633.342	11.67
633.674	11.36
634.005	11.3
634.336	11.59
634.668	11.61
634.999	11.61
635.33	11.71
635.661	11.41
635.992	11.74
636.323	11.57
636.654	11.78
636.985	11.78
637.316	11.86
637.647	12.08
637.977	11.89
638.308	11.87
638.639	12.02
638.969	12.1
639.3	12.13
639.63	12.09
639.961	11.97
640.291	12.39
640.622	11.9
640.952	12.46
641.282	12.63
641.612	12.52
641.943	12.59
642.273	12.48
642.603	12.35
642.933	12.52
643.263	12.35
643.592	12.54
643.922	12.77
644.252	12.97
644.582	12.51
644.911	12.77
645.241	12.47
645.571	12.87
645.9	12.63
646.23	12.78
646.559	12.99
646.888	12.83
647.218	12.71
647.547	12.98
647.876	12.86
648.205	12.91
648.534	12.6
648.863	13.01
649.192	13.41
649.521	13.24
649.85	13.04
650.179	13.06
650.508	13.36
650.837	13.21
651.165	12.83
651.494	13.44
651.822	13.04
652.151	13.51
652.479	13.56
652.808	13.42
653.136	13.32
653.465	13.36
653.793	13.55
654.121	13.46
654.449	13.2
654.777	13.42
655.105	13.89
655.433	13.28
655.761	13.73
656.089	13.8
656.417	13.98
656.745	13.83
657.073	14.05
657.4	14.62
657.728	13.85
658.056	14.25
658.383	13.53
658.711	13.85
659.038	14.57
659.365	14.79
659.693	14.04
660.02	14.25
660.347	14.27
660.674	14.02
661.001	14.26
661.329	14.52
661.656	14.16
661.982	14.3
662.309	14.55
662.636	14.74
662.963	14.09
663.29	14.42
663.616	14.76
663.943	14.94
664.27	14.81
664.596	14.82
664.923	14.05
665.249	14.54
665.576	14.92
665.902	14.93
666.228	14.46
666.554	15.38
666.881	14.68
667.207	14.81
667.533	15.4
667.859	14.32
668.185	14.4
668.511	14.54
668.837	15.18
669.162	15.35
669.488	15.4
669.814	15.16
670.139	15.04
670.465	15.28
670.791	15.02
671.116	15.35
671.442	16.01
671.767	16.05
672.092	15.56
672.418	15.32
672.743	15.66
673.068	15.68
673.393	15.2
673.718	15.74
674.043	15.67
674.368	16.81
674.693	16.37
675.018	15.39
675.343	15.66
675.667	16.18
675.992	15.78
676.317	16.17
676.641	16.06
676.966	15.46
677.29	16.12
677.615	15.61
677.939	16.24
678.264	16.7
678.588	17.08
678.912	15.96
679.236	16.32
679.56	15.68
679.885	16.89
680.209	16.21
680.532	16.42
680.856	16.41
681.18	16.4
681.504	16.32
681.828	16.94
682.152	16.66
682.475	16.46
682.799	16.99
683.122	16.61
683.446	16.95
683.769	16.88
684.093	16.96
684.416	17.23
684.739	17.61
685.062	16.76
685.386	16.22
685.709	17.15
686.032	18.17
686.355	17.39
686.678	17.14
687.001	16.7
687.324	17.71
687.646	17.66
687.969	17.25
688.292	16.93
