Data from 0206_crown_Reflection__3__317.txt Node

Date: Fri Dec 15 19:35:59 CST 2023
User: ToomeyLab
Spectrometer: FLMS14357
Trigger mode: 0
Integration Time (sec): 1.000000E-2
Scans to average: 100
Electric dark correction enabled: true
Nonlinearity correction enabled: false
Boxcar width: 0
XAxis mode: Wavelengths
Number of Pixels in Spectrum: 2048
>>>>>Begin Spectral Data<<<<<
189.047	-75.56
189.435	-75.56
189.823	-75.56
190.211	-1.34
190.599	571.2
190.987	53.24
191.375	9.88
191.763	440.81
192.151	670.83
192.538	13.32
192.926	342.62
193.314	573.95
193.702	-55.85
194.089	130.29
194.477	14.9
194.864	234.35
195.252	121.6
195.639	172.85
196.027	-672.07
196.414	412.36
196.801	46.84
197.189	211.81
197.576	190.36
197.963	-233.07
198.351	-32.11
198.738	43.94
199.125	-13.43
199.512	-29.55
199.899	13.11
200.286	18.06
200.673	76.23
201.06	-49.96
201.447	-16.12
201.833	-15.09
202.22	28.01
202.607	9
202.994	6.57
203.38	29.4
203.767	16.04
204.154	10.69
204.54	22.46
204.927	-26.12
205.313	-17.68
205.699	-11.95
206.086	33.61
206.472	19
206.858	5.74
207.245	-133.8
207.631	30.14
208.017	3.9
208.403	6.34
208.789	25.14
209.175	15.93
209.561	-25.85
209.947	-4.68
210.333	-120.69
210.719	25.7
211.105	44.1
211.491	-10.79
211.876	29.46
212.262	-26.02
212.648	-26.32
213.034	45.01
213.419	-8.72
213.805	0.67
214.19	-21.73
214.576	23.43
214.961	-91.21
215.346	-82.8
215.732	19.71
216.117	-3.1
216.502	-46.32
216.888	29.72
217.273	25.57
217.658	-5.31
218.043	31.33
218.428	-71.09
218.813	-46.2
219.198	-80.68
219.583	15.69
219.968	5.68
220.353	18.01
220.738	7.36
221.122	1.89
221.507	-29.07
221.892	-28.26
222.276	-35.22
222.661	-7.21
223.046	5.04
223.43	-4.97
223.815	4.11
224.199	-23.12
224.583	-7.11
224.968	-7.93
225.352	11.66
225.736	-1.79
226.121	-15.7
226.505	1.41
226.889	13.21
227.273	5.09
227.657	10.95
228.041	2.82
228.425	-0.77
228.809	10.81
229.193	4.83
229.577	6.58
229.961	4.54
230.344	4.52
230.728	3.79
231.112	5.14
231.495	5.73
231.879	5.05
232.263	4.68
232.646	5.61
233.03	5.28
233.413	3.59
233.797	5.03
234.18	4.41
234.563	3.12
234.946	1.22
235.33	6.59
235.713	3.83
236.096	4.52
236.479	4.63
236.862	4.34
237.245	7.76
237.628	4.08
238.011	4.28
238.394	5.53
238.777	5.14
239.16	1.33
239.543	4.85
239.925	3.52
240.308	3.59
240.691	5.32
241.073	6.6
241.456	4.8
241.838	4.02
242.221	3.96
242.603	5.16
242.986	5.74
243.368	4.86
243.75	5.42
244.133	4.22
244.515	5.51
244.897	4.93
245.279	4.43
245.661	3.78
246.043	4.58
246.425	3.41
246.807	5.66
247.189	5.16
247.571	5.32
247.953	4.86
248.335	4.56
248.717	5.39
249.098	4.78
249.48	4.89
249.862	5.04
250.243	4.81
250.625	4.82
251.006	5.44
251.388	3.54
251.769	3.99
252.151	4.88
252.532	4.8
252.913	4.94
253.295	3.69
253.676	4.94
254.057	4.78
254.438	4.61
254.819	4.28
255.2	4.29
255.581	5.08
255.962	4.1
256.343	4.63
256.724	4.35
257.105	4.86
257.486	4.08
257.867	5.12
258.247	4.34
258.628	4.5
259.009	4.52
259.389	4.94
259.77	4.96
260.15	3.41
260.531	4.14
260.911	4.92
261.292	4.72
261.672	4.93
262.052	4.63
262.432	5.07
262.813	4.66
263.193	4.58
263.573	4.64
263.953	4.08
264.333	4.83
264.713	5.09
265.093	3.85
265.473	4.07
265.853	3.85
266.233	4.7
266.612	2.24
266.992	3.54
267.372	4.67
267.752	4.41
268.131	3.97
268.511	4.56
268.89	4.75
269.27	3.96
269.649	4.1
270.029	3.48
270.408	5.4
270.787	4.87
271.167	4.92
271.546	4.95
271.925	3.67
272.304	3.96
272.683	4.93
273.062	4.16
273.441	4.45
273.82	3.6
274.199	4.25
274.578	4.08
274.957	4.07
275.336	4.35
275.715	3.2
276.093	3.9
276.472	3.92
276.851	3.57
277.229	3.83
277.608	3.8
277.986	3.76
278.365	4.08
278.743	3.87
279.122	4.21
279.5	3.85
279.878	4.5
280.257	3.97
280.635	3.27
281.013	3.79
281.391	4.59
281.769	4.19
282.147	4.05
282.525	4.76
282.903	3.66
283.281	4.63
283.659	4.49
284.037	4.52
284.415	4.58
284.792	4.18
285.17	3.32
285.548	4.03
285.925	4.29
286.303	3.82
286.68	4.07
287.058	4.23
287.435	4.08
287.813	4.38
288.19	3.9
288.567	4.06
288.945	4.8
289.322	3.81
289.699	3.74
290.076	4.02
290.453	4.11
290.83	3.69
291.207	4
291.584	4.24
291.961	4.06
292.338	4.01
292.715	4.42
293.092	4.52
293.469	3.97
293.845	4.14
294.222	3.68
294.599	4.33
294.975	3.88
295.352	4.38
295.728	3.82
296.105	4.23
296.481	4.18
296.858	3.98
297.234	3.88
297.61	3.82
297.986	4.18
298.363	4.13
298.739	4.3
299.115	4.13
299.491	3.99
299.867	4.09
300.243	3.76
300.619	3.78
300.995	3.66
301.371	4.55
301.746	3.72
302.122	4.2
302.498	4.29
302.874	4.21
303.249	4.33
303.625	4.52
304	4.42
304.376	3.96
304.751	3.52
305.127	4.61
305.502	3.76
305.878	3.44
306.253	3.73
306.628	4.8
307.003	4.19
307.378	3.97
307.754	4.5
308.129	3.47
308.504	4.4
308.879	3.66
309.254	4.33
309.629	5.08
310.003	4.52
310.378	4.56
310.753	4.61
311.128	4.05
311.502	3.96
311.877	5.06
312.252	4.19
312.626	4.33
313.001	3.99
313.375	4.3
313.75	4.12
314.124	4.76
314.498	4.43
314.873	4.28
315.247	4.07
315.621	4.17
315.995	4.13
316.369	4.44
316.743	4.41
317.117	4.17
317.491	4.15
317.865	4.31
318.239	4.21
318.613	4.25
318.987	4.4
319.361	4.06
319.734	5.13
320.108	4.63
320.482	4.92
320.855	4.93
321.229	4.39
321.602	5
321.976	5.11
322.349	4.61
322.723	4.48
323.096	4.83
323.469	3.31
323.843	5.15
324.216	4.84
324.589	4.51
324.962	4.67
325.335	4.46
325.708	3.62
326.081	5.11
326.454	4.88
326.827	4.69
327.2	4.87
327.573	4.7
327.945	5.01
328.318	4.65
328.691	4.46
329.063	4.59
329.436	4.52
329.809	4.95
330.181	4.12
330.553	4.91
330.926	4.78
331.298	4.77
331.671	4.25
332.043	5.2
332.415	4.96
332.787	4.96
333.159	5.53
333.532	4.96
333.904	5.13
334.276	4.13
334.648	4.79
335.02	4.93
335.391	4.52
335.763	4.29
336.135	4.99
336.507	5.54
336.879	4.76
337.25	5.31
337.622	5.12
337.993	5.07
338.365	5.27
338.736	5.11
339.108	5.1
339.479	4.35
339.851	5.25
340.222	4.57
340.593	4.92
340.964	4.87
341.336	5.79
341.707	5.04
342.078	5.5
342.449	5.58
342.82	4.99
343.191	5.23
343.562	4.85
343.933	4.96
344.303	4.96
344.674	4.85
345.045	5.29
345.416	5.42
345.786	4.89
346.157	4.96
346.527	4.61
346.898	4.65
347.268	4.83
347.639	4.57
348.009	4.97
348.38	4.78
348.75	4.8
349.12	5.18
349.49	5.51
349.861	5.21
350.231	4.9
350.601	5.55
350.971	5.49
351.341	5.11
351.711	4.73
352.081	5.34
352.45	4.63
352.82	5.4
353.19	4.82
353.56	5.06
353.929	5.36
354.299	5.44
354.669	5.18
355.038	5.14
355.408	4.96
355.777	5.28
356.147	5.32
356.516	5.29
356.885	5.35
357.254	5.07
357.624	5.26
357.993	5.32
358.362	4.75
358.731	4.74
359.1	5.45
359.469	5.38
359.838	4.94
360.207	4.87
360.576	4.93
360.945	5.22
361.314	5.57
361.682	5.09
362.051	4.96
362.42	5.12
362.788	5.15
363.157	5.39
363.525	5.57
363.894	5.22
364.262	5.5
364.631	5.26
364.999	5.42
365.367	5.09
365.735	5.88
366.104	5.28
366.472	5.53
366.84	5.4
367.208	5.48
367.576	5.5
367.944	5.18
368.312	5.04
368.68	5.17
369.048	5.07
369.416	5.17
369.783	4.93
370.151	5.33
370.519	5.76
370.886	6.01
371.254	4.95
371.621	5.2
371.989	5.29
372.356	4.66
372.724	5.53
373.091	5.18
373.458	5.35
373.826	4.89
374.193	5.33
374.56	5.46
374.927	5.41
375.294	4.93
375.661	5.29
376.028	4.85
376.395	4.9
376.762	5.08
377.129	5.36
377.496	5.08
377.863	5.06
378.229	4.97
378.596	5.09
378.963	5.2
379.329	5.02
379.696	5.4
380.062	5.43
380.429	5.32
380.795	5.45
381.161	5.3
381.528	5.4
381.894	5.45
382.26	5.18
382.626	5.39
382.993	4.99
383.359	5.59
383.725	5.3
384.091	5.45
384.457	5.62
384.823	5.38
385.188	5.51
385.554	5.26
385.92	5.44
386.286	5.66
386.651	5.5
387.017	5.49
387.383	5.52
387.748	5.1
388.114	5.64
388.479	5.53
388.845	5.6
389.21	5.5
389.575	5.47
389.94	5.7
390.306	5.43
390.671	5.8
391.036	5.13
391.401	5.45
391.766	5.41
392.131	5.44
392.496	5.69
392.861	5.3
393.226	5.88
393.591	5.38
393.956	5.39
394.32	5.62
394.685	5.43
395.05	5.26
395.414	5.6
395.779	5.26
396.143	5.64
396.508	5.63
396.872	5.67
397.236	5.38
397.601	5.35
397.965	5.45
398.329	5.3
398.694	5.51
399.058	5.49
399.422	5.11
399.786	5.99
400.15	5.69
400.514	5.76
400.878	5.49
401.242	5.9
401.605	5.96
401.969	5.39
402.333	5.79
402.697	5.38
403.06	5.55
403.424	5.68
403.787	5.51
404.151	5.51
404.514	5.43
404.878	5.58
405.241	5.62
405.604	5.54
405.968	5.72
406.331	5.54
406.694	5.82
407.057	5.63
407.42	5.84
407.783	5.42
408.146	5.59
408.509	5.39
408.872	5.46
409.235	5.81
409.598	5.8
409.961	5.73
410.323	5.78
410.686	5.41
411.049	5.43
411.411	5.48
411.774	5.68
412.136	5.65
412.499	5.62
412.861	5.72
413.223	5.6
413.586	5.7
413.948	5.79
414.31	5.51
414.672	5.31
415.035	5.55
415.397	5.87
415.759	5.52
416.121	5.89
416.483	5.61
416.845	5.81
417.206	5.79
417.568	5.87
417.93	5.36
418.292	5.68
418.653	5.77
419.015	5.69
419.377	5.76
419.738	5.65
420.1	5.51
420.461	5.68
420.822	5.74
421.184	5.66
421.545	5.8
421.906	5.61
422.267	5.69
422.629	5.57
422.99	5.66
423.351	5.64
423.712	5.63
424.073	5.64
424.434	5.65
424.795	5.64
425.155	5.68
425.516	5.53
425.877	5.52
426.238	5.57
426.598	5.73
426.959	5.75
427.32	5.59
427.68	5.73
428.041	5.7
428.401	5.7
428.761	5.73
429.122	5.78
429.482	5.52
429.842	5.82
430.202	5.74
430.563	5.71
430.923	5.88
431.283	5.91
431.643	5.77
432.003	5.61
432.363	5.85
432.722	5.74
433.082	5.73
433.442	5.74
433.802	5.73
434.161	5.75
434.521	5.92
434.881	5.79
435.24	5.58
435.6	5.73
435.959	5.84
436.319	5.74
436.678	5.69
437.037	5.73
437.396	5.78
437.756	5.83
438.115	5.74
438.474	5.98
438.833	5.76
439.192	5.64
439.551	5.85
439.91	5.73
440.269	5.83
440.628	5.7
440.987	5.82
441.345	5.68
441.704	5.8
442.063	5.54
442.421	5.69
442.78	5.68
443.138	5.68
443.497	5.74
443.855	5.88
444.214	5.65
444.572	5.96
444.93	5.74
445.288	5.95
445.647	5.76
446.005	5.62
446.363	5.85
446.721	5.9
447.079	5.61
447.437	5.62
447.795	5.77
448.153	5.55
448.51	5.77
448.868	5.82
449.226	5.65
449.584	5.66
449.941	5.74
450.299	5.94
450.656	5.85
451.014	5.8
451.371	5.58
451.729	5.75
452.086	6.02
452.443	5.66
452.801	5.98
453.158	5.98
453.515	5.66
453.872	6.07
454.229	5.69
454.586	5.69
454.943	5.74
455.3	5.86
455.657	5.68
456.014	5.68
456.371	5.79
456.727	5.81
457.084	5.8
457.441	5.8
457.797	5.87
458.154	6.06
458.51	5.87
458.867	6.02
459.223	5.98
459.58	5.88
459.936	5.9
460.292	5.8
460.648	5.74
461.005	5.64
461.361	5.8
461.717	5.77
462.073	5.64
462.429	5.77
462.785	5.91
463.141	5.8
463.496	5.96
463.852	5.99
464.208	5.97
464.564	5.9
464.919	5.81
465.275	5.75
465.631	6.16
465.986	5.98
466.342	5.73
466.697	5.69
467.052	5.9
467.408	5.95
467.763	5.84
468.118	5.72
468.473	5.9
468.829	5.88
469.184	5.75
469.539	5.95
469.894	5.71
470.249	5.91
470.603	5.91
470.958	6.02
471.313	6.03
471.668	6.16
472.023	5.9
472.377	5.88
472.732	5.94
473.086	5.75
473.441	5.62
473.795	6.01
474.15	6
474.504	5.79
474.859	5.93
475.213	5.66
475.567	5.66
475.921	5.71
476.275	5.89
476.63	6.03
476.984	5.98
477.338	6.08
477.692	5.73
478.045	5.77
478.399	6
478.753	5.85
479.107	5.75
479.461	5.9
479.814	5.9
480.168	5.83
480.521	5.89
480.875	5.74
481.228	5.78
481.582	5.92
481.935	5.85
482.289	5.74
482.642	5.9
482.995	5.77
483.348	5.63
483.701	5.91
484.055	5.9
484.408	5.81
484.761	5.69
485.114	5.68
485.466	5.47
485.819	5.45
486.172	5.47
486.525	5.54
486.878	5.64
487.23	5.62
487.583	5.75
487.936	5.74
488.288	5.67
488.641	5.7
488.993	5.6
489.345	5.57
489.698	5.5
490.05	5.53
490.402	5.66
490.754	5.68
491.107	5.7
491.459	5.77
491.811	5.81
492.163	5.78
492.515	5.75
492.866	5.81
493.218	5.73
493.57	5.57
493.922	5.57
494.274	5.72
494.625	5.78
494.977	5.88
495.328	5.84
495.68	5.82
496.031	5.99
496.383	5.77
496.734	5.97
497.086	5.96
497.437	5.9
497.788	5.9
498.139	5.66
498.49	5.88
498.842	5.68
499.193	5.83
499.544	5.86
499.894	5.74
500.245	5.93
500.596	5.78
500.947	5.89
501.298	5.92
501.648	5.95
501.999	5.86
502.35	5.93
502.7	5.82
503.051	5.81
503.401	5.8
503.752	5.9
504.102	5.81
504.452	6
504.803	5.77
505.153	6.05
505.503	5.81
505.853	5.9
506.203	5.8
506.553	5.89
506.903	5.84
507.253	5.76
507.603	5.81
507.953	6.01
508.303	6.08
508.652	5.78
509.002	6.11
509.352	5.86
509.701	5.88
510.051	5.82
510.4	5.82
510.75	5.82
511.099	5.84
511.449	5.78
511.798	5.83
512.147	5.79
512.496	5.76
512.846	5.88
513.195	5.95
513.544	5.71
513.893	5.97
514.242	5.79
514.591	6.03
514.939	5.88
515.288	5.82
515.637	5.95
515.986	5.9
516.334	5.94
516.683	5.87
517.032	5.92
517.38	6.05
517.729	5.89
518.077	5.8
518.426	5.78
518.774	5.94
519.122	5.95
519.47	5.91
519.819	5.83
520.167	5.88
520.515	5.83
520.863	5.86
521.211	5.83
521.559	5.96
521.907	5.85
522.255	5.93
522.602	5.99
522.95	5.96
523.298	5.96
523.645	5.98
523.993	5.86
524.341	6.08
524.688	6.05
525.036	5.88
525.383	5.92
525.73	5.98
526.078	5.92
526.425	5.87
526.772	5.8
527.119	5.91
527.466	5.88
527.814	5.84
528.161	5.81
528.508	5.91
528.854	5.82
529.201	5.82
529.548	5.73
529.895	5.74
530.242	5.69
530.588	5.56
530.935	5.61
531.282	5.67
531.628	5.74
531.975	5.76
532.321	5.81
532.667	5.91
533.014	5.94
533.36	5.77
533.706	5.86
534.052	5.87
534.399	5.75
534.745	5.74
535.091	5.76
535.437	5.78
535.783	5.8
536.129	5.82
536.474	5.77
536.82	5.79
537.166	5.96
537.512	6.08
537.857	5.89
538.203	6.02
538.549	5.75
538.894	5.8
539.239	5.93
539.585	5.86
539.93	5.82
540.276	6.02
540.621	6.02
540.966	5.94
541.311	5.86
541.656	5.84
542.001	5.89
542.346	5.98
542.691	5.78
543.036	5.8
543.381	5.68
543.726	5.69
544.071	5.86
544.415	5.85
544.76	5.82
545.105	5.85
545.449	5.81
545.794	6.02
546.138	5.92
546.483	6.01
546.827	6.02
547.171	5.92
547.516	6.19
547.86	5.95
548.204	5.83
548.548	5.86
548.892	5.93
549.236	5.85
549.58	5.89
549.924	6.06
550.268	6.06
550.612	6.2
550.956	6.08
551.3	6.01
551.643	6.29
551.987	6.15
552.33	6.08
552.674	6.09
553.017	6.07
553.361	5.96
553.704	6.22
554.048	5.97
554.391	5.99
554.734	5.87
555.077	6.03
555.42	5.99
555.764	6.06
556.107	5.9
556.45	5.8
556.793	5.97
557.135	6.07
557.478	6.16
557.821	6.09
558.164	5.99
558.507	6.04
558.849	5.85
559.192	6.05
559.534	5.98
559.877	6.23
560.219	6.09
560.562	6.24
560.904	5.98
561.246	6.09
561.589	6.09
561.931	5.86
562.273	5.93
562.615	5.98
562.957	6.23
563.299	5.98
563.641	6.17
563.983	6.18
564.325	5.9
564.667	6.16
565.008	6.07
565.35	6.03
565.692	5.9
566.033	5.9
566.375	6.33
566.716	6.24
567.058	5.97
567.399	6.09
567.741	5.93
568.082	6.13
568.423	6.05
568.764	6.08
569.105	6.15
569.447	6.25
569.788	6.1
570.129	6.06
570.47	6.23
570.811	6.26
571.151	6.21
571.492	6.12
571.833	6.2
572.174	6.3
572.514	6.23
572.855	6.19
573.195	6.26
573.536	6
573.876	5.93
574.217	6.05
574.557	6.17
574.898	6.28
575.238	6.22
575.578	6.1
575.918	6.36
576.258	6.22
576.598	6.17
576.938	6.06
577.278	6.13
577.618	6.01
577.958	6.19
578.298	6.02
578.638	6.16
578.977	6
579.317	6.11
579.657	6.01
579.996	6.24
580.336	6.3
580.675	6.16
581.014	6.08
581.354	6.03
581.693	6.21
582.032	6.23
582.372	6.03
582.711	6.16
583.05	6.25
583.389	6.24
583.728	6.08
584.067	6.49
584.406	6.22
584.745	6.18
585.083	6.32
585.422	6.09
585.761	6.28
586.1	6.34
586.438	6.22
586.777	6.47
587.115	6.41
587.454	6.28
587.792	6.12
588.13	6.25
588.469	6.06
588.807	6.23
589.145	6.04
589.483	6.1
589.821	6.29
590.159	6.31
590.497	6.46
590.835	6.65
591.173	6.14
591.511	6.26
591.849	6.15
592.187	6.31
592.524	6.06
592.862	6.11
593.2	6.29
593.537	6.53
593.875	6.24
594.212	6.23
594.55	6.23
594.887	6.59
595.224	6.11
595.561	6.24
595.899	6.24
596.236	6.26
596.573	6.56
596.91	5.98
597.247	5.93
597.584	6.49
597.921	6.33
598.258	5.97
598.594	6.12
598.931	6.15
599.268	6.39
599.604	6.22
599.941	6.43
600.277	6.45
600.614	6.28
600.95	6.11
601.287	6.53
601.623	6.31
601.959	6.01
602.296	6.27
602.632	6.35
602.968	6.19
603.304	6.22
603.64	6.2
603.976	6.36
604.312	6.42
604.648	6.08
604.984	6.39
605.319	6.4
605.655	6.36
605.991	6.36
606.326	6.41
606.662	6.24
606.998	6.22
607.333	6.42
607.668	6.28
608.004	6.33
608.339	6.41
608.674	6.31
609.01	6.26
609.345	6.21
609.68	6.49
610.015	6.32
610.35	6.18
610.685	6.18
611.02	6.23
611.355	6.38
611.689	6.15
612.024	6.54
612.359	6.25
612.694	6.44
613.028	6.17
613.363	6.48
613.697	6.37
614.032	6.66
614.366	6.24
614.7	6.32
615.035	6.65
615.369	6.15
615.703	6.47
616.037	6.53
616.371	6.06
616.705	6.63
617.039	6.4
617.373	5.79
617.707	6.33
618.041	5.99
618.375	6.6
618.709	6.43
619.042	6.55
619.376	6.5
619.71	6.59
620.043	6.57
620.377	6.13
620.71	6.51
621.043	6.41
621.377	6.58
621.71	6.46
622.043	6.05
622.376	6.19
622.709	6.53
623.043	6.42
623.376	6.28
623.709	6.41
624.041	6.49
624.374	6.61
624.707	6.41
625.04	6.56
625.373	6.04
625.705	6.22
626.038	5.85
626.37	6.31
626.703	6.32
627.035	6.9
627.368	6.58
627.7	6.68
628.032	6.6
628.365	6.87
628.697	6.77
629.029	6.2
629.361	6.34
629.693	6.54
630.025	6.32
630.357	6.69
630.689	6.52
631.021	6.36
631.353	6.37
631.684	6.21
632.016	6.74
632.348	6.74
632.679	6.63
633.011	6.72
633.342	6.88
633.674	6.51
634.005	6.46
634.336	6.11
634.668	6.9
634.999	6.54
635.33	6.75
635.661	6.69
635.992	6.67
636.323	6.64
636.654	6.64
636.985	6.41
637.316	6.24
637.647	6.25
637.977	6.67
638.308	6.28
638.639	5.87
638.969	6.48
639.3	6.37
639.63	6.26
639.961	6.36
640.291	6.96
640.622	6.96
640.952	6.1
641.282	7.07
641.612	6.51
641.943	6.31
642.273	6.93
642.603	7.13
642.933	6.5
643.263	6.77
643.592	6.42
643.922	6
644.252	6.54
644.582	6.65
644.911	6.01
645.241	6.8
645.571	6.2
645.9	6.44
646.23	6.51
646.559	6.5
646.888	6.53
647.218	6.18
647.547	6.85
647.876	6.17
648.205	6.43
648.534	6.4
648.863	6.35
649.192	6.79
649.521	6.43
649.85	6.15
650.179	6.4
650.508	6.78
650.837	6.04
651.165	6.56
651.494	6.52
651.822	6.54
652.151	6.07
652.479	6.62
652.808	6.1
653.136	6.88
653.465	6.15
653.793	6.31
654.121	6.46
654.449	6.81
654.777	7.25
655.105	6.87
655.433	6.17
655.761	6.28
656.089	6.92
656.417	6.79
656.745	6.03
657.073	6.29
657.4	7.14
657.728	7
658.056	6.4
658.383	6.63
658.711	6.47
659.038	6.38
659.365	7.18
659.693	6.81
660.02	6.48
660.347	6.75
660.674	6.63
661.001	7.01
661.329	6.27
661.656	6.57
661.982	7.25
662.309	6.63
662.636	6.73
662.963	7.11
663.29	7.1
663.616	7.19
663.943	6.38
664.27	6.93
664.596	6.79
664.923	7.11
665.249	6.76
665.576	6.49
665.902	7.14
666.228	6.85
666.554	6.75
666.881	6.48
667.207	6.61
667.533	6.8
667.859	7.46
668.185	7.27
668.511	6.2
668.837	6.15
669.162	6.5
669.488	5.71
669.814	6.78
670.139	6.9
670.465	7.23
670.791	7.39
671.116	7.62
671.442	6.62
671.767	7.31
672.092	6.51
672.418	7.01
672.743	6.49
673.068	6.29
673.393	7.12
673.718	6.9
674.043	6.47
674.368	6.5
674.693	7.75
675.018	5.89
675.343	6.26
675.667	6.32
675.992	6.82
676.317	7.44
676.641	6.5
676.966	6.78
677.29	7
677.615	7.12
677.939	7.75
678.264	6.31
678.588	7.25
678.912	7.24
679.236	7.36
679.56	6.43
679.885	6.56
680.209	6.62
680.532	6.71
680.856	7.67
681.18	6.65
681.504	6.4
681.828	7.35
682.152	6.53
682.475	7.05
682.799	7.09
683.122	6.44
683.446	6.54
683.769	7.5
684.093	6.65
684.416	7.87
684.739	6.89
685.062	6.81
685.386	8.22
685.709	6.27
686.032	6.61
686.355	7.11
686.678	7.21
687.001	6.95
687.324	7.11
687.646	6.34
687.969	6.64
688.292	6.78
688.614	6.56
688.937	7.32
689.26	7.36
689.582	7.17
689.904	7.19
690.227	6.79
690.549	7.32
690.871	7.77
691.194	7.22
691.516	7.09
691.838	6.95
692.16	6.8
692.482	5.96
