Data from 0206_crown_Reflection__4__318.txt Node

Date: Fri Dec 15 19:36:07 CST 2023
User: ToomeyLab
Spectrometer: FLMS14357
Trigger mode: 0
Integration Time (sec): 1.000000E-2
Scans to average: 100
Electric dark correction enabled: true
Nonlinearity correction enabled: false
Boxcar width: 0
XAxis mode: Wavelengths
Number of Pixels in Spectrum: 2048
>>>>>Begin Spectral Data<<<<<
189.047	45.27
189.435	45.27
189.823	45.27
190.211	-159.59
190.599	40.22
190.987	44.43
191.375	-109.25
191.763	-67.17
192.151	316.11
192.538	74.28
192.926	-20.91
193.314	197.14
193.702	-76.33
194.089	-166.61
194.477	62.72
194.864	-470.5
195.252	123.6
195.639	81.79
196.027	1497.34
196.414	112.71
196.801	40.58
197.189	508.92
197.576	88.74
197.963	-751.58
198.351	-99.87
198.738	-42.97
199.125	-19.79
199.512	-51.66
199.899	-9.35
200.286	-2.72
200.673	-20.45
201.06	-60.29
201.447	-51.25
201.833	4.87
202.22	45.01
202.607	1.87
202.994	-32.53
203.38	5.62
203.767	-16.04
204.154	3.62
204.54	16.2
204.927	-94.34
205.313	-77.02
205.699	13.79
206.086	6.79
206.472	55.82
206.858	-30.04
207.245	-44.66
207.631	15.16
208.017	-77.52
208.403	-67.22
208.789	37.02
209.175	-16.38
209.561	-61.44
209.947	-5.95
210.333	-109.2
210.719	-26.42
211.105	-33.4
211.491	-26.71
211.876	12.02
212.262	21.5
212.648	-19.44
213.034	7.34
213.419	-1.18
213.805	-14.67
214.19	-106.76
214.576	-25.88
214.961	-33.28
215.346	-103.42
215.732	-50.87
216.117	37.01
216.502	-41.69
216.888	33.4
217.273	-3.16
217.658	-65.84
218.043	-19.33
218.428	1.21
218.813	-63.51
219.198	-37.77
219.583	4.7
219.968	11.75
220.353	-43.91
220.738	15.21
221.122	-39.59
221.507	-43.81
221.892	-16.56
222.276	-35.71
222.661	-7.58
223.046	11.24
223.43	2.96
223.815	10.31
224.199	-22.31
224.583	-12.23
224.968	2.08
225.352	10.83
225.736	-7.95
226.121	-15.57
226.505	-0.35
226.889	1.16
227.273	-5.52
227.657	3.17
228.041	-0.18
228.425	-0.33
228.809	4.33
229.193	0.66
229.577	3.85
229.961	3.74
230.344	2.39
230.728	1.98
231.112	3.64
231.495	3.18
231.879	1.33
232.263	2.87
232.646	3.21
233.03	2.05
233.413	2.72
233.797	4.19
234.18	4.24
234.563	2.51
234.946	2.09
235.33	4.27
235.713	3.04
236.096	2.92
236.479	4.4
236.862	2.66
237.245	4.56
237.628	3.2
238.011	2.21
238.394	3.27
238.777	2.79
239.16	0.02
239.543	2.66
239.925	3.84
240.308	2.72
240.691	3.72
241.073	3.44
241.456	1.08
241.838	2.85
242.221	2.16
242.603	4.17
242.986	3.67
243.368	3.02
243.75	4.05
244.133	3.14
244.515	3.42
244.897	3.9
245.279	2.88
245.661	3.02
246.043	3.15
246.425	2.08
246.807	3.36
247.189	4.26
247.571	4.35
247.953	3.39
248.335	3.39
248.717	3.59
249.098	3.6
249.48	3.51
249.862	3.23
250.243	3.35
250.625	3.39
251.006	4.13
251.388	2.57
251.769	3.18
252.151	4.01
252.532	3.1
252.913	3.07
253.295	3.11
253.676	2.81
254.057	3.15
254.438	3.14
254.819	2.53
255.2	2.42
255.581	2.12
255.962	1.45
256.343	2.56
256.724	2.67
257.105	2.95
257.486	3.53
257.867	2.46
258.247	3.01
258.628	2.03
259.009	3.2
259.389	3.87
259.77	3.55
260.15	2.28
260.531	2.61
260.911	3.63
261.292	3.21
261.672	3.52
262.052	3.51
262.432	3.86
262.813	3.8
263.193	3.21
263.573	2.62
263.953	2.99
264.333	3.77
264.713	2.76
265.093	2.1
265.473	3.09
265.853	2.14
266.233	3.33
266.612	1.76
266.992	1.76
267.372	3.1
267.752	3.1
268.131	2.77
268.511	2.97
268.89	3.25
269.27	3.12
269.649	3.31
270.029	3.5
270.408	3.31
270.787	3.78
271.167	3.62
271.546	3.05
271.925	2.07
272.304	2.61
272.683	3.24
273.062	2.89
273.441	2.88
273.82	2.81
274.199	3.26
274.578	3.21
274.957	2.85
275.336	2.93
275.715	2.82
276.093	2.68
276.472	2.51
276.851	2.92
277.229	2.49
277.608	2.25
277.986	3.14
278.365	3.1
278.743	2.21
279.122	2.87
279.5	2.65
279.878	3.27
280.257	3.18
280.635	1.65
281.013	2.85
281.391	2.79
281.769	2.66
282.147	2.45
282.525	3.03
282.903	2.69
283.281	2.82
283.659	3.63
284.037	3.17
284.415	3.01
284.792	3.25
285.17	2.07
285.548	2.42
285.925	2.98
286.303	2.55
286.68	2.48
287.058	3.16
287.435	2.96
287.813	2.75
288.19	2.43
288.567	2.99
288.945	3.56
289.322	2.79
289.699	2.9
290.076	2.39
290.453	2.96
290.83	2.46
291.207	2.74
291.584	3.39
291.961	3.49
292.338	2.88
292.715	3.34
293.092	3.02
293.469	3.33
293.845	3.36
294.222	2.62
294.599	2.57
294.975	2.66
295.352	2.68
295.728	2.53
296.105	3.17
296.481	3.38
296.858	2.81
297.234	2.98
297.61	2.74
297.986	3.26
298.363	3.52
298.739	3.35
299.115	2.97
299.491	2.77
299.867	3.31
300.243	3.32
300.619	2.46
300.995	2.98
301.371	3.09
301.746	2.51
302.122	3.36
302.498	3.19
302.874	3.11
303.249	3.03
303.625	3.43
304	3.54
304.376	3.16
304.751	2.46
305.127	3.58
305.502	2.51
305.878	2.53
306.253	2.67
306.628	3.84
307.003	2.93
307.378	3.36
307.754	3.17
308.129	2.27
308.504	3.31
308.879	3
309.254	3.41
309.629	3
310.003	3.29
310.378	3.58
310.753	3.48
311.128	3.34
311.502	3.39
311.877	3.59
312.252	2.76
312.626	3.22
313.001	2.91
313.375	3.77
313.75	2.95
314.124	3.29
314.498	3.56
314.873	3.42
315.247	2.78
315.621	3.55
315.995	2.74
316.369	3.41
316.743	2.78
317.117	3.11
317.491	3.19
317.865	3.45
318.239	3.2
318.613	3.88
318.987	3.57
319.361	3.09
319.734	3.92
320.108	3.1
320.482	3.69
320.855	3.67
321.229	3.59
321.602	3.63
321.976	3.91
322.349	3.8
322.723	3.15
323.096	3.35
323.469	3.35
323.843	3.7
324.216	3.69
324.589	3.21
324.962	4.09
325.335	3.5
325.708	3.76
326.081	3.66
326.454	3.46
326.827	3.08
327.2	4.13
327.573	4.46
327.945	3.79
328.318	3.35
328.691	3.38
329.063	3.6
329.436	3.45
329.809	4.18
330.181	3.72
330.553	3.9
330.926	4.66
331.298	3.54
331.671	3.13
332.043	4.44
332.415	4.09
332.787	3.7
333.159	4.73
333.532	3.7
333.904	4.26
334.276	3.31
334.648	4.43
335.02	3.66
335.391	3.5
335.763	3.55
336.135	4.04
336.507	4.45
336.879	3.76
337.25	3.92
337.622	3.67
337.993	3.98
338.365	4.56
338.736	4.11
339.108	3.84
339.479	3.87
339.851	3.8
340.222	4.04
340.593	3.96
340.964	3.86
341.336	4.8
341.707	3.94
342.078	4.71
342.449	4.69
342.82	4.04
343.191	4.05
343.562	3.96
343.933	3.89
344.303	3.98
344.674	4.34
345.045	3.66
345.416	4.49
345.786	3.71
346.157	4.17
346.527	3.41
346.898	3.48
347.268	4.41
347.639	4.02
348.009	4.12
348.38	4.12
348.75	3.91
349.12	3.94
349.49	4.46
349.861	4.03
350.231	3.68
350.601	4.09
350.971	4.42
351.341	4.12
351.711	4.26
352.081	4.5
352.45	3.94
352.82	4.01
353.19	4.21
353.56	4.27
353.929	3.77
354.299	3.87
354.669	3.75
355.038	4.5
355.408	3.95
355.777	4.25
356.147	4.02
356.516	4.41
356.885	4.19
357.254	4.13
357.624	4.93
357.993	4.3
358.362	4.28
358.731	3.9
359.1	4.17
359.469	4.32
359.838	4.22
360.207	4.18
360.576	4.02
360.945	4.01
361.314	4.48
361.682	3.98
362.051	4.36
362.42	4.72
362.788	4.08
363.157	4.16
363.525	4.73
363.894	4.33
364.262	4.53
364.631	4.28
364.999	4.39
365.367	4.06
365.735	5.04
366.104	4.54
366.472	4.49
366.84	4.26
367.208	4.12
367.576	4.75
367.944	4.57
368.312	3.92
368.68	4.17
369.048	4.33
369.416	4.51
369.783	4.17
370.151	4.87
370.519	4.6
370.886	4.67
371.254	4.37
371.621	4.22
371.989	4.72
372.356	3.81
372.724	4.78
373.091	4.21
373.458	4.53
373.826	4.2
374.193	4.35
374.56	4.5
374.927	4.51
375.294	4.41
375.661	4.35
376.028	4.02
376.395	4.35
376.762	4.2
377.129	4.67
377.496	4.57
377.863	4.32
378.229	4.13
378.596	4.6
378.963	4.31
379.329	4.23
379.696	4.79
380.062	4.5
380.429	4.88
380.795	4.27
381.161	4.4
381.528	4.3
381.894	4.52
382.26	4.15
382.626	4.59
382.993	3.96
383.359	4.81
383.725	4.52
384.091	4.28
384.457	4.74
384.823	4.54
385.188	4.45
385.554	4.26
385.92	4.45
386.286	4.91
386.651	4.77
387.017	4.65
387.383	4.5
387.748	4.6
388.114	4.55
388.479	4.25
388.845	4.63
389.21	4.35
389.575	4.68
389.94	4.44
390.306	4.76
390.671	4.79
391.036	4.22
391.401	4.23
391.766	4.58
392.131	4.46
392.496	4.63
392.861	4.32
393.226	4.78
393.591	4.57
393.956	4.64
394.32	4.8
394.685	4.38
395.05	4.44
395.414	4.72
395.779	4.21
396.143	4.53
396.508	4.57
396.872	4.86
397.236	4.7
397.601	4.28
397.965	4.52
398.329	4.82
398.694	4.77
399.058	4.74
399.422	4.57
399.786	4.81
400.15	4.6
400.514	5.14
400.878	4.83
401.242	4.84
401.605	4.84
401.969	4.58
402.333	4.77
402.697	4.65
403.06	4.63
403.424	4.68
403.787	4.59
404.151	4.76
404.514	4.8
404.878	4.68
405.241	4.72
405.604	4.85
405.968	4.82
406.331	4.75
406.694	4.88
407.057	4.76
407.42	4.68
407.783	4.53
408.146	4.94
408.509	4.65
408.872	4.55
409.235	4.75
409.598	4.89
409.961	4.89
410.323	4.84
410.686	4.6
411.049	4.55
411.411	4.72
411.774	4.77
412.136	4.7
412.499	4.65
412.861	4.58
413.223	4.69
413.586	4.71
413.948	4.87
414.31	4.67
414.672	4.81
415.035	4.71
415.397	5
415.759	4.85
416.121	4.88
416.483	4.64
416.845	4.71
417.206	4.85
417.568	4.76
417.93	4.52
418.292	4.88
418.653	4.79
419.015	4.79
419.377	4.76
419.738	4.76
420.1	4.77
420.461	4.88
420.822	4.85
421.184	4.69
421.545	4.79
421.906	4.57
422.267	4.71
422.629	4.72
422.99	4.79
423.351	4.67
423.712	4.72
424.073	4.72
424.434	4.65
424.795	4.7
425.155	4.78
425.516	4.7
425.877	4.66
426.238	4.7
426.598	4.84
426.959	4.71
427.32	4.63
427.68	4.67
428.041	4.73
428.401	4.83
428.761	4.92
429.122	4.63
429.482	4.62
429.842	4.73
430.202	4.67
430.563	4.69
430.923	4.63
431.283	5.03
431.643	4.77
432.003	4.85
432.363	4.95
432.722	4.99
433.082	4.98
433.442	4.77
433.802	4.86
434.161	4.79
434.521	5.12
434.881	4.84
435.24	4.8
435.6	4.84
435.959	4.76
436.319	4.65
436.678	4.89
437.037	4.99
437.396	5.02
437.756	4.76
438.115	4.65
438.474	4.96
438.833	4.82
439.192	4.87
439.551	4.87
439.91	4.72
440.269	4.84
440.628	4.76
440.987	4.75
441.345	4.81
441.704	4.9
442.063	4.67
442.421	4.84
442.78	4.72
443.138	4.84
443.497	4.75
443.855	4.96
444.214	4.67
444.572	4.88
444.93	4.9
445.288	4.91
445.647	4.93
446.005	4.66
446.363	4.92
446.721	5.01
447.079	4.72
447.437	4.83
447.795	4.95
448.153	4.86
448.51	4.79
448.868	4.81
449.226	4.91
449.584	4.96
449.941	4.94
450.299	4.89
450.656	5.06
451.014	4.85
451.371	4.8
451.729	4.73
452.086	5.09
452.443	4.84
452.801	4.91
453.158	4.93
453.515	5.01
453.872	4.91
454.229	4.86
454.586	4.7
454.943	4.94
455.3	4.95
455.657	4.98
456.014	4.85
456.371	4.86
456.727	5.01
457.084	5.06
457.441	4.86
457.797	4.83
458.154	4.81
458.51	5.02
458.867	5.07
459.223	5.04
459.58	4.83
459.936	4.95
460.292	4.91
460.648	4.85
461.005	4.7
461.361	4.87
461.717	4.88
462.073	4.78
462.429	4.87
462.785	4.9
463.141	4.75
463.496	4.82
463.852	4.93
464.208	5
464.564	4.95
464.919	4.91
465.275	4.92
465.631	5.07
465.986	4.85
466.342	4.8
466.697	4.64
467.052	4.88
467.408	5.02
467.763	4.8
468.118	4.86
468.473	4.81
468.829	4.86
469.184	4.8
469.539	4.77
469.894	4.8
470.249	5.09
470.603	4.87
470.958	5.09
471.313	5.03
471.668	5.12
472.023	4.75
472.377	4.99
472.732	4.78
473.086	4.91
473.441	4.77
473.795	5.22
474.15	4.93
474.504	4.72
474.859	5.05
475.213	4.74
475.567	4.72
475.921	4.73
476.275	5.09
476.63	5.07
476.984	4.88
477.338	5.04
477.692	4.87
478.045	4.83
478.399	4.76
478.753	5.06
479.107	4.86
479.461	4.83
479.814	5.05
480.168	4.96
480.521	4.84
480.875	4.84
481.228	4.85
481.582	4.95
481.935	4.73
482.289	4.9
482.642	5.05
482.995	4.81
483.348	4.92
483.701	4.87
484.055	4.91
484.408	5.01
484.761	4.84
485.114	4.82
485.466	4.6
485.819	4.58
486.172	4.63
486.525	4.66
486.878	4.73
487.23	4.77
487.583	4.81
487.936	4.85
488.288	4.73
488.641	4.82
488.993	4.73
489.345	4.71
489.698	4.69
490.05	4.68
490.402	4.75
490.754	4.77
491.107	4.87
491.459	4.94
491.811	4.95
492.163	4.83
492.515	4.82
492.866	4.93
493.218	4.79
493.57	4.7
493.922	4.7
494.274	4.81
494.625	4.91
494.977	4.91
495.328	5.05
495.68	4.93
496.031	5.04
496.383	4.94
496.734	5.01
497.086	4.87
497.437	4.99
497.788	4.94
498.139	4.82
498.49	4.85
498.842	4.82
499.193	4.87
499.544	4.92
499.894	4.77
500.245	4.93
500.596	4.89
500.947	4.97
501.298	4.94
501.648	5.01
501.999	5.15
502.35	4.83
502.7	5.05
503.051	4.75
503.401	5.01
503.752	5.07
504.102	4.94
504.452	5.13
504.803	4.92
505.153	4.95
505.503	4.97
505.853	5.03
506.203	4.88
506.553	4.95
506.903	4.86
507.253	4.95
507.603	4.97
507.953	4.94
508.303	5.16
508.652	4.77
509.002	5.03
509.352	5.05
509.701	4.95
510.051	4.89
510.4	4.89
510.75	5.11
511.099	4.85
511.449	4.84
511.798	4.86
512.147	4.89
512.496	4.95
512.846	4.93
513.195	4.81
513.544	4.92
513.893	4.95
514.242	4.97
514.591	5.11
514.939	4.87
515.288	4.88
515.637	4.97
515.986	4.97
516.334	4.89
516.683	4.97
517.032	4.91
517.38	4.97
517.729	5.13
518.077	4.94
518.426	5.18
518.774	5
519.122	4.85
519.47	4.94
519.819	4.82
520.167	4.9
520.515	4.8
520.863	5.03
521.211	4.93
521.559	5.04
521.907	4.92
522.255	4.92
522.602	4.95
522.95	4.96
523.298	4.96
523.645	5.01
523.993	5.08
524.341	5.08
524.688	5.11
525.036	4.98
525.383	5.15
525.73	5.13
526.078	5.08
526.425	4.93
526.772	5.09
527.119	4.83
527.466	4.89
527.814	4.97
528.161	5
528.508	5.08
528.854	4.96
529.201	4.92
529.548	4.91
529.895	4.84
530.242	4.75
530.588	4.77
530.935	4.78
531.282	4.79
531.628	4.83
531.975	4.91
532.321	4.92
532.667	4.93
533.014	5.03
533.36	4.98
533.706	4.98
534.052	4.99
534.399	4.85
534.745	4.91
535.091	4.89
535.437	4.86
535.783	4.86
536.129	4.99
536.474	4.95
536.82	4.93
537.166	4.91
537.512	5.02
537.857	4.87
538.203	5.04
538.549	4.97
538.894	4.88
539.239	5.01
539.585	4.93
539.93	4.96
540.276	5.22
540.621	5.05
540.966	5
541.311	5.09
541.656	5
542.001	4.91
542.346	5.1
542.691	4.86
543.036	4.86
543.381	4.74
543.726	4.83
544.071	4.97
544.415	5.02
544.76	4.98
545.105	4.93
545.449	5.02
545.794	4.98
546.138	4.92
546.483	5.08
546.827	5.03
547.171	5.06
547.516	5.1
547.86	4.91
548.204	4.98
548.548	4.98
548.892	5.06
549.236	4.95
549.58	4.91
549.924	5.07
550.268	5.1
550.612	5.09
550.956	5.32
551.3	5
551.643	5.3
551.987	5.29
552.33	5.02
552.674	5.29
553.017	4.91
553.361	4.92
553.704	5.36
554.048	5.13
554.391	5.05
554.734	5.1
555.077	5.07
555.42	5.06
555.764	4.98
556.107	4.99
556.45	5.01
556.793	5.04
557.135	5.02
557.478	5.4
557.821	5.23
558.164	5.01
558.507	5
558.849	5
559.192	5.18
559.534	5.12
559.877	5.23
560.219	5.01
560.562	5.45
560.904	5.13
561.246	5.17
561.589	5.35
561.931	5.06
562.273	4.9
562.615	5.22
562.957	5.14
563.299	4.93
563.641	5.11
563.983	5.08
564.325	5.09
564.667	5.17
565.008	5.01
565.35	5.09
565.692	5.01
566.033	5.07
566.375	5.34
566.716	5.29
567.058	5.2
567.399	5.33
567.741	4.99
568.082	5.17
568.423	5.12
568.764	5.09
569.105	5.23
569.447	5.28
569.788	5.27
570.129	5.12
570.47	5.13
570.811	5.15
571.151	5.19
571.492	5.14
571.833	5.11
572.174	5.18
572.514	5.31
572.855	5.18
573.195	5.12
573.536	5.09
573.876	5.11
574.217	5.1
574.557	5.23
574.898	5.19
575.238	5.22
575.578	4.94
575.918	5.34
576.258	5.35
576.598	5.22
576.938	5.21
577.278	5.12
577.618	5.14
577.958	5.21
578.298	5.16
578.638	5.05
578.977	5.08
579.317	5.03
579.657	5.21
579.996	5.18
580.336	5.5
580.675	5.12
581.014	5.45
581.354	5.2
581.693	5.31
582.032	5.29
582.372	5.23
582.711	5.31
583.05	4.95
583.389	5.26
583.728	5.1
584.067	5.49
584.406	5.16
584.745	5.22
585.083	5.26
585.422	5.27
585.761	5.3
586.1	5.19
586.438	5.06
586.777	5.63
587.115	5.28
587.454	5.19
587.792	5.29
588.13	5.47
588.469	5.14
588.807	5.1
589.145	5.17
589.483	5.22
589.821	5.06
590.159	5.15
590.497	5.38
590.835	5.6
591.173	5.28
591.511	5.49
591.849	5.3
592.187	5.43
592.524	5.4
592.862	5.42
593.2	5.35
593.537	5.31
593.875	5.21
594.212	5.34
594.55	5.01
594.887	5.62
595.224	5.11
595.561	5.12
595.899	5.27
596.236	5.32
596.573	5.35
596.91	4.95
597.247	5.21
597.584	5.52
597.921	5.42
598.258	5.1
598.594	5.32
598.931	5.23
599.268	5.3
599.604	5.24
599.941	5.51
600.277	5.36
600.614	5.02
600.95	5.11
601.287	5.13
601.623	5.11
601.959	5.29
602.296	5.31
602.632	5.08
602.968	5.27
603.304	5.39
603.64	5.1
603.976	5.46
604.312	5.14
604.648	5.06
604.984	5.56
605.319	5.3
605.655	5.23
605.991	5.3
606.326	5.32
606.662	5.38
606.998	5.09
607.333	5.42
607.668	5.38
608.004	5.45
608.339	5.63
608.674	5.48
609.01	5.28
609.345	5.38
609.68	5.6
610.015	5.25
610.35	5.22
610.685	5.43
611.02	5.4
611.355	5.31
611.689	5.46
612.024	5.38
612.359	5.27
612.694	5.26
613.028	5.34
613.363	5.49
613.697	5.28
614.032	5.55
614.366	5.13
614.7	5.77
615.035	5.53
615.369	5.31
615.703	5.49
616.037	5.34
616.371	4.73
616.705	5.34
617.039	5.64
617.373	5.12
617.707	5.07
618.041	5.08
618.375	5.34
618.709	5.56
619.042	5.13
619.376	5.39
619.71	5.35
620.043	5.15
620.377	5.31
620.71	5.33
621.043	5.25
621.377	5.12
621.71	5.62
622.043	5.12
622.376	4.98
622.709	5.29
623.043	5.69
623.376	5.51
623.709	5.2
624.041	5.69
624.374	5.35
624.707	4.97
625.04	5.58
625.373	4.84
625.705	5.21
626.038	5.6
626.37	5.31
626.703	5.28
627.035	5.54
627.368	5.59
627.7	5.42
628.032	5.52
628.365	5.74
628.697	5.31
629.029	5.1
629.361	5.19
629.693	5.73
630.025	5.27
630.357	5.4
630.689	5.43
631.021	5.43
631.353	5.31
631.684	5.51
632.016	5.12
632.348	5.46
632.679	5.4
633.011	5.64
633.342	6.15
633.674	5.52
634.005	5.7
634.336	5.48
634.668	5.76
634.999	5.9
635.33	5.38
635.661	5.76
635.992	5.2
636.323	5.81
636.654	5.6
636.985	5.45
637.316	5.45
637.647	4.97
637.977	5.63
638.308	5.45
638.639	5.18
638.969	5.47
639.3	5.24
639.63	5.08
639.961	5.5
640.291	5.33
640.622	5.68
640.952	4.99
641.282	6.09
641.612	5.37
641.943	5.32
642.273	5.56
642.603	5.93
642.933	5.98
643.263	5.59
643.592	5.76
643.922	5.15
644.252	5.36
644.582	5.67
644.911	4.89
645.241	5.33
645.571	5.68
645.9	4.75
646.23	5.7
646.559	5.31
646.888	5.33
647.218	5.09
647.547	5.96
647.876	5.17
648.205	5.48
648.534	5.11
648.863	4.85
649.192	5.55
649.521	5.29
649.85	5.29
650.179	5.73
650.508	5.28
650.837	4.88
651.165	4.91
651.494	5.55
651.822	5.37
652.151	5.57
652.479	5.8
652.808	5.23
653.136	5.97
653.465	4.9
653.793	5.39
654.121	5.47
654.449	5.9
654.777	5.52
655.105	5.42
655.433	5.38
655.761	5.29
656.089	6.08
656.417	5.53
656.745	4.88
657.073	5.08
657.4	6.23
657.728	5.38
658.056	5.33
658.383	5.52
658.711	5.85
659.038	5.76
659.365	6.34
659.693	5.48
660.02	5.4
660.347	5.62
660.674	5.62
661.001	5.62
661.329	4.85
661.656	5.38
661.982	5.83
662.309	5.67
662.636	5.46
662.963	5.95
663.29	5.71
663.616	5.92
663.943	5.21
664.27	5.37
664.596	5.53
664.923	5.69
665.249	5.78
665.576	5.59
665.902	5.92
666.228	6.04
666.554	5.81
666.881	5.29
667.207	5.3
667.533	5.35
667.859	5.91
668.185	5.56
668.511	4.69
668.837	4.96
669.162	5.13
669.488	5.31
669.814	5.64
670.139	6.13
670.465	5.83
670.791	5.83
671.116	6.75
671.442	5.51
671.767	5.42
672.092	5.59
672.418	6.38
672.743	5.86
673.068	5.54
673.393	5.79
673.718	5.63
674.043	5.97
674.368	5.56
674.693	6.12
675.018	5.61
675.343	5.41
675.667	4.9
675.992	5.9
676.317	5.75
676.641	6.25
676.966	6.12
677.29	5.83
677.615	6.13
677.939	6.33
678.264	5.79
678.588	5.81
678.912	5.96
679.236	6.41
679.56	4.74
679.885	5.85
680.209	5.4
680.532	5.47
680.856	6.59
681.18	6.14
681.504	6.06
681.828	6.24
682.152	6.02
682.475	5.39
682.799	5.94
683.122	5.85
683.446	5.83
683.769	6.39
684.093	5.73
684.416	6.52
684.739	5.94
685.062	5.12
685.386	7.01
685.709	5.69
686.032	5.85
686.355	6.86
686.678	5.74
687.001	6.08
687.324	6.05
687.646	5.54
687.969	5.33
688.292	5.86
688.614	5.29
688.937	6.65
689.26	5
689.582	6.39
689.904	6.23
690.227	5.97
690.549	5.86
690.871	6.53
691.194	5.32
691.516	5.77
