Data from 0206_forehead_Reflection__4__323.txt Node

Date: Fri Dec 15 19:37:17 CST 2023
User: ToomeyLab
Spectrometer: FLMS14357
Trigger mode: 0
Integration Time (sec): 1.000000E-2
Scans to average: 100
Electric dark correction enabled: true
Nonlinearity correction enabled: false
Boxcar width: 0
XAxis mode: Wavelengths
Number of Pixels in Spectrum: 2048
>>>>>Begin Spectral Data<<<<<
189.047	196.43
189.435	196.43
189.823	196.43
190.211	-222.41
190.599	109.6
190.987	6.62
191.375	-187.64
191.763	311.3
192.151	827.5
192.538	102.27
192.926	-167.03
193.314	806.39
193.702	-74.58
194.089	17.2
194.477	31.45
194.864	-499.44
195.252	29.31
195.639	148.55
196.027	1471.54
196.414	275.77
196.801	100.11
197.189	-47.99
197.576	-32.17
197.963	-412.18
198.351	-30.99
198.738	-113.86
199.125	-17.98
199.512	-33.62
199.899	42.96
200.286	-10.52
200.673	10.55
201.06	59.51
201.447	-50.26
201.833	-1.2
202.22	-0.94
202.607	39.79
202.994	25.25
203.38	32.55
203.767	52.99
204.154	31.53
204.54	-1.57
204.927	-20.31
205.313	-12.47
205.699	16.72
206.086	54.24
206.472	26.91
206.858	11.38
207.245	29.64
207.631	26.59
208.017	10.29
208.403	-61.3
208.789	65.14
209.175	7.23
209.561	-12.59
209.947	2.49
210.333	-98.09
210.719	66.89
211.105	42.47
211.491	-58.82
211.876	-2.65
212.262	4.44
212.648	6.21
213.034	14.88
213.419	-25.11
213.805	-5.01
214.19	-32.55
214.576	18.18
214.961	-14.14
215.346	-59.75
215.732	-15.31
216.117	16.98
216.502	-14.24
216.888	-32.47
217.273	47.49
217.658	4.87
218.043	14.47
218.428	-0.9
218.813	-32.67
219.198	-96.56
219.583	-16.31
219.968	22.93
220.353	-26.87
220.738	23.79
221.122	17.92
221.507	-28.1
221.892	-38.42
222.276	-6.01
222.661	6.83
223.046	0.37
223.43	5.02
223.815	10.95
224.199	-5.05
224.583	-5.88
224.968	-7.48
225.352	8.76
225.736	-2.87
226.121	-14.92
226.505	11.73
226.889	-3.96
227.273	-4.95
227.657	4.77
228.041	8.01
228.425	3.71
228.809	8.24
229.193	9.18
229.577	3.11
229.961	5.03
230.344	4.23
230.728	3.56
231.112	4.37
231.495	3.68
231.879	3.32
232.263	3.53
232.646	5.18
233.03	3.98
233.413	2.55
233.797	4.76
234.18	3.1
234.563	4.54
234.946	4.87
235.33	6.36
235.713	6.09
236.096	3.23
236.479	4.4
236.862	2.74
237.245	3.39
237.628	4.01
238.011	4.24
238.394	5.78
238.777	5.68
239.16	3.49
239.543	4.95
239.925	5.57
240.308	5.97
240.691	5.14
241.073	3.72
241.456	3.28
241.838	2.91
242.221	4.8
242.603	4.96
242.986	4.84
243.368	4.38
243.75	4.75
244.133	3.55
244.515	4.9
244.897	4.11
245.279	5.16
245.661	4.39
246.043	3.77
246.425	2.55
246.807	5.02
247.189	5.03
247.571	4.89
247.953	4.54
248.335	4.19
248.717	4.26
249.098	4.21
249.48	4.08
249.862	3.95
250.243	4.25
250.625	4.29
251.006	4.06
251.388	3.19
251.769	4.47
252.151	5.25
252.532	4.11
252.913	4.05
253.295	3.8
253.676	4.92
254.057	4.73
254.438	4.25
254.819	4.08
255.2	3.2
255.581	3.99
255.962	3.01
256.343	4.02
256.724	3.37
257.105	4.77
257.486	4.1
257.867	4.48
258.247	5.07
258.628	4.54
259.009	3.94
259.389	3.7
259.77	3.69
260.15	3.2
260.531	3.78
260.911	4.68
261.292	4.09
261.672	4.23
262.052	4.48
262.432	4.41
262.813	4.14
263.193	4.07
263.573	3.54
263.953	3.77
264.333	4.72
264.713	4.06
265.093	3.5
265.473	3.78
265.853	2.94
266.233	4.18
266.612	2.82
266.992	3.19
267.372	4.45
267.752	4.23
268.131	4.32
268.511	4.21
268.89	4.28
269.27	3.38
269.649	4
270.029	3.37
270.408	4.42
270.787	4.03
271.167	4.22
271.546	4.17
271.925	3.5
272.304	4.23
272.683	4.41
273.062	3.84
273.441	4.07
273.82	3.17
274.199	4.33
274.578	4.48
274.957	3.95
275.336	3.63
275.715	4.46
276.093	3.91
276.472	4.29
276.851	3.9
277.229	3.39
277.608	3.6
277.986	4.01
278.365	4.05
278.743	3.87
279.122	3.5
279.5	3.93
279.878	4.6
280.257	4.23
280.635	3.7
281.013	3.79
281.391	4.22
281.769	3.77
282.147	3.51
282.525	4.71
282.903	3.65
283.281	4.15
283.659	4.37
284.037	3.7
284.415	4.29
284.792	3.9
285.17	3.22
285.548	3.4
285.925	3.87
286.303	3.87
286.68	3.83
287.058	3.42
287.435	3.76
287.813	3.66
288.19	3.98
288.567	3.86
288.945	4.3
289.322	3.89
289.699	3.79
290.076	3.59
290.453	3.37
290.83	3.46
291.207	3.71
291.584	3.94
291.961	4.24
292.338	3.69
292.715	4.18
293.092	3.89
293.469	3.84
293.845	3.76
294.222	3.47
294.599	4.04
294.975	3.38
295.352	4.88
295.728	3.49
296.105	3.6
296.481	4.42
296.858	3.95
297.234	3.81
297.61	4.25
297.986	3.85
298.363	4.42
298.739	4.38
299.115	4.15
299.491	3.73
299.867	4.02
300.243	3.98
300.619	4.02
300.995	4.07
301.371	4.05
301.746	3.7
302.122	4.4
302.498	3.98
302.874	3.61
303.249	4.03
303.625	4.74
304	4.51
304.376	4.19
304.751	3.28
305.127	4.8
305.502	3.56
305.878	3.43
306.253	4.02
306.628	4.66
307.003	3.94
307.378	4.46
307.754	4.22
308.129	3.49
308.504	4.27
308.879	3.76
309.254	5.25
309.629	4.3
310.003	4.48
310.378	4.94
310.753	4.47
311.128	4.82
311.502	4.5
311.877	4.84
312.252	4.32
312.626	4.4
313.001	4.12
313.375	4.78
313.75	4.21
314.124	4.76
314.498	4.43
314.873	4.66
315.247	4.33
315.621	4.82
315.995	3.92
316.369	4.61
316.743	4.63
317.117	5.26
317.491	4.7
317.865	4.78
318.239	4.29
318.613	4.55
318.987	4.89
319.361	4.26
319.734	5.77
320.108	5.29
320.482	4.73
320.855	4.96
321.229	5.1
321.602	4.81
321.976	5.28
322.349	5.23
322.723	5.23
323.096	5.82
323.469	4.12
323.843	5.52
324.216	5.98
324.589	4.95
324.962	5.22
325.335	5.71
325.708	5.01
326.081	4.88
326.454	5.42
326.827	4.94
327.2	5.06
327.573	5.32
327.945	5.45
328.318	4.82
328.691	4.52
329.063	5.29
329.436	4.99
329.809	5.86
330.181	5.34
330.553	4.93
330.926	5.14
331.298	5.97
331.671	5
332.043	6.11
332.415	5.36
332.787	5.33
333.159	6.3
333.532	5.26
333.904	5.48
334.276	5.4
334.648	5.28
335.02	5.48
335.391	5.38
335.763	5.57
336.135	5.92
336.507	6.15
336.879	5.27
337.25	4.98
337.622	5.17
337.993	5.49
338.365	6.38
338.736	5.8
339.108	6
339.479	5.61
339.851	6.2
340.222	5.95
340.593	5.75
340.964	5.34
341.336	6.37
341.707	5.63
342.078	6.12
342.449	6.37
342.82	6.11
343.191	6.07
343.562	6.06
343.933	5.91
344.303	5.99
344.674	5.43
345.045	5.85
345.416	6.47
345.786	5.55
346.157	6.1
346.527	5.55
346.898	5.63
347.268	6.48
347.639	6.38
348.009	5.91
348.38	5.48
348.75	5.8
349.12	5.56
349.49	6.6
349.861	6.27
350.231	5.69
350.601	6.21
350.971	6.17
351.341	5.89
351.711	6.37
352.081	6.17
352.45	5.95
352.82	6.08
353.19	5.75
353.56	5.98
353.929	6.2
354.299	6.21
354.669	5.99
355.038	6.59
355.408	6.15
355.777	6.55
356.147	6.07
356.516	6.38
356.885	6.34
357.254	6.74
357.624	6.9
357.993	6.69
358.362	6.3
358.731	6.07
359.1	6.27
359.469	6.84
359.838	6.39
360.207	6.44
360.576	6.48
360.945	6.69
361.314	6.47
361.682	6.39
362.051	6.74
362.42	6.8
362.788	6.6
363.157	6.98
363.525	6.72
363.894	6.92
364.262	6.82
364.631	6.7
364.999	6.66
365.367	6.2
365.735	7.32
366.104	6.93
366.472	7.05
366.84	6.72
367.208	6.5
367.576	7.3
367.944	7.15
368.312	6.62
368.68	6.72
369.048	7.08
369.416	6.86
369.783	6.89
370.151	7.33
370.519	7.26
370.886	7.58
371.254	6.91
371.621	7.44
371.989	7.28
372.356	6.79
372.724	7.07
373.091	6.87
373.458	7.15
373.826	6.82
374.193	7.09
374.56	7.12
374.927	7.46
375.294	7.17
375.661	7.39
376.028	7.11
376.395	7.22
376.762	7.74
377.129	7.52
377.496	7.49
377.863	7.51
378.229	7.13
378.596	7.6
378.963	7.09
379.329	7.44
379.696	7.53
380.062	7.51
380.429	7.32
380.795	7.53
381.161	7.39
381.528	7.97
381.894	7.59
382.26	7.44
382.626	7.83
382.993	7.7
383.359	7.86
383.725	7.63
384.091	7.35
384.457	8.14
384.823	7.67
385.188	7.87
385.554	7.71
385.92	8.24
386.286	7.99
386.651	8.1
387.017	8.33
387.383	7.87
387.748	7.9
388.114	8.05
388.479	7.72
388.845	8.07
389.21	7.98
389.575	8.41
389.94	8.19
390.306	8.15
390.671	8.34
391.036	7.66
391.401	7.71
391.766	8.37
392.131	8.27
392.496	8.28
392.861	8.23
393.226	8.35
393.591	8.07
393.956	8.23
394.32	7.99
394.685	8.03
395.05	8.25
395.414	8.6
395.779	8.18
396.143	8.36
396.508	8.47
396.872	8.33
397.236	8.69
397.601	8.25
397.965	8.51
398.329	8.45
398.694	8.53
399.058	8.82
399.422	8.33
399.786	8.73
400.15	8.65
400.514	8.65
400.878	8.73
401.242	8.91
401.605	8.68
401.969	8.69
402.333	8.65
402.697	9.19
403.06	8.72
403.424	8.73
403.787	8.59
404.151	9
404.514	8.81
404.878	8.82
405.241	9.1
405.604	8.95
405.968	8.72
406.331	8.85
406.694	9.05
407.057	9.02
407.42	9.2
407.783	8.92
408.146	9.07
408.509	8.67
408.872	8.98
409.235	9.16
409.598	9.4
409.961	9.14
410.323	8.95
410.686	9.2
411.049	9.02
411.411	9.3
411.774	9.03
412.136	9.25
412.499	9.23
412.861	8.98
413.223	9.1
413.586	9.32
413.948	9.44
414.31	9.33
414.672	8.96
415.035	9.33
415.397	9.57
415.759	9.49
416.121	9.68
416.483	9.29
416.845	9.59
417.206	9.46
417.568	9.51
417.93	9.25
418.292	9.53
418.653	9.54
419.015	9.63
419.377	9.71
419.738	9.77
420.1	9.68
420.461	9.5
420.822	9.69
421.184	9.63
421.545	9.61
421.906	9.45
422.267	9.58
422.629	9.49
422.99	9.62
423.351	9.55
423.712	9.66
424.073	9.75
424.434	9.75
424.795	9.71
425.155	9.82
425.516	9.78
425.877	9.83
426.238	9.74
426.598	9.89
426.959	9.98
427.32	9.95
427.68	9.97
428.041	10.08
428.401	10.24
428.761	10.19
429.122	10.18
429.482	10.07
429.842	10.47
430.202	10.42
430.563	10.48
430.923	10.32
431.283	10.4
431.643	10.5
432.003	10.22
432.363	10.38
432.722	10.32
433.082	10.38
433.442	10.5
433.802	10.42
434.161	10.52
434.521	10.68
434.881	10.62
435.24	10.5
435.6	10.54
435.959	10.41
436.319	10.39
436.678	10.61
437.037	10.65
437.396	10.72
437.756	10.76
438.115	10.69
438.474	11.02
438.833	10.69
439.192	11.03
439.551	11.2
439.91	10.86
440.269	11.02
440.628	10.6
440.987	10.86
441.345	10.84
441.704	10.81
442.063	10.91
442.421	11.02
442.78	10.88
443.138	10.89
443.497	11.04
443.855	11.07
444.214	11.15
444.572	11.25
444.93	11.23
445.288	11.18
445.647	11.37
446.005	11.18
446.363	11.39
446.721	11.42
447.079	11.16
447.437	11.14
447.795	11.23
448.153	11.09
448.51	11.16
448.868	11.18
449.226	11.25
449.584	11.27
449.941	11.37
450.299	11.44
450.656	11.49
451.014	11.53
451.371	11.52
451.729	11.36
452.086	11.84
452.443	11.8
452.801	11.88
453.158	11.77
453.515	11.56
453.872	12.08
454.229	11.85
454.586	11.55
454.943	12.04
455.3	11.95
455.657	11.91
456.014	11.99
456.371	11.96
456.727	12.17
457.084	12.3
457.441	12.14
457.797	12.11
458.154	12.32
458.51	12.53
458.867	12.39
459.223	12.39
459.58	12.33
459.936	12.29
460.292	12.36
460.648	12.2
461.005	12.1
461.361	12.16
461.717	12.08
462.073	11.99
462.429	12.28
462.785	12.43
463.141	12.4
463.496	12.37
463.852	12.71
464.208	12.64
464.564	12.66
464.919	12.74
465.275	12.54
465.631	12.88
465.986	12.71
466.342	12.77
466.697	12.58
467.052	12.95
467.408	12.91
467.763	12.93
468.118	13.03
468.473	12.81
468.829	12.79
469.184	12.88
469.539	12.88
469.894	12.95
470.249	13.03
470.603	13.25
470.958	13.11
471.313	13.29
471.668	13.41
472.023	13.23
472.377	13.15
472.732	13.31
473.086	13.33
473.441	13.25
473.795	13.53
474.15	13.33
474.504	13.48
474.859	13.53
475.213	13.26
475.567	13.48
475.921	13.34
476.275	13.61
476.63	13.54
476.984	13.5
477.338	13.77
477.692	13.51
478.045	13.56
478.399	13.59
478.753	13.67
479.107	13.85
479.461	13.72
479.814	13.74
480.168	13.7
480.521	13.82
480.875	13.74
481.228	13.71
481.582	13.74
481.935	13.93
482.289	13.94
482.642	13.81
482.995	13.76
483.348	13.68
483.701	13.84
484.055	13.77
484.408	13.89
484.761	13.69
485.114	13.49
485.466	13.2
485.819	13.1
486.172	13.25
486.525	13.43
486.878	13.66
487.23	13.78
487.583	13.98
487.936	13.99
488.288	14
488.641	13.85
488.993	13.69
489.345	13.72
489.698	13.71
490.05	13.77
490.402	13.93
490.754	14.07
491.107	14.16
491.459	14.37
491.811	14.41
492.163	14.68
492.515	14.46
492.866	14.4
493.218	14.34
493.57	14.03
493.922	14.21
494.274	14.38
494.625	14.6
494.977	14.81
495.328	14.94
495.68	14.91
496.031	15.21
496.383	15.18
496.734	15.26
497.086	15.32
497.437	15.19
497.788	15.13
498.139	15.3
498.49	15.23
498.842	15.16
499.193	15.32
499.544	15.3
499.894	15.33
500.245	15.25
500.596	15.34
500.947	15.52
501.298	15.5
501.648	15.53
501.999	15.64
502.35	15.65
502.7	15.61
503.051	15.63
503.401	15.62
503.752	15.89
504.102	15.84
504.452	15.88
504.803	16.11
505.153	16.02
505.503	15.97
505.853	15.86
506.203	15.92
506.553	16.02
506.903	16.06
507.253	16.01
507.603	16
507.953	16.3
508.303	16.39
508.652	16.04
509.002	16.34
509.352	16.36
509.701	16.18
510.051	16.19
510.4	16.33
510.75	16.3
511.099	16.33
511.449	16.22
511.798	16.32
512.147	16.56
512.496	16.45
512.846	16.61
513.195	16.55
513.544	16.56
513.893	16.49
514.242	16.61
514.591	16.83
514.939	16.61
515.288	16.62
515.637	17.02
515.986	16.93
516.334	16.77
516.683	16.83
517.032	17.17
517.38	17.08
517.729	17.05
518.077	16.97
518.426	17.03
518.774	17.14
519.122	17.01
519.47	16.98
519.819	16.89
520.167	16.88
520.515	16.84
520.863	16.94
521.211	17.1
521.559	17.22
521.907	17.19
522.255	17.38
522.602	17.35
522.95	17.32
523.298	17.6
523.645	17.56
523.993	17.7
524.341	17.72
524.688	17.53
525.036	17.63
525.383	17.77
525.73	17.79
526.078	17.7
526.425	17.65
526.772	17.69
527.119	17.52
527.466	17.49
527.814	17.43
528.161	17.58
528.508	17.77
528.854	17.55
529.201	17.66
529.548	17.49
529.895	17.35
530.242	16.97
530.588	17.01
530.935	17.15
531.282	17.33
531.628	17.44
531.975	17.68
532.321	17.78
532.667	17.89
533.014	18.02
533.36	18.12
533.706	18.05
534.052	18.15
534.399	18.04
534.745	17.95
535.091	17.79
535.437	17.9
535.783	18
536.129	18.11
536.474	18.28
536.82	18.48
537.166	18.45
537.512	18.54
537.857	18.63
538.203	18.45
538.549	18.4
538.894	18.45
539.239	18.56
539.585	18.77
539.93	18.68
540.276	18.94
540.621	18.99
540.966	19.18
541.311	19.02
541.656	19
542.001	19.02
542.346	18.95
542.691	18.82
543.036	18.46
543.381	18.35
543.726	18.46
544.071	18.67
544.415	18.93
544.76	18.86
545.105	18.98
545.449	19.09
545.794	19.26
546.138	19.29
546.483	19.54
546.827	19.56
547.171	19.5
547.516	19.69
547.86	19.52
548.204	19.51
548.548	19.39
548.892	19.49
549.236	19.65
549.58	19.75
549.924	19.91
550.268	20.29
550.612	20.23
550.956	20.45
551.3	20.26
551.643	20.35
551.987	20.34
552.33	20.22
552.674	20.71
553.017	20.43
553.361	20.27
553.704	20.51
554.048	20.29
554.391	20.5
554.734	20.37
555.077	20.6
555.42	20.38
555.764	20.44
556.107	20.54
556.45	20.52
556.793	20.78
557.135	20.94
557.478	21.08
557.821	21.08
558.164	20.77
558.507	21.03
558.849	21.06
559.192	21.27
559.534	20.93
559.877	21.2
560.219	21.08
560.562	21.19
560.904	20.96
561.246	21.47
561.589	21.35
561.931	21.53
562.273	21.53
562.615	21.47
562.957	21.5
563.299	21.14
563.641	21.28
563.983	21.58
564.325	21.43
564.667	21.53
565.008	21.69
565.35	21.47
565.692	21.77
566.033	21.59
566.375	21.91
566.716	21.8
567.058	21.8
567.399	21.81
567.741	21.43
568.082	21.64
568.423	21.44
568.764	21.74
569.105	21.79
569.447	21.87
569.788	21.86
570.129	21.75
570.47	22.09
570.811	22.19
571.151	21.98
571.492	22.29
571.833	22.26
572.174	22.18
572.514	22.41
572.855	22.24
573.195	22.14
573.536	22.27
573.876	21.81
574.217	22.2
574.557	22.35
574.898	22.38
575.238	22.41
575.578	22.47
575.918	22.65
576.258	22.68
576.598	22.74
576.938	22.62
577.278	22.53
577.618	22.47
577.958	22.8
578.298	22.75
578.638	22.85
578.977	22.93
579.317	22.88
579.657	23.01
579.996	23.13
580.336	23.1
580.675	23.15
581.014	23.35
581.354	23.36
581.693	23.18
582.032	23.25
582.372	23.04
582.711	23.44
583.05	23.28
583.389	23.64
583.728	23.4
584.067	23.71
584.406	24.08
584.745	23.6
585.083	23.7
585.422	23.84
585.761	23.86
586.1	23.72
586.438	23.58
586.777	24.19
587.115	23.93
587.454	23.89
587.792	24.09
588.13	23.97
588.469	23.99
588.807	23.94
589.145	23.97
589.483	23.9
589.821	23.98
590.159	24.3
590.497	24.52
590.835	24.45
591.173	23.72
591.511	24.43
591.849	24.37
592.187	24.05
592.524	24.11
592.862	24.36
593.2	24.4
593.537	24.67
593.875	24.44
594.212	24.61
594.55	24.42
594.887	24.74
595.224	24.84
595.561	24.67
595.899	24.4
596.236	24.68
596.573	24.66
596.91	24.6
597.247	24.54
597.584	24.75
597.921	24.7
598.258	24.72
598.594	24.85
598.931	24.6
599.268	24.75
599.604	24.84
599.941	24.94
600.277	25.01
600.614	25.08
600.95	25.08
601.287	25.23
601.623	25.22
601.959	25.09
602.296	25.1
602.632	25.11
602.968	25.38
603.304	25.42
603.64	25.3
603.976	25.41
604.312	25.45
604.648	25.14
604.984	25.36
605.319	25.12
605.655	25.26
605.991	25.35
606.326	25.54
606.662	25.19
606.998	25.45
607.333	25.44
607.668	25.56
608.004	25.72
608.339	25.83
608.674	26.01
609.01	25.68
609.345	25.66
609.68	26.13
610.015	25.77
610.35	25.94
610.685	26.01
611.02	25.69
611.355	25.75
611.689	25.54
612.024	26.04
612.359	25.9
612.694	26.11
613.028	25.87
613.363	26.13
613.697	26.58
614.032	26.52
614.366	26.65
614.7	26.59
615.035	26.45
615.369	26.36
615.703	26.49
616.037	26.23
616.371	26.12
616.705	26.33
617.039	26.55
617.373	26.44
617.707	26.56
618.041	26.71
618.375	26.75
618.709	27.22
619.042	26.64
619.376	26.95
619.71	27.16
620.043	26.73
620.377	26.82
620.71	27.18
621.043	27.33
621.377	27.11
621.71	27.11
622.043	27.03
622.376	26.82
622.709	27.33
623.043	27.58
623.376	26.99
623.709	27.25
624.041	27.54
624.374	27.11
624.707	27.63
625.04	27.24
625.373	27.07
625.705	27.24
626.038	27.36
626.37	27.49
626.703	27.51
627.035	27.69
627.368	27.63
627.7	27.3
628.032	27.53
628.365	27.65
628.697	27.55
629.029	27.34
629.361	27.68
629.693	27.69
630.025	27.55
630.357	27.82
630.689	27.81
631.021	27.51
631.353	27.78
631.684	27.6
632.016	27.39
632.348	27.93
632.679	27.59
633.011	28.07
633.342	28.09
633.674	27.51
634.005	27.89
634.336	27.8
634.668	28.47
634.999	27.78
635.33	27.85
635.661	28.5
635.992	28.41
636.323	28.03
636.654	28.45
636.985	27.77
637.316	28.36
637.647	27.75
637.977	28.21
638.308	28.86
638.639	28.22
638.969	28.08
639.3	28.37
639.63	28.77
639.961	28.32
640.291	28.37
640.622	28.98
640.952	28.77
641.282	28.46
641.612	28.67
641.943	28.84
642.273	28.64
642.603	28.97
642.933	28.69
643.263	29.41
643.592	28.76
643.922	29.06
644.252	28.94
644.582	29.16
644.911	28.86
645.241	29.19
645.571	29.09
645.9	28.37
646.23	29.07
646.559	29.28
646.888	29.16
647.218	28.89
647.547	29.65
647.876	29.73
648.205	29.01
648.534	29.72
648.863	29.68
649.192	29.7
649.521	29.87
649.85	29.76
650.179	29.44
650.508	29.35
650.837	29.05
651.165	29.16
651.494	30.05
651.822	30.06
652.151	29.3
652.479	29.49
652.808	29.37
653.136	29.84
653.465	29.33
653.793	29.55
654.121	29.97
654.449	29.98
654.777	30.16
655.105	30.15
655.433	29.42
655.761	30.32
656.089	30.96
656.417	30.64
656.745	30.05
657.073	30.43
657.4	31.09
657.728	30.46
658.056	30.62
658.383	30.93
658.711	30.11
659.038	30.76
659.365	30.95
659.693	30.32
660.02	30.93
660.347	30.38
660.674	30.53
661.001	30.63
661.329	29.48
661.656	30.46
661.982	30.58
662.309	30.41
662.636	30.86
662.963	31.42
663.29	31.48
663.616	30.94
663.943	30.92
664.27	31.33
664.596	31.76
664.923	31.91
665.249	31.09
665.576	31.09
665.902	31.95
666.228	30.83
666.554	31.68
666.881	31.56
667.207	31.57
667.533	32.12
667.859	32.29
668.185	31.25
668.511	31.52
668.837	30.94
669.162	31.98
669.488	31.53
669.814	32.21
670.139	31.55
670.465	31.19
670.791	31.73
671.116	32.69
671.442	32.06
671.767	32.47
672.092	32.64
672.418	32.91
672.743	32.37
673.068	32.11
673.393	32.87
673.718	32.06
674.043	31.81
674.368	32.05
674.693	33.16
675.018	32.51
