Data from 0206_forehead_Reflection__0__319.txt Node

Date: Fri Dec 15 19:36:37 CST 2023
User: ToomeyLab
Spectrometer: FLMS14357
Trigger mode: 0
Integration Time (sec): 1.000000E-2
Scans to average: 100
Electric dark correction enabled: true
Nonlinearity correction enabled: false
Boxcar width: 0
XAxis mode: Wavelengths
Number of Pixels in Spectrum: 2048
>>>>>Begin Spectral Data<<<<<
189.047	18.77
189.435	18.77
189.823	18.77
190.211	137.97
190.599	108.15
190.987	39.67
191.375	327.83
191.763	-171.84
192.151	-32.5
192.538	139.53
192.926	-395.69
193.314	419.37
193.702	-9.62
194.089	-116.36
194.477	-78.51
194.864	-103.94
195.252	137.24
195.639	116.31
196.027	243.88
196.414	83.03
196.801	6.3
197.189	146.13
197.576	228.71
197.963	-259.02
198.351	-61.28
198.738	6.94
199.125	-2.87
199.512	-7.45
199.899	67.61
200.286	43.22
200.673	48.77
201.06	46.28
201.447	1.43
201.833	19.41
202.22	16.8
202.607	26.33
202.994	-22.07
203.38	36.85
203.767	40.16
204.154	42.17
204.54	30.39
204.927	-11.81
205.313	3.6
205.699	18.12
206.086	42.45
206.472	68.12
206.858	31.22
207.245	-34.73
207.631	29.14
208.017	41.69
208.403	-79.81
208.789	48.44
209.175	53.59
209.561	-9.66
209.947	21.11
210.333	-119.1
210.719	28.57
211.105	10.31
211.491	2.22
211.876	-36.18
212.262	8.91
212.648	-14.16
213.034	12.35
213.419	-3.7
213.805	-11.46
214.19	-15.26
214.576	-35.12
214.961	-15.94
215.346	-104.09
215.732	2.52
216.117	26.78
216.502	-32.09
216.888	41.22
217.273	32.5
217.658	-7.92
218.043	-17.32
218.428	-135.37
218.813	-20.05
219.198	-83.52
219.583	-0.66
219.968	-0.12
220.353	-25.83
220.738	24.68
221.122	31.91
221.507	11.86
221.892	-12.81
222.276	-24.46
222.661	13.81
223.046	16.21
223.43	10.46
223.815	16.66
224.199	-8.84
224.583	-9.21
224.968	3.69
225.352	1.58
225.736	3.09
226.121	-22.44
226.505	7.23
226.889	3.2
227.273	3.48
227.657	5.4
228.041	2.18
228.425	-3.22
228.809	4.79
229.193	2.75
229.577	-1.66
229.961	1.26
230.344	2.74
230.728	2.25
231.112	2.64
231.495	1.8
231.879	1.83
232.263	1.99
232.646	3.07
233.03	1.64
233.413	0.47
233.797	1.9
234.18	0.76
234.563	1.19
234.946	-0.88
235.33	4.03
235.713	3.74
236.096	2.7
236.479	4.76
236.862	1.21
237.245	3.54
237.628	2.32
238.011	2.51
238.394	1.93
238.777	1.39
239.16	2.49
239.543	2.64
239.925	2.96
240.308	3.11
240.691	2.55
241.073	3.64
241.456	2.39
241.838	2.64
242.221	1.8
242.603	2.03
242.986	2.18
243.368	2.96
243.75	2.87
244.133	2.29
244.515	3.1
244.897	2.45
245.279	2.68
245.661	1.51
246.043	1.49
246.425	0.92
246.807	3.82
247.189	3.18
247.571	2.39
247.953	2.82
248.335	2.54
248.717	2.62
249.098	2.41
249.48	2.62
249.862	2.46
250.243	2.96
250.625	2.81
251.006	2.72
251.388	1.72
251.769	2.38
252.151	3.58
252.532	1.99
252.913	3.17
253.295	1.59
253.676	2.8
254.057	2.45
254.438	2.53
254.819	2.16
255.2	0.86
255.581	2.98
255.962	2.15
256.343	2.47
256.724	1.45
257.105	1.82
257.486	2.01
257.867	2.87
258.247	2.42
258.628	2.15
259.009	2.48
259.389	2.25
259.77	2.59
260.15	2.06
260.531	1.77
260.911	3.05
261.292	2.54
261.672	2.88
262.052	2.75
262.432	2.89
262.813	2.84
263.193	2.39
263.573	1.46
263.953	2.4
264.333	3.23
264.713	2.48
265.093	2.16
265.473	1.58
265.853	2.13
266.233	2.56
266.612	-0.16
266.992	0.7
267.372	2.57
267.752	2.53
268.131	2.91
268.511	3.38
268.89	3
269.27	2.67
269.649	2.32
270.029	1.85
270.408	3.42
270.787	2.69
271.167	3.02
271.546	2.96
271.925	1.85
272.304	2.13
272.683	2.83
273.062	2.33
273.441	2.79
273.82	2.45
274.199	2.7
274.578	2.72
274.957	2.33
275.336	2.27
275.715	2.07
276.093	2.36
276.472	2.82
276.851	2.01
277.229	2.75
277.608	1.79
277.986	2.38
278.365	2.46
278.743	1.87
279.122	2.51
279.5	2.82
279.878	2.56
280.257	2.48
280.635	1.99
281.013	2.48
281.391	2.8
281.769	2.48
282.147	2.54
282.525	3.16
282.903	1.95
283.281	2.82
283.659	2.56
284.037	2.46
284.415	2.71
284.792	2.7
285.17	1.77
285.548	2.17
285.925	2.29
286.303	2.45
286.68	2.26
287.058	2.57
287.435	2.31
287.813	2.35
288.19	2.26
288.567	2.42
288.945	2.62
289.322	2.87
289.699	2.78
290.076	2.39
290.453	2.28
290.83	2.21
291.207	2.42
291.584	2.53
291.961	2.77
292.338	2.54
292.715	2.75
293.092	2.78
293.469	2.53
293.845	2.51
294.222	1.84
294.599	2.3
294.975	2.01
295.352	3
295.728	2.17
296.105	2.44
296.481	2.85
296.858	2.34
297.234	2.42
297.61	2.43
297.986	2.53
298.363	3.11
298.739	2.83
299.115	2.48
299.491	2.35
299.867	2.65
300.243	2.81
300.619	2
300.995	2.98
301.371	3.26
301.746	2.44
302.122	2.92
302.498	2.41
302.874	2.62
303.249	2.67
303.625	2.84
304	3.07
304.376	2.5
304.751	2.4
305.127	2.91
305.502	2.4
305.878	1.9
306.253	3.09
306.628	2.99
307.003	2.83
307.378	3.46
307.754	2.92
308.129	2.35
308.504	2.76
308.879	2.78
309.254	3.6
309.629	3.63
310.003	3.32
310.378	3.36
310.753	3.02
311.128	2.95
311.502	2.66
311.877	3.57
312.252	2.75
312.626	3.23
313.001	2.71
313.375	3.27
313.75	2.87
314.124	3.45
314.498	3.23
314.873	3.22
315.247	2.56
315.621	3.83
315.995	3.01
316.369	2.7
316.743	2.56
317.117	3.55
317.491	3.18
317.865	3.45
318.239	2.81
318.613	3.26
318.987	3.79
319.361	2.75
319.734	3.29
320.108	3.98
320.482	3.63
320.855	4
321.229	3.4
321.602	3.07
321.976	3.75
322.349	3.24
322.723	2.48
323.096	3.96
323.469	2.79
323.843	3.47
324.216	3.54
324.589	3.47
324.962	3.91
325.335	3.01
325.708	3.69
326.081	3.79
326.454	3.9
326.827	3.65
327.2	3.34
327.573	3.95
327.945	4.17
328.318	3.33
328.691	3.06
329.063	3.8
329.436	3.55
329.809	3.95
330.181	3.65
330.553	3.75
330.926	3.97
331.298	3.87
331.671	3.23
332.043	4.12
332.415	4
332.787	3.48
333.159	4.58
333.532	3.62
333.904	3.72
334.276	3.94
334.648	4.22
335.02	4.08
335.391	3.7
335.763	3.74
336.135	3.88
336.507	4.35
336.879	4.22
337.25	4.01
337.622	4.05
337.993	4.07
338.365	4.07
338.736	4.56
339.108	4.32
339.479	4.06
339.851	4.63
340.222	3.9
340.593	4.42
340.964	3.85
341.336	5.03
341.707	4.2
342.078	4.91
342.449	4.85
342.82	3.86
343.191	4.99
343.562	4.13
343.933	4.4
344.303	4.32
344.674	4.32
345.045	4.54
345.416	4.67
345.786	4.02
346.157	4.67
346.527	3.98
346.898	4.22
347.268	4.54
347.639	4.35
348.009	4.46
348.38	4.6
348.75	4.71
349.12	4.67
349.49	5.04
349.861	4.47
350.231	4.38
350.601	4.65
350.971	4.69
351.341	4.62
351.711	4.35
352.081	4.5
352.45	4.62
352.82	5.26
353.19	4.57
353.56	4.65
353.929	4.56
354.299	4.47
354.669	4.22
355.038	4.69
355.408	4.74
355.777	4.81
356.147	4.29
356.516	4.93
356.885	4.37
357.254	4.89
357.624	5.18
357.993	4.52
358.362	4.65
358.731	4.41
359.1	4.83
359.469	5.01
359.838	5.05
360.207	4.82
360.576	4.92
360.945	4.84
361.314	4.98
361.682	4.64
362.051	4.87
362.42	5.09
362.788	4.83
363.157	5.49
363.525	5.32
363.894	5.02
364.262	4.91
364.631	5.14
364.999	5.03
365.367	4.65
365.735	5.47
366.104	4.79
366.472	5.24
366.84	5.05
367.208	4.84
367.576	5.38
367.944	5.4
368.312	5.01
368.68	5.03
369.048	5.42
369.416	5.06
369.783	4.8
370.151	5.41
370.519	5.27
370.886	5.39
371.254	5.29
371.621	5.64
371.989	5.68
372.356	4.92
372.724	4.91
373.091	5.1
373.458	5.3
373.826	4.98
374.193	5.06
374.56	5.67
374.927	5.55
375.294	5.66
375.661	5.53
376.028	5.4
376.395	5.64
376.762	5.68
377.129	5.55
377.496	5.44
377.863	5.75
378.229	5.09
378.596	5.92
378.963	5.29
379.329	5.37
379.696	5.97
380.062	5.77
380.429	5.67
380.795	5.83
381.161	5.59
381.528	6.08
381.894	5.58
382.26	5.81
382.626	6.14
382.993	5.64
383.359	6.01
383.725	5.57
384.091	5.75
384.457	6.41
384.823	6
385.188	5.95
385.554	5.88
385.92	5.87
386.286	5.89
386.651	6.47
387.017	6.16
387.383	6.17
387.748	5.82
388.114	6.45
388.479	5.79
388.845	6.35
389.21	6.18
389.575	6.38
389.94	6.3
390.306	6.09
390.671	6.33
391.036	6
391.401	5.94
391.766	6.14
392.131	6.11
392.496	6.42
392.861	6.36
393.226	6.51
393.591	6.54
393.956	6.42
394.32	6.44
394.685	6.21
395.05	6.22
395.414	6.45
395.779	6.42
396.143	6.53
396.508	6.46
396.872	6.42
397.236	6.47
397.601	6.35
397.965	6.64
398.329	6.81
398.694	6.51
399.058	6.65
399.422	6.58
399.786	6.57
400.15	6.59
400.514	6.92
400.878	6.94
401.242	7.17
401.605	6.99
401.969	6.91
402.333	6.69
402.697	6.85
403.06	6.86
403.424	6.54
403.787	6.84
404.151	7.19
404.514	6.74
404.878	6.92
405.241	7.01
405.604	7.13
405.968	6.98
406.331	7.11
406.694	7.02
407.057	7.13
407.42	6.99
407.783	6.91
408.146	7.06
408.509	6.83
408.872	6.95
409.235	7.16
409.598	7.44
409.961	7.33
410.323	7.22
410.686	7.04
411.049	7.06
411.411	7.18
411.774	7.49
412.136	7.2
412.499	7.17
412.861	7.41
413.223	7.11
413.586	7.31
413.948	7.55
414.31	7.39
414.672	7.35
415.035	7.35
415.397	7.7
415.759	7.25
416.121	7.59
416.483	7.36
416.845	7.49
417.206	7.66
417.568	7.71
417.93	7.37
418.292	7.6
418.653	7.59
419.015	7.66
419.377	7.43
419.738	7.69
420.1	7.68
420.461	7.59
420.822	7.6
421.184	7.55
421.545	7.58
421.906	7.49
422.267	7.52
422.629	7.68
422.99	7.61
423.351	7.54
423.712	7.68
424.073	7.7
424.434	7.64
424.795	7.72
425.155	7.79
425.516	7.71
425.877	7.8
426.238	7.72
426.598	7.81
426.959	7.91
427.32	8
427.68	8.06
428.041	7.86
428.401	8.12
428.761	8.05
429.122	8.01
429.482	8
429.842	8.29
430.202	8.25
430.563	8.36
430.923	8.33
431.283	8.23
431.643	8.26
432.003	8.43
432.363	8.49
432.722	8.16
433.082	8.39
433.442	8.52
433.802	8.08
434.161	8.37
434.521	8.69
434.881	8.51
435.24	8.31
435.6	8.39
435.959	8.39
436.319	8.46
436.678	8.54
437.037	8.39
437.396	8.66
437.756	8.68
438.115	8.69
438.474	8.88
438.833	8.56
439.192	8.78
439.551	8.93
439.91	8.86
440.269	8.95
440.628	8.66
440.987	8.67
441.345	8.89
441.704	8.77
442.063	8.8
442.421	8.76
442.78	8.82
443.138	8.69
443.497	8.81
443.855	8.99
444.214	9.08
444.572	9.06
444.93	9.13
445.288	9.17
445.647	9.36
446.005	9.02
446.363	9.21
446.721	9.16
447.079	9.04
447.437	8.98
447.795	9.07
448.153	9.01
448.51	9.02
448.868	9.05
449.226	9.13
449.584	9.09
449.941	9.32
450.299	9.27
450.656	9.32
451.014	9.52
451.371	9.44
451.729	9.32
452.086	9.68
452.443	9.47
452.801	9.44
453.158	9.48
453.515	9.56
453.872	9.62
454.229	9.6
454.586	9.64
454.943	9.64
455.3	9.52
455.657	9.87
456.014	9.73
456.371	9.91
456.727	9.73
457.084	10.03
457.441	10
457.797	9.95
458.154	10.08
458.51	10.16
458.867	10.12
459.223	10
459.58	9.96
459.936	10.14
460.292	10.18
460.648	10.03
461.005	10.01
461.361	9.88
461.717	9.88
462.073	9.83
462.429	9.99
462.785	10.02
463.141	10.1
463.496	10.21
463.852	10.37
464.208	10.39
464.564	10.45
464.919	10.54
465.275	10.4
465.631	10.51
465.986	10.43
466.342	10.39
466.697	10.28
467.052	10.53
467.408	10.71
467.763	10.62
468.118	10.58
468.473	10.34
468.829	10.67
469.184	10.57
469.539	10.76
469.894	10.55
470.249	10.87
470.603	10.86
470.958	10.92
471.313	10.94
471.668	10.83
472.023	10.95
472.377	10.92
472.732	10.83
473.086	10.83
473.441	10.77
473.795	11.03
474.15	11.09
474.504	11.18
474.859	11.1
475.213	11.14
475.567	11.05
475.921	11.2
476.275	11.33
476.63	11.38
476.984	11.39
477.338	11.38
477.692	11.34
478.045	11.32
478.399	11.39
478.753	11.46
479.107	11.27
479.461	11.4
479.814	11.49
480.168	11.35
480.521	11.48
480.875	11.47
481.228	11.51
481.582	11.48
481.935	11.52
482.289	11.5
482.642	11.51
482.995	11.42
483.348	11.46
483.701	11.58
484.055	11.55
484.408	11.43
484.761	11.26
485.114	11.23
485.466	10.91
485.819	10.84
486.172	10.88
486.525	11
486.878	11.17
487.23	11.33
487.583	11.49
487.936	11.53
488.288	11.49
488.641	11.59
488.993	11.38
489.345	11.34
489.698	11.27
490.05	11.41
490.402	11.42
490.754	11.53
491.107	11.76
491.459	11.94
491.811	11.92
492.163	11.99
492.515	12
492.866	11.96
493.218	11.8
493.57	11.61
493.922	11.66
494.274	11.88
494.625	12.2
494.977	12.22
495.328	12.54
495.68	12.55
496.031	12.63
496.383	12.66
496.734	12.78
497.086	12.87
497.437	12.69
497.788	12.75
498.139	12.67
498.49	12.7
498.842	12.49
499.193	12.77
499.544	12.74
499.894	12.86
500.245	12.88
500.596	12.87
500.947	12.86
501.298	12.94
501.648	13.07
501.999	13.07
502.35	13.09
502.7	13.08
503.051	13.2
503.401	13.08
503.752	13.25
504.102	13.35
504.452	13.53
504.803	13.32
505.153	13.41
505.503	13.22
505.853	13.32
506.203	13.34
506.553	13.39
506.903	13.4
507.253	13.38
507.603	13.37
507.953	13.63
508.303	13.52
508.652	13.54
509.002	13.73
509.352	13.61
509.701	13.65
510.051	13.6
510.4	13.51
510.75	13.59
511.099	13.72
511.449	13.68
511.798	13.72
512.147	13.73
512.496	13.74
512.846	13.82
513.195	13.9
513.544	13.86
513.893	13.93
514.242	13.81
514.591	14.09
514.939	13.89
515.288	13.95
515.637	14.04
515.986	14.13
516.334	14.29
516.683	14.32
517.032	14.15
517.38	14.37
517.729	14.4
518.077	14.27
518.426	14.36
518.774	14.24
519.122	14.26
519.47	14.13
519.819	14.14
520.167	14.27
520.515	14.22
520.863	14.14
521.211	14.24
521.559	14.43
521.907	14.38
522.255	14.43
522.602	14.64
522.95	14.62
523.298	14.76
523.645	14.81
523.993	14.65
524.341	14.84
524.688	14.84
525.036	14.86
525.383	15
525.73	14.95
526.078	14.98
526.425	14.89
526.772	14.82
527.119	14.93
527.466	14.59
527.814	14.63
528.161	14.7
528.508	14.82
528.854	14.76
529.201	14.64
529.548	14.68
529.895	14.49
530.242	14.19
530.588	14.15
530.935	14.31
531.282	14.44
531.628	14.48
531.975	14.66
532.321	14.81
532.667	14.96
533.014	15.14
533.36	15.05
533.706	15.14
534.052	15.26
534.399	15.17
534.745	15.03
535.091	14.96
535.437	14.87
535.783	15.03
536.129	15.12
536.474	15.25
536.82	15.37
537.166	15.61
537.512	15.61
537.857	15.68
538.203	15.53
538.549	15.49
538.894	15.47
539.239	15.58
539.585	15.78
539.93	15.75
540.276	15.86
540.621	15.99
540.966	15.95
541.311	15.92
541.656	15.93
542.001	15.89
542.346	15.99
542.691	15.66
543.036	15.49
543.381	15.36
543.726	15.51
544.071	15.69
544.415	15.86
544.76	15.78
545.105	15.83
545.449	16.03
545.794	16.05
546.138	16.22
546.483	16.29
546.827	16.48
547.171	16.51
547.516	16.51
547.86	16.48
548.204	16.49
548.548	16.45
548.892	16.31
549.236	16.52
549.58	16.67
549.924	16.71
550.268	16.95
550.612	16.95
550.956	17.13
551.3	17.1
551.643	17.21
551.987	17.38
552.33	17.24
552.674	17.44
553.017	17.35
553.361	17.14
553.704	17.5
554.048	17.21
554.391	17.13
554.734	17.1
555.077	17.3
555.42	17.05
555.764	17.3
556.107	17.35
556.45	17.48
556.793	17.41
557.135	17.64
557.478	17.99
557.821	17.77
558.164	17.59
558.507	17.78
558.849	17.81
559.192	17.84
559.534	17.76
559.877	17.97
560.219	17.92
560.562	18.16
560.904	18.04
561.246	17.98
561.589	18.16
561.931	17.92
562.273	17.99
562.615	18.17
562.957	18.1
563.299	17.98
563.641	18.13
563.983	18.1
564.325	18.24
564.667	18.35
565.008	18.48
565.35	18.49
565.692	18.23
566.033	18.27
566.375	18.6
566.716	18.62
567.058	18.24
567.399	18.37
567.741	18.22
568.082	18.13
568.423	18.42
568.764	18.03
569.105	18.43
569.447	18.53
569.788	18.41
570.129	18.48
570.47	18.75
570.811	18.9
571.151	18.64
571.492	18.76
571.833	18.62
572.174	18.66
572.514	18.78
572.855	18.81
573.195	18.63
573.536	18.6
573.876	18.62
574.217	18.45
574.557	18.59
574.898	18.88
575.238	18.96
575.578	18.92
575.918	19.13
576.258	19.04
576.598	19.29
576.938	19.01
577.278	19.03
577.618	18.81
577.958	19.09
578.298	19.17
578.638	19.11
578.977	19.34
579.317	19.1
579.657	19.33
579.996	19.26
580.336	19.48
580.675	19.52
581.014	19.47
581.354	19.55
581.693	19.51
582.032	19.48
582.372	19.62
582.711	19.88
583.05	19.72
583.389	19.94
583.728	19.72
584.067	20.18
584.406	20.05
584.745	19.81
585.083	20.17
585.422	20.11
585.761	20.07
586.1	20
586.438	20.18
586.777	20.22
587.115	20.3
587.454	20.1
587.792	20.36
588.13	20.29
588.469	20.34
588.807	20.2
589.145	19.98
589.483	20.38
589.821	20.41
590.159	20.35
590.497	20.47
590.835	20.3
591.173	20.2
591.511	20.63
591.849	20.56
592.187	20.47
592.524	20.4
592.862	20.48
593.2	20.7
593.537	20.87
593.875	20.68
594.212	20.77
594.55	20.47
594.887	20.74
595.224	20.64
595.561	20.92
595.899	20.87
596.236	20.77
596.573	20.87
596.91	20.59
597.247	20.85
597.584	21.41
597.921	20.71
598.258	20.73
598.594	20.88
598.931	20.73
599.268	21.01
599.604	20.91
599.941	21.16
600.277	21.11
600.614	21.15
600.95	21.08
601.287	21.22
601.623	20.91
601.959	21.34
602.296	21.52
602.632	21.25
602.968	21.35
603.304	21.26
603.64	21.46
603.976	21.53
604.312	21.31
604.648	21.52
604.984	21.47
605.319	21.35
605.655	21.49
605.991	21.45
606.326	21.57
606.662	21.27
606.998	21.14
607.333	21.63
607.668	21.38
608.004	21.81
608.339	21.93
608.674	21.67
609.01	21.75
609.345	21.74
609.68	22.13
610.015	21.92
610.35	22.02
610.685	22.04
611.02	21.79
611.355	21.94
611.689	21.91
612.024	21.97
612.359	21.78
612.694	22.2
613.028	21.87
613.363	21.87
613.697	22.29
614.032	22.56
614.366	22.67
614.7	22.35
615.035	22.51
615.369	22.72
615.703	22.25
616.037	22.34
616.371	22.35
616.705	22.56
617.039	22.62
617.373	22.63
617.707	22.54
618.041	22.4
618.375	22.45
618.709	22.86
619.042	22.37
619.376	22.96
619.71	22.95
620.043	22.74
620.377	22.8
620.71	22.55
621.043	22.88
621.377	23.14
621.71	22.71
622.043	22.48
622.376	22.79
622.709	22.98
623.043	23.09
623.376	22.8
623.709	22.98
624.041	23.19
624.374	23.07
624.707	23.21
625.04	23.53
625.373	23.27
625.705	22.99
626.038	23.33
626.37	23.3
626.703	23.27
627.035	23.49
627.368	23
627.7	23.06
628.032	23.11
628.365	23.18
628.697	22.95
629.029	23.13
629.361	23.12
629.693	23.29
630.025	23.1
630.357	23.57
630.689	23.38
631.021	23.16
631.353	23.73
631.684	23.39
632.016	23.37
632.348	23.42
632.679	23.38
633.011	23.45
633.342	24.36
633.674	24
634.005	23.48
634.336	23.8
634.668	24.41
634.999	23.64
635.33	23.9
635.661	24.22
635.992	24.02
636.323	23.97
636.654	23.88
636.985	24.22
637.316	24
637.647	23.5
637.977	23.87
638.308	23.98
638.639	23.72
638.969	24.36
639.3	23.84
639.63	23.81
639.961	24.3
640.291	24.54
640.622	24.28
640.952	24.11
641.282	24.4
641.612	24.26
641.943	24.29
642.273	24.48
642.603	24.64
642.933	24.7
643.263	24.71
643.592	24.67
643.922	24.66
644.252	24.24
644.582	24.49
644.911	24.43
645.241	24.36
645.571	24.89
645.9	24.79
646.23	24.79
646.559	24.89
646.888	25.05
647.218	24.9
647.547	25.24
647.876	24.57
648.205	24.68
648.534	25.1
648.863	24.71
649.192	25.62
649.521	24.71
649.85	24.98
650.179	25.16
650.508	25.22
650.837	24.65
651.165	24.4
651.494	25.27
651.822	25.21
652.151	24.77
652.479	25.08
652.808	25.14
653.136	25.62
653.465	24.82
653.793	25.08
654.121	25.32
654.449	25.44
654.777	25.83
655.105	25.6
655.433	25.44
655.761	25.48
656.089	26.03
656.417	25.53
656.745	25.41
657.073	25.69
657.4	26.41
657.728	25.85
658.056	25.16
658.383	25.57
658.711	25.88
659.038	25.92
659.365	26.09
659.693	26.26
660.02	25.97
660.347	25.5
660.674	25.77
661.001	25.91
661.329	25.31
661.656	26.14
661.982	26.39
662.309	26.28
662.636	25.95
662.963	26.7
663.29	26.34
663.616	26.15
663.943	26.18
664.27	26.36
664.596	27.09
664.923	26.5
665.249	26.6
665.576	26.47
665.902	27.23
666.228	26.27
666.554	27.42
666.881	26.26
667.207	27.14
667.533	26.38
667.859	27.3
668.185	27.22
668.511	26.83
668.837	26.09
669.162	26.66
669.488	26.79
669.814	26.93
670.139	26.98
670.465	27.44
670.791	26.64
671.116	28.38
671.442	27.5
671.767	27.54
672.092	27.13
672.418	27.17
672.743	28.13
673.068	26.75
673.393	26.79
673.718	27.61
674.043	27.22
674.368	27.19
674.693	28.15
675.018	26.89
675.343	27.5
675.667	27.94
675.992	28.01
676.317	27.46
676.641	27.12
676.966	27.25
677.29	27.43
