Data from 0206_forehead_Reflection__2__321.txt Node

Date: Fri Dec 15 19:36:57 CST 2023
User: ToomeyLab
Spectrometer: FLMS14357
Trigger mode: 0
Integration Time (sec): 1.000000E-2
Scans to average: 100
Electric dark correction enabled: true
Nonlinearity correction enabled: false
Boxcar width: 0
XAxis mode: Wavelengths
Number of Pixels in Spectrum: 2048
>>>>>Begin Spectral Data<<<<<
189.047	65.16
189.435	65.16
189.823	65.16
190.211	-199.76
190.599	440.04
190.987	20.85
191.375	-78.25
191.763	87.2
192.151	1165.28
192.538	124.49
192.926	223.61
193.314	614.03
193.702	-12.94
194.089	229.28
194.477	39.99
194.864	133
195.252	53.98
195.639	184.23
196.027	794.95
196.414	389.73
196.801	-8.33
197.189	284.56
197.576	111.13
197.963	-240.03
198.351	-32.69
198.738	-97.31
199.125	-9.77
199.512	-23.19
199.899	75.01
200.286	23.84
200.673	-0.72
201.06	-20.49
201.447	-5.39
201.833	-38.06
202.22	31.36
202.607	27.06
202.994	-2.98
203.38	27.81
203.767	39.49
204.154	26.47
204.54	8.53
204.927	-63.91
205.313	-53.7
205.699	-13.87
206.086	19.36
206.472	24.06
206.858	-44.2
207.245	-74.22
207.631	19.85
208.017	21.84
208.403	-5.65
208.789	46.32
209.175	9.38
209.561	-14.85
209.947	38.83
210.333	-75.9
210.719	43.47
211.105	34.95
211.491	-54.26
211.876	-16.96
212.262	16.78
212.648	-10.34
213.034	-10.1
213.419	-88.47
213.805	-14.39
214.19	-69.29
214.576	-78.38
214.961	-45.74
215.346	-74.5
215.732	1.12
216.117	-8.96
216.502	14.62
216.888	16.94
217.273	9.12
217.658	-36.61
218.043	6.08
218.428	-128.41
218.813	-48.96
219.198	-38.99
219.583	-12.25
219.968	-22.9
220.353	-23.42
220.738	13.07
221.122	2.69
221.507	-15.78
221.892	-31.83
222.276	-22.64
222.661	2.91
223.046	-5.24
223.43	12.54
223.815	4.35
224.199	-11.42
224.583	7.57
224.968	5.09
225.352	11.79
225.736	-15.63
226.121	-6.19
226.505	5.02
226.889	5.35
227.273	4.27
227.657	7.98
228.041	2.36
228.425	-1.01
228.809	8.17
229.193	-0.39
229.577	2.13
229.961	2.26
230.344	2.63
230.728	1.63
231.112	1.93
231.495	2.04
231.879	2.93
232.263	1.68
232.646	4.06
233.03	1.29
233.413	0.34
233.797	2.84
234.18	3.06
234.563	4.22
234.946	-1.27
235.33	4
235.713	2.11
236.096	1.17
236.479	3.5
236.862	0.36
237.245	4.09
237.628	1.1
238.011	2.33
238.394	2.35
238.777	2.47
239.16	1.55
239.543	1.5
239.925	2.81
240.308	1.21
240.691	3.77
241.073	1.87
241.456	0.96
241.838	1.75
242.221	0.84
242.603	2.52
242.986	3.19
243.368	2.79
243.75	3.18
244.133	2.44
244.515	2.69
244.897	2.87
245.279	2.67
245.661	1.72
246.043	0.91
246.425	0.86
246.807	3.21
247.189	2.43
247.571	2.56
247.953	2.68
248.335	2.31
248.717	2.52
249.098	2.66
249.48	2.72
249.862	2.59
250.243	2.86
250.625	2.64
251.006	2.88
251.388	1.67
251.769	1.16
252.151	3.21
252.532	2.91
252.913	1.23
253.295	2.19
253.676	2.76
254.057	2.69
254.438	2.72
254.819	1.51
255.2	1.38
255.581	2.88
255.962	1.3
256.343	2.87
256.724	2.58
257.105	2.2
257.486	2.23
257.867	2.47
258.247	2.22
258.628	2.68
259.009	2.46
259.389	1.88
259.77	2.76
260.15	1.61
260.531	2.09
260.911	3.12
261.292	2.7
261.672	2.83
262.052	2.71
262.432	2.76
262.813	2.91
263.193	2.53
263.573	1.66
263.953	2.54
264.333	2.56
264.713	2.87
265.093	2.04
265.473	2.84
265.853	1.27
266.233	2.72
266.612	0.14
266.992	0.91
267.372	3.44
267.752	2.07
268.131	2.52
268.511	3.07
268.89	2.46
269.27	2.26
269.649	2.07
270.029	2.12
270.408	3.39
270.787	2.06
271.167	2.67
271.546	2.85
271.925	2.09
272.304	2.99
272.683	2.46
273.062	1.64
273.441	2.45
273.82	2.36
274.199	2.5
274.578	2.25
274.957	2.51
275.336	2.08
275.715	2.34
276.093	2.73
276.472	2.02
276.851	2.05
277.229	1.51
277.608	2.14
277.986	1.97
278.365	2.86
278.743	2.08
279.122	2.83
279.5	2.64
279.878	2.36
280.257	1.76
280.635	1.2
281.013	2.53
281.391	2.61
281.769	2.26
282.147	2.88
282.525	2.94
282.903	2.59
283.281	2.59
283.659	2.46
284.037	2.25
284.415	2.67
284.792	2.68
285.17	1.2
285.548	2.19
285.925	2.22
286.303	2.54
286.68	2.45
287.058	2.41
287.435	2.35
287.813	2.5
288.19	2.44
288.567	2.68
288.945	2.83
289.322	2.56
289.699	2.54
290.076	2.49
290.453	2.6
290.83	2.23
291.207	2
291.584	2.5
291.961	2.94
292.338	1.97
292.715	3.3
293.092	2.32
293.469	2.35
293.845	2.99
294.222	2.17
294.599	1.88
294.975	1.79
295.352	2.65
295.728	2.31
296.105	2.13
296.481	2.5
296.858	2.95
297.234	2.42
297.61	2.22
297.986	2.51
298.363	2.58
298.739	2.5
299.115	2.5
299.491	2.33
299.867	2.56
300.243	2.61
300.619	2.39
300.995	2.89
301.371	2.99
301.746	2.26
302.122	2.77
302.498	2.65
302.874	2.88
303.249	2.68
303.625	2.87
304	2.8
304.376	2.76
304.751	2.48
305.127	3.44
305.502	2.05
305.878	1.93
306.253	2.79
306.628	3.56
307.003	2.93
307.378	2.64
307.754	3.19
308.129	2.06
308.504	3.14
308.879	2.17
309.254	3.76
309.629	3.32
310.003	2.97
310.378	3.06
310.753	3.41
311.128	3.02
311.502	2.7
311.877	3.46
312.252	2.82
312.626	2.66
313.001	2.83
313.375	3.43
313.75	2.87
314.124	3.58
314.498	3.03
314.873	3.18
315.247	2.94
315.621	3.04
315.995	2.31
316.369	3.15
316.743	3
317.117	3.37
317.491	3.88
317.865	3.45
318.239	2.85
318.613	3.14
318.987	3.45
319.361	2.49
319.734	3.69
320.108	3.43
320.482	2.98
320.855	4.22
321.229	3.43
321.602	3.26
321.976	3.41
322.349	3.5
322.723	3.65
323.096	4.2
323.469	2.82
323.843	3.28
324.216	4.13
324.589	3.35
324.962	3.74
325.335	3.86
325.708	3.8
326.081	3.72
326.454	3.21
326.827	3.62
327.2	3.6
327.573	4.01
327.945	3.62
328.318	3.68
328.691	3.22
329.063	3.88
329.436	3.8
329.809	4.34
330.181	3.51
330.553	3.28
330.926	4.45
331.298	4.53
331.671	3.45
332.043	4.47
332.415	3.8
332.787	4
333.159	4.76
333.532	4.89
333.904	3.88
334.276	4.1
334.648	4.08
335.02	4.2
335.391	4.03
335.763	3.81
336.135	3.53
336.507	4.38
336.879	4.14
337.25	3.83
337.622	4
337.993	3.75
338.365	4.27
338.736	4.13
339.108	4.25
339.479	3.71
339.851	4.39
340.222	4.05
340.593	4.1
340.964	4.16
341.336	4.86
341.707	3.7
342.078	4.64
342.449	4.8
342.82	4.37
343.191	4.28
343.562	4.77
343.933	4.74
344.303	4.44
344.674	4.67
345.045	4.56
345.416	5.12
345.786	4
346.157	4.67
346.527	4.24
346.898	3.87
347.268	4.28
347.639	4.78
348.009	4.52
348.38	4.09
348.75	4.41
349.12	4.51
349.49	4.86
349.861	4.34
350.231	4.51
350.601	5.11
350.971	5.36
351.341	4.45
351.711	4.14
352.081	4.74
352.45	4.68
352.82	4.92
353.19	4.63
353.56	4.59
353.929	4.76
354.299	4.93
354.669	5.01
355.038	4.89
355.408	4.58
355.777	5.02
356.147	4.61
356.516	5.18
356.885	5.4
357.254	4.85
357.624	4.85
357.993	5.15
358.362	4.65
358.731	4.3
359.1	5.02
359.469	5.25
359.838	5.29
360.207	5.11
360.576	5
360.945	5.17
361.314	5.01
361.682	5.17
362.051	4.66
362.42	5.37
362.788	4.97
363.157	5.28
363.525	5.51
363.894	5.34
364.262	5.25
364.631	5.51
364.999	5.56
365.367	4.72
365.735	5.9
366.104	5.47
366.472	5.6
366.84	4.98
367.208	5.26
367.576	5.53
367.944	5.76
368.312	5.25
368.68	5.03
369.048	5.52
369.416	5.47
369.783	5.4
370.151	5.37
370.519	5.68
370.886	5.52
371.254	5.66
371.621	5.99
371.989	5.93
372.356	5.43
372.724	5.88
373.091	5.49
373.458	5.58
373.826	5.49
374.193	5.97
374.56	5.83
374.927	5.64
375.294	6.2
375.661	6.2
376.028	5.79
376.395	5.88
376.762	5.97
377.129	5.79
377.496	5.6
377.863	5.89
378.229	5.64
378.596	5.86
378.963	6.15
379.329	5.75
379.696	6.21
380.062	5.95
380.429	6.1
380.795	5.91
381.161	6.11
381.528	6.54
381.894	5.89
382.26	6.21
382.626	6.71
382.993	6.13
383.359	6.64
383.725	6.34
384.091	6.17
384.457	6.49
384.823	6.69
385.188	6.63
385.554	6.48
385.92	6.89
386.286	6.73
386.651	6.73
387.017	6.79
387.383	6.36
387.748	6.42
388.114	6.88
388.479	6.39
388.845	6.9
389.21	6.86
389.575	6.65
389.94	6.56
390.306	6.54
390.671	7.02
391.036	6.55
391.401	6.53
391.766	6.78
392.131	6.65
392.496	7.26
392.861	6.76
393.226	7
393.591	7.08
393.956	6.97
394.32	6.93
394.685	6.72
395.05	6.77
395.414	7.16
395.779	6.99
396.143	7.13
396.508	7.03
396.872	6.99
397.236	7.15
397.601	6.94
397.965	7.33
398.329	7.43
398.694	7.43
399.058	7.29
399.422	6.95
399.786	7.41
400.15	7.22
400.514	7.39
400.878	7.25
401.242	7.7
401.605	7.45
401.969	7.46
402.333	7.64
402.697	7.32
403.06	7.55
403.424	7.47
403.787	7.49
404.151	7.5
404.514	7.8
404.878	7.5
405.241	7.64
405.604	7.6
405.968	7.74
406.331	7.74
406.694	7.95
407.057	7.64
407.42	8.09
407.783	7.55
408.146	7.81
408.509	7.77
408.872	7.81
409.235	8.16
409.598	7.88
409.961	8.05
410.323	8.5
410.686	7.99
411.049	7.95
411.411	7.83
411.774	7.94
412.136	7.95
412.499	7.97
412.861	8.04
413.223	8.09
413.586	7.78
413.948	8.17
414.31	8.1
414.672	7.81
415.035	7.81
415.397	8.54
415.759	8.03
416.121	8.64
416.483	8.01
416.845	8.32
417.206	8.39
417.568	8.35
417.93	8.09
418.292	8.24
418.653	8.26
419.015	8.44
419.377	8.51
419.738	8.32
420.1	8.55
420.461	8.49
420.822	8.39
421.184	8.43
421.545	8.52
421.906	8.38
422.267	8.43
422.629	8.44
422.99	8.46
423.351	8.48
423.712	8.48
424.073	8.55
424.434	8.63
424.795	8.61
425.155	8.67
425.516	8.49
425.877	8.73
426.238	8.7
426.598	8.79
426.959	8.76
427.32	8.69
427.68	8.84
428.041	8.83
428.401	9.03
428.761	9.03
429.122	8.97
429.482	8.98
429.842	9.25
430.202	9.29
430.563	9.33
430.923	9.1
431.283	9.38
431.643	9.41
432.003	9.26
432.363	9.68
432.722	9.37
433.082	9.45
433.442	9.43
433.802	9.07
434.161	9.27
434.521	9.58
434.881	9.52
435.24	9.3
435.6	9.55
435.959	9.51
436.319	9.56
436.678	9.61
437.037	9.5
437.396	9.77
437.756	9.82
438.115	9.72
438.474	9.84
438.833	9.51
439.192	9.85
439.551	9.89
439.91	9.78
440.269	9.91
440.628	9.73
440.987	9.93
441.345	9.6
441.704	9.86
442.063	9.9
442.421	9.87
442.78	9.8
443.138	9.83
443.497	10.09
443.855	10.25
444.214	10.14
444.572	10.25
444.93	10.08
445.288	10.29
445.647	10.22
446.005	10.28
446.363	10.11
446.721	10.24
447.079	10.12
447.437	10.15
447.795	10.34
448.153	10.1
448.51	10.25
448.868	10.25
449.226	10.29
449.584	10.3
449.941	10.46
450.299	10.51
450.656	10.66
451.014	10.78
451.371	10.5
451.729	10.55
452.086	10.91
452.443	10.78
452.801	10.91
453.158	11.07
453.515	10.88
453.872	10.83
454.229	10.73
454.586	10.74
454.943	10.95
455.3	11
455.657	11.09
456.014	11.18
456.371	11.15
456.727	11.08
457.084	11.34
457.441	11.05
457.797	11.15
458.154	11.2
458.51	11.34
458.867	11.43
459.223	11.51
459.58	11.28
459.936	11.4
460.292	11.32
460.648	11.26
461.005	11.23
461.361	11.24
461.717	11.19
462.073	11.16
462.429	11.37
462.785	11.44
463.141	11.44
463.496	11.57
463.852	11.65
464.208	11.69
464.564	11.94
464.919	11.71
465.275	11.78
465.631	11.87
465.986	11.89
466.342	11.77
466.697	11.61
467.052	12.01
467.408	12.01
467.763	12.16
468.118	11.95
468.473	12
468.829	12.07
469.184	12.06
469.539	12.17
469.894	12.05
470.249	12.22
470.603	12.39
470.958	12.35
471.313	12.44
471.668	12.46
472.023	12.45
472.377	12.27
472.732	12.49
473.086	12.39
473.441	12.44
473.795	12.73
474.15	12.61
474.504	12.45
474.859	12.54
475.213	12.48
475.567	12.52
475.921	12.59
476.275	12.77
476.63	12.88
476.984	12.93
477.338	12.78
477.692	12.87
478.045	12.88
478.399	12.87
478.753	12.83
479.107	12.92
479.461	12.91
479.814	13
480.168	12.94
480.521	12.87
480.875	13.03
481.228	13.08
481.582	13.2
481.935	13.03
482.289	13.06
482.642	13.18
482.995	13.04
483.348	12.95
483.701	13.04
484.055	13.05
484.408	13.14
484.761	12.95
485.114	12.65
485.466	12.35
485.819	12.34
486.172	12.43
486.525	12.7
486.878	12.9
487.23	13.08
487.583	13.23
487.936	13.31
488.288	13.31
488.641	13.17
488.993	13
489.345	12.93
489.698	12.97
490.05	13.04
490.402	13.13
490.754	13.38
491.107	13.6
491.459	13.7
491.811	13.82
492.163	13.86
492.515	13.82
492.866	13.71
493.218	13.43
493.57	13.27
493.922	13.43
494.274	13.8
494.625	13.95
494.977	14.18
495.328	14.28
495.68	14.42
496.031	14.45
496.383	14.45
496.734	14.78
497.086	14.46
497.437	14.57
497.788	14.5
498.139	14.36
498.49	14.55
498.842	14.32
499.193	14.49
499.544	14.61
499.894	14.56
500.245	14.78
500.596	14.62
500.947	14.78
501.298	14.78
501.648	14.95
501.999	15.11
502.35	15.05
502.7	15.15
503.051	15.08
503.401	15.06
503.752	15.22
504.102	15.25
504.452	15.24
504.803	15.48
505.153	15.32
505.503	15.27
505.853	15.2
506.203	15.18
506.553	15.32
506.903	15.38
507.253	15.42
507.603	15.38
507.953	15.46
508.303	15.68
508.652	15.51
509.002	15.64
509.352	15.77
509.701	15.59
510.051	15.49
510.4	15.54
510.75	15.56
511.099	15.54
511.449	15.65
511.798	15.6
512.147	15.66
512.496	15.67
512.846	15.9
513.195	16.03
513.544	15.86
513.893	15.94
514.242	15.84
514.591	15.97
514.939	15.91
515.288	15.97
515.637	16.18
515.986	16.34
516.334	16.35
516.683	16.24
517.032	16.33
517.38	16.41
517.729	16.41
518.077	16.37
518.426	16.42
518.774	16.47
519.122	16.34
519.47	16.32
519.819	16.17
520.167	16.15
520.515	16.08
520.863	16.25
521.211	16.31
521.559	16.53
521.907	16.57
522.255	16.52
522.602	16.76
522.95	16.66
523.298	17
523.645	16.89
523.993	16.91
524.341	17.03
524.688	17.19
525.036	17.04
525.383	16.92
525.73	17.16
526.078	16.97
526.425	16.92
526.772	16.97
527.119	16.9
527.466	16.72
527.814	16.68
528.161	16.82
528.508	16.9
528.854	17.01
529.201	16.81
529.548	16.76
529.895	16.5
530.242	16.25
530.588	16.09
530.935	16.34
531.282	16.56
531.628	16.69
531.975	16.92
532.321	17.07
532.667	17.2
533.014	17.34
533.36	17.31
533.706	17.35
534.052	17.57
534.399	17.35
534.745	17.11
535.091	16.88
535.437	17.01
535.783	17.18
536.129	17.41
536.474	17.58
536.82	17.75
537.166	17.86
537.512	17.91
537.857	17.77
538.203	17.83
538.549	17.63
538.894	17.67
539.239	17.88
539.585	17.97
539.93	18.07
540.276	18.37
540.621	18.33
540.966	18.39
541.311	18.33
541.656	18.18
542.001	18.32
542.346	18.14
542.691	17.88
543.036	17.64
543.381	17.53
543.726	17.67
544.071	17.95
544.415	18.09
544.76	18.15
545.105	18.18
545.449	18.39
545.794	18.44
546.138	18.51
546.483	18.62
546.827	18.83
547.171	18.69
547.516	18.85
547.86	18.67
548.204	18.75
548.548	18.74
548.892	18.78
549.236	18.76
549.58	18.95
549.924	19.01
550.268	19.3
550.612	19.34
550.956	19.6
551.3	19.4
551.643	19.62
551.987	19.54
552.33	19.56
552.674	19.88
553.017	19.64
553.361	19.6
553.704	19.73
554.048	19.4
554.391	19.62
554.734	19.54
555.077	19.76
555.42	19.71
555.764	19.68
556.107	19.55
556.45	19.74
556.793	19.79
557.135	19.98
557.478	20.42
557.821	20.14
558.164	20.15
558.507	20.06
558.849	20.24
559.192	20.33
559.534	20.32
559.877	20.53
560.219	20.26
560.562	20.59
560.904	20.43
561.246	20.67
561.589	20.52
561.931	20.4
562.273	20.35
562.615	20.65
562.957	20.48
563.299	20.38
563.641	20.32
563.983	20.64
564.325	20.27
564.667	20.71
565.008	20.69
565.35	20.87
565.692	20.59
566.033	20.7
566.375	20.81
566.716	20.9
567.058	20.58
567.399	20.64
567.741	20.57
568.082	20.62
568.423	20.66
568.764	20.68
569.105	20.92
569.447	21.06
569.788	21.03
570.129	21.11
570.47	21.06
570.811	21.09
571.151	21.09
571.492	21.09
571.833	21.16
572.174	21.22
572.514	21.16
572.855	21.36
573.195	21.18
573.536	21.21
573.876	20.96
574.217	20.91
574.557	21.22
574.898	21.32
575.238	21.49
575.578	21.34
575.918	21.62
576.258	21.68
576.598	21.68
576.938	21.32
577.278	21.45
577.618	21.34
577.958	21.66
578.298	21.71
578.638	21.61
578.977	21.85
579.317	21.81
579.657	21.86
579.996	21.83
580.336	22.04
580.675	22.21
581.014	22.24
581.354	21.88
581.693	22.35
582.032	22.45
582.372	22.29
582.711	22.44
583.05	22.06
583.389	22.55
583.728	22.23
584.067	22.58
584.406	22.44
584.745	22.42
585.083	22.4
585.422	22.61
585.761	22.73
586.1	22.44
586.438	22.71
586.777	22.76
587.115	22.62
587.454	22.87
587.792	22.72
588.13	22.81
588.469	22.95
588.807	22.97
589.145	22.97
589.483	22.82
589.821	22.84
590.159	22.85
590.497	23.3
590.835	23.16
591.173	22.94
591.511	23.32
591.849	22.97
592.187	23.11
592.524	22.87
592.862	23.12
593.2	22.98
593.537	23.35
593.875	23.29
594.212	23.29
594.55	23.26
594.887	23.4
595.224	23.03
595.561	23.21
595.899	23.25
596.236	23.4
596.573	23.43
596.91	23.25
597.247	23.24
597.584	23.69
597.921	23.36
598.258	23.36
598.594	23.3
598.931	23.2
599.268	23.3
599.604	23.19
599.941	23.69
600.277	23.57
600.614	23.78
600.95	23.67
601.287	23.79
601.623	23.66
601.959	23.76
602.296	24.02
602.632	23.65
602.968	24.18
603.304	23.81
603.64	23.74
603.976	23.92
604.312	24.12
604.648	23.78
604.984	24.16
605.319	23.68
605.655	23.81
605.991	23.83
606.326	23.82
606.662	23.83
606.998	23.66
607.333	23.89
607.668	24.02
608.004	24.18
608.339	24.27
608.674	24.47
609.01	24.08
609.345	24.04
609.68	24.54
610.015	24.35
610.35	24.48
610.685	24.36
611.02	24.15
611.355	24.16
611.689	24.29
612.024	24.32
612.359	24.36
612.694	24.54
613.028	24.26
613.363	24.61
613.697	24.59
614.032	24.83
614.366	24.79
614.7	24.95
615.035	24.95
615.369	24.65
615.703	25.06
616.037	24.79
616.371	24.68
616.705	24.66
617.039	25.35
617.373	24.77
617.707	25.16
618.041	24.99
618.375	24.96
618.709	25.02
619.042	25.24
619.376	25.43
619.71	25.12
620.043	25.42
620.377	25.35
620.71	25.5
621.043	24.94
621.377	25.06
621.71	25.06
622.043	25.05
622.376	25.21
622.709	25.35
623.043	25.52
623.376	25.62
623.709	25.61
624.041	25.91
624.374	25.65
624.707	25.6
625.04	25.34
625.373	25.49
625.705	25.57
626.038	25.83
626.37	25.43
626.703	25.32
627.035	25.94
627.368	25.97
627.7	25.33
628.032	25.44
628.365	25.68
628.697	25.68
629.029	25.38
629.361	25.72
629.693	25.76
630.025	25.97
630.357	26.02
630.689	26.12
631.021	25.64
631.353	26.05
631.684	25.77
632.016	25.83
632.348	26.28
632.679	25.96
633.011	26.58
633.342	26.57
633.674	26.18
634.005	26.3
634.336	26.02
634.668	26.4
634.999	26.05
635.33	26.3
635.661	26.36
635.992	25.84
636.323	26.42
636.654	26.49
636.985	25.9
637.316	26.45
637.647	26.06
637.977	26.16
638.308	26.71
638.639	26.1
638.969	26.01
639.3	26.6
639.63	26.12
639.961	26.71
640.291	26.39
640.622	27.04
640.952	26.52
641.282	26.66
641.612	26.62
641.943	26.82
642.273	26.99
642.603	26.98
642.933	26.79
643.263	27.04
643.592	26.92
643.922	26.48
644.252	27.03
644.582	26.96
644.911	27.1
645.241	27.34
645.571	26.84
645.9	26.87
646.23	27.64
646.559	26.99
646.888	27.69
647.218	27.14
647.547	27.07
647.876	27.44
648.205	27
648.534	27.16
648.863	27.27
649.192	27.66
649.521	27.27
649.85	27.27
650.179	27.8
650.508	27.29
650.837	27.73
651.165	27.47
651.494	27.71
651.822	27.72
652.151	27.25
652.479	27.91
652.808	27.29
653.136	27.41
653.465	27.04
653.793	27.56
654.121	27.75
654.449	27.85
654.777	27.84
655.105	28.01
655.433	27.37
655.761	27.6
656.089	28.39
656.417	28.07
656.745	27.75
657.073	27.66
657.4	28.09
657.728	28.78
658.056	28.61
658.383	28.58
658.711	28.25
659.038	28.71
659.365	28.45
659.693	28.04
660.02	28.47
660.347	28.56
660.674	28.52
661.001	28.76
661.329	27.33
661.656	28.63
661.982	28.29
662.309	27.94
662.636	28.29
662.963	29.26
663.29	28.6
663.616	29.06
663.943	28.04
664.27	28.9
664.596	28.97
664.923	28.46
665.249	29.14
665.576	28.88
665.902	29.04
666.228	28.24
666.554	29.31
666.881	28.48
667.207	28.89
667.533	28.49
667.859	29.78
668.185	29.56
668.511	29.4
668.837	28.52
669.162	29.41
669.488	29.44
669.814	29.77
670.139	29.8
670.465	29.12
670.791	29.36
671.116	29.76
671.442	29.62
671.767	29.38
672.092	29.8
672.418	29.85
672.743	29.7
673.068	29.61
673.393	30.06
673.718	28.78
674.043	29.55
674.368	29.56
674.693	30.53
675.018	29.84
675.343	29.57
675.667	29.84
675.992	30.43
