Data from 0206_crown_Reflection__2__316.txt Node

Date: Fri Dec 15 19:35:50 CST 2023
User: ToomeyLab
Spectrometer: FLMS14357
Trigger mode: 0
Integration Time (sec): 1.000000E-2
Scans to average: 100
Electric dark correction enabled: true
Nonlinearity correction enabled: false
Boxcar width: 0
XAxis mode: Wavelengths
Number of Pixels in Spectrum: 2048
>>>>>Begin Spectral Data<<<<<
189.047	182.6
189.435	182.6
189.823	182.6
190.211	-120.36
190.599	-429.89
190.987	35.09
191.375	-47.17
191.763	-112.5
192.151	94.72
192.538	98.38
192.926	-270.98
193.314	702.77
193.702	10.5
194.089	-330.62
194.477	59.3
194.864	-625.79
195.252	166.13
195.639	161.6
196.027	628.46
196.414	315.85
196.801	-33.5
197.189	109.56
197.576	38.1
197.963	193.2
198.351	-19.06
198.738	65.4
199.125	10.47
199.512	-40.54
199.899	52.35
200.286	42.07
200.673	-15.9
201.06	-34.01
201.447	0.54
201.833	-1.28
202.22	16.33
202.607	32.91
202.994	25.83
203.38	-18.78
203.767	40.86
204.154	-10.21
204.54	21.09
204.927	-55.25
205.313	-63.48
205.699	13.2
206.086	39.61
206.472	-14.49
206.858	21.42
207.245	-99.73
207.631	16.29
208.017	55.42
208.403	-0.15
208.789	3.78
209.175	35.91
209.561	-30.61
209.947	-23.84
210.333	-163.26
210.719	-19.39
211.105	-19.16
211.491	-35.58
211.876	31.94
212.262	-20.12
212.648	1.77
213.034	24.59
213.419	-46.6
213.805	-16.54
214.19	-41.03
214.576	2.35
214.961	-30.35
215.346	-101.81
215.732	4.54
216.117	-13.96
216.502	-36.59
216.888	-0.36
217.273	18.55
217.658	-6.16
218.043	8.68
218.428	-54.94
218.813	-12.76
219.198	-55.76
219.583	-3.85
219.968	-15.25
220.353	-38.95
220.738	9.26
221.122	11.56
221.507	-23.14
221.892	-33.02
222.276	-46.3
222.661	-9.69
223.046	2.62
223.43	3.43
223.815	-6.54
224.199	-12.52
224.583	-6.64
224.968	-2.22
225.352	9.6
225.736	-7.21
226.121	-4.96
226.505	-3.13
226.889	10.2
227.273	2.21
227.657	1.38
228.041	-2.39
228.425	-4.62
228.809	4.57
229.193	0.96
229.577	-0.06
229.961	1.04
230.344	1.4
230.728	1.91
231.112	1.94
231.495	1.48
231.879	0.31
232.263	3.71
232.646	1.03
233.03	1.9
233.413	0.57
233.797	2.18
234.18	-0.42
234.563	-0.03
234.946	1.03
235.33	3.17
235.713	1.53
236.096	0.93
236.479	2.73
236.862	0.23
237.245	2.66
237.628	2.16
238.011	2.32
238.394	3.14
238.777	2.14
239.16	1.02
239.543	1
239.925	0.81
240.308	0.2
240.691	3.25
241.073	1.91
241.456	2.59
241.838	1.83
242.221	1.06
242.603	1.84
242.986	2.05
243.368	1.71
243.75	2.72
244.133	2.12
244.515	2.31
244.897	2.51
245.279	2.04
245.661	1.4
246.043	-0.01
246.425	0.71
246.807	2.4
247.189	1.93
247.571	1.83
247.953	2.01
248.335	1.88
248.717	2.35
249.098	1.76
249.48	2
249.862	1.71
250.243	2.19
250.625	1.95
251.006	2.44
251.388	1.3
251.769	1.23
252.151	2.53
252.532	2.03
252.913	1.15
253.295	1.1
253.676	1.51
254.057	2.06
254.438	1.77
254.819	1.72
255.2	1.6
255.581	1.54
255.962	0.77
256.343	1.38
256.724	1.17
257.105	1.44
257.486	1.78
257.867	3.35
258.247	2.04
258.628	2.33
259.009	1.57
259.389	2.39
259.77	1.57
260.15	1.9
260.531	0.93
260.911	2.45
261.292	1.74
261.672	2.26
262.052	1.99
262.432	2.21
262.813	2.11
263.193	1.77
263.573	1.64
263.953	1.13
264.333	2.39
264.713	1.73
265.093	1.2
265.473	1.64
265.853	1.21
266.233	2.15
266.612	0.52
266.992	0.46
267.372	1.55
267.752	1.24
268.131	1.45
268.511	2.41
268.89	2.49
269.27	1.95
269.649	1.61
270.029	1.57
270.408	2.89
270.787	2.34
271.167	1.82
271.546	1.95
271.925	1.1
272.304	1.69
272.683	2.34
273.062	1.33
273.441	1.67
273.82	1.32
274.199	1.9
274.578	2.14
274.957	1.94
275.336	1.54
275.715	1.2
276.093	1.4
276.472	1.28
276.851	1.35
277.229	0.83
277.608	1.11
277.986	1.48
278.365	1.82
278.743	1.23
279.122	1.46
279.5	1.39
279.878	1.91
280.257	0.8
280.635	0.91
281.013	1.32
281.391	2.3
281.769	1.94
282.147	1.78
282.525	2.55
282.903	1.71
283.281	1.92
283.659	2.16
284.037	1.54
284.415	2.14
284.792	1.69
285.17	1.17
285.548	1.39
285.925	1.53
286.303	2.05
286.68	1.56
287.058	1.93
287.435	1.74
287.813	1.79
288.19	1.62
288.567	1.75
288.945	1.73
289.322	1.67
289.699	1.87
290.076	1.65
290.453	1.48
290.83	0.95
291.207	1.19
291.584	1.97
291.961	2.02
292.338	1.33
292.715	2.1
293.092	1.92
293.469	1.78
293.845	2.22
294.222	1.02
294.599	1.64
294.975	1.47
295.352	1.36
295.728	1.3
296.105	1.64
296.481	2.25
296.858	2.02
297.234	1.64
297.61	2.09
297.986	2.25
298.363	2.27
298.739	2.14
299.115	1.85
299.491	1.48
299.867	1.98
300.243	2.15
300.619	1.39
300.995	1.78
301.371	2.19
301.746	1.72
302.122	1.65
302.498	1.58
302.874	2.2
303.249	1.98
303.625	2.09
304	2.14
304.376	2.29
304.751	1.96
305.127	2.33
305.502	1.55
305.878	1.86
306.253	2.13
306.628	2.61
307.003	2.16
307.378	2.25
307.754	2.33
308.129	1.31
308.504	2.61
308.879	2.17
309.254	3.2
309.629	2.72
310.003	2.15
310.378	2.89
310.753	2.68
311.128	2.19
311.502	1.85
311.877	2.55
312.252	2.37
312.626	2.32
313.001	2.21
313.375	2.57
313.75	1.78
314.124	2.73
314.498	2.42
314.873	2.67
315.247	2.05
315.621	2.35
315.995	1.79
316.369	2.19
316.743	2.11
317.117	2.95
317.491	1.66
317.865	2.28
318.239	2.31
318.613	2.74
318.987	2.74
319.361	2
319.734	2.62
320.108	2.51
320.482	2.33
320.855	2.82
321.229	2.37
321.602	2.46
321.976	3.02
322.349	2.68
322.723	1.57
323.096	3.26
323.469	2.5
323.843	2.6
324.216	3.48
324.589	2.68
324.962	2.49
325.335	2.95
325.708	2.67
326.081	2.43
326.454	3.44
326.827	2.68
327.2	2.61
327.573	3.04
327.945	2.91
328.318	2.8
328.691	2.66
329.063	3.18
329.436	2.7
329.809	3.22
330.181	2.22
330.553	3.16
330.926	3.29
331.298	2.61
331.671	2.58
332.043	3.34
332.415	3.58
332.787	3.41
333.159	4.1
333.532	3.66
333.904	3.31
334.276	3.02
334.648	3.59
335.02	3.05
335.391	3.08
335.763	3.2
336.135	2.96
336.507	3.65
336.879	3.36
337.25	2.89
337.622	3.01
337.993	3.64
338.365	3.46
338.736	3.12
339.108	3.07
339.479	3.32
339.851	3.2
340.222	3.6
340.593	3.41
340.964	2.64
341.336	3.8
341.707	2.84
342.078	3.73
342.449	3.5
342.82	3.53
343.191	3.47
343.562	3.25
343.933	3.57
344.303	3.23
344.674	2.97
345.045	3.3
345.416	3.69
345.786	2.93
346.157	3.61
346.527	2.63
346.898	2.58
347.268	3.22
347.639	3.48
348.009	3.44
348.38	3.2
348.75	3.14
349.12	3.34
349.49	3.67
349.861	3.49
350.231	3.46
350.601	3.69
350.971	3.29
351.341	3.44
351.711	3.5
352.081	3.82
352.45	2.94
352.82	4
353.19	3.42
353.56	3.2
353.929	3.47
354.299	3.24
354.669	3.09
355.038	3.92
355.408	3.72
355.777	3.78
356.147	3.45
356.516	3.74
356.885	3.5
357.254	3.5
357.624	3.58
357.993	3.73
358.362	2.89
358.731	3.24
359.1	3.31
359.469	3.68
359.838	3.76
360.207	3.36
360.576	2.99
360.945	3.43
361.314	3.7
361.682	2.9
362.051	3.27
362.42	3.64
362.788	3.16
363.157	3.72
363.525	3.77
363.894	3.76
364.262	3.75
364.631	3.27
364.999	3.42
365.367	3.09
365.735	4.12
366.104	3.58
366.472	3.63
366.84	2.93
367.208	3.36
367.576	3.41
367.944	3.94
368.312	3.63
368.68	3.13
369.048	3.48
369.416	3.67
369.783	3.21
370.151	3.49
370.519	3.5
370.886	3.99
371.254	3.04
371.621	3.66
371.989	3.82
372.356	2.82
372.724	3.6
373.091	3.5
373.458	3.4
373.826	3.81
374.193	3.33
374.56	3.76
374.927	3.77
375.294	3.53
375.661	3.35
376.028	3.16
376.395	3.55
376.762	3.57
377.129	3.66
377.496	3.57
377.863	3.5
378.229	3.07
378.596	3.45
378.963	3.36
379.329	3.43
379.696	3.66
380.062	3.73
380.429	3.56
380.795	3.3
381.161	3.37
381.528	3.77
381.894	3.36
382.26	3.35
382.626	3.76
382.993	3.49
383.359	3.79
383.725	3.31
384.091	3.45
384.457	4.09
384.823	3.34
385.188	3.63
385.554	3.47
385.92	3.74
386.286	3.85
386.651	3.77
387.017	3.95
387.383	3.54
387.748	3.78
388.114	3.75
388.479	3.57
388.845	3.86
389.21	3.46
389.575	3.62
389.94	3.73
390.306	3.49
390.671	3.75
391.036	3.57
391.401	3.43
391.766	3.87
392.131	3.54
392.496	3.73
392.861	3.58
393.226	4
393.591	3.77
393.956	3.52
394.32	3.63
394.685	3.44
395.05	3.78
395.414	3.7
395.779	3.58
396.143	3.59
396.508	3.6
396.872	3.72
397.236	3.78
397.601	3.5
397.965	3.69
398.329	3.94
398.694	3.9
399.058	3.63
399.422	3.67
399.786	4.13
400.15	3.78
400.514	3.8
400.878	3.93
401.242	4.1
401.605	4.03
401.969	3.66
402.333	3.74
402.697	3.5
403.06	3.71
403.424	3.77
403.787	3.84
404.151	4.02
404.514	3.87
404.878	3.7
405.241	3.95
405.604	3.58
405.968	3.86
406.331	3.65
406.694	3.76
407.057	4.08
407.42	3.92
407.783	3.5
408.146	3.89
408.509	3.55
408.872	3.6
409.235	3.85
409.598	4.07
409.961	3.46
410.323	3.89
410.686	3.9
411.049	3.53
411.411	3.85
411.774	3.77
412.136	3.48
412.499	3.63
412.861	3.65
413.223	3.67
413.586	3.69
413.948	4.01
414.31	3.74
414.672	3.61
415.035	3.5
415.397	3.9
415.759	3.53
416.121	3.69
416.483	3.64
416.845	3.83
417.206	3.64
417.568	4
417.93	3.47
418.292	3.75
418.653	3.79
419.015	3.87
419.377	3.79
419.738	3.84
420.1	3.87
420.461	3.86
420.822	3.78
421.184	3.59
421.545	3.81
421.906	3.57
422.267	3.73
422.629	3.71
422.99	3.7
423.351	3.74
423.712	3.69
424.073	3.66
424.434	3.5
424.795	3.55
425.155	3.78
425.516	3.66
425.877	3.7
426.238	3.57
426.598	3.81
426.959	3.82
427.32	3.57
427.68	3.59
428.041	3.65
428.401	3.83
428.761	3.88
429.122	3.85
429.482	3.43
429.842	3.87
430.202	3.94
430.563	3.73
430.923	3.59
431.283	3.92
431.643	3.73
432.003	3.69
432.363	3.73
432.722	3.61
433.082	3.91
433.442	3.75
433.802	3.58
434.161	3.79
434.521	4.02
434.881	3.84
435.24	3.69
435.6	3.81
435.959	3.94
436.319	3.8
436.678	3.75
437.037	3.82
437.396	3.79
437.756	3.85
438.115	3.74
438.474	4
438.833	3.58
439.192	3.66
439.551	3.79
439.91	3.73
440.269	3.73
440.628	3.62
440.987	3.85
441.345	3.62
441.704	3.81
442.063	3.72
442.421	3.8
442.78	3.76
443.138	3.77
443.497	3.7
443.855	3.75
444.214	3.75
444.572	3.81
444.93	3.9
445.288	3.97
445.647	3.84
446.005	3.74
446.363	3.92
446.721	3.9
447.079	3.7
447.437	3.72
447.795	3.76
448.153	3.64
448.51	3.77
448.868	3.75
449.226	3.77
449.584	3.77
449.941	3.91
450.299	3.89
450.656	3.83
451.014	3.79
451.371	3.71
451.729	3.66
452.086	3.93
452.443	3.78
452.801	3.99
453.158	3.71
453.515	3.72
453.872	4.02
454.229	3.79
454.586	3.78
454.943	3.81
455.3	3.77
455.657	3.78
456.014	3.74
456.371	3.89
456.727	3.81
457.084	4.12
457.441	3.84
457.797	3.82
458.154	3.93
458.51	3.82
458.867	3.82
459.223	3.9
459.58	3.71
459.936	3.91
460.292	3.89
460.648	3.85
461.005	3.79
461.361	3.94
461.717	3.82
462.073	3.73
462.429	3.84
462.785	3.84
463.141	3.85
463.496	3.8
463.852	4
464.208	3.85
464.564	3.98
464.919	3.85
465.275	3.9
465.631	4.05
465.986	3.73
466.342	3.89
466.697	3.8
467.052	3.81
467.408	3.96
467.763	3.84
468.118	3.82
468.473	3.83
468.829	4.01
469.184	3.84
469.539	3.95
469.894	3.78
470.249	4.09
470.603	4.08
470.958	3.91
471.313	4.11
471.668	3.92
472.023	3.92
472.377	3.79
472.732	3.89
473.086	3.93
473.441	3.65
473.795	4.06
474.15	3.97
474.504	3.88
474.859	4.08
475.213	3.87
475.567	3.79
475.921	3.83
476.275	3.87
476.63	3.91
476.984	3.89
477.338	4.05
477.692	4
478.045	3.76
478.399	3.95
478.753	4.05
479.107	3.97
479.461	3.86
479.814	3.81
480.168	3.74
480.521	3.84
480.875	3.86
481.228	3.88
481.582	3.75
481.935	3.87
482.289	3.93
482.642	3.86
482.995	3.84
483.348	3.72
483.701	3.88
484.055	3.9
484.408	3.9
484.761	3.7
485.114	3.82
485.466	3.63
485.819	3.67
486.172	3.63
486.525	3.62
486.878	3.74
487.23	3.76
487.583	3.79
487.936	3.85
488.288	3.77
488.641	3.82
488.993	3.67
489.345	3.71
489.698	3.7
490.05	3.7
490.402	3.79
490.754	3.74
491.107	3.82
491.459	3.77
491.811	3.95
492.163	3.89
492.515	3.82
492.866	3.87
493.218	3.85
493.57	3.71
493.922	3.76
494.274	3.81
494.625	3.89
494.977	3.91
495.328	3.86
495.68	3.91
496.031	4.02
496.383	3.98
496.734	4.11
497.086	3.92
497.437	3.8
497.788	4.05
498.139	3.72
498.49	4.01
498.842	3.86
499.193	3.85
499.544	3.78
499.894	3.9
500.245	3.92
500.596	3.9
500.947	4.04
501.298	3.85
501.648	3.97
501.999	4.06
502.35	4.02
502.7	3.89
503.051	3.84
503.401	4
503.752	4.06
504.102	3.92
504.452	3.94
504.803	3.87
505.153	3.95
505.503	4.06
505.853	3.94
506.203	3.88
506.553	3.99
506.903	3.94
507.253	3.99
507.603	3.88
507.953	3.98
508.303	3.91
508.652	3.81
509.002	4.04
509.352	4.05
509.701	3.78
510.051	3.9
510.4	3.96
510.75	3.92
511.099	3.94
511.449	3.86
511.798	3.88
512.147	3.89
512.496	3.88
512.846	4.03
513.195	4.01
513.544	3.88
513.893	4.05
514.242	3.98
514.591	3.95
514.939	3.81
515.288	3.98
515.637	4.17
515.986	3.91
516.334	3.99
516.683	4.15
517.032	4.04
517.38	4.05
517.729	4.02
518.077	3.89
518.426	4.11
518.774	4
519.122	3.97
519.47	3.98
519.819	3.85
520.167	3.86
520.515	3.86
520.863	3.96
521.211	3.91
521.559	4.02
521.907	3.87
522.255	3.93
522.602	4.04
522.95	3.95
523.298	3.95
523.645	4
523.993	3.98
524.341	4.04
524.688	4.01
525.036	3.85
525.383	4.12
525.73	4.16
526.078	4.03
526.425	3.96
526.772	4.11
527.119	3.98
527.466	3.93
527.814	4.01
528.161	3.95
528.508	4.01
528.854	3.92
529.201	3.91
529.548	3.94
529.895	4
530.242	3.82
530.588	3.79
530.935	3.86
531.282	3.89
531.628	3.81
531.975	3.91
532.321	3.98
532.667	4
533.014	3.99
533.36	3.97
533.706	3.93
534.052	3.95
534.399	3.86
534.745	3.98
535.091	3.96
535.437	3.98
535.783	3.92
536.129	3.93
536.474	3.96
536.82	4.1
537.166	4.09
537.512	4.01
537.857	3.99
538.203	3.96
538.549	3.95
538.894	3.94
539.239	4.02
539.585	4.06
539.93	3.93
540.276	4.16
540.621	4.13
540.966	4.12
541.311	4
541.656	4.01
542.001	4.03
542.346	4.16
542.691	3.94
543.036	4.01
543.381	3.9
543.726	3.92
544.071	3.96
544.415	3.99
544.76	3.96
545.105	3.98
545.449	3.99
545.794	4.01
546.138	4.08
546.483	4.07
546.827	4.19
547.171	4.02
547.516	4.15
547.86	4.07
548.204	3.99
548.548	3.97
548.892	4.08
549.236	4.08
549.58	4.02
549.924	4.11
550.268	4.09
550.612	4.12
550.956	4.25
551.3	4.13
551.643	4.15
551.987	4.23
552.33	4.2
552.674	4.2
553.017	4.2
553.361	4.03
553.704	4.24
554.048	4.2
554.391	4.14
554.734	4.11
555.077	4.27
555.42	4
555.764	4.01
556.107	4.05
556.45	3.97
556.793	4.02
557.135	4.36
557.478	4.3
557.821	4.24
558.164	4
558.507	4.03
558.849	4.06
559.192	4.33
559.534	4.15
559.877	4.19
560.219	3.99
560.562	4.43
560.904	4.25
561.246	4.38
561.589	4.23
561.931	4.06
562.273	4.24
562.615	4.26
562.957	4.27
563.299	4.09
563.641	4.16
563.983	4.34
564.325	4.02
564.667	4.07
565.008	4.19
565.35	4.06
565.692	3.93
566.033	4.27
566.375	4.27
566.716	4.39
567.058	4.34
567.399	4.37
567.741	4.05
568.082	4.24
568.423	4.25
568.764	4.18
569.105	4.28
569.447	4.27
569.788	4.3
570.129	4.2
570.47	4.13
570.811	4.49
571.151	4.33
571.492	4.33
571.833	4.29
572.174	4.16
572.514	4.29
572.855	4.13
573.195	4.05
573.536	4.15
573.876	4.15
574.217	4.15
574.557	4.36
574.898	4.32
575.238	4.28
575.578	4.3
575.918	4.36
576.258	4.25
576.598	4.41
576.938	4.25
577.278	4.16
577.618	4.15
577.958	4.16
578.298	4.22
578.638	4.04
578.977	4.1
579.317	4.12
579.657	4.15
579.996	4.21
580.336	4.35
580.675	4.3
581.014	4.27
581.354	4.52
581.693	4.49
582.032	4.15
582.372	4.14
582.711	4.27
583.05	4.08
583.389	4.22
583.728	4.19
584.067	4.31
584.406	4.57
584.745	4.16
585.083	4.54
585.422	4.4
585.761	4.65
586.1	4.25
586.438	4.24
586.777	4.53
587.115	4.61
587.454	4.24
587.792	4.07
588.13	4.58
588.469	4.29
588.807	4.24
589.145	4.05
589.483	4.46
589.821	4.32
590.159	4.22
590.497	4.74
590.835	4.57
591.173	4.26
591.511	4.56
591.849	4.52
592.187	4.28
592.524	4.33
592.862	4.2
593.2	4.47
593.537	4.37
593.875	4.28
594.212	4.43
594.55	4.43
594.887	4.58
595.224	4.04
595.561	4.31
595.899	4.33
596.236	4.48
596.573	4.46
596.91	4.07
597.247	3.9
597.584	4.86
597.921	4.46
598.258	4.42
598.594	4.21
598.931	4.23
599.268	4.53
599.604	4.48
599.941	4.58
600.277	4.29
600.614	4.03
600.95	4.17
601.287	4.54
601.623	4.61
601.959	4.35
602.296	4.32
602.632	4.41
602.968	4.62
603.304	4.44
603.64	4.33
603.976	4.48
604.312	4.43
604.648	4.39
604.984	4.29
605.319	4.7
605.655	4.39
605.991	4.43
606.326	4.56
606.662	4.37
606.998	4.28
607.333	4.44
607.668	4.44
608.004	4.48
608.339	4.8
608.674	4.48
609.01	4.57
609.345	4.05
609.68	4.11
610.015	4.17
610.35	4.35
610.685	4.74
611.02	4.48
611.355	4.62
611.689	4.43
612.024	4.32
612.359	4.36
612.694	4.36
613.028	4.26
613.363	4.53
613.697	4.85
614.032	4.77
614.366	4.19
614.7	4.27
615.035	4.51
615.369	4.24
615.703	4.47
616.037	4.47
616.371	4.25
616.705	4.55
617.039	4.52
617.373	4.37
617.707	4.43
618.041	4.72
618.375	4.4
618.709	4.48
619.042	4.26
619.376	4.72
619.71	4.81
620.043	4.5
620.377	4.47
620.71	4.54
621.043	4.41
621.377	4.46
621.71	4.54
622.043	4.44
622.376	4.45
622.709	4.57
623.043	4.76
623.376	4.61
623.709	4.37
624.041	4.96
624.374	4.5
624.707	4.49
625.04	4.89
625.373	4
625.705	4.3
626.038	4.07
626.37	4.57
626.703	4.49
627.035	4.77
627.368	5.08
627.7	4.45
628.032	4.21
628.365	4.66
628.697	4.58
629.029	4.39
629.361	4.39
629.693	4.74
630.025	4.65
630.357	5.28
630.689	5.03
631.021	4.61
631.353	4.64
631.684	4.66
632.016	4.39
632.348	4.52
632.679	4.43
633.011	4.72
633.342	4.72
633.674	4.53
634.005	5.05
634.336	4.68
634.668	5.34
634.999	4.33
635.33	4.73
635.661	4.94
635.992	4.89
636.323	4.78
636.654	5.12
636.985	4.67
637.316	4.47
637.647	4.48
637.977	4.54
638.308	4.92
638.639	4.2
638.969	4.26
639.3	4.53
639.63	4.5
639.961	4.4
640.291	4.2
640.622	4.58
640.952	4.6
641.282	4.66
641.612	5.03
641.943	4.72
642.273	4.68
642.603	4.83
642.933	4.67
643.263	4.79
643.592	4.41
643.922	4.26
644.252	4.23
644.582	4.35
644.911	4.55
645.241	4.75
645.571	4.71
645.9	4.32
646.23	4.49
646.559	4.72
646.888	4.79
647.218	4.73
647.547	4.94
647.876	4.53
648.205	4.66
648.534	4.61
648.863	4.42
649.192	4.76
649.521	4.76
649.85	4.9
650.179	4.93
650.508	4.51
650.837	4.09
651.165	4.54
651.494	5.05
651.822	4.34
652.151	4.38
652.479	4.7
652.808	4.41
653.136	5.33
653.465	4.32
653.793	4.26
654.121	4.63
654.449	4.71
654.777	4.76
655.105	4.84
655.433	4.66
655.761	4.3
656.089	4.63
656.417	5.24
656.745	4.86
657.073	4.33
657.4	4.99
657.728	4.94
658.056	4.47
658.383	4.61
658.711	5.12
659.038	4.87
659.365	5.56
659.693	5.26
660.02	4.74
660.347	5.07
660.674	5.09
661.001	5.15
661.329	4
661.656	4.49
661.982	5.39
662.309	4.77
662.636	4.57
662.963	5.26
663.29	4.96
663.616	4.72
663.943	4.41
664.27	4.88
664.596	5.29
664.923	4.86
665.249	4.51
665.576	4.84
665.902	5.56
666.228	4.86
666.554	5.31
666.881	4.76
667.207	4.79
667.533	4.86
667.859	4.99
668.185	4.66
668.511	4.13
668.837	4.01
669.162	4.84
669.488	4.23
669.814	5.17
670.139	4.96
670.465	5
670.791	4.94
671.116	5.69
671.442	4.77
671.767	4.77
672.092	5.11
672.418	5.35
672.743	5.13
673.068	4.5
673.393	4.88
673.718	5.22
674.043	4.89
674.368	4.66
674.693	5.38
675.018	4.81
675.343	4.8
675.667	4.76
675.992	5.73
676.317	4.96
676.641	5.13
676.966	5.13
677.29	4.58
677.615	5.03
677.939	5.5
678.264	5.18
678.588	5.2
678.912	4.6
679.236	5.09
679.56	3.97
679.885	5.34
680.209	4.92
680.532	4.99
680.856	5.32
681.18	4.94
681.504	5
681.828	5.81
682.152	4.44
682.475	5.11
682.799	4.75
683.122	5.39
683.446	5.16
683.769	5.19
684.093	4.76
684.416	5.9
684.739	4.88
685.062	4.51
685.386	5.74
685.709	4.79
686.032	5.55
686.355	5.29
686.678	5.44
687.001	4.8
687.324	5.87
687.646	5.6
687.969	4.82
688.292	4.73
688.614	5.41
688.937	6.34
689.26	4.87
689.582	5.9
689.904	5.06
690.227	5.26
690.549	5.55
690.871	5.67
691.194	4.11
691.516	5.17
691.838	4.8
692.16	5.13
692.482	5.3
692.804	5.31
