Data from 0206_chest_Reflection__3__312.txt Node

Date: Fri Dec 15 19:34:47 CST 2023
User: ToomeyLab
Spectrometer: FLMS14357
Trigger mode: 0
Integration Time (sec): 1.000000E-2
Scans to average: 100
Electric dark correction enabled: true
Nonlinearity correction enabled: false
Boxcar width: 0
XAxis mode: Wavelengths
Number of Pixels in Spectrum: 2048
>>>>>Begin Spectral Data<<<<<
189.047	78.09
189.435	78.09
189.823	78.09
190.211	-137.89
190.599	-241.67
190.987	20.19
191.375	-86.88
191.763	-148.49
192.151	415
192.538	87.16
192.926	281.14
193.314	9.73
193.702	-75.55
194.089	-176.34
194.477	66.46
194.864	-218.69
195.252	126.47
195.639	86.62
196.027	130.32
196.414	87.85
196.801	124.48
197.189	284.41
197.576	165.11
197.963	-535.76
198.351	-35.63
198.738	-23.94
199.125	23.7
199.512	-75.49
199.899	-3.68
200.286	15.38
200.673	-14.95
201.06	-3.52
201.447	-31.33
201.833	-21.43
202.22	50.85
202.607	17.54
202.994	-32.29
203.38	-23.88
203.767	7.71
204.154	12.99
204.54	30.83
204.927	-111.29
205.313	-72.55
205.699	44.77
206.086	25.88
206.472	27.34
206.858	47.34
207.245	-89.29
207.631	50.84
208.017	-12.05
208.403	-44.61
208.789	0.95
209.175	24.12
209.561	-2.05
209.947	5.76
210.333	-17.02
210.719	4.87
211.105	60.21
211.491	-48.63
211.876	31.22
212.262	0.04
212.648	9.52
213.034	19.43
213.419	-111.88
213.805	-27.96
214.19	-98.57
214.576	-33.77
214.961	-32.39
215.346	-90
215.732	-4.7
216.117	19.07
216.502	-43.72
216.888	9.28
217.273	-17.86
217.658	-33.4
218.043	24.42
218.428	-45.25
218.813	-30.09
219.198	-62.05
219.583	3.91
219.968	-14.78
220.353	-25.86
220.738	6.1
221.122	-17.36
221.507	-31.72
221.892	-42.9
222.276	-14.31
222.661	-0.62
223.046	8.13
223.43	6.59
223.815	2.19
224.199	-9.81
224.583	-1.43
224.968	-2.47
225.352	20.03
225.736	-7.16
226.121	-9.44
226.505	4.57
226.889	8.13
227.273	-0.36
227.657	6.36
228.041	0.94
228.425	-5.07
228.809	3.76
229.193	5.76
229.577	5.41
229.961	3.33
230.344	5.08
230.728	4.66
231.112	5.76
231.495	5.49
231.879	4.23
232.263	5.48
232.646	6.03
233.03	4.05
233.413	3.09
233.797	5.52
234.18	4.19
234.563	4.52
234.946	1.86
235.33	2.65
235.713	5.06
236.096	5.09
236.479	6.35
236.862	4.51
237.245	4.98
237.628	5.84
238.011	3.93
238.394	7.11
238.777	4.66
239.16	3.96
239.543	3.17
239.925	6.55
240.308	5.65
240.691	8.22
241.073	4.26
241.456	5.16
241.838	4.14
242.221	4.41
242.603	6.15
242.986	5.04
243.368	5.09
243.75	5.74
244.133	5.67
244.515	5.56
244.897	5.27
245.279	4.96
245.661	4.9
246.043	3.48
246.425	4.09
246.807	6.97
247.189	4.53
247.571	5.41
247.953	5.41
248.335	5.36
248.717	5.68
249.098	5.63
249.48	5.19
249.862	5.48
250.243	5.51
250.625	5.73
251.006	5.74
251.388	4.71
251.769	5.94
252.151	6.19
252.532	4.89
252.913	4.97
253.295	4.82
253.676	5.03
254.057	5.54
254.438	5.08
254.819	4.73
255.2	5.09
255.581	4.49
255.962	4.79
256.343	4.54
256.724	4.67
257.105	5.09
257.486	5.98
257.867	5.36
258.247	5.1
258.628	4.12
259.009	5.1
259.389	4.99
259.77	4.12
260.15	4
260.531	4.81
260.911	6.58
261.292	5.37
261.672	5.25
262.052	5.34
262.432	5.52
262.813	5.14
263.193	5.33
263.573	4.65
263.953	5.05
264.333	5.39
264.713	5.26
265.093	4.23
265.473	5.2
265.853	4.07
266.233	4.53
266.612	4.05
266.992	3.5
267.372	5.44
267.752	5.07
268.131	4.95
268.511	6.09
268.89	5.43
269.27	5.1
269.649	4.38
270.029	4.53
270.408	6.25
270.787	4.8
271.167	4.84
271.546	5.13
271.925	4.42
272.304	5.11
272.683	5.19
273.062	5.49
273.441	4.58
273.82	4.49
274.199	4.89
274.578	4.99
274.957	4.85
275.336	4.97
275.715	4.58
276.093	4.95
276.472	4.83
276.851	4.34
277.229	4.45
277.608	4.8
277.986	4.37
278.365	4.89
278.743	4.4
279.122	4.95
279.5	4.84
279.878	4.98
280.257	4.98
280.635	4.66
281.013	4.74
281.391	5.1
281.769	5.46
282.147	5.38
282.525	5.12
282.903	4.56
283.281	4.97
283.659	5.37
284.037	5.15
284.415	5.22
284.792	5.27
285.17	4.31
285.548	4.23
285.925	5.11
286.303	4.99
286.68	4.62
287.058	4.56
287.435	4.78
287.813	5.07
288.19	4.68
288.567	4.66
288.945	5.31
289.322	4.48
289.699	4.75
290.076	5.11
290.453	4.92
290.83	4.91
291.207	4.31
291.584	5.33
291.961	4.96
292.338	4.8
292.715	5.08
293.092	5.24
293.469	4.92
293.845	5.25
294.222	4.42
294.599	4.66
294.975	4.58
295.352	5.23
295.728	5.16
296.105	5.14
296.481	5.05
296.858	4.64
297.234	4.79
297.61	4.75
297.986	5
298.363	5.31
298.739	5.32
299.115	5.18
299.491	4.96
299.867	5.17
300.243	5.37
300.619	4.91
300.995	4.92
301.371	5.84
301.746	4.75
302.122	5.55
302.498	5.17
302.874	5.11
303.249	5.37
303.625	5.27
304	5.55
304.376	5.3
304.751	4.86
305.127	5.9
305.502	5.28
305.878	4.77
306.253	5.41
306.628	5.95
307.003	5.74
307.378	5.81
307.754	5.09
308.129	4.41
308.504	5.58
308.879	4.92
309.254	6.54
309.629	5.63
310.003	5.82
310.378	5.76
310.753	6.01
311.128	5.91
311.502	5.71
311.877	6.36
312.252	5.14
312.626	5.88
313.001	5.31
313.375	6.1
313.75	5.53
314.124	5.71
314.498	5.85
314.873	5.92
315.247	5.59
315.621	5.67
315.995	4.99
316.369	5.94
316.743	5.52
317.117	6.43
317.491	5.69
317.865	5.23
318.239	5.27
318.613	5.5
318.987	5.83
319.361	5.6
319.734	6.15
320.108	6.44
320.482	5.98
320.855	6.62
321.229	5.51
321.602	5.21
321.976	5.68
322.349	5.36
322.723	5.33
323.096	6.35
323.469	5.59
323.843	5.59
324.216	5.64
324.589	5.63
324.962	6.25
325.335	5.21
325.708	5.82
326.081	5.59
326.454	6.14
326.827	5.49
327.2	6.26
327.573	6.12
327.945	5.93
328.318	5.66
328.691	5.52
329.063	5.89
329.436	6.01
329.809	6.02
330.181	6.35
330.553	6.2
330.926	5.9
331.298	5.76
331.671	6.24
332.043	6.42
332.415	6.34
332.787	5.62
333.159	7
333.532	5.55
333.904	5.86
334.276	6.19
334.648	6.01
335.02	5.76
335.391	6.1
335.763	5.92
336.135	5.44
336.507	6.53
336.879	6.37
337.25	6.03
337.622	6.15
337.993	5.8
338.365	6.66
338.736	6.35
339.108	5.89
339.479	5.78
339.851	6.65
340.222	6.06
340.593	5.93
340.964	6.19
341.336	6.61
341.707	5.61
342.078	6.11
342.449	6.11
342.82	5.86
343.191	6.46
343.562	5.84
343.933	6.17
344.303	5.73
344.674	5.41
345.045	6.35
345.416	6.38
345.786	5.85
346.157	6.61
346.527	5.55
346.898	5.88
347.268	6.05
347.639	6.46
348.009	6.31
348.38	6.45
348.75	6.14
349.12	5.77
349.49	6.65
349.861	6.61
350.231	6.08
350.601	5.91
350.971	6.79
351.341	6.42
351.711	6.49
352.081	6
352.45	6.25
352.82	6.61
353.19	5.61
353.56	6.38
353.929	6.51
354.299	6.27
354.669	5.64
355.038	6.52
355.408	6.26
355.777	6.56
356.147	6.13
356.516	6.16
356.885	6.3
357.254	6.22
357.624	6.96
357.993	6.7
358.362	6.14
358.731	6.39
359.1	6.47
359.469	6.41
359.838	6.93
360.207	6.17
360.576	5.95
360.945	6.44
361.314	6.65
361.682	6.04
362.051	6.42
362.42	6.44
362.788	6.39
363.157	6.45
363.525	6.62
363.894	6.46
364.262	6.88
364.631	6.43
364.999	6.69
365.367	5.91
365.735	7.02
366.104	6.49
366.472	6.67
366.84	6.41
367.208	6.51
367.576	6.4
367.944	6.73
368.312	6.2
368.68	6.36
369.048	6.83
369.416	6.42
369.783	6.25
370.151	6.58
370.519	7.02
370.886	7.1
371.254	6.73
371.621	6.76
371.989	6.93
372.356	6.3
372.724	6.96
373.091	6.43
373.458	6.64
373.826	6.69
374.193	6.35
374.56	6.91
374.927	6.37
375.294	6.51
375.661	6.48
376.028	6.06
376.395	6.49
376.762	6.41
377.129	6.27
377.496	6.51
377.863	6.37
378.229	6.24
378.596	6.73
378.963	6.39
379.329	6.12
379.696	6.69
380.062	6.92
380.429	6.7
380.795	6.31
381.161	6.78
381.528	6.78
381.894	6.16
382.26	6.49
382.626	6.95
382.993	6.57
383.359	6.93
383.725	6.6
384.091	6.58
384.457	7
384.823	6.9
385.188	6.85
385.554	6.13
385.92	6.95
386.286	6.85
386.651	6.6
387.017	7.18
387.383	6.53
387.748	6.98
388.114	7.08
388.479	6.8
388.845	6.71
389.21	7.26
389.575	6.66
389.94	6.75
390.306	6.76
390.671	7.18
391.036	6.37
391.401	6.47
391.766	6.67
392.131	6.53
392.496	6.92
392.861	6.64
393.226	6.9
393.591	6.87
393.956	6.66
394.32	6.77
394.685	6.71
395.05	6.7
395.414	6.74
395.779	6.62
396.143	6.98
396.508	6.9
396.872	6.72
397.236	6.97
397.601	6.68
397.965	7.1
398.329	7.11
398.694	6.88
399.058	7.11
399.422	6.46
399.786	7.01
400.15	6.93
400.514	6.73
400.878	7.04
401.242	7.08
401.605	7.06
401.969	7.17
402.333	6.96
402.697	6.93
403.06	6.94
403.424	7.23
403.787	6.88
404.151	6.97
404.514	6.87
404.878	7.25
405.241	7.04
405.604	7.04
405.968	7.08
406.331	6.99
406.694	7.1
407.057	6.83
407.42	7.2
407.783	6.74
408.146	7.15
408.509	6.8
408.872	6.73
409.235	7.3
409.598	7.42
409.961	7.33
410.323	6.92
410.686	6.98
411.049	7.01
411.411	6.89
411.774	7.05
412.136	6.9
412.499	6.88
412.861	6.94
413.223	6.95
413.586	7.11
413.948	6.93
414.31	7.27
414.672	6.97
415.035	7.06
415.397	7.3
415.759	6.99
416.121	7.22
416.483	6.98
416.845	7.03
417.206	7.22
417.568	7.2
417.93	6.73
418.292	6.98
418.653	7.01
419.015	7.32
419.377	7.17
419.738	7.32
420.1	7.02
420.461	7.16
420.822	7.21
421.184	7.02
421.545	7.01
421.906	7.06
422.267	7.15
422.629	7.05
422.99	7.09
423.351	7.09
423.712	7.07
424.073	7.04
424.434	6.99
424.795	7.1
425.155	7.27
425.516	7.06
425.877	7.02
426.238	7.09
426.598	7.16
426.959	7.11
427.32	7.01
427.68	6.94
428.041	7.12
428.401	7.34
428.761	7.09
429.122	7.14
429.482	7.05
429.842	7.38
430.202	7.27
430.563	7.32
430.923	7.19
431.283	7.29
431.643	7.22
432.003	7.35
432.363	7.34
432.722	7.32
433.082	7.24
433.442	7.2
433.802	7.14
434.161	7.22
434.521	7.48
434.881	7.41
435.24	7.15
435.6	7.28
435.959	7.25
436.319	7.36
436.678	7.09
437.037	7.25
437.396	7.5
437.756	7.61
438.115	7.37
438.474	7.35
438.833	7.1
439.192	7.28
439.551	7.54
439.91	7.16
440.269	7.54
440.628	7.26
440.987	7.33
441.345	7.22
441.704	7.35
442.063	7.33
442.421	7.36
442.78	7.35
443.138	7.37
443.497	7.48
443.855	7.3
444.214	7.34
444.572	7.37
444.93	7.34
445.288	7.39
445.647	7.44
446.005	7.4
446.363	7.49
446.721	7.54
447.079	7.23
447.437	7.3
447.795	7.46
448.153	7.26
448.51	7.43
448.868	7.36
449.226	7.33
449.584	7.33
449.941	7.55
450.299	7.29
450.656	7.4
451.014	7.55
451.371	7.33
451.729	7.36
452.086	7.67
452.443	7.47
452.801	7.65
453.158	7.47
453.515	7.3
453.872	7.7
454.229	7.43
454.586	7.41
454.943	7.55
455.3	7.61
455.657	7.43
456.014	7.37
456.371	7.58
456.727	7.62
457.084	7.64
457.441	7.49
457.797	7.67
458.154	7.7
458.51	7.67
458.867	7.73
459.223	7.73
459.58	7.52
459.936	7.71
460.292	7.67
460.648	7.61
461.005	7.53
461.361	7.61
461.717	7.55
462.073	7.47
462.429	7.59
462.785	7.59
463.141	7.56
463.496	7.56
463.852	7.88
464.208	7.68
464.564	7.67
464.919	7.6
465.275	7.56
465.631	7.8
465.986	7.69
466.342	7.69
466.697	7.53
467.052	7.71
467.408	7.82
467.763	7.74
468.118	7.78
468.473	7.63
468.829	7.7
469.184	7.63
469.539	7.72
469.894	7.6
470.249	7.85
470.603	7.79
470.958	7.98
471.313	7.81
471.668	7.84
472.023	7.91
472.377	7.66
472.732	7.74
473.086	7.9
473.441	7.62
473.795	8.06
474.15	7.83
474.504	7.79
474.859	7.85
475.213	7.7
475.567	7.61
475.921	7.76
476.275	7.93
476.63	7.87
476.984	8.09
477.338	7.97
477.692	7.76
478.045	7.86
478.399	7.8
478.753	7.92
479.107	7.86
479.461	7.81
479.814	7.96
480.168	8
480.521	7.89
480.875	7.97
481.228	7.93
481.582	8.03
481.935	7.95
482.289	7.91
482.642	8.02
482.995	7.77
483.348	7.77
483.701	7.96
484.055	7.9
484.408	8.04
484.761	7.76
485.114	7.73
485.466	7.55
485.819	7.55
486.172	7.54
486.525	7.57
486.878	7.63
487.23	7.69
487.583	7.75
487.936	7.76
488.288	7.86
488.641	7.92
488.993	7.75
489.345	7.71
489.698	7.68
490.05	7.71
490.402	7.75
490.754	7.83
491.107	7.86
491.459	7.93
491.811	7.87
492.163	8
492.515	7.97
492.866	8
493.218	7.93
493.57	7.77
493.922	7.8
494.274	7.91
494.625	7.99
494.977	7.98
495.328	8.07
495.68	8.01
496.031	8.19
496.383	8.18
496.734	8.3
497.086	8.24
497.437	8.24
497.788	8.33
498.139	8.11
498.49	8.22
498.842	8.12
499.193	8.19
499.544	8.2
499.894	8.12
500.245	8.24
500.596	8.22
500.947	8.3
501.298	8.19
501.648	8.39
501.999	8.38
502.35	8.33
502.7	8.31
503.051	8.11
503.401	8.26
503.752	8.44
504.102	8.29
504.452	8.39
504.803	8.43
505.153	8.37
505.503	8.33
505.853	8.33
506.203	8.29
506.553	8.4
506.903	8.36
507.253	8.35
507.603	8.31
507.953	8.48
508.303	8.55
508.652	8.31
509.002	8.47
509.352	8.64
509.701	8.34
510.051	8.47
510.4	8.37
510.75	8.26
511.099	8.45
511.449	8.47
511.798	8.48
512.147	8.39
512.496	8.54
512.846	8.37
513.195	8.38
513.544	8.43
513.893	8.55
514.242	8.52
514.591	8.66
514.939	8.47
515.288	8.42
515.637	8.63
515.986	8.61
516.334	8.55
516.683	8.63
517.032	8.67
517.38	8.65
517.729	8.72
518.077	8.61
518.426	8.67
518.774	8.62
519.122	8.53
519.47	8.59
519.819	8.61
520.167	8.6
520.515	8.55
520.863	8.52
521.211	8.64
521.559	8.68
521.907	8.58
522.255	8.72
522.602	8.67
522.95	8.78
523.298	8.73
523.645	8.82
523.993	8.77
524.341	8.85
524.688	8.86
525.036	8.83
525.383	8.84
525.73	8.95
526.078	8.89
526.425	8.78
526.772	8.81
527.119	8.81
527.466	8.75
527.814	8.75
528.161	8.81
528.508	8.76
528.854	8.71
529.201	8.74
529.548	8.73
529.895	8.63
530.242	8.59
530.588	8.53
530.935	8.61
531.282	8.62
531.628	8.61
531.975	8.72
532.321	8.81
532.667	8.91
533.014	8.89
533.36	8.95
533.706	8.86
534.052	9.01
534.399	8.92
534.745	8.91
535.091	8.89
535.437	8.93
535.783	8.92
536.129	9
536.474	9.03
536.82	8.98
537.166	9.12
537.512	9.14
537.857	9.08
538.203	9.12
538.549	9.09
538.894	9.01
539.239	9.14
539.585	9.22
539.93	9.02
540.276	9.27
540.621	9.23
540.966	9.24
541.311	9.26
541.656	9.3
542.001	9.39
542.346	9.36
542.691	9.25
543.036	9.19
543.381	9.06
543.726	9.09
544.071	9.21
544.415	9.22
544.76	9.19
545.105	9.26
545.449	9.39
545.794	9.44
546.138	9.48
546.483	9.52
546.827	9.49
547.171	9.55
547.516	9.67
547.86	9.49
548.204	9.48
548.548	9.42
548.892	9.55
549.236	9.56
549.58	9.68
549.924	9.63
550.268	9.64
550.612	9.61
550.956	10.02
551.3	9.88
551.643	9.92
551.987	9.92
552.33	9.88
552.674	9.86
553.017	9.93
553.361	9.83
553.704	10.18
554.048	9.65
554.391	9.83
554.734	9.84
555.077	9.87
555.42	9.77
555.764	9.94
556.107	9.7
556.45	9.76
556.793	9.91
557.135	9.99
557.478	10.21
557.821	10.11
558.164	10.09
558.507	10.12
558.849	10.13
559.192	10.18
559.534	10.16
559.877	10.31
560.219	10.2
560.562	10.49
560.904	10.39
561.246	10.29
561.589	10.32
561.931	10.25
562.273	10.12
562.615	10.37
562.957	10.28
563.299	10.23
563.641	10.43
563.983	10.31
564.325	10.2
564.667	10.43
565.008	10.47
565.35	10.59
565.692	10.15
566.033	10.58
566.375	10.79
566.716	10.58
567.058	10.41
567.399	10.4
567.741	10.38
568.082	10.47
568.423	10.55
568.764	10.43
569.105	10.67
569.447	10.79
569.788	10.49
570.129	10.77
570.47	10.71
570.811	10.81
571.151	10.66
571.492	10.82
571.833	10.8
572.174	10.76
572.514	10.86
572.855	10.76
573.195	10.88
573.536	10.8
573.876	10.69
574.217	10.63
574.557	10.78
574.898	10.93
575.238	10.91
575.578	10.87
575.918	11.01
576.258	11
576.598	11.27
576.938	10.87
577.278	11.03
577.618	11.08
577.958	11.03
578.298	11.14
578.638	11.04
578.977	11.15
579.317	11.19
579.657	11.1
579.996	11.19
580.336	11.28
580.675	11.17
581.014	11.19
581.354	11.37
581.693	11.42
582.032	11.43
582.372	11.36
582.711	11.56
583.05	11.38
583.389	11.35
583.728	11.38
584.067	11.65
584.406	11.85
584.745	11.73
585.083	11.32
585.422	11.52
585.761	11.73
586.1	11.66
586.438	11.43
586.777	11.82
587.115	11.69
587.454	11.58
587.792	11.5
588.13	12.04
588.469	11.9
588.807	11.71
589.145	11.79
589.483	11.66
589.821	11.9
590.159	11.9
590.497	12.23
590.835	12.05
591.173	11.89
591.511	12.28
591.849	12.06
592.187	12.11
592.524	11.76
592.862	11.86
593.2	11.94
593.537	11.97
593.875	12.26
594.212	12.04
594.55	12.1
594.887	12.39
595.224	12.12
595.561	12.25
595.899	11.95
596.236	12.11
596.573	12.27
596.91	11.94
597.247	12.01
597.584	12.64
597.921	12.22
598.258	12.3
598.594	12.44
598.931	12.44
599.268	12.42
599.604	12.3
599.941	12.57
600.277	12.42
600.614	12.34
600.95	12.47
601.287	12.6
601.623	12.39
601.959	12.77
602.296	12.73
602.632	12.71
602.968	12.82
603.304	12.83
603.64	12.68
603.976	13.02
604.312	12.61
604.648	12.72
604.984	12.73
605.319	12.83
605.655	12.86
605.991	12.89
606.326	12.71
606.662	12.82
606.998	12.8
607.333	13.03
607.668	12.97
608.004	12.96
608.339	13.34
608.674	13.17
609.01	12.95
609.345	12.83
609.68	13.59
610.015	13.02
610.35	13.07
610.685	12.99
611.02	12.96
611.355	13.49
611.689	13.18
612.024	13.45
612.359	13.12
612.694	13.31
613.028	12.83
613.363	13.23
613.697	13.64
614.032	13.64
614.366	13.64
614.7	13.72
615.035	13.67
615.369	13.36
615.703	13.6
616.037	13.27
616.371	12.94
616.705	13.39
617.039	13.74
617.373	13.45
617.707	13.32
618.041	13.78
618.375	13.63
618.709	13.85
619.042	13.51
619.376	13.85
619.71	13.63
620.043	13.96
620.377	13.87
620.71	13.98
621.043	13.87
621.377	14.03
621.71	13.94
622.043	13.77
622.376	13.99
622.709	14.21
623.043	14.35
623.376	14.14
623.709	13.85
624.041	14.04
624.374	14.11
624.707	13.83
625.04	14.54
625.373	13.88
625.705	14.46
626.038	14.29
626.37	14.39
626.703	14.49
627.035	14.25
627.368	14.49
627.7	14.41
628.032	14.7
628.365	14.5
628.697	14.42
629.029	14.37
629.361	14.47
629.693	14.5
630.025	14.04
630.357	14.56
630.689	14.78
631.021	14.45
631.353	14.76
631.684	14.33
632.016	14.31
632.348	14.79
632.679	14.77
633.011	14.7
633.342	15.25
633.674	15
634.005	15.06
634.336	14.98
634.668	15.46
634.999	14.56
635.33	15
635.661	15.4
635.992	15.07
636.323	15.13
636.654	15.29
636.985	14.61
637.316	14.88
637.647	14.91
637.977	15.26
638.308	15.39
638.639	14.9
638.969	14.78
639.3	14.97
639.63	15.36
639.961	15.54
640.291	15.42
640.622	15.72
640.952	15.45
641.282	15.78
641.612	15.65
641.943	15.49
642.273	15.25
642.603	15.73
642.933	15.38
643.263	15.83
643.592	15.12
643.922	15.35
644.252	15.63
644.582	16.03
644.911	15.7
645.241	15.75
645.571	15.61
645.9	15.5
646.23	15.24
646.559	15.6
646.888	15.79
647.218	15.83
647.547	15.61
647.876	15.38
648.205	16.2
648.534	15.76
648.863	15.5
649.192	15.8
649.521	16.05
649.85	16.18
650.179	15.78
650.508	16.2
650.837	15.76
651.165	15.93
651.494	16.44
651.822	16.27
652.151	16.29
652.479	16.18
652.808	16.31
653.136	16.66
653.465	15.61
653.793	15.59
654.121	16.31
654.449	16.54
654.777	16.73
655.105	16.97
655.433	16.15
655.761	16.13
656.089	16.53
656.417	16.72
656.745	16.48
657.073	16.21
657.4	16.75
657.728	16.56
658.056	16.51
658.383	16.34
658.711	16.18
659.038	16.8
659.365	17.19
659.693	16.93
660.02	16.66
660.347	16.35
660.674	17.34
661.001	16.92
661.329	16.32
661.656	17.2
661.982	16.76
662.309	17.11
662.636	16.87
662.963	17.13
663.29	17.14
663.616	17.4
663.943	16.8
664.27	17.04
664.596	16.59
664.923	17.18
665.249	16.79
665.576	17.07
665.902	17.96
666.228	17.26
666.554	17.95
666.881	17.3
667.207	17.37
667.533	17.76
667.859	17.75
668.185	17.58
668.511	16.93
668.837	16.72
669.162	17.64
669.488	17.23
669.814	18.13
670.139	18.11
670.465	17.87
670.791	17.35
671.116	18.53
671.442	17.56
671.767	18.26
672.092	18.01
672.418	17.97
672.743	18.19
673.068	17.49
673.393	17.55
673.718	18.15
674.043	17.37
674.368	18.03
674.693	18.65
675.018	18.13
675.343	18.53
675.667	18.67
675.992	17.71
676.317	18.4
676.641	18.7
676.966	18.09
677.29	17.82
677.615	18.6
677.939	18.53
678.264	18.43
678.588	18.08
678.912	19.15
679.236	19.15
679.56	17.81
679.885	19.24
680.209	18.4
680.532	18.25
680.856	19.15
681.18	18.59
681.504	18.36
681.828	18.2
682.152	18.28
682.475	18.89
682.799	18.82
683.122	19.46
