Data from 0206_chest_Reflection__2__311.txt Node

Date: Fri Dec 15 19:34:34 CST 2023
User: ToomeyLab
Spectrometer: FLMS14357
Trigger mode: 0
Integration Time (sec): 1.000000E-2
Scans to average: 100
Electric dark correction enabled: true
Nonlinearity correction enabled: false
Boxcar width: 0
XAxis mode: Wavelengths
Number of Pixels in Spectrum: 2048
>>>>>Begin Spectral Data<<<<<
189.047	21.78
189.435	21.78
189.823	21.78
190.211	-3.38
190.599	228.08
190.987	56.26
191.375	63.33
191.763	220.03
192.151	-963.06
192.538	22.04
192.926	158.26
193.314	692.08
193.702	-140.27
194.089	-46.06
194.477	-58.14
194.864	-265.43
195.252	76.85
195.639	149.49
196.027	734.84
196.414	242.11
196.801	81.82
197.189	105.64
197.576	-58.6
197.963	-632.12
198.351	-22.68
198.738	-62.26
199.125	66.73
199.512	-38.15
199.899	24.61
200.286	51.65
200.673	32.73
201.06	-5.86
201.447	52.15
201.833	-1.49
202.22	60.08
202.607	51.73
202.994	-25.53
203.38	-8.68
203.767	47.31
204.154	4.54
204.54	46.92
204.927	-59.33
205.313	-111.83
205.699	3.09
206.086	36.81
206.472	23.8
206.858	-4.9
207.245	-23.42
207.631	51.25
208.017	-20.45
208.403	16.28
208.789	37.82
209.175	4.8
209.561	-12.58
209.947	-28.38
210.333	9.52
210.719	14.28
211.105	43.49
211.491	-96.52
211.876	17.99
212.262	2.09
212.648	8.45
213.034	52.38
213.419	-23.14
213.805	-4.99
214.19	-4.83
214.576	-11.93
214.961	-33.08
215.346	-70.93
215.732	18.05
216.117	-4.96
216.502	-39.92
216.888	31.08
217.273	24.58
217.658	37.59
218.043	60.52
218.428	-51.17
218.813	-13.93
219.198	-36.17
219.583	0.93
219.968	2.73
220.353	-3.54
220.738	-6.4
221.122	14.84
221.507	-30.08
221.892	-18.04
222.276	-46.73
222.661	5.81
223.046	8.81
223.43	12.75
223.815	18.68
224.199	-21.39
224.583	8.03
224.968	-6.98
225.352	10.2
225.736	-7.62
226.121	-17.32
226.505	0.82
226.889	-1.64
227.273	-7.98
227.657	6.03
228.041	4.87
228.425	3.27
228.809	11.33
229.193	2.42
229.577	2.16
229.961	6.2
230.344	4.36
230.728	3.85
231.112	5.72
231.495	4.97
231.879	3.42
232.263	6.94
232.646	7.12
233.03	5.11
233.413	3.73
233.797	4.87
234.18	3.71
234.563	2.75
234.946	4.59
235.33	5.1
235.713	5.79
236.096	5.39
236.479	6.3
236.862	5.12
237.245	3.57
237.628	3.1
238.011	4.85
238.394	6.95
238.777	4.69
239.16	3.13
239.543	6.46
239.925	6.3
240.308	4.24
240.691	6.95
241.073	5.21
241.456	5.65
241.838	3.89
242.221	5.25
242.603	4.54
242.986	4.47
243.368	4.99
243.75	5.47
244.133	4.96
244.515	5.48
244.897	5.3
245.279	5.17
245.661	4
246.043	4.66
246.425	3.59
246.807	5.53
247.189	5.04
247.571	5.08
247.953	5.72
248.335	5.54
248.717	5.87
249.098	5.08
249.48	5.12
249.862	5.2
250.243	5.29
250.625	5.33
251.006	5.19
251.388	4.26
251.769	4.55
252.151	5.11
252.532	4.27
252.913	4.21
253.295	3.99
253.676	5.14
254.057	5.09
254.438	4.75
254.819	3.64
255.2	4.61
255.581	5.33
255.962	3.74
256.343	4.57
256.724	4.8
257.105	4.07
257.486	5.03
257.867	4.89
258.247	4.87
258.628	4.4
259.009	4.42
259.389	4.6
259.77	4.93
260.15	4.43
260.531	4.65
260.911	5.14
261.292	4.69
261.672	5.17
262.052	4.84
262.432	4.85
262.813	5.12
263.193	4.93
263.573	4.24
263.953	4.5
264.333	5.92
264.713	5.13
265.093	4.04
265.473	4.33
265.853	3.15
266.233	5.02
266.612	2.6
266.992	3.77
267.372	5.52
267.752	5.24
268.131	4.6
268.511	4.99
268.89	5.12
269.27	4.54
269.649	3.92
270.029	4.57
270.408	5.36
270.787	5.11
271.167	4.72
271.546	4.94
271.925	3.84
272.304	3.85
272.683	4.7
273.062	4.98
273.441	4.65
273.82	4.42
274.199	4.73
274.578	4.47
274.957	5.02
275.336	4.27
275.715	3.86
276.093	4.31
276.472	4.89
276.851	4.61
277.229	4.82
277.608	3.61
277.986	4.81
278.365	4.8
278.743	4.74
279.122	4.02
279.5	4.09
279.878	4.55
280.257	4.13
280.635	4.24
281.013	4.14
281.391	5.35
281.769	4.34
282.147	4.41
282.525	4.98
282.903	4.64
283.281	5.19
283.659	4.73
284.037	4.45
284.415	4.84
284.792	5.16
285.17	3.59
285.548	4.37
285.925	4.32
286.303	4.57
286.68	4.1
287.058	4.21
287.435	4.55
287.813	4.8
288.19	4.28
288.567	4.21
288.945	4.46
289.322	4.63
289.699	4.51
290.076	4.04
290.453	4.3
290.83	4.55
291.207	4.49
291.584	4.75
291.961	5.01
292.338	4.46
292.715	4.65
293.092	4.59
293.469	4.97
293.845	4.7
294.222	3.83
294.599	3.93
294.975	4.04
295.352	4.69
295.728	4.1
296.105	4.4
296.481	4.66
296.858	4.47
297.234	4.08
297.61	4.38
297.986	4.23
298.363	4.87
298.739	4.88
299.115	4.51
299.491	4.5
299.867	4.4
300.243	4.64
300.619	4.42
300.995	4.74
301.371	4.61
301.746	4.52
302.122	4.7
302.498	4.49
302.874	4.66
303.249	4.98
303.625	5.1
304	4.94
304.376	4.63
304.751	3.87
305.127	5.59
305.502	4.2
305.878	3.87
306.253	4.22
306.628	4.4
307.003	4.36
307.378	4.31
307.754	4.2
308.129	3.65
308.504	5.04
308.879	4.72
309.254	5.39
309.629	4.55
310.003	4.85
310.378	4.93
310.753	4.75
311.128	4.99
311.502	4.44
311.877	4.74
312.252	4.39
312.626	4.76
313.001	4.51
313.375	4.74
313.75	4.17
314.124	5.01
314.498	4.46
314.873	4.53
315.247	4.61
315.621	5.25
315.995	4.28
316.369	4.79
316.743	4.27
317.117	5.14
317.491	4.23
317.865	4.63
318.239	4.55
318.613	4.59
318.987	4.89
319.361	4.16
319.734	4.58
320.108	4.8
320.482	4.99
320.855	5.25
321.229	4.84
321.602	4.69
321.976	5.65
322.349	4.37
322.723	4.1
323.096	5.47
323.469	4
323.843	4.51
324.216	4.95
324.589	4.97
324.962	4.72
325.335	4.33
325.708	4.37
326.081	4.76
326.454	5.01
326.827	4.57
327.2	4.85
327.573	4.92
327.945	4.32
328.318	4.49
328.691	4.13
329.063	3.8
329.436	4.46
329.809	5.25
330.181	4.48
330.553	4.43
330.926	4.66
331.298	4.51
331.671	4.25
332.043	4.98
332.415	5.48
332.787	4.73
333.159	5.14
333.532	5.16
333.904	4.44
334.276	4.28
334.648	4.42
335.02	5.05
335.391	4.27
335.763	4.34
336.135	4.58
336.507	5.75
336.879	4.53
337.25	4.55
337.622	4.65
337.993	4.56
338.365	4.97
338.736	4.83
339.108	4.86
339.479	5.03
339.851	4.79
340.222	4.27
340.593	5.05
340.964	5.1
341.336	5.76
341.707	4.54
342.078	4.92
342.449	5.05
342.82	4.41
343.191	4.9
343.562	4.54
343.933	4.83
344.303	5.13
344.674	4.67
345.045	4.84
345.416	4.99
345.786	4.6
346.157	4.9
346.527	4
346.898	4.37
347.268	4.63
347.639	5.11
348.009	4.63
348.38	5.09
348.75	5
349.12	4.67
349.49	5.44
349.861	4.7
350.231	4.83
350.601	4.53
350.971	4.53
351.341	4.76
351.711	4.99
352.081	4.95
352.45	4.59
352.82	4.86
353.19	4.58
353.56	4.51
353.929	4.98
354.299	4.5
354.669	4.46
355.038	5.11
355.408	4.39
355.777	4.66
356.147	4.48
356.516	4.78
356.885	5.09
357.254	4.56
357.624	5.45
357.993	5.19
358.362	4.99
358.731	4.95
359.1	4.84
359.469	4.8
359.838	5.04
360.207	4.6
360.576	4.86
360.945	4.87
361.314	5.25
361.682	4.79
362.051	4.78
362.42	5.15
362.788	4.68
363.157	5.09
363.525	5.28
363.894	5.09
364.262	4.89
364.631	4.94
364.999	4.95
365.367	4.48
365.735	5.66
366.104	5.07
366.472	5.07
366.84	4.86
367.208	4.75
367.576	5.02
367.944	5.33
368.312	4.6
368.68	4.77
369.048	5.12
369.416	5.18
369.783	4.83
370.151	4.76
370.519	5.36
370.886	5.4
371.254	4.62
371.621	5.33
371.989	5.09
372.356	4.51
372.724	5.11
373.091	4.87
373.458	4.82
373.826	5.12
374.193	4.74
374.56	5.36
374.927	5.21
375.294	5.13
375.661	5.07
376.028	4.96
376.395	4.97
376.762	4.88
377.129	4.61
377.496	5.06
377.863	4.7
378.229	4.6
378.596	5.01
378.963	4.9
379.329	4.75
379.696	4.96
380.062	4.95
380.429	4.79
380.795	4.65
381.161	5.04
381.528	5.45
381.894	5.1
382.26	4.72
382.626	5.22
382.993	4.78
383.359	5.41
383.725	4.85
384.091	5.12
384.457	4.96
384.823	5.15
385.188	5.06
385.554	4.96
385.92	5.2
386.286	5.27
386.651	5.21
387.017	5.59
387.383	5.16
387.748	4.83
388.114	5.17
388.479	4.75
388.845	5.33
389.21	4.97
389.575	5.23
389.94	5.12
390.306	4.92
390.671	5.36
391.036	4.87
391.401	4.69
391.766	4.9
392.131	4.99
392.496	5.36
392.861	5.06
393.226	5.31
393.591	5.03
393.956	5.01
394.32	5.1
394.685	4.65
395.05	4.89
395.414	5.25
395.779	4.88
396.143	4.97
396.508	5.07
396.872	5.03
397.236	5.18
397.601	5.08
397.965	5.05
398.329	4.97
398.694	5.06
399.058	5.02
399.422	4.89
399.786	5.37
400.15	5.25
400.514	5
400.878	5.2
401.242	5.35
401.605	5.33
401.969	5.28
402.333	4.87
402.697	5.18
403.06	5.34
403.424	5.13
403.787	5.11
404.151	5.23
404.514	5.14
404.878	5.02
405.241	5.2
405.604	5.31
405.968	5.31
406.331	5.34
406.694	5.4
407.057	5.21
407.42	5.49
407.783	4.87
408.146	5.31
408.509	5.35
408.872	5.03
409.235	5.23
409.598	5.54
409.961	5.08
410.323	5.4
410.686	5.15
411.049	5.1
411.411	5.19
411.774	5.11
412.136	5.1
412.499	5.26
412.861	5.14
413.223	5.27
413.586	5.06
413.948	5.35
414.31	5.31
414.672	5.38
415.035	5.06
415.397	5.75
415.759	5.15
416.121	5.4
416.483	5.38
416.845	5.4
417.206	5.23
417.568	5.5
417.93	5.17
418.292	5.09
418.653	5.21
419.015	5.58
419.377	5.27
419.738	5.37
420.1	5.18
420.461	5.41
420.822	5.46
421.184	5.16
421.545	5.26
421.906	5.11
422.267	5.42
422.629	5.23
422.99	5.16
423.351	5.12
423.712	5.2
424.073	5.17
424.434	5.07
424.795	5.09
425.155	5.24
425.516	5.18
425.877	5.13
426.238	5.19
426.598	5.25
426.959	5.36
427.32	5.14
427.68	5.25
428.041	5.24
428.401	5.33
428.761	5.29
429.122	5.16
429.482	5.15
429.842	5.36
430.202	5.39
430.563	5.53
430.923	5.35
431.283	5.26
431.643	5.35
432.003	5.28
432.363	5.45
432.722	5.37
433.082	5.25
433.442	5.43
433.802	5.24
434.161	5.27
434.521	5.63
434.881	5.4
435.24	5.14
435.6	5.25
435.959	5.32
436.319	5.23
436.678	5.29
437.037	5.27
437.396	5.45
437.756	5.39
438.115	5.37
438.474	5.69
438.833	5.14
439.192	5.23
439.551	5.37
439.91	5.29
440.269	5.51
440.628	5.31
440.987	5.31
441.345	5.23
441.704	5.41
442.063	5.25
442.421	5.39
442.78	5.38
443.138	5.37
443.497	5.23
443.855	5.35
444.214	5.22
444.572	5.51
444.93	5.47
445.288	5.31
445.647	5.41
446.005	5.37
446.363	5.37
446.721	5.45
447.079	5.15
447.437	5.35
447.795	5.44
448.153	5.25
448.51	5.24
448.868	5.37
449.226	5.32
449.584	5.37
449.941	5.41
450.299	5.4
450.656	5.31
451.014	5.29
451.371	5.32
451.729	5.35
452.086	5.51
452.443	5.49
452.801	5.69
453.158	5.44
453.515	5.43
453.872	5.5
454.229	5.41
454.586	5.42
454.943	5.45
455.3	5.73
455.657	5.41
456.014	5.38
456.371	5.39
456.727	5.43
457.084	5.49
457.441	5.47
457.797	5.47
458.154	5.49
458.51	5.66
458.867	5.45
459.223	5.51
459.58	5.48
459.936	5.54
460.292	5.6
460.648	5.47
461.005	5.42
461.361	5.54
461.717	5.56
462.073	5.39
462.429	5.42
462.785	5.47
463.141	5.39
463.496	5.39
463.852	5.63
464.208	5.48
464.564	5.63
464.919	5.67
465.275	5.61
465.631	5.59
465.986	5.56
466.342	5.46
466.697	5.5
467.052	5.59
467.408	5.61
467.763	5.55
468.118	5.52
468.473	5.45
468.829	5.61
469.184	5.46
469.539	5.54
469.894	5.48
470.249	5.76
470.603	5.71
470.958	5.76
471.313	5.63
471.668	5.69
472.023	5.62
472.377	5.71
472.732	5.65
473.086	5.39
473.441	5.36
473.795	5.7
474.15	5.52
474.504	5.55
474.859	5.51
475.213	5.39
475.567	5.51
475.921	5.61
476.275	5.59
476.63	5.61
476.984	5.8
477.338	5.78
477.692	5.62
478.045	5.5
478.399	5.6
478.753	5.64
479.107	5.6
479.461	5.48
479.814	5.69
480.168	5.48
480.521	5.5
480.875	5.6
481.228	5.51
481.582	5.62
481.935	5.66
482.289	5.55
482.642	5.65
482.995	5.57
483.348	5.57
483.701	5.64
484.055	5.6
484.408	5.63
484.761	5.53
485.114	5.58
485.466	5.36
485.819	5.4
486.172	5.36
486.525	5.3
486.878	5.31
487.23	5.33
487.583	5.39
487.936	5.41
488.288	5.46
488.641	5.56
488.993	5.5
489.345	5.44
489.698	5.38
490.05	5.38
490.402	5.42
490.754	5.43
491.107	5.49
491.459	5.6
491.811	5.59
492.163	5.64
492.515	5.59
492.866	5.68
493.218	5.61
493.57	5.5
493.922	5.52
494.274	5.55
494.625	5.59
494.977	5.59
495.328	5.73
495.68	5.59
496.031	5.85
496.383	5.67
496.734	5.91
497.086	5.83
497.437	5.8
497.788	5.73
498.139	5.77
498.49	5.91
498.842	5.62
499.193	5.61
499.544	5.71
499.894	5.64
500.245	5.73
500.596	5.63
500.947	5.7
501.298	5.74
501.648	5.76
501.999	5.85
502.35	5.7
502.7	5.92
503.051	5.6
503.401	5.73
503.752	5.65
504.102	5.84
504.452	5.86
504.803	5.74
505.153	5.79
505.503	5.94
505.853	5.82
506.203	5.79
506.553	5.73
506.903	5.68
507.253	5.72
507.603	5.71
507.953	5.89
508.303	5.92
508.652	5.78
509.002	5.95
509.352	6.05
509.701	5.94
510.051	5.78
510.4	5.88
510.75	5.78
511.099	5.89
511.449	5.73
511.798	5.83
512.147	5.78
512.496	5.72
512.846	6.02
513.195	5.88
513.544	5.79
513.893	6
514.242	5.85
514.591	6.13
514.939	5.97
515.288	5.85
515.637	6.11
515.986	5.9
516.334	5.87
516.683	6.04
517.032	6.03
517.38	6.04
517.729	5.97
518.077	5.99
518.426	6.2
518.774	6.2
519.122	5.99
519.47	6.01
519.819	5.93
520.167	5.89
520.515	5.96
520.863	5.98
521.211	6
521.559	6
521.907	5.96
522.255	5.99
522.602	5.94
522.95	5.98
523.298	6.04
523.645	6.15
523.993	5.97
524.341	6.12
524.688	6.2
525.036	5.99
525.383	6.15
525.73	6.31
526.078	6.26
526.425	6.07
526.772	6.08
527.119	6.09
527.466	6.09
527.814	6.08
528.161	6.02
528.508	6.04
528.854	6.07
529.201	6.07
529.548	5.99
529.895	6.01
530.242	6
530.588	5.89
530.935	5.93
531.282	5.92
531.628	5.87
531.975	6.04
532.321	5.98
532.667	6.07
533.014	6.08
533.36	6.14
533.706	6.22
534.052	6.23
534.399	6.09
534.745	6.15
535.091	6.16
535.437	6.14
535.783	6.13
536.129	6.12
536.474	6.2
536.82	6.25
537.166	6.24
537.512	6.27
537.857	6.35
538.203	6.32
538.549	6.21
538.894	6.32
539.239	6.36
539.585	6.41
539.93	6.26
540.276	6.48
540.621	6.45
540.966	6.46
541.311	6.36
541.656	6.36
542.001	6.42
542.346	6.48
542.691	6.39
543.036	6.37
543.381	6.29
543.726	6.26
544.071	6.32
544.415	6.38
544.76	6.33
545.105	6.43
545.449	6.4
545.794	6.46
546.138	6.4
546.483	6.58
546.827	6.58
547.171	6.6
547.516	6.8
547.86	6.6
548.204	6.53
548.548	6.53
548.892	6.71
549.236	6.56
549.58	6.61
549.924	6.75
550.268	6.66
550.612	6.74
550.956	6.92
551.3	6.61
551.643	6.74
551.987	6.74
552.33	6.86
552.674	6.93
553.017	6.74
553.361	6.73
553.704	7.06
554.048	6.82
554.391	6.95
554.734	6.82
555.077	6.9
555.42	6.89
555.764	6.75
556.107	6.79
556.45	6.79
556.793	6.89
557.135	6.93
557.478	7.21
557.821	7.14
558.164	6.92
558.507	7.05
558.849	7.06
559.192	7.06
559.534	7.23
559.877	7.13
560.219	7.05
560.562	7.24
560.904	6.99
561.246	7.08
561.589	7.26
561.931	7.12
562.273	7.12
562.615	7.2
562.957	7.3
563.299	7
563.641	7.1
563.983	7.21
564.325	7.12
564.667	7.3
565.008	7.12
565.35	7.49
565.692	7.12
566.033	7.21
566.375	7.45
566.716	7.58
567.058	7.5
567.399	7.32
567.741	7.12
568.082	7.39
568.423	7.48
568.764	7.29
569.105	7.59
569.447	7.69
569.788	7.55
570.129	7.76
570.47	7.49
570.811	7.7
571.151	7.67
571.492	7.75
571.833	7.55
572.174	7.53
572.514	7.75
572.855	7.7
573.195	7.71
573.536	7.65
573.876	7.62
574.217	7.44
574.557	7.71
574.898	7.82
575.238	7.7
575.578	7.68
575.918	7.85
576.258	7.9
576.598	7.99
576.938	7.75
577.278	7.69
577.618	7.79
577.958	7.88
578.298	7.8
578.638	8.05
578.977	8.05
579.317	7.77
579.657	7.86
579.996	7.82
580.336	7.9
580.675	7.95
581.014	8.02
581.354	8.1
581.693	8.13
582.032	8.08
582.372	8.16
582.711	8.27
583.05	8.19
583.389	8.22
583.728	8.06
584.067	8.5
584.406	8.41
584.745	8.56
585.083	8.34
585.422	8.3
585.761	8.59
586.1	8.64
586.438	8.33
586.777	8.75
587.115	8.74
587.454	8.51
587.792	8.53
588.13	8.66
588.469	8.6
588.807	8.71
589.145	8.66
589.483	8.6
589.821	8.59
590.159	8.84
590.497	8.71
590.835	8.8
591.173	8.76
591.511	8.85
591.849	8.71
592.187	8.52
592.524	8.56
592.862	8.95
593.2	9.05
593.537	8.87
593.875	8.73
594.212	8.93
594.55	9.08
594.887	9.06
595.224	9.1
595.561	9.04
595.899	9.13
596.236	9
596.573	9.15
596.91	8.83
597.247	8.9
597.584	9.32
597.921	9.08
598.258	9.03
598.594	9.18
598.931	9.1
599.268	9.39
599.604	9.06
599.941	9.17
600.277	9.44
600.614	9.22
600.95	8.97
601.287	9.27
601.623	9.17
601.959	9.3
602.296	9.49
602.632	9.35
602.968	9.34
603.304	9.36
603.64	9.72
603.976	9.59
604.312	9.39
604.648	9.44
604.984	9.54
605.319	9.76
605.655	9.75
605.991	9.66
606.326	9.78
606.662	9.69
606.998	9.4
607.333	9.81
607.668	9.7
608.004	9.85
608.339	10.01
608.674	10.07
609.01	9.88
609.345	9.67
609.68	10.28
610.015	9.79
610.35	10.23
610.685	9.89
611.02	10.37
611.355	10.27
611.689	10.02
612.024	10.21
612.359	10.12
612.694	10.13
613.028	10.06
613.363	10.24
613.697	10.36
614.032	10.59
614.366	10.63
614.7	10.45
615.035	10.49
615.369	10.51
615.703	10.45
616.037	10.68
616.371	10.08
616.705	10.37
617.039	10.4
617.373	10.84
617.707	10.44
618.041	10.35
618.375	10.21
618.709	10.76
619.042	10.39
619.376	10.68
619.71	10.82
620.043	10.53
620.377	10.74
620.71	10.85
621.043	10.73
621.377	11.01
621.71	10.82
622.043	10.43
622.376	10.48
622.709	10.85
623.043	11.01
623.376	10.83
623.709	11.04
624.041	11.44
624.374	10.89
624.707	11.26
625.04	11.1
625.373	10.7
625.705	10.91
626.038	11.28
626.37	10.95
626.703	11.44
627.035	11.26
627.368	11.35
627.7	11.58
628.032	11.06
628.365	11.71
628.697	11.18
629.029	11.18
629.361	11.36
629.693	11.6
630.025	11.15
630.357	11.56
630.689	11.49
631.021	11.52
631.353	11.62
631.684	11.23
632.016	11.35
632.348	11.88
632.679	11.79
633.011	11.79
633.342	12.02
633.674	11.64
634.005	12.06
634.336	11.9
634.668	12.13
634.999	11.49
635.33	11.9
635.661	12.31
635.992	11.8
636.323	12.48
636.654	12.29
636.985	11.92
637.316	12.13
637.647	12.11
637.977	12.26
638.308	12.27
638.639	11.67
638.969	12.26
639.3	12.07
639.63	11.96
639.961	11.93
640.291	12.38
640.622	12.32
640.952	12.07
641.282	12.46
641.612	12.59
641.943	12.35
642.273	12.88
642.603	13.07
642.933	12.67
643.263	13.02
643.592	12.12
643.922	12.56
644.252	12.68
644.582	12.28
644.911	12.36
645.241	12.42
645.571	12.24
645.9	12.34
646.23	12.53
646.559	12.48
646.888	12.69
647.218	12.64
647.547	12.68
647.876	12.45
648.205	12.93
648.534	13.44
648.863	12.76
649.192	13.24
649.521	12.58
649.85	12.25
650.179	13.09
650.508	12.92
650.837	12.85
651.165	13.15
651.494	13.25
651.822	13.48
652.151	12.98
652.479	13.06
652.808	12.84
653.136	13.6
653.465	13.03
653.793	13.53
654.121	13.33
654.449	13.36
654.777	14.08
655.105	13.77
655.433	13.12
655.761	13.42
656.089	14.42
656.417	13.84
656.745	13.47
657.073	13.61
657.4	13.1
657.728	14.02
658.056	13.24
658.383	13.38
658.711	13.89
659.038	13.69
659.365	14.24
659.693	13.93
660.02	13.99
660.347	14.31
660.674	14.41
661.001	14.32
661.329	13.2
661.656	14.4
661.982	14.25
662.309	13.84
662.636	14.18
662.963	14.68
663.29	14.48
663.616	14.38
663.943	13.59
664.27	13.68
664.596	14.84
664.923	14.71
665.249	14.04
665.576	14.14
665.902	15.46
666.228	14.66
666.554	14.94
666.881	14.52
667.207	15.09
667.533	15.04
667.859	14.28
668.185	14.96
668.511	14.37
668.837	13.63
669.162	14.91
669.488	14.34
669.814	15.19
670.139	14.73
670.465	15.48
670.791	15.08
671.116	15.87
671.442	15.16
671.767	15.21
672.092	15.21
672.418	14.96
672.743	15.07
673.068	14.89
673.393	15.12
673.718	15.2
674.043	15.19
674.368	15.07
674.693	16.53
675.018	14.87
675.343	14.96
675.667	15.83
675.992	15.66
676.317	15.21
676.641	15.62
676.966	15.99
677.29	15.74
677.615	15.34
677.939	16.29
678.264	15.4
678.588	15.89
678.912	15.68
679.236	16.52
679.56	15.78
679.885	15.85
680.209	15.73
680.532	15.52
680.856	16.55
681.18	15.88
681.504	16.36
681.828	16.4
682.152	15.66
682.475	16.52
682.799	16.19
683.122	16.13
683.446	16.19
683.769	16.5
684.093	16.1
684.416	16.69
684.739	15.94
685.062	15.84
685.386	17.03
685.709	16.14
686.032	16.53
686.355	16.51
686.678	16.22
687.001	16.13
