Data from 0206_chest_Reflection__1__310.txt Node

Date: Fri Dec 15 19:34:24 CST 2023
User: ToomeyLab
Spectrometer: FLMS14357
Trigger mode: 0
Integration Time (sec): 1.000000E-2
Scans to average: 100
Electric dark correction enabled: true
Nonlinearity correction enabled: false
Boxcar width: 0
XAxis mode: Wavelengths
Number of Pixels in Spectrum: 2048
>>>>>Begin Spectral Data<<<<<
189.047	149.96
189.435	149.96
189.823	149.96
190.211	202.28
190.599	-544.38
190.987	-1.94
191.375	-88.6
191.763	100.75
192.151	972.5
192.538	156.03
192.926	327.27
193.314	369.18
193.702	8.51
194.089	-260.15
194.477	-129.67
194.864	-313.18
195.252	34.42
195.639	194.82
196.027	639.1
196.414	349.93
196.801	95.76
197.189	215.83
197.576	121.84
197.963	645.09
198.351	24.61
198.738	12.2
199.125	1.76
199.512	33.4
199.899	51.7
200.286	30.5
200.673	-31.77
201.06	3.35
201.447	-57.38
201.833	-9.94
202.22	54.22
202.607	36.69
202.994	-10.76
203.38	-20.71
203.767	-29.44
204.154	35.09
204.54	10.56
204.927	-58.73
205.313	-45.69
205.699	16.31
206.086	44.9
206.472	13.01
206.858	14.94
207.245	7.33
207.631	74.72
208.017	39.67
208.403	-7.27
208.789	30.02
209.175	33.38
209.561	6.13
209.947	-27.41
210.333	-82.08
210.719	20.01
211.105	18.85
211.491	-87.09
211.876	7.01
212.262	-7.42
212.648	0.18
213.034	48.01
213.419	-22.29
213.805	-15.12
214.19	24.22
214.576	0.85
214.961	-55.88
215.346	-85.19
215.732	-17.55
216.117	55.98
216.502	-37.46
216.888	-14.59
217.273	43.46
217.658	-31.82
218.043	33.89
218.428	-29.56
218.813	-8.05
219.198	-12.98
219.583	-10.57
219.968	21.87
220.353	-5.33
220.738	29.45
221.122	-8.02
221.507	-15.2
221.892	-37.66
222.276	-21.4
222.661	15.11
223.046	22.04
223.43	15.38
223.815	-2.36
224.199	-3.72
224.583	-3.99
224.968	-0.58
225.352	14.92
225.736	-4.76
226.121	-13.34
226.505	-0.01
226.889	6.13
227.273	-1.67
227.657	7.64
228.041	1.4
228.425	-0.09
228.809	1.39
229.193	2.53
229.577	1.5
229.961	3.65
230.344	2.18
230.728	3.87
231.112	2.99
231.495	3.05
231.879	3.04
232.263	5.36
232.646	4.2
233.03	2.69
233.413	2.24
233.797	5.63
234.18	3.81
234.563	2.74
234.946	2.94
235.33	6.2
235.713	4.63
236.096	3.6
236.479	3.34
236.862	3.22
237.245	5.01
237.628	3.43
238.011	3.09
238.394	4.89
238.777	4.29
239.16	2.75
239.543	5.33
239.925	4.23
240.308	4.04
240.691	6.4
241.073	5.01
241.456	3.65
241.838	3.22
242.221	2.79
242.603	3.19
242.986	3.8
243.368	4.49
243.75	4.38
244.133	3.76
244.515	4.12
244.897	4.08
245.279	4.13
245.661	3.03
246.043	3.19
246.425	2.65
246.807	4.7
247.189	4.29
247.571	3.78
247.953	4.26
248.335	4.15
248.717	3.96
249.098	3.65
249.48	4.24
249.862	4.14
250.243	3.9
250.625	3.95
251.006	4.35
251.388	2.93
251.769	3.9
252.151	4.43
252.532	4.94
252.913	2.91
253.295	3.57
253.676	3.85
254.057	4.18
254.438	3.77
254.819	3.56
255.2	2.86
255.581	3.44
255.962	3.33
256.343	4.75
256.724	3.06
257.105	4.34
257.486	3.28
257.867	4.77
258.247	4.24
258.628	3.66
259.009	3.66
259.389	4.43
259.77	4.23
260.15	3.08
260.531	3.18
260.911	4.37
261.292	4.08
261.672	4.1
262.052	4.02
262.432	4.09
262.813	4.15
263.193	3.54
263.573	3.43
263.953	3.98
264.333	4.15
264.713	3.37
265.093	3.69
265.473	4.2
265.853	2.23
266.233	4.12
266.612	1.87
266.992	2.64
267.372	4.27
267.752	2.88
268.131	3.61
268.511	4.91
268.89	4.05
269.27	3.16
269.649	3.4
270.029	3.5
270.408	4.36
270.787	3.93
271.167	3.96
271.546	3.82
271.925	3.24
272.304	3.98
272.683	4.19
273.062	3.19
273.441	4.24
273.82	3.33
274.199	3.75
274.578	3.61
274.957	3.49
275.336	3.69
275.715	3.3
276.093	3.66
276.472	4.03
276.851	3.14
277.229	3.01
277.608	3.72
277.986	3.19
278.365	4.08
278.743	2.9
279.122	3.57
279.5	3.6
279.878	4.22
280.257	3.45
280.635	3.11
281.013	3.91
281.391	4.02
281.769	3.55
282.147	4.26
282.525	4.08
282.903	3.63
283.281	3.97
283.659	3.56
284.037	3.78
284.415	4.07
284.792	4.22
285.17	2.96
285.548	3.4
285.925	3.42
286.303	3.87
286.68	3.08
287.058	3.57
287.435	3.28
287.813	3.88
288.19	3.08
288.567	3.73
288.945	4.43
289.322	3.96
289.699	3.62
290.076	3.72
290.453	3.43
290.83	3.47
291.207	3.65
291.584	3.56
291.961	3.49
292.338	3.5
292.715	3.85
293.092	3.33
293.469	3.94
293.845	4.07
294.222	3.69
294.599	3.39
294.975	3.49
295.352	3.25
295.728	3.11
296.105	4.03
296.481	4.25
296.858	3.69
297.234	3.3
297.61	3.54
297.986	3.84
298.363	3.77
298.739	4.14
299.115	3.71
299.491	3.52
299.867	4.05
300.243	3.84
300.619	3.82
300.995	3.85
301.371	4.16
301.746	2.99
302.122	4.43
302.498	4.05
302.874	4.04
303.249	3.55
303.625	3.93
304	3.93
304.376	3.65
304.751	3.11
305.127	4.73
305.502	3.81
305.878	3.55
306.253	4.26
306.628	4.2
307.003	3.48
307.378	4.19
307.754	3.91
308.129	3.48
308.504	3.86
308.879	3.87
309.254	4.52
309.629	4.25
310.003	3.84
310.378	4.65
310.753	4.4
311.128	4.25
311.502	4.09
311.877	4.64
312.252	3.61
312.626	4.15
313.001	3.87
313.375	4.64
313.75	3.89
314.124	4.33
314.498	4.19
314.873	4.3
315.247	3.7
315.621	3.87
315.995	3.37
316.369	4.21
316.743	3.87
317.117	4.68
317.491	3.72
317.865	4.3
318.239	3.97
318.613	4.21
318.987	4.62
319.361	4.32
319.734	4.91
320.108	4.45
320.482	3.86
320.855	4.99
321.229	4.13
321.602	3.86
321.976	4.78
322.349	4.04
322.723	3.93
323.096	4.66
323.469	3.04
323.843	4.52
324.216	4.81
324.589	4.23
324.962	4.67
325.335	4.68
325.708	3.87
326.081	3.7
326.454	4.42
326.827	4.06
327.2	5.09
327.573	4.45
327.945	4.45
328.318	3.97
328.691	3.94
329.063	4.31
329.436	4.45
329.809	4.62
330.181	4.13
330.553	4.32
330.926	4.72
331.298	5.13
331.671	4.31
332.043	4.9
332.415	4.51
332.787	4.73
333.159	5.15
333.532	4.72
333.904	4.36
334.276	4.36
334.648	5.02
335.02	4.33
335.391	4.49
335.763	4.29
336.135	4.77
336.507	3.91
336.879	3.62
337.25	3.94
337.622	4.13
337.993	4.47
338.365	4.91
338.736	4.6
339.108	4.46
339.479	4.21
339.851	5.05
340.222	4.49
340.593	4.78
340.964	4.31
341.336	5.19
341.707	4.31
342.078	4.99
342.449	4.66
342.82	4.45
343.191	4.2
343.562	4.48
343.933	4.84
344.303	4.33
344.674	4.42
345.045	4.49
345.416	5.12
345.786	4.6
346.157	4.91
346.527	4.44
346.898	4.62
347.268	4.87
347.639	4.18
348.009	4.28
348.38	4.24
348.75	4.87
349.12	4.47
349.49	4.43
349.861	4.55
350.231	4.32
350.601	4.64
350.971	4.55
351.341	5.06
351.711	4.57
352.081	4.64
352.45	4.45
352.82	4.55
353.19	4.26
353.56	4.34
353.929	4.26
354.299	4.72
354.669	4.58
355.038	4.92
355.408	4.64
355.777	4.59
356.147	4.35
356.516	4.81
356.885	4.91
357.254	5.16
357.624	4.82
357.993	4.79
358.362	4.28
358.731	4.38
359.1	4.72
359.469	4.52
359.838	4.83
360.207	4.64
360.576	4.5
360.945	4.8
361.314	5.01
361.682	4.51
362.051	4.52
362.42	4.91
362.788	4.74
363.157	4.66
363.525	4.94
363.894	4.88
364.262	4.78
364.631	4.69
364.999	4.84
365.367	4.35
365.735	5.6
366.104	5.02
366.472	4.89
366.84	4.58
367.208	4.64
367.576	5.36
367.944	5.3
368.312	4.58
368.68	4.68
369.048	4.69
369.416	4.98
369.783	4.55
370.151	4.72
370.519	5.25
370.886	5.25
371.254	4.81
371.621	4.81
371.989	4.73
372.356	4.61
372.724	4.83
373.091	4.43
373.458	4.82
373.826	4.89
374.193	4.81
374.56	4.78
374.927	5.1
375.294	5.02
375.661	4.63
376.028	4.99
376.395	4.8
376.762	5.27
377.129	5.05
377.496	4.75
377.863	4.46
378.229	4.52
378.596	5.13
378.963	4.76
379.329	4.76
379.696	4.87
380.062	4.93
380.429	4.98
380.795	4.9
381.161	4.68
381.528	5.07
381.894	5.04
382.26	4.82
382.626	5.26
382.993	4.74
383.359	5.4
383.725	4.7
384.091	4.86
384.457	5.43
384.823	5.06
385.188	5.03
385.554	4.8
385.92	4.82
386.286	4.84
386.651	5.05
387.017	5.18
387.383	4.98
387.748	4.83
388.114	5.61
388.479	5.28
388.845	5.07
389.21	5.05
389.575	5.24
389.94	5.51
390.306	5.14
390.671	5.39
391.036	4.55
391.401	4.86
391.766	4.76
392.131	4.72
392.496	5.33
392.861	5.18
393.226	5.12
393.591	5.01
393.956	4.85
394.32	5.25
394.685	5.04
395.05	5.17
395.414	4.92
395.779	4.89
396.143	4.97
396.508	5.16
396.872	5.13
397.236	5.16
397.601	4.81
397.965	4.87
398.329	5.28
398.694	5.17
399.058	5.18
399.422	4.85
399.786	5.13
400.15	5.01
400.514	4.98
400.878	5.04
401.242	5.61
401.605	5.34
401.969	5.18
402.333	5.43
402.697	5.09
403.06	5.16
403.424	5.04
403.787	5.22
404.151	5.28
404.514	5.23
404.878	4.89
405.241	5.21
405.604	5.22
405.968	5.24
406.331	5.28
406.694	5.27
407.057	5.33
407.42	5.22
407.783	5.06
408.146	5.11
408.509	5.35
408.872	5.03
409.235	5.08
409.598	5.46
409.961	5.32
410.323	5.39
410.686	4.93
411.049	5.14
411.411	5.1
411.774	5.25
412.136	5.34
412.499	4.98
412.861	5.31
413.223	5.26
413.586	5.17
413.948	5.06
414.31	5.45
414.672	5.15
415.035	5.22
415.397	5.3
415.759	5.16
416.121	5.39
416.483	5.16
416.845	5.54
417.206	5.14
417.568	5.47
417.93	4.94
418.292	5.17
418.653	5.36
419.015	5.02
419.377	5.12
419.738	5.34
420.1	5.29
420.461	5.32
420.822	5.3
421.184	5.19
421.545	5.2
421.906	5.03
422.267	5.25
422.629	5.23
422.99	5.25
423.351	5.05
423.712	5.19
424.073	5.2
424.434	5.21
424.795	5.23
425.155	5.27
425.516	5.17
425.877	5.24
426.238	5.16
426.598	5.16
426.959	5.25
427.32	5.17
427.68	5.24
428.041	5.32
428.401	5.39
428.761	5.29
429.122	5.39
429.482	5.14
429.842	5.57
430.202	5.3
430.563	5.42
430.923	5.39
431.283	5.49
431.643	5.35
432.003	5.28
432.363	5.37
432.722	5.45
433.082	5.33
433.442	5.38
433.802	5.29
434.161	5.47
434.521	5.67
434.881	5.43
435.24	5.23
435.6	5.47
435.959	5.37
436.319	5.34
436.678	5.18
437.037	5.55
437.396	5.55
437.756	5.39
438.115	5.48
438.474	5.48
438.833	5.32
439.192	5.35
439.551	5.64
439.91	5.26
440.269	5.45
440.628	5.28
440.987	5.47
441.345	5.39
441.704	5.27
442.063	5.23
442.421	5.44
442.78	5.41
443.138	5.39
443.497	5.34
443.855	5.34
444.214	5.38
444.572	5.5
444.93	5.47
445.288	5.37
445.647	5.53
446.005	5.39
446.363	5.51
446.721	5.51
447.079	5.27
447.437	5.54
447.795	5.49
448.153	5.25
448.51	5.38
448.868	5.36
449.226	5.36
449.584	5.35
449.941	5.61
450.299	5.46
450.656	5.4
451.014	5.41
451.371	5.33
451.729	5.52
452.086	5.66
452.443	5.44
452.801	5.58
453.158	5.39
453.515	5.42
453.872	5.71
454.229	5.46
454.586	5.49
454.943	5.5
455.3	5.58
455.657	5.51
456.014	5.47
456.371	5.7
456.727	5.51
457.084	5.59
457.441	5.77
457.797	5.58
458.154	5.63
458.51	5.52
458.867	5.56
459.223	5.6
459.58	5.68
459.936	5.57
460.292	5.59
460.648	5.35
461.005	5.52
461.361	5.6
461.717	5.62
462.073	5.38
462.429	5.47
462.785	5.5
463.141	5.46
463.496	5.61
463.852	5.71
464.208	5.59
464.564	5.68
464.919	5.64
465.275	5.66
465.631	5.56
465.986	5.68
466.342	5.7
466.697	5.53
467.052	5.64
467.408	5.53
467.763	5.63
468.118	5.68
468.473	5.62
468.829	5.63
469.184	5.53
469.539	5.62
469.894	5.62
470.249	5.81
470.603	5.71
470.958	5.84
471.313	5.57
471.668	5.78
472.023	5.77
472.377	5.6
472.732	5.55
473.086	5.56
473.441	5.31
473.795	5.73
474.15	5.55
474.504	5.7
474.859	5.64
475.213	5.68
475.567	5.69
475.921	5.56
476.275	5.8
476.63	5.72
476.984	5.71
477.338	5.75
477.692	5.58
478.045	5.48
478.399	5.57
478.753	5.73
479.107	5.76
479.461	5.68
479.814	5.8
480.168	5.78
480.521	5.7
480.875	5.68
481.228	5.62
481.582	5.62
481.935	5.61
482.289	5.6
482.642	5.69
482.995	5.61
483.348	5.64
483.701	5.74
484.055	5.73
484.408	5.78
484.761	5.63
485.114	5.55
485.466	5.39
485.819	5.38
486.172	5.33
486.525	5.36
486.878	5.44
487.23	5.5
487.583	5.52
487.936	5.6
488.288	5.63
488.641	5.58
488.993	5.41
489.345	5.42
489.698	5.49
490.05	5.45
490.402	5.51
490.754	5.52
491.107	5.58
491.459	5.65
491.811	5.64
492.163	5.75
492.515	5.61
492.866	5.73
493.218	5.68
493.57	5.61
493.922	5.6
494.274	5.59
494.625	5.71
494.977	5.73
495.328	5.75
495.68	5.84
496.031	5.82
496.383	5.82
496.734	5.89
497.086	5.74
497.437	5.89
497.788	5.91
498.139	5.7
498.49	5.92
498.842	5.8
499.193	5.84
499.544	5.9
499.894	5.88
500.245	5.85
500.596	5.78
500.947	5.87
501.298	5.77
501.648	5.87
501.999	5.92
502.35	5.83
502.7	5.9
503.051	5.7
503.401	5.97
503.752	6.11
504.102	5.86
504.452	5.96
504.803	5.89
505.153	5.96
505.503	6.02
505.853	5.88
506.203	5.94
506.553	5.91
506.903	5.95
507.253	5.97
507.603	5.92
507.953	6.04
508.303	6.09
508.652	5.85
509.002	6.1
509.352	6.28
509.701	6.06
510.051	6
510.4	5.86
510.75	5.99
511.099	5.97
511.449	6.02
511.798	5.86
512.147	6
512.496	5.91
512.846	6.04
513.195	5.97
513.544	6.03
513.893	6.13
514.242	6.07
514.591	6.18
514.939	6.05
515.288	5.95
515.637	6.11
515.986	6.19
516.334	6.14
516.683	6.21
517.032	6.02
517.38	6.16
517.729	6.2
518.077	6.06
518.426	6.04
518.774	6.22
519.122	6.18
519.47	6.03
519.819	5.9
520.167	6.19
520.515	6.05
520.863	6.11
521.211	6.06
521.559	6.22
521.907	6.06
522.255	6.05
522.602	6.18
522.95	6.15
523.298	6.2
523.645	6.32
523.993	6.18
524.341	6.35
524.688	6.25
525.036	6.2
525.383	6.2
525.73	6.37
526.078	6.24
526.425	6.13
526.772	6.34
527.119	6.31
527.466	6.18
527.814	6.17
528.161	6.15
528.508	6.27
528.854	6.26
529.201	6.28
529.548	6.17
529.895	6.11
530.242	6
530.588	6
530.935	6.04
531.282	6.05
531.628	6.07
531.975	6.08
532.321	6.18
532.667	6.21
533.014	6.2
533.36	6.29
533.706	6.37
534.052	6.37
534.399	6.33
534.745	6.25
535.091	6.29
535.437	6.25
535.783	6.24
536.129	6.27
536.474	6.34
536.82	6.36
537.166	6.4
537.512	6.4
537.857	6.46
538.203	6.42
538.549	6.39
538.894	6.4
539.239	6.48
539.585	6.43
539.93	6.36
540.276	6.54
540.621	6.61
540.966	6.6
541.311	6.48
541.656	6.46
542.001	6.66
542.346	6.65
542.691	6.47
543.036	6.42
543.381	6.34
543.726	6.38
544.071	6.51
544.415	6.51
544.76	6.5
545.105	6.56
545.449	6.53
545.794	6.63
546.138	6.62
546.483	6.74
546.827	6.74
547.171	6.67
547.516	6.82
547.86	6.72
548.204	6.76
548.548	6.64
548.892	6.92
549.236	6.73
549.58	6.8
549.924	6.89
550.268	6.89
550.612	6.86
550.956	7.18
551.3	6.99
551.643	7.01
551.987	7.19
552.33	6.95
552.674	7.04
553.017	7.05
553.361	6.84
553.704	7.05
554.048	6.79
554.391	7.08
554.734	7.09
555.077	7.09
555.42	6.95
555.764	7.02
556.107	6.92
556.45	6.95
556.793	7.1
557.135	7.12
557.478	7.46
557.821	7.18
558.164	7.12
558.507	7.27
558.849	7.09
559.192	7.28
559.534	7.24
559.877	7.4
560.219	7.39
560.562	7.51
560.904	7.44
561.246	7.48
561.589	7.33
561.931	7.44
562.273	7.51
562.615	7.37
562.957	7.51
563.299	7.15
563.641	7.59
563.983	7.54
564.325	7.31
564.667	7.34
565.008	7.57
565.35	7.58
565.692	7.49
566.033	7.69
566.375	7.58
566.716	7.65
567.058	7.55
567.399	7.54
567.741	7.62
568.082	7.46
568.423	7.6
568.764	7.68
569.105	7.64
569.447	7.79
569.788	7.67
570.129	7.82
570.47	7.77
570.811	7.91
571.151	7.87
571.492	7.99
571.833	8.15
572.174	7.84
572.514	7.83
572.855	7.93
573.195	8.05
573.536	7.84
573.876	7.66
574.217	7.87
574.557	8.15
574.898	8.07
575.238	8.06
575.578	7.79
575.918	8.27
576.258	8.32
576.598	8.3
576.938	7.95
577.278	8.16
577.618	8.3
577.958	8.19
578.298	8.29
578.638	8.45
578.977	8.25
579.317	8.14
579.657	8.23
579.996	8.32
580.336	8.36
580.675	8.29
581.014	8.61
581.354	8.41
581.693	8.46
582.032	8.36
582.372	8.28
582.711	8.42
583.05	8.44
583.389	8.45
583.728	8.36
584.067	8.43
584.406	8.8
584.745	8.47
585.083	9
585.422	8.61
585.761	8.87
586.1	8.51
586.438	8.63
586.777	8.88
587.115	8.89
587.454	8.65
587.792	8.77
588.13	9
588.469	8.46
588.807	8.82
589.145	8.74
589.483	8.56
589.821	9.02
590.159	9.04
590.497	9.03
590.835	9.11
591.173	9.14
591.511	9.23
591.849	9.25
592.187	9.24
592.524	8.99
592.862	9
593.2	9.12
593.537	9.03
593.875	8.93
594.212	8.94
594.55	9.11
594.887	9.58
595.224	9.43
595.561	9.37
595.899	9.32
596.236	9.31
596.573	9.14
596.91	8.99
597.247	9.26
597.584	9.64
597.921	9.5
598.258	9.25
598.594	9.42
598.931	9.4
599.268	9.52
599.604	9.42
599.941	9.8
600.277	9.48
600.614	9.53
600.95	9.57
601.287	9.79
601.623	9.43
601.959	9.57
602.296	9.81
602.632	9.53
602.968	9.78
603.304	9.92
603.64	9.92
603.976	10.07
604.312	9.89
604.648	9.64
604.984	9.94
605.319	9.96
605.655	9.72
605.991	9.95
606.326	10.07
606.662	10.09
606.998	9.82
607.333	10.1
607.668	10.1
608.004	10.12
608.339	10.34
608.674	10.23
609.01	9.95
609.345	10
609.68	10.4
610.015	10.15
610.35	10.02
610.685	10.09
611.02	10.13
611.355	10.58
611.689	10.35
612.024	10.36
612.359	10.39
612.694	10.42
613.028	10.52
613.363	10.78
613.697	10.59
614.032	10.54
614.366	10.72
614.7	10.91
615.035	10.89
615.369	10.77
615.703	10.55
616.037	10.6
616.371	10.43
616.705	10.82
617.039	10.98
617.373	10.91
617.707	10.91
618.041	10.97
618.375	10.81
618.709	11
619.042	10.96
619.376	11.45
619.71	11.13
620.043	11.28
620.377	10.92
620.71	11.42
621.043	11.18
621.377	10.91
621.71	11.13
622.043	10.79
622.376	11.15
622.709	11.23
623.043	11.28
623.376	11.39
623.709	10.96
624.041	11.84
624.374	11.26
624.707	11.18
625.04	11.83
625.373	11.03
625.705	11.34
626.038	11.69
626.37	11.69
626.703	11.61
627.035	11.85
627.368	12.11
627.7	11.7
628.032	11.54
628.365	11.82
628.697	11.49
629.029	11.47
629.361	11.71
629.693	11.6
630.025	11.67
630.357	11.84
630.689	12.07
631.021	11.85
631.353	12.17
631.684	11.86
632.016	11.84
632.348	12.25
632.679	11.94
633.011	12.31
633.342	12.41
633.674	11.66
634.005	12.52
634.336	12.01
634.668	12.84
634.999	11.84
635.33	12.86
635.661	12.66
635.992	12.38
636.323	12.22
636.654	12.78
636.985	12.37
637.316	12.41
637.647	12.14
637.977	12.46
638.308	12.79
638.639	12.21
638.969	12.43
639.3	12.37
639.63	12.16
639.961	12.37
640.291	12.3
640.622	12.77
640.952	12.79
641.282	13.17
641.612	13.18
641.943	12.92
642.273	13.48
642.603	12.85
642.933	12.85
643.263	13.42
643.592	13.3
643.922	12.71
644.252	12.62
644.582	13.57
644.911	12.78
645.241	12.91
645.571	13.09
645.9	12.95
646.23	13.02
646.559	13.26
646.888	13.18
647.218	13.49
647.547	13.76
647.876	13.14
648.205	13
648.534	12.75
648.863	13.4
649.192	13.6
649.521	13.34
649.85	13.42
650.179	13.86
650.508	13.05
650.837	13.35
651.165	13.58
651.494	13.94
651.822	13.45
652.151	13.71
652.479	13.72
652.808	13.42
653.136	14.05
653.465	13.04
653.793	13.62
654.121	13.55
654.449	14.24
654.777	14.29
655.105	14.54
655.433	13.67
655.761	14.1
656.089	14.69
656.417	14.59
656.745	14.09
657.073	14.24
657.4	14.73
657.728	14.29
658.056	14.34
658.383	14.34
658.711	14.56
659.038	14.96
659.365	15.09
659.693	14.21
660.02	14.54
660.347	14.49
660.674	14.53
661.001	14.68
661.329	14.12
661.656	14.79
661.982	14.94
662.309	14.44
662.636	14.75
662.963	15.12
663.29	15.14
663.616	15.09
663.943	14.75
664.27	14.43
664.596	14.94
664.923	15.32
665.249	15.41
665.576	15.29
665.902	15.99
666.228	14.99
666.554	15.47
666.881	14.95
667.207	15.02
667.533	15.49
667.859	15.02
668.185	15.54
668.511	14.78
668.837	15.03
669.162	15.34
669.488	14.89
669.814	15.91
670.139	16.1
670.465	16.02
670.791	15.38
671.116	16.82
671.442	15.22
671.767	15.48
672.092	15.92
672.418	15.76
672.743	16.1
673.068	15.59
673.393	16.05
673.718	15.44
674.043	15.73
674.368	15.88
674.693	16.38
675.018	15.84
675.343	16
675.667	16.4
675.992	16.86
676.317	16.18
676.641	15.96
676.966	16.42
677.29	15.95
677.615	16.16
677.939	16.03
678.264	16.74
678.588	16.15
678.912	16.09
679.236	16.6
679.56	15.76
679.885	16.67
680.209	16.08
680.532	16.81
680.856	16.92
681.18	15.78
681.504	16.83
681.828	17.02
682.152	16.59
682.475	16.79
682.799	16.86
683.122	16.76
683.446	16.69
683.769	17.46
684.093	16.21
684.416	16.58
684.739	17.16
685.062	16.89
685.386	16.68
685.709	16.17
686.032	17.04
