Data from 0206_chest_Reflection__0__309.txt Node

Date: Fri Dec 15 19:34:15 CST 2023
User: ToomeyLab
Spectrometer: FLMS14357
Trigger mode: 0
Integration Time (sec): 1.000000E-2
Scans to average: 100
Electric dark correction enabled: true
Nonlinearity correction enabled: false
Boxcar width: 0
XAxis mode: Wavelengths
Number of Pixels in Spectrum: 2048
>>>>>Begin Spectral Data<<<<<
189.047	-159.54
189.435	-159.54
189.823	-159.54
190.211	154.87
190.599	-623.55
190.987	7.31
191.375	-187.71
191.763	-137.05
192.151	622.78
192.538	62.52
192.926	145.18
193.314	592.56
193.702	41.19
194.089	-57.89
194.477	-36.21
194.864	-238.06
195.252	101.28
195.639	90.3
196.027	-847.34
196.414	273.6
196.801	24.74
197.189	170.1
197.576	131.37
197.963	-521.2
198.351	-2.52
198.738	-48.17
199.125	24.45
199.512	-20.17
199.899	64.13
200.286	14.94
200.673	27.25
201.06	-5.05
201.447	-1.62
201.833	-17.3
202.22	-16.41
202.607	52.24
202.994	-8.63
203.38	34.66
203.767	-4.03
204.154	19.82
204.54	19.1
204.927	-12.19
205.313	2.24
205.699	32.31
206.086	24.86
206.472	52.83
206.858	6.43
207.245	-16.09
207.631	-5.9
208.017	11.95
208.403	-20.35
208.789	-11.07
209.175	32.66
209.561	8.58
209.947	-8.81
210.333	-62.82
210.719	17.88
211.105	-2.15
211.491	-76.66
211.876	12.87
212.262	-0.4
212.648	26.04
213.034	29.42
213.419	-66.96
213.805	-13.31
214.19	-19.89
214.576	-34.69
214.961	-11.08
215.346	42.11
215.732	-5.58
216.117	35.83
216.502	-35.35
216.888	-1.26
217.273	-6.74
217.658	-29.35
218.043	26.71
218.428	-12.96
218.813	-22.44
219.198	-16.43
219.583	7.77
219.968	-4.27
220.353	-31.45
220.738	7.47
221.122	28.42
221.507	-2.42
221.892	-25.55
222.276	-6.61
222.661	-1.92
223.046	18.89
223.43	5.22
223.815	19.76
224.199	-20.25
224.583	-1.94
224.968	-1.95
225.352	9.04
225.736	6.22
226.121	-17.77
226.505	6.29
226.889	14.65
227.273	0.63
227.657	7.89
228.041	6.57
228.425	1.5
228.809	5.05
229.193	5.76
229.577	4.04
229.961	5.79
230.344	5.54
230.728	4.01
231.112	4.93
231.495	4.99
231.879	3.88
232.263	6.13
232.646	4.57
233.03	3.65
233.413	3.69
233.797	5.01
234.18	2.71
234.563	7.46
234.946	3.3
235.33	5.33
235.713	6.49
236.096	4.14
236.479	5.88
236.862	3.19
237.245	6.53
237.628	4.31
238.011	4.63
238.394	5.34
238.777	3.59
239.16	2.84
239.543	4.64
239.925	4.63
240.308	4.64
240.691	6.07
241.073	6.45
241.456	5.34
241.838	4.36
242.221	4.75
242.603	5.44
242.986	5.22
243.368	5.23
243.75	5.57
244.133	4.19
244.515	4.52
244.897	4.83
245.279	4.86
245.661	4.41
246.043	3.82
246.425	3.47
246.807	5.51
247.189	5.03
247.571	5.36
247.953	4.99
248.335	4.64
248.717	4.96
249.098	4.62
249.48	4.55
249.862	4.94
250.243	4.49
250.625	4.62
251.006	4.32
251.388	3.33
251.769	4.51
252.151	4.85
252.532	4.74
252.913	3.83
253.295	4.18
253.676	4.04
254.057	4.8
254.438	4.45
254.819	4.17
255.2	3.84
255.581	4.69
255.962	3.07
256.343	4.34
256.724	3.45
257.105	4.53
257.486	4.42
257.867	4.86
258.247	4.57
258.628	4.02
259.009	4.28
259.389	4.96
259.77	4.21
260.15	3.76
260.531	3.76
260.911	4.91
261.292	4.68
261.672	4.72
262.052	4.51
262.432	4.61
262.813	4.57
263.193	4
263.573	3.39
263.953	3.55
264.333	4.55
264.713	4.84
265.093	3.8
265.473	4.94
265.853	3.46
266.233	3.88
266.612	1.37
266.992	2.92
267.372	5.06
267.752	4.7
268.131	4.31
268.511	4.85
268.89	4.37
269.27	3.96
269.649	3.92
270.029	3.92
270.408	4.92
270.787	3.96
271.167	4.45
271.546	4.38
271.925	3.76
272.304	3.76
272.683	4.63
273.062	4.06
273.441	4.16
273.82	4.03
274.199	3.89
274.578	3.93
274.957	4.34
275.336	4.25
275.715	4
276.093	3.51
276.472	4.66
276.851	3.94
277.229	3.95
277.608	3.29
277.986	3.85
278.365	4.27
278.743	4.46
279.122	4.07
279.5	4.75
279.878	4.99
280.257	4.93
280.635	3.65
281.013	3.63
281.391	4.68
281.769	4.49
282.147	4.53
282.525	4.18
282.903	3.87
283.281	4.72
283.659	4.71
284.037	4.38
284.415	4.2
284.792	3.89
285.17	3.47
285.548	3.34
285.925	4.3
286.303	4.19
286.68	3.85
287.058	4.16
287.435	4.01
287.813	4.35
288.19	3.7
288.567	4.08
288.945	4.44
289.322	4.59
289.699	4.13
290.076	4.12
290.453	4.08
290.83	3.64
291.207	3.92
291.584	4.34
291.961	4.66
292.338	3.89
292.715	4.59
293.092	3.49
293.469	4.21
293.845	4.72
294.222	3.86
294.599	4.19
294.975	3.96
295.352	4.53
295.728	3.4
296.105	4.67
296.481	3.91
296.858	4.02
297.234	4.18
297.61	3.97
297.986	4.21
298.363	4.67
298.739	4.39
299.115	4.1
299.491	3.9
299.867	4.27
300.243	4.24
300.619	4.1
300.995	3.97
301.371	4.28
301.746	3.47
302.122	4.92
302.498	4.26
302.874	4.42
303.249	3.94
303.625	4.44
304	4.6
304.376	4.21
304.751	3.75
305.127	4.87
305.502	4.23
305.878	3.84
306.253	4.58
306.628	4.64
307.003	4.49
307.378	4.44
307.754	4.22
308.129	3.73
308.504	4.19
308.879	3.72
309.254	5.45
309.629	4.71
310.003	3.97
310.378	4.61
310.753	4.65
311.128	4.8
311.502	4.65
311.877	4.9
312.252	4.05
312.626	4.28
313.001	4.37
313.375	4.91
313.75	3.74
314.124	4.33
314.498	4.32
314.873	4.78
315.247	4.45
315.621	4.46
315.995	4.46
316.369	4.24
316.743	4.32
317.117	4.75
317.491	4.6
317.865	3.91
318.239	4.28
318.613	4.49
318.987	4.31
319.361	4.23
319.734	4.5
320.108	4.67
320.482	4.55
320.855	4.63
321.229	4.37
321.602	4.56
321.976	4.86
322.349	3.98
322.723	4.39
323.096	4.7
323.469	4.22
323.843	3.99
324.216	5.02
324.589	3.98
324.962	4.25
325.335	3.88
325.708	4.16
326.081	4.64
326.454	4.58
326.827	4.25
327.2	5.01
327.573	4.84
327.945	4.6
328.318	4.63
328.691	3.85
329.063	4.73
329.436	4.18
329.809	4.77
330.181	4.07
330.553	4.78
330.926	4.4
331.298	5.2
331.671	4.07
332.043	4.93
332.415	5.03
332.787	4.34
333.159	5.42
333.532	4.58
333.904	4.62
334.276	4.57
334.648	4.37
335.02	4.08
335.391	4.76
335.763	4.82
336.135	4.42
336.507	4.46
336.879	4.42
337.25	4.95
337.622	4.56
337.993	4.1
338.365	4.44
338.736	4.77
339.108	4.42
339.479	4.43
339.851	4.56
340.222	4.79
340.593	4.63
340.964	4.53
341.336	4.71
341.707	4.18
342.078	4.56
342.449	4.74
342.82	4.5
343.191	4.82
343.562	4.35
343.933	4.97
344.303	4.52
344.674	4.62
345.045	4.58
345.416	4.68
345.786	4.05
346.157	4.85
346.527	4.37
346.898	3.56
347.268	4.79
347.639	4.41
348.009	4.77
348.38	4.44
348.75	4.45
349.12	4.18
349.49	5.27
349.861	4.53
350.231	3.91
350.601	4.69
350.971	4.69
351.341	4.24
351.711	4.61
352.081	4.5
352.45	3.97
352.82	4.34
353.19	4.19
353.56	4.53
353.929	4.46
354.299	4.47
354.669	3.75
355.038	4.59
355.408	4.5
355.777	4.95
356.147	4.38
356.516	4.56
356.885	4.94
357.254	4.14
357.624	4.85
357.993	4.61
358.362	4.24
358.731	4.24
359.1	4.47
359.469	4.61
359.838	4.38
360.207	4.35
360.576	4.75
360.945	4.37
361.314	5.09
361.682	4.69
362.051	4.5
362.42	4.58
362.788	4.87
363.157	4.58
363.525	4.96
363.894	4.77
364.262	4.46
364.631	4.63
364.999	4.6
365.367	4.2
365.735	4.99
366.104	4.89
366.472	4.73
366.84	4.4
367.208	4.21
367.576	4.99
367.944	4.73
368.312	4.54
368.68	4.6
369.048	4.78
369.416	4.61
369.783	4.4
370.151	4.78
370.519	4.99
370.886	4.85
371.254	4.82
371.621	4.94
371.989	4.82
372.356	4.22
372.724	4.73
373.091	4.35
373.458	4.71
373.826	4.65
374.193	4.81
374.56	4.82
374.927	4.74
375.294	4.77
375.661	4.67
376.028	4.61
376.395	4.43
376.762	5.11
377.129	4.59
377.496	4.62
377.863	4.53
378.229	4.45
378.596	4.77
378.963	4.56
379.329	4.63
379.696	4.96
380.062	4.83
380.429	4.73
380.795	4.79
381.161	5.14
381.528	4.69
381.894	4.64
382.26	5.05
382.626	5.1
382.993	4.81
383.359	5.09
383.725	4.74
384.091	4.72
384.457	5.05
384.823	4.68
385.188	4.93
385.554	4.44
385.92	4.89
386.286	4.76
386.651	4.63
387.017	5.07
387.383	4.88
387.748	4.76
388.114	4.92
388.479	4.62
388.845	5.12
389.21	4.92
389.575	4.9
389.94	4.95
390.306	5.04
390.671	5.3
391.036	4.38
391.401	4.7
391.766	4.84
392.131	4.73
392.496	4.61
392.861	4.66
393.226	5.05
393.591	4.78
393.956	4.74
394.32	5.13
394.685	4.97
395.05	4.76
395.414	4.96
395.779	4.76
396.143	5.08
396.508	4.89
396.872	4.89
397.236	4.98
397.601	4.63
397.965	4.91
398.329	4.81
398.694	4.9
399.058	4.95
399.422	4.73
399.786	5.13
400.15	4.96
400.514	4.86
400.878	4.92
401.242	5.2
401.605	4.97
401.969	5.23
402.333	5.23
402.697	5.04
403.06	4.88
403.424	5.01
403.787	4.88
404.151	5.44
404.514	4.84
404.878	4.93
405.241	5.28
405.604	4.96
405.968	4.87
406.331	5.28
406.694	5.15
407.057	5.07
407.42	5.07
407.783	5.02
408.146	5.09
408.509	4.99
408.872	4.73
409.235	5.14
409.598	5.15
409.961	5.18
410.323	5.18
410.686	4.95
411.049	4.9
411.411	4.89
411.774	5.14
412.136	4.84
412.499	4.84
412.861	5.24
413.223	4.81
413.586	5.12
413.948	5.13
414.31	5.21
414.672	4.85
415.035	4.81
415.397	5.16
415.759	4.73
416.121	5.15
416.483	5.05
416.845	5.15
417.206	5.16
417.568	5.11
417.93	4.85
418.292	5.14
418.653	5.19
419.015	4.83
419.377	4.92
419.738	5.1
420.1	4.9
420.461	5.2
420.822	5.16
421.184	5
421.545	4.96
421.906	4.91
422.267	5.02
422.629	5.06
422.99	4.98
423.351	5.04
423.712	5.07
424.073	4.97
424.434	5.05
424.795	5
425.155	5
425.516	4.95
425.877	5.03
426.238	4.94
426.598	5.05
426.959	4.98
427.32	5.04
427.68	5.13
428.041	4.95
428.401	5.19
428.761	4.88
429.122	5.14
429.482	5.08
429.842	5.35
430.202	5.04
430.563	5.33
430.923	5.14
431.283	5.18
431.643	5.1
432.003	5.05
432.363	5.38
432.722	5.26
433.082	5.29
433.442	5.16
433.802	5.16
434.161	5.19
434.521	5.27
434.881	5.4
435.24	5.03
435.6	5.19
435.959	5.12
436.319	5.22
436.678	5.03
437.037	5.1
437.396	5.13
437.756	5.02
438.115	5.24
438.474	5.43
438.833	5.16
439.192	4.96
439.551	5.28
439.91	5.32
440.269	5.33
440.628	5.2
440.987	5.17
441.345	4.91
441.704	5.12
442.063	5.13
442.421	5.3
442.78	5.11
443.138	5.07
443.497	5.22
443.855	5.07
444.214	5.18
444.572	5.35
444.93	5.26
445.288	5.2
445.647	5.5
446.005	5.24
446.363	5.27
446.721	5.35
447.079	5.02
447.437	5.07
447.795	5.16
448.153	5.07
448.51	5.18
448.868	5.13
449.226	5.12
449.584	5.1
449.941	5.14
450.299	5.18
450.656	5.17
451.014	5.29
451.371	5.14
451.729	5.18
452.086	5.31
452.443	5.26
452.801	5.44
453.158	5.18
453.515	5.23
453.872	5.49
454.229	5.29
454.586	5.06
454.943	5.36
455.3	5.35
455.657	5.17
456.014	5.39
456.371	5.44
456.727	5.27
457.084	5.28
457.441	5.33
457.797	5.37
458.154	5.41
458.51	5.48
458.867	5.36
459.223	5.41
459.58	5.35
459.936	5.4
460.292	5.42
460.648	5.23
461.005	5.33
461.361	5.42
461.717	5.44
462.073	5.08
462.429	5.26
462.785	5.27
463.141	5.18
463.496	5.35
463.852	5.47
464.208	5.39
464.564	5.52
464.919	5.34
465.275	5.33
465.631	5.57
465.986	5.44
466.342	5.39
466.697	5.16
467.052	5.48
467.408	5.31
467.763	5.46
468.118	5.41
468.473	5.24
468.829	5.35
469.184	5.04
469.539	5.29
469.894	5.15
470.249	5.56
470.603	5.51
470.958	5.65
471.313	5.54
471.668	5.43
472.023	5.48
472.377	5.46
472.732	5.31
473.086	5.34
473.441	5.29
473.795	5.71
474.15	5.51
474.504	5.25
474.859	5.39
475.213	5.24
475.567	5.4
475.921	5.33
476.275	5.54
476.63	5.35
476.984	5.37
477.338	5.55
477.692	5.15
478.045	5.41
478.399	5.32
478.753	5.44
479.107	5.52
479.461	5.31
479.814	5.53
480.168	5.46
480.521	5.35
480.875	5.46
481.228	5.43
481.582	5.49
481.935	5.34
482.289	5.57
482.642	5.45
482.995	5.35
483.348	5.36
483.701	5.48
484.055	5.43
484.408	5.48
484.761	5.33
485.114	5.38
485.466	5.18
485.819	5.23
486.172	5.15
486.525	5.19
486.878	5.21
487.23	5.24
487.583	5.34
487.936	5.38
488.288	5.37
488.641	5.38
488.993	5.29
489.345	5.26
489.698	5.32
490.05	5.24
490.402	5.29
490.754	5.28
491.107	5.39
491.459	5.41
491.811	5.46
492.163	5.49
492.515	5.45
492.866	5.49
493.218	5.46
493.57	5.37
493.922	5.27
494.274	5.42
494.625	5.44
494.977	5.42
495.328	5.54
495.68	5.53
496.031	5.64
496.383	5.57
496.734	5.75
497.086	5.69
497.437	5.62
497.788	5.71
498.139	5.6
498.49	5.64
498.842	5.39
499.193	5.56
499.544	5.55
499.894	5.55
500.245	5.6
500.596	5.59
500.947	5.59
501.298	5.67
501.648	5.67
501.999	5.71
502.35	5.6
502.7	5.53
503.051	5.59
503.401	5.74
503.752	5.83
504.102	5.62
504.452	5.81
504.803	5.59
505.153	5.84
505.503	5.76
505.853	5.71
506.203	5.73
506.553	5.61
506.903	5.64
507.253	5.65
507.603	5.67
507.953	5.79
508.303	5.89
508.652	5.65
509.002	5.84
509.352	5.88
509.701	5.81
510.051	5.67
510.4	5.76
510.75	5.89
511.099	5.68
511.449	5.7
511.798	5.73
512.147	5.77
512.496	5.7
512.846	5.86
513.195	5.82
513.544	5.75
513.893	5.83
514.242	5.68
514.591	5.86
514.939	5.74
515.288	5.75
515.637	5.89
515.986	5.91
516.334	5.9
516.683	5.93
517.032	5.79
517.38	5.89
517.729	5.97
518.077	5.82
518.426	5.97
518.774	6
519.122	5.88
519.47	5.94
519.819	5.76
520.167	5.89
520.515	5.83
520.863	5.89
521.211	5.77
521.559	6
521.907	5.86
522.255	5.91
522.602	5.89
522.95	5.92
523.298	5.94
523.645	6.06
523.993	5.98
524.341	6.11
524.688	6.22
525.036	5.96
525.383	6.06
525.73	6.12
526.078	6.04
526.425	5.94
526.772	6.13
527.119	6.12
527.466	6.03
527.814	6.06
528.161	5.99
528.508	5.94
528.854	6.04
529.201	5.93
529.548	5.94
529.895	5.98
530.242	5.82
530.588	5.86
530.935	5.86
531.282	5.9
531.628	5.94
531.975	5.99
532.321	6.05
532.667	6.11
533.014	6.13
533.36	6.17
533.706	6.11
534.052	6.18
534.399	6.03
534.745	6.09
535.091	6.1
535.437	6.03
535.783	6.1
536.129	6.12
536.474	6.18
536.82	6.16
537.166	6.27
537.512	6.29
537.857	6.23
538.203	6.32
538.549	6.23
538.894	6.21
539.239	6.28
539.585	6.37
539.93	6.25
540.276	6.4
540.621	6.52
540.966	6.54
541.311	6.33
541.656	6.38
542.001	6.47
542.346	6.61
542.691	6.3
543.036	6.3
543.381	6.2
543.726	6.2
544.071	6.39
544.415	6.42
544.76	6.34
545.105	6.41
545.449	6.45
545.794	6.56
546.138	6.44
546.483	6.61
546.827	6.6
547.171	6.57
547.516	6.71
547.86	6.51
548.204	6.65
548.548	6.6
548.892	6.66
549.236	6.68
549.58	6.68
549.924	6.65
550.268	6.73
550.612	6.75
550.956	6.95
551.3	6.7
551.643	6.88
551.987	7.01
552.33	6.82
552.674	7.04
553.017	7
553.361	6.87
553.704	7.02
554.048	6.85
554.391	6.81
554.734	6.91
555.077	7.1
555.42	6.8
555.764	6.83
556.107	6.8
556.45	6.89
556.793	7.07
557.135	7.06
557.478	7.34
557.821	7.15
558.164	7.06
558.507	7.14
558.849	7.08
559.192	7.33
559.534	7.48
559.877	7.15
560.219	7.1
560.562	7.46
560.904	7.2
561.246	7.38
561.589	7.38
561.931	7.26
562.273	7.07
562.615	7.45
562.957	7.34
563.299	7.18
563.641	7.37
563.983	7.52
564.325	7.18
564.667	7.29
565.008	7.45
565.35	7.45
565.692	7.42
566.033	7.51
566.375	7.65
566.716	7.76
567.058	7.42
567.399	7.36
567.741	7.45
568.082	7.5
568.423	7.48
568.764	7.58
569.105	7.66
569.447	7.78
569.788	7.59
570.129	7.68
570.47	7.68
570.811	7.8
571.151	7.91
571.492	7.88
571.833	7.98
572.174	7.77
572.514	7.85
572.855	7.87
573.195	7.84
573.536	7.79
573.876	7.74
574.217	7.69
574.557	8
574.898	7.96
575.238	8.19
575.578	7.92
575.918	8.22
576.258	8.12
576.598	8.27
576.938	7.94
577.278	8.17
577.618	8.11
577.958	8.07
578.298	8.15
578.638	7.87
578.977	8.12
579.317	8.14
579.657	8.33
579.996	8.2
580.336	8.26
580.675	8.21
581.014	8.21
581.354	8.47
581.693	8.16
582.032	8.44
582.372	8.21
582.711	8.58
583.05	8.47
583.389	8.39
583.728	8.39
584.067	8.49
584.406	8.6
584.745	8.51
585.083	8.82
585.422	8.69
585.761	8.84
586.1	8.74
586.438	8.59
586.777	8.73
587.115	8.97
587.454	8.91
587.792	8.77
588.13	9.05
588.469	8.93
588.807	9.09
589.145	8.71
589.483	8.75
589.821	8.88
590.159	9.09
590.497	9.31
590.835	9.22
591.173	8.83
591.511	9.4
591.849	9.32
592.187	9.12
592.524	9.17
592.862	8.97
593.2	9.47
593.537	9.11
593.875	9.18
594.212	9.15
594.55	9.18
594.887	9.42
595.224	9.22
595.561	9.3
595.899	9.38
596.236	9.45
596.573	9.45
596.91	9.05
597.247	9.34
597.584	9.87
597.921	9.62
598.258	9.31
598.594	9.72
598.931	9.56
599.268	9.64
599.604	9.53
599.941	9.56
600.277	9.53
600.614	9.6
600.95	9.69
601.287	9.54
601.623	9.48
601.959	9.46
602.296	9.96
602.632	9.91
602.968	9.91
603.304	10.13
603.64	9.91
603.976	10.25
604.312	9.85
604.648	9.74
604.984	10.17
605.319	10.3
605.655	9.97
605.991	10.12
606.326	9.96
606.662	10.11
606.998	9.89
607.333	10.24
607.668	10.17
608.004	10.28
608.339	10.35
608.674	10.27
609.01	10.28
609.345	10.23
609.68	10.53
610.015	10.32
610.35	10.56
610.685	10.44
611.02	10.66
611.355	10.48
611.689	10.6
612.024	10.78
612.359	10.53
612.694	10.33
613.028	10.41
613.363	10.86
613.697	10.81
614.032	10.69
614.366	10.92
614.7	10.9
615.035	11.12
615.369	10.64
615.703	10.89
616.037	10.98
616.371	10.64
616.705	10.67
617.039	10.97
617.373	11.14
617.707	10.72
618.041	11.07
618.375	11.33
618.709	11.35
619.042	11.2
619.376	11.28
619.71	11.6
620.043	11.16
620.377	11.01
620.71	11.34
621.043	11.23
621.377	11.2
621.71	11.58
622.043	11.2
622.376	10.95
622.709	11.4
623.043	11.48
623.376	11.59
623.709	11.46
624.041	12.21
624.374	11.56
624.707	11.65
625.04	11.71
625.373	11.15
625.705	11.62
626.038	11.66
626.37	11.8
626.703	11.71
627.035	12.02
627.368	12.09
627.7	11.94
628.032	12.02
628.365	12.49
628.697	11.9
629.029	12.04
629.361	11.97
629.693	12.07
630.025	11.89
630.357	12.22
630.689	12.43
631.021	12.32
631.353	12.33
631.684	12
632.016	12.63
632.348	12.47
632.679	12.43
633.011	12.38
633.342	12.36
633.674	11.93
634.005	12.67
634.336	12.38
634.668	13.29
634.999	12.34
635.33	12.79
635.661	12.81
635.992	12.81
636.323	12.71
636.654	12.84
636.985	13
637.316	12.85
637.647	12.76
637.977	12.88
638.308	13.14
638.639	12.55
638.969	12.7
639.3	13.23
639.63	12.2
639.961	12.89
640.291	13.24
640.622	13.36
640.952	12.82
641.282	13.39
641.612	13.39
641.943	12.89
642.273	13.24
642.603	13.37
642.933	13.65
643.263	13.7
643.592	13.18
643.922	13.36
644.252	13.68
644.582	13.49
644.911	13.23
645.241	13.5
645.571	13.34
645.9	13.21
646.23	13.62
646.559	13.71
646.888	13.69
647.218	13.51
647.547	14.2
647.876	13.74
648.205	13.99
648.534	13.67
648.863	13.64
649.192	13.87
649.521	13.21
649.85	13.79
650.179	14.18
650.508	14.12
650.837	13.17
651.165	13.61
651.494	14.12
651.822	14.07
652.151	13.55
652.479	13.87
652.808	13.54
653.136	13.9
653.465	13.96
653.793	14.25
654.121	14.33
654.449	14.62
654.777	14.32
655.105	14.55
655.433	14.33
655.761	14.58
656.089	15.11
656.417	15.2
656.745	14.64
657.073	13.98
657.4	15.09
657.728	14.68
658.056	14.35
658.383	14.92
658.711	14.9
659.038	15.05
659.365	14.85
659.693	15.14
660.02	15
660.347	15.19
660.674	15.39
661.001	15.2
661.329	14.38
661.656	15
661.982	15.29
662.309	14.85
662.636	15.01
662.963	15.41
663.29	15.05
663.616	15.29
663.943	14.82
664.27	15.42
664.596	15.37
664.923	15.32
665.249	15.32
665.576	15.29
665.902	16.26
666.228	15.26
666.554	15.99
666.881	14.89
667.207	15.44
667.533	15.48
667.859	15.7
668.185	16
668.511	15.37
668.837	15.11
669.162	15.83
669.488	15.22
669.814	16.44
670.139	15.8
670.465	15.62
670.791	15.64
671.116	16.53
671.442	15.94
671.767	15.83
672.092	16.13
672.418	16.25
672.743	16.21
673.068	15.8
673.393	16.44
673.718	15.77
674.043	15.77
674.368	15.94
674.693	16.93
675.018	16.2
675.343	16.24
675.667	16.47
675.992	17.05
676.317	16.68
676.641	16.93
676.966	16.6
677.29	15.69
677.615	16.69
677.939	16.66
678.264	17.15
678.588	16.91
678.912	17.15
679.236	17.03
679.56	15.82
679.885	17.58
680.209	17.15
680.532	16.82
680.856	17.57
681.18	17.05
681.504	17.82
681.828	17.79
682.152	17
682.475	17.06
682.799	17.24
683.122	17.31
683.446	16.73
683.769	17.93
684.093	17.13
684.416	17.82
684.739	17.24
685.062	17.35
685.386	17.85
685.709	17.24
686.032	17.39
686.355	17.78
