Data from 0206_chest_Reflection__4__313.txt Node

Date: Fri Dec 15 19:34:56 CST 2023
User: ToomeyLab
Spectrometer: FLMS14357
Trigger mode: 0
Integration Time (sec): 1.000000E-2
Scans to average: 100
Electric dark correction enabled: true
Nonlinearity correction enabled: false
Boxcar width: 0
XAxis mode: Wavelengths
Number of Pixels in Spectrum: 2048
>>>>>Begin Spectral Data<<<<<
189.047	-19.29
189.435	-19.29
189.823	-19.29
190.211	-170.99
190.599	-101.63
190.987	23.77
191.375	21.06
191.763	101.36
192.151	1266.94
192.538	59.1
192.926	224.63
193.314	111.55
193.702	-72.31
194.089	-77.94
194.477	-71.84
194.864	-356.87
195.252	106.88
195.639	130.26
196.027	991.22
196.414	176.47
196.801	48.17
197.189	315.25
197.576	-6.62
197.963	-103.64
198.351	-80.11
198.738	-70.42
199.125	10.02
199.512	-26.26
199.899	58.87
200.286	26.02
200.673	-55.01
201.06	-26.23
201.447	-11.33
201.833	13.07
202.22	51.08
202.607	-3.84
202.994	-6.57
203.38	4.24
203.767	33.77
204.154	-2.02
204.54	42.68
204.927	-5.49
205.313	-90.05
205.699	27.55
206.086	14.1
206.472	28.25
206.858	3.48
207.245	-33.93
207.631	21.48
208.017	15.86
208.403	-24.96
208.789	16.38
209.175	-10.57
209.561	-1.34
209.947	-7.52
210.333	-112.58
210.719	15.82
211.105	22.57
211.491	-28.8
211.876	3.28
212.262	10.39
212.648	-8.32
213.034	8.95
213.419	-6.51
213.805	-18.75
214.19	-38.54
214.576	-12.68
214.961	-9.21
215.346	-104.41
215.732	-10.22
216.117	54.98
216.502	-8.55
216.888	-83.41
217.273	22.1
217.658	-60.1
218.043	40.24
218.428	-70.82
218.813	-47.11
219.198	-84.15
219.583	-14.61
219.968	-9.59
220.353	-18.62
220.738	21.54
221.122	11.2
221.507	-20.39
221.892	-41.63
222.276	-9.07
222.661	5.34
223.046	9.37
223.43	11.08
223.815	6.47
224.199	-29.73
224.583	-1.27
224.968	6.92
225.352	14.61
225.736	-5.12
226.121	-0.08
226.505	1.52
226.889	13.1
227.273	-1.06
227.657	11.33
228.041	0.71
228.425	-0.98
228.809	4.69
229.193	7.63
229.577	5.16
229.961	2.98
230.344	3.48
230.728	2.86
231.112	3.12
231.495	2.53
231.879	1.64
232.263	2.12
232.646	3.88
233.03	3.64
233.413	2.07
233.797	3.74
234.18	2.72
234.563	1.97
234.946	1.44
235.33	3.23
235.713	3.53
236.096	2.37
236.479	3.83
236.862	2.37
237.245	4.51
237.628	1.1
238.011	4.91
238.394	6.82
238.777	3.61
239.16	1.49
239.543	5.2
239.925	2.42
240.308	4.1
240.691	4.26
241.073	3.71
241.456	3.47
241.838	2.19
242.221	2.69
242.603	4.12
242.986	3.5
243.368	4.05
243.75	3.51
244.133	3.33
244.515	3.8
244.897	3.61
245.279	3.65
245.661	4.02
246.043	0.99
246.425	2.09
246.807	5.02
247.189	3.85
247.571	3.46
247.953	3.55
248.335	3.48
248.717	3.9
249.098	3.71
249.48	3.67
249.862	3.57
250.243	3.46
250.625	3.51
251.006	3.77
251.388	3.36
251.769	3.68
252.151	4.62
252.532	2.04
252.913	2.84
253.295	3.35
253.676	3.33
254.057	3.69
254.438	3.7
254.819	3.17
255.2	3.07
255.581	2.82
255.962	2.8
256.343	4.44
256.724	3.78
257.105	4.12
257.486	3.37
257.867	3.62
258.247	3.53
258.628	3.57
259.009	1.89
259.389	3.2
259.77	3.44
260.15	3.5
260.531	2.82
260.911	3.83
261.292	3.35
261.672	3.7
262.052	3.49
262.432	3.88
262.813	3.68
263.193	3.72
263.573	2.88
263.953	2.85
264.333	3.52
264.713	3.6
265.093	3.15
265.473	3.46
265.853	2.74
266.233	3.63
266.612	2.06
266.992	1.9
267.372	4.2
267.752	3.12
268.131	2.66
268.511	3.75
268.89	3.58
269.27	3.17
269.649	2.71
270.029	2.8
270.408	4.63
270.787	3.93
271.167	3.9
271.546	3.95
271.925	2.84
272.304	3.28
272.683	3.67
273.062	2.83
273.441	3.56
273.82	2.72
274.199	3.31
274.578	3.63
274.957	2.87
275.336	2.98
275.715	3.14
276.093	3.54
276.472	3.69
276.851	3.15
277.229	3.22
277.608	2.66
277.986	3.17
278.365	3.45
278.743	3.01
279.122	3.51
279.5	3.58
279.878	3.56
280.257	2.56
280.635	2.49
281.013	3.1
281.391	3.47
281.769	3.62
282.147	3.28
282.525	3.84
282.903	3.4
283.281	3.45
283.659	3.65
284.037	3.04
284.415	3.42
284.792	3.39
285.17	3.08
285.548	3.25
285.925	3.52
286.303	3.63
286.68	2.97
287.058	3.28
287.435	3.24
287.813	3.65
288.19	3.02
288.567	3.29
288.945	3.78
289.322	3.39
289.699	3.15
290.076	2.55
290.453	3.11
290.83	2.87
291.207	2.79
291.584	3.42
291.961	4.01
292.338	3.7
292.715	3.77
293.092	3.48
293.469	3.14
293.845	3.99
294.222	2.7
294.599	3.12
294.975	3.26
295.352	3.58
295.728	2.98
296.105	3.13
296.481	3.31
296.858	3.24
297.234	3.49
297.61	2.86
297.986	3.66
298.363	3.51
298.739	3.51
299.115	2.98
299.491	3.55
299.867	3.72
300.243	3.99
300.619	3.12
300.995	3.23
301.371	3.84
301.746	3.73
302.122	3.77
302.498	3.68
302.874	3.83
303.249	3.85
303.625	3.88
304	3.81
304.376	3.37
304.751	3.16
305.127	4.19
305.502	2.89
305.878	3.12
306.253	3.77
306.628	3.9
307.003	3.79
307.378	3.99
307.754	4.84
308.129	3.24
308.504	3.55
308.879	3.41
309.254	4.7
309.629	3.9
310.003	4.09
310.378	4.23
310.753	4.21
311.128	4.1
311.502	3.97
311.877	4.01
312.252	3.61
312.626	4.04
313.001	3.95
313.375	4.21
313.75	3.81
314.124	4.15
314.498	3.72
314.873	3.94
315.247	3.56
315.621	3.73
315.995	3.65
316.369	4.06
316.743	3.95
317.117	4.47
317.491	3.75
317.865	3.92
318.239	4.17
318.613	3.95
318.987	4.19
319.361	2.89
319.734	4.12
320.108	4.52
320.482	3.97
320.855	5.05
321.229	4.52
321.602	4.37
321.976	4.58
322.349	4.01
322.723	4.18
323.096	3.79
323.469	3.51
323.843	3.92
324.216	4.76
324.589	3.92
324.962	3.92
325.335	4.09
325.708	4.14
326.081	4.3
326.454	4.11
326.827	4.64
327.2	4.05
327.573	4.56
327.945	4.55
328.318	3.93
328.691	3.91
329.063	4.08
329.436	3.79
329.809	4.52
330.181	4.3
330.553	3.98
330.926	4.6
331.298	4.14
331.671	3.45
332.043	4.07
332.415	4.01
332.787	4.28
333.159	4.77
333.532	5.04
333.904	3.76
334.276	4.5
334.648	3.98
335.02	4.06
335.391	4.34
335.763	4.03
336.135	3.76
336.507	4.88
336.879	4.42
337.25	4.11
337.622	4.27
337.993	3.76
338.365	4.78
338.736	4.5
339.108	4.43
339.479	4.2
339.851	4.14
340.222	4.41
340.593	4.34
340.964	3.83
341.336	4.8
341.707	3.53
342.078	4.54
342.449	4.37
342.82	4.04
343.191	4.57
343.562	4.71
343.933	4.24
344.303	4.27
344.674	4.35
345.045	4.67
345.416	4.15
345.786	3.91
346.157	4.37
346.527	3.75
346.898	3.76
347.268	4.63
347.639	4.33
348.009	4.4
348.38	3.99
348.75	4.69
349.12	4.12
349.49	4.57
349.861	4.72
350.231	3.9
350.601	4.39
350.971	4.17
351.341	4.36
351.711	4.4
352.081	5.17
352.45	4.31
352.82	4.49
353.19	4.38
353.56	4.01
353.929	4.61
354.299	4.38
354.669	4.25
355.038	4.29
355.408	3.92
355.777	4.55
356.147	4.33
356.516	4.6
356.885	4.42
357.254	4.41
357.624	4.97
357.993	4.81
358.362	4.48
358.731	4.16
359.1	4.51
359.469	4.94
359.838	4.63
360.207	4.47
360.576	4.11
360.945	4.21
361.314	4.54
361.682	4.39
362.051	4.21
362.42	4.76
362.788	4.59
363.157	4.65
363.525	4.69
363.894	4.46
364.262	4.27
364.631	4.47
364.999	4.81
365.367	4.24
365.735	5.09
366.104	5.1
366.472	4.66
366.84	4.35
367.208	4.72
367.576	4.61
367.944	4.79
368.312	4.48
368.68	4.2
369.048	4.57
369.416	4.6
369.783	4.16
370.151	4.67
370.519	5.16
370.886	4.96
371.254	4.38
371.621	4.73
371.989	4.66
372.356	4.19
372.724	5.12
373.091	4.29
373.458	4.55
373.826	4.3
374.193	4.55
374.56	4.69
374.927	4.54
375.294	4.79
375.661	4.86
376.028	4.58
376.395	4.39
376.762	4.73
377.129	4.62
377.496	4.51
377.863	4.4
378.229	4.23
378.596	4.77
378.963	4.73
379.329	4.33
379.696	4.91
380.062	4.5
380.429	4.64
380.795	4.53
381.161	4.64
381.528	4.7
381.894	4.81
382.26	4.59
382.626	4.6
382.993	4.37
383.359	4.64
383.725	4.5
384.091	4.46
384.457	4.56
384.823	4.47
385.188	4.75
385.554	4.57
385.92	5.03
386.286	4.71
386.651	4.59
387.017	4.88
387.383	5.03
387.748	4.56
388.114	4.94
388.479	4.82
388.845	5.09
389.21	4.62
389.575	4.72
389.94	4.75
390.306	4.73
390.671	4.94
391.036	4.34
391.401	4.46
391.766	4.87
392.131	4.56
392.496	4.64
392.861	4.72
393.226	5.03
393.591	4.65
393.956	4.61
394.32	4.73
394.685	4.54
395.05	4.7
395.414	4.77
395.779	4.86
396.143	4.84
396.508	4.86
396.872	4.73
397.236	4.56
397.601	4.59
397.965	5.02
398.329	5.23
398.694	4.91
399.058	4.56
399.422	4.55
399.786	4.83
400.15	4.68
400.514	5.02
400.878	4.53
401.242	5.25
401.605	4.98
401.969	4.93
402.333	4.87
402.697	4.86
403.06	4.86
403.424	4.87
403.787	4.7
404.151	5.22
404.514	4.96
404.878	4.6
405.241	5.12
405.604	4.88
405.968	4.82
406.331	5.06
406.694	5.08
407.057	5.1
407.42	5.06
407.783	4.65
408.146	4.87
408.509	4.81
408.872	4.93
409.235	4.99
409.598	4.93
409.961	4.9
410.323	5.09
410.686	4.99
411.049	4.69
411.411	4.85
411.774	4.96
412.136	4.88
412.499	4.8
412.861	4.84
413.223	5.11
413.586	4.98
413.948	5.13
414.31	4.88
414.672	4.78
415.035	4.79
415.397	4.98
415.759	4.69
416.121	5.02
416.483	4.84
416.845	4.74
417.206	4.8
417.568	4.75
417.93	4.68
418.292	4.96
418.653	4.88
419.015	4.92
419.377	5.03
419.738	4.96
420.1	4.75
420.461	4.79
420.822	4.94
421.184	4.98
421.545	4.95
421.906	4.84
422.267	4.92
422.629	4.77
422.99	4.78
423.351	4.71
423.712	4.82
424.073	4.99
424.434	4.78
424.795	4.9
425.155	4.85
425.516	4.76
425.877	4.81
426.238	4.8
426.598	4.96
426.959	4.93
427.32	4.83
427.68	4.79
428.041	4.8
428.401	4.95
428.761	4.96
429.122	4.91
429.482	4.81
429.842	5.12
430.202	5.01
430.563	5.04
430.923	4.84
431.283	4.91
431.643	4.87
432.003	5.13
432.363	5.11
432.722	4.87
433.082	5.15
433.442	5.12
433.802	4.91
434.161	4.96
434.521	5.28
434.881	5.21
435.24	4.99
435.6	5.05
435.959	5.01
436.319	4.94
436.678	4.94
437.037	5
437.396	5.06
437.756	5.15
438.115	5.02
438.474	5.29
438.833	4.95
439.192	4.77
439.551	5.15
439.91	4.96
440.269	5.04
440.628	5.08
440.987	5.03
441.345	4.86
441.704	5.03
442.063	4.91
442.421	5.04
442.78	4.92
443.138	4.87
443.497	4.97
443.855	5.07
444.214	5.17
444.572	5.11
444.93	5.1
445.288	5.1
445.647	5.18
446.005	5.2
446.363	5.15
446.721	5.07
447.079	4.85
447.437	4.98
447.795	5.06
448.153	4.98
448.51	4.93
448.868	5.01
449.226	5.1
449.584	5.05
449.941	5.13
450.299	5.11
450.656	5.03
451.014	5.02
451.371	5.04
451.729	5.04
452.086	5.31
452.443	5.15
452.801	5.25
453.158	5.14
453.515	5.14
453.872	5.36
454.229	5.02
454.586	5.11
454.943	5.12
455.3	5.29
455.657	5.16
456.014	5.26
456.371	5.25
456.727	5.29
457.084	5.25
457.441	5.22
457.797	5.17
458.154	5.25
458.51	5.09
458.867	5.25
459.223	5.23
459.58	5.16
459.936	5.34
460.292	5.19
460.648	5.22
461.005	5.05
461.361	5.07
461.717	5.24
462.073	4.99
462.429	5.21
462.785	5.18
463.141	5.2
463.496	5.17
463.852	5.4
464.208	5.29
464.564	5.37
464.919	5.18
465.275	5.31
465.631	5.5
465.986	5.21
466.342	5.34
466.697	5.05
467.052	5.43
467.408	5.52
467.763	5.2
468.118	5.23
468.473	5.24
468.829	5.32
469.184	5.18
469.539	5.38
469.894	5.04
470.249	5.34
470.603	5.4
470.958	5.44
471.313	5.25
471.668	5.32
472.023	5.38
472.377	5.09
472.732	5.22
473.086	5.29
473.441	5.06
473.795	5.45
474.15	5.22
474.504	5.48
474.859	5.49
475.213	5.24
475.567	5.26
475.921	5.24
476.275	5.38
476.63	5.27
476.984	5.59
477.338	5.48
477.692	5.28
478.045	5.41
478.399	5.3
478.753	5.47
479.107	5.34
479.461	5.33
479.814	5.36
480.168	5.3
480.521	5.31
480.875	5.2
481.228	5.22
481.582	5.47
481.935	5.46
482.289	5.33
482.642	5.53
482.995	5.22
483.348	5.29
483.701	5.3
484.055	5.44
484.408	5.41
484.761	5.25
485.114	5.16
485.466	5.04
485.819	5.03
486.172	5.04
486.525	5.17
486.878	5.19
487.23	5.24
487.583	5.33
487.936	5.34
488.288	5.36
488.641	5.28
488.993	5.16
489.345	5.08
489.698	5.14
490.05	5.17
490.402	5.23
490.754	5.23
491.107	5.39
491.459	5.41
491.811	5.38
492.163	5.47
492.515	5.42
492.866	5.27
493.218	5.26
493.57	5.2
493.922	5.19
494.274	5.35
494.625	5.48
494.977	5.52
495.328	5.67
495.68	5.52
496.031	5.55
496.383	5.53
496.734	5.58
497.086	5.56
497.437	5.65
497.788	5.5
498.139	5.35
498.49	5.59
498.842	5.42
499.193	5.55
499.544	5.62
499.894	5.49
500.245	5.53
500.596	5.49
500.947	5.65
501.298	5.62
501.648	5.8
501.999	5.7
502.35	5.51
502.7	5.67
503.051	5.63
503.401	5.55
503.752	5.58
504.102	5.62
504.452	5.6
504.803	5.62
505.153	5.7
505.503	5.7
505.853	5.62
506.203	5.73
506.553	5.64
506.903	5.7
507.253	5.66
507.603	5.66
507.953	5.76
508.303	5.72
508.652	5.54
509.002	5.68
509.352	5.81
509.701	5.52
510.051	5.58
510.4	5.58
510.75	5.75
511.099	5.72
511.449	5.68
511.798	5.8
512.147	5.76
512.496	5.7
512.846	5.79
513.195	5.77
513.544	5.69
513.893	5.84
514.242	5.77
514.591	5.98
514.939	5.8
515.288	5.81
515.637	5.84
515.986	5.91
516.334	5.84
516.683	5.89
517.032	5.77
517.38	5.86
517.729	5.89
518.077	5.8
518.426	6
518.774	6.01
519.122	5.98
519.47	5.8
519.819	5.69
520.167	5.79
520.515	5.8
520.863	5.81
521.211	5.89
521.559	5.94
521.907	5.87
522.255	5.97
522.602	5.93
522.95	5.96
523.298	5.97
523.645	6.1
523.993	5.94
524.341	6.04
524.688	6.05
525.036	5.95
525.383	5.95
525.73	6.17
526.078	5.94
526.425	6.04
526.772	6.14
527.119	6.01
527.466	5.85
527.814	5.93
528.161	6
528.508	6.05
528.854	5.99
529.201	5.95
529.548	5.9
529.895	5.94
530.242	5.69
530.588	5.73
530.935	5.79
531.282	5.87
531.628	5.92
531.975	6.01
532.321	6.05
532.667	6.08
533.014	6.22
533.36	6.16
533.706	6.15
534.052	6.1
534.399	6.04
534.745	6.07
535.091	5.98
535.437	5.96
535.783	6.08
536.129	6.17
536.474	6.17
536.82	6.28
537.166	6.33
537.512	6.31
537.857	6.11
538.203	6.25
538.549	6.24
538.894	6.16
539.239	6.3
539.585	6.26
539.93	6.3
540.276	6.49
540.621	6.43
540.966	6.48
541.311	6.31
541.656	6.38
542.001	6.24
542.346	6.31
542.691	6.13
543.036	6.15
543.381	6.06
543.726	6.19
544.071	6.33
544.415	6.36
544.76	6.38
545.105	6.37
545.449	6.43
545.794	6.54
546.138	6.49
546.483	6.43
546.827	6.57
547.171	6.55
547.516	6.59
547.86	6.42
548.204	6.61
548.548	6.44
548.892	6.57
549.236	6.58
549.58	6.57
549.924	6.73
550.268	6.79
550.612	6.79
550.956	6.9
551.3	6.83
551.643	6.72
551.987	7.05
552.33	6.82
552.674	6.89
553.017	6.75
553.361	6.84
553.704	6.84
554.048	6.82
554.391	6.7
554.734	6.91
555.077	6.99
555.42	6.77
555.764	6.83
556.107	6.72
556.45	6.79
556.793	6.95
557.135	6.82
557.478	7.1
557.821	7.12
558.164	7.03
558.507	6.94
558.849	7.03
559.192	7.27
559.534	7.19
559.877	7.21
560.219	7.11
560.562	7.32
560.904	7.1
561.246	7.08
561.589	7.13
561.931	7.19
562.273	7.22
562.615	7.17
562.957	7.25
563.299	7.08
563.641	7.21
563.983	7.27
564.325	7.23
564.667	7.13
565.008	7.23
565.35	7.3
565.692	7.14
566.033	7.28
566.375	7.56
566.716	7.48
567.058	7.18
567.399	7.35
567.741	7.04
568.082	7.2
568.423	7.27
568.764	7.39
569.105	7.44
569.447	7.46
569.788	7.52
570.129	7.64
570.47	7.4
570.811	7.62
571.151	7.56
571.492	7.54
571.833	7.55
572.174	7.82
572.514	7.64
572.855	7.6
573.195	7.7
573.536	7.61
573.876	7.51
574.217	7.46
574.557	7.65
574.898	7.86
575.238	7.82
575.578	7.7
575.918	7.9
576.258	7.88
576.598	7.94
576.938	7.72
577.278	7.93
577.618	7.81
577.958	7.69
578.298	7.8
578.638	7.88
578.977	7.74
579.317	7.93
579.657	7.91
579.996	8
580.336	8.06
580.675	7.95
581.014	8.08
581.354	8.23
581.693	8.09
582.032	8.21
582.372	8.14
582.711	8.12
583.05	8.12
583.389	8.36
583.728	8.06
584.067	8.56
584.406	8.36
584.745	8.34
585.083	8.44
585.422	8.39
585.761	8.48
586.1	8.55
586.438	8.35
586.777	8.48
587.115	8.64
587.454	8.37
587.792	8.49
588.13	8.55
588.469	8.25
588.807	8.37
589.145	8.48
589.483	8.53
589.821	8.54
590.159	8.59
590.497	8.76
590.835	8.78
591.173	8.78
591.511	8.81
591.849	8.71
592.187	8.72
592.524	8.66
592.862	8.87
593.2	9.05
593.537	9
593.875	8.61
594.212	8.82
594.55	8.58
594.887	9.12
595.224	8.64
595.561	8.89
595.899	9.01
596.236	8.83
596.573	8.94
596.91	8.75
597.247	9.05
597.584	9.24
597.921	8.98
598.258	8.93
598.594	9.08
598.931	9.05
599.268	9.11
599.604	9.12
599.941	9.25
600.277	9.27
600.614	9.18
600.95	9.06
601.287	9.45
601.623	9.23
601.959	9.31
602.296	9.46
602.632	9.32
602.968	9.64
603.304	9.09
603.64	9.3
603.976	9.38
604.312	9.27
604.648	9.3
604.984	9.5
605.319	9.53
605.655	9.37
605.991	9.27
606.326	9.41
606.662	9.54
606.998	9.21
607.333	9.66
607.668	9.67
608.004	9.82
608.339	9.95
608.674	9.59
609.01	9.66
609.345	9.42
609.68	9.69
610.015	9.75
610.35	9.74
610.685	9.69
611.02	9.64
611.355	9.76
611.689	9.64
612.024	9.9
612.359	9.62
612.694	9.86
613.028	9.92
613.363	10.07
613.697	10.35
614.032	10.21
614.366	10.25
614.7	10.32
615.035	10.35
615.369	9.67
615.703	10.31
616.037	10.22
616.371	9.94
616.705	10.04
617.039	10.32
617.373	10.13
617.707	10.09
618.041	10.29
618.375	10.22
618.709	10.56
619.042	10.28
619.376	10.49
619.71	10.2
620.043	10.27
620.377	10.33
620.71	10.51
621.043	10.18
621.377	10.33
621.71	10.72
622.043	10.72
622.376	10.68
622.709	10.74
623.043	10.51
623.376	10.85
623.709	10.44
624.041	11.11
624.374	10.67
624.707	10.65
625.04	11.08
625.373	10.48
625.705	10.9
626.038	10.78
626.37	11.02
626.703	10.72
627.035	10.64
627.368	10.74
627.7	10.78
628.032	11.04
628.365	11.11
628.697	10.98
629.029	10.71
629.361	10.94
629.693	11.07
630.025	10.93
630.357	11.4
630.689	11.26
631.021	11.21
631.353	11.24
631.684	11.14
632.016	10.92
632.348	11.76
632.679	11.48
633.011	11.31
633.342	11.5
633.674	11.56
634.005	11.88
634.336	11.56
634.668	12.13
634.999	11.42
635.33	11.49
635.661	11.53
635.992	11.56
636.323	11.8
636.654	11.98
636.985	11.7
637.316	11.95
637.647	11.54
637.977	11.54
638.308	12.12
638.639	11.77
638.969	12.01
639.3	11.5
639.63	11.83
639.961	12.13
640.291	11.96
640.622	12.08
640.952	11.84
641.282	12.26
641.612	12.1
641.943	12.04
642.273	12.58
642.603	12.32
642.933	12.21
643.263	12.33
643.592	12.18
643.922	12.12
644.252	12.19
644.582	12.53
644.911	12.23
645.241	12.39
645.571	12.65
645.9	12.3
646.23	12.65
646.559	12.68
646.888	12.03
647.218	12.48
647.547	12.85
647.876	12.59
648.205	12.76
648.534	12.69
648.863	11.97
649.192	12.95
649.521	12.55
649.85	12.32
650.179	12.72
650.508	12.32
650.837	12.57
651.165	12.26
651.494	12.92
651.822	12.97
652.151	12.61
652.479	12.93
652.808	12.41
653.136	12.98
653.465	12.21
653.793	12.6
654.121	13.04
654.449	12.88
654.777	13.38
655.105	13.19
655.433	13.16
655.761	13.21
656.089	13.14
656.417	13.75
656.745	13.1
657.073	13.4
657.4	13.66
657.728	13.42
658.056	12.72
658.383	13.49
658.711	13.33
659.038	13.48
659.365	13.64
659.693	13.83
660.02	13.26
660.347	13.36
660.674	13.37
661.001	13.76
661.329	12.71
661.656	13.5
661.982	13.73
662.309	14.01
662.636	13.42
662.963	13.96
663.29	14.12
663.616	13.79
663.943	13.36
664.27	14.29
664.596	13.64
664.923	13.46
665.249	13.42
665.576	13.85
665.902	15.15
666.228	13.83
666.554	14.15
666.881	14.06
667.207	14.44
667.533	14.26
667.859	14.37
668.185	14.65
668.511	14.11
668.837	12.99
669.162	14.32
669.488	13.83
669.814	14.68
670.139	14.9
670.465	15.04
670.791	14.12
671.116	15.62
671.442	14.78
671.767	15.17
672.092	14.72
672.418	14.2
672.743	14.97
673.068	14.56
673.393	15.17
673.718	14.74
674.043	14.45
674.368	15.16
674.693	15.82
675.018	14.27
675.343	15.23
675.667	14.98
675.992	15.1
676.317	14.75
676.641	14.78
676.966	14.84
677.29	14.91
677.615	15.3
677.939	15.6
678.264	15.71
678.588	15.55
678.912	15.33
679.236	15.87
679.56	15.23
679.885	15.68
680.209	15.9
680.532	15.03
680.856	16.55
681.18	15.14
681.504	15.75
681.828	15.79
682.152	15.29
682.475	15.35
682.799	15.3
683.122	15.97
683.446	15.24
683.769	16.41
684.093	15.3
684.416	16.37
684.739	15.7
685.062	15.83
685.386	16.25
685.709	15.73
686.032	16.23
686.355	15.89
