Data from 0206_forehead_Reflection__1__320.txt Node

Date: Fri Dec 15 19:36:47 CST 2023
User: ToomeyLab
Spectrometer: FLMS14357
Trigger mode: 0
Integration Time (sec): 1.000000E-2
Scans to average: 100
Electric dark correction enabled: true
Nonlinearity correction enabled: false
Boxcar width: 0
XAxis mode: Wavelengths
Number of Pixels in Spectrum: 2048
>>>>>Begin Spectral Data<<<<<
189.047	47.29
189.435	47.29
189.823	47.29
190.211	-11.08
190.599	-252.72
190.987	8.53
191.375	164.85
191.763	-148.95
192.151	-128.06
192.538	67.76
192.926	210.75
193.314	623.19
193.702	-96.76
194.089	132.63
194.477	87.68
194.864	14.08
195.252	114.78
195.639	163.93
196.027	284.31
196.414	284.71
196.801	-7.98
197.189	161.42
197.576	148.49
197.963	-229.91
198.351	-19.94
198.738	-29.7
199.125	10.65
199.512	8.51
199.899	11.84
200.286	36.17
200.673	0.6
201.06	26.07
201.447	-13.61
201.833	15.82
202.22	33.43
202.607	27.86
202.994	-4.1
203.38	-18.29
203.767	13.98
204.154	7.11
204.54	25.1
204.927	-54.33
205.313	-95.9
205.699	-6.8
206.086	49.54
206.472	56.1
206.858	33.83
207.245	-95.4
207.631	14.48
208.017	-6.68
208.403	48.01
208.789	40.26
209.175	26.24
209.561	-63.53
209.947	13
210.333	2.75
210.719	24.89
211.105	4.71
211.491	-7.22
211.876	19.91
212.262	18.94
212.648	-6.56
213.034	13.59
213.419	-43.24
213.805	-15.34
214.19	-63.13
214.576	13.07
214.961	20.7
215.346	-64.07
215.732	-50.74
216.117	39.08
216.502	-23.76
216.888	4.32
217.273	27.44
217.658	-24.2
218.043	20.78
218.428	-41.75
218.813	-38.37
219.198	-22.71
219.583	5.52
219.968	-20.48
220.353	-2.07
220.738	24.35
221.122	3.12
221.507	-11.52
221.892	-12.96
222.276	-32.23
222.661	-10.41
223.046	18.42
223.43	23.62
223.815	2.27
224.199	-11.62
224.583	-4.93
224.968	-5.32
225.352	8.92
225.736	-6.57
226.121	-8.84
226.505	1.07
226.889	15.82
227.273	2.21
227.657	12.66
228.041	-0.38
228.425	-1.14
228.809	4.77
229.193	7
229.577	2.29
229.961	4.25
230.344	2.09
230.728	1.57
231.112	3.74
231.495	1.85
231.879	1.1
232.263	3.47
232.646	4.33
233.03	3.61
233.413	-0.3
233.797	2.11
234.18	3.54
234.563	3.82
234.946	1.86
235.33	4.23
235.713	2.28
236.096	1.84
236.479	2.29
236.862	2
237.245	3.68
237.628	-0.55
238.011	2.79
238.394	2.52
238.777	3.54
239.16	-0.17
239.543	1.22
239.925	3.86
240.308	3.17
240.691	2.89
241.073	3.22
241.456	1.44
241.838	3.59
242.221	1.05
242.603	3.32
242.986	3.14
243.368	3.06
243.75	3.73
244.133	2.27
244.515	3.34
244.897	3.13
245.279	2.9
245.661	3.13
246.043	2.38
246.425	2.15
246.807	4.03
247.189	3.91
247.571	3.8
247.953	3.32
248.335	3.35
248.717	3
249.098	2.84
249.48	3.07
249.862	2.54
250.243	2.95
250.625	3.05
251.006	3.47
251.388	2.03
251.769	2.1
252.151	2.41
252.532	3.1
252.913	3
253.295	3.04
253.676	2.83
254.057	3
254.438	2.83
254.819	2.39
255.2	2.2
255.581	2.65
255.962	1.25
256.343	2.47
256.724	0.99
257.105	2.4
257.486	2.04
257.867	3.62
258.247	2.77
258.628	2.96
259.009	2.93
259.389	3
259.77	1.82
260.15	2.71
260.531	2.07
260.911	3.56
261.292	2.74
261.672	3.17
262.052	3.16
262.432	3.27
262.813	2.93
263.193	3.02
263.573	2.73
263.953	2.57
264.333	2.92
264.713	2.21
265.093	2.03
265.473	3.28
265.853	1.3
266.233	4.15
266.612	1.81
266.992	1.77
267.372	3.3
267.752	1.86
268.131	2.2
268.511	3.67
268.89	4.13
269.27	2.49
269.649	2.67
270.029	2.48
270.408	3.67
270.787	3.28
271.167	3.83
271.546	2.77
271.925	1.68
272.304	2.75
272.683	2.89
273.062	2.64
273.441	2.53
273.82	2.57
274.199	2.86
274.578	2.8
274.957	3
275.336	2.97
275.715	2.57
276.093	2.42
276.472	3.05
276.851	2.22
277.229	2.07
277.608	2.53
277.986	2.48
278.365	2.55
278.743	2.42
279.122	3.01
279.5	2.68
279.878	3.19
280.257	2.57
280.635	2.37
281.013	2.84
281.391	3.18
281.769	3.37
282.147	3.1
282.525	3.67
282.903	2.89
283.281	3.14
283.659	2.71
284.037	2.64
284.415	3.15
284.792	3.48
285.17	2.12
285.548	2.28
285.925	2.97
286.303	2.72
286.68	2.56
287.058	2.7
287.435	2.55
287.813	3.04
288.19	2.9
288.567	2.31
288.945	2.65
289.322	2.93
289.699	2.63
290.076	2.63
290.453	2.52
290.83	2.73
291.207	2.28
291.584	3.29
291.961	2.83
292.338	3.02
292.715	3.26
293.092	3.13
293.469	2.76
293.845	3.18
294.222	2
294.599	3.06
294.975	3.16
295.352	2.98
295.728	2.32
296.105	2.49
296.481	3.38
296.858	3.21
297.234	2.7
297.61	2.75
297.986	2.76
298.363	3.28
298.739	3.05
299.115	2.64
299.491	2.7
299.867	3.01
300.243	2.79
300.619	2.71
300.995	3.11
301.371	3.04
301.746	2.6
302.122	3.34
302.498	3.14
302.874	3.09
303.249	2.98
303.625	3.15
304	3.11
304.376	2.95
304.751	2.98
305.127	3.67
305.502	3.14
305.878	2.52
306.253	2.85
306.628	3.68
307.003	3.27
307.378	3.13
307.754	3.36
308.129	2.81
308.504	2.93
308.879	3.12
309.254	3.88
309.629	3.69
310.003	3.28
310.378	3.78
310.753	3.38
311.128	3.55
311.502	3.32
311.877	4.06
312.252	3.18
312.626	3.2
313.001	3.2
313.375	3.84
313.75	3.01
314.124	3.55
314.498	3.58
314.873	3.47
315.247	3.2
315.621	3.66
315.995	3.12
316.369	3.64
316.743	3.68
317.117	4.56
317.491	3.47
317.865	4.03
318.239	3.97
318.613	3.82
318.987	3.53
319.361	3.25
319.734	4.94
320.108	3.61
320.482	3.57
320.855	3.98
321.229	3.71
321.602	3.77
321.976	3.94
322.349	3.38
322.723	3.73
323.096	4.19
323.469	3.54
323.843	3.67
324.216	4.43
324.589	3.75
324.962	3.87
325.335	3.58
325.708	3.92
326.081	3.53
326.454	4.05
326.827	3.87
327.2	4.56
327.573	4.72
327.945	4.06
328.318	4
328.691	3.5
329.063	3.97
329.436	4.33
329.809	4.92
330.181	4.15
330.553	4.47
330.926	4.39
331.298	4.49
331.671	4.01
332.043	4.74
332.415	4.47
332.787	4.21
333.159	4.88
333.532	5.1
333.904	4.87
334.276	4.66
334.648	4.71
335.02	4.79
335.391	4.11
335.763	4.29
336.135	4.73
336.507	5.3
336.879	4.45
337.25	4.14
337.622	4.5
337.993	4.15
338.365	4.88
338.736	4.64
339.108	4.25
339.479	4.36
339.851	4.79
340.222	4.63
340.593	4.66
340.964	4.76
341.336	5.15
341.707	4.26
342.078	4.97
342.449	4.79
342.82	5.16
343.191	4.92
343.562	4.92
343.933	4.88
344.303	4.78
344.674	4.77
345.045	4.71
345.416	4.84
345.786	4.7
346.157	5.36
346.527	4.48
346.898	4.36
347.268	5.37
347.639	5.04
348.009	5.11
348.38	4.78
348.75	4.86
349.12	4.79
349.49	5.02
349.861	4.67
350.231	5.28
350.601	5.46
350.971	5.58
351.341	5.61
351.711	4.93
352.081	5.36
352.45	4.9
352.82	5.05
353.19	5.25
353.56	4.93
353.929	5.35
354.299	5.11
354.669	4.96
355.038	5.61
355.408	5.21
355.777	4.86
356.147	4.96
356.516	5.41
356.885	5.41
357.254	5.5
357.624	5.43
357.993	5.47
358.362	5.02
358.731	4.87
359.1	5.61
359.469	5.53
359.838	5.75
360.207	5.5
360.576	5.14
360.945	5.66
361.314	5.74
361.682	5.23
362.051	5.75
362.42	5.65
362.788	5.22
363.157	5.6
363.525	5.58
363.894	5.79
364.262	5.9
364.631	5.63
364.999	5.78
365.367	5.42
365.735	6.03
366.104	5.55
366.472	6.2
366.84	5.76
367.208	5.73
367.576	6.03
367.944	5.87
368.312	5.88
368.68	5.64
369.048	5.97
369.416	6.17
369.783	5.5
370.151	6.22
370.519	6.14
370.886	6.21
371.254	5.47
371.621	6.49
371.989	6.42
372.356	5.86
372.724	6.2
373.091	6.16
373.458	6.26
373.826	5.91
374.193	6.27
374.56	6.48
374.927	6.35
375.294	6.18
375.661	6.28
376.028	6.18
376.395	6.39
376.762	6.73
377.129	6.35
377.496	6.14
377.863	6.31
378.229	5.87
378.596	6.18
378.963	6.6
379.329	6.17
379.696	6.46
380.062	6.57
380.429	6.62
380.795	6.68
381.161	6.7
381.528	6.88
381.894	6.77
382.26	6.6
382.626	7.13
382.993	6.56
383.359	7.2
383.725	6.46
384.091	6.84
384.457	7.34
384.823	6.56
385.188	6.62
385.554	6.97
385.92	7.02
386.286	7.18
386.651	6.99
387.017	7.38
387.383	7.38
387.748	7.14
388.114	7.2
388.479	6.8
388.845	7.33
389.21	7.28
389.575	7.31
389.94	7.58
390.306	7.21
390.671	7.27
391.036	7.01
391.401	7.13
391.766	7.3
392.131	7.15
392.496	7.43
392.861	7.48
393.226	7.42
393.591	7.4
393.956	7.49
394.32	7.64
394.685	7.05
395.05	7.47
395.414	7.67
395.779	7.33
396.143	7.58
396.508	7.6
396.872	7.45
397.236	7.67
397.601	7.4
397.965	7.82
398.329	7.67
398.694	7.58
399.058	7.93
399.422	7.65
399.786	7.95
400.15	7.78
400.514	7.67
400.878	8.09
401.242	8.21
401.605	7.96
401.969	7.85
402.333	8.1
402.697	7.89
403.06	8.23
403.424	8.05
403.787	8.04
404.151	8.4
404.514	8.17
404.878	8.05
405.241	8.3
405.604	7.94
405.968	8.27
406.331	8.05
406.694	8.42
407.057	8.27
407.42	8.22
407.783	7.98
408.146	8.43
408.509	8.04
408.872	8.29
409.235	8.44
409.598	8.91
409.961	8.42
410.323	8.75
410.686	8.29
411.049	8.44
411.411	8.35
411.774	8.64
412.136	8.48
412.499	8.43
412.861	8.39
413.223	8.54
413.586	8.71
413.948	8.76
414.31	8.96
414.672	8.62
415.035	8.59
415.397	8.92
415.759	8.79
416.121	9.08
416.483	8.92
416.845	8.79
417.206	8.87
417.568	9.06
417.93	8.68
418.292	8.85
418.653	8.83
419.015	9.06
419.377	8.92
419.738	9.01
420.1	9.02
420.461	9.04
420.822	8.97
421.184	9.01
421.545	9.03
421.906	8.91
422.267	9.06
422.629	8.94
422.99	9.16
423.351	8.99
423.712	9.17
424.073	9.13
424.434	9.22
424.795	9.22
425.155	9.28
425.516	9.18
425.877	9.2
426.238	9.26
426.598	9.32
426.959	9.28
427.32	9.29
427.68	9.36
428.041	9.49
428.401	9.59
428.761	9.55
429.122	9.72
429.482	9.61
429.842	9.66
430.202	9.89
430.563	9.79
430.923	9.84
431.283	9.83
431.643	9.84
432.003	9.84
432.363	10.03
432.722	9.81
433.082	9.96
433.442	9.98
433.802	9.77
434.161	9.96
434.521	10.2
434.881	9.85
435.24	10.05
435.6	10.08
435.959	10.02
436.319	10.12
436.678	10.18
437.037	10.12
437.396	10.17
437.756	10.33
438.115	10.42
438.474	10.56
438.833	10.01
439.192	10.24
439.551	10.53
439.91	10.25
440.269	10.48
440.628	10.49
440.987	10.37
441.345	10.44
441.704	10.59
442.063	10.43
442.421	10.5
442.78	10.51
443.138	10.56
443.497	10.56
443.855	10.5
444.214	10.65
444.572	10.79
444.93	10.76
445.288	10.7
445.647	10.96
446.005	10.78
446.363	10.84
446.721	10.97
447.079	10.67
447.437	10.78
447.795	10.91
448.153	10.66
448.51	10.89
448.868	10.83
449.226	10.89
449.584	10.83
449.941	10.91
450.299	11.12
450.656	11.16
451.014	11.19
451.371	11.11
451.729	11.2
452.086	11.59
452.443	11.3
452.801	11.38
453.158	11.47
453.515	11.47
453.872	11.68
454.229	11.4
454.586	11.49
454.943	11.64
455.3	11.55
455.657	11.47
456.014	11.64
456.371	11.71
456.727	11.82
457.084	11.84
457.441	11.85
457.797	11.79
458.154	12.06
458.51	11.84
458.867	11.89
459.223	12.02
459.58	12.04
459.936	11.83
460.292	11.95
460.648	12.11
461.005	11.79
461.361	11.93
461.717	11.86
462.073	11.82
462.429	11.92
462.785	12.06
463.141	12.09
463.496	12.27
463.852	12.22
464.208	12.49
464.564	12.54
464.919	12.44
465.275	12.54
465.631	12.64
465.986	12.43
466.342	12.45
466.697	12.44
467.052	12.71
467.408	12.8
467.763	12.58
468.118	12.8
468.473	12.61
468.829	12.78
469.184	12.65
469.539	12.68
469.894	12.73
470.249	13.07
470.603	12.98
470.958	13.1
471.313	13.04
471.668	13.15
472.023	13.14
472.377	13.23
472.732	13.08
473.086	13.14
473.441	13.07
473.795	13.33
474.15	13.16
474.504	13.3
474.859	13.61
475.213	13.31
475.567	13.3
475.921	13.37
476.275	13.28
476.63	13.76
476.984	13.73
477.338	13.74
477.692	13.83
478.045	13.36
478.399	13.76
478.753	13.67
479.107	13.69
479.461	13.71
479.814	13.66
480.168	13.83
480.521	13.74
480.875	13.68
481.228	13.76
481.582	13.95
481.935	13.98
482.289	13.94
482.642	13.89
482.995	13.87
483.348	13.76
483.701	13.84
484.055	13.85
484.408	13.97
484.761	13.75
485.114	13.65
485.466	13.31
485.819	13.18
486.172	13.18
486.525	13.28
486.878	13.49
487.23	13.73
487.583	13.77
487.936	14
488.288	14.02
488.641	13.96
488.993	13.81
489.345	13.74
489.698	13.7
490.05	13.75
490.402	13.93
490.754	14
491.107	14.15
491.459	14.34
491.811	14.54
492.163	14.55
492.515	14.58
492.866	14.61
493.218	14.4
493.57	14.23
493.922	14.16
494.274	14.45
494.625	14.56
494.977	14.69
495.328	14.93
495.68	14.97
496.031	15.1
496.383	15.25
496.734	15.38
497.086	15.43
497.437	15.42
497.788	15.25
498.139	15.39
498.49	15.26
498.842	15.27
499.193	15.52
499.544	15.45
499.894	15.49
500.245	15.49
500.596	15.48
500.947	15.73
501.298	15.68
501.648	15.7
501.999	16
502.35	15.7
502.7	15.92
503.051	15.75
503.401	16.02
503.752	16.1
504.102	16.05
504.452	16.04
504.803	16.02
505.153	16.13
505.503	16.16
505.853	16.18
506.203	16.21
506.553	16.14
506.903	16.18
507.253	16.35
507.603	16.14
507.953	16.42
508.303	16.6
508.652	16.32
509.002	16.48
509.352	16.58
509.701	16.4
510.051	16.36
510.4	16.49
510.75	16.59
511.099	16.62
511.449	16.56
511.798	16.5
512.147	16.63
512.496	16.77
512.846	16.78
513.195	16.74
513.544	16.79
513.893	16.79
514.242	16.79
514.591	16.98
514.939	16.88
515.288	16.92
515.637	17.18
515.986	17.14
516.334	17.24
516.683	17.22
517.032	17.22
517.38	17.5
517.729	17.51
518.077	17.4
518.426	17.43
518.774	17.48
519.122	17.31
519.47	17.31
519.819	17.27
520.167	17.38
520.515	17.21
520.863	17.38
521.211	17.23
521.559	17.48
521.907	17.29
522.255	17.56
522.602	17.66
522.95	17.75
523.298	17.83
523.645	17.88
523.993	17.9
524.341	17.99
524.688	17.96
525.036	17.98
525.383	17.97
525.73	18.29
526.078	18.16
526.425	17.92
526.772	17.98
527.119	17.95
527.466	17.83
527.814	17.75
528.161	17.9
528.508	18.01
528.854	17.97
529.201	18
529.548	17.88
529.895	17.86
530.242	17.52
530.588	17.38
530.935	17.41
531.282	17.55
531.628	17.7
531.975	17.83
532.321	18.06
532.667	18.13
533.014	18.3
533.36	18.39
533.706	18.48
534.052	18.52
534.399	18.53
534.745	18.4
535.091	18.15
535.437	18.24
535.783	18.28
536.129	18.39
536.474	18.57
536.82	18.67
537.166	18.9
537.512	18.96
537.857	18.98
538.203	19.02
538.549	18.89
538.894	18.87
539.239	19.06
539.585	19.18
539.93	19.13
540.276	19.26
540.621	19.55
540.966	19.65
541.311	19.29
541.656	19.39
542.001	19.58
542.346	19.52
542.691	19.13
543.036	19.08
543.381	18.88
543.726	18.92
544.071	19.1
544.415	19.23
544.76	19.2
545.105	19.32
545.449	19.58
545.794	19.74
546.138	19.68
546.483	19.88
546.827	19.97
547.171	19.97
547.516	20.13
547.86	19.91
548.204	20.01
548.548	19.98
548.892	20.05
549.236	20.15
549.58	20.2
549.924	20.33
550.268	20.46
550.612	20.68
550.956	20.8
551.3	20.67
551.643	20.95
551.987	21
552.33	20.73
552.674	21
553.017	20.84
553.361	21.04
553.704	21.05
554.048	21.06
554.391	21.24
554.734	21.16
555.077	21.13
555.42	20.93
555.764	21.05
556.107	21.17
556.45	21.14
556.793	21.12
557.135	21.33
557.478	21.63
557.821	21.54
558.164	21.58
558.507	21.32
558.849	21.61
559.192	21.83
559.534	21.51
559.877	21.73
560.219	21.79
560.562	22.04
560.904	22.05
561.246	21.95
561.589	21.91
561.931	21.9
562.273	21.49
562.615	21.84
562.957	22.11
563.299	21.72
563.641	22.02
563.983	22.19
564.325	21.89
564.667	22.24
565.008	22.15
565.35	22.22
565.692	22.16
566.033	22.13
566.375	22.66
566.716	22.48
567.058	22.3
567.399	22.29
567.741	22.24
568.082	22.26
568.423	22.05
568.764	22.3
569.105	22.49
569.447	22.45
569.788	22.31
570.129	22.29
570.47	22.76
570.811	22.71
571.151	22.81
571.492	22.83
571.833	22.85
572.174	22.69
572.514	22.93
572.855	22.78
573.195	22.89
573.536	22.88
573.876	22.52
574.217	22.78
574.557	22.82
574.898	23.01
575.238	23.09
575.578	22.93
575.918	23.16
576.258	23.25
576.598	23.2
576.938	23.07
577.278	23.18
577.618	23.16
577.958	23.17
578.298	23.13
578.638	23.42
578.977	23.41
579.317	23.41
579.657	23.64
579.996	23.69
580.336	23.68
580.675	23.69
581.014	23.9
581.354	24.02
581.693	23.86
582.032	23.89
582.372	23.91
582.711	23.95
583.05	24.08
583.389	23.99
583.728	23.94
584.067	24.32
584.406	24.33
584.745	24.31
585.083	24.28
585.422	24.26
585.761	24.33
586.1	24.44
586.438	24.61
586.777	24.76
587.115	24.31
587.454	24.59
587.792	24.6
588.13	24.66
588.469	24.45
588.807	24.65
589.145	24.86
589.483	24.68
589.821	24.5
590.159	24.95
590.497	24.87
590.835	25.09
591.173	24.64
591.511	24.92
591.849	24.94
592.187	24.96
592.524	24.79
592.862	25.07
593.2	25.01
593.537	24.96
593.875	25.01
594.212	25.09
594.55	25.33
594.887	25.22
595.224	25.27
595.561	25.47
595.899	25.43
596.236	25.26
596.573	25.11
596.91	25.02
597.247	24.97
597.584	25.52
597.921	24.92
598.258	25.25
598.594	25.34
598.931	25.05
599.268	25.49
599.604	25.43
599.941	25.44
600.277	25.67
600.614	25.73
600.95	25.38
601.287	25.8
601.623	25.67
601.959	25.88
602.296	25.93
602.632	26.07
602.968	25.7
603.304	25.54
603.64	26.2
603.976	25.96
604.312	25.94
604.648	25.92
604.984	25.98
605.319	26.1
605.655	26.03
605.991	25.92
606.326	25.99
606.662	25.82
606.998	25.74
607.333	26.22
607.668	26.02
608.004	26.14
608.339	26.44
608.674	26.61
609.01	26.36
609.345	26.27
609.68	26.65
610.015	26.4
610.35	26.8
610.685	26.51
611.02	26.71
611.355	26.49
611.689	26.34
612.024	26.46
612.359	26.66
612.694	26.52
613.028	26.43
613.363	26.57
613.697	27.04
614.032	27.31
614.366	27.17
614.7	26.97
615.035	27.08
615.369	27.34
615.703	27.13
616.037	27.33
616.371	26.71
616.705	27.02
617.039	27.82
617.373	27.07
617.707	27.17
618.041	27.21
618.375	26.95
618.709	27.55
619.042	27.39
619.376	27.34
619.71	27.68
620.043	27.74
620.377	27.57
620.71	27.85
621.043	27.41
621.377	27.32
621.71	27.6
622.043	27.19
622.376	27.13
622.709	27.92
623.043	27.82
623.376	28.09
623.709	27.64
624.041	28.12
624.374	28.1
624.707	27.64
625.04	28.25
625.373	27.77
625.705	27.63
626.038	28.36
626.37	27.9
626.703	27.78
627.035	28.36
627.368	28.07
627.7	28.51
628.032	28.06
628.365	28.12
628.697	27.97
629.029	28.11
629.361	28.08
629.693	27.98
630.025	28.04
630.357	28.7
630.689	28.32
631.021	27.66
631.353	28.45
631.684	28.24
632.016	27.87
632.348	28.85
632.679	28.7
633.011	28.6
633.342	29.06
633.674	28.64
634.005	28.79
634.336	29.06
634.668	29.26
634.999	28.54
635.33	28.98
635.661	29.02
635.992	28.99
636.323	28.9
636.654	28.79
636.985	28.69
637.316	29.13
637.647	28.93
637.977	28.84
638.308	29.4
638.639	28.82
638.969	29.16
639.3	28.77
639.63	29.31
639.961	29.19
640.291	28.96
640.622	29.59
640.952	29.37
641.282	29.58
641.612	29.13
641.943	29.27
642.273	29.8
642.603	29.46
642.933	29.63
643.263	29.9
643.592	29.76
643.922	29.43
644.252	29.83
644.582	30.24
644.911	29.43
645.241	29.91
645.571	29.8
645.9	29.39
646.23	30.17
646.559	29.96
646.888	29.96
647.218	30.28
647.547	30.12
647.876	29.59
648.205	30.09
648.534	29.83
648.863	30.12
649.192	30.65
649.521	30.48
649.85	29.76
650.179	30.15
650.508	29.95
650.837	29.47
651.165	30.04
651.494	30.27
651.822	30.51
652.151	30.29
652.479	30.49
652.808	30
653.136	30.35
653.465	30.25
653.793	30.66
654.121	30.12
654.449	30.86
654.777	31.16
655.105	30.48
655.433	30.21
655.761	31.28
656.089	30.9
656.417	31.34
656.745	30.04
657.073	31.1
657.4	30.75
657.728	31.29
658.056	31.31
658.383	31.56
658.711	30.78
659.038	31.32
659.365	31.57
659.693	31.33
660.02	31.3
660.347	30.88
660.674	31.26
661.001	31.46
661.329	30.98
661.656	31.23
661.982	31.43
662.309	31.52
662.636	31.12
662.963	32.2
663.29	31.63
663.616	31.8
663.943	31.54
664.27	31.55
664.596	32.03
664.923	31.76
665.249	31.68
665.576	32.16
665.902	32.12
666.228	32.02
666.554	32.23
666.881	31.46
667.207	32.13
667.533	32.55
667.859	32.34
668.185	32.06
668.511	32.33
668.837	31.93
669.162	32.41
669.488	32.17
669.814	32.71
670.139	33.04
670.465	32.46
670.791	33.24
671.116	33.51
671.442	33.05
671.767	31.98
672.092	32.35
672.418	32.78
672.743	32.86
673.068	32.54
673.393	33.15
673.718	32.7
674.043	32.49
674.368	32.76
674.693	33.35
675.018	32.31
675.343	32.7
675.667	32.88
675.992	32.75
