Data from 0357_forehead_Reflection__0__94.txt Node

Date: Mon Dec 11 18:50:57 CST 2023
User: ToomeyLab
Spectrometer: FLMS14357
Trigger mode: 0
Integration Time (sec): 1.000000E-2
Scans to average: 100
Electric dark correction enabled: true
Nonlinearity correction enabled: false
Boxcar width: 0
XAxis mode: Wavelengths
Number of Pixels in Spectrum: 2048
>>>>>Begin Spectral Data<<<<<
189.047	696.54
189.435	696.54
189.823	696.54
190.211	55.14
190.599	294.46
190.987	56.28
191.375	77.35
191.763	122.02
192.151	106.4
192.538	132.48
192.926	-2169.59
193.314	79.23
193.702	70.3
194.089	2146.83
194.477	131.23
194.864	159.79
195.252	518.62
195.639	446.39
196.027	230.32
196.414	-25.28
196.801	-49.64
197.189	39.69
197.576	127.33
197.963	1054.76
198.351	1.85
198.738	23.88
199.125	-3.73
199.512	3.73
199.899	42.29
200.286	10.9
200.673	-110.51
201.06	101.22
201.447	68.16
201.833	95.54
202.22	87.73
202.607	20.69
202.994	80.79
203.38	-79.16
203.767	61.82
204.154	47.14
204.54	113.2
204.927	43.51
205.313	16.3
205.699	35.55
206.086	-45.89
206.472	52.7
206.858	41.87
207.245	14.4
207.631	4.6
208.017	18.42
208.403	24.77
208.789	29.4
209.175	42.24
209.561	-15.44
209.947	20.47
210.333	47.14
210.719	50.12
211.105	3.23
211.491	15.74
211.876	22.69
212.262	11.19
212.648	13.01
213.034	49.58
213.419	9.06
213.805	0.16
214.19	31.73
214.576	-25.36
214.961	4.89
215.346	-7.35
215.732	16.95
216.117	-3.14
216.502	3.65
216.888	20.01
217.273	15.78
217.658	7.05
218.043	-3.84
218.428	36.63
218.813	25.17
219.198	11.71
219.583	28.37
219.968	4.76
220.353	-11.88
220.738	21.88
221.122	26.47
221.507	42.33
221.892	20.85
222.276	10.15
222.661	1.06
223.046	1.79
223.43	15.24
223.815	-9.5
224.199	11.72
224.583	3.09
224.968	10.93
225.352	-0.07
225.736	3.98
226.121	7.91
226.505	5.92
226.889	3.69
227.273	10.5
227.657	14.49
228.041	7.69
228.425	6.32
228.809	2.26
229.193	5.52
229.577	4.92
229.961	7.06
230.344	4.51
230.728	4.25
231.112	5.57
231.495	5.18
231.879	4.88
232.263	3.81
232.646	3.62
233.03	4.59
233.413	4.87
233.797	6.74
234.18	5.09
234.563	6.16
234.946	4.57
235.33	7.83
235.713	4.41
236.096	5.56
236.479	6.65
236.862	5.2
237.245	3.58
237.628	5.32
238.011	5.75
238.394	6.73
238.777	4.67
239.16	5.71
239.543	5.45
239.925	7.08
240.308	4.11
240.691	6.3
241.073	6.86
241.456	6.6
241.838	8.35
242.221	7
242.603	4.21
242.986	3.98
243.368	5.19
243.75	5.46
244.133	5.45
244.515	5.01
244.897	5.14
245.279	5.7
245.661	4.91
246.043	6.01
246.425	6.13
246.807	6.33
247.189	5.8
247.571	6.03
247.953	5.18
248.335	5.36
248.717	5.32
249.098	5.18
249.48	5.06
249.862	5.38
250.243	5.76
250.625	5.81
251.006	5.19
251.388	5.1
251.769	5.91
252.151	6.76
252.532	5.44
252.913	5.19
253.295	5.59
253.676	4.92
254.057	5.33
254.438	5.64
254.819	5.12
255.2	4.86
255.581	5.32
255.962	6.4
256.343	5.63
256.724	6.34
257.105	4.5
257.486	4.97
257.867	6.11
258.247	5.37
258.628	6.01
259.009	5.83
259.389	6.04
259.77	4.56
260.15	4.71
260.531	5.6
260.911	5
261.292	4.89
261.672	5.17
262.052	4.78
262.432	5.16
262.813	5.03
263.193	4.37
263.573	5.18
263.953	5.11
264.333	4.3
264.713	5.44
265.093	5.15
265.473	4.93
265.853	5.23
266.233	5.12
266.612	5.21
266.992	5.56
267.372	5.96
267.752	5.4
268.131	5.45
268.511	4.67
268.89	5.6
269.27	5.95
269.649	5.64
270.029	5.65
270.408	4.81
270.787	4.92
271.167	4.13
271.546	5.5
271.925	5.79
272.304	4.98
272.683	5.47
273.062	4.75
273.441	4.57
273.82	4.87
274.199	5.11
274.578	5.08
274.957	5.32
275.336	5.07
275.715	4.79
276.093	6.03
276.472	4.68
276.851	5.25
277.229	5.52
277.608	4.74
277.986	5.52
278.365	4.89
278.743	4.74
279.122	5.08
279.5	5.19
279.878	5.66
280.257	5.35
280.635	5.82
281.013	4.39
281.391	5.09
281.769	4.78
282.147	4.93
282.525	4.99
282.903	5
283.281	4.9
283.659	4.86
284.037	5.12
284.415	5.39
284.792	5.78
285.17	5.32
285.548	4.64
285.925	4.78
286.303	4.93
286.68	5
287.058	4.95
287.435	5.45
287.813	5.3
288.19	5.08
288.567	5.17
288.945	5.22
289.322	4.89
289.699	5.5
290.076	5.14
290.453	5.49
290.83	5.55
291.207	5.66
291.584	5.64
291.961	5.34
292.338	5.64
292.715	5.96
293.092	5.66
293.469	5.81
293.845	6.2
294.222	6.29
294.599	5.93
294.975	6.05
295.352	6.16
295.728	6.43
296.105	5.66
296.481	5.79
296.858	6.39
297.234	6.42
297.61	6.37
297.986	6.84
298.363	6.26
298.739	6.22
299.115	5.98
299.491	6.49
299.867	6.49
300.243	6.39
300.619	6.49
300.995	6.52
301.371	6.77
301.746	6.59
302.122	7.19
302.498	6.97
302.874	6.88
303.249	7.29
303.625	6.94
304	7.46
304.376	7.51
304.751	7.13
305.127	7.75
305.502	7.93
305.878	7.83
306.253	7.79
306.628	7.65
307.003	7.83
307.378	7.44
307.754	7.77
308.129	7.8
308.504	8.21
308.879	7
309.254	7.89
309.629	8.54
310.003	8.27
310.378	7.68
310.753	8.55
311.128	7.82
311.502	8.06
311.877	8.39
312.252	8.67
312.626	8.61
313.001	8.4
313.375	8.23
313.75	8.54
314.124	8.54
314.498	8.19
314.873	8.82
315.247	9.6
315.621	9.68
315.995	9.27
316.369	9.41
316.743	9.5
317.117	9.39
317.491	9.76
317.865	9.36
318.239	9.65
318.613	9.64
318.987	9.89
319.361	10.06
319.734	9.12
320.108	9.67
320.482	9.63
320.855	9.57
321.229	9.95
321.602	10.05
321.976	10.87
322.349	10.41
322.723	9.81
323.096	11.15
323.469	11.06
323.843	11.09
324.216	10.69
324.589	10.54
324.962	10.92
325.335	10.52
325.708	10.74
326.081	11.06
326.454	10.56
326.827	10.39
327.2	10.52
327.573	10.28
327.945	11.08
328.318	10.81
328.691	10.84
329.063	10.76
329.436	10.7
329.809	10.73
330.181	11.52
330.553	11.34
330.926	10.56
331.298	11.44
331.671	10.93
332.043	12.04
332.415	11.52
332.787	12.17
333.159	11.8
333.532	11.34
333.904	11.32
334.276	11.82
334.648	12.25
335.02	11.51
335.391	11.11
335.763	12.21
336.135	12.01
336.507	11.49
336.879	12.48
337.25	12.18
337.622	11.33
337.993	11.9
338.365	11.83
338.736	12.23
339.108	12.48
339.479	12.53
339.851	12.14
340.222	12.63
340.593	11.77
340.964	12.28
341.336	12.46
341.707	12.13
342.078	12.4
342.449	12.04
342.82	12.08
343.191	12.36
343.562	12.47
343.933	12.32
344.303	12.35
344.674	12.87
345.045	13.11
345.416	12.83
345.786	12.97
346.157	12.71
346.527	12.87
346.898	12.81
347.268	12.97
347.639	12.73
348.009	13.04
348.38	12.72
348.75	12.8
349.12	12.91
349.49	13.15
349.861	12.61
350.231	12.76
350.601	13.67
350.971	13.49
351.341	12.84
351.711	13.73
352.081	13.35
352.45	13.77
352.82	12.89
353.19	13.97
353.56	13.19
353.929	13.42
354.299	13.86
354.669	14.26
355.038	13.58
355.408	13.54
355.777	13.49
356.147	14.19
356.516	13.56
356.885	13.66
357.254	13.8
357.624	14.03
357.993	13.5
358.362	14.2
358.731	13.69
359.1	13.9
359.469	14.12
359.838	13.92
360.207	14.24
360.576	14.19
360.945	14.5
361.314	14.73
361.682	14.57
362.051	14.34
362.42	14.36
362.788	13.9
363.157	14.27
363.525	14.33
363.894	14.62
364.262	14.19
364.631	14.34
364.999	14.15
365.367	14.46
365.735	14.59
366.104	14.54
366.472	14.42
366.84	14.23
367.208	14.65
367.576	14.93
367.944	14.88
368.312	14.92
368.68	14.73
369.048	14.72
369.416	14.81
369.783	15.05
370.151	15.03
370.519	15.54
370.886	14.74
371.254	15.18
371.621	15.38
371.989	15.44
372.356	15.17
372.724	15.39
373.091	15.31
373.458	15.24
373.826	15.07
374.193	15.25
374.56	15.29
374.927	15.46
375.294	15.5
375.661	15.2
376.028	15.67
376.395	15.67
376.762	15.68
377.129	15.81
377.496	15.68
377.863	15.81
378.229	15.64
378.596	15.89
378.963	15.78
379.329	15.71
379.696	16.1
380.062	16.04
380.429	16.02
380.795	15.96
381.161	15.82
381.528	16.25
381.894	15.97
382.26	16.36
382.626	16.13
382.993	16.11
383.359	16.23
383.725	16.32
384.091	15.95
384.457	16.08
384.823	16.72
385.188	16.32
385.554	16.19
385.92	16.51
386.286	16.59
386.651	16.23
387.017	16.37
387.383	16.09
387.748	16.9
388.114	16.36
388.479	16.72
388.845	16.75
389.21	17.07
389.575	16.87
389.94	16.92
390.306	17.19
390.671	16.53
391.036	17.42
391.401	17.19
391.766	16.78
392.131	17.07
392.496	17.19
392.861	17.27
393.226	17.34
393.591	17.28
393.956	17.21
394.32	16.94
394.685	17.15
395.05	16.97
395.414	17.3
395.779	17.27
396.143	17.13
396.508	17.31
396.872	17.32
397.236	17.37
397.601	17.41
397.965	17.28
398.329	17.57
398.694	17.45
399.058	17.4
399.422	17.62
399.786	17.56
400.15	17.51
400.514	17.88
400.878	17.68
401.242	17.72
401.605	18.02
401.969	17.89
402.333	17.75
402.697	18.05
403.06	17.94
403.424	18.31
403.787	18.07
404.151	17.93
404.514	17.97
404.878	18.21
405.241	18.01
405.604	18.28
405.968	18.01
406.331	18.09
406.694	18.2
407.057	18.26
407.42	18.21
407.783	18.25
408.146	18.15
408.509	18.35
408.872	18.23
409.235	18.2
409.598	18.42
409.961	18.78
410.323	18.67
410.686	18.37
411.049	18.43
411.411	18.47
411.774	18.62
412.136	18.52
412.499	19.04
412.861	18.5
413.223	18.69
413.586	18.46
413.948	19.04
414.31	18.73
414.672	18.65
415.035	18.88
415.397	18.96
415.759	19.15
416.121	18.77
416.483	19.07
416.845	19.18
417.206	18.79
417.568	19.34
417.93	18.9
418.292	19.33
418.653	18.96
419.015	18.86
419.377	19.17
419.738	19.12
420.1	19.04
420.461	18.85
420.822	18.93
421.184	19.19
421.545	19.11
421.906	18.96
422.267	19.07
422.629	18.95
422.99	18.94
423.351	18.94
423.712	19.08
424.073	19.09
424.434	19.21
424.795	19.38
425.155	19.31
425.516	19.35
425.877	19.23
426.238	19.32
426.598	19.34
426.959	19.34
427.32	19.38
427.68	19.46
428.041	19.53
428.401	19.62
428.761	19.78
429.122	19.63
429.482	19.83
429.842	20.07
430.202	19.91
430.563	19.9
430.923	20.07
431.283	20.16
431.643	20.06
432.003	20.27
432.363	20.14
432.722	20.31
433.082	20.27
433.442	20.31
433.802	20.24
434.161	20.26
434.521	20.06
434.881	20.18
435.24	20.33
435.6	20.21
435.959	20.09
436.319	20.23
436.678	20.46
437.037	20.21
437.396	20.37
437.756	20.51
438.115	20.6
438.474	20.5
438.833	20.55
439.192	20.49
439.551	20.65
439.91	20.74
440.269	20.7
440.628	20.48
440.987	20.78
441.345	20.81
441.704	20.7
442.063	20.63
442.421	20.67
442.78	20.72
443.138	20.6
443.497	20.59
443.855	20.64
444.214	21.07
444.572	20.99
444.93	21
445.288	21.05
445.647	21.22
446.005	20.97
446.363	21.07
446.721	21.04
447.079	21.11
447.437	21.01
447.795	20.91
448.153	21.11
448.51	21.08
448.868	20.94
449.226	20.96
449.584	21.17
449.941	21.23
450.299	21.13
450.656	21.23
451.014	21.47
451.371	21.4
451.729	21.75
452.086	21.48
452.443	21.85
452.801	21.93
453.158	21.81
453.515	21.56
453.872	22.02
454.229	21.82
454.586	21.72
454.943	21.82
455.3	21.81
455.657	22.03
456.014	21.77
456.371	22.13
456.727	22.28
457.084	21.97
457.441	22.12
457.797	22
458.154	21.96
458.51	22
458.867	21.86
459.223	22.3
459.58	22.04
459.936	22.48
460.292	22.33
460.648	22.33
461.005	22.2
461.361	22.31
461.717	22.14
462.073	22.05
462.429	22.06
462.785	22.16
463.141	22.26
463.496	22.42
463.852	22.45
464.208	22.65
464.564	22.67
464.919	22.74
465.275	22.64
465.631	22.72
465.986	22.79
466.342	22.76
466.697	22.62
467.052	22.86
467.408	22.98
467.763	23.06
468.118	22.67
468.473	23.1
468.829	23.06
469.184	23.06
469.539	23.03
469.894	22.99
470.249	23.19
470.603	23.09
470.958	23.22
471.313	23.33
471.668	23.35
472.023	23.37
472.377	23.28
472.732	23.37
473.086	23.36
473.441	23.5
473.795	23.3
474.15	23.42
474.504	23.44
474.859	23.52
475.213	23.48
475.567	23.73
475.921	23.45
476.275	23.49
476.63	23.48
476.984	23.74
477.338	23.54
477.692	23.77
478.045	23.67
478.399	23.72
478.753	23.43
479.107	23.72
479.461	23.84
479.814	23.71
480.168	23.68
480.521	23.85
480.875	23.83
481.228	23.86
481.582	24.02
481.935	24.07
482.289	24.11
482.642	23.95
482.995	23.85
483.348	23.79
483.701	23.77
484.055	23.82
484.408	23.72
484.761	23.67
485.114	23.48
485.466	23.2
485.819	23.17
486.172	23.12
486.525	22.94
486.878	23.15
487.23	23.25
487.583	23.53
487.936	23.73
488.288	23.86
488.641	23.84
488.993	23.61
489.345	23.57
489.698	23.52
490.05	23.44
490.402	23.49
490.754	23.68
491.107	23.72
491.459	23.89
491.811	24.17
492.163	24.37
492.515	24.4
492.866	24.25
493.218	24.01
493.57	23.92
493.922	23.86
494.274	23.87
494.625	23.96
494.977	24.26
495.328	24.49
495.68	24.84
496.031	24.76
496.383	24.89
496.734	25
497.086	25.07
497.437	25.11
497.788	25.13
498.139	25.09
498.49	24.99
498.842	24.99
499.193	25.03
499.544	24.96
499.894	25.07
500.245	25.2
500.596	25.25
500.947	25.26
501.298	25.26
501.648	25.35
501.999	25.21
502.35	25.39
502.7	25.48
503.051	25.53
503.401	25.66
503.752	25.52
504.102	25.66
504.452	25.63
504.803	25.85
505.153	25.72
505.503	25.77
505.853	25.91
506.203	25.62
506.553	25.82
506.903	25.62
507.253	25.86
507.603	25.72
507.953	26.13
508.303	26.08
508.652	25.98
509.002	25.94
509.352	26.16
509.701	25.93
510.051	26.03
510.4	25.95
510.75	26.06
511.099	25.94
511.449	25.92
511.798	25.93
512.147	26.19
512.496	25.93
512.846	26.2
513.195	26.34
513.544	26.18
513.893	26.39
514.242	26.17
514.591	26.25
514.939	26.26
515.288	26.46
515.637	26.23
515.986	26.21
516.334	26.55
516.683	26.59
517.032	26.61
517.38	26.71
517.729	26.68
518.077	26.88
518.426	26.53
518.774	26.79
519.122	26.76
519.47	26.67
519.819	26.62
520.167	26.55
520.515	26.47
520.863	26.49
521.211	26.67
521.559	26.43
521.907	26.57
522.255	26.71
522.602	26.79
522.95	26.99
523.298	27.06
523.645	27.1
523.993	27.07
524.341	27.32
524.688	27.37
525.036	27.29
525.383	27.16
525.73	27.23
526.078	27.28
526.425	27.36
526.772	27.26
527.119	27.36
527.466	27.12
527.814	27.01
528.161	26.81
528.508	26.98
528.854	27.05
529.201	27.05
529.548	26.97
529.895	26.91
530.242	26.75
530.588	26.58
530.935	26.54
531.282	26.55
531.628	26.56
531.975	26.81
532.321	27
532.667	27.25
533.014	27.22
533.36	27.36
533.706	27.58
534.052	27.49
534.399	27.39
534.745	27.46
535.091	27.28
535.437	27.19
535.783	27.26
536.129	27.33
536.474	27.32
536.82	27.6
537.166	27.82
537.512	27.8
537.857	27.9
538.203	27.98
538.549	27.85
538.894	27.68
539.239	28.02
539.585	27.75
539.93	28.13
540.276	28.18
540.621	28.32
540.966	28.45
541.311	28.39
541.656	28.24
542.001	28.56
542.346	28.43
542.691	28.13
543.036	27.99
543.381	27.79
543.726	27.78
544.071	27.69
544.415	27.8
544.76	27.97
545.105	28.35
545.449	28.19
545.794	28.28
546.138	28.51
546.483	28.51
546.827	28.69
547.171	28.77
547.516	28.69
547.86	28.83
548.204	28.93
548.548	28.73
548.892	28.92
549.236	28.86
549.58	28.87
549.924	28.88
550.268	29.04
550.612	28.88
550.956	29.03
551.3	29.34
551.643	29.31
551.987	29.58
552.33	29.64
552.674	29.5
553.017	29.64
553.361	29.51
553.704	29.57
554.048	29.73
554.391	29.84
554.734	29.76
555.077	29.8
555.42	29.7
555.764	29.46
556.107	29.78
556.45	29.7
556.793	29.65
557.135	29.76
557.478	29.87
557.821	29.88
558.164	29.98
558.507	29.85
558.849	30.17
559.192	30.15
559.534	29.99
559.877	30.31
560.219	30.17
560.562	30.33
560.904	30.39
561.246	30.18
561.589	30.53
561.931	30.37
562.273	30.34
562.615	30.41
562.957	30.33
563.299	30.62
563.641	30.57
563.983	30.55
564.325	30.57
564.667	30.37
565.008	30.64
565.35	30.93
565.692	30.66
566.033	30.85
566.375	31.04
566.716	31.01
567.058	30.83
567.399	30.79
567.741	30.67
568.082	30.84
568.423	30.61
568.764	30.62
569.105	30.85
569.447	30.68
569.788	30.65
570.129	30.82
570.47	30.99
570.811	30.88
571.151	30.95
571.492	31.32
571.833	31.01
572.174	31.39
572.514	31.45
572.855	31.36
573.195	31.13
573.536	31.23
573.876	31.08
574.217	31.13
574.557	31.17
574.898	31.07
575.238	31.18
575.578	31.39
575.918	31.57
576.258	31.21
576.598	31.42
576.938	31.46
577.278	31.64
577.618	31.36
577.958	31.39
578.298	31.89
578.638	31.76
578.977	31.81
579.317	31.62
579.657	31.41
579.996	31.89
580.336	31.81
580.675	31.78
581.014	32.06
581.354	31.96
581.693	31.93
582.032	31.82
582.372	32.07
582.711	32.11
583.05	31.82
583.389	32.14
583.728	32.19
584.067	31.94
584.406	32.28
584.745	32.07
585.083	32.48
585.422	32.27
585.761	32.71
586.1	32.12
586.438	32.17
586.777	32.56
587.115	32.27
587.454	32.54
587.792	32.32
588.13	32.33
588.469	32.16
588.807	32.77
589.145	32.77
589.483	32.95
589.821	32.34
590.159	32.75
590.497	32.74
590.835	32.66
591.173	33.16
591.511	32.91
591.849	32.81
592.187	32.82
592.524	32.9
592.862	32.67
593.2	32.73
593.537	32.81
593.875	33.18
594.212	32.74
594.55	33.04
594.887	33.12
595.224	33.16
595.561	33.03
595.899	32.82
596.236	33.2
596.573	33.04
596.91	33.01
597.247	33.19
597.584	33.28
597.921	32.98
598.258	33.13
598.594	33.09
598.931	32.91
599.268	32.86
599.604	32.77
599.941	32.96
600.277	32.86
600.614	33.34
600.95	33.13
601.287	33.33
601.623	33.36
601.959	33.62
602.296	33.33
602.632	33.5
602.968	33.76
603.304	33.65
603.64	33.78
603.976	33.8
604.312	33.7
604.648	33.56
604.984	33.57
605.319	33.61
605.655	33.6
605.991	33.56
606.326	33.48
606.662	33.16
606.998	33.48
607.333	33.64
607.668	33.68
608.004	33.36
608.339	34
608.674	34.13
609.01	33.76
609.345	33.8
609.68	33.95
610.015	33.98
610.35	34.12
610.685	33.84
611.02	34.11
611.355	34.16
611.689	34.11
612.024	34.26
612.359	33.67
612.694	34.26
613.028	34.19
613.363	34.14
613.697	34.08
614.032	34.09
614.366	34.37
614.7	34.46
615.035	34.96
615.369	35.2
615.703	34.37
616.037	34.7
616.371	34.57
616.705	34.4
617.039	34.23
617.373	34.42
617.707	34.43
618.041	34.73
618.375	34.41
618.709	34.82
619.042	34.98
619.376	34.78
619.71	34.52
620.043	34.65
620.377	34.67
620.71	34.83
621.043	34.48
621.377	34.9
621.71	35.17
622.043	34.85
622.376	34.8
622.709	35.16
623.043	34.91
623.376	35.06
623.709	34.97
624.041	34.89
624.374	35.15
624.707	35.09
625.04	35.7
625.373	35.22
625.705	35.08
626.038	35.02
626.37	35.36
626.703	35.1
627.035	35.49
627.368	35.01
627.7	35.25
628.032	35.07
628.365	35.6
628.697	35.09
629.029	35.48
629.361	34.87
629.693	35.01
630.025	35.42
630.357	35.24
630.689	35.58
631.021	35.67
631.353	35.76
631.684	35.72
632.016	35.54
632.348	35.73
632.679	35.82
633.011	35.61
633.342	35.75
633.674	36.27
634.005	35.4
634.336	35.49
634.668	35.6
634.999	36.32
635.33	35.89
635.661	35.77
635.992	35.85
636.323	35.93
636.654	36.4
636.985	36.08
637.316	36.08
637.647	36.02
637.977	36.44
638.308	36.01
638.639	36.02
638.969	36.27
639.3	36.05
639.63	35.78
639.961	36.36
640.291	36.58
640.622	36.56
640.952	36.59
641.282	36.33
641.612	36.78
641.943	36.73
642.273	36.55
642.603	36.56
642.933	36.2
643.263	36.67
643.592	36.51
643.922	36.57
644.252	36.35
644.582	36.44
644.911	36.58
645.241	36.39
645.571	37.06
645.9	36.26
646.23	36.09
646.559	37.03
646.888	36.97
647.218	37.24
647.547	36.58
647.876	37.18
648.205	36.47
648.534	36.8
648.863	36.73
649.192	37.17
649.521	36.53
649.85	36.67
650.179	37.45
650.508	37.36
650.837	36.73
651.165	37.66
651.494	37.31
651.822	37
652.151	37.37
652.479	36.93
652.808	37.38
653.136	37.35
653.465	37.66
653.793	37.27
654.121	36.9
654.449	37.45
654.777	37.11
655.105	36.99
655.433	37.56
655.761	37.2
656.089	37.6
656.417	37.57
656.745	37.72
657.073	37.75
657.4	37.86
657.728	37.42
658.056	37.47
658.383	37.69
658.711	37.47
659.038	37.83
659.365	37.75
659.693	37.74
660.02	37.37
660.347	38
660.674	37.81
661.001	37.38
661.329	37.91
661.656	37.96
661.982	37.67
662.309	38.11
662.636	37.87
662.963	38.01
663.29	37.62
663.616	37.42
663.943	37.6
664.27	37.67
664.596	38.65
664.923	37.3
665.249	38.76
665.576	38.07
665.902	38.41
666.228	38.08
666.554	37.84
666.881	37.48
667.207	37.57
667.533	38.16
667.859	38.14
668.185	38.66
668.511	38.15
668.837	39.01
669.162	38.85
