Data from 0357_chest_Reflection__4__87.txt Node

Date: Mon Dec 11 18:35:47 CST 2023
User: ToomeyLab
Spectrometer: FLMS14357
Trigger mode: 0
Integration Time (sec): 1.000000E-2
Scans to average: 100
Electric dark correction enabled: true
Nonlinearity correction enabled: false
Boxcar width: 0
XAxis mode: Wavelengths
Number of Pixels in Spectrum: 2048
>>>>>Begin Spectral Data<<<<<
189.047	-369.35
189.435	-369.35
189.823	-369.35
190.211	1765.43
190.599	-175.48
190.987	81.04
191.375	110.77
191.763	92.68
192.151	91.6
192.538	131.81
192.926	-2253.09
193.314	38.58
193.702	86.7
194.089	-4696.03
194.477	137.1
194.864	24.23
195.252	40.55
195.639	545.58
196.027	295.96
196.414	55.6
196.801	247.84
197.189	23.41
197.576	158.43
197.963	1716.67
198.351	-112.83
198.738	-15.81
199.125	-62.27
199.512	-4.62
199.899	24.9
200.286	-2.16
200.673	-400.56
201.06	8.04
201.447	-6.68
201.833	-0.54
202.22	14.97
202.607	-70.9
202.994	-40.3
203.38	-72.53
203.767	24.46
204.154	37.77
204.54	42.01
204.927	-17.65
205.313	45.76
205.699	-24.67
206.086	-57.63
206.472	22.72
206.858	-4.74
207.245	7.91
207.631	-20.38
208.017	-20.63
208.403	52.16
208.789	-30.25
209.175	10.15
209.561	-26.64
209.947	-32.95
210.333	42.01
210.719	27.78
211.105	9.32
211.491	19.29
211.876	30.17
212.262	-27.31
212.648	-38.46
213.034	-19.65
213.419	-36.07
213.805	-25.41
214.19	5.77
214.576	3.34
214.961	-45.41
215.346	15.35
215.732	-10.86
216.117	9.66
216.502	3.31
216.888	10.13
217.273	12.52
217.658	15.36
218.043	-49.36
218.428	4.31
218.813	3.36
219.198	7.72
219.583	15.73
219.968	-7.69
220.353	4.86
220.738	25.04
221.122	-3.52
221.507	16.44
221.892	23.71
222.276	-6.51
222.661	-8.72
223.046	-2.65
223.43	13.23
223.815	0.26
224.199	6.33
224.583	-2.64
224.968	11.58
225.352	1.53
225.736	8.38
226.121	-1.43
226.505	1.37
226.889	3.26
227.273	3.58
227.657	7.79
228.041	3.62
228.425	-0.85
228.809	3.32
229.193	4.68
229.577	3.5
229.961	2.19
230.344	3.49
230.728	3.82
231.112	2.7
231.495	3.51
231.879	3.22
232.263	2.52
232.646	2.51
233.03	2.95
233.413	5.58
233.797	4.49
234.18	3.67
234.563	3.88
234.946	2.4
235.33	4.47
235.713	2.48
236.096	3.31
236.479	5.62
236.862	2.85
237.245	2.33
237.628	2.23
238.011	4.22
238.394	2.13
238.777	3.06
239.16	2.22
239.543	4.61
239.925	3.4
240.308	1.89
240.691	4.1
241.073	3.57
241.456	3.52
241.838	4.83
242.221	4.13
242.603	2.7
242.986	3.67
243.368	3.26
243.75	3.35
244.133	3.55
244.515	3.8
244.897	3.43
245.279	4.41
245.661	3.09
246.043	2.1
246.425	3.91
246.807	3.05
247.189	3.67
247.571	3.44
247.953	3.14
248.335	4.04
248.717	3.8
249.098	3.63
249.48	3.6
249.862	3.93
250.243	3.87
250.625	3.59
251.006	3.04
251.388	3.71
251.769	3.5
252.151	4.13
252.532	3.78
252.913	2.78
253.295	4.58
253.676	3.22
254.057	3.81
254.438	3.99
254.819	3.09
255.2	2.38
255.581	3.14
255.962	2.19
256.343	2.98
256.724	4.09
257.105	3.4
257.486	2.2
257.867	4.52
258.247	2.17
258.628	3.47
259.009	4.09
259.389	4.31
259.77	2.95
260.15	3.53
260.531	3.51
260.911	2.93
261.292	3.42
261.672	3.43
262.052	3.57
262.432	3.45
262.813	3.48
263.193	3.31
263.573	3.33
263.953	2.91
264.333	2.68
264.713	3.5
265.093	3.5
265.473	3.39
265.853	3.11
266.233	2.95
266.612	4.14
266.992	4.08
267.372	4.55
267.752	3.78
268.131	3.68
268.511	3.15
268.89	3.68
269.27	3.21
269.649	3.28
270.029	3.79
270.408	3.1
270.787	3.02
271.167	2.65
271.546	3.39
271.925	3.72
272.304	3.45
272.683	3
273.062	3.32
273.441	3.09
273.82	3.37
274.199	3.08
274.578	3.26
274.957	3.58
275.336	3.31
275.715	3.56
276.093	3.95
276.472	3.01
276.851	3.97
277.229	3.72
277.608	2.91
277.986	3.25
278.365	2.56
278.743	3.12
279.122	3.79
279.5	3.69
279.878	3.19
280.257	2.83
280.635	3.03
281.013	3.29
281.391	3.86
281.769	3.45
282.147	3.12
282.525	2.74
282.903	3.23
283.281	3.11
283.659	2.56
284.037	3.08
284.415	3.35
284.792	3.55
285.17	3.63
285.548	3.02
285.925	2.99
286.303	3.34
286.68	3.4
287.058	3.35
287.435	3.64
287.813	3.61
288.19	3.14
288.567	3.06
288.945	3.26
289.322	2.97
289.699	3.26
290.076	2.82
290.453	3.56
290.83	3.61
291.207	3.39
291.584	3.91
291.961	3.5
292.338	3.84
292.715	3.98
293.092	3.37
293.469	3.42
293.845	3.21
294.222	3.81
294.599	3.38
294.975	3.44
295.352	2.77
295.728	3.87
296.105	3.53
296.481	3.18
296.858	3.45
297.234	4.4
297.61	3.82
297.986	3.77
298.363	3.71
298.739	3.91
299.115	3.6
299.491	4.04
299.867	3.93
300.243	4.05
300.619	3.94
300.995	4.08
301.371	3.65
301.746	3.55
302.122	3.75
302.498	4.09
302.874	4.28
303.249	3.76
303.625	4.27
304	3.9
304.376	3.93
304.751	3.4
305.127	4.04
305.502	4.08
305.878	3.57
306.253	3.95
306.628	4.19
307.003	4.42
307.378	3.95
307.754	3.89
308.129	4.27
308.504	3.95
308.879	4.36
309.254	4.52
309.629	4.22
310.003	4.29
310.378	4.13
310.753	4.39
311.128	4.05
311.502	4.27
311.877	4.37
312.252	4.14
312.626	4.09
313.001	3.96
313.375	3.71
313.75	4.23
314.124	4.29
314.498	4.68
314.873	4.17
315.247	4.4
315.621	4.76
315.995	4.79
316.369	4.04
316.743	4.68
317.117	4.35
317.491	4.52
317.865	4.5
318.239	4.58
318.613	4.1
318.987	4.52
319.361	5.09
319.734	4.32
320.108	4.12
320.482	4.46
320.855	4.47
321.229	4.49
321.602	4.4
321.976	5.4
322.349	4.23
322.723	3.86
323.096	4.93
323.469	4.9
323.843	4.39
324.216	4.77
324.589	5.18
324.962	4.25
325.335	5.02
325.708	4.57
326.081	4.98
326.454	4.84
326.827	4.76
327.2	3.89
327.573	4.73
327.945	4.58
328.318	4.88
328.691	4.56
329.063	4.85
329.436	4.63
329.809	4.11
330.181	5.03
330.553	4.85
330.926	4.7
331.298	4.65
331.671	4.51
332.043	4.57
332.415	4.83
332.787	4.94
333.159	4.85
333.532	4.56
333.904	4.44
334.276	5.42
334.648	5.39
335.02	4.04
335.391	4.43
335.763	4.31
336.135	5.03
336.507	4.7
336.879	5.02
337.25	4.71
337.622	4.45
337.993	4.19
338.365	4.55
338.736	4.67
339.108	5.42
339.479	4.7
339.851	5
340.222	5.02
340.593	4.53
340.964	4.91
341.336	5.05
341.707	4.35
342.078	4.6
342.449	4.64
342.82	4.66
343.191	4.87
343.562	5.07
343.933	4.58
344.303	4.18
344.674	4.52
345.045	4.97
345.416	4.2
345.786	5.06
346.157	4.76
346.527	4.59
346.898	4.61
347.268	4.92
347.639	4.53
348.009	4.94
348.38	4.29
348.75	4.71
349.12	5.07
349.49	3.92
349.861	3.99
350.231	4.61
350.601	4.86
350.971	4.94
351.341	4.66
351.711	4.44
352.081	4.59
352.45	4.74
352.82	4.65
353.19	5.24
353.56	5.14
353.929	4.95
354.299	5
354.669	4.83
355.038	4.73
355.408	4.5
355.777	4.41
356.147	5.17
356.516	4.53
356.885	4.62
357.254	4.8
357.624	5.09
357.993	4.96
358.362	4.92
358.731	4.76
359.1	4.75
359.469	4.9
359.838	4.76
360.207	4.89
360.576	4.8
360.945	5.38
361.314	5.28
361.682	4.92
362.051	4.97
362.42	4.77
362.788	4.79
363.157	4.87
363.525	4.49
363.894	4.72
364.262	4.84
364.631	4.85
364.999	4.96
365.367	5.08
365.735	4.95
366.104	4.83
366.472	4.78
366.84	4.72
367.208	4.76
367.576	5.01
367.944	4.86
368.312	4.97
368.68	4.99
369.048	4.79
369.416	4.89
369.783	4.94
370.151	4.79
370.519	5.27
370.886	4.78
371.254	5.32
371.621	5.32
371.989	5.11
372.356	5.14
372.724	5.19
373.091	5.33
373.458	4.66
373.826	4.97
374.193	4.94
374.56	5.19
374.927	5.31
375.294	5
375.661	5.2
376.028	5.27
376.395	5.09
376.762	5.41
377.129	5.7
377.496	4.95
377.863	5.12
378.229	4.96
378.596	5.34
378.963	5.41
379.329	5.27
379.696	5.2
380.062	5.2
380.429	5.26
380.795	5.35
381.161	5.01
381.528	5.11
381.894	5.15
382.26	5.46
382.626	5.01
382.993	5.3
383.359	5.19
383.725	5.05
384.091	5.24
384.457	4.94
384.823	5.72
385.188	4.98
385.554	4.84
385.92	5.01
386.286	5.35
386.651	5.23
387.017	5.36
387.383	5.16
387.748	4.98
388.114	5.12
388.479	5.08
388.845	4.99
389.21	5.37
389.575	5.42
389.94	5.65
390.306	5.23
390.671	5.42
391.036	5.26
391.401	5.24
391.766	4.94
392.131	5.24
392.496	5.44
392.861	5.35
393.226	5.45
393.591	5.35
393.956	5.23
394.32	5.25
394.685	5.22
395.05	5.34
395.414	5.4
395.779	5.31
396.143	5.11
396.508	5.13
396.872	5.37
397.236	5.07
397.601	5.37
397.965	5.31
398.329	5.19
398.694	5.37
399.058	5.31
399.422	5.37
399.786	5.15
400.15	5.48
400.514	5.37
400.878	5.3
401.242	5.45
401.605	5.29
401.969	4.99
402.333	5.23
402.697	5.56
403.06	5.29
403.424	5.51
403.787	5.93
404.151	5.45
404.514	5.24
404.878	5.29
405.241	5.36
405.604	5.28
405.968	5.21
406.331	5.34
406.694	5.52
407.057	5.37
407.42	5.56
407.783	5.43
408.146	5.42
408.509	5.43
408.872	5.11
409.235	5.55
409.598	5.23
409.961	5.4
410.323	5.46
410.686	5.34
411.049	5.33
411.411	5.57
411.774	5.64
412.136	5.1
412.499	5.58
412.861	5.33
413.223	5.52
413.586	5.65
413.948	5.36
414.31	5.48
414.672	5.36
415.035	5.36
415.397	5.4
415.759	5.53
416.121	5.79
416.483	5.61
416.845	5.52
417.206	5.51
417.568	5.58
417.93	5.71
418.292	5.6
418.653	5.55
419.015	5.56
419.377	5.4
419.738	5.4
420.1	5.37
420.461	5.3
420.822	5.36
421.184	5.37
421.545	5.51
421.906	5.35
422.267	5.42
422.629	5.39
422.99	5.48
423.351	5.34
423.712	5.29
424.073	5.52
424.434	5.34
424.795	5.53
425.155	5.48
425.516	5.44
425.877	5.28
426.238	5.48
426.598	5.44
426.959	5.4
427.32	5.57
427.68	5.48
428.041	5.45
428.401	5.47
428.761	5.66
429.122	5.35
429.482	5.54
429.842	5.56
430.202	5.66
430.563	5.56
430.923	5.61
431.283	5.66
431.643	5.56
432.003	5.7
432.363	5.66
432.722	5.64
433.082	5.62
433.442	5.64
433.802	5.73
434.161	5.79
434.521	5.42
434.881	5.76
435.24	5.62
435.6	5.51
435.959	5.58
436.319	5.62
436.678	5.62
437.037	5.67
437.396	5.75
437.756	5.75
438.115	5.91
438.474	5.78
438.833	5.72
439.192	5.74
439.551	5.78
439.91	5.64
440.269	5.82
440.628	5.44
440.987	5.76
441.345	5.66
441.704	5.71
442.063	5.67
442.421	5.68
442.78	5.54
443.138	5.65
443.497	5.54
443.855	5.66
444.214	5.83
444.572	5.73
444.93	5.95
445.288	5.68
445.647	5.81
446.005	5.63
446.363	5.85
446.721	5.88
447.079	5.79
447.437	5.77
447.795	5.57
448.153	5.79
448.51	5.8
448.868	5.69
449.226	5.63
449.584	5.86
449.941	5.82
450.299	5.7
450.656	5.74
451.014	5.86
451.371	5.85
451.729	5.79
452.086	5.7
452.443	5.91
452.801	5.82
453.158	5.81
453.515	5.78
453.872	5.92
454.229	5.83
454.586	5.92
454.943	5.9
455.3	5.96
455.657	5.92
456.014	5.92
456.371	5.93
456.727	5.84
457.084	6.02
457.441	5.89
457.797	5.75
458.154	5.94
458.51	5.92
458.867	5.73
459.223	6.05
459.58	5.86
459.936	6.1
460.292	6.05
460.648	5.97
461.005	5.87
461.361	5.83
461.717	5.82
462.073	5.79
462.429	5.95
462.785	5.77
463.141	5.89
463.496	6
463.852	6.17
464.208	5.97
464.564	5.85
464.919	6.07
465.275	5.97
465.631	5.85
465.986	6.22
466.342	6.27
466.697	6
467.052	5.99
467.408	6.38
467.763	6.04
468.118	6.06
468.473	6.02
468.829	6.13
469.184	6.33
469.539	6.18
469.894	5.9
470.249	6.19
470.603	6.09
470.958	6.16
471.313	6.14
471.668	6.2
472.023	6.28
472.377	6.11
472.732	6.2
473.086	6.33
473.441	6.09
473.795	6.17
474.15	6.24
474.504	6.08
474.859	6.13
475.213	6.31
475.567	6.22
475.921	6.2
476.275	6.09
476.63	6.21
476.984	6.15
477.338	6.09
477.692	6.29
478.045	6.26
478.399	6.03
478.753	5.99
479.107	6.01
479.461	6.18
479.814	6.29
480.168	6.24
480.521	6.39
480.875	6.2
481.228	6.1
481.582	6.36
481.935	6.33
482.289	6.2
482.642	6.34
482.995	6.19
483.348	6.32
483.701	6.13
484.055	6.31
484.408	6.16
484.761	6.19
485.114	6.06
485.466	5.95
485.819	5.9
486.172	5.9
486.525	5.94
486.878	6.01
487.23	6.13
487.583	6.19
487.936	6.2
488.288	6.19
488.641	6.13
488.993	6.1
489.345	6.1
489.698	6.03
490.05	6.11
490.402	6.06
490.754	6.25
491.107	6.19
491.459	6.27
491.811	6.38
492.163	6.33
492.515	6.39
492.866	6.22
493.218	6.17
493.57	6.17
493.922	6.17
494.274	6.25
494.625	6.28
494.977	6.4
495.328	6.45
495.68	6.65
496.031	6.46
496.383	6.46
496.734	6.55
497.086	6.54
497.437	6.63
497.788	6.67
498.139	6.5
498.49	6.45
498.842	6.51
499.193	6.62
499.544	6.5
499.894	6.64
500.245	6.48
500.596	6.68
500.947	6.52
501.298	6.62
501.648	6.58
501.999	6.61
502.35	6.61
502.7	6.6
503.051	6.61
503.401	6.62
503.752	6.67
504.102	6.73
504.452	6.78
504.803	6.78
505.153	6.88
505.503	6.9
505.853	6.88
506.203	6.84
506.553	6.83
506.903	6.6
507.253	6.92
507.603	6.67
507.953	6.95
508.303	6.8
508.652	6.78
509.002	6.84
509.352	6.98
509.701	6.81
510.051	6.69
510.4	6.83
510.75	6.74
511.099	6.82
511.449	6.89
511.798	6.82
512.147	7.07
512.496	6.8
512.846	6.85
513.195	6.96
513.544	6.88
513.893	6.85
514.242	6.96
514.591	6.86
514.939	6.87
515.288	7.1
515.637	6.93
515.986	6.9
516.334	6.94
516.683	7.14
517.032	7.08
517.38	7.25
517.729	7.12
518.077	7.22
518.426	7.32
518.774	7.09
519.122	7.13
519.47	6.98
519.819	7.06
520.167	6.98
520.515	6.98
520.863	6.99
521.211	7.1
521.559	7.13
521.907	7.1
522.255	7.16
522.602	7.25
522.95	7.27
523.298	7.23
523.645	7.45
523.993	7.21
524.341	7.42
524.688	7.21
525.036	7.16
525.383	7.3
525.73	7.34
526.078	7.44
526.425	7.31
526.772	7.43
527.119	7.29
527.466	7.3
527.814	7.31
528.161	7.3
528.508	7.35
528.854	7.29
529.201	7.29
529.548	7.34
529.895	7.31
530.242	7.22
530.588	7.12
530.935	7.16
531.282	7.27
531.628	7.28
531.975	7.34
532.321	7.42
532.667	7.39
533.014	7.47
533.36	7.53
533.706	7.53
534.052	7.59
534.399	7.64
534.745	7.49
535.091	7.43
535.437	7.41
535.783	7.49
536.129	7.61
536.474	7.68
536.82	7.62
537.166	7.67
537.512	7.66
537.857	7.78
538.203	7.81
538.549	7.74
538.894	7.91
539.239	7.86
539.585	7.74
539.93	7.81
540.276	7.96
540.621	7.91
540.966	8.04
541.311	8.09
541.656	8.01
542.001	7.99
542.346	8.02
542.691	7.99
543.036	7.81
543.381	7.77
543.726	7.85
544.071	7.89
544.415	7.91
544.76	8.02
545.105	8.04
545.449	8.01
545.794	8.16
546.138	8.2
546.483	8.14
546.827	8.34
547.171	8.16
547.516	8.23
547.86	8.36
548.204	8.35
548.548	8.3
548.892	8.39
549.236	8.34
549.58	8.42
549.924	8.47
550.268	8.43
550.612	8.3
550.956	8.53
551.3	8.52
551.643	8.62
551.987	8.83
552.33	8.72
552.674	8.85
553.017	8.72
553.361	8.65
553.704	8.83
554.048	8.86
554.391	8.84
554.734	8.87
555.077	8.78
555.42	8.83
555.764	8.91
556.107	8.92
556.45	8.87
556.793	8.97
557.135	8.94
557.478	8.97
557.821	9.05
558.164	9.14
558.507	8.9
558.849	8.99
559.192	9.26
559.534	9.21
559.877	9.24
560.219	9.17
560.562	9.32
560.904	9.21
561.246	9.39
561.589	9.25
561.931	9.4
562.273	9.18
562.615	9.52
562.957	9.5
563.299	9.6
563.641	9.44
563.983	9.63
564.325	9.64
564.667	9.6
565.008	9.58
565.35	9.74
565.692	9.62
566.033	9.6
566.375	9.8
566.716	9.75
567.058	9.42
567.399	9.66
567.741	9.71
568.082	9.79
568.423	9.66
568.764	9.8
569.105	9.74
569.447	9.87
569.788	9.8
570.129	9.96
570.47	9.72
570.811	9.85
571.151	9.96
571.492	10.07
571.833	10.08
572.174	10.18
572.514	10.14
572.855	10.11
573.195	10.21
573.536	10.29
573.876	10.06
574.217	10.19
574.557	10.18
574.898	10.26
575.238	10.46
575.578	10.46
575.918	10.55
576.258	10.34
576.598	10.38
576.938	10.41
577.278	10.32
577.618	10.45
577.958	10.6
578.298	10.69
578.638	10.57
578.977	10.76
579.317	10.75
579.657	10.52
579.996	10.73
580.336	10.8
580.675	10.96
581.014	11.05
581.354	10.39
581.693	11.03
582.032	10.43
582.372	11.05
582.711	10.88
583.05	11.15
583.389	11.23
583.728	10.9
584.067	11.02
584.406	11.09
584.745	11.39
585.083	11.28
585.422	11.4
585.761	11.44
586.1	11.26
586.438	11.22
586.777	11.62
587.115	11.28
587.454	11.41
587.792	11.44
588.13	11.59
588.469	11.48
588.807	11.74
589.145	11.72
589.483	11.7
589.821	11.29
590.159	11.58
590.497	11.72
590.835	11.79
591.173	11.86
591.511	11.9
591.849	11.84
592.187	11.71
592.524	11.87
592.862	11.68
593.2	11.66
593.537	11.93
593.875	11.93
594.212	12.07
594.55	11.79
594.887	12.18
595.224	12.09
595.561	12.52
595.899	12.13
596.236	12.21
596.573	12.44
596.91	12.26
597.247	12.44
597.584	11.96
597.921	12.23
598.258	12.31
598.594	12.55
598.931	12.33
599.268	12.37
599.604	12.58
599.941	12.76
600.277	12.5
600.614	12.77
600.95	12.6
601.287	12.69
601.623	12.82
601.959	12.83
602.296	12.97
602.632	12.7
602.968	12.86
603.304	13.03
603.64	13.05
603.976	13.21
604.312	13.1
604.648	13.15
604.984	13.09
605.319	13.21
605.655	13.25
605.991	13.22
606.326	13.34
606.662	13.16
606.998	13.07
607.333	13.3
607.668	13.19
608.004	13.3
608.339	13.53
608.674	13.6
609.01	13.37
609.345	13.57
609.68	13.38
610.015	13.79
610.35	13.43
610.685	13.49
611.02	13.86
611.355	13.93
611.689	13.84
612.024	13.64
612.359	13.68
612.694	13.85
613.028	13.63
613.363	14.06
613.697	13.9
614.032	13.89
614.366	14.37
614.7	14.22
615.035	14.27
615.369	14.24
615.703	14.18
616.037	14.21
616.371	14.69
616.705	14.4
617.039	14.42
617.373	14.25
617.707	14.53
618.041	14.9
618.375	14.7
618.709	14.6
619.042	14.86
619.376	14.94
619.71	14.38
620.043	14.68
620.377	14.93
620.71	14.94
621.043	14.76
621.377	14.39
621.71	14.92
622.043	14.8
622.376	15.2
622.709	14.96
623.043	14.7
623.376	15.08
623.709	15.49
624.041	14.86
624.374	14.98
624.707	15.15
625.04	15.48
625.373	15.53
625.705	15.04
626.038	15.35
626.37	15.08
626.703	15.5
627.035	15.65
627.368	15.6
627.7	15.53
628.032	15.59
628.365	15.71
628.697	15.45
629.029	15.88
629.361	15.48
629.693	15.76
630.025	15.6
630.357	15.75
630.689	15.72
631.021	16.11
631.353	15.96
631.684	15.74
632.016	16.1
632.348	16.24
632.679	16.45
633.011	16.12
633.342	16.5
633.674	16.56
634.005	16.4
634.336	16.51
634.668	16.54
634.999	16.72
635.33	16.61
635.661	16.59
635.992	16.65
636.323	16.24
636.654	16.32
636.985	16.22
637.316	16.48
637.647	16.73
637.977	16.89
638.308	17.05
638.639	16.57
638.969	17.2
639.3	17.14
639.63	16.89
639.961	16.98
640.291	17.02
640.622	16.96
640.952	17.36
641.282	17.39
641.612	17.1
641.943	17.26
642.273	17
642.603	17.26
642.933	17.63
643.263	17.65
643.592	17.72
643.922	17.36
644.252	17.07
644.582	17.44
644.911	17.49
645.241	17.35
645.571	17.8
645.9	17.75
646.23	17.8
646.559	17.64
646.888	17.41
647.218	18.34
647.547	17.53
647.876	17.43
648.205	17.46
648.534	18.03
648.863	18.12
649.192	18.01
649.521	18.08
649.85	17.81
650.179	18.25
650.508	18.84
650.837	18.06
651.165	19.06
651.494	18.23
651.822	18.08
652.151	18.66
652.479	18.89
652.808	18.59
653.136	17.74
653.465	18.72
653.793	18.6
654.121	19.33
654.449	18.99
654.777	18.76
655.105	18.83
655.433	18.57
655.761	18.51
656.089	18.73
656.417	18.47
656.745	19.35
657.073	19.18
657.4	18.73
657.728	18.66
658.056	19.16
658.383	19.51
658.711	19.17
659.038	19.13
659.365	18.76
659.693	19.38
660.02	18.98
660.347	19.1
660.674	19.23
661.001	18.84
661.329	19.85
661.656	19.53
661.982	19.42
662.309	19.69
662.636	19.5
662.963	19.64
663.29	19.48
663.616	19.38
663.943	19.09
664.27	19.16
664.596	20.49
664.923	19.72
665.249	19.79
665.576	20.12
665.902	19.99
666.228	19.87
666.554	19.81
666.881	20.12
667.207	20.61
667.533	20.48
667.859	20.44
668.185	20.39
668.511	20.26
668.837	20.57
669.162	19.98
669.488	19.86
669.814	20.51
670.139	19.95
670.465	20.42
670.791	20.79
671.116	20.87
671.442	21.18
671.767	20.81
672.092	20.24
672.418	20.63
672.743	20.28
673.068	21.48
673.393	20.72
673.718	20.42
674.043	21.54
674.368	20.88
674.693	21.09
675.018	21.54
675.343	20.66
675.667	21.22
675.992	21.42
676.317	20.56
676.641	21.44
676.966	21.12
677.29	20.49
677.615	21.86
677.939	21.2
678.264	21
678.588	21.32
678.912	20.89
679.236	21.93
679.56	21.62
679.885	21.8
680.209	21.69
680.532	22.02
680.856	22.12
681.18	21.88
681.504	21.83
681.828	21.82
682.152	21.49
682.475	22.09
682.799	22.39
683.122	22.09
683.446	21.42
683.769	22.27
684.093	22.23
684.416	22.17
