Data from 0357_chest_Reflection__3__86.txt Node

Date: Mon Dec 11 18:35:32 CST 2023
User: ToomeyLab
Spectrometer: FLMS14357
Trigger mode: 0
Integration Time (sec): 1.000000E-2
Scans to average: 100
Electric dark correction enabled: true
Nonlinearity correction enabled: false
Boxcar width: 0
XAxis mode: Wavelengths
Number of Pixels in Spectrum: 2048
>>>>>Begin Spectral Data<<<<<
189.047	-326.04
189.435	-326.04
189.823	-326.04
190.211	1542.57
190.599	117.77
190.987	-42.05
191.375	147.28
191.763	226.19
192.151	6.54
192.538	61.93
192.926	-77.84
193.314	175.52
193.702	205.48
194.089	-210.32
194.477	180.72
194.864	98.85
195.252	395.56
195.639	419.48
196.027	566.5
196.414	60.03
196.801	113.25
197.189	-2.24
197.576	110.5
197.963	1897.62
198.351	-80.11
198.738	27.81
199.125	-45.23
199.512	-8.25
199.899	12.37
200.286	12.88
200.673	-120.56
201.06	95.95
201.447	-35.33
201.833	95.7
202.22	43.56
202.607	46.1
202.994	-75.76
203.38	3.49
203.767	39.29
204.154	35.17
204.54	-39.88
204.927	-24.71
205.313	32.05
205.699	-24.48
206.086	-28.28
206.472	20.73
206.858	24.88
207.245	31.23
207.631	1.68
208.017	18.95
208.403	17.38
208.789	-16.57
209.175	-2.35
209.561	-18.31
209.947	13.76
210.333	35.45
210.719	38.97
211.105	18.45
211.491	15.48
211.876	21.23
212.262	-31.87
212.648	-5.28
213.034	-2.07
213.419	11.04
213.805	-35.09
214.19	-26.1
214.576	-14.55
214.961	15.75
215.346	14.9
215.732	3.33
216.117	15.71
216.502	5.36
216.888	-2.63
217.273	28.6
217.658	0.92
218.043	-34.97
218.428	9.71
218.813	20.83
219.198	4.33
219.583	17.48
219.968	-21.61
220.353	-8.55
220.738	41.4
221.122	11.85
221.507	22.42
221.892	2.03
222.276	8.67
222.661	3.3
223.046	0.61
223.43	19.77
223.815	-9.07
224.199	14.37
224.583	3.26
224.968	7.21
225.352	2.61
225.736	-0.66
226.121	10.4
226.505	1.21
226.889	8.06
227.273	0.61
227.657	10.78
228.041	8.34
228.425	1.57
228.809	0.9
229.193	1.4
229.577	5.92
229.961	3.85
230.344	4.07
230.728	4
231.112	4.31
231.495	4.4
231.879	4.35
232.263	3.02
232.646	5.55
233.03	3.02
233.413	5.06
233.797	5.94
234.18	0.9
234.563	3.74
234.946	2.26
235.33	4.55
235.713	2.05
236.096	6.19
236.479	4.68
236.862	4.09
237.245	3.01
237.628	1.73
238.011	3.14
238.394	4.08
238.777	3.63
239.16	3.56
239.543	2.37
239.925	3.03
240.308	4.55
240.691	4.21
241.073	5.08
241.456	5.01
241.838	4.74
242.221	5.27
242.603	3.91
242.986	3.16
243.368	3.28
243.75	3.44
244.133	3.99
244.515	3.48
244.897	3.95
245.279	4.46
245.661	3.9
246.043	3.72
246.425	4.04
246.807	4.67
247.189	5
247.571	4.17
247.953	3.66
248.335	3.96
248.717	4.09
249.098	3.79
249.48	3.92
249.862	4.31
250.243	4.31
250.625	3.84
251.006	3.56
251.388	3.79
251.769	3.28
252.151	4.65
252.532	4.39
252.913	2.96
253.295	4.35
253.676	3.97
254.057	4.55
254.438	4.21
254.819	3.5
255.2	2.88
255.581	3.69
255.962	2.11
256.343	3.51
256.724	4.76
257.105	2.93
257.486	2.02
257.867	4.85
258.247	2.91
258.628	4.03
259.009	3.97
259.389	4.38
259.77	3.12
260.15	3.14
260.531	3.19
260.911	2.93
261.292	3.47
261.672	3.51
262.052	3.51
262.432	3.52
262.813	3.7
263.193	3.43
263.573	3.99
263.953	3.61
264.333	2.68
264.713	3.85
265.093	3.58
265.473	4.26
265.853	3.45
266.233	3.02
266.612	3.39
266.992	4.13
267.372	4.37
267.752	4.18
268.131	3.67
268.511	3.3
268.89	3.58
269.27	3.61
269.649	3.73
270.029	4.67
270.408	3.43
270.787	3.59
271.167	2.75
271.546	3.43
271.925	3.26
272.304	3.27
272.683	3.02
273.062	3.21
273.441	3.12
273.82	3.13
274.199	3.1
274.578	3.38
274.957	4.01
275.336	3.42
275.715	3.13
276.093	4.22
276.472	3.26
276.851	3.72
277.229	3.28
277.608	3.43
277.986	3.64
278.365	3.64
278.743	3.36
279.122	3.84
279.5	3.37
279.878	3.42
280.257	3.02
280.635	3.7
281.013	3.14
281.391	3.64
281.769	3.43
282.147	3.65
282.525	3.94
282.903	3.31
283.281	2.87
283.659	2.95
284.037	2.47
284.415	3.38
284.792	3.56
285.17	3.48
285.548	3.09
285.925	3.93
286.303	3.28
286.68	3.18
287.058	3.34
287.435	3.6
287.813	3.77
288.19	3.62
288.567	3.15
288.945	3.28
289.322	2.9
289.699	3.5
290.076	3.23
290.453	3.61
290.83	3.87
291.207	3.4
291.584	3.47
291.961	3.39
292.338	3.18
292.715	3.94
293.092	3.75
293.469	3.33
293.845	3.79
294.222	4.36
294.599	3.69
294.975	2.93
295.352	3.1
295.728	3.52
296.105	3.27
296.481	3.22
296.858	3.62
297.234	3.62
297.61	3.51
297.986	3.55
298.363	3.43
298.739	3.41
299.115	3.38
299.491	3.5
299.867	3.32
300.243	3.55
300.619	3.45
300.995	3.28
301.371	3.12
301.746	2.94
302.122	3.62
302.498	3.79
302.874	3.59
303.249	4.04
303.625	3.43
304	3.34
304.376	3.56
304.751	3.46
305.127	3.82
305.502	3.88
305.878	3.28
306.253	3.6
306.628	3.6
307.003	3.79
307.378	3.31
307.754	3.76
308.129	3.42
308.504	3.57
308.879	3.23
309.254	3.81
309.629	4.16
310.003	3.83
310.378	3.38
310.753	4.57
311.128	3.58
311.502	3.49
311.877	3.81
312.252	3.53
312.626	3.61
313.001	3.84
313.375	3.33
313.75	3.74
314.124	3.68
314.498	3.77
314.873	3.74
315.247	3.23
315.621	3.88
315.995	4.5
316.369	4.02
316.743	4
317.117	3.9
317.491	3.74
317.865	3.51
318.239	3.49
318.613	4.42
318.987	3.95
319.361	4.12
319.734	3.56
320.108	3.17
320.482	3.61
320.855	3.98
321.229	4.14
321.602	4.18
321.976	4.33
322.349	3.88
322.723	3.98
323.096	4.42
323.469	4.43
323.843	4.46
324.216	3.64
324.589	4.38
324.962	3.69
325.335	3.9
325.708	3.96
326.081	4.06
326.454	3.64
326.827	3.6
327.2	3.76
327.573	3.22
327.945	3.78
328.318	3.48
328.691	3.51
329.063	3.51
329.436	3.71
329.809	3.45
330.181	4.48
330.553	3.94
330.926	4.11
331.298	4.46
331.671	3.7
332.043	4.55
332.415	3.84
332.787	3.99
333.159	4.33
333.532	3.58
333.904	4.22
334.276	4.3
334.648	4.15
335.02	3.74
335.391	4.14
335.763	4.01
336.135	3.94
336.507	4.02
336.879	3.87
337.25	3.89
337.622	3.59
337.993	3.89
338.365	3.48
338.736	4
339.108	4.37
339.479	4.12
339.851	4.57
340.222	3.41
340.593	3.49
340.964	4.29
341.336	3.86
341.707	3.55
342.078	3.99
342.449	4.12
342.82	3.71
343.191	4.04
343.562	3.7
343.933	3.68
344.303	3.64
344.674	3.78
345.045	4.29
345.416	3.93
345.786	3.93
346.157	3.72
346.527	3.84
346.898	4.11
347.268	4
347.639	4.52
348.009	3.95
348.38	3.4
348.75	3.82
349.12	4.36
349.49	3.62
349.861	4.37
350.231	3.73
350.601	4.25
350.971	3.98
351.341	3.38
351.711	3.87
352.081	3.65
352.45	3.93
352.82	3.37
353.19	4.06
353.56	4.43
353.929	4.09
354.299	4.18
354.669	4
355.038	3.9
355.408	3.81
355.777	3.94
356.147	4.05
356.516	3.88
356.885	3.89
357.254	3.96
357.624	3.89
357.993	3.95
358.362	4.28
358.731	3.86
359.1	4
359.469	3.96
359.838	4.11
360.207	4.15
360.576	3.78
360.945	4.26
361.314	4.61
361.682	4.16
362.051	3.91
362.42	4.22
362.788	3.61
363.157	4.14
363.525	3.67
363.894	4.1
364.262	4.04
364.631	4.27
364.999	3.77
365.367	3.94
365.735	4.16
366.104	4.09
366.472	3.97
366.84	3.59
367.208	3.95
367.576	4.15
367.944	4.26
368.312	3.94
368.68	4.02
369.048	3.9
369.416	3.78
369.783	3.99
370.151	4.38
370.519	5.01
370.886	4.14
371.254	4.29
371.621	4.65
371.989	4.42
372.356	4.34
372.724	4.34
373.091	4.14
373.458	4.08
373.826	4.03
374.193	3.77
374.56	4.24
374.927	4.43
375.294	4.11
375.661	4.11
376.028	4.2
376.395	4.36
376.762	4.26
377.129	4.08
377.496	4.1
377.863	4.38
378.229	4.16
378.596	4.55
378.963	4.23
379.329	4.57
379.696	4.03
380.062	4.02
380.429	4
380.795	4.57
381.161	4.34
381.528	4.43
381.894	4.31
382.26	4.12
382.626	4.2
382.993	4.2
383.359	4.09
383.725	3.86
384.091	4.17
384.457	4.06
384.823	4.64
385.188	4.3
385.554	4.18
385.92	4.2
386.286	4.28
386.651	4.38
387.017	4.36
387.383	4.27
387.748	4.36
388.114	4.02
388.479	4.13
388.845	4.22
389.21	4.2
389.575	4.34
389.94	4.25
390.306	4.29
390.671	4.4
391.036	4.47
391.401	4.4
391.766	4.19
392.131	4.57
392.496	4.45
392.861	4.39
393.226	4.39
393.591	4.49
393.956	4.19
394.32	4.62
394.685	4.37
395.05	4.44
395.414	4.64
395.779	4.27
396.143	4.28
396.508	4.28
396.872	4.37
397.236	4.41
397.601	4.47
397.965	4.51
398.329	4.43
398.694	4.34
399.058	4.19
399.422	4.51
399.786	4.43
400.15	4.41
400.514	4.65
400.878	4.44
401.242	4.46
401.605	4.72
401.969	4.37
402.333	4.08
402.697	4.52
403.06	4.32
403.424	4.56
403.787	4.84
404.151	4.37
404.514	4.38
404.878	4.58
405.241	4.34
405.604	4.15
405.968	4.28
406.331	4.28
406.694	4.35
407.057	4.42
407.42	4.67
407.783	4.45
408.146	4.6
408.509	4.38
408.872	4.4
409.235	4.41
409.598	4.64
409.961	4.45
410.323	4.65
410.686	4.5
411.049	4.53
411.411	4.45
411.774	4.34
412.136	4.5
412.499	4.44
412.861	4.26
413.223	4.51
413.586	4.79
413.948	4.6
414.31	4.51
414.672	4.41
415.035	4.46
415.397	4.33
415.759	4.52
416.121	4.47
416.483	4.44
416.845	4.37
417.206	4.42
417.568	4.72
417.93	4.81
418.292	4.43
418.653	4.5
419.015	4.45
419.377	4.59
419.738	4.48
420.1	4.49
420.461	4.4
420.822	4.4
421.184	4.31
421.545	4.41
421.906	4.46
422.267	4.57
422.629	4.42
422.99	4.4
423.351	4.42
423.712	4.4
424.073	4.44
424.434	4.38
424.795	4.49
425.155	4.3
425.516	4.35
425.877	4.45
426.238	4.37
426.598	4.48
426.959	4.42
427.32	4.47
427.68	4.49
428.041	4.23
428.401	4.37
428.761	4.47
429.122	4.52
429.482	4.44
429.842	4.47
430.202	4.69
430.563	4.4
430.923	4.59
431.283	4.58
431.643	4.72
432.003	4.57
432.363	4.72
432.722	4.55
433.082	4.74
433.442	4.6
433.802	4.72
434.161	4.81
434.521	4.45
434.881	4.69
435.24	4.6
435.6	4.6
435.959	4.63
436.319	4.38
436.678	4.59
437.037	4.68
437.396	4.69
437.756	4.82
438.115	4.62
438.474	4.69
438.833	4.53
439.192	4.55
439.551	4.6
439.91	4.66
440.269	4.78
440.628	4.39
440.987	4.75
441.345	4.59
441.704	4.58
442.063	4.53
442.421	4.5
442.78	4.41
443.138	4.58
443.497	4.48
443.855	4.43
444.214	4.74
444.572	4.56
444.93	4.84
445.288	4.6
445.647	4.67
446.005	4.52
446.363	4.54
446.721	4.47
447.079	4.6
447.437	4.5
447.795	4.47
448.153	4.65
448.51	4.6
448.868	4.37
449.226	4.45
449.584	4.62
449.941	4.67
450.299	4.61
450.656	4.6
451.014	4.83
451.371	4.53
451.729	4.77
452.086	4.66
452.443	4.76
452.801	4.79
453.158	4.7
453.515	4.55
453.872	4.64
454.229	4.74
454.586	4.69
454.943	4.7
455.3	4.66
455.657	4.8
456.014	4.57
456.371	4.77
456.727	4.91
457.084	4.64
457.441	4.79
457.797	4.78
458.154	4.74
458.51	4.87
458.867	4.51
459.223	4.73
459.58	4.73
459.936	4.82
460.292	4.71
460.648	4.8
461.005	4.68
461.361	4.69
461.717	4.67
462.073	4.7
462.429	4.59
462.785	4.63
463.141	4.65
463.496	4.8
463.852	4.8
464.208	4.61
464.564	4.78
464.919	4.65
465.275	4.55
465.631	4.52
465.986	4.95
466.342	4.85
466.697	4.66
467.052	4.8
467.408	4.92
467.763	4.91
468.118	4.71
468.473	4.65
468.829	4.85
469.184	5.05
469.539	4.69
469.894	4.77
470.249	4.76
470.603	4.66
470.958	4.87
471.313	4.94
471.668	4.86
472.023	4.95
472.377	4.78
472.732	4.79
473.086	4.93
473.441	4.61
473.795	4.9
474.15	4.8
474.504	4.83
474.859	4.9
475.213	4.96
475.567	4.98
475.921	4.75
476.275	4.89
476.63	4.73
476.984	4.97
477.338	4.77
477.692	4.89
478.045	4.76
478.399	4.75
478.753	4.53
479.107	4.65
479.461	5.05
479.814	4.75
480.168	4.89
480.521	4.89
480.875	4.79
481.228	4.7
481.582	5.06
481.935	4.75
482.289	4.83
482.642	4.93
482.995	4.77
483.348	4.83
483.701	4.77
484.055	4.72
484.408	4.71
484.761	4.76
485.114	4.7
485.466	4.63
485.819	4.51
486.172	4.53
486.525	4.58
486.878	4.59
487.23	4.7
487.583	4.76
487.936	4.72
488.288	4.8
488.641	4.68
488.993	4.6
489.345	4.7
489.698	4.69
490.05	4.68
490.402	4.61
490.754	4.69
491.107	4.76
491.459	4.78
491.811	4.87
492.163	4.89
492.515	4.93
492.866	4.83
493.218	4.72
493.57	4.73
493.922	4.73
494.274	4.75
494.625	4.8
494.977	4.95
495.328	5.03
495.68	4.95
496.031	4.99
496.383	4.87
496.734	5.04
497.086	5.1
497.437	5.05
497.788	4.89
498.139	4.93
498.49	5.02
498.842	4.97
499.193	4.96
499.544	4.92
499.894	4.92
500.245	5.02
500.596	5.15
500.947	4.95
501.298	5.16
501.648	4.99
501.999	4.96
502.35	5.07
502.7	4.99
503.051	4.94
503.401	5.01
503.752	5.01
504.102	5.1
504.452	4.9
504.803	5.1
505.153	5.11
505.503	5.15
505.853	5.15
506.203	5.08
506.553	5
506.903	4.96
507.253	5.12
507.603	5.1
507.953	5.25
508.303	4.96
508.652	5.14
509.002	5.08
509.352	5.33
509.701	5.16
510.051	5.09
510.4	4.99
510.75	5.12
511.099	5.06
511.449	5.09
511.798	5.12
512.147	5.28
512.496	5.07
512.846	5.23
513.195	5.19
513.544	5.17
513.893	5.1
514.242	5.17
514.591	5.14
514.939	4.97
515.288	5.21
515.637	5.17
515.986	5.19
516.334	5.2
516.683	5.27
517.032	5.32
517.38	5.18
517.729	5.25
518.077	5.2
518.426	5.23
518.774	5.24
519.122	5.29
519.47	5.2
519.819	5.18
520.167	5.09
520.515	5.09
520.863	5.08
521.211	5.21
521.559	5.19
521.907	5.2
522.255	5.11
522.602	5.22
522.95	5.26
523.298	5.28
523.645	5.48
523.993	5.3
524.341	5.3
524.688	5.33
525.036	5.28
525.383	5.26
525.73	5.53
526.078	5.31
526.425	5.35
526.772	5.38
527.119	5.29
527.466	5.24
527.814	5.31
528.161	5.25
528.508	5.32
528.854	5.24
529.201	5.21
529.548	5.26
529.895	5.21
530.242	5.15
530.588	5.14
530.935	5.11
531.282	5.17
531.628	5.22
531.975	5.24
532.321	5.28
532.667	5.3
533.014	5.25
533.36	5.46
533.706	5.48
534.052	5.35
534.399	5.39
534.745	5.36
535.091	5.26
535.437	5.26
535.783	5.41
536.129	5.4
536.474	5.5
536.82	5.42
537.166	5.44
537.512	5.45
537.857	5.46
538.203	5.6
538.549	5.61
538.894	5.57
539.239	5.53
539.585	5.45
539.93	5.5
540.276	5.65
540.621	5.62
540.966	5.67
541.311	5.57
541.656	5.69
542.001	5.74
542.346	5.6
542.691	5.57
543.036	5.43
543.381	5.43
543.726	5.44
544.071	5.45
544.415	5.49
544.76	5.6
545.105	5.61
545.449	5.57
545.794	5.62
546.138	5.72
546.483	5.6
546.827	5.78
547.171	5.72
547.516	5.71
547.86	5.78
548.204	5.79
548.548	5.74
548.892	5.79
549.236	5.69
549.58	5.94
549.924	5.9
550.268	5.86
550.612	5.8
550.956	5.87
551.3	5.95
551.643	5.98
551.987	6.11
552.33	6.03
552.674	6.18
553.017	5.97
553.361	5.88
553.704	5.86
554.048	5.99
554.391	6.06
554.734	6.17
555.077	6.05
555.42	6.18
555.764	6.01
556.107	6.26
556.45	5.99
556.793	6.18
557.135	6.12
557.478	6.28
557.821	6.09
558.164	6.16
558.507	5.94
558.849	6.05
559.192	6.23
559.534	6.08
559.877	6.4
560.219	6.17
560.562	6.24
560.904	6.38
561.246	6.2
561.589	6.23
561.931	6.29
562.273	6.1
562.615	6.36
562.957	6.44
563.299	6.39
563.641	6.05
563.983	6.4
564.325	6.55
564.667	6.38
565.008	6.5
565.35	6.53
565.692	6.54
566.033	6.27
566.375	6.59
566.716	6.41
567.058	6.45
567.399	6.54
567.741	6.26
568.082	6.38
568.423	6.45
568.764	6.38
569.105	6.34
569.447	6.44
569.788	6.5
570.129	6.4
570.47	6.43
570.811	6.28
571.151	6.33
571.492	6.64
571.833	6.48
572.174	6.84
572.514	6.69
572.855	6.54
573.195	6.68
573.536	6.75
573.876	6.58
574.217	6.63
574.557	6.66
574.898	6.72
575.238	6.94
575.578	6.75
575.918	6.87
576.258	6.74
576.598	6.74
576.938	6.71
577.278	6.79
577.618	6.8
577.958	6.78
578.298	6.95
578.638	6.98
578.977	7.03
579.317	6.97
579.657	6.83
579.996	6.78
580.336	6.84
580.675	6.91
581.014	7.05
581.354	6.86
581.693	7.18
582.032	6.78
582.372	7.15
582.711	6.96
583.05	7.05
583.389	7.02
583.728	7.21
584.067	7.05
584.406	7.07
584.745	7.18
585.083	7.23
585.422	7.23
585.761	7.37
586.1	7.16
586.438	6.98
586.777	7.16
587.115	7.07
587.454	7.2
587.792	7.29
588.13	7.4
588.469	7.38
588.807	7.34
589.145	7.66
589.483	7.59
589.821	7.12
590.159	7.39
590.497	7.37
590.835	7.75
591.173	7.42
591.511	7.59
591.849	7.52
592.187	7.22
592.524	7.54
592.862	7.38
593.2	7.37
593.537	7.4
593.875	7.64
594.212	7.58
594.55	7.5
594.887	7.61
595.224	7.86
595.561	7.73
595.899	7.39
596.236	7.46
596.573	7.49
596.91	7.51
597.247	7.59
597.584	7.54
597.921	7.53
598.258	7.78
598.594	7.91
598.931	7.67
599.268	7.67
599.604	7.84
599.941	7.8
600.277	7.8
600.614	7.88
600.95	7.8
601.287	8.03
601.623	7.8
601.959	7.78
602.296	8.05
602.632	7.88
602.968	7.91
603.304	7.96
603.64	7.97
603.976	8.24
604.312	8
604.648	7.87
604.984	7.92
605.319	8.07
605.655	8.01
605.991	8.18
606.326	8.24
606.662	7.86
606.998	8
607.333	8.04
607.668	8.29
608.004	8
608.339	8.33
608.674	8.4
609.01	8.35
609.345	8.34
609.68	8.23
610.015	8.2
610.35	8.11
610.685	8.15
611.02	8.28
611.355	8.2
611.689	8.35
612.024	8.31
612.359	8.18
612.694	8.33
613.028	8.08
613.363	8.32
613.697	8.32
614.032	8.3
614.366	8.43
614.7	8.53
615.035	8.41
615.369	8.48
615.703	8.63
616.037	8.58
616.371	8.65
616.705	8.58
617.039	8.94
617.373	8.74
617.707	8.67
618.041	8.92
618.375	9.04
618.709	8.74
619.042	8.07
619.376	9.1
619.71	9.03
620.043	8.71
620.377	8.76
620.71	8.87
621.043	8.94
621.377	8.4
621.71	8.65
622.043	8.38
622.376	8.88
622.709	9.03
623.043	9.31
623.376	8.86
623.709	8.94
624.041	8.88
624.374	8.93
624.707	8.88
625.04	9.33
625.373	9.02
625.705	9.01
626.038	8.75
626.37	8.99
626.703	9.47
627.035	9.07
627.368	9.42
627.7	9.17
628.032	9.17
628.365	9.23
628.697	9.08
629.029	9.23
629.361	9.06
629.693	9.16
630.025	9.26
630.357	8.85
630.689	8.81
631.021	9.31
631.353	9.17
631.684	9.31
632.016	9.36
632.348	9.53
632.679	9.65
633.011	9.24
633.342	9.5
633.674	9.74
634.005	9.47
634.336	9.25
634.668	9.41
634.999	9.67
635.33	9.6
635.661	9.61
635.992	9.28
636.323	9.59
636.654	9.85
636.985	9.3
637.316	9.6
637.647	9.8
637.977	9.7
638.308	9.76
638.639	9.64
638.969	9.55
639.3	9.44
639.63	9.59
639.961	9.8
640.291	10.13
640.622	9.54
640.952	10.4
641.282	10.08
641.612	10.37
641.943	9.96
642.273	9.93
642.603	9.73
642.933	9.69
643.263	9.78
643.592	9.62
643.922	10.01
644.252	9.41
644.582	9.89
644.911	10.04
645.241	9.88
645.571	10.18
645.9	9.71
646.23	9.87
646.559	10.08
646.888	9.58
647.218	10.49
647.547	10.09
647.876	9.91
648.205	9.92
648.534	9.87
648.863	10.01
649.192	10.79
649.521	10.18
649.85	10.21
650.179	10.44
650.508	10.19
650.837	9.89
651.165	10.57
651.494	10.46
651.822	10.16
652.151	10.65
652.479	10.33
652.808	10.23
653.136	10.07
653.465	10.4
653.793	10.66
654.121	10.39
654.449	10.64
654.777	10.27
655.105	10.71
655.433	10.69
655.761	10.56
656.089	10.5
656.417	10.66
656.745	10.85
657.073	11.17
657.4	10.88
657.728	10.9
658.056	10.77
658.383	10.74
658.711	11.26
659.038	10.52
659.365	10.94
659.693	11.11
660.02	10.43
660.347	10.68
660.674	10.64
661.001	10.68
661.329	10.8
661.656	11.11
661.982	10.63
662.309	10.98
662.636	10.69
662.963	11.33
663.29	10.65
663.616	10.57
663.943	10.53
664.27	11.03
664.596	11.48
664.923	10.91
665.249	11.06
665.576	11.11
665.902	10.78
666.228	11.23
666.554	11.13
666.881	10.63
667.207	11.57
667.533	11.29
667.859	11.58
668.185	11.05
668.511	11.58
668.837	11.73
669.162	11.8
669.488	11.53
669.814	11.43
670.139	11.49
670.465	11.47
670.791	11.7
671.116	11.54
671.442	12.33
671.767	11.75
672.092	11.75
672.418	11.94
672.743	11.81
673.068	11.28
673.393	11.84
673.718	11.18
674.043	11.73
674.368	11.22
674.693	11.34
675.018	12.01
675.343	11.33
675.667	11.4
675.992	11.73
676.317	11.31
676.641	11.86
676.966	12.51
677.29	11.14
677.615	12.3
677.939	11.14
678.264	11.72
678.588	12.44
678.912	11.61
679.236	11.59
679.56	11.91
679.885	12.38
680.209	12.03
680.532	12.17
680.856	11.99
681.18	12.08
681.504	11.68
681.828	12.26
682.152	11.69
682.475	12.62
682.799	12.2
683.122	12.39
683.446	11.67
683.769	11.98
684.093	12.12
684.416	12.1
684.739	11.97
685.062	12.22
685.386	11.32
685.709	11.91
686.032	12.39
686.355	11.99
686.678	12.41
687.001	12.29
687.324	12.04
687.646	11.52
687.969	12.49
688.292	13.64
688.614	13.24
688.937	12.98
689.26	12.05
689.582	12.45
689.904	12.58
