Data from 0357_crown_Reflection__3__102.txt Node

Date: Mon Dec 11 18:54:25 CST 2023
User: ToomeyLab
Spectrometer: FLMS14357
Trigger mode: 0
Integration Time (sec): 1.000000E-2
Scans to average: 100
Electric dark correction enabled: true
Nonlinearity correction enabled: false
Boxcar width: 0
XAxis mode: Wavelengths
Number of Pixels in Spectrum: 2048
>>>>>Begin Spectral Data<<<<<
189.047	-664.29
189.435	-664.29
189.823	-664.29
190.211	2254.57
190.599	94.59
190.987	41.07
191.375	145.14
191.763	122.96
192.151	17.83
192.538	170.31
192.926	353.09
193.314	125.65
193.702	257.82
194.089	421.43
194.477	73.9
194.864	-32.05
195.252	-29.02
195.639	796.18
196.027	-74.46
196.414	85.55
196.801	30.05
197.189	51.1
197.576	117.76
197.963	2872.22
198.351	-89.4
198.738	20.18
199.125	-45.61
199.512	-9.51
199.899	-12.96
200.286	14.8
200.673	-312.84
201.06	39.1
201.447	-25.89
201.833	65.38
202.22	45.22
202.607	4.75
202.994	-49.72
203.38	-65.03
203.767	43.54
204.154	32.42
204.54	-106.36
204.927	-18.28
205.313	-11.89
205.699	-93.8
206.086	-66.36
206.472	-3.15
206.858	-7.89
207.245	-36.11
207.631	-7.82
208.017	1.42
208.403	-18.06
208.789	-22.58
209.175	18.74
209.561	4.69
209.947	-36.45
210.333	13.51
210.719	12.81
211.105	0.27
211.491	-3.9
211.876	-4.27
212.262	-13.35
212.648	-2.7
213.034	-36.18
213.419	3.23
213.805	-50.61
214.19	-11.38
214.576	-7.03
214.961	-9.22
215.346	-35.94
215.732	5.18
216.117	-5.43
216.502	-7.57
216.888	26.61
217.273	15.85
217.658	-14.81
218.043	-0.69
218.428	-5.43
218.813	12.14
219.198	-3.69
219.583	-21.82
219.968	-18.75
220.353	-32.46
220.738	36.28
221.122	10.35
221.507	13.2
221.892	-7.01
222.276	-2.72
222.661	-8.72
223.046	1.36
223.43	5.5
223.815	8.59
224.199	-0.93
224.583	-4.32
224.968	-3.6
225.352	6.18
225.736	2.24
226.121	-1.86
226.505	-5.61
226.889	6.5
227.273	0.67
227.657	9.97
228.041	3.73
228.425	1.82
228.809	0.62
229.193	3.44
229.577	6.1
229.961	4.24
230.344	5.12
230.728	5.09
231.112	4.72
231.495	5.27
231.879	5.41
232.263	3.66
232.646	4.78
233.03	2.8
233.413	4.18
233.797	5.82
234.18	3.63
234.563	5.64
234.946	4.18
235.33	5.71
235.713	3.59
236.096	5.15
236.479	6.06
236.862	4.8
237.245	4.89
237.628	3.17
238.011	6.03
238.394	3.35
238.777	3.12
239.16	5.81
239.543	4.83
239.925	1.92
240.308	6.88
240.691	5.18
241.073	4.81
241.456	6.34
241.838	5.72
242.221	4.39
242.603	3.56
242.986	4.46
243.368	4
243.75	4.68
244.133	4.64
244.515	4.88
244.897	4.99
245.279	4.6
245.661	4.79
246.043	4.29
246.425	4.64
246.807	4.56
247.189	4.74
247.571	4.61
247.953	4.34
248.335	4.78
248.717	4.58
249.098	4.88
249.48	4.5
249.862	5.01
250.243	4.92
250.625	4.47
251.006	4.81
251.388	4.53
251.769	5.51
252.151	5.71
252.532	4.41
252.913	4.27
253.295	4.93
253.676	3.97
254.057	4.26
254.438	4.42
254.819	3.78
255.2	4.3
255.581	2.86
255.962	3.61
256.343	2.28
256.724	3.48
257.105	3.21
257.486	3.5
257.867	5.06
258.247	3.76
258.628	4.87
259.009	4.92
259.389	4.9
259.77	3.78
260.15	3.98
260.531	4.27
260.911	3.88
261.292	3.8
261.672	4.13
262.052	4.18
262.432	4.39
262.813	4.33
263.193	4.1
263.573	3.78
263.953	3.92
264.333	4.16
264.713	4.82
265.093	4.26
265.473	4.5
265.853	4.02
266.233	3.21
266.612	5.05
266.992	4.39
267.372	4.76
267.752	4.59
268.131	4.09
268.511	3.57
268.89	4.51
269.27	4.66
269.649	4.12
270.029	4.03
270.408	4.17
270.787	3.23
271.167	3.51
271.546	4.11
271.925	3.95
272.304	3.72
272.683	4.09
273.062	3.5
273.441	4.17
273.82	3.71
274.199	3.68
274.578	4.1
274.957	4.25
275.336	3.66
275.715	3.8
276.093	4.43
276.472	4.17
276.851	4.2
277.229	4.27
277.608	3.89
277.986	4.11
278.365	3.84
278.743	3.46
279.122	3.78
279.5	4.23
279.878	3.86
280.257	4.08
280.635	3.43
281.013	3.59
281.391	4.12
281.769	3.58
282.147	3.42
282.525	3.55
282.903	3.95
283.281	3.88
283.659	3.87
284.037	4
284.415	3.68
284.792	4.1
285.17	4.08
285.548	3.7
285.925	3.9
286.303	4.04
286.68	3.92
287.058	3.76
287.435	3.83
287.813	4.3
288.19	3.74
288.567	4
288.945	3.85
289.322	3.3
289.699	3.67
290.076	4.11
290.453	3.81
290.83	4.27
291.207	4.28
291.584	4.2
291.961	3.87
292.338	3.89
292.715	4.23
293.092	3.63
293.469	3.89
293.845	4.23
294.222	4.2
294.599	4.18
294.975	3.62
295.352	4.13
295.728	3.4
296.105	3.72
296.481	3.77
296.858	3.74
297.234	4.01
297.61	4.15
297.986	4.49
298.363	3.56
298.739	4.01
299.115	3.79
299.491	4.1
299.867	4.04
300.243	4.21
300.619	4.16
300.995	3.87
301.371	3.93
301.746	3.49
302.122	3.42
302.498	4.13
302.874	4.38
303.249	4.05
303.625	4.21
304	4.19
304.376	4.28
304.751	3.88
305.127	4.22
305.502	4.2
305.878	4.2
306.253	4.35
306.628	4.46
307.003	4.58
307.378	3.38
307.754	3.77
308.129	4.68
308.504	3.93
308.879	3.91
309.254	4.54
309.629	4.01
310.003	4.22
310.378	4.11
310.753	3.95
311.128	4.21
311.502	3.91
311.877	4.48
312.252	4.68
312.626	3.87
313.001	3.91
313.375	3.71
313.75	3.81
314.124	3.73
314.498	4.17
314.873	3.82
315.247	3.95
315.621	4.62
315.995	4.57
316.369	3.93
316.743	4.19
317.117	4.6
317.491	4.39
317.865	4.22
318.239	4.41
318.613	4.2
318.987	3.89
319.361	4.67
319.734	3.48
320.108	3.79
320.482	4.14
320.855	4.4
321.229	4.12
321.602	3.76
321.976	4.71
322.349	3.92
322.723	3.78
323.096	4.98
323.469	4.46
323.843	4.52
324.216	4.93
324.589	4.55
324.962	4
325.335	4.32
325.708	4.43
326.081	4.69
326.454	4.6
326.827	4.58
327.2	3.88
327.573	4.02
327.945	4.63
328.318	4.13
328.691	4.42
329.063	4.22
329.436	4.13
329.809	3.67
330.181	4.59
330.553	4.19
330.926	4.14
331.298	4.26
331.671	4.02
332.043	5.03
332.415	4.09
332.787	5.07
333.159	4.21
333.532	4.66
333.904	4.68
334.276	4.29
334.648	5.2
335.02	4.42
335.391	4.75
335.763	4.34
336.135	4.75
336.507	4.92
336.879	4.78
337.25	4.3
337.622	4.2
337.993	4.55
338.365	4.64
338.736	5
339.108	4.73
339.479	4.9
339.851	4.34
340.222	4.33
340.593	4.15
340.964	5.09
341.336	4.89
341.707	4.07
342.078	4.57
342.449	4.42
342.82	4.52
343.191	4.35
343.562	4.93
343.933	4.58
344.303	4.22
344.674	4.46
345.045	5.14
345.416	4.38
345.786	4.6
346.157	4.22
346.527	4.46
346.898	4.5
347.268	4.36
347.639	4.63
348.009	4.82
348.38	4.24
348.75	4.19
349.12	4.96
349.49	4.17
349.861	4.6
350.231	4.03
350.601	4.62
350.971	5.15
351.341	3.92
351.711	4.53
352.081	4.63
352.45	4.73
352.82	4.19
353.19	4.36
353.56	4.79
353.929	4.61
354.299	4.63
354.669	4.76
355.038	4.92
355.408	4.34
355.777	4.74
356.147	4.73
356.516	4.56
356.885	4.69
357.254	4.82
357.624	4.78
357.993	4.2
358.362	4.81
358.731	4.03
359.1	4.61
359.469	4.88
359.838	4.58
360.207	4.93
360.576	4.56
360.945	5.16
361.314	4.81
361.682	4.62
362.051	4.57
362.42	4.48
362.788	4.8
363.157	4.65
363.525	4.53
363.894	4.46
364.262	4.66
364.631	4.77
364.999	4.53
365.367	4.58
365.735	4.97
366.104	4.6
366.472	4.9
366.84	4.28
367.208	4.33
367.576	4.82
367.944	4.89
368.312	4.62
368.68	4.62
369.048	4.6
369.416	4.31
369.783	4.9
370.151	4.83
370.519	5.25
370.886	4.76
371.254	5.09
371.621	4.71
371.989	4.98
372.356	4.96
372.724	4.72
373.091	5.1
373.458	4.79
373.826	4.94
374.193	4.81
374.56	5.1
374.927	4.99
375.294	4.81
375.661	4.82
376.028	4.81
376.395	4.85
376.762	5
377.129	5.27
377.496	4.57
377.863	5.2
378.229	5
378.596	5.14
378.963	4.94
379.329	4.7
379.696	5.06
380.062	4.76
380.429	4.81
380.795	5.08
381.161	4.54
381.528	4.77
381.894	4.72
382.26	5.09
382.626	4.63
382.993	4.88
383.359	4.91
383.725	4.74
384.091	4.6
384.457	4.81
384.823	5.2
385.188	4.9
385.554	4.75
385.92	4.79
386.286	4.95
386.651	4.72
387.017	4.86
387.383	4.72
387.748	4.85
388.114	4.58
388.479	4.83
388.845	4.85
389.21	4.82
389.575	5.07
389.94	4.92
390.306	4.8
390.671	4.94
391.036	4.94
391.401	5.25
391.766	4.75
392.131	5.01
392.496	5.02
392.861	5.32
393.226	4.9
393.591	5.04
393.956	5.13
394.32	4.8
394.685	4.89
395.05	4.98
395.414	4.98
395.779	4.68
396.143	4.91
396.508	4.93
396.872	4.89
397.236	4.99
397.601	4.87
397.965	4.96
398.329	5.04
398.694	5.03
399.058	4.98
399.422	5.21
399.786	4.98
400.15	4.95
400.514	5.36
400.878	4.84
401.242	4.91
401.605	4.98
401.969	4.82
402.333	4.79
402.697	4.66
403.06	4.8
403.424	4.94
403.787	5.07
404.151	4.68
404.514	4.76
404.878	4.99
405.241	4.91
405.604	4.92
405.968	4.95
406.331	4.71
406.694	4.95
407.057	5.02
407.42	5.12
407.783	4.99
408.146	4.97
408.509	4.69
408.872	5.06
409.235	4.97
409.598	5.07
409.961	5.21
410.323	5.13
410.686	4.87
411.049	4.94
411.411	4.99
411.774	5.11
412.136	5.07
412.499	4.69
412.861	4.87
413.223	5.07
413.586	5.22
413.948	5.03
414.31	4.94
414.672	4.85
415.035	5.06
415.397	4.91
415.759	5.19
416.121	5.16
416.483	4.87
416.845	5.16
417.206	4.94
417.568	5.24
417.93	5.03
418.292	4.93
418.653	4.76
419.015	4.88
419.377	5.17
419.738	4.85
420.1	4.92
420.461	4.9
420.822	4.92
421.184	4.93
421.545	4.91
421.906	4.93
422.267	4.99
422.629	4.72
422.99	4.88
423.351	4.75
423.712	4.86
424.073	4.8
424.434	4.86
424.795	4.97
425.155	4.94
425.516	4.81
425.877	4.75
426.238	4.9
426.598	4.95
426.959	4.91
427.32	4.88
427.68	4.88
428.041	4.81
428.401	4.85
428.761	4.9
429.122	4.92
429.482	4.83
429.842	4.86
430.202	5.1
430.563	5.08
430.923	4.93
431.283	4.84
431.643	4.92
432.003	5.05
432.363	5.06
432.722	5.09
433.082	5.03
433.442	5.15
433.802	5.08
434.161	5.18
434.521	4.83
434.881	4.99
435.24	4.92
435.6	5.11
435.959	5
436.319	4.91
436.678	4.82
437.037	4.88
437.396	4.81
437.756	5.02
438.115	5.13
438.474	5.15
438.833	5.07
439.192	5.11
439.551	5.05
439.91	5.09
440.269	5.13
440.628	4.83
440.987	5.16
441.345	4.93
441.704	4.91
442.063	4.97
442.421	4.95
442.78	4.85
443.138	4.9
443.497	4.81
443.855	4.82
444.214	5.02
444.572	4.85
444.93	4.99
445.288	4.97
445.647	5.06
446.005	4.72
446.363	4.96
446.721	4.96
447.079	4.84
447.437	5.01
447.795	4.92
448.153	5.06
448.51	4.96
448.868	4.85
449.226	4.91
449.584	4.99
449.941	4.97
450.299	4.92
450.656	4.95
451.014	5.11
451.371	4.84
451.729	4.96
452.086	5.04
452.443	4.99
452.801	5.16
453.158	5.04
453.515	4.88
453.872	5.06
454.229	4.95
454.586	5.03
454.943	5.14
455.3	5.14
455.657	5.19
456.014	5.04
456.371	5.04
456.727	4.96
457.084	5.01
457.441	5.1
457.797	4.95
458.154	5.09
458.51	5.13
458.867	4.88
459.223	4.92
459.58	4.9
459.936	4.82
460.292	4.99
460.648	5.03
461.005	4.89
461.361	4.98
461.717	4.88
462.073	4.91
462.429	4.99
462.785	4.99
463.141	4.92
463.496	5.26
463.852	4.96
464.208	5
464.564	4.93
464.919	5.01
465.275	5.02
465.631	4.9
465.986	5.24
466.342	4.82
466.697	5.07
467.052	5.01
467.408	5.16
467.763	4.96
468.118	4.81
468.473	4.9
468.829	5.06
469.184	5.05
469.539	5.11
469.894	4.89
470.249	5.02
470.603	5.06
470.958	5.11
471.313	5.1
471.668	5.07
472.023	5.14
472.377	4.99
472.732	5.11
473.086	5.13
473.441	4.99
473.795	5
474.15	5.09
474.504	4.92
474.859	5.23
475.213	5.1
475.567	5.14
475.921	4.93
476.275	4.99
476.63	4.96
476.984	5.11
477.338	4.93
477.692	4.97
478.045	4.93
478.399	4.94
478.753	4.76
479.107	4.92
479.461	5.02
479.814	4.92
480.168	4.99
480.521	5.07
480.875	4.96
481.228	4.85
481.582	5.13
481.935	4.92
482.289	4.99
482.642	5.05
482.995	4.96
483.348	4.89
483.701	4.89
484.055	4.93
484.408	4.94
484.761	4.89
485.114	4.86
485.466	4.7
485.819	4.64
486.172	4.68
486.525	4.72
486.878	4.76
487.23	4.79
487.583	4.79
487.936	4.86
488.288	4.91
488.641	4.8
488.993	4.75
489.345	4.77
489.698	4.72
490.05	4.75
490.402	4.72
490.754	4.82
491.107	4.85
491.459	4.81
491.811	4.97
492.163	4.96
492.515	4.95
492.866	4.94
493.218	4.76
493.57	4.76
493.922	4.74
494.274	4.83
494.625	4.86
494.977	5.01
495.328	5.05
495.68	5.04
496.031	4.93
496.383	4.84
496.734	5.14
497.086	5.03
497.437	5.07
497.788	4.99
498.139	5
498.49	4.9
498.842	5.07
499.193	5.07
499.544	4.99
499.894	4.91
500.245	4.99
500.596	5.14
500.947	5.02
501.298	5.13
501.648	4.97
501.999	4.98
502.35	5.06
502.7	5.07
503.051	5.02
503.401	4.96
503.752	4.97
504.102	5.07
504.452	5.02
504.803	5.11
505.153	5.23
505.503	5.16
505.853	5.06
506.203	4.94
506.553	5.09
506.903	4.91
507.253	5.03
507.603	4.91
507.953	5.02
508.303	5.02
508.652	5
509.002	4.96
509.352	5.14
509.701	5.07
510.051	4.91
510.4	5.07
510.75	4.89
511.099	4.95
511.449	5.02
511.798	5.09
512.147	5.14
512.496	4.95
512.846	5.06
513.195	5.24
513.544	5.09
513.893	4.93
514.242	4.96
514.591	5.01
514.939	4.84
515.288	5.09
515.637	5
515.986	4.97
516.334	5.02
516.683	5.07
517.032	5.13
517.38	5.13
517.729	5.07
518.077	5.01
518.426	5.07
518.774	5.14
519.122	4.93
519.47	5.02
519.819	5
520.167	4.95
520.515	4.95
520.863	4.92
521.211	4.97
521.559	4.85
521.907	4.96
522.255	4.9
522.602	4.99
522.95	5.19
523.298	5.07
523.645	5.25
523.993	5.08
524.341	5.05
524.688	5.05
525.036	4.98
525.383	5.08
525.73	5.14
526.078	5.12
526.425	5.01
526.772	4.94
527.119	4.97
527.466	4.84
527.814	4.93
528.161	4.84
528.508	5.02
528.854	4.92
529.201	4.92
529.548	4.92
529.895	4.82
530.242	4.85
530.588	4.71
530.935	4.8
531.282	4.88
531.628	4.85
531.975	4.9
532.321	4.93
532.667	4.88
533.014	4.94
533.36	4.95
533.706	5.03
534.052	4.91
534.399	4.88
534.745	4.97
535.091	4.84
535.437	4.86
535.783	4.87
536.129	4.99
536.474	5.07
536.82	4.99
537.166	4.96
537.512	4.98
537.857	5.04
538.203	4.95
538.549	4.98
538.894	5
539.239	5.07
539.585	5.02
539.93	5.02
540.276	4.97
540.621	5.02
540.966	5.14
541.311	5.03
541.656	5.19
542.001	5.13
542.346	5.03
542.691	4.89
543.036	4.85
543.381	4.74
543.726	4.85
544.071	4.88
544.415	4.93
544.76	4.9
545.105	4.91
545.449	4.83
545.794	4.98
546.138	5.01
546.483	5.04
546.827	5.16
547.171	5.08
547.516	5.01
547.86	5.14
548.204	5.15
548.548	5
548.892	5
549.236	5.02
549.58	5.13
549.924	5.14
550.268	4.99
550.612	5.02
550.956	4.99
551.3	5.11
551.643	5.14
551.987	5.22
552.33	5.23
552.674	5.24
553.017	5.14
553.361	5.05
553.704	4.96
554.048	5.16
554.391	4.92
554.734	5.15
555.077	5.04
555.42	5.15
555.764	5.18
556.107	5.12
556.45	5.23
556.793	5
557.135	5.16
557.478	5.18
557.821	5.16
558.164	5.15
558.507	5.2
558.849	5.23
559.192	5.17
559.534	5.04
559.877	5.22
560.219	5.07
560.562	5.23
560.904	5.26
561.246	5.28
561.589	5.27
561.931	5.18
562.273	5.06
562.615	5.1
562.957	5.28
563.299	5.48
563.641	5.06
563.983	5.56
564.325	5.21
564.667	5.31
565.008	5.36
565.35	5.35
565.692	5.09
566.033	5.23
566.375	5.38
566.716	5.16
567.058	5.19
567.399	5.27
567.741	5
568.082	5.2
568.423	5
568.764	5.16
569.105	5.14
569.447	5.25
569.788	5.14
570.129	5.2
570.47	5.14
570.811	5
571.151	5.13
571.492	5.26
571.833	5.26
572.174	5.25
572.514	5.04
572.855	5
573.195	5.14
573.536	5.18
573.876	5.11
574.217	5.14
574.557	5.32
574.898	5.31
575.238	5.45
575.578	5.28
575.918	5.3
576.258	5.12
576.598	5.29
576.938	5.31
577.278	5.37
577.618	5.29
577.958	5.3
578.298	5.25
578.638	5.27
578.977	5.35
579.317	5.23
579.657	5.21
579.996	5.16
580.336	5.42
580.675	5.27
581.014	5.35
581.354	5.32
581.693	5.5
582.032	4.94
582.372	5.45
582.711	5.08
583.05	5.41
583.389	5.13
583.728	5.55
584.067	5.1
584.406	5.06
584.745	5.23
585.083	5.28
585.422	5.25
585.761	5.4
586.1	5.46
586.438	5.26
586.777	5.37
587.115	5.06
587.454	5.2
587.792	5.18
588.13	5.38
588.469	5.24
588.807	5.39
589.145	5.6
589.483	5.54
589.821	4.99
590.159	5.07
590.497	5.34
590.835	5.3
591.173	5.18
591.511	5.47
591.849	5.5
592.187	5.14
592.524	5.39
592.862	5.31
593.2	5.2
593.537	5.25
593.875	5.35
594.212	5.43
594.55	5.29
594.887	5.38
595.224	5.54
595.561	5.25
595.899	5.05
596.236	5.25
596.573	5.51
596.91	5.25
597.247	5.2
597.584	5.33
597.921	5.39
598.258	5.39
598.594	5.29
598.931	5.38
599.268	5.23
599.604	5.39
599.941	5.34
600.277	5.2
600.614	5.45
600.95	5.37
601.287	5.38
601.623	5.55
601.959	5.45
602.296	5.28
602.632	5.27
602.968	5.34
603.304	5.72
603.64	5.57
603.976	5.69
604.312	5.33
604.648	5.47
604.984	5.34
605.319	5.36
605.655	5.3
605.991	5.29
606.326	5.39
606.662	5.31
606.998	5.26
607.333	5.33
607.668	5.32
608.004	5.31
608.339	5.56
608.674	5.51
609.01	5.23
609.345	5.01
609.68	5.4
610.015	5.51
610.35	5.38
610.685	5.11
611.02	5.22
611.355	5.48
611.689	5.43
612.024	5.44
612.359	5.64
612.694	5.55
613.028	5.54
613.363	5.33
613.697	5.31
614.032	5.46
614.366	5.52
614.7	5.45
615.035	5.46
615.369	5.52
615.703	5.61
616.037	5.33
616.371	5.83
616.705	5.55
617.039	5.85
617.373	5.52
617.707	5.97
618.041	5.62
618.375	5.91
618.709	5.62
619.042	5.29
619.376	5.89
619.71	5.66
620.043	5.52
620.377	5.88
620.71	5.89
621.043	5.38
621.377	4.96
621.71	5.89
622.043	5.57
622.376	5.4
622.709	5.73
623.043	5.58
623.376	5.78
623.709	5.68
624.041	5.65
624.374	5.72
624.707	5.36
625.04	5.71
625.373	5.47
625.705	5.77
626.038	5.48
626.37	6.01
626.703	5.81
627.035	5.53
627.368	5.64
627.7	5.7
628.032	5.69
628.365	5.82
628.697	5.65
629.029	5.58
629.361	5.55
629.693	5.49
630.025	5.67
630.357	5.35
630.689	5.52
631.021	5.6
631.353	5.48
631.684	5.84
632.016	5.62
632.348	5.72
632.679	6.02
633.011	5.38
633.342	6.14
633.674	5.72
634.005	5.71
634.336	6.07
634.668	5.63
634.999	5.72
635.33	5.63
635.661	5.65
635.992	5.89
636.323	5.79
636.654	5.81
636.985	5.4
637.316	5.62
637.647	5.87
637.977	5.89
638.308	5.86
638.639	5.6
638.969	5.66
639.3	6.04
639.63	5.71
639.961	5.95
640.291	5.88
640.622	5.84
640.952	5.8
641.282	5.93
641.612	5.96
641.943	5.87
642.273	5.56
642.603	6.09
642.933	5.8
643.263	6
643.592	5.97
643.922	5.84
644.252	5.59
644.582	5.62
644.911	5.76
645.241	5.71
645.571	6.1
645.9	5.35
646.23	5.65
646.559	5.75
646.888	5.56
647.218	6.16
647.547	5.9
647.876	6.13
648.205	5.67
648.534	5.77
648.863	6.24
649.192	5.93
649.521	5.71
649.85	5.82
650.179	6.11
650.508	5.86
650.837	5.41
651.165	6.06
651.494	5.8
651.822	5.9
652.151	6.17
652.479	6.58
652.808	5.94
653.136	6
653.465	5.84
653.793	5.69
654.121	5.88
654.449	5.88
654.777	5.9
655.105	5.81
655.433	6.11
655.761	5.61
656.089	5.97
656.417	5.95
656.745	6.2
657.073	6.43
657.4	6.13
657.728	6.24
658.056	6.07
658.383	5.31
658.711	6.44
659.038	6.14
659.365	6.21
659.693	6.19
660.02	5.74
660.347	6.17
660.674	6.19
661.001	5.91
661.329	6.32
661.656	6.03
661.982	6.02
662.309	6.64
662.636	6.25
662.963	6.39
663.29	5.79
663.616	5.25
663.943	5.83
664.27	6.49
664.596	6.4
664.923	6.27
665.249	6.52
665.576	5.96
665.902	5.73
666.228	5.94
666.554	6.42
666.881	6.28
667.207	6.24
667.533	5.77
667.859	6.14
668.185	6.64
668.511	6.39
668.837	6.34
669.162	6.52
669.488	6.29
669.814	5.74
670.139	5.97
670.465	6.5
670.791	6.34
671.116	6.37
671.442	6.55
671.767	6.5
672.092	6.06
672.418	5.68
672.743	5.68
673.068	6.22
673.393	6.17
673.718	6.18
674.043	6.6
674.368	6.92
674.693	6.1
675.018	6.98
675.343	5.87
675.667	6.24
675.992	6.03
676.317	6.34
676.641	6.42
676.966	6.57
677.29	5.47
677.615	6.44
677.939	6.03
678.264	6.38
678.588	6.32
678.912	6.32
679.236	6.07
679.56	6.51
679.885	6.47
680.209	6.54
680.532	6.32
680.856	6.2
681.18	6.68
681.504	6.62
681.828	6.54
682.152	5.99
682.475	6.65
682.799	6.53
683.122	6.56
683.446	5.99
683.769	6.73
684.093	6.42
684.416	5.94
684.739	7.23
685.062	6.69
685.386	6.51
685.709	6.49
686.032	6.33
686.355	5.81
686.678	6.16
687.001	6.71
687.324	5.74
687.646	6.57
687.969	6.79
688.292	7.08
688.614	6.76
688.937	6.84
689.26	5.89
689.582	5.41
689.904	5.97
690.227	6.47
690.549	6.13
690.871	6.27
691.194	6.51
691.516	6.11
691.838	7.19
692.16	7.66
692.482	7.88
692.804	6.27
693.126	6.06
