Data from 0357_chest_Reflection__1__84.txt Node

Date: Mon Dec 11 18:35:12 CST 2023
User: ToomeyLab
Spectrometer: FLMS14357
Trigger mode: 0
Integration Time (sec): 1.000000E-2
Scans to average: 100
Electric dark correction enabled: true
Nonlinearity correction enabled: false
Boxcar width: 0
XAxis mode: Wavelengths
Number of Pixels in Spectrum: 2048
>>>>>Begin Spectral Data<<<<<
189.047	-426.73
189.435	-426.73
189.823	-426.73
190.211	936
190.599	215.29
190.987	83.72
191.375	169.17
191.763	172.35
192.151	56.47
192.538	130.7
192.926	-1498.97
193.314	45.78
193.702	57.55
194.089	-4485.71
194.477	203.78
194.864	-34.55
195.252	110.78
195.639	521.29
196.027	15.24
196.414	56.34
196.801	127.4
197.189	135.8
197.576	69.4
197.963	-434.92
198.351	55.06
198.738	34.84
199.125	-5.47
199.512	38.68
199.899	15.42
200.286	15.09
200.673	-248.32
201.06	28.4
201.447	-19.62
201.833	7.66
202.22	21.65
202.607	24.69
202.994	1.05
203.38	-102.67
203.767	56.99
204.154	40.38
204.54	0.94
204.927	-11.5
205.313	-8.19
205.699	-59.62
206.086	-31.35
206.472	81.74
206.858	21.94
207.245	-4.89
207.631	14.19
208.017	34.57
208.403	22.91
208.789	-7.15
209.175	18.19
209.561	-31.3
209.947	11.6
210.333	30.43
210.719	23.83
211.105	5.08
211.491	37.89
211.876	24.95
212.262	-12.8
212.648	17.3
213.034	-12.6
213.419	-0.87
213.805	-7.23
214.19	-3.31
214.576	19.91
214.961	10.52
215.346	14.18
215.732	12.15
216.117	10.84
216.502	-13.27
216.888	6.44
217.273	10.08
217.658	-11.29
218.043	26.09
218.428	38.56
218.813	20.17
219.198	16.79
219.583	9.77
219.968	-1.67
220.353	-16.02
220.738	49.37
221.122	23.62
221.507	13.13
221.892	13.5
222.276	-7.55
222.661	-2.46
223.046	3.82
223.43	8.52
223.815	8.39
224.199	2.1
224.583	-8.46
224.968	4.45
225.352	8.82
225.736	0.62
226.121	8.42
226.505	3.8
226.889	3.88
227.273	7.77
227.657	13.64
228.041	3.26
228.425	3.77
228.809	3.09
229.193	4.55
229.577	9.28
229.961	6.19
230.344	5.32
230.728	4.32
231.112	4.61
231.495	4.93
231.879	4.14
232.263	3.77
232.646	3.25
233.03	3.61
233.413	6.71
233.797	6.53
234.18	6.85
234.563	5.71
234.946	2.89
235.33	6.14
235.713	5.7
236.096	5.95
236.479	6.9
236.862	3.74
237.245	3.56
237.628	3.88
238.011	4.25
238.394	4.83
238.777	4.32
239.16	4.6
239.543	4.37
239.925	4.09
240.308	5.33
240.691	4.75
241.073	4.98
241.456	4.8
241.838	5.38
242.221	5.42
242.603	3.97
242.986	3.76
243.368	4.76
243.75	4.78
244.133	4.92
244.515	3.97
244.897	3.94
245.279	3.78
245.661	3.97
246.043	4.37
246.425	4.47
246.807	4.93
247.189	4.87
247.571	4.57
247.953	4.03
248.335	4.47
248.717	3.84
249.098	3.97
249.48	3.76
249.862	4.21
250.243	4.13
250.625	3.75
251.006	4.14
251.388	3.79
251.769	5.17
252.151	5.05
252.532	5.21
252.913	4.13
253.295	4.12
253.676	3.89
254.057	3.95
254.438	4.51
254.819	3.81
255.2	3.37
255.581	3.26
255.962	4.72
256.343	4.47
256.724	5.05
257.105	5.04
257.486	3.31
257.867	5.25
258.247	3.94
258.628	3.4
259.009	4.84
259.389	4.97
259.77	4.3
260.15	4.36
260.531	3.33
260.911	3.35
261.292	3.66
261.672	3.83
262.052	3.61
262.432	3.82
262.813	3.84
263.193	3.15
263.573	3.64
263.953	3.7
264.333	2.94
264.713	4.41
265.093	3.3
265.473	4.3
265.853	4.31
266.233	3
266.612	3.94
266.992	4.11
267.372	4.19
267.752	3.93
268.131	3.86
268.511	3.58
268.89	3.99
269.27	4.3
269.649	3.84
270.029	4.3
270.408	3.67
270.787	3.94
271.167	2.82
271.546	3.82
271.925	4.14
272.304	3.65
272.683	3.48
273.062	3.4
273.441	3.38
273.82	3.4
274.199	3.7
274.578	3.76
274.957	4.05
275.336	3.26
275.715	3.7
276.093	4.08
276.472	3.9
276.851	4.07
277.229	4.22
277.608	3.83
277.986	3.65
278.365	3.11
278.743	3.79
279.122	4.07
279.5	3.3
279.878	3.42
280.257	3.64
280.635	3.89
281.013	2.99
281.391	4.25
281.769	3.17
282.147	3.56
282.525	3.6
282.903	3.57
283.281	3.33
283.659	3.03
284.037	3.28
284.415	3.55
284.792	3.89
285.17	3.75
285.548	3.63
285.925	3.47
286.303	3.48
286.68	3.29
287.058	3.74
287.435	3.66
287.813	3.96
288.19	3.4
288.567	3.14
288.945	3.76
289.322	3.18
289.699	3.89
290.076	3.27
290.453	3.54
290.83	4.01
291.207	3.79
291.584	3.84
291.961	3.52
292.338	3.68
292.715	3.86
293.092	3.48
293.469	4
293.845	4.13
294.222	4.07
294.599	3.68
294.975	2.91
295.352	3.97
295.728	3.59
296.105	3.43
296.481	3.19
296.858	3.4
297.234	4.04
297.61	4.1
297.986	4.13
298.363	3.49
298.739	3.85
299.115	3.48
299.491	3.79
299.867	3.59
300.243	3.78
300.619	3.47
300.995	3.4
301.371	3.85
301.746	3.13
302.122	3.28
302.498	4.03
302.874	4.11
303.249	3.63
303.625	3.57
304	3.59
304.376	3.74
304.751	3.62
305.127	4.08
305.502	3.97
305.878	3.9
306.253	3.81
306.628	3.8
307.003	4.07
307.378	3.65
307.754	4.39
308.129	3.63
308.504	3.56
308.879	3.91
309.254	4.56
309.629	4.45
310.003	3.86
310.378	3.73
310.753	3.98
311.128	4.08
311.502	3.66
311.877	3.86
312.252	3.99
312.626	3.87
313.001	4.02
313.375	3.16
313.75	3.66
314.124	4.07
314.498	3.34
314.873	4.11
315.247	3.32
315.621	4.7
315.995	4.64
316.369	3.98
316.743	4.12
317.117	3.7
317.491	4.18
317.865	3.85
318.239	3.88
318.613	4.16
318.987	4.65
319.361	4.3
319.734	3.47
320.108	3.63
320.482	3.38
320.855	4.06
321.229	4.22
321.602	4.15
321.976	4.65
322.349	3.72
322.723	3.9
323.096	4.38
323.469	4.21
323.843	4.11
324.216	5.13
324.589	4.42
324.962	3.57
325.335	4.12
325.708	4.48
326.081	4.8
326.454	4.33
326.827	3.78
327.2	3.62
327.573	3.68
327.945	4.75
328.318	4.07
328.691	4.03
329.063	3.93
329.436	3.98
329.809	3.68
330.181	4.69
330.553	4.75
330.926	3.82
331.298	4.36
331.671	3.91
332.043	4.49
332.415	4.18
332.787	4.51
333.159	3.67
333.532	3.91
333.904	3.97
334.276	4.35
334.648	4.41
335.02	4.29
335.391	3.84
335.763	4.31
336.135	4.16
336.507	3.97
336.879	4.24
337.25	4.18
337.622	3.78
337.993	4.21
338.365	3.92
338.736	3.88
339.108	4.33
339.479	4.2
339.851	4.02
340.222	3.76
340.593	3.53
340.964	4.15
341.336	3.71
341.707	3.96
342.078	4.38
342.449	4.05
342.82	3.59
343.191	4.08
343.562	4.26
343.933	3.8
344.303	3.65
344.674	3.78
345.045	4.34
345.416	3.27
345.786	4.45
346.157	4.1
346.527	4.23
346.898	4.3
347.268	4.02
347.639	4.11
348.009	4.12
348.38	4.01
348.75	4.1
349.12	4.15
349.49	3.92
349.861	4.12
350.231	3.6
350.601	4.4
350.971	4.35
351.341	3.75
351.711	4.29
352.081	3.93
352.45	4.17
352.82	3.79
353.19	4.41
353.56	3.76
353.929	4.11
354.299	4.13
354.669	4.69
355.038	4.1
355.408	3.61
355.777	4.12
356.147	4.2
356.516	4.14
356.885	4.1
357.254	4.03
357.624	3.9
357.993	3.92
358.362	4.58
358.731	3.83
359.1	4.06
359.469	4.17
359.838	4.13
360.207	4.09
360.576	3.8
360.945	4.33
361.314	4.43
361.682	3.87
362.051	4.25
362.42	4.33
362.788	3.99
363.157	4.06
363.525	3.84
363.894	4.08
364.262	4.05
364.631	4.15
364.999	3.93
365.367	4.11
365.735	4.2
366.104	4.02
366.472	4.32
366.84	4
367.208	3.74
367.576	4.37
367.944	4.35
368.312	4.09
368.68	4.37
369.048	3.91
369.416	3.71
369.783	4.17
370.151	4.57
370.519	4.26
370.886	4.02
371.254	4.48
371.621	4.1
371.989	4.54
372.356	3.94
372.724	4.33
373.091	4.44
373.458	4.28
373.826	4.31
374.193	4.15
374.56	4.4
374.927	4.35
375.294	4.4
375.661	4.39
376.028	4.62
376.395	4.17
376.762	4.3
377.129	4.3
377.496	4.35
377.863	4.32
378.229	4.26
378.596	4.64
378.963	4.4
379.329	4.26
379.696	4.55
380.062	4.29
380.429	4.31
380.795	4.48
381.161	4.01
381.528	4.77
381.894	4.22
382.26	4.36
382.626	4.21
382.993	4.51
383.359	4.06
383.725	4.17
384.091	4.05
384.457	4.01
384.823	4.59
385.188	4.25
385.554	3.99
385.92	4.15
386.286	4.43
386.651	4.42
387.017	4.44
387.383	4.05
387.748	4.31
388.114	4.17
388.479	4.33
388.845	4.45
389.21	4.1
389.575	4.39
389.94	4.25
390.306	4.58
390.671	4.59
391.036	4.43
391.401	4.57
391.766	4.15
392.131	4.29
392.496	4.6
392.861	4.66
393.226	4.39
393.591	4.53
393.956	4.33
394.32	4.42
394.685	4.36
395.05	4.58
395.414	4.62
395.779	4.12
396.143	4.41
396.508	4.16
396.872	4.55
397.236	4.38
397.601	4.27
397.965	4.39
398.329	4.63
398.694	4.45
399.058	4.34
399.422	4.34
399.786	4.26
400.15	4.29
400.514	4.76
400.878	4.4
401.242	4.51
401.605	4.39
401.969	4.38
402.333	4.22
402.697	4.27
403.06	4.54
403.424	4.39
403.787	4.43
404.151	4.45
404.514	4.2
404.878	4.68
405.241	4.21
405.604	4.25
405.968	4.45
406.331	4.53
406.694	4.36
407.057	4.46
407.42	4.5
407.783	4.45
408.146	4.43
408.509	4.25
408.872	4.37
409.235	4.46
409.598	4.41
409.961	4.59
410.323	4.74
410.686	4.45
411.049	4.62
411.411	4.72
411.774	4.62
412.136	4.6
412.499	4.7
412.861	4.47
413.223	4.4
413.586	4.67
413.948	4.75
414.31	4.45
414.672	4.31
415.035	4.2
415.397	4.49
415.759	4.59
416.121	4.5
416.483	4.64
416.845	4.72
417.206	4.49
417.568	4.62
417.93	4.7
418.292	4.37
418.653	4.37
419.015	4.62
419.377	4.62
419.738	4.4
420.1	4.41
420.461	4.36
420.822	4.41
421.184	4.41
421.545	4.43
421.906	4.34
422.267	4.44
422.629	4.35
422.99	4.38
423.351	4.26
423.712	4.36
424.073	4.37
424.434	4.36
424.795	4.54
425.155	4.4
425.516	4.33
425.877	4.22
426.238	4.44
426.598	4.39
426.959	4.4
427.32	4.39
427.68	4.52
428.041	4.33
428.401	4.31
428.761	4.51
429.122	4.21
429.482	4.4
429.842	4.59
430.202	4.64
430.563	4.47
430.923	4.5
431.283	4.64
431.643	4.65
432.003	4.55
432.363	4.65
432.722	4.58
433.082	4.42
433.442	4.56
433.802	4.49
434.161	4.57
434.521	4.6
434.881	4.55
435.24	4.45
435.6	4.47
435.959	4.49
436.319	4.54
436.678	4.65
437.037	4.5
437.396	4.66
437.756	4.57
438.115	4.75
438.474	4.75
438.833	4.63
439.192	4.72
439.551	4.55
439.91	4.54
440.269	4.74
440.628	4.46
440.987	4.9
441.345	4.51
441.704	4.71
442.063	4.47
442.421	4.59
442.78	4.6
443.138	4.44
443.497	4.58
443.855	4.45
444.214	4.69
444.572	4.61
444.93	4.74
445.288	4.56
445.647	4.73
446.005	4.54
446.363	4.54
446.721	4.65
447.079	4.6
447.437	4.62
447.795	4.52
448.153	4.58
448.51	4.6
448.868	4.41
449.226	4.52
449.584	4.65
449.941	4.59
450.299	4.58
450.656	4.56
451.014	4.67
451.371	4.65
451.729	4.84
452.086	4.73
452.443	4.83
452.801	4.84
453.158	4.61
453.515	4.55
453.872	4.75
454.229	4.72
454.586	4.79
454.943	4.74
455.3	4.69
455.657	4.83
456.014	4.8
456.371	4.73
456.727	4.68
457.084	4.66
457.441	4.76
457.797	4.67
458.154	4.73
458.51	4.91
458.867	4.43
459.223	4.66
459.58	4.82
459.936	4.79
460.292	4.88
460.648	4.81
461.005	4.78
461.361	4.66
461.717	4.63
462.073	4.62
462.429	4.63
462.785	4.54
463.141	4.61
463.496	4.79
463.852	4.91
464.208	4.72
464.564	4.91
464.919	4.83
465.275	4.63
465.631	4.65
465.986	4.9
466.342	4.94
466.697	4.8
467.052	4.69
467.408	4.85
467.763	4.92
468.118	4.59
468.473	4.66
468.829	4.78
469.184	5.14
469.539	4.85
469.894	4.72
470.249	4.81
470.603	4.75
470.958	4.86
471.313	4.87
471.668	5.03
472.023	5.01
472.377	4.83
472.732	4.69
473.086	4.9
473.441	4.78
473.795	4.8
474.15	4.79
474.504	4.97
474.859	4.89
475.213	4.74
475.567	5.01
475.921	4.79
476.275	4.7
476.63	4.96
476.984	4.81
477.338	4.88
477.692	4.98
478.045	4.82
478.399	4.77
478.753	4.6
479.107	4.91
479.461	4.96
479.814	4.81
480.168	4.95
480.521	4.98
480.875	4.89
481.228	4.91
481.582	5.04
481.935	4.91
482.289	4.98
482.642	4.96
482.995	4.87
483.348	4.79
483.701	4.89
484.055	4.87
484.408	4.83
484.761	4.82
485.114	4.71
485.466	4.63
485.819	4.51
486.172	4.56
486.525	4.59
486.878	4.67
487.23	4.67
487.583	4.77
487.936	4.75
488.288	4.86
488.641	4.74
488.993	4.69
489.345	4.75
489.698	4.67
490.05	4.66
490.402	4.65
490.754	4.77
491.107	4.84
491.459	4.82
491.811	4.91
492.163	4.9
492.515	5
492.866	4.85
493.218	4.79
493.57	4.78
493.922	4.69
494.274	4.76
494.625	4.86
494.977	4.94
495.328	4.97
495.68	5.07
496.031	4.96
496.383	5.01
496.734	4.95
497.086	5.19
497.437	5.04
497.788	5.19
498.139	5.06
498.49	5.02
498.842	5.14
499.193	5.1
499.544	4.95
499.894	5.08
500.245	5.02
500.596	5.29
500.947	5.03
501.298	5.04
501.648	4.96
501.999	4.95
502.35	5.1
502.7	5.24
503.051	5.12
503.401	5.15
503.752	5.1
504.102	5.13
504.452	5.18
504.803	5.27
505.153	5.27
505.503	5.4
505.853	5.26
506.203	5.01
506.553	5.25
506.903	5.16
507.253	5.28
507.603	5.2
507.953	5.34
508.303	5.24
508.652	5.2
509.002	5.15
509.352	5.41
509.701	5.28
510.051	5.26
510.4	5.17
510.75	5.18
511.099	5.18
511.449	5.23
511.798	5.15
512.147	5.3
512.496	5.28
512.846	5.32
513.195	5.46
513.544	5.29
513.893	5.16
514.242	5.34
514.591	5.11
514.939	5.19
515.288	5.34
515.637	5.19
515.986	5.22
516.334	5.31
516.683	5.46
517.032	5.43
517.38	5.47
517.729	5.36
518.077	5.57
518.426	5.43
518.774	5.42
519.122	5.32
519.47	5.39
519.819	5.3
520.167	5.32
520.515	5.3
520.863	5.29
521.211	5.28
521.559	5.32
521.907	5.31
522.255	5.29
522.602	5.33
522.95	5.45
523.298	5.3
523.645	5.65
523.993	5.44
524.341	5.58
524.688	5.44
525.036	5.41
525.383	5.45
525.73	5.71
526.078	5.68
526.425	5.44
526.772	5.43
527.119	5.5
527.466	5.4
527.814	5.38
528.161	5.41
528.508	5.46
528.854	5.47
529.201	5.43
529.548	5.42
529.895	5.38
530.242	5.32
530.588	5.27
530.935	5.3
531.282	5.36
531.628	5.3
531.975	5.41
532.321	5.51
532.667	5.5
533.014	5.45
533.36	5.48
533.706	5.7
534.052	5.6
534.399	5.55
534.745	5.61
535.091	5.53
535.437	5.48
535.783	5.57
536.129	5.63
536.474	5.64
536.82	5.71
537.166	5.74
537.512	5.64
537.857	5.76
538.203	5.62
538.549	5.71
538.894	5.81
539.239	5.8
539.585	5.71
539.93	5.79
540.276	5.97
540.621	5.85
540.966	5.88
541.311	5.91
541.656	5.85
542.001	5.94
542.346	5.87
542.691	5.78
543.036	5.67
543.381	5.63
543.726	5.65
544.071	5.75
544.415	5.74
544.76	5.78
545.105	5.86
545.449	5.86
545.794	5.92
546.138	5.97
546.483	5.97
546.827	6.14
547.171	6.09
547.516	6.11
547.86	6.1
548.204	6.09
548.548	6.04
548.892	6.13
549.236	6.05
549.58	6.12
549.924	6.21
550.268	6.06
550.612	6.21
550.956	6.1
551.3	6.24
551.643	6.29
551.987	6.39
552.33	6.51
552.674	6.47
553.017	6.5
553.361	6.14
553.704	6.29
554.048	6.32
554.391	6.32
554.734	6.35
555.077	6.33
555.42	6.45
555.764	6.38
556.107	6.57
556.45	6.66
556.793	6.35
557.135	6.49
557.478	6.74
557.821	6.5
558.164	6.65
558.507	6.53
558.849	6.62
559.192	6.52
559.534	6.69
559.877	6.71
560.219	6.76
560.562	6.73
560.904	6.99
561.246	6.63
561.589	6.91
561.931	6.84
562.273	6.57
562.615	6.81
562.957	6.99
563.299	6.82
563.641	6.84
563.983	7.14
564.325	6.94
564.667	7.02
565.008	6.88
565.35	7.34
565.692	7.05
566.033	7.01
566.375	7.05
566.716	6.9
567.058	6.98
567.399	7.01
567.741	6.92
568.082	7.02
568.423	6.92
568.764	7.02
569.105	6.96
569.447	7.05
569.788	6.92
570.129	7.06
570.47	6.95
570.811	6.95
571.151	7.2
571.492	7.39
571.833	7.19
572.174	7.44
572.514	7.3
572.855	7.26
573.195	7.26
573.536	7.36
573.876	7.29
574.217	7.21
574.557	7.24
574.898	7.48
575.238	7.51
575.578	7.41
575.918	7.62
576.258	7.45
576.598	7.6
576.938	7.39
577.278	7.61
577.618	7.53
577.958	7.57
578.298	7.67
578.638	7.79
578.977	7.66
579.317	7.79
579.657	7.49
579.996	7.55
580.336	7.95
580.675	7.83
581.014	7.96
581.354	7.7
581.693	7.82
582.032	7.76
582.372	8.09
582.711	7.79
583.05	8.06
583.389	7.8
583.728	8.09
584.067	7.91
584.406	7.92
584.745	8.13
585.083	8.23
585.422	8
585.761	8.46
586.1	8.07
586.438	8.15
586.777	8.27
587.115	7.95
587.454	8.17
587.792	8.3
588.13	8.43
588.469	8.37
588.807	8.42
589.145	8.7
589.483	8.38
589.821	8.32
590.159	8.59
590.497	8.36
590.835	8.5
591.173	8.54
591.511	8.64
591.849	8.77
592.187	8.22
592.524	8.34
592.862	8.43
593.2	8.24
593.537	8.61
593.875	8.85
594.212	8.55
594.55	8.45
594.887	8.73
595.224	9.01
595.561	8.67
595.899	8.7
596.236	8.83
596.573	8.83
596.91	8.72
597.247	9
597.584	8.79
597.921	8.65
598.258	8.81
598.594	8.97
598.931	8.89
599.268	8.91
599.604	9.18
599.941	9.17
600.277	9
600.614	9.23
600.95	8.82
601.287	9.1
601.623	9.02
601.959	9.31
602.296	9.06
602.632	9.12
602.968	9.3
603.304	9.32
603.64	9.6
603.976	9.29
604.312	9.6
604.648	9.56
604.984	9.67
605.319	9.41
605.655	9.49
605.991	9.25
606.326	9.43
606.662	9.48
606.998	9.45
607.333	9.49
607.668	9.62
608.004	9.64
608.339	9.77
608.674	9.82
609.01	9.4
609.345	9.77
609.68	9.8
610.015	9.89
610.35	9.67
610.685	9.63
611.02	9.65
611.355	9.84
611.689	9.93
612.024	9.64
612.359	9.89
612.694	9.93
613.028	9.9
613.363	9.77
613.697	9.99
614.032	10.05
614.366	10.51
614.7	10.17
615.035	10.35
615.369	10.12
615.703	10.53
616.037	10.34
616.371	10.39
616.705	10.43
617.039	10.64
617.373	10.5
617.707	10.2
618.041	10.66
618.375	10.83
618.709	10.46
619.042	10.53
619.376	10.78
619.71	10.62
620.043	10.47
620.377	10.7
620.71	10.81
621.043	10.57
621.377	10.27
621.71	10.98
622.043	10.6
622.376	10.95
622.709	10.97
623.043	10.93
623.376	10.83
623.709	11
624.041	11.37
624.374	10.84
624.707	10.6
625.04	11.79
625.373	10.99
625.705	11.22
626.038	11.03
626.37	11.32
626.703	11.1
627.035	11.18
627.368	11.12
627.7	11.19
628.032	11.29
628.365	11.35
628.697	11.14
629.029	11.34
629.361	11.35
629.693	11.38
630.025	11.12
630.357	11.08
630.689	11.07
631.021	11.37
631.353	11.27
631.684	11.42
632.016	11.63
632.348	11.54
632.679	11.79
633.011	11.57
633.342	12.05
633.674	12.14
634.005	11.93
634.336	12.11
634.668	11.79
634.999	12.2
635.33	11.91
635.661	11.94
635.992	12.02
636.323	12.05
636.654	12.47
636.985	11.7
637.316	12.06
637.647	12.22
637.977	12.55
638.308	12.51
638.639	12.01
638.969	11.86
639.3	11.94
639.63	11.89
639.961	12.32
640.291	12.5
640.622	11.82
640.952	12.57
641.282	12.18
641.612	12.6
641.943	12.6
642.273	12.54
642.603	12.53
642.933	12.63
643.263	12.59
643.592	12.38
643.922	12.8
644.252	12.21
644.582	12.79
644.911	13.2
645.241	12.75
645.571	13.03
645.9	13.07
646.23	13.09
646.559	12.91
646.888	12.53
647.218	13.09
647.547	12.93
647.876	13.06
648.205	13.09
648.534	12.96
648.863	12.99
649.192	12.96
649.521	12.81
649.85	13.48
650.179	13.42
650.508	13.25
650.837	12.87
651.165	14.05
651.494	13.78
651.822	13.76
652.151	13.51
652.479	13.71
652.808	14
653.136	13.74
653.465	13.39
653.793	14.02
654.121	13.74
654.449	13.44
654.777	13.66
655.105	13.39
655.433	13.67
655.761	13.67
656.089	13.78
656.417	13.86
656.745	14.27
657.073	13.69
657.4	14
657.728	14.04
658.056	14.36
658.383	13.73
658.711	14.37
659.038	14.07
659.365	14.46
659.693	13.89
660.02	14.44
660.347	14.35
660.674	14.23
661.001	13.8
661.329	14.16
661.656	14.19
661.982	14.34
662.309	14.63
662.636	14.38
662.963	14.6
663.29	13.86
663.616	13.97
663.943	14.13
664.27	14.4
664.596	15.25
664.923	14.39
665.249	15.04
665.576	14.17
665.902	14.51
666.228	15.03
666.554	14.6
666.881	14.61
667.207	15.55
667.533	14.52
667.859	14.6
668.185	15.26
668.511	15.52
668.837	15.48
669.162	15.66
669.488	15.47
669.814	14.76
670.139	14.98
670.465	15.69
670.791	15.47
671.116	15.28
671.442	15.52
671.767	15.35
672.092	14.69
672.418	15.57
672.743	15.01
673.068	15.39
673.393	15.54
673.718	14.86
674.043	15.9
674.368	15.45
674.693	15.06
675.018	16.64
675.343	15.74
675.667	15.44
675.992	16.3
676.317	15.34
676.641	16.1
676.966	16.09
677.29	15.57
677.615	16.47
677.939	15.89
678.264	15.83
678.588	16.11
678.912	14.91
679.236	15.42
679.56	16.41
679.885	16.08
680.209	15.71
680.532	16.42
680.856	16.72
681.18	16.05
681.504	16.24
681.828	15.96
682.152	15.33
682.475	16.6
682.799	16.15
683.122	16.29
683.446	15.8
683.769	16.47
684.093	16.42
684.416	16.14
684.739	16.57
685.062	16.94
685.386	16.59
685.709	16.67
686.032	16.72
686.355	16.61
686.678	16.89
687.001	16.47
687.324	16.58
687.646	16.33
687.969	16.93
