Data from 0357_forehead_Reflection__4__98.txt Node

Date: Mon Dec 11 18:51:36 CST 2023
User: ToomeyLab
Spectrometer: FLMS14357
Trigger mode: 0
Integration Time (sec): 1.000000E-2
Scans to average: 100
Electric dark correction enabled: true
Nonlinearity correction enabled: false
Boxcar width: 0
XAxis mode: Wavelengths
Number of Pixels in Spectrum: 2048
>>>>>Begin Spectral Data<<<<<
189.047	-659.22
189.435	-659.22
189.823	-659.22
190.211	113.43
190.599	304.9
190.987	118.21
191.375	233.89
191.763	162.73
192.151	-6.97
192.538	-47.88
192.926	-913.92
193.314	-13.59
193.702	299.84
194.089	251.59
194.477	63.3
194.864	134.69
195.252	261.91
195.639	-108.63
196.027	152.73
196.414	17.68
196.801	41.11
197.189	110.03
197.576	91.14
197.963	696.03
198.351	-109.9
198.738	-37.43
199.125	-47.35
199.512	1.61
199.899	49.47
200.286	11.65
200.673	-219.95
201.06	21.03
201.447	17.43
201.833	49.79
202.22	82.89
202.607	49.59
202.994	-31.74
203.38	-22.16
203.767	51.77
204.154	36.69
204.54	-41.72
204.927	-16.82
205.313	22.27
205.699	-48.94
206.086	-22.89
206.472	14.82
206.858	7.16
207.245	-11.49
207.631	-18.89
208.017	24.84
208.403	-11.7
208.789	13.75
209.175	32.46
209.561	-6.22
209.947	0.38
210.333	21.4
210.719	43.87
211.105	28.9
211.491	45.21
211.876	-4.74
212.262	2.29
212.648	0.87
213.034	-6.29
213.419	17.6
213.805	-5.04
214.19	7.37
214.576	15.96
214.961	9.32
215.346	-5.69
215.732	9.77
216.117	21.93
216.502	16.46
216.888	18.12
217.273	25.32
217.658	12.11
218.043	20.52
218.428	1.28
218.813	24.48
219.198	22.45
219.583	13.83
219.968	19.14
220.353	3.12
220.738	50.95
221.122	17.56
221.507	35.27
221.892	8.05
222.276	-0.56
222.661	-32.75
223.046	5.24
223.43	11.7
223.815	7.8
224.199	-0.6
224.583	5.42
224.968	-3.7
225.352	13.4
225.736	3.15
226.121	1.52
226.505	0.88
226.889	11.61
227.273	8.77
227.657	19.02
228.041	8.71
228.425	-1.28
228.809	1.82
229.193	5.25
229.577	5.88
229.961	4.64
230.344	4.28
230.728	4.38
231.112	4.95
231.495	3.95
231.879	4.28
232.263	3.15
232.646	4.07
233.03	4.02
233.413	4.16
233.797	5.23
234.18	5.93
234.563	5.32
234.946	4.79
235.33	6.01
235.713	1.95
236.096	5.66
236.479	4.94
236.862	4
237.245	5.01
237.628	4.73
238.011	4.32
238.394	5.07
238.777	5.09
239.16	4.26
239.543	2.39
239.925	4.08
240.308	5.53
240.691	3.51
241.073	5.25
241.456	5.12
241.838	6.63
242.221	5.15
242.603	3.99
242.986	4.7
243.368	3.99
243.75	4.44
244.133	4.38
244.515	4.43
244.897	4.33
245.279	4.03
245.661	4.79
246.043	4.15
246.425	4.72
246.807	6.17
247.189	5.24
247.571	4.93
247.953	4.85
248.335	5.06
248.717	4.6
249.098	4.35
249.48	4.46
249.862	4.7
250.243	5.17
250.625	5.01
251.006	4.5
251.388	4.6
251.769	5.18
252.151	5.66
252.532	3.18
252.913	5.21
253.295	5.21
253.676	4.45
254.057	4.28
254.438	5.05
254.819	4.15
255.2	3.58
255.581	4.71
255.962	4.81
256.343	4.74
256.724	5.12
257.105	4.87
257.486	3.75
257.867	5.6
258.247	3.53
258.628	3.58
259.009	5.08
259.389	5.09
259.77	4.17
260.15	3.9
260.531	4.64
260.911	3.84
261.292	4.12
261.672	4.45
262.052	4.55
262.432	4.48
262.813	4.34
263.193	4.58
263.573	4.57
263.953	4.5
264.333	4.62
264.713	4.95
265.093	4.1
265.473	4.69
265.853	4.69
266.233	5.06
266.612	4.74
266.992	5
267.372	5.76
267.752	4.7
268.131	4.34
268.511	4.24
268.89	4.84
269.27	4.89
269.649	4.53
270.029	4.77
270.408	4.19
270.787	4.49
271.167	3.75
271.546	4.46
271.925	4.37
272.304	4.35
272.683	3.99
273.062	3.91
273.441	4.36
273.82	4.44
274.199	4.04
274.578	4.59
274.957	4.74
275.336	4.36
275.715	4.52
276.093	5.06
276.472	4.5
276.851	4.58
277.229	5.25
277.608	4.64
277.986	5.03
278.365	4.56
278.743	4.46
279.122	3.78
279.5	5.03
279.878	4.47
280.257	4.43
280.635	5.39
281.013	3.96
281.391	4.56
281.769	4.25
282.147	4.42
282.525	4.22
282.903	4.85
283.281	4.08
283.659	4.22
284.037	4.33
284.415	4.36
284.792	4.74
285.17	4.37
285.548	4.16
285.925	4.28
286.303	4.52
286.68	4.26
287.058	4.71
287.435	4.66
287.813	4.79
288.19	4.63
288.567	4.22
288.945	4.51
289.322	4.77
289.699	4.23
290.076	4.34
290.453	4.45
290.83	5.34
291.207	4.39
291.584	4.93
291.961	4.77
292.338	5.07
292.715	5.58
293.092	5
293.469	5.23
293.845	4.87
294.222	5.68
294.599	5.05
294.975	5.22
295.352	5.05
295.728	5.24
296.105	5.08
296.481	5.17
296.858	5.7
297.234	6.02
297.61	5.8
297.986	5.71
298.363	5.11
298.739	5.5
299.115	5.31
299.491	5.56
299.867	5.63
300.243	5.86
300.619	5.64
300.995	5.54
301.371	5.88
301.746	5.46
302.122	5.75
302.498	6.41
302.874	5.82
303.249	5.93
303.625	5.92
304	6.16
304.376	6.36
304.751	5.91
305.127	6.41
305.502	6.09
305.878	6.21
306.253	6.77
306.628	6.79
307.003	6.88
307.378	5.94
307.754	7.03
308.129	6.69
308.504	6.25
308.879	6.53
309.254	7.09
309.629	7.14
310.003	7
310.378	7.04
310.753	6.96
311.128	6.88
311.502	6.59
311.877	7.02
312.252	7.08
312.626	7.26
313.001	7.46
313.375	6.75
313.75	7.13
314.124	7.25
314.498	7.06
314.873	7.39
315.247	7.21
315.621	7.62
315.995	7.64
316.369	7.3
316.743	8.04
317.117	8.03
317.491	7.73
317.865	7.93
318.239	7.76
318.613	7.81
318.987	8.18
319.361	8.17
319.734	8.19
320.108	8.32
320.482	7.89
320.855	7.89
321.229	7.8
321.602	8.23
321.976	8.83
322.349	8.61
322.723	8.36
323.096	8.54
323.469	8.7
323.843	9.2
324.216	9.21
324.589	9.12
324.962	8.73
325.335	8.69
325.708	8.25
326.081	8.54
326.454	9.44
326.827	8.65
327.2	8.45
327.573	8.33
327.945	9.15
328.318	9.37
328.691	8.72
329.063	8.59
329.436	9.05
329.809	8.44
330.181	9.05
330.553	9.73
330.926	9.41
331.298	9.25
331.671	8.91
332.043	9.89
332.415	10
332.787	9.8
333.159	10.1
333.532	9.63
333.904	9.31
334.276	10.07
334.648	10.09
335.02	9.62
335.391	9.32
335.763	9.94
336.135	9.77
336.507	9.86
336.879	10.49
337.25	9.16
337.622	9.45
337.993	9.89
338.365	9.56
338.736	9.96
339.108	10.42
339.479	9.88
339.851	10.22
340.222	10.48
340.593	9.56
340.964	10.56
341.336	9.6
341.707	10.02
342.078	10.14
342.449	10.49
342.82	10.18
343.191	10.3
343.562	10.17
343.933	10.31
344.303	10.28
344.674	10.5
345.045	10.72
345.416	9.83
345.786	10.39
346.157	10.43
346.527	10.53
346.898	10.89
347.268	10.53
347.639	10.41
348.009	10.44
348.38	9.92
348.75	10.09
349.12	11.04
349.49	11.03
349.861	10.5
350.231	10.49
350.601	11.03
350.971	11.17
351.341	10.26
351.711	10.75
352.081	10.52
352.45	11.27
352.82	10.76
353.19	11.26
353.56	10.59
353.929	11.08
354.299	11.28
354.669	10.77
355.038	11.07
355.408	10.79
355.777	11.66
356.147	11.18
356.516	11.14
356.885	11.35
357.254	11.38
357.624	11.25
357.993	11.36
358.362	11.77
358.731	11.45
359.1	11.46
359.469	11.35
359.838	11.65
360.207	11.55
360.576	11.59
360.945	11.9
361.314	11.71
361.682	11.64
362.051	11.62
362.42	11.3
362.788	11.33
363.157	11.47
363.525	11.25
363.894	11.94
364.262	11.54
364.631	11.72
364.999	11.57
365.367	12.09
365.735	11.99
366.104	11.76
366.472	11.88
366.84	11.9
367.208	11.73
367.576	12.36
367.944	11.9
368.312	12.18
368.68	11.86
369.048	12.2
369.416	11.98
369.783	12.46
370.151	12.26
370.519	12.49
370.886	12.2
371.254	12.35
371.621	12.12
371.989	12.48
372.356	12.58
372.724	13.05
373.091	12.66
373.458	12.52
373.826	12.35
374.193	12.47
374.56	12.73
374.927	12.73
375.294	12.38
375.661	12.56
376.028	12.82
376.395	12.72
376.762	12.8
377.129	13.13
377.496	12.97
377.863	12.85
378.229	12.72
378.596	12.8
378.963	12.92
379.329	12.71
379.696	13.2
380.062	13.07
380.429	12.95
380.795	13.18
381.161	13.14
381.528	13.09
381.894	13.23
382.26	13.08
382.626	13.19
382.993	13.18
383.359	13.17
383.725	13.05
384.091	13.29
384.457	13.15
384.823	13.53
385.188	13.53
385.554	13.13
385.92	13.51
386.286	13.2
386.651	13.35
387.017	13.32
387.383	13.71
387.748	13.5
388.114	13.46
388.479	13.71
388.845	13.31
389.21	13.68
389.575	13.9
389.94	13.77
390.306	13.83
390.671	13.79
391.036	13.94
391.401	14.13
391.766	13.59
392.131	14
392.496	14.13
392.861	14.15
393.226	13.99
393.591	14.12
393.956	13.96
394.32	14.21
394.685	13.78
395.05	14.07
395.414	14.29
395.779	13.82
396.143	13.97
396.508	13.8
396.872	14.17
397.236	14.08
397.601	13.93
397.965	14.52
398.329	14.27
398.694	14.46
399.058	14.21
399.422	14.52
399.786	14.3
400.15	14.3
400.514	14.37
400.878	14.46
401.242	14.22
401.605	14.61
401.969	14.61
402.333	14.51
402.697	14.59
403.06	14.71
403.424	14.91
403.787	14.87
404.151	14.74
404.514	14.63
404.878	14.8
405.241	14.89
405.604	14.56
405.968	14.74
406.331	14.59
406.694	14.79
407.057	14.98
407.42	15.07
407.783	15.06
408.146	14.79
408.509	14.72
408.872	14.81
409.235	14.89
409.598	14.79
409.961	15.09
410.323	15.22
410.686	15.09
411.049	15.2
411.411	15.2
411.774	15.13
412.136	15.16
412.499	15.25
412.861	15.36
413.223	15.27
413.586	15.47
413.948	15.44
414.31	15.22
414.672	15.14
415.035	15.1
415.397	15.23
415.759	15.54
416.121	15.66
416.483	15.62
416.845	15.58
417.206	15.59
417.568	15.68
417.93	15.52
418.292	15.69
418.653	15.43
419.015	15.48
419.377	15.62
419.738	15.66
420.1	15.32
420.461	15.56
420.822	15.51
421.184	15.37
421.545	15.51
421.906	15.5
422.267	15.46
422.629	15.47
422.99	15.45
423.351	15.38
423.712	15.47
424.073	15.54
424.434	15.63
424.795	15.85
425.155	15.71
425.516	15.62
425.877	15.53
426.238	15.71
426.598	15.68
426.959	15.68
427.32	15.89
427.68	15.9
428.041	15.89
428.401	15.9
428.761	16.09
429.122	15.89
429.482	16.1
429.842	16.38
430.202	16.3
430.563	16.17
430.923	16.47
431.283	16.44
431.643	16.65
432.003	16.45
432.363	16.52
432.722	16.43
433.082	16.52
433.442	16.59
433.802	16.51
434.161	16.81
434.521	16.36
434.881	16.48
435.24	16.62
435.6	16.48
435.959	16.47
436.319	16.62
436.678	16.58
437.037	16.7
437.396	16.78
437.756	16.95
438.115	17.03
438.474	16.99
438.833	16.8
439.192	16.9
439.551	17.14
439.91	16.92
440.269	16.85
440.628	16.68
440.987	17
441.345	17.02
441.704	16.88
442.063	16.75
442.421	16.88
442.78	16.79
443.138	16.85
443.497	16.83
443.855	16.95
444.214	17.15
444.572	17.12
444.93	17.35
445.288	17.16
445.647	17.38
446.005	17.11
446.363	17.33
446.721	17.17
447.079	17.09
447.437	17.29
447.795	17.14
448.153	17.19
448.51	17.17
448.868	17.11
449.226	17.02
449.584	17.27
449.941	17.27
450.299	17.47
450.656	17.4
451.014	17.44
451.371	17.44
451.729	17.74
452.086	17.56
452.443	17.9
452.801	17.85
453.158	17.84
453.515	17.73
453.872	17.89
454.229	17.79
454.586	17.76
454.943	17.95
455.3	17.93
455.657	17.93
456.014	18.05
456.371	18.15
456.727	18.1
457.084	18.08
457.441	18.29
457.797	18.33
458.154	18.22
458.51	18.13
458.867	17.96
459.223	18.21
459.58	18.39
459.936	18.43
460.292	18.14
460.648	18.17
461.005	18.31
461.361	18.09
461.717	18
462.073	17.99
462.429	18.02
462.785	18.09
463.141	18.29
463.496	18.55
463.852	18.39
464.208	18.54
464.564	18.89
464.919	18.64
465.275	18.58
465.631	18.45
465.986	18.74
466.342	18.79
466.697	18.56
467.052	18.66
467.408	19.05
467.763	18.84
468.118	18.82
468.473	18.8
468.829	18.92
469.184	19.32
469.539	18.89
469.894	18.9
470.249	18.99
470.603	19.01
470.958	19.25
471.313	18.95
471.668	19.15
472.023	19.35
472.377	19.12
472.732	19.16
473.086	19.4
473.441	19.22
473.795	19.4
474.15	19.26
474.504	19.15
474.859	19.4
475.213	19.32
475.567	19.26
475.921	19.38
476.275	19.45
476.63	19.39
476.984	19.46
477.338	19.4
477.692	19.55
478.045	19.49
478.399	19.31
478.753	19.35
479.107	19.63
479.461	19.64
479.814	19.38
480.168	19.63
480.521	19.52
480.875	19.56
481.228	19.59
481.582	19.75
481.935	19.65
482.289	19.74
482.642	19.84
482.995	19.53
483.348	19.67
483.701	19.59
484.055	19.73
484.408	19.53
484.761	19.49
485.114	19.31
485.466	18.99
485.819	18.84
486.172	18.85
486.525	18.92
486.878	19
487.23	19.17
487.583	19.42
487.936	19.53
488.288	19.56
488.641	19.41
488.993	19.3
489.345	19.3
489.698	19.22
490.05	19.3
490.402	19.32
490.754	19.48
491.107	19.61
491.459	19.78
491.811	19.93
492.163	19.98
492.515	20.15
492.866	20.1
493.218	19.81
493.57	19.68
493.922	19.58
494.274	19.84
494.625	19.92
494.977	20.19
495.328	20.39
495.68	20.47
496.031	20.56
496.383	20.67
496.734	20.73
497.086	20.71
497.437	20.79
497.788	20.9
498.139	20.84
498.49	20.61
498.842	20.73
499.193	20.8
499.544	20.74
499.894	20.63
500.245	20.87
500.596	21
500.947	20.99
501.298	21
501.648	21.09
501.999	21.13
502.35	21.35
502.7	21.09
503.051	21.18
503.401	21.26
503.752	21.14
504.102	21.34
504.452	21.35
504.803	21.46
505.153	21.31
505.503	21.5
505.853	21.34
506.203	21.31
506.553	21.4
506.903	21.22
507.253	21.47
507.603	21.41
507.953	21.51
508.303	21.48
508.652	21.75
509.002	21.59
509.352	21.93
509.701	21.51
510.051	21.64
510.4	21.48
510.75	21.53
511.099	21.57
511.449	21.6
511.798	21.6
512.147	21.76
512.496	21.74
512.846	21.77
513.195	21.92
513.544	21.89
513.893	21.83
514.242	21.89
514.591	21.87
514.939	21.96
515.288	21.82
515.637	22.08
515.986	21.96
516.334	22.05
516.683	22.21
517.032	22.2
517.38	22.26
517.729	22.21
518.077	22.23
518.426	22.28
518.774	22.4
519.122	22.3
519.47	22.28
519.819	22.18
520.167	22.2
520.515	21.88
520.863	21.99
521.211	22.05
521.559	22.08
521.907	22.26
522.255	22.16
522.602	22.34
522.95	22.47
523.298	22.49
523.645	22.63
523.993	22.62
524.341	22.56
524.688	22.61
525.036	22.62
525.383	22.71
525.73	22.93
526.078	22.77
526.425	22.67
526.772	22.82
527.119	22.63
527.466	22.46
527.814	22.42
528.161	22.26
528.508	22.46
528.854	22.49
529.201	22.54
529.548	22.47
529.895	22.35
530.242	22.16
530.588	22
530.935	22.03
531.282	22.13
531.628	22.21
531.975	22.33
532.321	22.46
532.667	22.61
533.014	22.63
533.36	22.83
533.706	23.04
534.052	22.83
534.399	23.06
534.745	22.9
535.091	22.56
535.437	22.58
535.783	22.57
536.129	22.93
536.474	23.01
536.82	23.03
537.166	23.16
537.512	23.25
537.857	23.22
538.203	23.19
538.549	23.17
538.894	23.28
539.239	23.34
539.585	23.32
539.93	23.5
540.276	23.59
540.621	23.77
540.966	23.87
541.311	23.76
541.656	23.73
542.001	23.96
542.346	23.74
542.691	23.52
543.036	23.21
543.381	23.04
543.726	23.15
544.071	23.28
544.415	23.31
544.76	23.41
545.105	23.56
545.449	23.43
545.794	23.75
546.138	23.79
546.483	23.88
546.827	24.11
547.171	24.03
547.516	23.93
547.86	24.16
548.204	24.11
548.548	24.26
548.892	23.96
549.236	24.28
549.58	24.22
549.924	24.28
550.268	24.32
550.612	24.25
550.956	24.67
551.3	24.69
551.643	24.83
551.987	24.99
552.33	24.91
552.674	24.75
553.017	24.83
553.361	24.68
553.704	24.79
554.048	24.96
554.391	25.08
554.734	24.83
555.077	24.82
555.42	25.06
555.764	24.71
556.107	24.96
556.45	25.07
556.793	25.04
557.135	25.14
557.478	25.07
557.821	25.24
558.164	25.43
558.507	25.14
558.849	25.44
559.192	25.33
559.534	25.29
559.877	25.51
560.219	25.38
560.562	25.54
560.904	25.48
561.246	25.36
561.589	25.48
561.931	25.76
562.273	25.44
562.615	25.43
562.957	25.79
563.299	25.62
563.641	25.59
563.983	26.16
564.325	25.56
564.667	25.69
565.008	25.62
565.35	26.02
565.692	25.83
566.033	26.05
566.375	26.13
566.716	25.96
567.058	25.6
567.399	25.93
567.741	25.75
568.082	25.96
568.423	25.63
568.764	25.79
569.105	25.9
569.447	26.17
569.788	25.89
570.129	26.18
570.47	26.12
570.811	26.11
571.151	26.09
571.492	26.36
571.833	25.96
572.174	26.47
572.514	26.33
572.855	26.13
573.195	26.24
573.536	26.27
573.876	26.27
574.217	26.29
574.557	26.33
574.898	26.3
575.238	26.28
575.578	26.3
575.918	26.45
576.258	26.39
576.598	26.51
576.938	26.63
577.278	26.61
577.618	26.51
577.958	26.58
578.298	26.74
578.638	26.56
578.977	26.78
579.317	26.8
579.657	26.81
579.996	26.82
580.336	26.91
580.675	26.94
581.014	27.07
581.354	27.07
581.693	26.99
582.032	26.75
582.372	27.04
582.711	27.16
583.05	27.05
583.389	27.35
583.728	27.4
584.067	27.04
584.406	27.26
584.745	27.06
585.083	27.49
585.422	27.29
585.761	27.73
586.1	27.43
586.438	27.13
586.777	27.2
587.115	27.4
587.454	27.39
587.792	27.39
588.13	27.48
588.469	27.7
588.807	27.81
589.145	27.8
589.483	27.78
589.821	27.2
590.159	27.45
590.497	27.86
590.835	27.61
591.173	27.84
591.511	28.01
591.849	27.59
592.187	27.57
592.524	27.57
592.862	27.78
593.2	27.21
593.537	27.7
593.875	28.34
594.212	28.06
594.55	27.88
594.887	27.98
595.224	28.16
595.561	28.11
595.899	27.77
596.236	28.26
596.573	28
596.91	27.73
597.247	28.12
597.584	27.93
597.921	27.81
598.258	28.28
598.594	28.04
598.931	27.71
599.268	27.9
599.604	28.12
599.941	27.91
600.277	28.02
600.614	28.24
600.95	27.82
601.287	28.12
601.623	28.63
601.959	28.61
602.296	28.37
602.632	28.38
602.968	28.14
603.304	28.37
603.64	28.51
603.976	28.66
604.312	28.59
604.648	28.31
604.984	28.38
605.319	28.76
605.655	28.49
605.991	28.32
606.326	28.37
606.662	28.33
606.998	28.39
607.333	28.32
607.668	28.38
608.004	28.26
608.339	28.59
608.674	28.95
609.01	28.69
609.345	28.45
609.68	28.57
610.015	28.84
610.35	28.94
610.685	28.73
611.02	28.79
611.355	29.02
611.689	28.93
612.024	28.83
612.359	28.76
612.694	28.8
613.028	28.89
613.363	28.94
613.697	29.19
614.032	28.87
614.366	29.07
614.7	28.97
615.035	29.56
615.369	29.33
615.703	29.46
616.037	29.35
616.371	29.37
616.705	29.51
617.039	29.41
617.373	29.33
617.707	29.63
618.041	29.55
618.375	29.32
618.709	29.33
619.042	29.49
619.376	29.8
619.71	29.61
620.043	29.61
620.377	29.6
620.71	29.67
621.043	29.65
621.377	29.46
621.71	29.59
622.043	29.73
622.376	29.85
622.709	30.05
623.043	30.04
623.376	30.04
623.709	30.17
624.041	29.56
624.374	29.8
624.707	29.66
625.04	30.48
625.373	30.1
625.705	30.29
626.038	29.58
626.37	30.18
626.703	30.07
627.035	29.82
627.368	30.21
627.7	30.11
628.032	29.79
628.365	30.22
628.697	29.87
629.029	30.37
629.361	30.01
629.693	30.02
630.025	29.74
630.357	29.96
630.689	30.17
631.021	30.6
631.353	30.29
631.684	30.33
632.016	30.52
632.348	30.11
632.679	30.72
633.011	30.48
633.342	30.95
633.674	30.79
634.005	30.9
634.336	30.58
634.668	29.91
634.999	30.65
635.33	30.66
635.661	30.62
635.992	30.36
636.323	30.87
636.654	30.68
636.985	30.57
637.316	30.29
637.647	30.62
637.977	30.91
638.308	31.06
638.639	30.15
638.969	30.65
639.3	31.06
639.63	30.79
639.961	31.27
640.291	31.2
640.622	30.75
640.952	31.02
641.282	30.88
641.612	31.6
641.943	31.42
642.273	31.15
642.603	31.03
642.933	31.3
643.263	30.67
643.592	31.45
643.922	31.69
644.252	30.99
644.582	31.64
644.911	31.56
645.241	31.1
645.571	31.12
645.9	31.91
646.23	31.5
646.559	31.35
646.888	30.83
647.218	31.92
647.547	31.6
647.876	31.58
648.205	31.53
648.534	31.4
648.863	31.39
649.192	31.45
649.521	31.41
649.85	31.88
650.179	31.6
650.508	31.89
650.837	31.28
651.165	32
651.494	31.83
651.822	31.17
652.151	32.26
652.479	32.28
652.808	32.18
653.136	31.71
653.465	32.22
653.793	32.01
654.121	31.7
654.449	31.9
654.777	32.07
655.105	31.66
655.433	31.49
655.761	31.64
656.089	31.85
656.417	32.4
656.745	32.34
657.073	31.99
657.4	32.04
657.728	32.28
658.056	32.67
658.383	32.76
658.711	32.17
659.038	32.56
659.365	32.14
659.693	32.34
660.02	32.22
660.347	32.76
660.674	32.12
661.001	31.91
661.329	32.19
661.656	32.34
661.982	32.03
662.309	32.38
662.636	32.15
662.963	32.22
663.29	32.39
663.616	32.36
663.943	31.92
664.27	32.4
664.596	32.69
664.923	33.35
665.249	32.62
665.576	32.39
665.902	32.3
666.228	33.28
666.554	32.98
666.881	32.13
667.207	32.82
667.533	32.57
667.859	33.14
668.185	33.14
668.511	33.35
668.837	33.51
669.162	32.48
669.488	33.46
669.814	32.75
670.139	32.21
670.465	32.86
