Data from 0357_crown_Reflection__2__101.txt Node

Date: Mon Dec 11 18:54:13 CST 2023
User: ToomeyLab
Spectrometer: FLMS14357
Trigger mode: 0
Integration Time (sec): 1.000000E-2
Scans to average: 100
Electric dark correction enabled: true
Nonlinearity correction enabled: false
Boxcar width: 0
XAxis mode: Wavelengths
Number of Pixels in Spectrum: 2048
>>>>>Begin Spectral Data<<<<<
189.047	-1105.07
189.435	-1105.07
189.823	-1105.07
190.211	1137.14
190.599	-26.24
190.987	44.36
191.375	104.49
191.763	174.11
192.151	29.59
192.538	-20.21
192.926	-1606.19
193.314	-3.03
193.702	-10.21
194.089	-168.25
194.477	110.33
194.864	96.45
195.252	419.28
195.639	431.33
196.027	103.53
196.414	1.96
196.801	33.96
197.189	154.68
197.576	102.75
197.963	1342.86
198.351	-24.6
198.738	-30.78
199.125	-47.34
199.512	-19.64
199.899	-64.07
200.286	-21.91
200.673	-310.86
201.06	-2.29
201.447	-40.21
201.833	39.75
202.22	14.53
202.607	-85.78
202.994	-138.82
203.38	-165.43
203.767	23.06
204.154	64.68
204.54	6.99
204.927	-55.18
205.313	-16.27
205.699	-121.29
206.086	-65.75
206.472	18.53
206.858	-19.7
207.245	16.56
207.631	-2.82
208.017	-8.67
208.403	22.76
208.789	-110.56
209.175	8.5
209.561	-26.94
209.947	0.92
210.333	5.37
210.719	10.06
211.105	-4.36
211.491	1.32
211.876	24.95
212.262	-40.47
212.648	21.2
213.034	-22.54
213.419	-25.5
213.805	-63.4
214.19	-18.46
214.576	-7.08
214.961	-18.77
215.346	-43.63
215.732	-17.84
216.117	-5.57
216.502	-3.72
216.888	-19.61
217.273	2.11
217.658	-21.06
218.043	-3.93
218.428	-22.54
218.813	2.14
219.198	-20.19
219.583	-14.24
219.968	-1.13
220.353	-25.95
220.738	35.49
221.122	1.14
221.507	22.51
221.892	-6.91
222.276	-13.03
222.661	-34.8
223.046	-25.98
223.43	19.26
223.815	-18.13
224.199	-10.12
224.583	-6.21
224.968	0.47
225.352	-7.14
225.736	-9.31
226.121	-0.89
226.505	-6.6
226.889	-1.67
227.273	-6.31
227.657	10.7
228.041	1.11
228.425	-1.56
228.809	-4.9
229.193	1.58
229.577	1.36
229.961	3.45
230.344	5.09
230.728	4.34
231.112	4.13
231.495	3.93
231.879	3.15
232.263	3.09
232.646	3.52
233.03	3.93
233.413	3.05
233.797	5.4
234.18	3.58
234.563	1.82
234.946	1.91
235.33	5.14
235.713	4.5
236.096	2.81
236.479	4.24
236.862	1.39
237.245	2.74
237.628	2.45
238.011	3.92
238.394	5.06
238.777	1.75
239.16	2.91
239.543	4.21
239.925	3.57
240.308	2.73
240.691	3.21
241.073	4.04
241.456	2.93
241.838	4.31
242.221	5.45
242.603	3.03
242.986	4.52
243.368	4
243.75	4.62
244.133	3.98
244.515	3.42
244.897	4.01
245.279	4.13
245.661	3.22
246.043	3.66
246.425	3.92
246.807	4.49
247.189	4.37
247.571	4.3
247.953	3.77
248.335	3.89
248.717	4.09
249.098	3.91
249.48	3.94
249.862	4.23
250.243	4.24
250.625	3.95
251.006	3.91
251.388	3.25
251.769	3.52
252.151	4.41
252.532	3.66
252.913	3.51
253.295	3.94
253.676	3.26
254.057	3.29
254.438	3.99
254.819	3.81
255.2	2.83
255.581	2.62
255.962	3.68
256.343	3.5
256.724	3.9
257.105	2.92
257.486	2.47
257.867	4.04
258.247	2.94
258.628	2.48
259.009	3.98
259.389	4.27
259.77	2.63
260.15	3.53
260.531	3.27
260.911	3.19
261.292	3.25
261.672	3.92
262.052	3.69
262.432	3.71
262.813	3.92
263.193	3.35
263.573	3.59
263.953	3.46
264.333	3.4
264.713	3.67
265.093	3.46
265.473	3.82
265.853	4.06
266.233	2.85
266.612	3.49
266.992	4.39
267.372	4.25
267.752	3.19
268.131	3.5
268.511	3.49
268.89	4.04
269.27	3.82
269.649	3.99
270.029	3.9
270.408	3.48
270.787	2.9
271.167	2.54
271.546	2.93
271.925	3.08
272.304	3.45
272.683	3.14
273.062	3.01
273.441	3.8
273.82	3.42
274.199	3.43
274.578	3.78
274.957	3.47
275.336	3.82
275.715	3.73
276.093	4.3
276.472	3.31
276.851	4.23
277.229	4.33
277.608	3.29
277.986	4.19
278.365	3.03
278.743	3.07
279.122	3.77
279.5	3.68
279.878	4.28
280.257	3.11
280.635	3.82
281.013	3.04
281.391	4.15
281.769	3.43
282.147	3.62
282.525	3.36
282.903	3.63
283.281	3.5
283.659	2.95
284.037	3.17
284.415	3.36
284.792	3.5
285.17	3.33
285.548	2.98
285.925	3.05
286.303	3.61
286.68	3.38
287.058	3.46
287.435	3.55
287.813	3.9
288.19	3.32
288.567	3.15
288.945	3.14
289.322	3.34
289.699	2.77
290.076	2.92
290.453	3.51
290.83	3.79
291.207	3.9
291.584	3.68
291.961	3.63
292.338	3.66
292.715	3.86
293.092	3.17
293.469	3.7
293.845	3.39
294.222	4.31
294.599	3.33
294.975	3.15
295.352	3.21
295.728	3.9
296.105	3.55
296.481	3.59
296.858	3.54
297.234	3.87
297.61	4
297.986	3.75
298.363	3.36
298.739	3.75
299.115	3.47
299.491	3.75
299.867	3.89
300.243	3.78
300.619	3.45
300.995	3.97
301.371	3.59
301.746	3.57
302.122	3.31
302.498	3.62
302.874	4.03
303.249	3.11
303.625	3.68
304	3.36
304.376	3.68
304.751	3.33
305.127	3.64
305.502	4.33
305.878	3.31
306.253	4.11
306.628	3.69
307.003	3.85
307.378	3.38
307.754	4.03
308.129	3.63
308.504	3.62
308.879	3.26
309.254	4.11
309.629	3.93
310.003	3.83
310.378	3.9
310.753	4.29
311.128	3.75
311.502	3.28
311.877	4.36
312.252	4.18
312.626	3.86
313.001	4.09
313.375	3.14
313.75	4.05
314.124	3.84
314.498	3.77
314.873	3.48
315.247	4.14
315.621	4.32
315.995	4.14
316.369	3.96
316.743	3.92
317.117	3.93
317.491	4.21
317.865	3.86
318.239	4.4
318.613	3.94
318.987	4.27
319.361	4.59
319.734	3.52
320.108	3.44
320.482	3.88
320.855	3.07
321.229	3.59
321.602	3.57
321.976	4.35
322.349	3.52
322.723	4.1
323.096	3.99
323.469	4.12
323.843	4.05
324.216	4
324.589	4.33
324.962	3.67
325.335	3.91
325.708	4.43
326.081	4.34
326.454	4.4
326.827	4.35
327.2	3.5
327.573	3.58
327.945	4.36
328.318	4.16
328.691	3.92
329.063	4.07
329.436	4.2
329.809	4.11
330.181	4.62
330.553	4.51
330.926	3.8
331.298	4.09
331.671	4.23
332.043	4.33
332.415	4.14
332.787	4.65
333.159	3.84
333.532	3.85
333.904	4
334.276	4.47
334.648	4.21
335.02	3.79
335.391	4.01
335.763	4.14
336.135	4.47
336.507	3.9
336.879	4.56
337.25	4.28
337.622	3.72
337.993	4.32
338.365	4.32
338.736	4.23
339.108	4.35
339.479	4.02
339.851	4.29
340.222	3.97
340.593	3.71
340.964	4.18
341.336	3.86
341.707	4.32
342.078	4.23
342.449	3.92
342.82	4.16
343.191	3.77
343.562	3.95
343.933	3.87
344.303	3.8
344.674	4.44
345.045	4.51
345.416	3.89
345.786	4.2
346.157	4.32
346.527	4.12
346.898	3.99
347.268	4
347.639	4.13
348.009	4.05
348.38	3.83
348.75	4.15
349.12	4.48
349.49	4.15
349.861	3.96
350.231	3.93
350.601	4.56
350.971	4.38
351.341	3.88
351.711	4.3
352.081	3.62
352.45	4.38
352.82	3.64
353.19	4.02
353.56	4.18
353.929	4.31
354.299	4.47
354.669	4.5
355.038	3.79
355.408	3.6
355.777	4.09
356.147	4.48
356.516	4.12
356.885	4.29
357.254	3.91
357.624	4.25
357.993	4.27
358.362	4.05
358.731	3.88
359.1	4.06
359.469	4.04
359.838	4.12
360.207	4.27
360.576	4.33
360.945	4.55
361.314	4.75
361.682	4.45
362.051	4.26
362.42	4.28
362.788	4.2
363.157	4.05
363.525	4.01
363.894	4.33
364.262	4.45
364.631	4.33
364.999	4.2
365.367	4.42
365.735	4.59
366.104	4.23
366.472	4.4
366.84	3.69
367.208	4.31
367.576	4.48
367.944	4.44
368.312	4.1
368.68	4.34
369.048	4.03
369.416	3.92
369.783	4.17
370.151	4.61
370.519	4.97
370.886	4.04
371.254	4.6
371.621	4.39
371.989	4.41
372.356	4.5
372.724	4.52
373.091	4.52
373.458	4.18
373.826	4.16
374.193	4.41
374.56	4.45
374.927	4.67
375.294	4.18
375.661	4.2
376.028	4.61
376.395	4.52
376.762	4.37
377.129	4.27
377.496	4.29
377.863	4.45
378.229	4.2
378.596	4.04
378.963	4.44
379.329	4.26
379.696	4.5
380.062	4.2
380.429	4.22
380.795	4.55
381.161	4.22
381.528	4.2
381.894	4.56
382.26	4.39
382.626	4.37
382.993	4.43
383.359	4.35
383.725	3.9
384.091	4.41
384.457	4.15
384.823	4.52
385.188	4.59
385.554	4.29
385.92	4.7
386.286	4.1
386.651	4.15
387.017	4.36
387.383	4.32
387.748	4.44
388.114	4.57
388.479	4.5
388.845	4.4
389.21	4.48
389.575	4.38
389.94	4.63
390.306	4.48
390.671	4.44
391.036	4.51
391.401	4.45
391.766	4.56
392.131	4.77
392.496	4.66
392.861	4.34
393.226	4.51
393.591	4.68
393.956	4.58
394.32	4.39
394.685	4.37
395.05	4.55
395.414	4.72
395.779	4.37
396.143	4.25
396.508	4.28
396.872	4.7
397.236	4.68
397.601	4.28
397.965	4.6
398.329	4.55
398.694	4.28
399.058	4.48
399.422	4.5
399.786	4.11
400.15	4.33
400.514	4.64
400.878	4.55
401.242	4.5
401.605	4.7
401.969	4.4
402.333	4.4
402.697	4.49
403.06	4.4
403.424	4.34
403.787	4.85
404.151	4.38
404.514	4.4
404.878	4.47
405.241	4.37
405.604	4.53
405.968	4.6
406.331	4.65
406.694	4.61
407.057	4.45
407.42	4.75
407.783	4.4
408.146	4.69
408.509	4.43
408.872	4.48
409.235	4.34
409.598	4.5
409.961	4.77
410.323	4.59
410.686	4.33
411.049	4.54
411.411	4.61
411.774	4.91
412.136	4.38
412.499	4.81
412.861	4.6
413.223	4.71
413.586	4.47
413.948	4.47
414.31	4.58
414.672	4.19
415.035	4.28
415.397	4.36
415.759	4.53
416.121	4.62
416.483	4.63
416.845	4.74
417.206	4.59
417.568	4.84
417.93	4.71
418.292	4.52
418.653	4.61
419.015	4.46
419.377	4.63
419.738	4.48
420.1	4.51
420.461	4.38
420.822	4.48
421.184	4.57
421.545	4.53
421.906	4.49
422.267	4.46
422.629	4.49
422.99	4.48
423.351	4.42
423.712	4.53
424.073	4.54
424.434	4.46
424.795	4.57
425.155	4.54
425.516	4.55
425.877	4.33
426.238	4.47
426.598	4.48
426.959	4.52
427.32	4.58
427.68	4.52
428.041	4.36
428.401	4.53
428.761	4.64
429.122	4.35
429.482	4.58
429.842	4.6
430.202	4.71
430.563	4.64
430.923	4.49
431.283	4.71
431.643	4.6
432.003	4.75
432.363	4.77
432.722	4.6
433.082	4.68
433.442	4.63
433.802	4.47
434.161	4.76
434.521	4.46
434.881	4.56
435.24	4.57
435.6	4.38
435.959	4.54
436.319	4.58
436.678	4.68
437.037	4.6
437.396	4.6
437.756	4.7
438.115	4.72
438.474	4.7
438.833	4.53
439.192	4.44
439.551	4.6
439.91	4.59
440.269	4.63
440.628	4.53
440.987	4.68
441.345	4.66
441.704	4.6
442.063	4.57
442.421	4.56
442.78	4.57
443.138	4.49
443.497	4.56
443.855	4.57
444.214	4.72
444.572	4.55
444.93	4.73
445.288	4.78
445.647	4.67
446.005	4.41
446.363	4.47
446.721	4.5
447.079	4.59
447.437	4.77
447.795	4.48
448.153	4.57
448.51	4.6
448.868	4.46
449.226	4.46
449.584	4.66
449.941	4.68
450.299	4.6
450.656	4.7
451.014	4.7
451.371	4.49
451.729	4.73
452.086	4.63
452.443	4.8
452.801	4.65
453.158	4.7
453.515	4.58
453.872	4.81
454.229	4.64
454.586	4.6
454.943	4.61
455.3	4.84
455.657	4.74
456.014	4.69
456.371	4.73
456.727	4.7
457.084	4.51
457.441	4.78
457.797	4.79
458.154	4.64
458.51	4.64
458.867	4.51
459.223	4.71
459.58	4.55
459.936	4.74
460.292	4.69
460.648	4.66
461.005	4.58
461.361	4.72
461.717	4.5
462.073	4.64
462.429	4.68
462.785	4.63
463.141	4.68
463.496	4.79
463.852	4.6
464.208	4.56
464.564	4.68
464.919	4.72
465.275	4.6
465.631	4.73
465.986	4.79
466.342	4.76
466.697	4.6
467.052	4.61
467.408	4.9
467.763	4.55
468.118	4.65
468.473	4.53
468.829	4.82
469.184	4.93
469.539	4.92
469.894	4.68
470.249	4.82
470.603	4.66
470.958	4.82
471.313	4.67
471.668	4.86
472.023	4.98
472.377	4.68
472.732	4.83
473.086	4.73
473.441	4.65
473.795	4.76
474.15	4.69
474.504	4.78
474.859	4.68
475.213	4.79
475.567	4.85
475.921	4.7
476.275	4.78
476.63	4.71
476.984	4.72
477.338	4.59
477.692	4.79
478.045	4.77
478.399	4.69
478.753	4.56
479.107	4.53
479.461	4.86
479.814	4.72
480.168	4.73
480.521	4.89
480.875	4.8
481.228	4.79
481.582	5.01
481.935	4.74
482.289	4.84
482.642	4.73
482.995	4.72
483.348	4.66
483.701	4.6
484.055	4.71
484.408	4.65
484.761	4.65
485.114	4.55
485.466	4.5
485.819	4.38
486.172	4.42
486.525	4.46
486.878	4.59
487.23	4.6
487.583	4.61
487.936	4.64
488.288	4.69
488.641	4.49
488.993	4.49
489.345	4.55
489.698	4.49
490.05	4.55
490.402	4.5
490.754	4.62
491.107	4.65
491.459	4.7
491.811	4.71
492.163	4.76
492.515	4.67
492.866	4.61
493.218	4.52
493.57	4.55
493.922	4.59
494.274	4.64
494.625	4.74
494.977	4.81
495.328	4.68
495.68	4.83
496.031	4.7
496.383	4.69
496.734	4.8
497.086	4.74
497.437	4.92
497.788	4.83
498.139	4.73
498.49	4.69
498.842	4.83
499.193	4.81
499.544	4.76
499.894	4.69
500.245	4.68
500.596	4.92
500.947	4.72
501.298	4.86
501.648	4.72
501.999	4.71
502.35	4.7
502.7	4.86
503.051	4.74
503.401	4.79
503.752	4.73
504.102	4.8
504.452	4.86
504.803	4.84
505.153	5.01
505.503	4.88
505.853	4.81
506.203	4.72
506.553	4.82
506.903	4.73
507.253	4.83
507.603	4.81
507.953	4.88
508.303	4.73
508.652	4.79
509.002	4.73
509.352	4.9
509.701	4.89
510.051	4.81
510.4	4.72
510.75	4.89
511.099	4.87
511.449	4.86
511.798	4.73
512.147	4.85
512.496	4.78
512.846	4.9
513.195	4.85
513.544	4.8
513.893	4.73
514.242	4.78
514.591	4.72
514.939	4.72
515.288	4.84
515.637	4.86
515.986	4.79
516.334	4.81
516.683	4.87
517.032	4.96
517.38	4.97
517.729	4.75
518.077	4.94
518.426	4.95
518.774	4.93
519.122	4.91
519.47	4.87
519.819	4.82
520.167	4.84
520.515	4.74
520.863	4.78
521.211	4.87
521.559	4.85
521.907	4.87
522.255	4.78
522.602	4.93
522.95	4.99
523.298	4.83
523.645	4.93
523.993	4.89
524.341	4.85
524.688	4.8
525.036	4.76
525.383	4.99
525.73	4.84
526.078	4.83
526.425	4.77
526.772	4.91
527.119	4.8
527.466	4.79
527.814	4.72
528.161	4.72
528.508	4.85
528.854	4.79
529.201	4.74
529.548	4.8
529.895	4.68
530.242	4.69
530.588	4.57
530.935	4.62
531.282	4.72
531.628	4.76
531.975	4.79
532.321	4.79
532.667	4.78
533.014	4.78
533.36	4.84
533.706	4.96
534.052	4.87
534.399	4.87
534.745	4.87
535.091	4.68
535.437	4.72
535.783	4.77
536.129	4.87
536.474	4.89
536.82	4.85
537.166	4.83
537.512	4.86
537.857	4.96
538.203	4.87
538.549	4.94
538.894	4.83
539.239	4.9
539.585	4.92
539.93	4.92
540.276	5.01
540.621	4.99
540.966	5.02
541.311	4.85
541.656	4.9
542.001	5.01
542.346	4.88
542.691	4.87
543.036	4.73
543.381	4.74
543.726	4.79
544.071	4.76
544.415	4.83
544.76	4.87
545.105	4.86
545.449	4.87
545.794	4.78
546.138	4.9
546.483	4.89
546.827	4.98
547.171	4.88
547.516	4.92
547.86	4.89
548.204	4.96
548.548	4.89
548.892	4.96
549.236	4.96
549.58	5.08
549.924	5.11
550.268	4.99
550.612	5.04
550.956	4.84
551.3	5.07
551.643	5.08
551.987	5.2
552.33	5.06
552.674	5.17
553.017	5.1
553.361	5.08
553.704	5.02
554.048	5.15
554.391	4.88
554.734	5.01
555.077	5.04
555.42	5.23
555.764	4.93
556.107	5.12
556.45	5.1
556.793	5.05
557.135	5.24
557.478	5.07
557.821	5.05
558.164	5.08
558.507	4.92
558.849	5.09
559.192	4.98
559.534	5.01
559.877	5.21
560.219	4.94
560.562	5.04
560.904	5.18
561.246	5.09
561.589	5.05
561.931	5.17
562.273	5.04
562.615	5.06
562.957	5.11
563.299	5.22
563.641	5.07
563.983	5.29
564.325	5.22
564.667	5.12
565.008	5.27
565.35	5.34
565.692	5.25
566.033	5.05
566.375	5.41
566.716	5.07
567.058	5.11
567.399	5.18
567.741	5.02
568.082	5.13
568.423	5.09
568.764	5.09
569.105	5.06
569.447	5.24
569.788	4.95
570.129	5.14
570.47	5.07
570.811	5.04
571.151	5.11
571.492	5.23
571.833	5.13
572.174	5.11
572.514	5.15
572.855	5.03
573.195	5.27
573.536	5.13
573.876	5.16
574.217	5.19
574.557	4.97
574.898	5.24
575.238	5.3
575.578	5.28
575.918	5.2
576.258	5.26
576.598	5.46
576.938	5.13
577.278	5.17
577.618	4.96
577.958	5.18
578.298	5.27
578.638	5.42
578.977	5.34
579.317	5.23
579.657	5.1
579.996	5.21
580.336	5.14
580.675	5.47
581.014	5.27
581.354	5.2
581.693	5.3
582.032	4.92
582.372	5.24
582.711	5.08
583.05	5.33
583.389	5.23
583.728	5.27
584.067	4.9
584.406	5.22
584.745	5.17
585.083	5.16
585.422	5.28
585.761	5.43
586.1	5.39
586.438	5.21
586.777	5.17
587.115	5.13
587.454	5.05
587.792	5.14
588.13	5.44
588.469	5.48
588.807	5.17
589.145	5.57
589.483	5.49
589.821	5.17
590.159	5.3
590.497	5.11
590.835	5.13
591.173	5.33
591.511	5.63
591.849	5.33
592.187	5.12
592.524	5.04
592.862	5.28
593.2	5.31
593.537	5.47
593.875	5.36
594.212	5.29
594.55	5.35
594.887	5.49
595.224	5.54
595.561	5.48
595.899	5.05
596.236	5.2
596.573	5.1
596.91	5.23
597.247	5.31
597.584	5.21
597.921	5.1
598.258	5.31
598.594	5.16
598.931	5.18
599.268	5.43
599.604	5.38
599.941	5.44
600.277	5.21
600.614	5.32
600.95	5.07
601.287	5.37
601.623	5.22
601.959	5.54
602.296	5.32
602.632	5.08
602.968	5.58
603.304	5.41
603.64	5.25
603.976	5.61
604.312	5.26
604.648	5.4
604.984	5.54
605.319	5.25
605.655	5.31
605.991	5.35
606.326	5.36
606.662	5.21
606.998	5.17
607.333	5.31
607.668	5.37
608.004	5.14
608.339	5.67
608.674	5.29
609.01	5.34
609.345	5.5
609.68	5.04
610.015	5.65
610.35	5.62
610.685	5.08
611.02	5.33
611.355	5.46
611.689	5.42
612.024	5.19
612.359	5.33
612.694	5.36
613.028	5.36
613.363	5.49
613.697	5.28
614.032	5.38
614.366	5.32
614.7	5.41
615.035	5.62
615.369	5.41
615.703	5.39
616.037	5.64
616.371	5.36
616.705	5.71
617.039	5.66
617.373	5.21
617.707	5.59
618.041	5.7
618.375	5.76
618.709	5.46
619.042	5.3
619.376	5.84
619.71	5.61
620.043	5.13
620.377	5.58
620.71	5.58
621.043	5.28
621.377	5.01
621.71	5.33
622.043	5.5
622.376	5.72
622.709	5.64
623.043	5.72
623.376	5.35
623.709	5.51
624.041	5.37
624.374	5.64
624.707	5.09
625.04	5.93
625.373	5.46
625.705	5.48
626.038	5.16
626.37	5.31
626.703	5.99
627.035	5.29
627.368	5.8
627.7	5.38
628.032	5.45
628.365	5.53
628.697	5.32
629.029	5.58
629.361	5.28
629.693	5.65
630.025	5.43
630.357	5.34
630.689	5.34
631.021	5.6
631.353	5.49
631.684	5.66
632.016	5.66
632.348	5.83
632.679	6.06
633.011	5.49
633.342	5.39
633.674	5.9
634.005	5.93
634.336	5.62
634.668	5.4
634.999	5.85
635.33	5.63
635.661	5.6
635.992	5.64
636.323	5.46
636.654	5.79
636.985	5.35
637.316	5.62
637.647	5.43
637.977	5.38
638.308	5.63
638.639	5.36
638.969	5.56
639.3	5.86
639.63	5.22
639.961	5.78
640.291	5.96
640.622	5.61
640.952	5.81
641.282	5.53
641.612	6.23
641.943	5.9
642.273	5.38
642.603	5.8
642.933	5.71
643.263	6.07
643.592	5.8
643.922	5.71
644.252	4.98
644.582	6.01
644.911	6.02
645.241	5.53
645.571	6.25
645.9	5.64
646.23	5.77
646.559	5.68
646.888	6.12
647.218	5.48
647.547	5.65
647.876	5.9
648.205	5.34
648.534	5.7
648.863	6.12
649.192	5.55
649.521	5.67
649.85	5.46
650.179	6.07
650.508	6.26
650.837	5.25
651.165	6.44
651.494	5.88
651.822	5.95
652.151	6.1
652.479	5.44
652.808	6.05
653.136	5.54
653.465	6.18
653.793	5.71
654.121	5.48
654.449	6.16
654.777	6.22
655.105	5.44
655.433	6.22
655.761	5.62
656.089	5.67
656.417	5.69
656.745	6.07
657.073	6.3
657.4	6.15
657.728	6.02
658.056	6.18
658.383	6
658.711	5.44
659.038	5.55
659.365	6.01
659.693	6.19
660.02	5.69
660.347	5.98
660.674	6.06
661.001	5.73
661.329	5.72
661.656	6.12
661.982	6.15
662.309	6.14
662.636	5.81
662.963	6.1
663.29	6.08
663.616	6.02
663.943	5.67
664.27	5.98
664.596	6.3
664.923	5.99
665.249	6.26
665.576	5.72
665.902	5.44
666.228	6.2
666.554	6.1
666.881	5.63
667.207	6.11
667.533	5.6
667.859	5.87
668.185	6.24
668.511	6.13
668.837	6.34
669.162	6.29
669.488	6.15
669.814	6.08
670.139	6.22
670.465	6.35
670.791	6.23
671.116	6.75
671.442	6.69
671.767	6.46
672.092	5.9
672.418	6.38
672.743	5.76
673.068	6.34
673.393	6.23
673.718	6.25
674.043	5.75
674.368	6.63
674.693	5.89
675.018	6.47
675.343	5.74
675.667	5.94
675.992	6.25
676.317	5.66
676.641	6.43
676.966	6.76
677.29	6.28
677.615	7.06
677.939	5.72
678.264	5.89
678.588	6.61
678.912	5.69
679.236	5.91
679.56	6.2
679.885	6.72
680.209	6.34
680.532	7.1
680.856	6.03
681.18	6.09
681.504	5.99
681.828	5.7
682.152	5.49
682.475	6.83
682.799	6.53
683.122	6.33
683.446	5.76
683.769	6.24
684.093	6.47
684.416	5.88
684.739	6.77
685.062	6.32
685.386	6.97
685.709	6.87
686.032	6.77
686.355	5.88
686.678	6.65
687.001	6.67
687.324	5.25
687.646	5.9
687.969	6.89
688.292	6.67
688.614	7.09
688.937	7.24
689.26	5.84
689.582	6.14
689.904	6.47
690.227	6.43
690.549	6.51
690.871	6.1
691.194	6.92
691.516	6.18
691.838	6.43
