Data from 0357_forehead_Reflection__3__97.txt Node

Date: Mon Dec 11 18:51:26 CST 2023
User: ToomeyLab
Spectrometer: FLMS14357
Trigger mode: 0
Integration Time (sec): 1.000000E-2
Scans to average: 100
Electric dark correction enabled: true
Nonlinearity correction enabled: false
Boxcar width: 0
XAxis mode: Wavelengths
Number of Pixels in Spectrum: 2048
>>>>>Begin Spectral Data<<<<<
189.047	-85.02
189.435	-85.02
189.823	-85.02
190.211	-370
190.599	357.64
190.987	159.84
191.375	72.3
191.763	76.82
192.151	-35.99
192.538	289.56
192.926	-1262.37
193.314	51.51
193.702	144.14
194.089	229.37
194.477	42.64
194.864	3.57
195.252	291.78
195.639	-58.03
196.027	-90.96
196.414	26.19
196.801	-22.33
197.189	-52.2
197.576	57.61
197.963	2845.24
198.351	-8.77
198.738	-11.66
199.125	17.76
199.512	14.64
199.899	20.69
200.286	42.1
200.673	74.67
201.06	62.81
201.447	77.08
201.833	78.88
202.22	87.6
202.607	26.4
202.994	44.77
203.38	6.37
203.767	50.57
204.154	41.01
204.54	15.83
204.927	30.25
205.313	38.86
205.699	-71.64
206.086	-13.73
206.472	79.35
206.858	21.54
207.245	29.04
207.631	68.66
208.017	40.19
208.403	20.08
208.789	-32.19
209.175	62.33
209.561	51.58
209.947	13.82
210.333	22.2
210.719	67.89
211.105	44.79
211.491	25.56
211.876	31.3
212.262	-9.44
212.648	1.82
213.034	58.72
213.419	29.22
213.805	29.93
214.19	34.73
214.576	19.78
214.961	19.89
215.346	-6.4
215.732	22.96
216.117	12.23
216.502	23.08
216.888	35.81
217.273	29.25
217.658	-5.13
218.043	22.21
218.428	12.72
218.813	27.21
219.198	8.34
219.583	27.34
219.968	6.68
220.353	-12.59
220.738	20.37
221.122	9.48
221.507	36.59
221.892	29.69
222.276	6.36
222.661	-13.73
223.046	8.34
223.43	19.06
223.815	11.11
224.199	6.69
224.583	4.08
224.968	15.14
225.352	13.43
225.736	12.65
226.121	7.35
226.505	4.29
226.889	3.61
227.273	10.4
227.657	12.76
228.041	7.41
228.425	1.73
228.809	3.28
229.193	5.21
229.577	6.02
229.961	6.41
230.344	5.74
230.728	6.09
231.112	5.19
231.495	5.92
231.879	6.59
232.263	3.97
232.646	5.53
233.03	5.8
233.413	5.76
233.797	7.85
234.18	4.93
234.563	6.2
234.946	7.16
235.33	9.07
235.713	6
236.096	5.75
236.479	7.37
236.862	4.89
237.245	6.54
237.628	6.52
238.011	6.34
238.394	7.75
238.777	5.52
239.16	4.97
239.543	6.18
239.925	5.86
240.308	5.3
240.691	7.81
241.073	6.27
241.456	6.03
241.838	8.11
242.221	5.38
242.603	4.9
242.986	5.37
243.368	5.71
243.75	6.09
244.133	6.04
244.515	5.55
244.897	6.34
245.279	5.51
245.661	6.34
246.043	6.83
246.425	5.81
246.807	6.05
247.189	6.47
247.571	5.97
247.953	5.96
248.335	5.73
248.717	5.7
249.098	5.68
249.48	5.73
249.862	5.79
250.243	6.36
250.625	5.41
251.006	6.01
251.388	5.5
251.769	6.39
252.151	6.03
252.532	5.85
252.913	6.35
253.295	6.51
253.676	5.98
254.057	5.54
254.438	6.1
254.819	5.25
255.2	5.72
255.581	5.65
255.962	5.78
256.343	6.99
256.724	5.93
257.105	5.31
257.486	5.04
257.867	6
258.247	4.61
258.628	5.55
259.009	7.6
259.389	6.32
259.77	5.49
260.15	5.86
260.531	5.27
260.911	4.98
261.292	5.3
261.672	5.39
262.052	5.58
262.432	5.39
262.813	5.66
263.193	5.6
263.573	5.84
263.953	6.68
264.333	5.47
264.713	5.68
265.093	5.35
265.473	6.4
265.853	5.42
266.233	5.14
266.612	6.43
266.992	6.86
267.372	6.72
267.752	6.44
268.131	5.24
268.511	5.18
268.89	6
269.27	5.71
269.649	5.59
270.029	5.71
270.408	6.15
270.787	5.3
271.167	5.38
271.546	5.79
271.925	5.2
272.304	5.78
272.683	5.42
273.062	5.42
273.441	5.55
273.82	5.07
274.199	5.67
274.578	5.83
274.957	5.39
275.336	5.29
275.715	5.39
276.093	6.11
276.472	5.78
276.851	5.59
277.229	5.37
277.608	5.3
277.986	5.81
278.365	4.88
278.743	5.7
279.122	6.01
279.5	5.62
279.878	5.49
280.257	5.58
280.635	5.45
281.013	5.77
281.391	5.85
281.769	6.04
282.147	4.64
282.525	4.89
282.903	5.37
283.281	5.83
283.659	5.53
284.037	5.01
284.415	5.19
284.792	6.16
285.17	5.77
285.548	5.18
285.925	5.77
286.303	5.32
286.68	5.34
287.058	5.77
287.435	5.69
287.813	5.92
288.19	5.27
288.567	5.16
288.945	5.84
289.322	5.4
289.699	5.54
290.076	5.69
290.453	6.07
290.83	6.37
291.207	6.14
291.584	6.02
291.961	5.87
292.338	5.84
292.715	5.91
293.092	6.03
293.469	6.12
293.845	6.08
294.222	6.4
294.599	6.12
294.975	5.69
295.352	5.74
295.728	6.73
296.105	6.38
296.481	6.55
296.858	6.47
297.234	6.7
297.61	6.65
297.986	6.52
298.363	6.54
298.739	6.7
299.115	6.55
299.491	6.78
299.867	6.57
300.243	6.77
300.619	6.69
300.995	6.63
301.371	6.66
301.746	6.41
302.122	7.07
302.498	7.14
302.874	7.03
303.249	7.44
303.625	6.49
304	7.26
304.376	7.14
304.751	6.69
305.127	7.55
305.502	7.48
305.878	7.41
306.253	7.97
306.628	7.7
307.003	8.03
307.378	7.4
307.754	8.29
308.129	7.41
308.504	7.33
308.879	7.17
309.254	8.53
309.629	8.07
310.003	8.19
310.378	7.56
310.753	8.43
311.128	8.15
311.502	7.93
311.877	8.28
312.252	8.56
312.626	8.47
313.001	8.72
313.375	8.16
313.75	8.91
314.124	8.55
314.498	8.28
314.873	8.6
315.247	8.56
315.621	8.96
315.995	9.14
316.369	9.19
316.743	9.41
317.117	8.93
317.491	9.17
317.865	9.18
318.239	9.16
318.613	9.7
318.987	9.67
319.361	9.94
319.734	9.56
320.108	9.76
320.482	9.7
320.855	10.1
321.229	9.56
321.602	9.76
321.976	10.58
322.349	10.22
322.723	9.52
323.096	10.42
323.469	10.2
323.843	10.31
324.216	10.26
324.589	10.7
324.962	10.11
325.335	10.06
325.708	10.36
326.081	10.72
326.454	10.77
326.827	10.44
327.2	9.77
327.573	10.32
327.945	11.04
328.318	10.49
328.691	10.76
329.063	10.33
329.436	10.35
329.809	10.8
330.181	10.98
330.553	11.23
330.926	10.04
331.298	11.38
331.671	10.8
332.043	11.23
332.415	11.22
332.787	11.53
333.159	11.11
333.532	11.38
333.904	11.8
334.276	11.6
334.648	11.37
335.02	10.86
335.391	11.22
335.763	11.65
336.135	11.56
336.507	11.68
336.879	12.16
337.25	11.22
337.622	11.47
337.993	11.7
338.365	11.59
338.736	11.98
339.108	11.89
339.479	11.97
339.851	11.76
340.222	11.8
340.593	11.68
340.964	12.36
341.336	12.16
341.707	11.61
342.078	11.9
342.449	11.83
342.82	11.72
343.191	11.56
343.562	11.83
343.933	12.43
344.303	11.99
344.674	12.37
345.045	11.82
345.416	12.04
345.786	12.6
346.157	12.15
346.527	12.6
346.898	12.21
347.268	12.28
347.639	12.3
348.009	12.35
348.38	11.68
348.75	12.66
349.12	12.94
349.49	12.45
349.861	12.06
350.231	12.13
350.601	12.78
350.971	12.82
351.341	12.23
351.711	12.85
352.081	12.46
352.45	12.64
352.82	12.71
353.19	13.11
353.56	12.89
353.929	12.94
354.299	12.98
354.669	12.85
355.038	12.99
355.408	12.76
355.777	13.16
356.147	13.16
356.516	13.19
356.885	13.14
357.254	13.04
357.624	13.23
357.993	13.06
358.362	13.45
358.731	13.23
359.1	13.18
359.469	13.38
359.838	13.76
360.207	13.45
360.576	13.33
360.945	13.7
361.314	13.87
361.682	13.29
362.051	13.55
362.42	13.39
362.788	13.34
363.157	13.62
363.525	13.3
363.894	13.79
364.262	13.61
364.631	13.73
364.999	13.91
365.367	13.87
365.735	14.15
366.104	13.44
366.472	13.96
366.84	13.75
367.208	13.82
367.576	14.3
367.944	13.98
368.312	14.31
368.68	13.95
369.048	14.05
369.416	13.99
369.783	13.9
370.151	14.36
370.519	14.9
370.886	14.15
371.254	14.48
371.621	14.63
371.989	14.25
372.356	14.54
372.724	14.63
373.091	14.76
373.458	14.37
373.826	14.6
374.193	14.51
374.56	14.97
374.927	14.92
375.294	15.17
375.661	14.92
376.028	15.01
376.395	15.04
376.762	14.8
377.129	15.1
377.496	15.05
377.863	14.93
378.229	15.04
378.596	15.21
378.963	15.16
379.329	14.76
379.696	15.29
380.062	14.74
380.429	15.27
380.795	15.45
381.161	15.37
381.528	15.4
381.894	15.35
382.26	15.33
382.626	15.63
382.993	15.29
383.359	15.19
383.725	15.31
384.091	15.24
384.457	15.59
384.823	15.81
385.188	15.47
385.554	15.18
385.92	15.53
386.286	15.67
386.651	15.54
387.017	15.52
387.383	15.48
387.748	15.76
388.114	15.79
388.479	15.66
388.845	16.02
389.21	16.04
389.575	16.08
389.94	16.11
390.306	16
390.671	16.08
391.036	15.99
391.401	16.51
391.766	15.81
392.131	16.11
392.496	16.17
392.861	16.45
393.226	16.32
393.591	16.41
393.956	16.29
394.32	16.39
394.685	16.33
395.05	16.33
395.414	16.66
395.779	16.32
396.143	16.21
396.508	16.44
396.872	16.49
397.236	16.46
397.601	16.26
397.965	16.47
398.329	16.79
398.694	16.61
399.058	16.48
399.422	16.79
399.786	16.71
400.15	16.74
400.514	16.93
400.878	16.87
401.242	16.88
401.605	16.83
401.969	17.02
402.333	17.17
402.697	17.2
403.06	17.11
403.424	17.27
403.787	17.26
404.151	17.02
404.514	17.18
404.878	17.29
405.241	17.23
405.604	17.15
405.968	17.2
406.331	17.09
406.694	16.97
407.057	17.04
407.42	17.46
407.783	17.54
408.146	17.65
408.509	17.55
408.872	17.28
409.235	17.25
409.598	17.44
409.961	17.67
410.323	17.79
410.686	17.57
411.049	17.83
411.411	17.66
411.774	17.73
412.136	17.66
412.499	17.85
412.861	17.61
413.223	17.61
413.586	17.83
413.948	17.78
414.31	17.79
414.672	17.78
415.035	17.63
415.397	17.83
415.759	17.89
416.121	17.87
416.483	17.85
416.845	18.13
417.206	18.15
417.568	18.31
417.93	18.01
418.292	18.13
418.653	17.81
419.015	17.86
419.377	18.02
419.738	18.08
420.1	17.88
420.461	18.05
420.822	17.74
421.184	18.03
421.545	18.03
421.906	18.04
422.267	18.01
422.629	18.05
422.99	17.94
423.351	17.9
423.712	18
424.073	18.04
424.434	18
424.795	18.34
425.155	18.21
425.516	18.12
425.877	18.01
426.238	18.2
426.598	18.22
426.959	18.24
427.32	18.46
427.68	18.37
428.041	18.37
428.401	18.44
428.761	18.67
429.122	18.54
429.482	18.75
429.842	18.95
430.202	18.78
430.563	18.98
430.923	18.96
431.283	18.83
431.643	18.84
432.003	19.12
432.363	18.97
432.722	19.21
433.082	19.14
433.442	19.2
433.802	18.9
434.161	19.46
434.521	18.95
434.881	19.21
435.24	19.06
435.6	19.05
435.959	19.13
436.319	19.19
436.678	19.13
437.037	19.4
437.396	19.41
437.756	19.34
438.115	19.55
438.474	19.62
438.833	19.48
439.192	19.46
439.551	19.32
439.91	19.57
440.269	19.5
440.628	19.35
440.987	19.57
441.345	19.53
441.704	19.64
442.063	19.44
442.421	19.51
442.78	19.27
443.138	19.43
443.497	19.48
443.855	19.52
444.214	19.71
444.572	19.77
444.93	19.87
445.288	19.91
445.647	20.19
446.005	19.73
446.363	19.8
446.721	19.97
447.079	19.84
447.437	19.99
447.795	19.72
448.153	19.85
448.51	19.95
448.868	19.75
449.226	19.73
449.584	19.88
449.941	19.94
450.299	19.92
450.656	20.04
451.014	20.27
451.371	20.04
451.729	20.34
452.086	20.25
452.443	20.44
452.801	20.6
453.158	20.56
453.515	20.46
453.872	20.55
454.229	20.52
454.586	20.62
454.943	20.44
455.3	20.44
455.657	20.62
456.014	20.6
456.371	20.74
456.727	20.7
457.084	20.58
457.441	20.89
457.797	20.71
458.154	20.74
458.51	20.79
458.867	20.99
459.223	20.85
459.58	21
459.936	21.05
460.292	20.86
460.648	20.92
461.005	20.8
461.361	20.81
461.717	20.73
462.073	20.59
462.429	20.75
462.785	20.79
463.141	20.78
463.496	21.05
463.852	21.2
464.208	21.3
464.564	21.46
464.919	21.46
465.275	21.3
465.631	21.21
465.986	21.48
466.342	21.35
466.697	21.44
467.052	21.52
467.408	21.71
467.763	21.57
468.118	21.45
468.473	21.49
468.829	21.65
469.184	21.79
469.539	21.7
469.894	21.62
470.249	21.71
470.603	21.55
470.958	21.8
471.313	21.76
471.668	22.08
472.023	22.04
472.377	21.93
472.732	21.98
473.086	22.12
473.441	22.1
473.795	22.07
474.15	22.22
474.504	22
474.859	22.21
475.213	22.13
475.567	22.31
475.921	22.14
476.275	22.24
476.63	22.08
476.984	22.03
477.338	22.25
477.692	22.24
478.045	22.31
478.399	22.12
478.753	22.1
479.107	22.28
479.461	22.33
479.814	22.2
480.168	22.44
480.521	22.41
480.875	22.39
481.228	22.32
481.582	22.6
481.935	22.53
482.289	22.62
482.642	22.51
482.995	22.38
483.348	22.38
483.701	22.38
484.055	22.38
484.408	22.23
484.761	22.25
485.114	21.97
485.466	21.63
485.819	21.53
486.172	21.52
486.525	21.45
486.878	21.62
487.23	21.84
487.583	21.98
487.936	22.21
488.288	22.3
488.641	22.14
488.993	22
489.345	21.99
489.698	21.91
490.05	21.97
490.402	21.94
490.754	22.13
491.107	22.19
491.459	22.49
491.811	22.63
492.163	22.71
492.515	22.87
492.866	22.71
493.218	22.42
493.57	22.32
493.922	22.25
494.274	22.39
494.625	22.53
494.977	22.82
495.328	22.95
495.68	23.2
496.031	23.21
496.383	23.36
496.734	23.39
497.086	23.54
497.437	23.59
497.788	23.45
498.139	23.43
498.49	23.39
498.842	23.39
499.193	23.4
499.544	23.43
499.894	23.42
500.245	23.66
500.596	23.78
500.947	23.51
501.298	23.59
501.648	23.73
501.999	23.7
502.35	23.85
502.7	23.9
503.051	24.05
503.401	23.94
503.752	23.99
504.102	24.03
504.452	24.07
504.803	24.28
505.153	24.08
505.503	24.23
505.853	24.08
506.203	24.25
506.553	24.02
506.903	23.96
507.253	24.23
507.603	24.14
507.953	24.3
508.303	24.21
508.652	24.36
509.002	24.49
509.352	24.41
509.701	24.34
510.051	24.32
510.4	24.31
510.75	24.35
511.099	24.23
511.449	24.43
511.798	24.28
512.147	24.37
512.496	24.41
512.846	24.45
513.195	24.62
513.544	24.4
513.893	24.51
514.242	24.58
514.591	24.59
514.939	24.56
515.288	24.63
515.637	24.72
515.986	24.69
516.334	24.83
516.683	24.91
517.032	24.84
517.38	24.97
517.729	24.98
518.077	25.02
518.426	25.07
518.774	24.99
519.122	25.01
519.47	25.07
519.819	24.83
520.167	24.91
520.515	24.62
520.863	24.7
521.211	24.87
521.559	24.77
521.907	24.81
522.255	25.02
522.602	25.01
522.95	25.35
523.298	25.33
523.645	25.39
523.993	25.36
524.341	25.31
524.688	25.58
525.036	25.31
525.383	25.27
525.73	25.47
526.078	25.56
526.425	25.44
526.772	25.48
527.119	25.43
527.466	25.18
527.814	25.09
528.161	25.14
528.508	25.24
528.854	25.27
529.201	25.24
529.548	25.21
529.895	25.14
530.242	24.78
530.588	24.72
530.935	24.6
531.282	24.69
531.628	24.74
531.975	25.01
532.321	25.16
532.667	25.22
533.014	25.36
533.36	25.69
533.706	25.75
534.052	25.7
534.399	25.71
534.745	25.62
535.091	25.44
535.437	25.23
535.783	25.32
536.129	25.54
536.474	25.65
536.82	25.73
537.166	25.92
537.512	25.89
537.857	26.06
538.203	26.02
538.549	26.03
538.894	25.96
539.239	25.96
539.585	25.94
539.93	26.08
540.276	26.31
540.621	26.44
540.966	26.63
541.311	26.43
541.656	26.54
542.001	26.55
542.346	26.48
542.691	26.1
543.036	26.06
543.381	25.7
543.726	25.77
544.071	25.93
544.415	25.89
544.76	26.07
545.105	26.3
545.449	26.18
545.794	26.43
546.138	26.45
546.483	26.62
546.827	26.65
547.171	26.74
547.516	26.81
547.86	26.84
548.204	27.03
548.548	26.82
548.892	26.9
549.236	26.86
549.58	27.11
549.924	27.09
550.268	27.1
550.612	27.06
550.956	27.16
551.3	27.39
551.643	27.39
551.987	27.9
552.33	27.67
552.674	27.69
553.017	27.78
553.361	27.64
553.704	27.48
554.048	27.69
554.391	27.73
554.734	27.77
555.077	27.53
555.42	27.68
555.764	27.73
556.107	27.68
556.45	27.69
556.793	27.73
557.135	27.8
557.478	27.93
557.821	28.02
558.164	27.82
558.507	27.74
558.849	28.05
559.192	28.03
559.534	28.02
559.877	28.12
560.219	28.3
560.562	28.24
560.904	28.21
561.246	27.91
561.589	28.11
561.931	28.32
562.273	28.3
562.615	28.23
562.957	28.6
563.299	28.4
563.641	28.23
563.983	28.83
564.325	28.42
564.667	28.34
565.008	28.47
565.35	28.7
565.692	28.49
566.033	28.69
566.375	28.84
566.716	28.78
567.058	28.69
567.399	28.58
567.741	28.39
568.082	28.65
568.423	28.53
568.764	28.48
569.105	28.47
569.447	28.58
569.788	28.59
570.129	28.5
570.47	28.97
570.811	28.65
571.151	28.94
571.492	28.93
571.833	28.95
572.174	29.14
572.514	28.94
572.855	28.78
573.195	29.12
573.536	29.1
573.876	28.81
574.217	29.1
574.557	28.99
574.898	28.94
575.238	29.06
575.578	29.04
575.918	29.08
576.258	29.01
576.598	29.15
576.938	28.99
577.278	29.08
577.618	29.05
577.958	29.09
578.298	29.38
578.638	29.63
578.977	29.52
579.317	29.53
579.657	29.48
579.996	29.31
580.336	29.59
580.675	29.77
581.014	29.61
581.354	29.35
581.693	29.76
582.032	29.65
582.372	29.97
582.711	29.68
583.05	29.7
583.389	30.1
583.728	29.91
584.067	29.83
584.406	30.05
584.745	30.16
585.083	30.05
585.422	30.12
585.761	30.28
586.1	29.95
586.438	30.05
586.777	30.15
587.115	29.92
587.454	30.11
587.792	30.18
588.13	30.06
588.469	30.27
588.807	30.31
589.145	30.59
589.483	30.34
589.821	30.16
590.159	30.44
590.497	30.39
590.835	30.5
591.173	30.28
591.511	30.33
591.849	30.27
592.187	30.24
592.524	30.3
592.862	30.12
593.2	30.32
593.537	30.56
593.875	30.54
594.212	30.78
594.55	30.76
594.887	30.91
595.224	30.88
595.561	30.6
595.899	30.38
596.236	30.78
596.573	30.72
596.91	30.51
597.247	30.75
597.584	30.55
597.921	30.67
598.258	30.83
598.594	30.73
598.931	30.64
599.268	30.73
599.604	30.73
599.941	30.61
600.277	30.79
600.614	30.95
600.95	30.7
601.287	31.04
601.623	31.21
601.959	30.94
602.296	31.18
602.632	30.99
602.968	31.14
603.304	31.21
603.64	31.27
603.976	31.32
604.312	31.69
604.648	31.46
604.984	31.4
605.319	31.48
605.655	31.23
605.991	31.14
606.326	31.16
606.662	31.14
606.998	30.98
607.333	31.32
607.668	31.62
608.004	31.3
608.339	31.67
608.674	31.94
609.01	31.45
609.345	31.3
609.68	31.42
610.015	31.66
610.35	31.39
610.685	31.21
611.02	31.87
611.355	31.94
611.689	31.69
612.024	31.78
612.359	31.8
612.694	31.76
613.028	31.92
613.363	31.9
613.697	31.7
614.032	31.99
614.366	31.92
614.7	32.02
615.035	31.92
615.369	32.11
615.703	31.91
616.037	31.99
616.371	32.23
616.705	32.28
617.039	32.16
617.373	32.05
617.707	32.54
618.041	31.99
618.375	32.42
618.709	32.68
619.042	32.27
619.376	32.43
619.71	32.29
620.043	32.51
620.377	32.44
620.71	32.32
621.043	32.47
621.377	32.35
621.71	32.99
622.043	32.29
622.376	32.64
622.709	32.76
623.043	32.64
623.376	32.63
623.709	33.26
624.041	32.66
624.374	32.84
624.707	32.77
625.04	33.5
625.373	32.79
625.705	32.97
626.038	32.83
626.37	32.95
626.703	32.75
627.035	32.99
627.368	32.9
627.7	32.69
628.032	32.9
628.365	33.05
628.697	32.75
629.029	32.94
629.361	32.42
629.693	32.82
630.025	32.77
630.357	32.74
630.689	32.6
631.021	33.09
631.353	33.19
631.684	33.01
632.016	33.23
632.348	33.53
632.679	33.34
633.011	32.89
633.342	33.22
633.674	33.33
634.005	33.32
634.336	33.57
634.668	33.36
634.999	33.61
635.33	33.25
635.661	33.81
635.992	33.29
636.323	33.78
636.654	33.83
636.985	33.4
637.316	33.54
637.647	33.68
637.977	33.93
638.308	33.83
638.639	33.35
638.969	33.77
639.3	33.55
639.63	33.57
639.961	33.62
640.291	34.35
640.622	33.93
640.952	33.97
641.282	33.63
641.612	34.2
641.943	33.96
642.273	33.59
642.603	34.26
642.933	33.66
643.263	33.79
643.592	33.78
643.922	34.27
644.252	34.22
644.582	34.02
644.911	34.12
645.241	33.64
645.571	34.57
645.9	34.09
646.23	34.33
646.559	34.5
646.888	34.13
647.218	34.61
647.547	33.59
647.876	34.47
648.205	34.26
648.534	34.3
648.863	34.56
649.192	34.32
649.521	34.39
649.85	34.25
650.179	35.04
650.508	34.74
650.837	34.06
651.165	34.99
651.494	34.52
651.822	34.43
652.151	35.18
652.479	34.73
652.808	35.42
653.136	34.5
653.465	34.67
653.793	34.8
654.121	35.03
654.449	34.75
654.777	34.64
655.105	35.07
655.433	34.52
655.761	34.16
656.089	35.05
656.417	35.34
656.745	34.62
657.073	35.16
657.4	35.52
657.728	35.18
658.056	34.44
658.383	35.31
658.711	35.21
659.038	35.38
659.365	35.43
659.693	34.8
660.02	35.06
660.347	35.53
660.674	34.93
661.001	34.68
661.329	35.16
661.656	34.81
661.982	34.83
662.309	35.19
662.636	35.11
662.963	35.06
663.29	35.29
663.616	35.06
663.943	34.99
664.27	35.52
664.596	35.92
664.923	36.16
665.249	34.91
665.576	35.97
665.902	35.7
666.228	35.81
666.554	35.93
666.881	35.69
667.207	36.37
667.533	35.49
667.859	35.8
668.185	36.44
668.511	35.32
668.837	36.53
669.162	35.94
669.488	36.69
