Data from 0357_forehead_Reflection__2__96.txt Node

Date: Mon Dec 11 18:51:17 CST 2023
User: ToomeyLab
Spectrometer: FLMS14357
Trigger mode: 0
Integration Time (sec): 1.000000E-2
Scans to average: 100
Electric dark correction enabled: true
Nonlinearity correction enabled: false
Boxcar width: 0
XAxis mode: Wavelengths
Number of Pixels in Spectrum: 2048
>>>>>Begin Spectral Data<<<<<
189.047	240.09
189.435	240.09
189.823	240.09
190.211	223.43
190.599	81.66
190.987	47.92
191.375	95.45
191.763	178.99
192.151	-86.99
192.538	284.02
192.926	-1153.61
193.314	54.32
193.702	98.26
194.089	188.89
194.477	199.39
194.864	41.92
195.252	131.76
195.639	623.69
196.027	80.89
196.414	-34.06
196.801	-96.95
197.189	-90.72
197.576	112.13
197.963	-344.44
198.351	63.45
198.738	6.21
199.125	-20.36
199.512	48.43
199.899	60.59
200.286	-5.68
200.673	18.78
201.06	144.69
201.447	59.97
201.833	45.36
202.22	59.01
202.607	75.38
202.994	24.71
203.38	-12.74
203.767	52.21
204.154	37.36
204.54	42.67
204.927	1.58
205.313	27.86
205.699	0.78
206.086	14.74
206.472	21.81
206.858	38.87
207.245	24.14
207.631	31.02
208.017	11.05
208.403	-9.07
208.789	-26.77
209.175	26.16
209.561	4.25
209.947	41.34
210.333	72.93
210.719	60.97
211.105	42.24
211.491	39.81
211.876	40.94
212.262	-46.64
212.648	31.76
213.034	1.09
213.419	30.47
213.805	65.32
214.19	58.25
214.576	14.32
214.961	22.91
215.346	27.22
215.732	-2.27
216.117	1.06
216.502	17.37
216.888	24.72
217.273	23.92
217.658	17.8
218.043	10.6
218.428	8.67
218.813	35.77
219.198	20.99
219.583	21.52
219.968	2.39
220.353	7.63
220.738	50.27
221.122	32.54
221.507	26.43
221.892	19.83
222.276	27.05
222.661	23.86
223.046	-1.31
223.43	2.69
223.815	8.47
224.199	20.41
224.583	15.88
224.968	19.83
225.352	8.37
225.736	10.35
226.121	11.04
226.505	9.9
226.889	3.75
227.273	1.2
227.657	17.25
228.041	3.34
228.425	5.28
228.809	4.11
229.193	3.84
229.577	7.28
229.961	6.52
230.344	4.25
230.728	5.56
231.112	5.02
231.495	5.14
231.879	5.22
232.263	3.25
232.646	4.89
233.03	4.07
233.413	6.88
233.797	6.99
234.18	6.83
234.563	7.57
234.946	7.24
235.33	7.65
235.713	6.49
236.096	6.67
236.479	5.2
236.862	5.02
237.245	6.8
237.628	5.97
238.011	4.9
238.394	6.55
238.777	4.51
239.16	6.41
239.543	4.8
239.925	5.33
240.308	5.28
240.691	6.2
241.073	7.09
241.456	5.93
241.838	7.54
242.221	7.5
242.603	4.17
242.986	5.09
243.368	5.45
243.75	5.06
244.133	5.19
244.515	5.05
244.897	4.96
245.279	5.43
245.661	4.83
246.043	6.14
246.425	5.78
246.807	5.07
247.189	6.25
247.571	6.14
247.953	4.82
248.335	5.45
248.717	5.36
249.098	4.83
249.48	4.9
249.862	5.13
250.243	5.31
250.625	4.98
251.006	4.93
251.388	5.27
251.769	6.1
252.151	7.23
252.532	5.95
252.913	6.57
253.295	5.88
253.676	5.18
254.057	5.07
254.438	5.58
254.819	5.05
255.2	4.02
255.581	4.27
255.962	5.5
256.343	5.08
256.724	5.89
257.105	5.75
257.486	3.98
257.867	5.96
258.247	4.17
258.628	4.94
259.009	5.73
259.389	6.01
259.77	5.57
260.15	5.25
260.531	5.8
260.911	4.7
261.292	5.29
261.672	4.97
262.052	5.1
262.432	4.96
262.813	4.97
263.193	4.64
263.573	5.6
263.953	5.16
264.333	5.32
264.713	5.78
265.093	4.93
265.473	5.45
265.853	5.57
266.233	5.22
266.612	5.69
266.992	6.21
267.372	6.44
267.752	6.12
268.131	5.78
268.511	4.9
268.89	5.55
269.27	6.17
269.649	5.93
270.029	5.87
270.408	5.66
270.787	5.04
271.167	5.05
271.546	5.24
271.925	5.34
272.304	5.26
272.683	5.17
273.062	5.24
273.441	5.21
273.82	4.72
274.199	5.01
274.578	4.98
274.957	5.06
275.336	5.21
275.715	5.21
276.093	6.08
276.472	4.98
276.851	5.21
277.229	5.5
277.608	5.59
277.986	5.54
278.365	4.91
278.743	5.73
279.122	5.34
279.5	5.49
279.878	5.43
280.257	5.06
280.635	5.07
281.013	4.72
281.391	5.59
281.769	5.02
282.147	5.09
282.525	4.86
282.903	5.34
283.281	5.01
283.659	5.02
284.037	4.73
284.415	5.2
284.792	5.14
285.17	5.05
285.548	5.39
285.925	5.13
286.303	5.61
286.68	5.3
287.058	5.19
287.435	5.15
287.813	5.56
288.19	5.25
288.567	5.31
288.945	5.59
289.322	5.36
289.699	5.39
290.076	5.29
290.453	6.05
290.83	6.08
291.207	5.87
291.584	6.08
291.961	5.81
292.338	5.74
292.715	6.36
293.092	5.72
293.469	5.92
293.845	6.35
294.222	6.77
294.599	5.99
294.975	5.93
295.352	6.13
295.728	5.92
296.105	6.56
296.481	6.02
296.858	6.11
297.234	7.01
297.61	6.85
297.986	6.67
298.363	6.66
298.739	6.5
299.115	6.45
299.491	6.35
299.867	6.58
300.243	6.81
300.619	6.72
300.995	6.48
301.371	7
301.746	6.63
302.122	7.19
302.498	7.5
302.874	7.15
303.249	6.97
303.625	7.89
304	7.72
304.376	7.29
304.751	7.74
305.127	7.86
305.502	8.2
305.878	7.83
306.253	8
306.628	8.25
307.003	8.1
307.378	8.22
307.754	8.09
308.129	8.34
308.504	8.17
308.879	7.82
309.254	9.01
309.629	8.92
310.003	8.45
310.378	8.24
310.753	8.72
311.128	8.96
311.502	8.61
311.877	9.02
312.252	8.81
312.626	9.15
313.001	9.02
313.375	8.82
313.75	9.17
314.124	9.38
314.498	9.27
314.873	9.46
315.247	9.81
315.621	10.55
315.995	9.86
316.369	9.76
316.743	10.1
317.117	10.47
317.491	10.82
317.865	10.43
318.239	10.88
318.613	10.7
318.987	10.42
319.361	10.71
319.734	10.76
320.108	10.96
320.482	11.11
320.855	11.19
321.229	10.76
321.602	10.81
321.976	11.63
322.349	11.56
322.723	11.27
323.096	12.78
323.469	12.25
323.843	11.66
324.216	12.32
324.589	12.76
324.962	11.79
325.335	12.29
325.708	12.06
326.081	12.53
326.454	12.12
326.827	12.12
327.2	11.87
327.573	12.4
327.945	13.01
328.318	12.5
328.691	12.6
329.063	12.61
329.436	12.42
329.809	12.56
330.181	12.76
330.553	12.95
330.926	13.5
331.298	13.85
331.671	12.36
332.043	13.35
332.415	12.97
332.787	13.37
333.159	13.09
333.532	13.66
333.904	13.26
334.276	14.13
334.648	13.74
335.02	13.7
335.391	13.54
335.763	13.62
336.135	13.94
336.507	14.38
336.879	14.61
337.25	13.64
337.622	14
337.993	14.12
338.365	14.01
338.736	14.7
339.108	14.56
339.479	14.34
339.851	14.51
340.222	14.57
340.593	14.49
340.964	15.35
341.336	15.21
341.707	14.57
342.078	14.93
342.449	14.58
342.82	14.87
343.191	14.96
343.562	15.08
343.933	15.19
344.303	14.58
344.674	15.15
345.045	15.37
345.416	15.16
345.786	15.88
346.157	15.14
346.527	15.61
346.898	15.7
347.268	15.72
347.639	15.82
348.009	15.75
348.38	15.06
348.75	15.73
349.12	15.87
349.49	16.03
349.861	16.22
350.231	15.75
350.601	16.43
350.971	16.32
351.341	15.92
351.711	16.35
352.081	16.24
352.45	16.68
352.82	16.27
353.19	16.46
353.56	16.7
353.929	16.86
354.299	17.15
354.669	17
355.038	16.73
355.408	16.64
355.777	17.22
356.147	17.03
356.516	17.2
356.885	17.04
357.254	17.13
357.624	17.61
357.993	16.95
358.362	17.27
358.731	17.02
359.1	17.66
359.469	17.54
359.838	17.65
360.207	17.46
360.576	17.94
360.945	18.37
361.314	18.06
361.682	17.85
362.051	18
362.42	17.75
362.788	17.76
363.157	17.9
363.525	17.88
363.894	18.32
364.262	18.2
364.631	18.36
364.999	18.22
365.367	18.4
365.735	18.22
366.104	17.91
366.472	18.27
366.84	18.17
367.208	18.47
367.576	18.9
367.944	18.79
368.312	18.78
368.68	19.03
369.048	18.73
369.416	18.31
369.783	19.2
370.151	18.89
370.519	19.55
370.886	19.31
371.254	19.12
371.621	19.58
371.989	19.43
372.356	19.45
372.724	19.66
373.091	20.09
373.458	19.95
373.826	20.09
374.193	19.79
374.56	19.8
374.927	19.7
375.294	19.81
375.661	20.04
376.028	20.32
376.395	20
376.762	20.45
377.129	20.38
377.496	20.14
377.863	20.16
378.229	20.4
378.596	20.29
378.963	20.66
379.329	20.46
379.696	20.75
380.062	20.57
380.429	20.21
380.795	20.95
381.161	20.45
381.528	20.94
381.894	21.06
382.26	21.01
382.626	20.97
382.993	21.17
383.359	21.01
383.725	20.87
384.091	21.28
384.457	20.89
384.823	21.69
385.188	21.27
385.554	21.11
385.92	21.53
386.286	21.17
386.651	21.07
387.017	21.59
387.383	21.58
387.748	21.7
388.114	21.73
388.479	21.95
388.845	21.8
389.21	21.92
389.575	22.14
389.94	22.06
390.306	22.03
390.671	22.02
391.036	22.29
391.401	22.3
391.766	21.95
392.131	22.36
392.496	22.41
392.861	22.61
393.226	22.45
393.591	22.87
393.956	22.98
394.32	22.65
394.685	22.66
395.05	22.7
395.414	23
395.779	22.75
396.143	22.88
396.508	22.77
396.872	23.12
397.236	22.78
397.601	22.98
397.965	23.36
398.329	23.36
398.694	22.81
399.058	23
399.422	23.17
399.786	23.19
400.15	22.95
400.514	23.69
400.878	23.64
401.242	23.65
401.605	23.43
401.969	23.51
402.333	23.42
402.697	23.81
403.06	23.91
403.424	23.81
403.787	24.26
404.151	24.04
404.514	23.69
404.878	24.09
405.241	24.04
405.604	23.99
405.968	24.31
406.331	23.81
406.694	24.08
407.057	24.35
407.42	24.43
407.783	24
408.146	24.56
408.509	24.35
408.872	24.33
409.235	24.3
409.598	24.56
409.961	24.58
410.323	24.85
410.686	24.75
411.049	24.93
411.411	24.94
411.774	25.04
412.136	25
412.499	24.99
412.861	24.88
413.223	24.94
413.586	25.04
413.948	25.41
414.31	25.4
414.672	24.94
415.035	25.16
415.397	25.54
415.759	25.46
416.121	25.57
416.483	25.4
416.845	25.6
417.206	25.13
417.568	25.74
417.93	25.68
418.292	25.36
418.653	25.28
419.015	25.32
419.377	25.73
419.738	25.5
420.1	25.57
420.461	25.5
420.822	25.5
421.184	25.61
421.545	25.59
421.906	25.63
422.267	25.54
422.629	25.48
422.99	25.67
423.351	25.54
423.712	25.42
424.073	25.51
424.434	25.72
424.795	25.72
425.155	25.98
425.516	25.89
425.877	25.94
426.238	25.99
426.598	26.03
426.959	26
427.32	26.12
427.68	26.18
428.041	26.2
428.401	26.35
428.761	26.59
429.122	26.58
429.482	26.76
429.842	26.8
430.202	26.85
430.563	26.93
430.923	26.98
431.283	27.16
431.643	27.08
432.003	27.58
432.363	27.24
432.722	27.31
433.082	27.32
433.442	27.31
433.802	27.19
434.161	27.45
434.521	27.34
434.881	27.37
435.24	27.3
435.6	27.39
435.959	27.18
436.319	27.07
436.678	27.53
437.037	27.79
437.396	27.82
437.756	27.95
438.115	28.04
438.474	27.99
438.833	28.02
439.192	28.16
439.551	28
439.91	28.09
440.269	27.91
440.628	27.79
440.987	28.08
441.345	28.06
441.704	27.94
442.063	27.96
442.421	28.07
442.78	27.98
443.138	28.01
443.497	28.14
443.855	28.01
444.214	28.27
444.572	28.35
444.93	28.4
445.288	28.82
445.647	28.73
446.005	28.67
446.363	28.85
446.721	28.71
447.079	28.64
447.437	28.68
447.795	28.53
448.153	28.58
448.51	28.76
448.868	28.49
449.226	28.55
449.584	28.81
449.941	28.79
450.299	28.75
450.656	28.94
451.014	29.25
451.371	29.21
451.729	29.13
452.086	29.14
452.443	29.39
452.801	29.51
453.158	29.45
453.515	29.43
453.872	29.66
454.229	29.5
454.586	29.58
454.943	29.7
455.3	29.61
455.657	29.59
456.014	29.74
456.371	29.85
456.727	30
457.084	29.82
457.441	30.14
457.797	30.03
458.154	30.16
458.51	30.32
458.867	29.88
459.223	30.17
459.58	30.31
459.936	30.54
460.292	30.34
460.648	30.33
461.005	30.42
461.361	30.21
461.717	30.06
462.073	29.9
462.429	29.9
462.785	29.98
463.141	30.22
463.496	30.43
463.852	30.36
464.208	30.53
464.564	30.72
464.919	30.71
465.275	30.75
465.631	30.92
465.986	31.02
466.342	31.05
466.697	31.05
467.052	30.89
467.408	31.24
467.763	31.04
468.118	30.95
468.473	31.31
468.829	31.23
469.184	31.4
469.539	31.36
469.894	31.1
470.249	31.36
470.603	31.29
470.958	31.44
471.313	31.5
471.668	31.59
472.023	31.63
472.377	31.45
472.732	31.69
473.086	31.74
473.441	31.74
473.795	31.6
474.15	31.85
474.504	31.79
474.859	31.99
475.213	31.5
475.567	31.96
475.921	31.86
476.275	31.94
476.63	32.03
476.984	31.93
477.338	31.87
477.692	32.22
478.045	32.16
478.399	31.86
478.753	31.97
479.107	32.22
479.461	32.25
479.814	32.03
480.168	32.23
480.521	32.18
480.875	32.33
481.228	32.25
481.582	32.33
481.935	32.41
482.289	32.47
482.642	32.49
482.995	32.43
483.348	32.55
483.701	32.43
484.055	32.38
484.408	32.28
484.761	32.24
485.114	31.98
485.466	31.84
485.819	31.81
486.172	31.6
486.525	31.22
486.878	31.28
487.23	31.57
487.583	32.01
487.936	32.23
488.288	32.37
488.641	32.42
488.993	32.26
489.345	32.26
489.698	32.17
490.05	32.07
490.402	32.01
490.754	32.03
491.107	32.21
491.459	32.53
491.811	32.77
492.163	32.84
492.515	32.86
492.866	32.95
493.218	32.91
493.57	32.78
493.922	32.39
494.274	32.35
494.625	32.41
494.977	32.9
495.328	33.25
495.68	33.5
496.031	33.53
496.383	33.65
496.734	33.84
497.086	33.75
497.437	33.89
497.788	33.95
498.139	33.9
498.49	33.89
498.842	33.93
499.193	33.91
499.544	33.63
499.894	33.79
500.245	34.03
500.596	34.24
500.947	34.11
501.298	34.18
501.648	34.15
501.999	34.2
502.35	34.41
502.7	34.42
503.051	34.38
503.401	34.61
503.752	34.45
504.102	34.56
504.452	34.71
504.803	34.7
505.153	34.79
505.503	34.86
505.853	34.92
506.203	34.62
506.553	34.81
506.903	34.66
507.253	34.79
507.603	34.73
507.953	35.02
508.303	34.97
508.652	34.91
509.002	35.15
509.352	35.17
509.701	35.16
510.051	35.14
510.4	35.03
510.75	34.97
511.099	35.01
511.449	34.84
511.798	35.07
512.147	35.38
512.496	35.21
512.846	35.19
513.195	35.38
513.544	35.26
513.893	35.41
514.242	35.32
514.591	35.38
514.939	35.4
515.288	35.45
515.637	35.47
515.986	35.59
516.334	35.56
516.683	35.79
517.032	35.6
517.38	35.85
517.729	35.82
518.077	35.83
518.426	35.8
518.774	36.17
519.122	35.95
519.47	35.91
519.819	35.76
520.167	35.84
520.515	35.69
520.863	35.57
521.211	35.58
521.559	35.46
521.907	35.75
522.255	35.9
522.602	35.94
522.95	36.24
523.298	36.25
523.645	36.37
523.993	36.28
524.341	36.39
524.688	36.6
525.036	36.36
525.383	36.48
525.73	36.44
526.078	36.66
526.425	36.64
526.772	36.59
527.119	36.64
527.466	36.35
527.814	36.14
528.161	36.06
528.508	36.17
528.854	36.27
529.201	36.16
529.548	36.21
529.895	36.39
530.242	36.1
530.588	36.02
530.935	35.89
531.282	35.68
531.628	35.6
531.975	35.81
532.321	36.24
532.667	36.48
533.014	36.46
533.36	36.66
533.706	36.88
534.052	36.76
534.399	36.75
534.745	36.9
535.091	36.77
535.437	36.5
535.783	36.4
536.129	36.53
536.474	36.65
536.82	36.78
537.166	37.09
537.512	37.32
537.857	37.29
538.203	37.18
538.549	37.29
538.894	37.36
539.239	37.14
539.585	36.82
539.93	37.47
540.276	37.42
540.621	37.5
540.966	37.82
541.311	37.81
541.656	37.82
542.001	38.06
542.346	37.83
542.691	37.52
543.036	37.49
543.381	37.36
543.726	37.17
544.071	37
544.415	37.07
544.76	37.32
545.105	37.7
545.449	37.48
545.794	37.73
546.138	37.64
546.483	37.78
546.827	38.21
547.171	38.23
547.516	38.11
547.86	38.2
548.204	38.4
548.548	38.37
548.892	38.34
549.236	38.39
549.58	38.4
549.924	38.5
550.268	38.37
550.612	38.4
550.956	38.77
551.3	38.92
551.643	38.82
551.987	39.16
552.33	39.03
552.674	39.07
553.017	39.06
553.361	39.17
553.704	39.14
554.048	39.18
554.391	39.49
554.734	39.26
555.077	39.03
555.42	39.19
555.764	39.13
556.107	39.26
556.45	39.34
556.793	39.39
557.135	39.44
557.478	39.51
557.821	39.55
558.164	39.54
558.507	39.54
558.849	39.63
559.192	39.65
559.534	39.77
559.877	39.93
560.219	39.81
560.562	39.68
560.904	39.82
561.246	39.78
561.589	40.15
561.931	39.82
562.273	39.71
562.615	39.93
562.957	40.15
563.299	39.92
563.641	39.99
563.983	40.11
564.325	40
564.667	40.24
565.008	40.06
565.35	40.51
565.692	40.5
566.033	40.36
566.375	40.43
566.716	40.49
567.058	40.18
567.399	40.34
567.741	40.37
568.082	40.15
568.423	40.19
568.764	40.19
569.105	40.22
569.447	40.29
569.788	40.05
570.129	40.42
570.47	40.61
570.811	40.44
571.151	40.55
571.492	40.96
571.833	40.6
572.174	40.68
572.514	40.85
572.855	40.8
573.195	40.8
573.536	40.77
573.876	40.86
574.217	40.94
574.557	40.89
574.898	40.86
575.238	40.65
575.578	40.94
575.918	41.17
576.258	41.19
576.598	40.86
576.938	40.88
577.278	40.99
577.618	41.11
577.958	40.98
578.298	41.31
578.638	41.15
578.977	41.22
579.317	41.21
579.657	41.18
579.996	41.19
580.336	41.61
580.675	41.48
581.014	41.35
581.354	41.22
581.693	41.76
582.032	41.46
582.372	41.99
582.711	41.6
583.05	41.76
583.389	41.68
583.728	41.98
584.067	41.65
584.406	42.09
584.745	41.77
585.083	42.23
585.422	41.62
585.761	42.01
586.1	41.79
586.438	42.24
586.777	42.34
587.115	41.83
587.454	42.2
587.792	42.29
588.13	42.21
588.469	42.19
588.807	42.31
589.145	42.5
589.483	42.29
589.821	42.13
590.159	42.29
590.497	42.44
590.835	42.46
591.173	42.56
591.511	42.73
591.849	42.46
592.187	42.24
592.524	42.4
592.862	42.62
593.2	42.33
593.537	42.69
593.875	42.83
594.212	42.97
594.55	42.76
594.887	42.48
595.224	42.73
595.561	42.99
595.899	42.62
596.236	42.65
596.573	42.96
596.91	42.71
597.247	42.77
597.584	42.65
597.921	42.46
598.258	43.02
598.594	42.89
598.931	42.86
599.268	42.79
599.604	42.57
599.941	42.52
600.277	42.75
600.614	42.73
600.95	42.44
601.287	42.89
601.623	43.2
601.959	43.06
602.296	43.37
602.632	42.96
602.968	43.16
603.304	43.66
603.64	43.47
603.976	43.27
604.312	43.67
604.648	43.28
604.984	43.5
605.319	43.55
605.655	43.57
605.991	43.14
606.326	43.24
606.662	43.21
606.998	43.13
607.333	43.16
607.668	43.34
608.004	42.85
608.339	43.44
608.674	43.65
609.01	43.41
609.345	43.27
609.68	43.37
610.015	43.93
610.35	44.03
610.685	43.92
611.02	43.87
611.355	44.03
611.689	43.83
612.024	43.85
612.359	43.8
612.694	43.67
613.028	43.55
613.363	43.87
613.697	43.78
614.032	44.13
614.366	43.94
614.7	44.45
615.035	44.35
615.369	44.28
615.703	44.43
616.037	44.12
616.371	44.18
616.705	44.7
617.039	44.52
617.373	43.94
617.707	44.52
618.041	44.37
618.375	44.51
618.709	44.43
619.042	44.41
619.376	44.62
619.71	44.35
620.043	44.29
620.377	44.62
620.71	44.72
621.043	44.35
621.377	44.41
621.71	44.7
622.043	44.67
622.376	44.59
622.709	45.02
623.043	44.76
623.376	44.58
623.709	45.11
624.041	45.12
624.374	45.1
624.707	45.02
625.04	45.26
625.373	45.03
625.705	45.29
626.038	44.92
626.37	45.46
626.703	45.08
627.035	44.93
627.368	44.95
627.7	45.16
628.032	44.76
628.365	45.4
628.697	45.17
629.029	45.54
629.361	45.26
629.693	45.22
630.025	45.49
630.357	44.98
630.689	45.44
631.021	45.22
631.353	45.4
631.684	45.29
632.016	45.43
632.348	45.18
632.679	45.51
633.011	45.43
633.342	46.04
633.674	45.78
634.005	45.72
634.336	45.81
634.668	45.48
634.999	45.69
635.33	45.9
635.661	45.83
635.992	45.79
636.323	45.89
636.654	46.13
636.985	45.64
637.316	45.41
637.647	45.86
637.977	45.64
638.308	45.56
638.639	45.88
638.969	45.8
639.3	45.73
639.63	45.91
639.961	46.22
640.291	46.16
640.622	46.01
640.952	46.15
641.282	46.2
641.612	46.69
641.943	46.36
642.273	46.09
642.603	46.43
642.933	46.62
643.263	46.24
643.592	46.34
643.922	46.14
644.252	46.19
644.582	46.46
644.911	46.63
645.241	46.09
645.571	46.34
645.9	47.01
646.23	46.48
646.559	46.22
646.888	46.32
647.218	46.85
647.547	46.47
647.876	46.68
648.205	46.39
648.534	46.56
648.863	46.97
649.192	47.18
649.521	46.45
649.85	46.45
650.179	46.94
650.508	46.79
650.837	46.24
651.165	46.97
651.494	46.75
651.822	46.71
652.151	47.29
652.479	46.72
652.808	46.74
653.136	46.36
653.465	47.28
653.793	47.14
654.121	47.22
654.449	46.74
654.777	47.22
655.105	47.05
655.433	46.71
655.761	47.03
656.089	47.73
656.417	47.01
656.745	47.31
657.073	47.52
657.4	47.39
657.728	47.18
658.056	46.42
658.383	47.1
658.711	46.7
659.038	47.77
659.365	46.9
659.693	47.21
660.02	46.91
660.347	46.98
660.674	47.27
661.001	47.56
661.329	47.81
661.656	47.82
661.982	47.35
662.309	47.21
662.636	47.33
662.963	47.09
663.29	47.62
663.616	47.6
663.943	47.31
664.27	47.54
664.596	47.61
664.923	47.29
665.249	47.99
665.576	47.18
665.902	47.91
666.228	48
666.554	47.46
666.881	47.36
667.207	47.27
667.533	47.99
667.859	48.24
668.185	48.32
668.511	47.75
668.837	47.52
669.162	48.53
669.488	48.21
