Data from 0357_chest_Reflection__0__83.txt Node

Date: Mon Dec 11 18:35:03 CST 2023
User: ToomeyLab
Spectrometer: FLMS14357
Trigger mode: 0
Integration Time (sec): 1.000000E-2
Scans to average: 100
Electric dark correction enabled: true
Nonlinearity correction enabled: false
Boxcar width: 0
XAxis mode: Wavelengths
Number of Pixels in Spectrum: 2048
>>>>>Begin Spectral Data<<<<<
189.047	-508.76
189.435	-508.76
189.823	-508.76
190.211	1385.14
190.599	252.74
190.987	113.85
191.375	75.3
191.763	45.2
192.151	181.84
192.538	127.82
192.926	-1517.53
193.314	-17.57
193.702	8.69
194.089	-304.76
194.477	-37.81
194.864	85.99
195.252	261.63
195.639	658.63
196.027	5.46
196.414	-38.68
196.801	84.1
197.189	149.17
197.576	226.33
197.963	838.1
198.351	-73.1
198.738	12.39
199.125	-16.53
199.512	11.92
199.899	-38.52
200.286	12.81
200.673	-406.9
201.06	-7.18
201.447	-59.02
201.833	11.76
202.22	41.12
202.607	-53.73
202.994	-26.61
203.38	9.44
203.767	27.36
204.154	16.94
204.54	-11.52
204.927	-11.7
205.313	-10.05
205.699	-64.66
206.086	-59.33
206.472	63.41
206.858	3.87
207.245	24.02
207.631	-10.33
208.017	30.18
208.403	-2.64
208.789	-42.97
209.175	23.36
209.561	-15.55
209.947	-6.13
210.333	10.45
210.719	17.11
211.105	2.1
211.491	18.23
211.876	-20.67
212.262	5.28
212.648	-1.34
213.034	-15.19
213.419	2.02
213.805	-59.21
214.19	3.01
214.576	-11.33
214.961	8.8
215.346	-27.07
215.732	-22.6
216.117	24.85
216.502	24.67
216.888	7.66
217.273	12.15
217.658	-5.42
218.043	-21.29
218.428	-16.51
218.813	20.86
219.198	7.43
219.583	0.89
219.968	-3.99
220.353	-0.44
220.738	49.88
221.122	14.43
221.507	32.51
221.892	23.8
222.276	12.99
222.661	-12.95
223.046	-13.26
223.43	2.87
223.815	6.76
224.199	9.39
224.583	0.27
224.968	0.73
225.352	10.1
225.736	-3.98
226.121	0.68
226.505	2.13
226.889	9.48
227.273	0.74
227.657	6.68
228.041	0.46
228.425	-0.47
228.809	0.01
229.193	5.13
229.577	7.48
229.961	3.83
230.344	5.26
230.728	4.37
231.112	4.96
231.495	4.98
231.879	4.79
232.263	3.44
232.646	3.36
233.03	4.14
233.413	5.68
233.797	5.77
234.18	3.07
234.563	4.53
234.946	2.78
235.33	5.49
235.713	3.97
236.096	4.66
236.479	7.35
236.862	3.75
237.245	4.03
237.628	5.76
238.011	5.5
238.394	4.66
238.777	3.47
239.16	4.3
239.543	3.22
239.925	5.06
240.308	4.63
240.691	4.21
241.073	4.76
241.456	6.24
241.838	5.95
242.221	5.21
242.603	4.5
242.986	4.19
243.368	4.28
243.75	4.13
244.133	5.03
244.515	4.67
244.897	4.86
245.279	4.72
245.661	4.51
246.043	5.51
246.425	4.81
246.807	5.02
247.189	5.18
247.571	4.73
247.953	4.48
248.335	5.17
248.717	5.19
249.098	4.62
249.48	4.67
249.862	5.18
250.243	4.66
250.625	4.8
251.006	4.28
251.388	4.05
251.769	4.67
252.151	5.54
252.532	4.27
252.913	3.74
253.295	4.39
253.676	4.3
254.057	4.52
254.438	4.8
254.819	4.12
255.2	4.23
255.581	3.16
255.962	5.32
256.343	3.55
256.724	5.85
257.105	3.37
257.486	3.48
257.867	5.38
258.247	3.78
258.628	4.26
259.009	5.33
259.389	4.65
259.77	4.76
260.15	4.78
260.531	4.69
260.911	4.47
261.292	4.26
261.672	4.49
262.052	4.54
262.432	4.49
262.813	4.27
263.193	4.05
263.573	4.48
263.953	4.62
264.333	4.62
264.713	5.23
265.093	3.52
265.473	5.17
265.853	4.76
266.233	4.39
266.612	4.04
266.992	5.34
267.372	5.65
267.752	4.61
268.131	3.85
268.511	3.96
268.89	4.99
269.27	4.55
269.649	4.51
270.029	4.09
270.408	3.91
270.787	3.63
271.167	3.35
271.546	3.91
271.925	3.83
272.304	4
272.683	4.74
273.062	4.07
273.441	4.32
273.82	3.85
274.199	3.99
274.578	4.42
274.957	4.27
275.336	4
275.715	3.86
276.093	4.73
276.472	4.75
276.851	4.19
277.229	4.32
277.608	4.09
277.986	4.71
278.365	3.76
278.743	4.04
279.122	3.9
279.5	4.06
279.878	4.81
280.257	3.97
280.635	4.14
281.013	3.64
281.391	4.01
281.769	3.69
282.147	4.03
282.525	3.87
282.903	4
283.281	3.97
283.659	3.82
284.037	3.77
284.415	4.18
284.792	4.22
285.17	4.46
285.548	3.8
285.925	3.49
286.303	4.4
286.68	4.09
287.058	4.11
287.435	4.35
287.813	4.63
288.19	3.91
288.567	3.97
288.945	4.2
289.322	3.7
289.699	4.19
290.076	3.89
290.453	4.45
290.83	4.66
291.207	4.09
291.584	4.11
291.961	4.26
292.338	4.51
292.715	4.67
293.092	4.36
293.469	4.13
293.845	4.19
294.222	4.9
294.599	4.28
294.975	4.46
295.352	4.05
295.728	4.27
296.105	4.22
296.481	3.91
296.858	4.26
297.234	4.82
297.61	4.76
297.986	4.28
298.363	4.55
298.739	4.47
299.115	4.46
299.491	4.39
299.867	4.72
300.243	4.22
300.619	4.46
300.995	4.28
301.371	4.01
301.746	4.35
302.122	4.16
302.498	4.68
302.874	4.62
303.249	4.7
303.625	4.44
304	4.49
304.376	4.41
304.751	4.29
305.127	4.47
305.502	4.42
305.878	4.32
306.253	4.9
306.628	4.09
307.003	5
307.378	4.97
307.754	4.77
308.129	4.44
308.504	4.53
308.879	4.13
309.254	5.13
309.629	5.16
310.003	4.5
310.378	4.77
310.753	4.6
311.128	4.81
311.502	4.63
311.877	5.02
312.252	5.36
312.626	4.99
313.001	4.61
313.375	4.33
313.75	4.23
314.124	4.74
314.498	4.6
314.873	4.29
315.247	4.74
315.621	4.73
315.995	5.29
316.369	4.82
316.743	4.88
317.117	5.03
317.491	4.79
317.865	4.98
318.239	4.39
318.613	5.04
318.987	5.09
319.361	5.05
319.734	4.15
320.108	4.88
320.482	4.8
320.855	4.84
321.229	4.84
321.602	4.47
321.976	5.54
322.349	4.59
322.723	4.22
323.096	5
323.469	5.09
323.843	5.02
324.216	5.33
324.589	5.54
324.962	4.55
325.335	4.15
325.708	5.11
326.081	5.4
326.454	5.11
326.827	5.25
327.2	4.57
327.573	5.14
327.945	5.41
328.318	5.18
328.691	4.62
329.063	5.15
329.436	4.73
329.809	4.84
330.181	5.18
330.553	5.46
330.926	4.95
331.298	5.93
331.671	4.75
332.043	5.62
332.415	5.46
332.787	5.54
333.159	5.43
333.532	5.13
333.904	5.19
334.276	5.3
334.648	5.49
335.02	4.63
335.391	5.14
335.763	5.2
336.135	5.15
336.507	5.09
336.879	5.19
337.25	4.91
337.622	5.17
337.993	5.71
338.365	5.16
338.736	5.2
339.108	5.13
339.479	5.01
339.851	5.35
340.222	5.37
340.593	5.19
340.964	5.82
341.336	5.59
341.707	4.6
342.078	5.45
342.449	4.82
342.82	4.56
343.191	4.94
343.562	5.27
343.933	4.77
344.303	4.73
344.674	5.07
345.045	5.08
345.416	4.92
345.786	5.42
346.157	4.61
346.527	5
346.898	4.86
347.268	5.16
347.639	5.05
348.009	5.36
348.38	4.46
348.75	5.42
349.12	5.4
349.49	4.79
349.861	4.61
350.231	4.7
350.601	5.06
350.971	4.98
351.341	4.23
351.711	4.83
352.081	4.65
352.45	5.21
352.82	4.67
353.19	4.86
353.56	4.99
353.929	5.37
354.299	5.49
354.669	5.3
355.038	5.33
355.408	4.89
355.777	5.09
356.147	5.51
356.516	5.24
356.885	5.11
357.254	5.22
357.624	5.32
357.993	4.85
358.362	5.3
358.731	5.17
359.1	5.07
359.469	5.03
359.838	5.11
360.207	5.25
360.576	4.99
360.945	5.68
361.314	5.25
361.682	5.19
362.051	5.18
362.42	4.7
362.788	4.88
363.157	5.03
363.525	5.06
363.894	5.22
364.262	5.04
364.631	5.37
364.999	5.2
365.367	5.37
365.735	4.93
366.104	5.05
366.472	5.29
366.84	5.04
367.208	5.06
367.576	5.53
367.944	5.21
368.312	5.3
368.68	5.1
369.048	5.04
369.416	4.72
369.783	5.16
370.151	5.29
370.519	5.85
370.886	5.14
371.254	5.56
371.621	5.33
371.989	5.39
372.356	5.03
372.724	5.55
373.091	5.54
373.458	5.51
373.826	5.25
374.193	4.91
374.56	5.41
374.927	5.49
375.294	5.43
375.661	5.04
376.028	4.93
376.395	5.24
376.762	5.12
377.129	5.37
377.496	4.89
377.863	5.42
378.229	5.07
378.596	5.51
378.963	5.14
379.329	5.23
379.696	5.31
380.062	5.1
380.429	5.15
380.795	5.44
381.161	5.21
381.528	5.69
381.894	5.36
382.26	5.08
382.626	5.08
382.993	5.48
383.359	5.29
383.725	5.37
384.091	5.45
384.457	5.15
384.823	5.39
385.188	5.42
385.554	5.32
385.92	5.21
386.286	5.65
386.651	4.94
387.017	5.12
387.383	5.23
387.748	5.36
388.114	5.12
388.479	5.09
388.845	5.07
389.21	5.36
389.575	5.41
389.94	5.56
390.306	5.38
390.671	5.24
391.036	5.41
391.401	5.8
391.766	5.12
392.131	5.64
392.496	5.49
392.861	5.66
393.226	5.46
393.591	5.44
393.956	5.65
394.32	5.61
394.685	5.47
395.05	5.54
395.414	5.68
395.779	5.32
396.143	5.36
396.508	5.17
396.872	5.3
397.236	5.42
397.601	5.43
397.965	5.82
398.329	5.35
398.694	5.19
399.058	5.39
399.422	5.38
399.786	5.5
400.15	5.26
400.514	5.63
400.878	5.72
401.242	5.35
401.605	5.68
401.969	5.44
402.333	5.29
402.697	5.5
403.06	5.46
403.424	5.51
403.787	5.72
404.151	5.53
404.514	5.28
404.878	5.7
405.241	5.47
405.604	5.5
405.968	5.52
406.331	5.39
406.694	5.46
407.057	5.22
407.42	5.7
407.783	5.25
408.146	5.45
408.509	5.3
408.872	5.29
409.235	5.38
409.598	5.59
409.961	5.56
410.323	5.63
410.686	5.85
411.049	5.73
411.411	5.43
411.774	5.7
412.136	5.52
412.499	5.71
412.861	5.4
413.223	5.37
413.586	5.79
413.948	5.56
414.31	5.4
414.672	5.13
415.035	5.55
415.397	5.56
415.759	5.54
416.121	5.54
416.483	5.69
416.845	5.63
417.206	5.51
417.568	5.64
417.93	5.66
418.292	5.52
418.653	5.34
419.015	5.55
419.377	5.42
419.738	5.54
420.1	5.55
420.461	5.6
420.822	5.46
421.184	5.47
421.545	5.59
421.906	5.59
422.267	5.63
422.629	5.45
422.99	5.53
423.351	5.43
423.712	5.43
424.073	5.49
424.434	5.43
424.795	5.57
425.155	5.43
425.516	5.48
425.877	5.44
426.238	5.55
426.598	5.59
426.959	5.54
427.32	5.58
427.68	5.68
428.041	5.55
428.401	5.59
428.761	5.72
429.122	5.61
429.482	5.72
429.842	5.61
430.202	5.71
430.563	5.73
430.923	5.73
431.283	5.77
431.643	5.78
432.003	5.7
432.363	5.74
432.722	5.76
433.082	6.03
433.442	5.84
433.802	5.91
434.161	5.97
434.521	5.45
434.881	5.74
435.24	5.62
435.6	5.61
435.959	5.6
436.319	5.74
436.678	5.82
437.037	5.76
437.396	5.68
437.756	5.77
438.115	6.07
438.474	5.9
438.833	5.79
439.192	5.83
439.551	5.8
439.91	5.84
440.269	5.83
440.628	5.55
440.987	5.82
441.345	5.71
441.704	5.82
442.063	5.79
442.421	5.72
442.78	5.59
443.138	5.76
443.497	5.7
443.855	5.62
444.214	5.86
444.572	5.68
444.93	5.94
445.288	5.69
445.647	5.93
446.005	5.67
446.363	5.75
446.721	5.74
447.079	5.78
447.437	5.78
447.795	5.71
448.153	5.91
448.51	5.74
448.868	5.68
449.226	5.74
449.584	5.78
449.941	5.9
450.299	5.74
450.656	5.97
451.014	6
451.371	5.68
451.729	5.91
452.086	5.77
452.443	6.02
452.801	6.01
453.158	5.69
453.515	5.78
453.872	6.01
454.229	5.8
454.586	5.85
454.943	5.88
455.3	5.95
455.657	5.94
456.014	5.98
456.371	5.96
456.727	6.12
457.084	5.99
457.441	6.12
457.797	5.84
458.154	5.94
458.51	5.98
458.867	5.9
459.223	5.98
459.58	6.02
459.936	6.04
460.292	6.04
460.648	5.98
461.005	6.04
461.361	6.02
461.717	5.89
462.073	5.91
462.429	6
462.785	5.94
463.141	5.92
463.496	6.02
463.852	6.06
464.208	5.82
464.564	6.05
464.919	6.06
465.275	6.13
465.631	5.94
465.986	6.47
466.342	6.13
466.697	5.96
467.052	6.23
467.408	6.26
467.763	6.15
468.118	6.12
468.473	6.04
468.829	6.07
469.184	6.3
469.539	6.16
469.894	6.2
470.249	6.05
470.603	6.18
470.958	6.15
471.313	6.19
471.668	6.13
472.023	6.24
472.377	6.2
472.732	6.04
473.086	6.14
473.441	6.22
473.795	6.18
474.15	6.34
474.504	6.15
474.859	6.25
475.213	6.15
475.567	6.25
475.921	6.2
476.275	6.22
476.63	6.12
476.984	6.22
477.338	6.21
477.692	6.27
478.045	6.24
478.399	5.97
478.753	6.01
479.107	6.15
479.461	6.23
479.814	6.34
480.168	6.34
480.521	6.49
480.875	6.2
481.228	6.19
481.582	6.51
481.935	6.33
482.289	6.27
482.642	6.28
482.995	6.32
483.348	6.21
483.701	6.07
484.055	6.24
484.408	6.15
484.761	6.23
485.114	6.16
485.466	6.04
485.819	5.91
486.172	5.95
486.525	5.95
486.878	6.04
487.23	6.05
487.583	6.17
487.936	6.16
488.288	6.27
488.641	6.19
488.993	6.1
489.345	6.14
489.698	6.1
490.05	6.14
490.402	6.1
490.754	6.22
491.107	6.33
491.459	6.3
491.811	6.31
492.163	6.32
492.515	6.38
492.866	6.35
493.218	6.24
493.57	6.24
493.922	6.17
494.274	6.28
494.625	6.34
494.977	6.5
495.328	6.46
495.68	6.56
496.031	6.55
496.383	6.47
496.734	6.48
497.086	6.52
497.437	6.64
497.788	6.62
498.139	6.45
498.49	6.45
498.842	6.57
499.193	6.64
499.544	6.48
499.894	6.49
500.245	6.56
500.596	6.67
500.947	6.48
501.298	6.68
501.648	6.62
501.999	6.56
502.35	6.77
502.7	6.66
503.051	6.69
503.401	6.75
503.752	6.62
504.102	6.7
504.452	6.79
504.803	6.85
505.153	6.74
505.503	6.99
505.853	6.74
506.203	6.79
506.553	6.74
506.903	6.62
507.253	6.79
507.603	6.78
507.953	6.9
508.303	6.84
508.652	6.84
509.002	6.83
509.352	6.9
509.701	6.7
510.051	6.72
510.4	6.75
510.75	6.74
511.099	6.88
511.449	6.91
511.798	6.8
512.147	6.96
512.496	6.78
512.846	6.77
513.195	6.91
513.544	7
513.893	6.9
514.242	6.91
514.591	6.88
514.939	6.8
515.288	6.97
515.637	7
515.986	6.91
516.334	7.07
516.683	7.05
517.032	7.06
517.38	7.01
517.729	7.02
518.077	7.17
518.426	7.21
518.774	7.15
519.122	7.06
519.47	7.05
519.819	7.04
520.167	7.11
520.515	7.02
520.863	6.94
521.211	7.11
521.559	7.04
521.907	7.08
522.255	7.03
522.602	7.16
522.95	7.19
523.298	7.2
523.645	7.37
523.993	7.23
524.341	7.3
524.688	7.18
525.036	7.12
525.383	7.25
525.73	7.36
526.078	7.32
526.425	7.31
526.772	7.28
527.119	7.23
527.466	7.24
527.814	7.21
528.161	7.21
528.508	7.29
528.854	7.32
529.201	7.29
529.548	7.24
529.895	7.18
530.242	7.1
530.588	7.09
530.935	7.13
531.282	7.17
531.628	7.21
531.975	7.24
532.321	7.3
532.667	7.42
533.014	7.31
533.36	7.44
533.706	7.58
534.052	7.46
534.399	7.5
534.745	7.5
535.091	7.39
535.437	7.35
535.783	7.37
536.129	7.5
536.474	7.63
536.82	7.57
537.166	7.58
537.512	7.61
537.857	7.72
538.203	7.68
538.549	7.65
538.894	7.68
539.239	7.8
539.585	7.67
539.93	7.74
540.276	7.84
540.621	7.87
540.966	7.96
541.311	7.86
541.656	7.92
542.001	7.84
542.346	7.91
542.691	7.82
543.036	7.71
543.381	7.69
543.726	7.7
544.071	7.72
544.415	7.76
544.76	7.84
545.105	7.92
545.449	7.8
545.794	7.85
546.138	8.03
546.483	8.08
546.827	8.07
547.171	8.16
547.516	8.1
547.86	8.1
548.204	8.19
548.548	8.23
548.892	8.12
549.236	8.21
549.58	8.36
549.924	8.28
550.268	8.2
550.612	8.34
550.956	8.29
551.3	8.39
551.643	8.4
551.987	8.48
552.33	8.54
552.674	8.49
553.017	8.53
553.361	8.38
553.704	8.47
554.048	8.7
554.391	8.52
554.734	8.68
555.077	8.47
555.42	8.73
555.764	8.75
556.107	8.69
556.45	8.87
556.793	8.89
557.135	8.65
557.478	8.78
557.821	8.69
558.164	8.86
558.507	8.56
558.849	8.93
559.192	8.78
559.534	8.73
559.877	9.02
560.219	9.01
560.562	9.09
560.904	9.06
561.246	9.02
561.589	9.07
561.931	9.15
562.273	9.01
562.615	9.18
562.957	9.19
563.299	9.18
563.641	9.02
563.983	9.23
564.325	9.42
564.667	9.32
565.008	9.39
565.35	9.43
565.692	9.19
566.033	9.38
566.375	9.35
566.716	9.31
567.058	9.28
567.399	9.4
567.741	9.17
568.082	9.41
568.423	9.42
568.764	9.52
569.105	9.35
569.447	9.63
569.788	9.45
570.129	9.64
570.47	9.4
570.811	9.42
571.151	9.61
571.492	9.57
571.833	9.79
572.174	9.74
572.514	9.76
572.855	9.58
573.195	9.65
573.536	9.68
573.876	9.76
574.217	9.84
574.557	9.9
574.898	9.81
575.238	10.05
575.578	9.95
575.918	10.16
576.258	9.96
576.598	9.91
576.938	10.1
577.278	9.81
577.618	10.06
577.958	10.21
578.298	10.32
578.638	10.28
578.977	10.32
579.317	10.15
579.657	10.2
579.996	10.08
580.336	10.34
580.675	10.31
581.014	10.43
581.354	10.44
581.693	10.43
582.032	10.14
582.372	10.62
582.711	10.47
583.05	10.6
583.389	10.74
583.728	10.81
584.067	10.61
584.406	10.56
584.745	10.61
585.083	10.82
585.422	10.85
585.761	10.65
586.1	10.83
586.438	10.69
586.777	10.94
587.115	10.47
587.454	10.84
587.792	10.75
588.13	11.19
588.469	10.93
588.807	11.03
589.145	11.39
589.483	11.31
589.821	11.13
590.159	11.14
590.497	11.38
590.835	11.23
591.173	11.19
591.511	11.35
591.849	11.16
592.187	11.03
592.524	11.34
592.862	11.38
593.2	11.2
593.537	11.59
593.875	11.5
594.212	11.34
594.55	11.6
594.887	11.39
595.224	11.61
595.561	11.63
595.899	11.41
596.236	11.71
596.573	11.37
596.91	11.76
597.247	11.5
597.584	11.53
597.921	11.85
598.258	11.62
598.594	11.93
598.931	11.75
599.268	11.81
599.604	11.9
599.941	11.89
600.277	11.71
600.614	12.22
600.95	11.8
601.287	11.79
601.623	12.29
601.959	12.02
602.296	12.3
602.632	12.27
602.968	12.14
603.304	12.28
603.64	12.51
603.976	12.71
604.312	12.42
604.648	12.32
604.984	12.49
605.319	12.61
605.655	12.3
605.991	12.4
606.326	12.46
606.662	12.43
606.998	12.53
607.333	12.51
607.668	12.62
608.004	12.42
608.339	12.9
608.674	12.95
609.01	12.58
609.345	12.84
609.68	12.89
610.015	12.92
610.35	13.18
610.685	12.91
611.02	13.04
611.355	13.38
611.689	13.06
612.024	12.91
612.359	12.86
612.694	13.26
613.028	13.04
613.363	13.02
613.697	13.4
614.032	13.4
614.366	13.38
614.7	13.13
615.035	13.47
615.369	13.62
615.703	13.19
616.037	13.44
616.371	13.66
616.705	13.45
617.039	13.77
617.373	13.74
617.707	13.9
618.041	13.79
618.375	14.03
618.709	14.03
619.042	13.84
619.376	13.89
619.71	13.92
620.043	13.8
620.377	13.61
620.71	14.11
621.043	13.81
621.377	13.43
621.71	13.97
622.043	14.15
622.376	14.27
622.709	14.39
623.043	14.18
623.376	14.45
623.709	14.36
624.041	13.92
624.374	14.17
624.707	14.21
625.04	14.31
625.373	14.44
625.705	14.18
626.038	14.52
626.37	14.83
626.703	14.44
627.035	14.45
627.368	14.24
627.7	14.55
628.032	14.36
628.365	14.62
628.697	14.5
629.029	14.52
629.361	14.82
629.693	14.6
630.025	14.58
630.357	14.4
630.689	14.62
631.021	14.91
631.353	15
631.684	14.86
632.016	15.22
632.348	15.12
632.679	15.1
633.011	14.63
633.342	14.98
633.674	15.46
634.005	15.42
634.336	15.23
634.668	15.38
634.999	15.38
635.33	15.32
635.661	15.23
635.992	15.6
636.323	15.47
636.654	15.57
636.985	15.3
637.316	15.48
637.647	15.7
637.977	16.04
638.308	15.83
638.639	15.73
638.969	15.32
639.3	16.07
639.63	15.4
639.961	15.73
640.291	16.25
640.622	16.08
640.952	16.25
641.282	15.9
641.612	16.36
641.943	15.59
642.273	16.19
642.603	16.38
642.933	16.3
643.263	16.09
643.592	16.22
643.922	16.03
644.252	15.9
644.582	15.83
644.911	16.34
645.241	16.64
645.571	16.87
645.9	15.79
646.23	16.4
646.559	16.45
646.888	16.02
647.218	16.7
647.547	16.37
647.876	16.39
648.205	16.4
648.534	16.62
648.863	17.28
649.192	16.75
649.521	16.78
649.85	16.53
650.179	16.79
650.508	17.03
650.837	16.48
651.165	17.23
651.494	17.41
651.822	16.94
652.151	17.22
652.479	16.8
652.808	16.76
653.136	17.05
653.465	17.06
653.793	17.18
654.121	17.13
654.449	17.34
654.777	17.12
655.105	17.26
655.433	17.65
655.761	17.19
656.089	17.51
656.417	17.66
656.745	17.35
657.073	17.49
657.4	18.05
657.728	17.22
658.056	17.82
658.383	17.55
658.711	17.83
659.038	17.8
659.365	17.62
659.693	17.56
660.02	17.28
660.347	18.37
660.674	17.55
661.001	17.69
661.329	18.22
661.656	18.14
661.982	17.74
662.309	18.12
662.636	17.89
662.963	18.63
663.29	18.24
663.616	17.93
663.943	18
664.27	18.31
664.596	18.88
664.923	18.37
665.249	18.32
665.576	18.1
665.902	18.18
666.228	17.89
666.554	18.2
666.881	18
667.207	18.82
667.533	18.53
667.859	18.29
668.185	18.72
668.511	18.67
668.837	18.94
669.162	18.68
669.488	18.66
669.814	18.83
670.139	18.54
670.465	18.94
670.791	18.73
671.116	19.15
671.442	19.71
671.767	18.87
672.092	19.02
672.418	18.79
672.743	18.48
673.068	18.97
673.393	19.69
673.718	18.85
674.043	20.22
674.368	19.13
674.693	19.53
675.018	19.44
675.343	18.94
675.667	19.76
675.992	20.1
676.317	19.69
676.641	19.21
676.966	20.14
677.29	18.52
677.615	19.7
677.939	19.58
678.264	19.36
678.588	19.96
678.912	19.25
679.236	20.45
679.56	20.07
679.885	19.86
680.209	20.15
680.532	19.74
680.856	20.58
681.18	19.95
681.504	19.35
681.828	19.79
682.152	19.6
682.475	19.97
682.799	20.62
683.122	20.52
683.446	19.4
683.769	20.12
684.093	20.58
684.416	20.13
684.739	19.94
685.062	21.01
