Data from 0357_crown_Reflection__1__100.txt Node

Date: Mon Dec 11 18:54:04 CST 2023
User: ToomeyLab
Spectrometer: FLMS14357
Trigger mode: 0
Integration Time (sec): 1.000000E-2
Scans to average: 100
Electric dark correction enabled: true
Nonlinearity correction enabled: false
Boxcar width: 0
XAxis mode: Wavelengths
Number of Pixels in Spectrum: 2048
>>>>>Begin Spectral Data<<<<<
189.047	-568.2
189.435	-568.2
189.823	-568.2
190.211	334.29
190.599	23.31
190.987	55.64
191.375	55.65
191.763	181.73
192.151	108.72
192.538	68.62
192.926	-1881.44
193.314	46.41
193.702	42.45
194.089	1550.79
194.477	114.45
194.864	32.81
195.252	138.94
195.639	751.41
196.027	-135.49
196.414	-18.28
196.801	51.66
197.189	170.02
197.576	163.72
197.963	-582.54
198.351	-41.59
198.738	-7.69
199.125	-48.49
199.512	25.84
199.899	7.54
200.286	7.81
200.673	-319.29
201.06	75.36
201.447	31.31
201.833	56.32
202.22	46.1
202.607	-27.35
202.994	-35.09
203.38	-43.08
203.767	15.56
204.154	51.15
204.54	-59.09
204.927	-65.53
205.313	11.02
205.699	-56.73
206.086	-56.87
206.472	9.9
206.858	11.36
207.245	-5.71
207.631	25.89
208.017	-16.85
208.403	17.72
208.789	-12.6
209.175	29.04
209.561	11.41
209.947	11.88
210.333	21.83
210.719	-13.12
211.105	13.81
211.491	1.6
211.876	28.86
212.262	-24.04
212.648	20.91
213.034	13.02
213.419	-49.95
213.805	-43.16
214.19	20.47
214.576	12.76
214.961	-30.11
215.346	-45.04
215.732	-7.67
216.117	27.97
216.502	11.53
216.888	-3.75
217.273	4.71
217.658	-9.2
218.043	-35.59
218.428	-13.91
218.813	7.6
219.198	-10.42
219.583	5.31
219.968	-5.08
220.353	-24.48
220.738	22.1
221.122	6.53
221.507	12.52
221.892	21.36
222.276	5.67
222.661	-8.5
223.046	6.44
223.43	4.23
223.815	1.34
224.199	5.31
224.583	10.41
224.968	8.23
225.352	5.06
225.736	9.54
226.121	0.58
226.505	-1.6
226.889	4.35
227.273	5.35
227.657	12.06
228.041	7.16
228.425	2.53
228.809	-0.31
229.193	7.27
229.577	6.42
229.961	5.06
230.344	4.54
230.728	4.54
231.112	4.41
231.495	4.77
231.879	3.82
232.263	4.97
232.646	4.58
233.03	4.22
233.413	4.65
233.797	7.4
234.18	3.99
234.563	4.05
234.946	6.94
235.33	6.5
235.713	4.38
236.096	6.57
236.479	6.28
236.862	3.29
237.245	3.2
237.628	3.44
238.011	5.25
238.394	5.95
238.777	3.62
239.16	5.1
239.543	4.71
239.925	4.1
240.308	5.74
240.691	3.88
241.073	5.26
241.456	5.32
241.838	7.23
242.221	5.11
242.603	2.76
242.986	4.49
243.368	4.57
243.75	4.59
244.133	4.85
244.515	4.5
244.897	4.03
245.279	3.8
245.661	4.76
246.043	4.24
246.425	4.55
246.807	4.34
247.189	4.81
247.571	4.79
247.953	4.31
248.335	4.4
248.717	4.28
249.098	4.28
249.48	4.04
249.862	4.55
250.243	4.29
250.625	4.19
251.006	4.27
251.388	4.42
251.769	4.4
252.151	4.83
252.532	4.45
252.913	4.12
253.295	4.44
253.676	3.94
254.057	4.26
254.438	4.04
254.819	3.39
255.2	2.82
255.581	2.55
255.962	3.18
256.343	3.53
256.724	4.29
257.105	5.01
257.486	2.98
257.867	4.73
258.247	3.43
258.628	4.05
259.009	5.2
259.389	4.05
259.77	3.43
260.15	2.43
260.531	4.41
260.911	3.39
261.292	3.88
261.672	3.87
262.052	3.83
262.432	3.85
262.813	4.16
263.193	3.48
263.573	3.24
263.953	4.01
264.333	3.65
264.713	4.31
265.093	4.38
265.473	4
265.853	3.58
266.233	4.02
266.612	3.99
266.992	4.11
267.372	4.97
267.752	4.18
268.131	4.41
268.511	4.13
268.89	3.87
269.27	4.29
269.649	3.72
270.029	4.06
270.408	3.69
270.787	3.56
271.167	2.75
271.546	4.28
271.925	3.84
272.304	3.82
272.683	4.15
273.062	3.93
273.441	3.61
273.82	3.16
274.199	3.52
274.578	3.84
274.957	3.9
275.336	3.97
275.715	3.7
276.093	3.84
276.472	3.87
276.851	3.84
277.229	3.38
277.608	3.75
277.986	4.02
278.365	3.76
278.743	4.15
279.122	3.64
279.5	3.73
279.878	3.46
280.257	3.16
280.635	3.6
281.013	3.96
281.391	4.28
281.769	3.59
282.147	3.45
282.525	3.43
282.903	3.74
283.281	3.88
283.659	3.29
284.037	3.22
284.415	3.42
284.792	3.98
285.17	3.3
285.548	3.49
285.925	3.49
286.303	3.41
286.68	3.49
287.058	3.22
287.435	3.96
287.813	3.8
288.19	3.61
288.567	3.46
288.945	3.73
289.322	3.07
289.699	3.03
290.076	3.39
290.453	3.46
290.83	3.87
291.207	3.42
291.584	2.99
291.961	3.73
292.338	3.79
292.715	3.72
293.092	3.57
293.469	3.86
293.845	3.38
294.222	3.81
294.599	3.46
294.975	3.84
295.352	3.11
295.728	3.64
296.105	3.69
296.481	3.44
296.858	3.41
297.234	3.85
297.61	3.93
297.986	3.88
298.363	3.9
298.739	3.67
299.115	3.33
299.491	3.91
299.867	3.42
300.243	3.74
300.619	3.39
300.995	3.5
301.371	3.36
301.746	2.77
302.122	3.86
302.498	3.59
302.874	3.87
303.249	3.32
303.625	3.59
304	3.94
304.376	3.41
304.751	3.57
305.127	3.81
305.502	3.72
305.878	3.28
306.253	3.76
306.628	3.7
307.003	3.95
307.378	3.18
307.754	3.54
308.129	3.46
308.504	3.51
308.879	3.3
309.254	3.81
309.629	4.26
310.003	3.87
310.378	3.33
310.753	3.64
311.128	3.23
311.502	3.42
311.877	3.76
312.252	3.69
312.626	3.47
313.001	3.92
313.375	3.57
313.75	3.51
314.124	3.26
314.498	3.49
314.873	3.57
315.247	3.35
315.621	4.37
315.995	3.85
316.369	3.73
316.743	3.8
317.117	3.49
317.491	4.38
317.865	3.38
318.239	4
318.613	3.84
318.987	3.87
319.361	4.3
319.734	3.19
320.108	3.41
320.482	3.57
320.855	3.64
321.229	4.19
321.602	3.91
321.976	4.64
322.349	3.85
322.723	3.44
323.096	4.1
323.469	4.27
323.843	3.96
324.216	4.26
324.589	4.28
324.962	4.23
325.335	3.72
325.708	3.98
326.081	4.17
326.454	3.85
326.827	3.73
327.2	3.92
327.573	4.09
327.945	4.26
328.318	3.54
328.691	3.63
329.063	3.87
329.436	3.31
329.809	3.79
330.181	3.93
330.553	3.93
330.926	3.74
331.298	4.22
331.671	4.03
332.043	4.35
332.415	3.56
332.787	4.2
333.159	3.39
333.532	3.73
333.904	4.31
334.276	4.25
334.648	4.34
335.02	3.96
335.391	3.9
335.763	3.96
336.135	4.47
336.507	4.01
336.879	4.26
337.25	3.85
337.622	4.28
337.993	3.61
338.365	3.59
338.736	3.73
339.108	4.33
339.479	4.35
339.851	3.57
340.222	3.99
340.593	3.55
340.964	3.91
341.336	4.08
341.707	3.7
342.078	4.38
342.449	3.99
342.82	3.63
343.191	4.09
343.562	4.13
343.933	3.69
344.303	3.68
344.674	4.1
345.045	4.12
345.416	3.84
345.786	4.35
346.157	3.72
346.527	4.16
346.898	4.14
347.268	4
347.639	4.27
348.009	4.19
348.38	3.98
348.75	3.9
349.12	4.52
349.49	3.7
349.861	3.72
350.231	3.81
350.601	4.28
350.971	4.43
351.341	3.49
351.711	3.73
352.081	3.71
352.45	3.86
352.82	3.46
353.19	3.89
353.56	3.85
353.929	3.61
354.299	4.23
354.669	4.33
355.038	3.83
355.408	3.79
355.777	4.08
356.147	4.26
356.516	4.32
356.885	3.95
357.254	4.21
357.624	4.16
357.993	3.76
358.362	4.26
358.731	3.89
359.1	4.27
359.469	4.17
359.838	4.18
360.207	3.92
360.576	3.93
360.945	4.54
361.314	4.41
361.682	4.27
362.051	4.18
362.42	3.85
362.788	3.74
363.157	3.82
363.525	3.64
363.894	4.04
364.262	3.84
364.631	4.08
364.999	4.09
365.367	4.26
365.735	4.39
366.104	3.86
366.472	4.31
366.84	4.13
367.208	3.68
367.576	4.47
367.944	4.46
368.312	4.13
368.68	4.08
369.048	3.98
369.416	3.83
369.783	4.1
370.151	4.29
370.519	4.67
370.886	4.16
371.254	4.38
371.621	4.21
371.989	4.3
372.356	4.23
372.724	4.53
373.091	4.49
373.458	4.05
373.826	4.35
374.193	4.18
374.56	4.27
374.927	4.56
375.294	4.11
375.661	4.14
376.028	4.5
376.395	4.19
376.762	4.59
377.129	4.5
377.496	4.05
377.863	4.42
378.229	4.25
378.596	4.45
378.963	4.31
379.329	4.18
379.696	4.1
380.062	4.05
380.429	4.25
380.795	4.77
381.161	4.11
381.528	4.56
381.894	4.71
382.26	4.38
382.626	4.3
382.993	4.23
383.359	4.33
383.725	4.17
384.091	4.59
384.457	3.85
384.823	4.61
385.188	4.34
385.554	4.17
385.92	4.19
386.286	4.24
386.651	4.02
387.017	4.28
387.383	4.23
387.748	4.4
388.114	4.39
388.479	4.36
388.845	4.3
389.21	4.16
389.575	4.41
389.94	4.22
390.306	4.42
390.671	4.39
391.036	4.4
391.401	4.68
391.766	4.46
392.131	4.35
392.496	4.69
392.861	4.61
393.226	4.18
393.591	4.48
393.956	4.25
394.32	4.34
394.685	4.46
395.05	4.55
395.414	4.5
395.779	4.37
396.143	4.23
396.508	4.2
396.872	4.41
397.236	4.41
397.601	4.3
397.965	4.71
398.329	4.6
398.694	4.28
399.058	4.36
399.422	4.44
399.786	4.33
400.15	4.45
400.514	4.6
400.878	4.44
401.242	4.65
401.605	4.64
401.969	4.19
402.333	4.2
402.697	4.29
403.06	4.44
403.424	4.39
403.787	4.62
404.151	4.33
404.514	4.34
404.878	4.55
405.241	4.37
405.604	4.37
405.968	4.55
406.331	4.27
406.694	4.57
407.057	4.51
407.42	4.57
407.783	4.46
408.146	4.32
408.509	4.54
408.872	4.69
409.235	4.22
409.598	4.55
409.961	4.64
410.323	4.4
410.686	4.47
411.049	4.64
411.411	4.25
411.774	4.47
412.136	4.58
412.499	4.51
412.861	4.15
413.223	4.38
413.586	4.47
413.948	4.62
414.31	4.31
414.672	4.4
415.035	4.47
415.397	4.41
415.759	4.73
416.121	4.75
416.483	4.63
416.845	4.85
417.206	4.38
417.568	4.57
417.93	4.57
418.292	4.45
418.653	4.51
419.015	4.35
419.377	4.48
419.738	4.44
420.1	4.5
420.461	4.44
420.822	4.4
421.184	4.47
421.545	4.44
421.906	4.43
422.267	4.36
422.629	4.32
422.99	4.28
423.351	4.31
423.712	4.37
424.073	4.4
424.434	4.33
424.795	4.4
425.155	4.4
425.516	4.43
425.877	4.25
426.238	4.35
426.598	4.41
426.959	4.45
427.32	4.36
427.68	4.5
428.041	4.27
428.401	4.29
428.761	4.53
429.122	4.26
429.482	4.5
429.842	4.5
430.202	4.55
430.563	4.5
430.923	4.46
431.283	4.62
431.643	4.61
432.003	4.49
432.363	4.47
432.722	4.33
433.082	4.36
433.442	4.64
433.802	4.57
434.161	4.67
434.521	4.33
434.881	4.46
435.24	4.5
435.6	4.47
435.959	4.46
436.319	4.46
436.678	4.33
437.037	4.37
437.396	4.45
437.756	4.65
438.115	4.82
438.474	4.62
438.833	4.57
439.192	4.41
439.551	4.53
439.91	4.48
440.269	4.69
440.628	4.3
440.987	4.57
441.345	4.35
441.704	4.56
442.063	4.4
442.421	4.29
442.78	4.34
443.138	4.43
443.497	4.42
443.855	4.37
444.214	4.57
444.572	4.49
444.93	4.43
445.288	4.47
445.647	4.66
446.005	4.38
446.363	4.46
446.721	4.43
447.079	4.51
447.437	4.38
447.795	4.47
448.153	4.62
448.51	4.48
448.868	4.33
449.226	4.3
449.584	4.48
449.941	4.5
450.299	4.52
450.656	4.37
451.014	4.71
451.371	4.43
451.729	4.51
452.086	4.42
452.443	4.66
452.801	4.46
453.158	4.76
453.515	4.3
453.872	4.63
454.229	4.5
454.586	4.55
454.943	4.45
455.3	4.51
455.657	4.51
456.014	4.52
456.371	4.56
456.727	4.66
457.084	4.57
457.441	4.72
457.797	4.59
458.154	4.55
458.51	4.76
458.867	4.23
459.223	4.45
459.58	4.46
459.936	4.5
460.292	4.56
460.648	4.51
461.005	4.35
461.361	4.46
461.717	4.42
462.073	4.41
462.429	4.43
462.785	4.43
463.141	4.51
463.496	4.56
463.852	4.49
464.208	4.45
464.564	4.59
464.919	4.5
465.275	4.5
465.631	4.53
465.986	4.56
466.342	4.68
466.697	4.53
467.052	4.51
467.408	4.98
467.763	4.56
468.118	4.31
468.473	4.53
468.829	4.64
469.184	4.88
469.539	4.59
469.894	4.55
470.249	4.67
470.603	4.52
470.958	4.73
471.313	4.47
471.668	4.74
472.023	4.71
472.377	4.57
472.732	4.53
473.086	4.8
473.441	4.63
473.795	4.47
474.15	4.62
474.504	4.61
474.859	4.55
475.213	4.57
475.567	4.59
475.921	4.54
476.275	4.68
476.63	4.5
476.984	4.63
477.338	4.54
477.692	4.57
478.045	4.63
478.399	4.51
478.753	4.43
479.107	4.44
479.461	4.58
479.814	4.49
480.168	4.65
480.521	4.61
480.875	4.53
481.228	4.45
481.582	4.87
481.935	4.54
482.289	4.62
482.642	4.59
482.995	4.57
483.348	4.48
483.701	4.35
484.055	4.54
484.408	4.56
484.761	4.47
485.114	4.36
485.466	4.29
485.819	4.18
486.172	4.22
486.525	4.25
486.878	4.33
487.23	4.31
487.583	4.44
487.936	4.43
488.288	4.46
488.641	4.34
488.993	4.29
489.345	4.38
489.698	4.27
490.05	4.33
490.402	4.3
490.754	4.38
491.107	4.38
491.459	4.44
491.811	4.46
492.163	4.53
492.515	4.61
492.866	4.45
493.218	4.4
493.57	4.34
493.922	4.34
494.274	4.39
494.625	4.43
494.977	4.54
495.328	4.54
495.68	4.61
496.031	4.49
496.383	4.52
496.734	4.54
497.086	4.51
497.437	4.77
497.788	4.67
498.139	4.45
498.49	4.53
498.842	4.58
499.193	4.63
499.544	4.44
499.894	4.53
500.245	4.54
500.596	4.65
500.947	4.67
501.298	4.62
501.648	4.59
501.999	4.54
502.35	4.57
502.7	4.6
503.051	4.55
503.401	4.57
503.752	4.64
504.102	4.57
504.452	4.64
504.803	4.8
505.153	4.7
505.503	4.57
505.853	4.7
506.203	4.67
506.553	4.6
506.903	4.65
507.253	4.7
507.603	4.57
507.953	4.76
508.303	4.56
508.652	4.53
509.002	4.48
509.352	4.68
509.701	4.64
510.051	4.53
510.4	4.53
510.75	4.55
511.099	4.51
511.449	4.54
511.798	4.68
512.147	4.73
512.496	4.5
512.846	4.56
513.195	4.75
513.544	4.66
513.893	4.62
514.242	4.65
514.591	4.48
514.939	4.57
515.288	4.6
515.637	4.65
515.986	4.55
516.334	4.74
516.683	4.59
517.032	4.56
517.38	4.7
517.729	4.48
518.077	4.79
518.426	4.63
518.774	4.61
519.122	4.53
519.47	4.47
519.819	4.49
520.167	4.53
520.515	4.5
520.863	4.46
521.211	4.63
521.559	4.59
521.907	4.59
522.255	4.51
522.602	4.56
522.95	4.63
523.298	4.62
523.645	4.72
523.993	4.58
524.341	4.64
524.688	4.61
525.036	4.54
525.383	4.64
525.73	4.66
526.078	4.67
526.425	4.57
526.772	4.67
527.119	4.47
527.466	4.51
527.814	4.57
528.161	4.43
528.508	4.57
528.854	4.53
529.201	4.48
529.548	4.55
529.895	4.36
530.242	4.39
530.588	4.3
530.935	4.37
531.282	4.41
531.628	4.46
531.975	4.47
532.321	4.49
532.667	4.55
533.014	4.44
533.36	4.49
533.706	4.56
534.052	4.55
534.399	4.63
534.745	4.48
535.091	4.39
535.437	4.39
535.783	4.45
536.129	4.53
536.474	4.56
536.82	4.61
537.166	4.57
537.512	4.57
537.857	4.58
538.203	4.54
538.549	4.58
538.894	4.57
539.239	4.67
539.585	4.63
539.93	4.62
540.276	4.58
540.621	4.74
540.966	4.7
541.311	4.71
541.656	4.6
542.001	4.69
542.346	4.59
542.691	4.56
543.036	4.41
543.381	4.4
543.726	4.39
544.071	4.54
544.415	4.46
544.76	4.47
545.105	4.57
545.449	4.56
545.794	4.58
546.138	4.59
546.483	4.65
546.827	4.62
547.171	4.54
547.516	4.63
547.86	4.67
548.204	4.69
548.548	4.61
548.892	4.57
549.236	4.59
549.58	4.62
549.924	4.72
550.268	4.6
550.612	4.66
550.956	4.61
551.3	4.62
551.643	4.82
551.987	4.78
552.33	4.87
552.674	4.95
553.017	4.74
553.361	4.57
553.704	4.64
554.048	4.79
554.391	4.73
554.734	4.6
555.077	4.68
555.42	4.81
555.764	4.71
556.107	4.82
556.45	4.61
556.793	4.73
557.135	4.71
557.478	4.59
557.821	4.74
558.164	4.88
558.507	4.65
558.849	4.86
559.192	4.68
559.534	4.69
559.877	5
560.219	4.76
560.562	4.77
560.904	4.82
561.246	4.65
561.589	4.73
561.931	4.83
562.273	4.67
562.615	4.71
562.957	4.71
563.299	4.92
563.641	4.79
563.983	4.78
564.325	4.76
564.667	4.96
565.008	4.83
565.35	5
565.692	4.67
566.033	4.79
566.375	4.91
566.716	4.72
567.058	4.75
567.399	4.68
567.741	4.73
568.082	4.81
568.423	4.69
568.764	4.68
569.105	4.66
569.447	4.84
569.788	4.71
570.129	4.77
570.47	4.64
570.811	4.62
571.151	4.89
571.492	4.86
571.833	4.92
572.174	4.74
572.514	4.82
572.855	4.67
573.195	4.87
573.536	4.69
573.876	4.71
574.217	4.69
574.557	4.65
574.898	4.83
575.238	4.96
575.578	4.69
575.918	4.99
576.258	4.87
576.598	4.83
576.938	4.83
577.278	4.69
577.618	4.8
577.958	4.73
578.298	5.03
578.638	4.91
578.977	4.87
579.317	4.84
579.657	4.7
579.996	4.65
580.336	4.97
580.675	4.92
581.014	4.68
581.354	4.86
581.693	4.92
582.032	4.61
582.372	5.1
582.711	4.62
583.05	5
583.389	4.56
583.728	5.19
584.067	4.81
584.406	4.89
584.745	4.81
585.083	4.93
585.422	5.11
585.761	4.82
586.1	4.93
586.438	4.47
586.777	4.88
587.115	4.53
587.454	4.72
587.792	4.67
588.13	4.96
588.469	4.54
588.807	5.04
589.145	5.21
589.483	4.74
589.821	4.71
590.159	4.97
590.497	4.77
590.835	4.87
591.173	4.95
591.511	4.88
591.849	4.77
592.187	4.67
592.524	4.77
592.862	4.78
593.2	4.81
593.537	4.86
593.875	4.69
594.212	4.95
594.55	4.75
594.887	4.86
595.224	5.09
595.561	4.86
595.899	4.57
596.236	4.97
596.573	4.9
596.91	4.73
597.247	4.84
597.584	4.81
597.921	4.69
598.258	4.9
598.594	5.04
598.931	4.68
599.268	4.69
599.604	4.9
599.941	4.95
600.277	4.77
600.614	4.95
600.95	4.68
601.287	4.77
601.623	4.91
601.959	4.94
602.296	4.89
602.632	4.97
602.968	5.02
603.304	5.01
603.64	5.03
603.976	4.99
604.312	4.71
604.648	4.76
604.984	5.06
605.319	4.78
605.655	4.78
605.991	4.78
606.326	4.96
606.662	4.74
606.998	4.78
607.333	4.79
607.668	4.92
608.004	4.75
608.339	5.12
608.674	5.05
609.01	4.88
609.345	4.8
609.68	4.93
610.015	4.87
610.35	4.83
610.685	4.89
611.02	4.98
611.355	4.87
611.689	4.86
612.024	4.76
612.359	4.81
612.694	4.82
613.028	4.78
613.363	4.89
613.697	5.04
614.032	4.79
614.366	4.98
614.7	4.91
615.035	4.91
615.369	5.09
615.703	4.92
616.037	4.85
616.371	5.09
616.705	5.21
617.039	5.09
617.373	5.16
617.707	5
618.041	5.09
618.375	4.92
618.709	5.01
619.042	4.8
619.376	5.04
619.71	4.79
620.043	5.01
620.377	5.07
620.71	5.11
621.043	4.84
621.377	4.66
621.71	5.02
622.043	4.38
622.376	4.68
622.709	5.2
623.043	5.49
623.376	4.72
623.709	5.22
624.041	4.75
624.374	4.88
624.707	4.95
625.04	5.36
625.373	4.7
625.705	5.26
626.038	5.1
626.37	5.05
626.703	5.05
627.035	4.8
627.368	4.99
627.7	4.95
628.032	4.71
628.365	4.71
628.697	4.94
629.029	4.95
629.361	4.68
629.693	5.17
630.025	4.98
630.357	4.8
630.689	4.9
631.021	5.05
631.353	4.64
631.684	5.19
632.016	5.5
632.348	5.08
632.679	5.53
633.011	5.14
633.342	5.1
633.674	5.53
634.005	5.18
634.336	5.17
634.668	5.21
634.999	5.44
635.33	4.71
635.661	4.98
635.992	5.04
636.323	5.1
636.654	5.31
636.985	4.39
637.316	5.02
637.647	5.32
637.977	5.01
638.308	5.04
638.639	4.74
638.969	5.05
639.3	4.86
639.63	4.87
639.961	4.98
640.291	5.46
640.622	5.08
640.952	5.14
641.282	4.67
641.612	5.35
641.943	4.49
642.273	5
642.603	5.04
642.933	4.92
643.263	5.15
643.592	4.93
643.922	4.83
644.252	4.79
644.582	5.7
644.911	5.28
645.241	5.03
645.571	5.25
645.9	4.99
646.23	5.36
646.559	5.04
646.888	5.35
647.218	5.23
647.547	4.71
647.876	5.22
648.205	4.98
648.534	5.36
648.863	5.15
649.192	5.33
649.521	4.92
649.85	5.01
650.179	5.46
650.508	5.19
650.837	4.78
651.165	5.55
651.494	5.31
651.822	4.98
652.151	5.8
652.479	4.74
652.808	5.36
653.136	4.53
653.465	5.13
653.793	4.96
654.121	5.46
654.449	5.58
654.777	5.19
655.105	5.09
655.433	5.53
655.761	5.31
656.089	4.95
656.417	4.89
656.745	5.51
657.073	5.41
657.4	5.35
657.728	5.35
658.056	5.74
658.383	5.02
658.711	5.77
659.038	5.32
659.365	5.89
659.693	4.85
660.02	4.79
660.347	5.42
660.674	5.28
661.001	5.17
661.329	5.1
661.656	5.22
661.982	5.29
662.309	5.4
662.636	5.38
662.963	5.26
663.29	5.32
663.616	4.68
663.943	4.61
664.27	5.52
664.596	5.76
664.923	5.29
665.249	5.47
665.576	5.2
665.902	4.74
666.228	5.77
666.554	5.58
666.881	5.35
667.207	6.23
667.533	5.58
667.859	5.48
668.185	5.2
668.511	5.58
668.837	5.89
669.162	5.54
669.488	5.37
669.814	5.8
670.139	5.42
670.465	5.19
670.791	5.24
671.116	5.77
671.442	5.38
671.767	5.65
672.092	5.71
672.418	5.13
672.743	5.21
673.068	5.43
673.393	4.98
673.718	5.62
674.043	5.65
674.368	5.55
674.693	5.7
675.018	6.25
675.343	5.35
675.667	5.56
675.992	6.06
676.317	5.24
676.641	6.23
676.966	5.25
677.29	4.78
677.615	6.36
677.939	5.19
678.264	5.65
678.588	5.81
678.912	5.3
679.236	5.67
679.56	5.81
679.885	5.45
680.209	6.11
680.532	5.89
680.856	6.24
681.18	4.84
681.504	4.74
681.828	5.24
682.152	5.42
682.475	5.57
682.799	5.64
683.122	5.47
683.446	5.17
683.769	5.15
684.093	5.24
684.416	5.63
684.739	5.71
685.062	5.47
685.386	5.59
685.709	5.18
686.032	5.72
686.355	5.51
686.678	5.63
687.001	5.34
687.324	5.24
687.646	5.21
687.969	5.68
688.292	6.23
688.614	6.59
688.937	5.89
689.26	5.84
689.582	5.49
689.904	5.94
690.227	5.76
690.549	6.04
690.871	5.32
691.194	5.5
691.516	5.45
691.838	6.1
692.16	5.88
