Data from 448_chest_Reflection__0__45.txt Node

Date: Tue Dec 12 18:37:09 CST 2023
User: ToomeyLab
Spectrometer: FLMS14357
Trigger mode: 0
Integration Time (sec): 1.000000E-2
Scans to average: 100
Electric dark correction enabled: true
Nonlinearity correction enabled: false
Boxcar width: 0
XAxis mode: Wavelengths
Number of Pixels in Spectrum: 2048
>>>>>Begin Spectral Data<<<<<
189.047	-98.55
189.435	-98.55
189.823	-98.55
190.211	-146.93
190.599	42.21
190.987	39.49
191.375	197.67
191.763	-73.15
192.151	237.7
192.538	5.92
192.926	-9.77
193.314	474.04
193.702	84.51
194.089	-146.86
194.477	-183.86
194.864	109.09
195.252	289.28
195.639	115.5
196.027	-221.86
196.414	113.08
196.801	-443.54
197.189	1278.38
197.576	-19.58
197.963	89.72
198.351	61.58
198.738	4.39
199.125	9.37
199.512	-22.5
199.899	42.62
200.286	-14.28
200.673	-6.8
201.06	18.04
201.447	-60.01
201.833	-2.24
202.22	10.07
202.607	-99.03
202.994	18.66
203.38	-0.54
203.767	26.31
204.154	48.37
204.54	39.28
204.927	21.39
205.313	22.25
205.699	29.43
206.086	20.69
206.472	68.25
206.858	25.45
207.245	37.99
207.631	32.09
208.017	7.43
208.403	11.15
208.789	1.22
209.175	-3.18
209.561	24.54
209.947	-24.05
210.333	26.42
210.719	-13.26
211.105	22.37
211.491	25.03
211.876	16.24
212.262	4.66
212.648	-2.76
213.034	-75.85
213.419	9.48
213.805	33.37
214.19	24.79
214.576	21.68
214.961	2.97
215.346	26.84
215.732	14.33
216.117	4.4
216.502	-20.63
216.888	34.1
217.273	-5.49
217.658	-32.31
218.043	-3.45
218.428	40.27
218.813	16.89
219.198	-15.42
219.583	12.24
219.968	25.1
220.353	2.61
220.738	6.26
221.122	15.1
221.507	1.87
221.892	9.41
222.276	24.23
222.661	23.89
223.046	-9.82
223.43	18.73
223.815	4.32
224.199	11.43
224.583	13
224.968	16.32
225.352	11.64
225.736	18.83
226.121	0.37
226.505	7.33
226.889	2.08
227.273	2.8
227.657	11.22
228.041	8
228.425	3.57
228.809	6.53
229.193	2.27
229.577	6.73
229.961	5.09
230.344	5.37
230.728	5.64
231.112	5.72
231.495	5.08
231.879	6.61
232.263	5.37
232.646	6.96
233.03	6.54
233.413	4.68
233.797	4.95
234.18	3.05
234.563	5.8
234.946	6.04
235.33	7.11
235.713	5.3
236.096	5.55
236.479	5.41
236.862	6.22
237.245	5.39
237.628	4.93
238.011	6.67
238.394	6.13
238.777	7.28
239.16	6.07
239.543	5.36
239.925	5.86
240.308	6.69
240.691	5.29
241.073	7.19
241.456	5.68
241.838	6.52
242.221	5.81
242.603	6.68
242.986	4.45
243.368	5.72
243.75	5.4
244.133	4.91
244.515	5.76
244.897	5.6
245.279	5.67
245.661	4.67
246.043	4.42
246.425	5.09
246.807	4.87
247.189	5.19
247.571	4.45
247.953	4.84
248.335	5.13
248.717	4.89
249.098	4.94
249.48	5.03
249.862	4.75
250.243	5.1
250.625	5.53
251.006	5.04
251.388	5.48
251.769	4.85
252.151	4.59
252.532	5.17
252.913	5.42
253.295	5.75
253.676	4.77
254.057	4.6
254.438	5.62
254.819	5.45
255.2	4.95
255.581	5.54
255.962	4.72
256.343	5.15
256.724	6.03
257.105	6.3
257.486	3.91
257.867	4.64
258.247	4.35
258.628	5.11
259.009	4.64
259.389	5.45
259.77	4.53
260.15	5.42
260.531	5.94
260.911	5.05
261.292	4.53
261.672	4.44
262.052	4.7
262.432	4.9
262.813	5.08
263.193	5.02
263.573	4.89
263.953	5.73
264.333	5.43
264.713	4.59
265.093	4.23
265.473	5.51
265.853	4.74
266.233	4.32
266.612	5.07
266.992	5.39
267.372	5.19
267.752	5.24
268.131	4.55
268.511	4.53
268.89	4.18
269.27	4.35
269.649	4.8
270.029	4.25
270.408	4.59
270.787	5.17
271.167	4.91
271.546	5.08
271.925	5.08
272.304	5.51
272.683	4.08
273.062	5.46
273.441	5.25
273.82	4.27
274.199	4.44
274.578	4.5
274.957	4.22
275.336	4.55
275.715	4.82
276.093	4.6
276.472	5.21
276.851	4.81
277.229	4.58
277.608	4.42
277.986	3.97
278.365	4.79
278.743	4.9
279.122	5.04
279.5	3.9
279.878	3.99
280.257	4
280.635	4.17
281.013	4.67
281.391	5.14
281.769	4.61
282.147	4.63
282.525	4.1
282.903	4.59
283.281	4.55
283.659	4.35
284.037	4.83
284.415	4.41
284.792	5.19
285.17	4.53
285.548	4.63
285.925	4.58
286.303	4.67
286.68	4.38
287.058	4.75
287.435	4.97
287.813	4.3
288.19	4.79
288.567	4.5
288.945	4.75
289.322	3.77
289.699	4.7
290.076	4.79
290.453	4.66
290.83	4.51
291.207	5.34
291.584	4.37
291.961	4.78
292.338	4.44
292.715	4.53
293.092	4.3
293.469	4.66
293.845	4.75
294.222	4.62
294.599	4.59
294.975	4.78
295.352	5.13
295.728	4.9
296.105	4.36
296.481	4.73
296.858	4.98
297.234	4.87
297.61	4.73
297.986	5.16
298.363	4.84
298.739	4.67
299.115	4.32
299.491	4.75
299.867	4.71
300.243	4.31
300.619	4.97
300.995	5.31
301.371	5.24
301.746	4.64
302.122	5.21
302.498	4.91
302.874	4.95
303.249	5.07
303.625	4.9
304	4.86
304.376	5.24
304.751	5.33
305.127	4.9
305.502	5.09
305.878	4.78
306.253	5.01
306.628	5.21
307.003	4.71
307.378	4.55
307.754	5.01
308.129	5.01
308.504	5.53
308.879	4.43
309.254	5.32
309.629	4.95
310.003	5.61
310.378	4.81
310.753	5.35
311.128	5.71
311.502	4.53
311.877	4.83
312.252	4.67
312.626	5.23
313.001	4.71
313.375	4.58
313.75	5.12
314.124	5.18
314.498	5.17
314.873	4.82
315.247	4.89
315.621	4.92
315.995	5.33
316.369	4.77
316.743	4.48
317.117	4.63
317.491	4.93
317.865	5.25
318.239	4.92
318.613	5.67
318.987	4.97
319.361	5.28
319.734	5.16
320.108	5.09
320.482	4.9
320.855	4.89
321.229	4.64
321.602	5.33
321.976	5.66
322.349	5.76
322.723	4.96
323.096	4.83
323.469	4.87
323.843	6.03
324.216	5.73
324.589	4.73
324.962	5.9
325.335	5.61
325.708	5.22
326.081	4.93
326.454	4.8
326.827	5.39
327.2	5.24
327.573	4.95
327.945	5.45
328.318	5.51
328.691	4.68
329.063	5.32
329.436	5.51
329.809	5.27
330.181	4.55
330.553	5.17
330.926	5.13
331.298	5.53
331.671	5.36
332.043	4.9
332.415	5.38
332.787	5.1
333.159	5.36
333.532	4.71
333.904	5.35
334.276	5.77
334.648	5.04
335.02	4.88
335.391	5.11
335.763	4.77
336.135	5.62
336.507	6
336.879	5.51
337.25	5.05
337.622	4.78
337.993	5.2
338.365	5.01
338.736	5.32
339.108	4.99
339.479	5.22
339.851	5.21
340.222	4.81
340.593	5.29
340.964	5.27
341.336	5.16
341.707	4.79
342.078	4.88
342.449	4.51
342.82	5.45
343.191	5.22
343.562	5.09
343.933	5.16
344.303	5.3
344.674	5.22
345.045	5.12
345.416	5.61
345.786	5.01
346.157	5.26
346.527	5.78
346.898	4.9
347.268	4.97
347.639	5.49
348.009	5.35
348.38	5.29
348.75	5.24
349.12	5.82
349.49	5.22
349.861	5.51
350.231	5.17
350.601	6
350.971	5.65
351.341	5.4
351.711	5.58
352.081	5.4
352.45	5.42
352.82	5.42
353.19	5.41
353.56	5.08
353.929	4.85
354.299	5.09
354.669	5.28
355.038	4.82
355.408	5.17
355.777	5.41
356.147	5.16
356.516	5.33
356.885	5.16
357.254	5.36
357.624	5.37
357.993	5.13
358.362	5.29
358.731	5.33
359.1	5.02
359.469	5.15
359.838	4.73
360.207	5.33
360.576	5.42
360.945	5.2
361.314	5.37
361.682	5.17
362.051	5.59
362.42	5.6
362.788	5.21
363.157	5.65
363.525	5.5
363.894	5.45
364.262	5.41
364.631	5.14
364.999	5.31
365.367	5.74
365.735	5.26
366.104	5.41
366.472	5.38
366.84	5.12
367.208	5.43
367.576	5.77
367.944	5.49
368.312	5.62
368.68	5.18
369.048	5.75
369.416	5.53
369.783	5.45
370.151	5.26
370.519	5.11
370.886	5.54
371.254	5.25
371.621	5.82
371.989	5.21
372.356	5.39
372.724	5.42
373.091	5.69
373.458	5.06
373.826	5.46
374.193	5.3
374.56	5.71
374.927	5.69
375.294	5.81
375.661	6.03
376.028	5.37
376.395	5.34
376.762	5.77
377.129	5.63
377.496	5.72
377.863	5.67
378.229	5.35
378.596	5.33
378.963	5.69
379.329	5.55
379.696	5.39
380.062	5.79
380.429	5.68
380.795	5.69
381.161	5.69
381.528	5.84
381.894	5.68
382.26	5.5
382.626	5.52
382.993	5.69
383.359	5.78
383.725	5.39
384.091	5.46
384.457	5.36
384.823	5.77
385.188	5.64
385.554	5.75
385.92	5.75
386.286	5.84
386.651	5.62
387.017	6.05
387.383	5.76
387.748	6.01
388.114	5.87
388.479	6.06
388.845	5.58
389.21	5.75
389.575	5.35
389.94	5.77
390.306	5.86
390.671	5.51
391.036	5.8
391.401	5.45
391.766	5.85
392.131	5.82
392.496	5.7
392.861	5.58
393.226	5.67
393.591	5.51
393.956	5.85
394.32	5.76
394.685	5.61
395.05	5.64
395.414	5.7
395.779	5.74
396.143	5.77
396.508	5.38
396.872	5.89
397.236	5.97
397.601	5.78
397.965	5.91
398.329	5.66
398.694	5.51
399.058	5.86
399.422	5.84
399.786	5.9
400.15	5.72
400.514	6.13
400.878	5.81
401.242	6
401.605	6
401.969	5.84
402.333	5.86
402.697	5.97
403.06	5.81
403.424	6.1
403.787	5.57
404.151	5.96
404.514	5.66
404.878	5.79
405.241	5.95
405.604	5.79
405.968	5.7
406.331	5.94
406.694	6.17
407.057	5.77
407.42	5.76
407.783	5.94
408.146	5.75
408.509	5.92
408.872	5.9
409.235	5.59
409.598	5.77
409.961	5.79
410.323	5.86
410.686	6.03
411.049	5.96
411.411	6.16
411.774	6.1
412.136	6.05
412.499	6.05
412.861	6.09
413.223	6.4
413.586	6.03
413.948	6
414.31	6.06
414.672	5.83
415.035	5.93
415.397	6.04
415.759	5.97
416.121	5.93
416.483	6.22
416.845	5.95
417.206	6.13
417.568	5.91
417.93	6.09
418.292	5.72
418.653	6.08
419.015	6.1
419.377	6.05
419.738	6.06
420.1	5.89
420.461	6
420.822	6.15
421.184	5.95
421.545	6.01
421.906	5.9
422.267	5.91
422.629	5.97
422.99	5.94
423.351	5.91
423.712	5.9
424.073	6
424.434	6
424.795	5.87
425.155	5.93
425.516	5.97
425.877	5.92
426.238	5.92
426.598	5.99
426.959	5.95
427.32	6.05
427.68	6.04
428.041	6.09
428.401	6.16
428.761	6.11
429.122	6.13
429.482	6.24
429.842	6.17
430.202	6.22
430.563	6.22
430.923	6.25
431.283	6.03
431.643	6.2
432.003	6.14
432.363	6.4
432.722	6.03
433.082	6.18
433.442	6.38
433.802	6.21
434.161	6.22
434.521	6.32
434.881	6.19
435.24	6.38
435.6	6.22
435.959	6.33
436.319	6.42
436.678	6.25
437.037	6.26
437.396	6.14
437.756	6.12
438.115	6.25
438.474	6.19
438.833	6.59
439.192	6.37
439.551	6.27
439.91	6.26
440.269	6.18
440.628	6.13
440.987	6.1
441.345	6.38
441.704	6.22
442.063	6.31
442.421	6.32
442.78	6.19
443.138	6.28
443.497	6.27
443.855	6.17
444.214	6.36
444.572	6.36
444.93	6.38
445.288	6.22
445.647	6.48
446.005	6.39
446.363	6.26
446.721	6.14
447.079	6.32
447.437	6.25
447.795	6.29
448.153	6.26
448.51	6.38
448.868	6.29
449.226	6.34
449.584	6.26
449.941	6.29
450.299	6.36
450.656	6.29
451.014	6.34
451.371	6.39
451.729	6.5
452.086	6.43
452.443	6.67
452.801	6.42
453.158	6.54
453.515	6.57
453.872	6.5
454.229	6.57
454.586	6.29
454.943	6.29
455.3	6.36
455.657	6.41
456.014	6.55
456.371	6.58
456.727	6.51
457.084	6.42
457.441	6.58
457.797	6.56
458.154	6.46
458.51	6.58
458.867	6.69
459.223	6.65
459.58	6.63
459.936	6.33
460.292	6.5
460.648	6.56
461.005	6.44
461.361	6.4
461.717	6.48
462.073	6.41
462.429	6.54
462.785	6.51
463.141	6.45
463.496	6.49
463.852	6.69
464.208	6.6
464.564	6.62
464.919	6.67
465.275	6.57
465.631	6.89
465.986	6.87
466.342	6.57
466.697	6.74
467.052	6.95
467.408	6.9
467.763	7.01
468.118	6.66
468.473	6.88
468.829	6.83
469.184	6.71
469.539	6.83
469.894	6.75
470.249	6.83
470.603	6.76
470.958	6.84
471.313	6.94
471.668	6.97
472.023	6.7
472.377	6.76
472.732	6.83
473.086	6.82
473.441	6.81
473.795	6.72
474.15	6.99
474.504	6.52
474.859	6.84
475.213	6.81
475.567	6.98
475.921	6.85
476.275	6.75
476.63	6.85
476.984	7
477.338	6.77
477.692	6.81
478.045	6.91
478.399	6.86
478.753	6.86
479.107	6.97
479.461	6.91
479.814	7
480.168	6.75
480.521	6.77
480.875	6.96
481.228	7.03
481.582	6.97
481.935	6.98
482.289	7.05
482.642	7.11
482.995	6.86
483.348	6.89
483.701	7.01
484.055	6.87
484.408	6.86
484.761	6.77
485.114	6.66
485.466	6.61
485.819	6.57
486.172	6.53
486.525	6.64
486.878	6.68
487.23	6.74
487.583	6.77
487.936	6.89
488.288	6.83
488.641	6.8
488.993	6.84
489.345	6.77
489.698	6.7
490.05	6.75
490.402	6.79
490.754	6.8
491.107	6.85
491.459	6.94
491.811	6.93
492.163	6.95
492.515	6.96
492.866	6.99
493.218	6.87
493.57	6.9
493.922	6.8
494.274	6.93
494.625	6.95
494.977	7.14
495.328	7.22
495.68	7.09
496.031	7.21
496.383	7.16
496.734	7.27
497.086	7.23
497.437	7.19
497.788	7.22
498.139	7.17
498.49	7.28
498.842	7.11
499.193	7.25
499.544	7.25
499.894	7.21
500.245	7.38
500.596	7.43
500.947	7.2
501.298	7.38
501.648	7.38
501.999	7.42
502.35	7.37
502.7	7.33
503.051	7.49
503.401	7.52
503.752	7.49
504.102	7.53
504.452	7.62
504.803	7.47
505.153	7.48
505.503	7.61
505.853	7.59
506.203	7.51
506.553	7.39
506.903	7.42
507.253	7.51
507.603	7.55
507.953	7.59
508.303	7.61
508.652	7.56
509.002	7.58
509.352	7.5
509.701	7.5
510.051	7.52
510.4	7.44
510.75	7.43
511.099	7.46
511.449	7.7
511.798	7.55
512.147	7.61
512.496	7.74
512.846	7.58
513.195	7.54
513.544	7.65
513.893	7.64
514.242	7.59
514.591	7.59
514.939	7.64
515.288	7.6
515.637	7.61
515.986	7.78
516.334	7.79
516.683	7.72
517.032	7.85
517.38	7.8
517.729	7.84
518.077	7.88
518.426	7.83
518.774	7.74
519.122	7.76
519.47	7.77
519.819	7.77
520.167	7.7
520.515	7.62
520.863	7.74
521.211	7.74
521.559	7.85
521.907	7.84
522.255	7.83
522.602	8.01
522.95	8.02
523.298	8.08
523.645	8.1
523.993	7.99
524.341	8.01
524.688	8.03
525.036	7.97
525.383	8.02
525.73	8.07
526.078	8.07
526.425	8
526.772	8.02
527.119	7.98
527.466	7.97
527.814	7.81
528.161	8.07
528.508	7.97
528.854	7.96
529.201	7.98
529.548	8.01
529.895	7.89
530.242	7.74
530.588	7.77
530.935	7.85
531.282	7.86
531.628	7.91
531.975	8
532.321	8.01
532.667	8.05
533.014	8.1
533.36	8.2
533.706	8.16
534.052	8.16
534.399	8.15
534.745	8.09
535.091	8.1
535.437	8.12
535.783	8.14
536.129	8.22
536.474	8.25
536.82	8.33
537.166	8.38
537.512	8.39
537.857	8.46
538.203	8.42
538.549	8.34
538.894	8.46
539.239	8.4
539.585	8.43
539.93	8.49
540.276	8.47
540.621	8.63
540.966	8.5
541.311	8.6
541.656	8.63
542.001	8.71
542.346	8.54
542.691	8.53
543.036	8.38
543.381	8.3
543.726	8.44
544.071	8.41
544.415	8.46
544.76	8.59
545.105	8.63
545.449	8.72
545.794	8.78
546.138	8.66
546.483	8.77
546.827	8.85
547.171	8.96
547.516	8.85
547.86	8.91
548.204	8.86
548.548	8.89
548.892	8.78
549.236	8.82
549.58	8.92
549.924	8.92
550.268	8.97
550.612	8.79
550.956	9.18
551.3	9.25
551.643	9.3
551.987	9.22
552.33	9.28
552.674	9.35
553.017	9.24
553.361	9.41
553.704	9.34
554.048	9.29
554.391	9.42
554.734	9.32
555.077	9.46
555.42	9.24
555.764	9.32
556.107	9.57
556.45	9.43
556.793	9.28
557.135	9.46
557.478	9.45
557.821	9.39
558.164	9.39
558.507	9.56
558.849	9.66
559.192	9.53
559.534	9.66
559.877	9.61
560.219	9.76
560.562	9.65
560.904	9.83
561.246	9.82
561.589	9.9
561.931	9.63
562.273	9.72
562.615	9.75
562.957	9.76
563.299	9.83
563.641	10.08
563.983	9.87
564.325	10
564.667	9.93
565.008	9.93
565.35	9.79
565.692	9.9
566.033	10.13
566.375	10.01
566.716	10
567.058	9.9
567.399	10.11
567.741	10.01
568.082	10.06
568.423	10.1
568.764	10.12
569.105	10.09
569.447	10.33
569.788	10.29
570.129	10.18
570.47	10.25
570.811	10.26
571.151	10.49
571.492	10.32
571.833	10.34
572.174	10.31
572.514	10.43
572.855	10.51
573.195	10.29
573.536	10.33
573.876	10.45
574.217	10.42
574.557	10.46
574.898	10.43
575.238	10.56
575.578	10.53
575.918	10.72
576.258	10.48
576.598	10.56
576.938	10.6
577.278	10.7
577.618	10.79
577.958	10.72
578.298	10.67
578.638	10.67
578.977	10.76
579.317	10.81
579.657	10.76
579.996	11.04
580.336	10.94
580.675	11.17
581.014	10.93
581.354	10.99
581.693	11.01
582.032	11.03
582.372	10.99
582.711	11.15
583.05	11.44
583.389	11.24
583.728	11.06
584.067	11.52
584.406	11.22
584.745	11.44
585.083	11.17
585.422	11.41
585.761	11.55
586.1	11.4
586.438	11.32
586.777	11.31
587.115	11.51
587.454	11.61
587.792	11.39
588.13	11.69
588.469	11.67
588.807	11.4
589.145	11.87
589.483	11.64
589.821	11.84
590.159	11.71
590.497	11.77
590.835	11.82
591.173	11.67
591.511	11.62
591.849	11.88
592.187	11.97
592.524	11.97
592.862	11.99
593.2	11.72
593.537	11.77
593.875	12.04
594.212	11.93
594.55	12.11
594.887	12.4
595.224	12.13
595.561	12.2
595.899	12.05
596.236	11.93
596.573	12.16
596.91	12.35
597.247	12.2
597.584	12.21
597.921	12.15
598.258	12.38
598.594	12.25
598.931	12.32
599.268	12.17
599.604	12.27
599.941	12.46
600.277	12.13
600.614	12.52
600.95	12.74
601.287	12.51
601.623	12.65
601.959	12.78
602.296	12.98
602.632	12.52
602.968	12.71
603.304	12.52
603.64	12.81
603.976	12.8
604.312	12.75
604.648	12.85
604.984	12.88
605.319	12.84
605.655	12.66
605.991	12.91
606.326	12.66
606.662	12.79
606.998	12.83
607.333	13.06
607.668	12.97
608.004	12.97
608.339	13.21
608.674	13.04
609.01	13.1
609.345	13.18
609.68	13
610.015	12.98
610.35	13.78
610.685	13.35
611.02	13.09
611.355	13.39
611.689	13.35
612.024	13.33
612.359	13.46
612.694	13.4
613.028	13.38
613.363	13.16
613.697	13.46
614.032	13.7
614.366	14.06
614.7	13.83
615.035	13.59
615.369	13.65
615.703	13.29
616.037	13.4
616.371	14.06
616.705	13.54
617.039	13.97
617.373	13.79
617.707	13.9
618.041	13.85
618.375	13.98
618.709	14.06
619.042	13.95
619.376	13.9
619.71	14.09
620.043	13.91
620.377	14.38
620.71	14.13
621.043	13.82
621.377	13.87
621.71	14.5
622.043	14.75
622.376	14.39
622.709	14.69
623.043	14.18
623.376	14.7
623.709	14.51
624.041	14.81
624.374	14.52
624.707	14.6
625.04	14.48
625.373	15.01
625.705	14.93
626.038	14.89
626.37	15.01
626.703	15.01
627.035	14.32
627.368	15.01
627.7	15.05
628.032	14.9
628.365	15.05
628.697	15.02
629.029	14.93
629.361	14.85
629.693	14.92
630.025	14.75
630.357	15.12
630.689	14.92
631.021	15.73
631.353	15.29
631.684	15.16
632.016	15
632.348	15.31
632.679	14.82
633.011	15.72
633.342	15.63
633.674	15.9
634.005	15.56
634.336	15.48
634.668	15.59
634.999	15.33
635.33	15.64
635.661	15.65
635.992	15.76
636.323	15.39
636.654	16.08
636.985	15.69
637.316	15.97
637.647	15.56
637.977	15.64
638.308	16.08
638.639	15.93
638.969	15.71
639.3	16.06
639.63	16.09
639.961	15.86
640.291	15.75
640.622	16.26
640.952	16.06
641.282	16.23
641.612	16.13
641.943	16.12
642.273	16.48
642.603	16.77
642.933	16.3
643.263	16.3
643.592	17.13
643.922	16.77
644.252	16.66
644.582	16.5
644.911	16.43
645.241	16.48
645.571	16.99
645.9	16.37
646.23	16.58
646.559	16.75
646.888	16.87
647.218	16.8
647.547	16.93
647.876	16.79
648.205	17.13
648.534	17.14
648.863	16.99
649.192	17.42
649.521	17.54
649.85	17.06
650.179	17.02
650.508	17.52
650.837	16.87
651.165	16.79
651.494	16.96
651.822	17.55
652.151	17.6
652.479	17.22
652.808	17.11
653.136	17.92
653.465	17.72
653.793	17.53
654.121	17.39
654.449	17.86
654.777	17.44
655.105	17.84
655.433	17.82
655.761	18.04
656.089	17.74
656.417	18.24
656.745	17.81
657.073	17.48
657.4	17.78
657.728	17.38
658.056	18.57
658.383	17.77
658.711	18.13
659.038	17.94
659.365	18.04
659.693	18.15
660.02	18.39
660.347	18.05
660.674	17.94
661.001	18.47
661.329	18.14
661.656	18.36
661.982	18.34
662.309	18.61
662.636	18.17
662.963	18.63
663.29	18.75
663.616	18.61
663.943	18.44
664.27	18.62
664.596	18.56
664.923	19.38
665.249	18.77
665.576	18.87
665.902	18.98
666.228	18.76
666.554	18.42
666.881	18.68
667.207	18.87
667.533	19.56
667.859	18.91
668.185	19.01
668.511	18.84
668.837	19.05
669.162	20.32
669.488	19.14
669.814	19.54
670.139	19.17
670.465	18.19
670.791	19.5
671.116	19.98
671.442	19.54
671.767	19.87
672.092	19.72
672.418	19.56
672.743	19.39
673.068	19.36
673.393	19.4
673.718	20.09
674.043	20.48
674.368	18.7
674.693	19.26
675.018	19.71
675.343	19.59
675.667	20.09
675.992	19.75
676.317	19.47
676.641	19.69
676.966	20.12
677.29	19.88
677.615	19.93
677.939	19.47
678.264	20.61
678.588	19.79
678.912	20.41
679.236	19.91
679.56	20.4
679.885	21.26
680.209	20.48
680.532	20.23
680.856	19.79
681.18	20.24
681.504	20.06
681.828	20.81
682.152	20.6
682.475	21.03
682.799	20.98
683.122	21.21
683.446	20.74
683.769	21.33
684.093	20.34
684.416	21.01
684.739	20.97
