Data from 448_chest_Reflection__2__47.txt Node

Date: Tue Dec 12 18:37:35 CST 2023
User: ToomeyLab
Spectrometer: FLMS14357
Trigger mode: 0
Integration Time (sec): 1.000000E-2
Scans to average: 100
Electric dark correction enabled: true
Nonlinearity correction enabled: false
Boxcar width: 0
XAxis mode: Wavelengths
Number of Pixels in Spectrum: 2048
>>>>>Begin Spectral Data<<<<<
189.047	62.93
189.435	62.93
189.823	62.93
190.211	-135.76
190.599	124.48
190.987	123.24
191.375	155.72
191.763	113.94
192.151	112.41
192.538	54.4
192.926	41.05
193.314	-12.98
193.702	154.19
194.089	51.47
194.477	289.9
194.864	42.64
195.252	414.09
195.639	35.72
196.027	-282.79
196.414	56.91
196.801	-48.18
197.189	-18.53
197.576	-155.19
197.963	9.86
198.351	39.54
198.738	40.33
199.125	35.56
199.512	-6.73
199.899	-1.53
200.286	-14.18
200.673	-16.67
201.06	0.39
201.447	-23.16
201.833	0.93
202.22	30.75
202.607	-101.65
202.994	42.93
203.38	11.49
203.767	-3.85
204.154	-1.05
204.54	46.6
204.927	10.48
205.313	28.75
205.699	23.54
206.086	21.39
206.472	58.65
206.858	12.2
207.245	-4.25
207.631	30.4
208.017	12.13
208.403	-3.33
208.789	11.43
209.175	-22.5
209.561	4.27
209.947	-27.42
210.333	32.59
210.719	-32.81
211.105	8.4
211.491	43.36
211.876	11.23
212.262	39.64
212.648	-33.84
213.034	-82.36
213.419	4.02
213.805	10.99
214.19	21.21
214.576	20.74
214.961	23.02
215.346	23.79
215.732	30.13
216.117	-6.43
216.502	-20.29
216.888	5.13
217.273	-29.73
217.658	-1.08
218.043	-9.32
218.428	7.98
218.813	11.33
219.198	-29.71
219.583	22.09
219.968	0.08
220.353	4.37
220.738	10.4
221.122	3.77
221.507	-12.45
221.892	-2.48
222.276	6.69
222.661	-9.86
223.046	-9.28
223.43	15.64
223.815	4.83
224.199	5.78
224.583	4.62
224.968	3.33
225.352	-9.96
225.736	10.51
226.121	0.52
226.505	3.09
226.889	-2.38
227.273	3.41
227.657	1.85
228.041	7.5
228.425	1.14
228.809	2.03
229.193	-0.64
229.577	3.24
229.961	1.68
230.344	2.51
230.728	2.62
231.112	2.93
231.495	2.16
231.879	3.15
232.263	1.5
232.646	1.14
233.03	2.18
233.413	1.89
233.797	1.1
234.18	-0.21
234.563	0.18
234.946	2.8
235.33	2.57
235.713	2.83
236.096	3.05
236.479	3.27
236.862	3.1
237.245	2.97
237.628	1.31
238.011	2.83
238.394	2.64
238.777	2.83
239.16	2.33
239.543	2.49
239.925	4.2
240.308	1.73
240.691	2.89
241.073	3.08
241.456	3.84
241.838	1.69
242.221	3.46
242.603	2.99
242.986	2.63
243.368	3
243.75	2.35
244.133	2.55
244.515	3.18
244.897	2.88
245.279	3.23
245.661	2.25
246.043	2.84
246.425	2.66
246.807	2.02
247.189	2.9
247.571	3.5
247.953	1.96
248.335	2.41
248.717	2.53
249.098	2.45
249.48	2.38
249.862	2.53
250.243	2.68
250.625	3.15
251.006	3.03
251.388	2.65
251.769	1.82
252.151	1.56
252.532	3.01
252.913	3.21
253.295	3.71
253.676	2.34
254.057	2.22
254.438	3.11
254.819	2.32
255.2	2.94
255.581	2.91
255.962	2.68
256.343	3
256.724	3.29
257.105	2.61
257.486	1.49
257.867	0.36
258.247	2.64
258.628	2.5
259.009	2.98
259.389	2.24
259.77	2.09
260.15	2.6
260.531	2.81
260.911	3.1
261.292	2.52
261.672	2.43
262.052	2.48
262.432	2.77
262.813	2.57
263.193	2.83
263.573	2.94
263.953	2.75
264.333	3.72
264.713	2.6
265.093	2.7
265.473	3.28
265.853	2.07
266.233	1.65
266.612	2.43
266.992	2.61
267.372	2.81
267.752	3.51
268.131	2.13
268.511	2.25
268.89	2.22
269.27	2.46
269.649	2.74
270.029	2.45
270.408	3.23
270.787	1.93
271.167	2.78
271.546	2.12
271.925	2.99
272.304	3.09
272.683	1.98
273.062	2.93
273.441	2.59
273.82	2.26
274.199	2.63
274.578	2.38
274.957	2.71
275.336	2.54
275.715	3.22
276.093	2.15
276.472	2.75
276.851	3.47
277.229	2.56
277.608	2.7
277.986	2.56
278.365	2.41
278.743	2.37
279.122	2.58
279.5	2.53
279.878	1.49
280.257	2.43
280.635	2.16
281.013	2.89
281.391	2.21
281.769	2.92
282.147	2.49
282.525	2.34
282.903	2.46
283.281	2.97
283.659	3
284.037	2.54
284.415	2.38
284.792	2.53
285.17	2.08
285.548	2.78
285.925	2.73
286.303	2.49
286.68	2.33
287.058	2.68
287.435	2.59
287.813	2.52
288.19	2.66
288.567	2.55
288.945	2.76
289.322	2.11
289.699	2.49
290.076	2.33
290.453	2.89
290.83	2.87
291.207	3.65
291.584	2.88
291.961	2.97
292.338	2.44
292.715	2.79
293.092	3.07
293.469	2.65
293.845	2.96
294.222	2.77
294.599	2.81
294.975	3.03
295.352	2.8
295.728	3.04
296.105	3.03
296.481	3.05
296.858	2.92
297.234	3.53
297.61	3.17
297.986	3.17
298.363	3.32
298.739	3.06
299.115	2.77
299.491	2.83
299.867	2.79
300.243	3.03
300.619	3.32
300.995	3.45
301.371	3.34
301.746	3.07
302.122	3.38
302.498	3.43
302.874	3.16
303.249	4.12
303.625	2.86
304	3.16
304.376	2.9
304.751	3.47
305.127	3.31
305.502	3.69
305.878	2.99
306.253	3.31
306.628	2.99
307.003	2.71
307.378	2.94
307.754	3.45
308.129	3
308.504	4.21
308.879	3.52
309.254	3.68
309.629	3.25
310.003	3.35
310.378	3.44
310.753	3.7
311.128	4.01
311.502	3.21
311.877	3.02
312.252	3.41
312.626	3.31
313.001	3.07
313.375	2.99
313.75	3.11
314.124	3.28
314.498	3.02
314.873	3.3
315.247	3.54
315.621	3.64
315.995	3.11
316.369	3.19
316.743	3.11
317.117	3.34
317.491	3.46
317.865	3.27
318.239	3.27
318.613	3.33
318.987	4.16
319.361	3.23
319.734	3.5
320.108	3.8
320.482	3.23
320.855	3.35
321.229	3.44
321.602	3.6
321.976	3.84
322.349	3.73
322.723	3.44
323.096	3.22
323.469	3.55
323.843	3.99
324.216	3.86
324.589	3.51
324.962	4.34
325.335	4.07
325.708	4.23
326.081	3.23
326.454	3.57
326.827	4.22
327.2	3.78
327.573	3.77
327.945	3.93
328.318	3.62
328.691	3.32
329.063	3.98
329.436	4
329.809	3.44
330.181	2.97
330.553	3.83
330.926	4.19
331.298	3.59
331.671	3.71
332.043	3.97
332.415	3.63
332.787	3.42
333.159	3.96
333.532	3.88
333.904	3.33
334.276	4.2
334.648	3.4
335.02	3.66
335.391	3.51
335.763	3.58
336.135	3.83
336.507	4.04
336.879	4.01
337.25	3.76
337.622	3.67
337.993	3.68
338.365	3.36
338.736	3.87
339.108	3.73
339.479	4.45
339.851	3.12
340.222	3.17
340.593	3.82
340.964	3.86
341.336	3.9
341.707	3.5
342.078	3.72
342.449	3.35
342.82	3.87
343.191	4.02
343.562	3.93
343.933	4.4
344.303	4.12
344.674	3.99
345.045	3.93
345.416	4.15
345.786	3.77
346.157	3.83
346.527	4.13
346.898	3.67
347.268	3.91
347.639	3.91
348.009	3.93
348.38	3.63
348.75	3.79
349.12	3.97
349.49	3.7
349.861	4.47
350.231	4.05
350.601	4.13
350.971	4.17
351.341	3.76
351.711	4.02
352.081	4.24
352.45	4.01
352.82	3.92
353.19	3.9
353.56	3.87
353.929	3.69
354.299	3.59
354.669	3.76
355.038	3.55
355.408	3.7
355.777	4.3
356.147	3.45
356.516	4.13
356.885	3.68
357.254	3.96
357.624	4.21
357.993	3.66
358.362	3.79
358.731	3.72
359.1	3.68
359.469	3.74
359.838	3.68
360.207	3.83
360.576	3.73
360.945	3.49
361.314	4.26
361.682	3.96
362.051	4.36
362.42	4.17
362.788	3.82
363.157	4.14
363.525	3.98
363.894	3.95
364.262	3.72
364.631	3.42
364.999	3.77
365.367	4.2
365.735	3.75
366.104	3.89
366.472	3.77
366.84	3.84
367.208	4.14
367.576	3.64
367.944	4.33
368.312	3.92
368.68	4.17
369.048	4.33
369.416	3.98
369.783	4.17
370.151	4.05
370.519	4.19
370.886	3.93
371.254	4.18
371.621	4.38
371.989	3.94
372.356	4.26
372.724	4.31
373.091	3.77
373.458	4.26
373.826	4.16
374.193	3.81
374.56	4.09
374.927	4.21
375.294	4.18
375.661	4.43
376.028	4.4
376.395	4.47
376.762	4.62
377.129	3.9
377.496	4.11
377.863	4.07
378.229	4.17
378.596	3.95
378.963	4.31
379.329	3.95
379.696	4.06
380.062	4.48
380.429	4.24
380.795	4.38
381.161	4.65
381.528	3.91
381.894	4.39
382.26	4.01
382.626	3.99
382.993	4.34
383.359	3.96
383.725	3.85
384.091	4.27
384.457	4.08
384.823	4.31
385.188	4.25
385.554	4.24
385.92	4.13
386.286	4.47
386.651	4.27
387.017	4.27
387.383	4.08
387.748	4.41
388.114	4.33
388.479	4.29
388.845	4.27
389.21	3.97
389.575	3.84
389.94	4.16
390.306	4.26
390.671	4.29
391.036	4.49
391.401	4.37
391.766	4.17
392.131	4.1
392.496	4.1
392.861	4.17
393.226	4.53
393.591	4.15
393.956	4.12
394.32	4.52
394.685	4.38
395.05	4.12
395.414	4.22
395.779	3.96
396.143	4.61
396.508	4.29
396.872	4.22
397.236	4.4
397.601	4.31
397.965	4.28
398.329	4.37
398.694	4.03
399.058	4.35
399.422	4.3
399.786	3.89
400.15	4.26
400.514	4.5
400.878	4.24
401.242	4.18
401.605	4.32
401.969	4.36
402.333	4.19
402.697	4.03
403.06	4.17
403.424	4.41
403.787	4.25
404.151	4.68
404.514	3.98
404.878	4.18
405.241	4.47
405.604	4.32
405.968	4.35
406.331	4.48
406.694	4.41
407.057	4.3
407.42	4.18
407.783	4.21
408.146	4.57
408.509	4.46
408.872	4.27
409.235	4.28
409.598	4.31
409.961	4.25
410.323	4.62
410.686	4.3
411.049	4.7
411.411	4.51
411.774	4.47
412.136	4.5
412.499	4.29
412.861	4.37
413.223	4.76
413.586	4.39
413.948	4.53
414.31	4.39
414.672	4.62
415.035	4.46
415.397	4.44
415.759	4.13
416.121	4.52
416.483	4.58
416.845	4.49
417.206	4.7
417.568	4.41
417.93	4.58
418.292	4.4
418.653	4.62
419.015	4.43
419.377	4.47
419.738	4.28
420.1	4.45
420.461	4.43
420.822	4.41
421.184	4.47
421.545	4.6
421.906	4.37
422.267	4.45
422.629	4.36
422.99	4.44
423.351	4.36
423.712	4.32
424.073	4.47
424.434	4.41
424.795	4.55
425.155	4.34
425.516	4.34
425.877	4.48
426.238	4.39
426.598	4.4
426.959	4.39
427.32	4.46
427.68	4.49
428.041	4.62
428.401	4.63
428.761	4.59
429.122	4.65
429.482	4.73
429.842	4.65
430.202	4.57
430.563	4.78
430.923	4.58
431.283	4.43
431.643	4.8
432.003	4.48
432.363	4.6
432.722	4.51
433.082	4.58
433.442	4.61
433.802	4.7
434.161	4.76
434.521	4.61
434.881	4.63
435.24	4.76
435.6	4.56
435.959	4.6
436.319	4.59
436.678	4.82
437.037	4.65
437.396	4.54
437.756	4.63
438.115	4.67
438.474	4.64
438.833	4.95
439.192	4.79
439.551	4.76
439.91	4.49
440.269	4.67
440.628	4.74
440.987	4.55
441.345	4.77
441.704	4.63
442.063	4.6
442.421	4.69
442.78	4.58
443.138	4.73
443.497	4.76
443.855	4.58
444.214	4.64
444.572	4.82
444.93	4.69
445.288	4.52
445.647	4.83
446.005	4.74
446.363	4.63
446.721	4.63
447.079	4.65
447.437	4.56
447.795	4.7
448.153	4.58
448.51	4.6
448.868	4.68
449.226	4.78
449.584	4.69
449.941	4.76
450.299	4.74
450.656	4.75
451.014	4.74
451.371	4.72
451.729	4.79
452.086	4.83
452.443	5.06
452.801	4.83
453.158	4.76
453.515	4.82
453.872	4.78
454.229	4.81
454.586	4.7
454.943	4.72
455.3	4.71
455.657	4.88
456.014	4.98
456.371	4.9
456.727	5.01
457.084	5.04
457.441	4.88
457.797	4.82
458.154	4.68
458.51	4.59
458.867	4.97
459.223	5
459.58	5.1
459.936	4.85
460.292	4.94
460.648	4.94
461.005	4.83
461.361	4.84
461.717	4.87
462.073	4.8
462.429	4.82
462.785	4.8
463.141	4.91
463.496	4.79
463.852	5.09
464.208	4.99
464.564	4.97
464.919	5.05
465.275	4.86
465.631	5.28
465.986	4.89
466.342	4.85
466.697	5.13
467.052	5.11
467.408	5.18
467.763	5.07
468.118	5.12
468.473	5.04
468.829	5.17
469.184	4.98
469.539	5.06
469.894	5.28
470.249	5
470.603	5.14
470.958	5.13
471.313	5.18
471.668	5.1
472.023	5.16
472.377	5.11
472.732	5.08
473.086	5.33
473.441	5.13
473.795	5.18
474.15	5.15
474.504	5.04
474.859	5.17
475.213	5.08
475.567	5.24
475.921	5.13
476.275	4.95
476.63	5
476.984	5.27
477.338	5.14
477.692	5.11
478.045	5.23
478.399	4.93
478.753	5.05
479.107	5.16
479.461	5.14
479.814	5.25
480.168	5.08
480.521	5.12
480.875	5.15
481.228	5.31
481.582	5.1
481.935	5.2
482.289	5.34
482.642	5.29
482.995	5.19
483.348	5.11
483.701	5.34
484.055	5.2
484.408	5.1
484.761	5.07
485.114	4.98
485.466	4.89
485.819	4.82
486.172	4.87
486.525	4.93
486.878	5.01
487.23	5.03
487.583	5.06
487.936	5.14
488.288	4.99
488.641	5.07
488.993	5.01
489.345	5.03
489.698	4.96
490.05	5.02
490.402	5.09
490.754	5.13
491.107	5.14
491.459	5.17
491.811	5.31
492.163	5.22
492.515	5.21
492.866	5.18
493.218	5.11
493.57	5.06
493.922	5.08
494.274	5.23
494.625	5.26
494.977	5.4
495.328	5.44
495.68	5.37
496.031	5.47
496.383	5.36
496.734	5.4
497.086	5.4
497.437	5.44
497.788	5.45
498.139	5.49
498.49	5.54
498.842	5.34
499.193	5.54
499.544	5.45
499.894	5.4
500.245	5.47
500.596	5.4
500.947	5.4
501.298	5.45
501.648	5.46
501.999	5.42
502.35	5.5
502.7	5.55
503.051	5.63
503.401	5.42
503.752	5.84
504.102	5.49
504.452	5.59
504.803	5.56
505.153	5.66
505.503	5.61
505.853	5.64
506.203	5.62
506.553	5.6
506.903	5.7
507.253	5.61
507.603	5.6
507.953	5.62
508.303	5.74
508.652	5.75
509.002	5.75
509.352	5.68
509.701	5.78
510.051	5.7
510.4	5.67
510.75	5.64
511.099	5.7
511.449	5.82
511.798	5.64
512.147	5.78
512.496	5.79
512.846	5.86
513.195	5.76
513.544	5.78
513.893	5.67
514.242	5.67
514.591	5.71
514.939	5.83
515.288	5.83
515.637	5.79
515.986	5.8
516.334	5.91
516.683	5.89
517.032	5.96
517.38	5.86
517.729	5.74
518.077	5.92
518.426	6.07
518.774	5.91
519.122	5.94
519.47	5.96
519.819	5.92
520.167	5.81
520.515	5.85
520.863	5.84
521.211	5.82
521.559	5.91
521.907	5.89
522.255	5.87
522.602	6.12
522.95	5.98
523.298	6.01
523.645	6.09
523.993	6.08
524.341	6.17
524.688	5.95
525.036	6.23
525.383	6.12
525.73	6.07
526.078	6.04
526.425	6.03
526.772	5.94
527.119	6.11
527.466	6.08
527.814	5.92
528.161	6.11
528.508	6
528.854	6.11
529.201	6.04
529.548	6.07
529.895	5.95
530.242	5.81
530.588	5.81
530.935	5.94
531.282	6
531.628	6.06
531.975	6.1
532.321	6.09
532.667	6.06
533.014	6.1
533.36	6.2
533.706	6.14
534.052	6.12
534.399	6.21
534.745	6.18
535.091	6.11
535.437	6.09
535.783	6.14
536.129	6.27
536.474	6.29
536.82	6.3
537.166	6.45
537.512	6.35
537.857	6.39
538.203	6.35
538.549	6.37
538.894	6.4
539.239	6.43
539.585	6.43
539.93	6.58
540.276	6.57
540.621	6.59
540.966	6.65
541.311	6.6
541.656	6.51
542.001	6.49
542.346	6.54
542.691	6.43
543.036	6.35
543.381	6.29
543.726	6.44
544.071	6.46
544.415	6.46
544.76	6.51
545.105	6.58
545.449	6.69
545.794	6.76
546.138	6.65
546.483	6.67
546.827	6.84
547.171	6.87
547.516	6.76
547.86	6.79
548.204	6.83
548.548	6.91
548.892	6.94
549.236	6.86
549.58	7.02
549.924	6.79
550.268	6.99
550.612	7.01
550.956	6.91
551.3	7.01
551.643	7.03
551.987	7.21
552.33	7.27
552.674	7.29
553.017	7.2
553.361	7.49
553.704	7.31
554.048	7.24
554.391	7.24
554.734	7.2
555.077	7.29
555.42	7.14
555.764	7.52
556.107	7.35
556.45	7.26
556.793	7.18
557.135	7.35
557.478	7.52
557.821	7.39
558.164	7.39
558.507	7.52
558.849	7.57
559.192	7.56
559.534	7.57
559.877	7.64
560.219	7.7
560.562	7.55
560.904	7.59
561.246	7.75
561.589	7.74
561.931	7.47
562.273	7.68
562.615	7.59
562.957	7.67
563.299	7.74
563.641	7.73
563.983	7.71
564.325	7.79
564.667	7.97
565.008	7.6
565.35	7.82
565.692	7.94
566.033	8.02
566.375	8.03
566.716	7.88
567.058	7.95
567.399	7.89
567.741	7.9
568.082	7.82
568.423	7.93
568.764	8.07
569.105	8.03
569.447	8.28
569.788	8.12
570.129	8.06
570.47	8.12
570.811	8.23
571.151	8.33
571.492	8.29
571.833	8.18
572.174	8.31
572.514	8.21
572.855	8.35
573.195	8.24
573.536	8.16
573.876	8.31
574.217	8.31
574.557	8.24
574.898	8.28
575.238	8.35
575.578	8.4
575.918	8.49
576.258	8.36
576.598	8.47
576.938	8.48
577.278	8.74
577.618	8.51
577.958	8.72
578.298	8.75
578.638	8.55
578.977	8.67
579.317	8.51
579.657	8.64
579.996	8.64
580.336	8.8
580.675	8.83
581.014	8.84
581.354	8.78
581.693	8.85
582.032	8.78
582.372	9.05
582.711	8.92
583.05	8.93
583.389	9.35
583.728	9.08
584.067	9.21
584.406	9.16
584.745	9.34
585.083	9.21
585.422	9.23
585.761	9.35
586.1	9.53
586.438	9.16
586.777	9.44
587.115	9.35
587.454	9.47
587.792	9.27
588.13	9.5
588.469	9.51
588.807	9.54
589.145	9.43
589.483	9.37
589.821	9.82
590.159	9.46
590.497	9.75
590.835	9.61
591.173	9.5
591.511	9.77
591.849	9.77
592.187	9.74
592.524	9.5
592.862	9.78
593.2	9.58
593.537	9.61
593.875	9.9
594.212	9.9
594.55	9.99
594.887	10.49
595.224	9.82
595.561	10.19
595.899	9.81
596.236	10.09
596.573	9.75
596.91	10.29
597.247	10.15
597.584	10.01
597.921	10.17
598.258	10.28
598.594	10.28
598.931	10.22
599.268	10.04
599.604	10.09
599.941	10.2
600.277	10.33
600.614	10.47
600.95	10.53
601.287	10.35
601.623	10.44
601.959	10.64
602.296	10.64
602.632	10.34
602.968	10.63
603.304	10.59
603.64	10.71
603.976	10.4
604.312	10.7
604.648	10.72
604.984	10.55
605.319	10.53
605.655	10.75
605.991	10.56
606.326	10.59
606.662	10.77
606.998	10.78
607.333	10.84
607.668	10.94
608.004	10.99
608.339	11.03
608.674	11
609.01	11.03
609.345	11.44
609.68	11.04
610.015	10.97
610.35	11.24
610.685	11.3
611.02	11.28
611.355	11.15
611.689	11.2
612.024	11.24
612.359	11.36
612.694	11.34
613.028	11.28
613.363	11.49
613.697	11.63
614.032	11.77
614.366	11.84
614.7	11.55
615.035	11.29
615.369	11.51
615.703	11.75
616.037	11.66
616.371	11.92
616.705	11.88
617.039	11.83
617.373	12.13
617.707	11.87
618.041	12
618.375	11.94
618.709	12.07
619.042	12.07
619.376	11.86
619.71	11.97
620.043	11.55
620.377	12.06
620.71	11.88
621.043	12.26
621.377	12.1
621.71	12.38
622.043	12.09
622.376	12.49
622.709	12.31
623.043	12.24
623.376	12.59
623.709	12.59
624.041	12.17
624.374	12.46
624.707	12.33
625.04	12.34
625.373	12.81
625.705	12.7
626.038	12.75
626.37	12.77
626.703	12.82
627.035	12.27
627.368	12.65
627.7	12.89
628.032	12.66
628.365	12.83
628.697	12.96
629.029	12.75
629.361	12.67
629.693	12.9
630.025	12.81
630.357	13.26
630.689	12.83
631.021	12.95
631.353	13.29
631.684	13.07
632.016	13.13
632.348	13.11
632.679	13.14
633.011	13.21
633.342	13.26
633.674	13.49
634.005	13.12
634.336	13.13
634.668	13.51
634.999	13.47
635.33	13.51
635.661	13.46
635.992	13.43
636.323	13.06
636.654	13.8
636.985	13.44
637.316	13.75
637.647	13.65
637.977	13.87
638.308	13.99
638.639	13.76
638.969	13.9
639.3	13.71
639.63	14.14
639.961	14.04
640.291	13.91
640.622	14.21
640.952	13.93
641.282	13.83
641.612	14.05
641.943	14.48
642.273	14.56
642.603	14.73
642.933	14.45
643.263	14.08
643.592	13.94
643.922	14.55
644.252	14.86
644.582	14.22
644.911	14.42
645.241	14.01
645.571	14.75
645.9	14.21
646.23	14.57
646.559	14.97
646.888	14.5
647.218	14.75
647.547	14.78
647.876	14.44
648.205	14.5
648.534	14.67
648.863	14.31
649.192	15.31
649.521	15.13
649.85	14.54
650.179	14.8
650.508	14.96
650.837	14.97
651.165	14.58
651.494	14.94
651.822	15.05
652.151	15.23
652.479	15.35
652.808	15.57
653.136	15.57
653.465	15.49
653.793	15.27
654.121	15.47
654.449	15.3
654.777	15.31
655.105	15.49
655.433	15.69
655.761	15.43
656.089	15.39
656.417	15.88
656.745	15.42
657.073	15.32
657.4	15.59
657.728	15.27
658.056	15.98
658.383	14.94
658.711	15.84
659.038	15.39
659.365	16.08
659.693	16.07
660.02	15.91
660.347	16.19
660.674	16.01
661.001	15.74
661.329	16.07
661.656	15.98
661.982	16.09
662.309	16.23
662.636	16.16
662.963	16.15
663.29	16.5
663.616	15.88
663.943	16.27
664.27	16.9
664.596	16.57
664.923	17.11
665.249	15.47
665.576	16.62
665.902	16.43
666.228	17.01
666.554	16.52
666.881	15.92
667.207	16.72
667.533	16.57
667.859	16.67
668.185	16.89
668.511	16.69
668.837	16.32
669.162	17.27
669.488	16.38
669.814	16.72
670.139	16.48
670.465	16.06
670.791	16.9
671.116	16.99
671.442	17.08
671.767	17.38
672.092	17.32
672.418	16.47
672.743	17.27
673.068	16.49
673.393	17.47
673.718	16.94
674.043	16.81
674.368	16.6
674.693	16.48
675.018	17.45
675.343	17.72
675.667	17.15
675.992	17.46
676.317	17.15
676.641	17.57
676.966	18.41
677.29	17.19
677.615	17.4
677.939	17.29
678.264	18.12
678.588	17.26
678.912	18.46
679.236	17.33
679.56	17.89
679.885	18.16
680.209	17.66
680.532	18.5
680.856	17.72
681.18	17.87
681.504	18.15
681.828	18.22
682.152	18.08
682.475	17.96
682.799	17.95
683.122	18
683.446	18.47
683.769	18.82
684.093	17.79
684.416	18.05
684.739	18.23
685.062	18.04
685.386	18
685.709	19.1
686.032	17.74
686.355	18.25
