Data from 448_forehead_Reflection__4__59.txt Node

Date: Tue Dec 12 18:41:17 CST 2023
User: ToomeyLab
Spectrometer: FLMS14357
Trigger mode: 0
Integration Time (sec): 1.000000E-2
Scans to average: 100
Electric dark correction enabled: true
Nonlinearity correction enabled: false
Boxcar width: 0
XAxis mode: Wavelengths
Number of Pixels in Spectrum: 2048
>>>>>Begin Spectral Data<<<<<
189.047	-30.95
189.435	-30.95
189.823	-30.95
190.211	-323.12
190.599	131.61
190.987	108.72
191.375	152.31
191.763	9.15
192.151	52.35
192.538	-15.09
192.926	-48.33
193.314	65.72
193.702	145.9
194.089	49.83
194.477	792.1
194.864	94.81
195.252	610.72
195.639	-193.57
196.027	51.72
196.414	-8.69
196.801	-320.7
197.189	171.43
197.576	-96.01
197.963	185
198.351	61.62
198.738	49.7
199.125	33.15
199.512	55.26
199.899	44.4
200.286	12.42
200.673	79.44
201.06	54.78
201.447	-19.59
201.833	15.25
202.22	44.04
202.607	-64.18
202.994	56.55
203.38	77.29
203.767	53.71
204.154	71.9
204.54	78.68
204.927	56.52
205.313	66.53
205.699	50.06
206.086	54.1
206.472	65.01
206.858	-1.64
207.245	62.78
207.631	53.71
208.017	63.82
208.403	12.71
208.789	46.96
209.175	7.88
209.561	56.92
209.947	48.9
210.333	24.87
210.719	21.76
211.105	25.65
211.491	45.47
211.876	31.75
212.262	36.66
212.648	-4.62
213.034	21.05
213.419	26.09
213.805	42.74
214.19	65.13
214.576	61.33
214.961	19.31
215.346	50.34
215.732	23.44
216.117	32.84
216.502	23.48
216.888	-0.49
217.273	-14.7
217.658	4.66
218.043	30.82
218.428	48.04
218.813	24.89
219.198	-7.83
219.583	26.54
219.968	32.92
220.353	25.71
220.738	19.71
221.122	26.12
221.507	9.13
221.892	-1.68
222.276	25.32
222.661	10.98
223.046	7.2
223.43	7.1
223.815	17.86
224.199	16.27
224.583	12.7
224.968	16.47
225.352	7.45
225.736	12.77
226.121	11.39
226.505	13.55
226.889	8.92
227.273	8.27
227.657	5.32
228.041	10.81
228.425	8.26
228.809	2.94
229.193	7.74
229.577	6.83
229.961	4.42
230.344	5.27
230.728	5.6
231.112	5.6
231.495	5.34
231.879	5.33
232.263	4.96
232.646	5.58
233.03	5.13
233.413	4.66
233.797	4.93
234.18	4.51
234.563	4.19
234.946	7.31
235.33	7.72
235.713	5.86
236.096	4.67
236.479	5.08
236.862	5.52
237.245	6.02
237.628	5.77
238.011	6.32
238.394	5.68
238.777	7.7
239.16	5.77
239.543	6.58
239.925	8.38
240.308	6.64
240.691	4.88
241.073	7.21
241.456	5.44
241.838	6.52
242.221	7.15
242.603	5.08
242.986	4.12
243.368	5.4
243.75	4.98
244.133	4.88
244.515	4.79
244.897	5.18
245.279	4.96
245.661	4.16
246.043	5.74
246.425	6.57
246.807	4.39
247.189	5.17
247.571	5.08
247.953	4.28
248.335	5.03
248.717	4.5
249.098	4.64
249.48	4.33
249.862	4.43
250.243	4.82
250.625	4.89
251.006	4.63
251.388	5.43
251.769	5.75
252.151	5.05
252.532	5.38
252.913	5.05
253.295	5.97
253.676	5.28
254.057	4.81
254.438	5.36
254.819	5.35
255.2	5.53
255.581	5.36
255.962	5.21
256.343	4.61
256.724	6.66
257.105	6.91
257.486	4.33
257.867	4.25
258.247	4.9
258.628	5.76
259.009	4.22
259.389	4.72
259.77	4
260.15	4.43
260.531	5.47
260.911	5.02
261.292	4.54
261.672	4.38
262.052	4.88
262.432	4.92
262.813	4.92
263.193	5.26
263.573	5.36
263.953	5.72
264.333	6.67
264.713	4.76
265.093	5.33
265.473	6.07
265.853	4.94
266.233	5.03
266.612	5.02
266.992	5.04
267.372	6.22
267.752	5.54
268.131	3.55
268.511	4.57
268.89	4.11
269.27	4.16
269.649	4.95
270.029	4.91
270.408	5.13
270.787	5.32
271.167	5.26
271.546	5.33
271.925	5.66
272.304	5.48
272.683	4.31
273.062	4.68
273.441	4.87
273.82	4.41
274.199	4.97
274.578	4.72
274.957	4.98
275.336	4.66
275.715	5.35
276.093	4.64
276.472	4.76
276.851	5.78
277.229	4.54
277.608	5.19
277.986	5.32
278.365	5.12
278.743	5.04
279.122	5.43
279.5	4.57
279.878	4.7
280.257	4.4
280.635	5.36
281.013	4.77
281.391	5.27
281.769	4.78
282.147	5.72
282.525	4.63
282.903	5.01
283.281	4.91
283.659	4.76
284.037	5.05
284.415	4.91
284.792	5.01
285.17	4.86
285.548	4.98
285.925	4.59
286.303	4.56
286.68	5.08
287.058	4.9
287.435	5.11
287.813	4.48
288.19	4.92
288.567	5.02
288.945	4.94
289.322	4.65
289.699	5.14
290.076	4.94
290.453	5.24
290.83	5.21
291.207	5.86
291.584	5.41
291.961	5.45
292.338	5.08
292.715	5.12
293.092	5.05
293.469	5.53
293.845	5.6
294.222	5.95
294.599	5.47
294.975	5.76
295.352	5.92
295.728	5.62
296.105	6.21
296.481	5.94
296.858	6.03
297.234	6.12
297.61	5.83
297.986	6.29
298.363	6
298.739	6.29
299.115	5.61
299.491	5.99
299.867	5.84
300.243	6.28
300.619	6.19
300.995	6.86
301.371	6.45
301.746	6.22
302.122	6.68
302.498	6.87
302.874	7.15
303.249	7.75
303.625	6.68
304	7.35
304.376	6.89
304.751	7.54
305.127	7.19
305.502	7.5
305.878	7.46
306.253	7.17
306.628	7.6
307.003	6.95
307.378	7.57
307.754	7.69
308.129	8.12
308.504	8.65
308.879	7.3
309.254	8.2
309.629	7.7
310.003	8.08
310.378	8.29
310.753	7.96
311.128	8.28
311.502	7.68
311.877	7.7
312.252	7.97
312.626	8.43
313.001	7.92
313.375	8.3
313.75	8.59
314.124	8.33
314.498	8.5
314.873	8.68
315.247	9.03
315.621	9.22
315.995	9.22
316.369	9.41
316.743	9.05
317.117	8.74
317.491	8.92
317.865	9.01
318.239	9.07
318.613	9.38
318.987	10.26
319.361	9.82
319.734	9.7
320.108	10.06
320.482	10.55
320.855	9.48
321.229	10.37
321.602	9.9
321.976	10.53
322.349	10.94
322.723	10.27
323.096	10.44
323.469	10.59
323.843	11.19
324.216	10.91
324.589	10.86
324.962	11.31
325.335	11.03
325.708	11.18
326.081	11.59
326.454	11.1
326.827	11.81
327.2	11.49
327.573	11.29
327.945	11.38
328.318	11.5
328.691	11.1
329.063	12.1
329.436	11.92
329.809	11.81
330.181	11.25
330.553	11.78
330.926	12.05
331.298	11.78
331.671	12.12
332.043	11.64
332.415	12.51
332.787	12.14
333.159	11.76
333.532	12.26
333.904	12.55
334.276	13.09
334.648	12.31
335.02	12.3
335.391	12.54
335.763	12.78
336.135	13.13
336.507	12.94
336.879	12.91
337.25	13.08
337.622	13.24
337.993	13
338.365	13.02
338.736	13.42
339.108	13.33
339.479	13.91
339.851	13.46
340.222	13.39
340.593	13.65
340.964	13.92
341.336	13.48
341.707	13.66
342.078	13.58
342.449	13.81
342.82	14.12
343.191	14.37
343.562	14.34
343.933	14.48
344.303	14.42
344.674	14.21
345.045	14.85
345.416	14.38
345.786	14
346.157	14.5
346.527	14.76
346.898	14.38
347.268	14.59
347.639	14.9
348.009	14.64
348.38	14.91
348.75	15.5
349.12	15
349.49	15.47
349.861	16.17
350.231	15.51
350.601	16.07
350.971	15.52
351.341	15.39
351.711	16.01
352.081	15.49
352.45	15.55
352.82	16.17
353.19	16.37
353.56	15.52
353.929	15.79
354.299	16.06
354.669	16.46
355.038	15.65
355.408	16.19
355.777	16.75
356.147	16.71
356.516	16.9
356.885	16.62
357.254	16.16
357.624	16.29
357.993	16.26
358.362	16.78
358.731	16.67
359.1	16.45
359.469	17.07
359.838	16.78
360.207	16.83
360.576	17.2
360.945	17.14
361.314	17.58
361.682	17.46
362.051	17.23
362.42	17.61
362.788	17.25
363.157	17.74
363.525	17.45
363.894	17.48
364.262	17.35
364.631	17.44
364.999	17.76
365.367	18.18
365.735	17.78
366.104	18.01
366.472	17.9
366.84	18.15
367.208	17.97
367.576	18.77
367.944	18.78
368.312	18.33
368.68	18.58
369.048	18.87
369.416	18.73
369.783	18.92
370.151	18.84
370.519	18.99
370.886	19.52
371.254	19.03
371.621	19.44
371.989	19.22
372.356	19.27
372.724	19.33
373.091	19.13
373.458	19.68
373.826	19.5
374.193	19.32
374.56	19.83
374.927	19.83
375.294	19.77
375.661	19.9
376.028	20.49
376.395	20.16
376.762	20.66
377.129	20.01
377.496	20.55
377.863	20.22
378.229	20.21
378.596	20.27
378.963	20.72
379.329	20.51
379.696	20.64
380.062	20.88
380.429	20.62
380.795	20.76
381.161	21.19
381.528	20.92
381.894	21.34
382.26	20.8
382.626	21.16
382.993	21.31
383.359	21.2
383.725	21.01
384.091	21.56
384.457	21.44
384.823	21.45
385.188	21.55
385.554	21.64
385.92	21.59
386.286	21.88
386.651	21.86
387.017	22.48
387.383	21.9
387.748	22.02
388.114	22.24
388.479	22.38
388.845	22.02
389.21	22.31
389.575	22.24
389.94	22.22
390.306	22.48
390.671	22.8
391.036	22.95
391.401	22.78
391.766	22.83
392.131	23.02
392.496	22.89
392.861	22.64
393.226	22.9
393.591	23.15
393.956	22.93
394.32	23.51
394.685	23.37
395.05	23.34
395.414	23.22
395.779	23.24
396.143	23.52
396.508	23.32
396.872	23.39
397.236	23.9
397.601	23.79
397.965	23.95
398.329	23.9
398.694	23.99
399.058	24.16
399.422	23.94
399.786	24.28
400.15	24.12
400.514	24.53
400.878	24.58
401.242	24.26
401.605	24.51
401.969	24.44
402.333	24.8
402.697	24.69
403.06	24.72
403.424	24.81
403.787	24.57
404.151	25.07
404.514	24.57
404.878	24.85
405.241	25.11
405.604	24.86
405.968	25.1
406.331	25.41
406.694	25.25
407.057	25.22
407.42	25.53
407.783	25.5
408.146	25.35
408.509	25.43
408.872	25.22
409.235	26.07
409.598	25.74
409.961	25.88
410.323	26.01
410.686	26.06
411.049	25.95
411.411	25.98
411.774	26.17
412.136	26.15
412.499	26.37
412.861	26.33
413.223	26.49
413.586	26.48
413.948	26.78
414.31	26.51
414.672	26.76
415.035	26.77
415.397	26.56
415.759	26.51
416.121	27.05
416.483	27.07
416.845	26.78
417.206	27.38
417.568	26.92
417.93	26.87
418.292	27.25
418.653	27.11
419.015	27.2
419.377	26.95
419.738	27.06
420.1	27.09
420.461	26.99
420.822	27.06
421.184	27.32
421.545	27.2
421.906	27.21
422.267	27.31
422.629	27.16
422.99	27.18
423.351	27.33
423.712	27.46
424.073	27.67
424.434	27.65
424.795	27.65
425.155	27.75
425.516	27.77
425.877	27.69
426.238	27.73
426.598	27.8
426.959	27.94
427.32	28.07
427.68	28.25
428.041	28.35
428.401	28.37
428.761	28.57
429.122	28.65
429.482	28.92
429.842	29.11
430.202	28.92
430.563	29.35
430.923	28.89
431.283	29.3
431.643	29.2
432.003	29.65
432.363	29.26
432.722	29.39
433.082	29.39
433.442	29.5
433.802	29.58
434.161	29.54
434.521	29.68
434.881	29.74
435.24	29.62
435.6	29.57
435.959	29.56
436.319	29.9
436.678	29.91
437.037	29.96
437.396	30
437.756	30.05
438.115	30.2
438.474	30.5
438.833	30.34
439.192	30.38
439.551	30.35
439.91	30.19
440.269	30.29
440.628	30.34
440.987	30.33
441.345	30.35
441.704	30.38
442.063	30.39
442.421	30.46
442.78	30.47
443.138	30.39
443.497	30.63
443.855	30.77
444.214	31.02
444.572	31.12
444.93	31.31
445.288	31.02
445.647	31.31
446.005	31.23
446.363	31.03
446.721	31.14
447.079	31.21
447.437	31.09
447.795	31.19
448.153	31.09
448.51	31.24
448.868	31.25
449.226	31.35
449.584	31.5
449.941	31.49
450.299	31.67
450.656	31.93
451.014	32.02
451.371	31.99
451.729	32.31
452.086	32.13
452.443	32.49
452.801	32.41
453.158	32.6
453.515	32.71
453.872	32.61
454.229	32.56
454.586	32.47
454.943	32.63
455.3	32.75
455.657	32.61
456.014	32.84
456.371	32.91
456.727	33.06
457.084	33.13
457.441	33.24
457.797	33.27
458.154	33.2
458.51	33.48
458.867	33.6
459.223	33.61
459.58	33.41
459.936	33.52
460.292	33.56
460.648	33.43
461.005	33.41
461.361	33.18
461.717	33.01
462.073	33.01
462.429	33.31
462.785	33.49
463.141	33.76
463.496	33.52
463.852	33.87
464.208	34.13
464.564	34.28
464.919	34.16
465.275	34.45
465.631	34.56
465.986	34.42
466.342	34.12
466.697	34.6
467.052	34.78
467.408	34.51
467.763	34.71
468.118	34.77
468.473	34.72
468.829	34.89
469.184	34.81
469.539	35.02
469.894	34.85
470.249	35.18
470.603	35.23
470.958	35.08
471.313	35.15
471.668	35.21
472.023	35.46
472.377	35.33
472.732	35.45
473.086	35.54
473.441	35.65
473.795	35.59
474.15	35.65
474.504	35.38
474.859	35.55
475.213	35.6
475.567	35.91
475.921	35.94
476.275	35.77
476.63	36.07
476.984	36.14
477.338	36.2
477.692	36.23
478.045	36.05
478.399	35.87
478.753	36.1
479.107	36.21
479.461	36.34
479.814	36.46
480.168	36.42
480.521	36.18
480.875	36.46
481.228	36.4
481.582	36.43
481.935	36.53
482.289	36.64
482.642	36.67
482.995	36.48
483.348	36.61
483.701	36.56
484.055	36.36
484.408	36.17
484.761	35.93
485.114	35.55
485.466	35.41
485.819	35.67
486.172	35.81
486.525	35.93
486.878	36
487.23	36.27
487.583	36.36
487.936	36.64
488.288	36.58
488.641	36.46
488.993	36.14
489.345	36.28
489.698	36.12
490.05	36.38
490.402	36.43
490.754	36.64
491.107	36.89
491.459	37.19
491.811	37.25
492.163	37.3
492.515	37.24
492.866	37.18
493.218	36.91
493.57	36.74
493.922	36.99
494.274	37.13
494.625	37.45
494.977	37.85
495.328	37.87
495.68	38.18
496.031	38.33
496.383	38.42
496.734	38.51
497.086	38.58
497.437	38.52
497.788	38.58
498.139	38.47
498.49	38.35
498.842	38.49
499.193	38.53
499.544	38.53
499.894	38.72
500.245	38.85
500.596	38.66
500.947	38.96
501.298	39.06
501.648	39.14
501.999	39.07
502.35	39.34
502.7	39.29
503.051	39.54
503.401	39.38
503.752	39.73
504.102	39.58
504.452	39.79
504.803	39.68
505.153	39.74
505.503	39.68
505.853	39.57
506.203	39.68
506.553	39.73
506.903	39.95
507.253	40.19
507.603	39.97
507.953	40.03
508.303	39.91
508.652	40.16
509.002	40.15
509.352	40.05
509.701	40.04
510.051	39.98
510.4	40.03
510.75	40.07
511.099	40.07
511.449	40.27
511.798	40.12
512.147	40.44
512.496	40.37
512.846	40.32
513.195	40.37
513.544	40.34
513.893	40.39
514.242	40.43
514.591	40.58
514.939	40.51
515.288	40.36
515.637	40.8
515.986	40.89
516.334	41.03
516.683	40.87
517.032	41.12
517.38	41.28
517.729	41.29
518.077	41.24
518.426	41.42
518.774	41.09
519.122	41.28
519.47	41.1
519.819	41.01
520.167	40.94
520.515	40.94
520.863	40.88
521.211	40.84
521.559	40.98
521.907	41.21
522.255	41.4
522.602	41.64
522.95	41.5
523.298	41.67
523.645	41.84
523.993	41.86
524.341	41.88
524.688	41.97
525.036	41.77
525.383	42.12
525.73	41.95
526.078	41.97
526.425	42.19
526.772	41.87
527.119	41.62
527.466	41.73
527.814	41.64
528.161	41.81
528.508	41.66
528.854	41.83
529.201	41.77
529.548	41.79
529.895	41.27
530.242	40.97
530.588	41.24
530.935	41.41
531.282	41.5
531.628	41.48
531.975	41.73
532.321	42.04
532.667	42.13
533.014	42.41
533.36	42.5
533.706	42.38
534.052	42.35
534.399	42.41
534.745	42.22
535.091	42.22
535.437	42.2
535.783	42.18
536.129	42.49
536.474	42.63
536.82	42.83
537.166	42.92
537.512	42.83
537.857	43.22
538.203	42.96
538.549	42.79
538.894	42.98
539.239	42.89
539.585	43.18
539.93	43.48
540.276	43.68
540.621	43.73
540.966	43.79
541.311	43.74
541.656	43.75
542.001	43.66
542.346	43.34
542.691	43.07
543.036	42.91
543.381	42.83
543.726	43.1
544.071	43.25
544.415	43.2
544.76	43.46
545.105	43.75
545.449	43.66
545.794	43.78
546.138	44.07
546.483	44.21
546.827	44.23
547.171	44.25
547.516	44.42
547.86	44.55
548.204	44.21
548.548	44.26
548.892	44.49
549.236	44.41
549.58	44.5
549.924	44.65
550.268	44.9
550.612	44.92
550.956	45.02
551.3	45.34
551.643	45.25
551.987	45.41
552.33	45.54
552.674	45.51
553.017	45.57
553.361	45.54
553.704	45.39
554.048	45.51
554.391	45.55
554.734	45.55
555.077	45.84
555.42	45.55
555.764	45.73
556.107	46.02
556.45	45.76
556.793	45.87
557.135	46.11
557.478	46.09
557.821	46.19
558.164	45.97
558.507	46.11
558.849	46.39
559.192	46.25
559.534	46.21
559.877	46.44
560.219	46.64
560.562	46.37
560.904	46.66
561.246	46.56
561.589	46.46
561.931	46.82
562.273	46.6
562.615	46.68
562.957	46.54
563.299	46.55
563.641	46.68
563.983	47.04
564.325	46.63
564.667	46.96
565.008	46.79
565.35	46.85
565.692	46.9
566.033	47.1
566.375	47.07
566.716	46.76
567.058	47
567.399	46.88
567.741	46.95
568.082	47.06
568.423	46.98
568.764	46.94
569.105	47.15
569.447	47.38
569.788	46.99
570.129	47.34
570.47	47.37
570.811	47.45
571.151	47.38
571.492	47.55
571.833	47.46
572.174	47.68
572.514	47.6
572.855	47.32
573.195	47.36
573.536	47.31
573.876	47.49
574.217	47.59
574.557	47.53
574.898	47.69
575.238	47.71
575.578	47.88
575.918	48
576.258	47.77
576.598	47.87
576.938	48.01
577.278	47.96
577.618	48.05
577.958	48.14
578.298	48.26
578.638	48.08
578.977	47.97
579.317	48.25
579.657	48.17
579.996	48.66
580.336	48.28
580.675	48.78
581.014	48.8
581.354	48.26
581.693	48.86
582.032	48.88
582.372	48.85
582.711	48.72
583.05	49.54
583.389	48.82
583.728	49.09
584.067	49.26
584.406	49.23
584.745	49.06
585.083	49.18
585.422	49.2
585.761	49.27
586.1	49.41
586.438	49.28
586.777	49.08
587.115	49.33
587.454	49.58
587.792	49.28
588.13	49.68
588.469	49.28
588.807	49.36
589.145	49.44
589.483	49.58
589.821	49.58
590.159	49.39
590.497	49.62
590.835	49.59
591.173	49.67
591.511	50.06
591.849	49.58
592.187	49.92
592.524	49.78
592.862	49.6
593.2	49.78
593.537	49.89
593.875	49.84
594.212	49.56
594.55	50.38
594.887	50.28
595.224	50.1
595.561	50.45
595.899	49.92
596.236	49.99
596.573	49.88
596.91	50.44
597.247	49.83
597.584	50.26
597.921	50.32
598.258	50.12
598.594	49.7
598.931	49.87
599.268	49.89
599.604	49.99
599.941	50.12
600.277	50.16
600.614	50.18
600.95	50.59
601.287	50.79
601.623	50.58
601.959	50.84
602.296	50.67
602.632	50.67
602.968	50.9
603.304	50.37
603.64	50.72
603.976	50.78
604.312	50.88
604.648	50.85
604.984	50.93
605.319	50.69
605.655	50.97
605.991	50.4
606.326	50.57
606.662	50.55
606.998	50.69
607.333	50.83
607.668	50.77
608.004	50.73
608.339	51.05
608.674	51.12
609.01	51.41
609.345	51.69
609.68	51.22
610.015	51.5
610.35	51.54
610.685	51.63
611.02	51.03
611.355	51.34
611.689	51.07
612.024	51.26
612.359	51.26
612.694	51.5
613.028	51.33
613.363	51.34
613.697	51.9
614.032	51.89
614.366	51.84
614.7	51.85
615.035	51.97
615.369	52.34
615.703	51.76
616.037	51.95
616.371	52.25
616.705	52.33
617.039	51.68
617.373	52.26
617.707	51.8
618.041	52.66
618.375	52.56
618.709	51.93
619.042	52.4
619.376	52.26
619.71	52.42
620.043	52.14
620.377	52.3
620.71	52.63
621.043	52.18
621.377	52.3
621.71	52.49
622.043	53.07
622.376	52.85
622.709	52.78
623.043	52.33
623.376	52.85
623.709	52.2
624.041	53.04
624.374	52.7
624.707	52.69
625.04	53.22
625.373	53.04
625.705	53.06
626.038	52.77
626.37	53.36
626.703	52.74
627.035	52.62
627.368	52.8
627.7	53.21
628.032	52.81
628.365	53.37
628.697	52.78
629.029	52.65
629.361	53.28
629.693	53.15
630.025	53.29
630.357	53.12
630.689	53.28
631.021	53.33
631.353	52.89
631.684	53.24
632.016	52.9
632.348	53.34
632.679	53.6
633.011	53.9
633.342	53.58
633.674	53.71
634.005	54.02
634.336	53.86
634.668	53.96
634.999	53.65
635.33	53.7
635.661	54.29
635.992	53.55
636.323	53.56
636.654	53.75
636.985	53.47
637.316	53.33
637.647	53.5
637.977	54.08
638.308	54.12
638.639	54.07
638.969	54.08
639.3	53.99
639.63	54.38
639.961	53.83
640.291	53.25
640.622	53.99
640.952	54.32
641.282	54.22
641.612	54.12
641.943	53.51
642.273	54.69
642.603	54.51
642.933	54.2
643.263	54.69
643.592	54.51
643.922	54.98
644.252	54.47
644.582	54.4
644.911	54.45
645.241	54.62
645.571	55.16
645.9	54.94
646.23	54.33
646.559	54.68
646.888	54.56
647.218	54.52
647.547	54.73
647.876	54.12
648.205	54.65
648.534	54.76
648.863	54.42
649.192	55.48
649.521	54.72
649.85	55.41
650.179	54.75
650.508	55.27
650.837	55.24
651.165	54.81
651.494	55.41
651.822	54.95
652.151	55.47
652.479	54.89
652.808	55.09
653.136	55.14
653.465	55.59
653.793	54.79
654.121	55.5
654.449	55.44
654.777	55.33
655.105	55.56
655.433	56.07
655.761	55.66
656.089	55.49
656.417	55.1
656.745	55.29
657.073	54.96
657.4	55.06
657.728	55.74
658.056	55.96
658.383	54.83
658.711	55.94
659.038	55.37
659.365	55.01
659.693	55.56
660.02	55.71
660.347	55.54
660.674	55.47
661.001	55.48
661.329	55.77
661.656	55.37
661.982	55.65
662.309	55.9
662.636	55.99
662.963	55.93
663.29	55.68
663.616	55.58
663.943	55.99
664.27	55.98
664.596	56.29
664.923	55.94
665.249	55.71
665.576	56.33
665.902	56.72
666.228	56.02
666.554	56.37
666.881	55.63
667.207	56.47
667.533	56.63
667.859	56.27
668.185	56.18
668.511	57.02
668.837	56.69
669.162	56.43
