Data from 448_chest_Reflection__4__49.txt Node

Date: Tue Dec 12 18:37:59 CST 2023
User: ToomeyLab
Spectrometer: FLMS14357
Trigger mode: 0
Integration Time (sec): 1.000000E-2
Scans to average: 100
Electric dark correction enabled: true
Nonlinearity correction enabled: false
Boxcar width: 0
XAxis mode: Wavelengths
Number of Pixels in Spectrum: 2048
>>>>>Begin Spectral Data<<<<<
189.047	-38.14
189.435	-38.14
189.823	-38.14
190.211	-290.56
190.599	35.87
190.987	115.64
191.375	282.07
191.763	78.55
192.151	140.41
192.538	70.24
192.926	51.05
193.314	378.9
193.702	153.83
194.089	37.97
194.477	-413.01
194.864	116.13
195.252	-287.29
195.639	231.39
196.027	-386.6
196.414	133.97
196.801	364.87
197.189	-684.17
197.576	-69
197.963	16.29
198.351	60.63
198.738	32.87
199.125	-11.71
199.512	-69.88
199.899	0.74
200.286	-21.04
200.673	-36.69
201.06	-0.94
201.447	-69.14
201.833	-10.22
202.22	-10.89
202.607	-64.44
202.994	18.76
203.38	28.21
203.767	-33.61
204.154	29.64
204.54	42.91
204.927	8.94
205.313	17.44
205.699	-62.2
206.086	-6.85
206.472	45.32
206.858	32.72
207.245	12.24
207.631	20.84
208.017	15.66
208.403	-1.7
208.789	37.67
209.175	-13.97
209.561	31.36
209.947	-5.66
210.333	27.09
210.719	24.81
211.105	13.79
211.491	37
211.876	18.35
212.262	42.62
212.648	-1.54
213.034	-16.21
213.419	-12.01
213.805	-9.38
214.19	30.44
214.576	34.43
214.961	-4.34
215.346	6.58
215.732	18.63
216.117	4.3
216.502	-3.9
216.888	29.97
217.273	29.9
217.658	6.03
218.043	3.43
218.428	40.59
218.813	-3.14
219.198	-18.85
219.583	-8.15
219.968	18.12
220.353	-4.31
220.738	14.78
221.122	11.45
221.507	4.96
221.892	17.33
222.276	12.73
222.661	4.34
223.046	-15.68
223.43	12.82
223.815	10.73
224.199	8.76
224.583	-6.49
224.968	2.67
225.352	-5.71
225.736	-2.14
226.121	-3.12
226.505	1.42
226.889	-4.61
227.273	-0.84
227.657	4.33
228.041	5.39
228.425	2.65
228.809	5.12
229.193	2.82
229.577	3.18
229.961	-0.07
230.344	1.82
230.728	2.36
231.112	2.15
231.495	1.98
231.879	3.19
232.263	1.86
232.646	1.22
233.03	1.81
233.413	0.35
233.797	0.16
234.18	-0.91
234.563	-2.07
234.946	4.77
235.33	4.04
235.713	3.72
236.096	0.86
236.479	2.04
236.862	1.27
237.245	0.97
237.628	2.48
238.011	1.23
238.394	2.82
238.777	3.79
239.16	3.02
239.543	1.42
239.925	4.84
240.308	2.99
240.691	2.69
241.073	4.01
241.456	2.48
241.838	1.69
242.221	3.8
242.603	2.41
242.986	1.39
243.368	3.04
243.75	2.25
244.133	2.21
244.515	2.79
244.897	2.76
245.279	2.85
245.661	2.1
246.043	2.86
246.425	3.41
246.807	1.32
247.189	3.52
247.571	3.65
247.953	2.52
248.335	2.89
248.717	2.72
249.098	2.79
249.48	2.33
249.862	2.39
250.243	2.62
250.625	3.02
251.006	2.82
251.388	2.86
251.769	3.38
252.151	1.86
252.532	2.88
252.913	3.37
253.295	3.64
253.676	2.47
254.057	2.15
254.438	3.14
254.819	2.49
255.2	2.39
255.581	2.91
255.962	1.65
256.343	2.51
256.724	3.25
257.105	2.88
257.486	3.44
257.867	1.94
258.247	2.82
258.628	2.74
259.009	2.4
259.389	2.76
259.77	3.18
260.15	2.89
260.531	3.43
260.911	3.02
261.292	2.39
261.672	2.38
262.052	2.7
262.432	2.79
262.813	2.9
263.193	2.71
263.573	2.6
263.953	3.79
264.333	3.53
264.713	2.97
265.093	2.99
265.473	3.22
265.853	2.12
266.233	3.1
266.612	2.01
266.992	3.29
267.372	3.01
267.752	2.9
268.131	2.09
268.511	2.4
268.89	1.84
269.27	2.32
269.649	2.45
270.029	1.94
270.408	2.8
270.787	2.25
271.167	3.22
271.546	2.82
271.925	3.56
272.304	3.11
272.683	2.16
273.062	2.79
273.441	3.09
273.82	2.09
274.199	2.64
274.578	2.37
274.957	2.28
275.336	2.74
275.715	2.52
276.093	2.47
276.472	2.82
276.851	3.16
277.229	2.25
277.608	2.51
277.986	1.7
278.365	2.77
278.743	2.36
279.122	3.16
279.5	2.02
279.878	1.22
280.257	1.95
280.635	2.27
281.013	2.54
281.391	2.79
281.769	2.46
282.147	2.33
282.525	1.82
282.903	2.09
283.281	2.13
283.659	2.68
284.037	3.02
284.415	2.43
284.792	3.18
285.17	2.1
285.548	2.44
285.925	2.18
286.303	2.88
286.68	2.55
287.058	2.67
287.435	2.19
287.813	2.4
288.19	2.46
288.567	2.57
288.945	2.66
289.322	2.44
289.699	3.02
290.076	3.05
290.453	3.1
290.83	2.13
291.207	3.02
291.584	2.87
291.961	2.9
292.338	2.81
292.715	2.79
293.092	2.61
293.469	3.06
293.845	3.44
294.222	3.24
294.599	3.52
294.975	3.21
295.352	3.1
295.728	3.47
296.105	3.17
296.481	3.37
296.858	3.14
297.234	3.31
297.61	3.56
297.986	3.82
298.363	3.67
298.739	3.6
299.115	3.33
299.491	3.59
299.867	3.73
300.243	3.71
300.619	3.88
300.995	4.1
301.371	4.02
301.746	4.11
302.122	4.1
302.498	4.03
302.874	4.32
303.249	4.27
303.625	3.89
304	3.96
304.376	3.82
304.751	4.18
305.127	3.98
305.502	4.47
305.878	3.93
306.253	4.37
306.628	4.42
307.003	3.9
307.378	3.81
307.754	3.68
308.129	4.27
308.504	5.18
308.879	4.45
309.254	4.92
309.629	4.51
310.003	4.79
310.378	4.37
310.753	4.22
311.128	4.81
311.502	4.27
311.877	4.42
312.252	3.99
312.626	4.45
313.001	4.34
313.375	4.54
313.75	4.88
314.124	4.65
314.498	4.45
314.873	4.36
315.247	5
315.621	4.48
315.995	5.25
316.369	4.82
316.743	4.46
317.117	4.72
317.491	4.4
317.865	5.21
318.239	5.13
318.613	5.41
318.987	5.26
319.361	4.78
319.734	4.85
320.108	4.56
320.482	4.94
320.855	4.33
321.229	5.35
321.602	4.99
321.976	5.13
322.349	5.6
322.723	4.78
323.096	5.11
323.469	5.13
323.843	5.68
324.216	4.97
324.589	5.36
324.962	5.05
325.335	5.06
325.708	5.09
326.081	5.64
326.454	4.92
326.827	5.77
327.2	5.58
327.573	4.64
327.945	5.51
328.318	5.89
328.691	4.79
329.063	5.28
329.436	5.99
329.809	5.51
330.181	4.66
330.553	5.32
330.926	5.6
331.298	5.14
331.671	5.16
332.043	5.64
332.415	5.1
332.787	5.15
333.159	5.33
333.532	5.41
333.904	5.72
334.276	5.69
334.648	4.82
335.02	5.39
335.391	5.29
335.763	5.25
336.135	5.59
336.507	5.95
336.879	5.48
337.25	5.62
337.622	4.94
337.993	5.65
338.365	5.35
338.736	5.73
339.108	5.52
339.479	5.66
339.851	5.59
340.222	4.99
340.593	5.38
340.964	5.87
341.336	5.58
341.707	5.17
342.078	5.21
342.449	5.53
342.82	5.91
343.191	5.15
343.562	5.07
343.933	5.76
344.303	5.51
344.674	5.88
345.045	5.86
345.416	5.82
345.786	5.72
346.157	5.41
346.527	6.05
346.898	5.37
347.268	5.61
347.639	5.94
348.009	5.73
348.38	5.5
348.75	5.7
349.12	6.17
349.49	5.93
349.861	6.02
350.231	5.73
350.601	5.79
350.971	6
351.341	5.49
351.711	5.44
352.081	5.68
352.45	5.75
352.82	6.3
353.19	5.42
353.56	5.55
353.929	5.62
354.299	5.54
354.669	5.61
355.038	4.87
355.408	5.75
355.777	6.16
356.147	5.73
356.516	5.86
356.885	5.78
357.254	5.79
357.624	5.46
357.993	5.76
358.362	5.58
358.731	5.67
359.1	5.45
359.469	5.52
359.838	5.65
360.207	5.62
360.576	6.13
360.945	5.68
361.314	5.88
361.682	6.01
362.051	6.22
362.42	5.76
362.788	5.66
363.157	6.12
363.525	5.91
363.894	5.66
364.262	5.69
364.631	5.27
364.999	5.6
365.367	6.02
365.735	5.81
366.104	5.77
366.472	5.26
366.84	5.6
367.208	5.84
367.576	5.95
367.944	5.98
368.312	5.88
368.68	5.88
369.048	6.14
369.416	5.27
369.783	5.93
370.151	6.05
370.519	5.58
370.886	6.41
371.254	5.51
371.621	6.19
371.989	5.56
372.356	5.87
372.724	5.93
373.091	6.04
373.458	6.2
373.826	5.58
374.193	6.12
374.56	6.34
374.927	6.14
375.294	6.09
375.661	6.23
376.028	6.34
376.395	6.24
376.762	6.47
377.129	5.87
377.496	6.02
377.863	5.96
378.229	5.97
378.596	5.84
378.963	6.03
379.329	5.9
379.696	6.05
380.062	6.38
380.429	6.28
380.795	5.91
381.161	6.24
381.528	6.36
381.894	6.23
382.26	5.88
382.626	6.35
382.993	6.38
383.359	6.07
383.725	6.08
384.091	6.05
384.457	5.92
384.823	6.16
385.188	6.06
385.554	6.24
385.92	6
386.286	6.1
386.651	6.15
387.017	6.44
387.383	6.04
387.748	6.04
388.114	6.29
388.479	6.38
388.845	6.21
389.21	6.21
389.575	6.07
389.94	6.26
390.306	6.29
390.671	6.1
391.036	6.3
391.401	6.26
391.766	6.17
392.131	6.08
392.496	5.98
392.861	5.9
393.226	6.52
393.591	6.26
393.956	6.16
394.32	6.52
394.685	6.4
395.05	6.21
395.414	6.39
395.779	6.24
396.143	6.22
396.508	6.38
396.872	6.26
397.236	6.29
397.601	6.41
397.965	6.13
398.329	6.4
398.694	6.42
399.058	6.68
399.422	6.3
399.786	6.22
400.15	6.23
400.514	6.55
400.878	6.27
401.242	6.22
401.605	6.37
401.969	6.5
402.333	6.47
402.697	6.25
403.06	6.22
403.424	6.36
403.787	6.2
404.151	6.4
404.514	6.23
404.878	6.48
405.241	6.51
405.604	6.2
405.968	6.37
406.331	6.48
406.694	6.51
407.057	6.35
407.42	6.24
407.783	6.4
408.146	6.53
408.509	6.38
408.872	6.29
409.235	6.58
409.598	6.49
409.961	6.54
410.323	6.54
410.686	6.61
411.049	6.67
411.411	6.68
411.774	6.58
412.136	6.63
412.499	6.43
412.861	6.55
413.223	6.7
413.586	6.61
413.948	6.45
414.31	6.61
414.672	6.76
415.035	6.63
415.397	6.58
415.759	6.6
416.121	6.4
416.483	6.71
416.845	6.59
417.206	6.91
417.568	6.65
417.93	6.63
418.292	6.6
418.653	6.69
419.015	6.61
419.377	6.54
419.738	6.49
420.1	6.4
420.461	6.48
420.822	6.61
421.184	6.56
421.545	6.68
421.906	6.54
422.267	6.46
422.629	6.52
422.99	6.47
423.351	6.54
423.712	6.5
424.073	6.6
424.434	6.5
424.795	6.75
425.155	6.48
425.516	6.48
425.877	6.56
426.238	6.58
426.598	6.55
426.959	6.53
427.32	6.71
427.68	6.57
428.041	6.76
428.401	6.81
428.761	6.7
429.122	6.73
429.482	7.08
429.842	6.87
430.202	6.89
430.563	6.98
430.923	6.85
431.283	6.75
431.643	6.85
432.003	6.89
432.363	6.81
432.722	6.73
433.082	6.85
433.442	6.82
433.802	6.86
434.161	6.76
434.521	6.87
434.881	6.88
435.24	6.87
435.6	6.99
435.959	6.88
436.319	6.97
436.678	7
437.037	6.83
437.396	6.76
437.756	6.85
438.115	6.88
438.474	6.9
438.833	7.04
439.192	7.04
439.551	6.98
439.91	6.72
440.269	6.84
440.628	6.84
440.987	6.75
441.345	6.95
441.704	6.81
442.063	6.9
442.421	6.98
442.78	6.82
443.138	6.75
443.497	6.89
443.855	6.92
444.214	7.03
444.572	6.95
444.93	7.09
445.288	6.88
445.647	7.19
446.005	6.99
446.363	6.75
446.721	6.86
447.079	7.01
447.437	6.87
447.795	6.87
448.153	6.95
448.51	6.88
448.868	6.84
449.226	7.07
449.584	7.06
449.941	6.99
450.299	7.07
450.656	7.01
451.014	7.07
451.371	7.17
451.729	7.04
452.086	7.1
452.443	7.16
452.801	7.22
453.158	7.11
453.515	7.14
453.872	7.18
454.229	7.28
454.586	7.07
454.943	7.14
455.3	7.11
455.657	7.07
456.014	7.23
456.371	7.32
456.727	7.28
457.084	7.21
457.441	7.02
457.797	7.32
458.154	7.17
458.51	7.15
458.867	7.28
459.223	7.25
459.58	7.28
459.936	7.25
460.292	7.19
460.648	7.21
461.005	7.15
461.361	7.2
461.717	7.29
462.073	7.19
462.429	7.17
462.785	7.13
463.141	7.16
463.496	7.14
463.852	7.49
464.208	7.44
464.564	7.44
464.919	7.47
465.275	7.36
465.631	7.53
465.986	7.39
466.342	7.14
466.697	7.39
467.052	7.57
467.408	7.34
467.763	7.56
468.118	7.35
468.473	7.49
468.829	7.53
469.184	7.32
469.539	7.41
469.894	7.45
470.249	7.52
470.603	7.48
470.958	7.5
471.313	7.4
471.668	7.65
472.023	7.49
472.377	7.44
472.732	7.66
473.086	7.47
473.441	7.85
473.795	7.47
474.15	7.66
474.504	7.43
474.859	7.56
475.213	7.46
475.567	7.34
475.921	7.66
476.275	7.22
476.63	7.53
476.984	7.52
477.338	7.54
477.692	7.69
478.045	7.72
478.399	7.65
478.753	7.62
479.107	7.61
479.461	7.67
479.814	7.63
480.168	7.51
480.521	7.48
480.875	7.71
481.228	7.79
481.582	7.51
481.935	7.74
482.289	7.73
482.642	7.75
482.995	7.59
483.348	7.5
483.701	7.86
484.055	7.69
484.408	7.52
484.761	7.48
485.114	7.39
485.466	7.25
485.819	7.22
486.172	7.23
486.525	7.33
486.878	7.35
487.23	7.44
487.583	7.44
487.936	7.54
488.288	7.53
488.641	7.48
488.993	7.46
489.345	7.42
489.698	7.44
490.05	7.39
490.402	7.51
490.754	7.52
491.107	7.55
491.459	7.62
491.811	7.72
492.163	7.71
492.515	7.71
492.866	7.58
493.218	7.58
493.57	7.5
493.922	7.53
494.274	7.72
494.625	7.74
494.977	7.85
495.328	7.83
495.68	7.73
496.031	7.96
496.383	7.86
496.734	8.04
497.086	7.92
497.437	7.91
497.788	7.87
498.139	7.93
498.49	8.05
498.842	7.89
499.193	7.94
499.544	7.97
499.894	7.87
500.245	8.02
500.596	8
500.947	7.98
501.298	8.09
501.648	8.06
501.999	8.11
502.35	8.05
502.7	8.15
503.051	8.09
503.401	8.03
503.752	8.25
504.102	8.16
504.452	8.15
504.803	8.18
505.153	8.14
505.503	8.22
505.853	8.16
506.203	8.22
506.553	8.16
506.903	8.21
507.253	8.26
507.603	8.19
507.953	8.27
508.303	8.2
508.652	8.22
509.002	8.12
509.352	8.22
509.701	8.24
510.051	8.26
510.4	8.19
510.75	8.09
511.099	8.18
511.449	8.25
511.798	8.22
512.147	8.14
512.496	8.32
512.846	8.31
513.195	8.25
513.544	8.22
513.893	8.24
514.242	8.23
514.591	8.24
514.939	8.37
515.288	8.31
515.637	8.24
515.986	8.44
516.334	8.43
516.683	8.25
517.032	8.33
517.38	8.36
517.729	8.5
518.077	8.36
518.426	8.55
518.774	8.29
519.122	8.42
519.47	8.28
519.819	8.28
520.167	8.32
520.515	8.32
520.863	8.39
521.211	8.27
521.559	8.28
521.907	8.38
522.255	8.48
522.602	8.43
522.95	8.46
523.298	8.43
523.645	8.61
523.993	8.6
524.341	8.62
524.688	8.61
525.036	8.58
525.383	8.63
525.73	8.46
526.078	8.41
526.425	8.59
526.772	8.48
527.119	8.49
527.466	8.48
527.814	8.33
528.161	8.5
528.508	8.44
528.854	8.4
529.201	8.45
529.548	8.48
529.895	8.32
530.242	8.18
530.588	8.21
530.935	8.23
531.282	8.29
531.628	8.35
531.975	8.4
532.321	8.46
532.667	8.47
533.014	8.6
533.36	8.5
533.706	8.66
534.052	8.59
534.399	8.63
534.745	8.61
535.091	8.47
535.437	8.48
535.783	8.51
536.129	8.63
536.474	8.66
536.82	8.71
537.166	8.77
537.512	8.73
537.857	8.72
538.203	8.73
538.549	8.73
538.894	8.76
539.239	8.64
539.585	8.71
539.93	8.9
540.276	8.75
540.621	8.83
540.966	8.77
541.311	8.79
541.656	8.92
542.001	8.82
542.346	8.85
542.691	8.7
543.036	8.66
543.381	8.59
543.726	8.63
544.071	8.69
544.415	8.73
544.76	8.83
545.105	8.79
545.449	8.91
545.794	8.98
546.138	8.79
546.483	8.92
546.827	9.08
547.171	9.08
547.516	8.98
547.86	8.98
548.204	9.07
548.548	9.02
548.892	9.02
549.236	9.09
549.58	9.08
549.924	9.05
550.268	9.13
550.612	9.1
550.956	9.29
551.3	9.33
551.643	9.26
551.987	9.26
552.33	9.33
552.674	9.38
553.017	9.35
553.361	9.51
553.704	9.28
554.048	9.29
554.391	9.23
554.734	9.36
555.077	9.53
555.42	9.3
555.764	9.49
556.107	9.47
556.45	9.26
556.793	9.4
557.135	9.35
557.478	9.45
557.821	9.33
558.164	9.35
558.507	9.43
558.849	9.48
559.192	9.61
559.534	9.63
559.877	9.65
560.219	9.58
560.562	9.56
560.904	9.39
561.246	9.57
561.589	9.67
561.931	9.55
562.273	9.48
562.615	9.6
562.957	9.48
563.299	9.56
563.641	9.68
563.983	9.73
564.325	9.83
564.667	9.68
565.008	9.64
565.35	9.61
565.692	9.7
566.033	9.61
566.375	9.75
566.716	9.56
567.058	9.94
567.399	9.87
567.741	9.71
568.082	9.69
568.423	9.76
568.764	9.84
569.105	9.61
569.447	9.95
569.788	9.62
570.129	9.84
570.47	9.66
570.811	9.86
571.151	9.89
571.492	9.88
571.833	9.73
572.174	9.85
572.514	9.97
572.855	9.71
573.195	9.79
573.536	9.62
573.876	9.89
574.217	9.78
574.557	9.87
574.898	9.91
575.238	10.01
575.578	10.04
575.918	10.1
576.258	10.12
576.598	10.02
576.938	10.04
577.278	9.96
577.618	9.94
577.958	9.93
578.298	10.07
578.638	10.02
578.977	9.94
579.317	10.12
579.657	10.17
579.996	10.36
580.336	10.14
580.675	9.89
581.014	10.24
581.354	10.35
581.693	10.16
582.032	9.82
582.372	10.3
582.711	10.09
583.05	10.33
583.389	10.54
583.728	10.27
584.067	10.49
584.406	10.28
584.745	10.4
585.083	10.42
585.422	10.53
585.761	10.5
586.1	10.23
586.438	10.56
586.777	10.51
587.115	10.12
587.454	10.57
587.792	10.34
588.13	10.59
588.469	10.33
588.807	10.26
589.145	10.47
589.483	10.45
589.821	10.43
590.159	10.13
590.497	10.58
590.835	10.38
591.173	10.54
591.511	10.69
591.849	10.5
592.187	10.49
592.524	10.43
592.862	10.44
593.2	10.34
593.537	10.57
593.875	10.58
594.212	10.47
594.55	10.55
594.887	10.92
595.224	10.57
595.561	10.84
595.899	10.72
596.236	10.77
596.573	10.59
596.91	10.83
597.247	10.72
597.584	10.67
597.921	10.68
598.258	10.69
598.594	10.9
598.931	10.81
599.268	10.45
599.604	10.65
599.941	10.55
600.277	10.76
600.614	10.66
600.95	11.03
601.287	11.05
601.623	10.86
601.959	10.82
602.296	10.97
602.632	11.14
602.968	11.17
603.304	10.69
603.64	11.05
603.976	10.89
604.312	11
604.648	10.96
604.984	10.89
605.319	10.87
605.655	10.75
605.991	11.01
606.326	10.73
606.662	10.91
606.998	10.64
607.333	11.05
607.668	11.01
608.004	10.86
608.339	11.17
608.674	11.05
609.01	11.05
609.345	11.32
609.68	11.34
610.015	10.99
610.35	10.97
610.685	11.17
611.02	11.05
611.355	11.16
611.689	11.18
612.024	10.87
612.359	11.29
612.694	11.15
613.028	10.88
613.363	11.24
613.697	11.2
614.032	11.22
614.366	11.48
614.7	11.13
615.035	11.34
615.369	11.27
615.703	11.36
616.037	11.24
616.371	11.07
616.705	11.74
617.039	11.05
617.373	11.61
617.707	11.42
618.041	11.84
618.375	10.95
618.709	11.11
619.042	11.24
619.376	11.22
619.71	11.53
620.043	11.42
620.377	11.29
620.71	11.08
621.043	11.31
621.377	11.07
621.71	11.57
622.043	11.67
622.376	11.83
622.709	11.56
623.043	11.43
623.376	12.12
623.709	11.72
624.041	11.54
624.374	11.36
624.707	11.65
625.04	11.64
625.373	11.75
625.705	11.83
626.038	11.52
626.37	11.79
626.703	11.79
627.035	11.53
627.368	11.79
627.7	11.59
628.032	11.45
628.365	11.86
628.697	11.6
629.029	11.55
629.361	11.72
629.693	11.84
630.025	11.42
630.357	11.76
630.689	11.75
631.021	12.01
631.353	12.02
631.684	11.78
632.016	11.84
632.348	11.83
632.679	11.48
633.011	12.11
633.342	12.1
633.674	12.12
634.005	11.92
634.336	12.09
634.668	11.91
634.999	12.36
635.33	11.89
635.661	12.22
635.992	11.91
636.323	11.79
636.654	12.26
636.985	12.27
637.316	12.19
637.647	12.08
637.977	12.16
638.308	12.32
638.639	12.09
638.969	12.33
639.3	11.98
639.63	12.44
639.961	12.38
640.291	11.83
640.622	12.59
640.952	12.61
641.282	12.17
641.612	12.54
641.943	12.18
642.273	12.32
642.603	12.8
642.933	12.21
643.263	12.21
643.592	12.35
643.922	12.62
644.252	12.36
644.582	12.1
644.911	12.51
645.241	12.21
645.571	12.97
645.9	12.09
646.23	12.36
646.559	12.6
646.888	12.45
647.218	12.36
647.547	12.54
647.876	12.54
648.205	12.42
648.534	12.51
648.863	12.3
649.192	13.46
649.521	13.03
649.85	12.6
650.179	13.11
650.508	13.05
650.837	13.02
651.165	12.25
651.494	12.86
651.822	12.59
652.151	12.89
652.479	12.89
652.808	12.62
653.136	12.66
653.465	13.43
653.793	12.85
654.121	12.55
654.449	12.57
654.777	12.86
655.105	12.61
655.433	12.44
655.761	12.94
656.089	12.94
656.417	13.16
656.745	12.75
657.073	12.7
657.4	12.93
657.728	12.27
658.056	12.85
658.383	12
658.711	13.37
659.038	12.69
659.365	13.09
659.693	12.24
660.02	12.9
660.347	13.36
660.674	13.13
661.001	12.88
661.329	12.86
661.656	13.08
661.982	12.78
662.309	13.16
662.636	13.05
662.963	13.32
663.29	13.07
663.616	13.17
663.943	12.8
664.27	13.69
664.596	13.15
664.923	13.17
665.249	13.02
665.576	12.94
665.902	13.97
666.228	13.17
666.554	12.82
666.881	11.86
667.207	13.29
667.533	13.21
667.859	13.37
668.185	13.35
668.511	13.81
668.837	12.95
669.162	13.92
669.488	13.34
669.814	13.47
670.139	13.13
670.465	12.8
670.791	12.92
671.116	12.92
671.442	13.94
671.767	13.55
672.092	14.14
672.418	13.31
672.743	13.79
673.068	13.28
673.393	13.32
673.718	13.45
674.043	14.04
674.368	13.39
674.693	13.71
675.018	13.05
675.343	13.92
675.667	14.12
675.992	12.96
676.317	13.39
676.641	13.36
676.966	13.81
677.29	13.19
677.615	14
677.939	13.83
678.264	14.28
678.588	14.22
678.912	13.62
679.236	13.5
679.56	13.73
679.885	14.18
680.209	13.81
680.532	13.96
680.856	13.83
681.18	13.67
681.504	13.42
681.828	13.45
682.152	13.69
682.475	13.89
682.799	13.76
683.122	13.96
683.446	14.09
683.769	14.74
684.093	13.69
