Data from 448_forehead_Reflection__2__57.txt Node

Date: Tue Dec 12 18:40:56 CST 2023
User: ToomeyLab
Spectrometer: FLMS14357
Trigger mode: 0
Integration Time (sec): 1.000000E-2
Scans to average: 100
Electric dark correction enabled: true
Nonlinearity correction enabled: false
Boxcar width: 0
XAxis mode: Wavelengths
Number of Pixels in Spectrum: 2048
>>>>>Begin Spectral Data<<<<<
189.047	-203.42
189.435	-203.42
189.823	-203.42
190.211	-285.89
190.599	50.61
190.987	101.9
191.375	36.77
191.763	91.41
192.151	77.28
192.538	-187.33
192.926	110.48
193.314	-456.39
193.702	-9.79
194.089	89.62
194.477	-125.67
194.864	76.91
195.252	76.88
195.639	-113.85
196.027	-49.67
196.414	22.3
196.801	-675.78
197.189	1653.28
197.576	-93.92
197.963	-13.14
198.351	60.92
198.738	46.76
199.125	40.9
199.512	14.31
199.899	50.98
200.286	24.94
200.673	-7.19
201.06	37.41
201.447	-7.53
201.833	6.4
202.22	-3.16
202.607	-95.75
202.994	18.56
203.38	37.47
203.767	38.56
204.154	52.33
204.54	56.1
204.927	5.01
205.313	13.49
205.699	42.36
206.086	2.04
206.472	43.39
206.858	27.57
207.245	47.34
207.631	22.37
208.017	61.13
208.403	12.86
208.789	-0.29
209.175	-0.53
209.561	21.73
209.947	15.54
210.333	39.31
210.719	36.63
211.105	43.83
211.491	35.23
211.876	34.46
212.262	33.38
212.648	6.84
213.034	-14.28
213.419	23.76
213.805	22.65
214.19	36.51
214.576	54.12
214.961	33.03
215.346	49.13
215.732	39.19
216.117	-3.47
216.502	5.79
216.888	5.05
217.273	18.96
217.658	22.65
218.043	34.29
218.428	48.29
218.813	17.29
219.198	-24
219.583	27.61
219.968	35.99
220.353	19.59
220.738	32.35
221.122	23.28
221.507	-12.27
221.892	4.64
222.276	27.75
222.661	6.19
223.046	-0.95
223.43	18.83
223.815	-0.16
224.199	20.27
224.583	6.53
224.968	12.76
225.352	7.32
225.736	18.14
226.121	7.32
226.505	14.67
226.889	7.11
227.273	7.75
227.657	16.03
228.041	6.11
228.425	3.54
228.809	7.41
229.193	6.95
229.577	8.03
229.961	4.11
230.344	5.43
230.728	6.44
231.112	6.03
231.495	5.73
231.879	6.44
232.263	4.78
232.646	6.07
233.03	7.65
233.413	6.61
233.797	6.27
234.18	3.31
234.563	7.07
234.946	7.75
235.33	6.66
235.713	6.29
236.096	6
236.479	7.15
236.862	8.28
237.245	4.06
237.628	6.93
238.011	7.31
238.394	6.47
238.777	5.83
239.16	6.46
239.543	8.12
239.925	6.45
240.308	7
240.691	5.5
241.073	7.19
241.456	6.41
241.838	7
242.221	6.01
242.603	6.17
242.986	5.7
243.368	6.07
243.75	5.83
244.133	6.08
244.515	5.54
244.897	5.7
245.279	6.28
245.661	6.13
246.043	6.01
246.425	6.31
246.807	6.2
247.189	5.93
247.571	5.72
247.953	5.01
248.335	5.51
248.717	5.33
249.098	5.51
249.48	5.32
249.862	5.63
250.243	5.26
250.625	6.08
251.006	5.45
251.388	5.93
251.769	5.89
252.151	5.67
252.532	5.64
252.913	6.68
253.295	6.08
253.676	5.56
254.057	5.06
254.438	5.93
254.819	5.56
255.2	5.34
255.581	7
255.962	5.67
256.343	6.61
256.724	5.52
257.105	6.54
257.486	5.98
257.867	5.4
258.247	6.24
258.628	5.16
259.009	5.53
259.389	6.12
259.77	6.13
260.15	5.81
260.531	6.39
260.911	5.79
261.292	5.26
261.672	5.43
262.052	5.43
262.432	5.54
262.813	5.61
263.193	5.85
263.573	6.31
263.953	6.09
264.333	6.35
264.713	5.32
265.093	5.18
265.473	5.87
265.853	5.77
266.233	5.49
266.612	5.73
266.992	5.87
267.372	6.75
267.752	6.44
268.131	4.5
268.511	5.67
268.89	5.5
269.27	5.04
269.649	5.39
270.029	5.27
270.408	6.22
270.787	5.6
271.167	5.86
271.546	5.61
271.925	6.18
272.304	5.8
272.683	4.61
273.062	5.6
273.441	5.74
273.82	5.48
274.199	5.65
274.578	5.56
274.957	5.26
275.336	5.63
275.715	6.04
276.093	5.47
276.472	5.63
276.851	5.68
277.229	5.54
277.608	5.77
277.986	4.88
278.365	5.31
278.743	5.1
279.122	6.45
279.5	5.17
279.878	5.19
280.257	5.44
280.635	5.2
281.013	5.78
281.391	5.84
281.769	5.67
282.147	5.56
282.525	5.18
282.903	5.36
283.281	5.54
283.659	5.65
284.037	5.56
284.415	5.63
284.792	5.71
285.17	4.9
285.548	5.65
285.925	5.34
286.303	5.57
286.68	5.57
287.058	5.73
287.435	5.65
287.813	5.21
288.19	6
288.567	5.74
288.945	6.16
289.322	5.36
289.699	5.72
290.076	5.91
290.453	6.26
290.83	6.02
291.207	5.93
291.584	5.96
291.961	6.54
292.338	6.16
292.715	6.48
293.092	6.03
293.469	6.78
293.845	6.32
294.222	6.95
294.599	6.78
294.975	6.64
295.352	6.51
295.728	7.22
296.105	6.72
296.481	7.32
296.858	6.84
297.234	7.12
297.61	7.11
297.986	6.93
298.363	7.44
298.739	6.88
299.115	6.66
299.491	6.95
299.867	7.13
300.243	7.12
300.619	7.43
300.995	7.75
301.371	7.95
301.746	7.26
302.122	8.31
302.498	7.8
302.874	8.15
303.249	8.58
303.625	8.17
304	8.61
304.376	8.64
304.751	8.46
305.127	8.25
305.502	8.57
305.878	8.21
306.253	8.24
306.628	8.53
307.003	8.84
307.378	8.32
307.754	8.72
308.129	8.54
308.504	9.83
308.879	8.36
309.254	9.49
309.629	9.13
310.003	8.94
310.378	8.92
310.753	9.54
311.128	9.78
311.502	9.25
311.877	9.38
312.252	9.09
312.626	9.3
313.001	9.59
313.375	9.39
313.75	10.17
314.124	10.25
314.498	10.42
314.873	10.07
315.247	10.49
315.621	9.57
315.995	10.56
316.369	10.8
316.743	10.32
317.117	10.11
317.491	10.42
317.865	11.09
318.239	10.33
318.613	11.07
318.987	11.66
319.361	10.87
319.734	10.92
320.108	11.36
320.482	11.61
320.855	10.58
321.229	11.49
321.602	12.35
321.976	11.73
322.349	12.43
322.723	11.44
323.096	12.07
323.469	11.63
323.843	12.93
324.216	12.8
324.589	12.15
324.962	12.88
325.335	12.37
325.708	12.51
326.081	12.15
326.454	12.39
326.827	12.74
327.2	12.26
327.573	12.15
327.945	13.41
328.318	13.09
328.691	12.71
329.063	12.94
329.436	13.26
329.809	13.21
330.181	12.55
330.553	13.36
330.926	13.49
331.298	13.44
331.671	13.05
332.043	13.28
332.415	13.7
332.787	13.47
333.159	13.96
333.532	13.88
333.904	13.77
334.276	14.51
334.648	13.99
335.02	13.83
335.391	13.71
335.763	13.7
336.135	14.3
336.507	14.47
336.879	14.02
337.25	14.29
337.622	14.11
337.993	14.11
338.365	14.09
338.736	14.87
339.108	14.47
339.479	15.36
339.851	14.72
340.222	14.49
340.593	15
340.964	14.54
341.336	15.03
341.707	14.99
342.078	14.31
342.449	15.04
342.82	15.37
343.191	15.05
343.562	15.35
343.933	15.77
344.303	15.15
344.674	15.22
345.045	15.78
345.416	15.63
345.786	15.44
346.157	15.62
346.527	16.53
346.898	15.42
347.268	15.91
347.639	15.82
348.009	16.44
348.38	16.24
348.75	16.29
349.12	16.43
349.49	15.83
349.861	16.45
350.231	16.68
350.601	16.56
350.971	16.66
351.341	16.45
351.711	16.96
352.081	16.75
352.45	16.95
352.82	17.06
353.19	16.85
353.56	17.1
353.929	16.65
354.299	16.81
354.669	16.78
355.038	16.75
355.408	16.94
355.777	17.46
356.147	17.51
356.516	17.51
356.885	17.52
357.254	17.48
357.624	16.68
357.993	17.55
358.362	17.95
358.731	17.78
359.1	17.28
359.469	17.66
359.838	17.55
360.207	17.72
360.576	17.77
360.945	17.93
361.314	18.06
361.682	17.76
362.051	18.21
362.42	18.2
362.788	17.99
363.157	18.38
363.525	18.13
363.894	18.06
364.262	18.31
364.631	18.04
364.999	18.87
365.367	18.58
365.735	18.3
366.104	18.33
366.472	18.43
366.84	18.41
367.208	18.43
367.576	19.15
367.944	18.93
368.312	19.01
368.68	18.7
369.048	19.2
369.416	19.04
369.783	19.15
370.151	19.26
370.519	19.28
370.886	19.51
371.254	19.54
371.621	19.8
371.989	19.79
372.356	19.53
372.724	19.41
373.091	19.88
373.458	19.63
373.826	19.71
374.193	19.59
374.56	20.22
374.927	20.08
375.294	20.03
375.661	20.35
376.028	19.95
376.395	20.43
376.762	20.57
377.129	20.44
377.496	20.22
377.863	19.86
378.229	20.18
378.596	20.1
378.963	20.76
379.329	20.82
379.696	20.61
380.062	20.86
380.429	20.67
380.795	20.74
381.161	20.83
381.528	21.32
381.894	21.15
382.26	20.91
382.626	21.19
382.993	21.5
383.359	20.84
383.725	21.01
384.091	21.3
384.457	21.16
384.823	21.1
385.188	21.31
385.554	21.38
385.92	21.71
386.286	21.69
386.651	21.49
387.017	21.77
387.383	21.73
387.748	21.87
388.114	21.91
388.479	22
388.845	21.7
389.21	21.97
389.575	22.01
389.94	22.07
390.306	21.98
390.671	22.13
391.036	22.2
391.401	22.32
391.766	21.89
392.131	22.51
392.496	22.28
392.861	22.53
393.226	22.7
393.591	22.43
393.956	22.4
394.32	22.69
394.685	22.63
395.05	22.82
395.414	22.65
395.779	22.72
396.143	22.88
396.508	22.74
396.872	22.84
397.236	22.95
397.601	22.97
397.965	22.79
398.329	23.39
398.694	23.11
399.058	23.25
399.422	23.15
399.786	23.42
400.15	23.12
400.514	23.44
400.878	23.4
401.242	23.61
401.605	23.79
401.969	23.66
402.333	23.28
402.697	23.71
403.06	23.67
403.424	23.66
403.787	23.76
404.151	24.11
404.514	23.9
404.878	24.08
405.241	24
405.604	24.01
405.968	23.96
406.331	24.23
406.694	24.14
407.057	24.25
407.42	24.18
407.783	24.47
408.146	24.44
408.509	24.16
408.872	24.47
409.235	24.42
409.598	24.64
409.961	24.54
410.323	24.53
410.686	24.89
411.049	24.77
411.411	24.96
411.774	24.68
412.136	24.74
412.499	24.93
412.861	24.87
413.223	25.06
413.586	25
413.948	25.04
414.31	25.15
414.672	24.92
415.035	25.19
415.397	25.3
415.759	25.26
416.121	25.49
416.483	25.39
416.845	25.4
417.206	25.59
417.568	25.23
417.93	25.41
418.292	25.7
418.653	25.54
419.015	25.47
419.377	25.61
419.738	25.34
420.1	25.37
420.461	25.46
420.822	25.47
421.184	25.51
421.545	25.69
421.906	25.43
422.267	25.51
422.629	25.43
422.99	25.39
423.351	25.58
423.712	25.49
424.073	25.78
424.434	25.88
424.795	25.65
425.155	25.86
425.516	25.75
425.877	26.02
426.238	25.8
426.598	25.84
426.959	26.08
427.32	26.03
427.68	26.22
428.041	26.36
428.401	26.46
428.761	26.42
429.122	26.35
429.482	26.73
429.842	26.52
430.202	26.66
430.563	26.91
430.923	26.65
431.283	27
431.643	26.8
432.003	27.09
432.363	27.02
432.722	26.99
433.082	27.02
433.442	27.03
433.802	26.98
434.161	27.13
434.521	27.32
434.881	27.12
435.24	27.19
435.6	27.24
435.959	27.25
436.319	27.12
436.678	27.35
437.037	27.39
437.396	27.35
437.756	27.54
438.115	27.52
438.474	27.46
438.833	27.75
439.192	27.69
439.551	27.77
439.91	27.84
440.269	27.6
440.628	27.5
440.987	27.71
441.345	27.75
441.704	27.83
442.063	27.84
442.421	27.68
442.78	27.73
443.138	27.71
443.497	27.85
443.855	28.02
444.214	27.98
444.572	28.08
444.93	28.01
445.288	27.95
445.647	28.16
446.005	28.24
446.363	28.09
446.721	28.09
447.079	28.1
447.437	28.09
447.795	28.11
448.153	28.22
448.51	28.14
448.868	28.01
449.226	28.23
449.584	28.33
449.941	28.41
450.299	28.37
450.656	28.58
451.014	28.56
451.371	28.82
451.729	28.75
452.086	28.69
452.443	29.22
452.801	29.03
453.158	29.01
453.515	29.13
453.872	29.07
454.229	29.16
454.586	29.04
454.943	29
455.3	29.06
455.657	29.14
456.014	29.13
456.371	29.43
456.727	29.5
457.084	29.37
457.441	29.56
457.797	29.53
458.154	29.62
458.51	29.27
458.867	29.79
459.223	29.66
459.58	29.54
459.936	29.5
460.292	29.59
460.648	29.71
461.005	29.59
461.361	29.21
461.717	29.45
462.073	29.52
462.429	29.47
462.785	29.6
463.141	29.75
463.496	29.74
463.852	29.96
464.208	30.05
464.564	29.92
464.919	30.1
465.275	30.07
465.631	30.47
465.986	30.11
466.342	30.34
466.697	30.53
467.052	30.67
467.408	30.38
467.763	30.13
468.118	30.5
468.473	30.52
468.829	30.84
469.184	30.59
469.539	30.58
469.894	30.63
470.249	30.58
470.603	30.64
470.958	30.62
471.313	30.89
471.668	30.66
472.023	30.68
472.377	30.85
472.732	30.98
473.086	30.93
473.441	30.99
473.795	30.8
474.15	30.94
474.504	30.98
474.859	30.77
475.213	31.09
475.567	31.01
475.921	31.32
476.275	31.04
476.63	30.98
476.984	31.28
477.338	31.2
477.692	31.22
478.045	31.47
478.399	31.19
478.753	31.32
479.107	31.15
479.461	31.29
479.814	31.17
480.168	31.35
480.521	31.27
480.875	31.47
481.228	31.51
481.582	31.21
481.935	31.53
482.289	31.62
482.642	31.65
482.995	31.41
483.348	31.61
483.701	31.51
484.055	31.17
484.408	31.1
484.761	31.06
485.114	30.79
485.466	30.5
485.819	30.7
486.172	30.7
486.525	30.9
486.878	30.83
487.23	31.06
487.583	31.19
487.936	31.4
488.288	31.34
488.641	31.34
488.993	31.12
489.345	31.14
489.698	31.09
490.05	31.22
490.402	31.31
490.754	31.39
491.107	31.56
491.459	31.76
491.811	31.82
492.163	31.84
492.515	31.83
492.866	31.79
493.218	31.68
493.57	31.54
493.922	31.43
494.274	31.68
494.625	31.9
494.977	32.19
495.328	32.19
495.68	32.37
496.031	32.43
496.383	32.54
496.734	32.62
497.086	32.68
497.437	32.7
497.788	32.67
498.139	32.5
498.49	32.53
498.842	32.65
499.193	32.62
499.544	32.58
499.894	32.53
500.245	32.66
500.596	32.85
500.947	32.98
501.298	32.85
501.648	32.95
501.999	33.12
502.35	33.11
502.7	33.21
503.051	33.23
503.401	33.14
503.752	33.34
504.102	33.36
504.452	33.49
504.803	33.27
505.153	33.37
505.503	33.53
505.853	33.47
506.203	33.32
506.553	33.47
506.903	33.51
507.253	33.64
507.603	33.6
507.953	33.64
508.303	33.7
508.652	33.57
509.002	33.83
509.352	33.56
509.701	33.61
510.051	33.47
510.4	33.51
510.75	33.42
511.099	33.74
511.449	33.67
511.798	33.58
512.147	33.66
512.496	33.77
512.846	33.73
513.195	33.64
513.544	33.85
513.893	33.87
514.242	33.76
514.591	33.65
514.939	33.88
515.288	33.73
515.637	34.01
515.986	34.16
516.334	34.19
516.683	34.17
517.032	34.32
517.38	34.09
517.729	34.31
518.077	34.05
518.426	34.41
518.774	34.24
519.122	34.38
519.47	34.14
519.819	34.12
520.167	34.12
520.515	33.95
520.863	34.11
521.211	33.99
521.559	34.09
521.907	34.28
522.255	34.44
522.602	34.53
522.95	34.5
523.298	34.61
523.645	34.52
523.993	34.74
524.341	34.58
524.688	34.7
525.036	34.65
525.383	34.89
525.73	34.68
526.078	34.77
526.425	34.85
526.772	34.65
527.119	34.48
527.466	34.3
527.814	34.39
528.161	34.51
528.508	34.48
528.854	34.42
529.201	34.39
529.548	34.48
529.895	34.08
530.242	33.96
530.588	34.05
530.935	34.07
531.282	34.1
531.628	34.27
531.975	34.4
532.321	34.59
532.667	34.59
533.014	34.64
533.36	34.81
533.706	34.97
534.052	34.89
534.399	34.81
534.745	34.69
535.091	34.59
535.437	34.59
535.783	34.8
536.129	34.92
536.474	34.92
536.82	35.16
537.166	35.27
537.512	35.26
537.857	35.31
538.203	35.12
538.549	35.13
538.894	35.22
539.239	35.16
539.585	35.28
539.93	35.73
540.276	35.78
540.621	35.8
540.966	35.67
541.311	35.82
541.656	35.98
542.001	35.54
542.346	35.51
542.691	35.29
543.036	35.07
543.381	35.15
543.726	35.23
544.071	35.26
544.415	35.26
544.76	35.41
545.105	35.48
545.449	35.64
545.794	35.72
546.138	35.77
546.483	35.86
546.827	36.13
547.171	36.04
547.516	36.21
547.86	36.02
548.204	36.11
548.548	35.96
548.892	36.04
549.236	36.34
549.58	36.04
549.924	36.17
550.268	36.5
550.612	36.19
550.956	36.24
551.3	36.45
551.643	36.74
551.987	36.75
552.33	36.82
552.674	36.84
553.017	36.72
553.361	36.8
553.704	36.72
554.048	36.84
554.391	36.75
554.734	36.88
555.077	36.76
555.42	36.53
555.764	36.93
556.107	36.96
556.45	36.7
556.793	36.92
557.135	37.15
557.478	36.82
557.821	37.02
558.164	36.83
558.507	37.14
558.849	37.21
559.192	36.98
559.534	37.16
559.877	37.22
560.219	37.25
560.562	37.28
560.904	37.2
561.246	37.25
561.589	37.02
561.931	37.33
562.273	37.41
562.615	37.25
562.957	37.28
563.299	37.44
563.641	37.49
563.983	37.38
564.325	37.71
564.667	37.66
565.008	37.22
565.35	37.61
565.692	37.36
566.033	37.69
566.375	37.67
566.716	37.4
567.058	37.72
567.399	37.41
567.741	37.7
568.082	37.51
568.423	37.67
568.764	37.87
569.105	37.59
569.447	37.64
569.788	37.66
570.129	37.95
570.47	37.78
570.811	37.89
571.151	37.89
571.492	37.97
571.833	37.8
572.174	37.85
572.514	37.9
572.855	37.71
573.195	37.75
573.536	37.74
573.876	37.88
574.217	37.76
574.557	37.97
574.898	38.03
575.238	37.97
575.578	37.96
575.918	38.01
576.258	38.12
576.598	38.33
576.938	38.18
577.278	38.28
577.618	38.13
577.958	38.16
578.298	38.14
578.638	38.17
578.977	38.24
579.317	38.6
579.657	38.57
579.996	38.73
580.336	38.44
580.675	38.63
581.014	38.87
581.354	38.63
581.693	38.66
582.032	38.95
582.372	38.64
582.711	38.95
583.05	39.32
583.389	38.95
583.728	39.13
584.067	38.95
584.406	39
584.745	38.85
585.083	38.96
585.422	38.92
585.761	38.93
586.1	39.11
586.438	39.04
586.777	38.85
587.115	39.2
587.454	39.17
587.792	39.09
588.13	39.41
588.469	39.06
588.807	39.16
589.145	39.41
589.483	39.19
589.821	39.12
590.159	39.16
590.497	39.39
590.835	39.43
591.173	38.96
591.511	39.46
591.849	39.32
592.187	39.3
592.524	39
592.862	39.41
593.2	39.54
593.537	39.04
593.875	39.53
594.212	39.43
594.55	39.61
594.887	39.29
595.224	39.8
595.561	39.65
595.899	39.48
596.236	39.28
596.573	39.47
596.91	39.51
597.247	39.56
597.584	39.5
597.921	39.29
598.258	39.28
598.594	39.4
598.931	39.37
599.268	39.5
599.604	39.34
599.941	39.43
600.277	39.1
600.614	39.68
600.95	39.89
601.287	39.7
601.623	39.8
601.959	40.13
602.296	39.89
602.632	39.91
602.968	40.15
603.304	39.73
603.64	39.79
603.976	39.81
604.312	39.98
604.648	40
604.984	39.93
605.319	39.65
605.655	39.82
605.991	39.92
606.326	39.62
606.662	39.78
606.998	39.63
607.333	39.94
607.668	39.94
608.004	39.88
608.339	40.23
608.674	39.95
609.01	40.35
609.345	40.55
609.68	40.24
610.015	40.22
610.35	40.26
610.685	40.5
611.02	40.08
611.355	40.31
611.689	39.98
612.024	40.2
612.359	39.96
612.694	40.19
613.028	40.29
613.363	40.15
613.697	40.37
614.032	40.7
614.366	40.36
614.7	40.42
615.035	40.26
615.369	40.32
615.703	40.34
616.037	40.27
616.371	40.55
616.705	40.56
617.039	41.05
617.373	41.09
617.707	40.55
618.041	40.88
618.375	41.31
618.709	40.74
619.042	40.95
619.376	40.49
619.71	40.86
620.043	40.43
620.377	40.5
620.71	40.62
621.043	40.35
621.377	40.6
621.71	40.87
622.043	40.72
622.376	40.55
622.709	40.63
623.043	40.39
623.376	41.2
623.709	40.84
624.041	41.21
624.374	40.91
624.707	41.05
625.04	41.21
625.373	41.36
625.705	41.3
626.038	41.13
626.37	41.12
626.703	41.35
627.035	40.8
627.368	40.76
627.7	41.41
628.032	41.17
628.365	41.29
628.697	41.44
629.029	41.07
629.361	41.04
629.693	41.25
630.025	41.25
630.357	40.99
630.689	41.33
631.021	41.49
631.353	41.38
631.684	41.57
632.016	41.18
632.348	41.42
632.679	41.11
633.011	41.97
633.342	41.75
633.674	41.86
634.005	41.86
634.336	41.49
634.668	41.98
634.999	41.21
635.33	41.52
635.661	41.52
635.992	41.48
636.323	41.61
636.654	41.17
636.985	41.64
637.316	41.32
637.647	41.85
637.977	42.19
638.308	42.31
638.639	41.55
638.969	41.88
639.3	41.84
639.63	41.64
639.961	41.8
640.291	41.33
640.622	42.02
640.952	41.72
641.282	41.73
641.612	41.49
641.943	41.44
642.273	42.05
642.603	42.22
642.933	41.89
643.263	41.54
643.592	41.6
643.922	42.44
644.252	42.03
644.582	42.07
644.911	42.01
645.241	42.09
645.571	42.09
645.9	42.36
646.23	41.76
646.559	42.35
646.888	42.56
647.218	41.74
647.547	42.18
647.876	42.14
648.205	42.41
648.534	42.13
648.863	41.55
649.192	42.3
649.521	41.88
649.85	42.15
650.179	42.03
650.508	43.1
650.837	42.14
651.165	42.05
651.494	42.2
651.822	42.76
652.151	42.35
652.479	42.64
652.808	42.26
653.136	42.07
653.465	42.5
653.793	42.36
654.121	43
654.449	42.44
654.777	42.66
655.105	42.48
655.433	42.76
655.761	42.62
656.089	43.23
656.417	42.58
656.745	42.4
657.073	42.63
657.4	42.56
657.728	42.09
658.056	41.81
658.383	41.72
658.711	42.8
659.038	42.85
659.365	42.44
659.693	42.5
660.02	42.62
660.347	43.13
660.674	43.07
661.001	42.5
661.329	42.42
661.656	42.3
661.982	42.35
662.309	42.58
662.636	42.84
662.963	43.12
663.29	43.07
663.616	42.9
663.943	43.18
664.27	43.17
664.596	43.08
664.923	43.01
665.249	42.61
665.576	42.64
665.902	42.93
666.228	43.97
666.554	42.77
666.881	42.67
667.207	43.15
667.533	42.69
667.859	42.55
668.185	42.72
668.511	42.9
668.837	43.22
669.162	43.72
