Data from 448_crown_Reflection__0__50.txt Node

Date: Tue Dec 12 18:38:54 CST 2023
User: ToomeyLab
Spectrometer: FLMS14357
Trigger mode: 0
Integration Time (sec): 1.000000E-2
Scans to average: 100
Electric dark correction enabled: true
Nonlinearity correction enabled: false
Boxcar width: 0
XAxis mode: Wavelengths
Number of Pixels in Spectrum: 2048
>>>>>Begin Spectral Data<<<<<
189.047	-17.1
189.435	-17.1
189.823	-17.1
190.211	12.47
190.599	59.55
190.987	124.71
191.375	28.23
191.763	209.24
192.151	-14.57
192.538	195.99
192.926	9.52
193.314	-55.17
193.702	122.97
194.089	76.19
194.477	447.85
194.864	44.88
195.252	531.7
195.639	-52.53
196.027	-64
196.414	111.91
196.801	-477.79
197.189	-833.98
197.576	-233.76
197.963	17.32
198.351	18.06
198.738	24.98
199.125	26.19
199.512	-49.06
199.899	26.73
200.286	-2.21
200.673	14.56
201.06	16.61
201.447	-7.41
201.833	-0
202.22	-14.29
202.607	-237.54
202.994	-7.23
203.38	-14.23
203.767	18.81
204.154	17.63
204.54	35.51
204.927	12.31
205.313	2.39
205.699	45.6
206.086	-5.52
206.472	26.79
206.858	-5.94
207.245	10.62
207.631	43.3
208.017	19.83
208.403	-12.81
208.789	27.26
209.175	0.73
209.561	3.02
209.947	-20.7
210.333	23.81
210.719	15.06
211.105	-15.18
211.491	24.5
211.876	-0.65
212.262	29.27
212.648	-38.63
213.034	-37.51
213.419	7.71
213.805	-3.99
214.19	19.81
214.576	9.54
214.961	-8.46
215.346	15.35
215.732	38.78
216.117	-2.36
216.502	-38.46
216.888	-18.69
217.273	-3.64
217.658	-11.93
218.043	35.4
218.428	42.85
218.813	26.24
219.198	-27.16
219.583	2.32
219.968	16.99
220.353	5.98
220.738	1.61
221.122	-1.62
221.507	-21.64
221.892	5.86
222.276	30.34
222.661	6.7
223.046	0.48
223.43	-2.71
223.815	-7.16
224.199	6.92
224.583	6.07
224.968	2.53
225.352	-10.49
225.736	6.79
226.121	10.73
226.505	3.83
226.889	0.15
227.273	9.14
227.657	10.02
228.041	8.24
228.425	5.13
228.809	5.83
229.193	2.01
229.577	7.23
229.961	3.31
230.344	5.51
230.728	6.91
231.112	6.42
231.495	5.97
231.879	4.89
232.263	6.67
232.646	5.14
233.03	6.72
233.413	4.62
233.797	4.96
234.18	1.96
234.563	5.54
234.946	6.87
235.33	8.62
235.713	6.58
236.096	6.53
236.479	5.48
236.862	6.29
237.245	7.46
237.628	5.17
238.011	6.21
238.394	4.18
238.777	6.48
239.16	4.82
239.543	6.76
239.925	7.81
240.308	6.01
240.691	5
241.073	6.5
241.456	5.09
241.838	6.49
242.221	6.24
242.603	5.68
242.986	4.72
243.368	5.48
243.75	5.85
244.133	5.93
244.515	5.64
244.897	5.71
245.279	5.91
245.661	5.14
246.043	4.72
246.425	5.46
246.807	5.43
247.189	5.24
247.571	5.66
247.953	5.4
248.335	5.56
248.717	5.43
249.098	5.39
249.48	5.17
249.862	5.24
250.243	5.08
250.625	5.67
251.006	5.89
251.388	5.24
251.769	5.1
252.151	5.05
252.532	6.02
252.913	6.4
253.295	6.51
253.676	4.94
254.057	4.85
254.438	5.31
254.819	5.02
255.2	5.03
255.581	4.97
255.962	3.69
256.343	4.95
256.724	4.12
257.105	5.74
257.486	3.76
257.867	4.41
258.247	3.79
258.628	4.89
259.009	4.28
259.389	4.89
259.77	5.2
260.15	4.8
260.531	5.04
260.911	5.1
261.292	4.53
261.672	4.61
262.052	4.89
262.432	4.89
262.813	4.84
263.193	4.75
263.573	4.67
263.953	5.29
264.333	4.96
264.713	4.98
265.093	4.74
265.473	4.92
265.853	3.97
266.233	4.26
266.612	4.83
266.992	4.51
267.372	5.13
267.752	5.35
268.131	3.49
268.511	4.34
268.89	3.77
269.27	4.63
269.649	4.6
270.029	4.45
270.408	4.79
270.787	4.37
271.167	5.18
271.546	4.6
271.925	4.79
272.304	4.67
272.683	4
273.062	4.19
273.441	4.67
273.82	3.88
274.199	4.96
274.578	4.29
274.957	4.09
275.336	4.3
275.715	4.48
276.093	3.73
276.472	4.52
276.851	3.82
277.229	4.55
277.608	4.13
277.986	4.11
278.365	4.85
278.743	4.55
279.122	4.92
279.5	3.71
279.878	3.67
280.257	3.5
280.635	4.36
281.013	4.21
281.391	4.14
281.769	4.03
282.147	4.19
282.525	3.94
282.903	3.53
283.281	4.25
283.659	4.15
284.037	4.65
284.415	4.26
284.792	4.38
285.17	4.11
285.548	4.1
285.925	4.11
286.303	4.11
286.68	4
287.058	4.15
287.435	4.11
287.813	3.96
288.19	4.14
288.567	4.25
288.945	4.33
289.322	3.65
289.699	3.88
290.076	3.74
290.453	4.07
290.83	3.79
291.207	4.47
291.584	4.14
291.961	3.91
292.338	4.22
292.715	3.74
293.092	3.5
293.469	3.94
293.845	4.02
294.222	3.69
294.599	3.92
294.975	3.27
295.352	3.6
295.728	4
296.105	3.65
296.481	4.25
296.858	3.48
297.234	4.33
297.61	3.72
297.986	4.17
298.363	3.68
298.739	3.63
299.115	3.68
299.491	3.91
299.867	3.85
300.243	3.36
300.619	3.67
300.995	3.51
301.371	4.14
301.746	3.85
302.122	3.81
302.498	4.31
302.874	3.8
303.249	3.73
303.625	3.75
304	4.19
304.376	4.22
304.751	4.05
305.127	3.88
305.502	4.05
305.878	3.46
306.253	3.66
306.628	3.68
307.003	3.44
307.378	3.74
307.754	3.64
308.129	3.22
308.504	4.26
308.879	3.18
309.254	3.92
309.629	3.71
310.003	3.96
310.378	4.24
310.753	3.93
311.128	3.93
311.502	3.32
311.877	3.32
312.252	3
312.626	3.58
313.001	3.61
313.375	3.45
313.75	4.13
314.124	3.88
314.498	3.8
314.873	3.93
315.247	3.74
315.621	3.46
315.995	3.65
316.369	4.06
316.743	3.82
317.117	3.36
317.491	3.7
317.865	3.3
318.239	3.65
318.613	3.79
318.987	4.02
319.361	3.08
319.734	3.14
320.108	3.88
320.482	3.7
320.855	3.57
321.229	3.56
321.602	4.01
321.976	3.54
322.349	3.97
322.723	3.35
323.096	3.3
323.469	3.9
323.843	4.39
324.216	3.13
324.589	4.45
324.962	3.81
325.335	3.81
325.708	3.69
326.081	3.46
326.454	3.3
326.827	4.37
327.2	3.7
327.573	3.6
327.945	3.97
328.318	3.62
328.691	3.2
329.063	3.86
329.436	3.71
329.809	3.69
330.181	2.94
330.553	3.24
330.926	3.71
331.298	3.39
331.671	3.79
332.043	3.6
332.415	3.88
332.787	3.57
333.159	4.05
333.532	3.59
333.904	3.39
334.276	4.36
334.648	3.32
335.02	3.48
335.391	3.21
335.763	3.46
336.135	3.29
336.507	4.12
336.879	3.6
337.25	3.46
337.622	3.83
337.993	3.68
338.365	3.8
338.736	3.44
339.108	3.65
339.479	3.83
339.851	3.34
340.222	3.03
340.593	3.56
340.964	3.92
341.336	4.38
341.707	3.6
342.078	3.3
342.449	3.22
342.82	4
343.191	3.73
343.562	3.95
343.933	3.92
344.303	3.62
344.674	3.86
345.045	4.08
345.416	4.03
345.786	3.36
346.157	3.78
346.527	4.09
346.898	3.55
347.268	3.67
347.639	3.97
348.009	3.51
348.38	3.92
348.75	4.05
349.12	4
349.49	3.33
349.861	4.02
350.231	3.6
350.601	4.31
350.971	3.82
351.341	3.85
351.711	3.84
352.081	3.75
352.45	3.95
352.82	3.77
353.19	3.78
353.56	3.4
353.929	3.36
354.299	3.52
354.669	4.09
355.038	3.66
355.408	3.72
355.777	3.9
356.147	3.93
356.516	4.06
356.885	3.74
357.254	3.9
357.624	3.95
357.993	3.49
358.362	3.69
358.731	3.91
359.1	3.51
359.469	3.74
359.838	3.59
360.207	4.02
360.576	4.03
360.945	3.8
361.314	4.14
361.682	4.19
362.051	4.22
362.42	4.05
362.788	3.73
363.157	4.14
363.525	4.17
363.894	4.02
364.262	4.07
364.631	3.41
364.999	3.94
365.367	4.25
365.735	3.68
366.104	3.9
366.472	3.95
366.84	3.58
367.208	3.97
367.576	3.92
367.944	4.19
368.312	3.84
368.68	3.81
369.048	4.21
369.416	4.18
369.783	3.99
370.151	4.04
370.519	3.81
370.886	4.05
371.254	3.86
371.621	4.16
371.989	3.88
372.356	3.83
372.724	4.01
373.091	3.84
373.458	3.96
373.826	4.04
374.193	3.68
374.56	4.31
374.927	4.21
375.294	4.11
375.661	4.29
376.028	4.57
376.395	4.38
376.762	4.62
377.129	4.41
377.496	4.08
377.863	4.36
378.229	4.01
378.596	3.95
378.963	4.25
379.329	4.05
379.696	3.93
380.062	4.46
380.429	4.2
380.795	4.29
381.161	4.13
381.528	4.56
381.894	4.39
382.26	4.19
382.626	4.21
382.993	4.23
383.359	4.09
383.725	4.3
384.091	3.99
384.457	3.97
384.823	4.77
385.188	4.07
385.554	4.52
385.92	4.09
386.286	4.42
386.651	4.37
387.017	4.61
387.383	4.6
387.748	4.43
388.114	4.78
388.479	4.53
388.845	4.14
389.21	4.24
389.575	4.06
389.94	4.28
390.306	4.2
390.671	4.38
391.036	4.35
391.401	4.45
391.766	4.46
392.131	4.42
392.496	4.09
392.861	4.16
393.226	4.55
393.591	4.26
393.956	4.1
394.32	4.42
394.685	4.35
395.05	4.38
395.414	4.42
395.779	4.35
396.143	4.55
396.508	4.31
396.872	4.09
397.236	4.23
397.601	4.31
397.965	4.4
398.329	4.37
398.694	4.22
399.058	4.52
399.422	4.44
399.786	4.28
400.15	4.1
400.514	4.72
400.878	4.72
401.242	4.27
401.605	4.59
401.969	4.32
402.333	4.57
402.697	4.57
403.06	4.45
403.424	4.58
403.787	4.27
404.151	4.65
404.514	4.07
404.878	4.41
405.241	4.59
405.604	4.35
405.968	4.32
406.331	4.55
406.694	4.73
407.057	4.22
407.42	4.57
407.783	4.54
408.146	4.48
408.509	4.59
408.872	4.42
409.235	4.57
409.598	4.34
409.961	4.44
410.323	4.4
410.686	4.6
411.049	4.71
411.411	4.49
411.774	4.6
412.136	4.48
412.499	4.53
412.861	4.56
413.223	4.72
413.586	4.45
413.948	4.43
414.31	4.47
414.672	4.55
415.035	4.42
415.397	4.45
415.759	4.51
416.121	4.44
416.483	4.26
416.845	4.39
417.206	4.58
417.568	4.58
417.93	4.6
418.292	4.45
418.653	4.55
419.015	4.5
419.377	4.59
419.738	4.4
420.1	4.42
420.461	4.51
420.822	4.51
421.184	4.47
421.545	4.68
421.906	4.4
422.267	4.42
422.629	4.44
422.99	4.37
423.351	4.42
423.712	4.44
424.073	4.44
424.434	4.46
424.795	4.52
425.155	4.43
425.516	4.39
425.877	4.46
426.238	4.45
426.598	4.53
426.959	4.47
427.32	4.45
427.68	4.38
428.041	4.57
428.401	4.58
428.761	4.61
429.122	4.77
429.482	4.74
429.842	4.58
430.202	4.6
430.563	4.68
430.923	4.41
431.283	4.51
431.643	4.68
432.003	4.57
432.363	4.51
432.722	4.6
433.082	4.53
433.442	4.59
433.802	4.67
434.161	4.36
434.521	4.49
434.881	4.52
435.24	4.62
435.6	4.5
435.959	4.63
436.319	4.66
436.678	4.69
437.037	4.59
437.396	4.43
437.756	4.61
438.115	4.55
438.474	4.49
438.833	4.62
439.192	4.72
439.551	4.53
439.91	4.5
440.269	4.53
440.628	4.61
440.987	4.4
441.345	4.7
441.704	4.57
442.063	4.66
442.421	4.5
442.78	4.57
443.138	4.39
443.497	4.63
443.855	4.64
444.214	4.6
444.572	4.59
444.93	4.53
445.288	4.35
445.647	4.57
446.005	4.47
446.363	4.45
446.721	4.43
447.079	4.6
447.437	4.3
447.795	4.52
448.153	4.52
448.51	4.55
448.868	4.49
449.226	4.51
449.584	4.42
449.941	4.61
450.299	4.51
450.656	4.47
451.014	4.48
451.371	4.7
451.729	4.66
452.086	4.52
452.443	4.69
452.801	4.57
453.158	4.54
453.515	4.7
453.872	4.6
454.229	4.5
454.586	4.39
454.943	4.57
455.3	4.56
455.657	4.43
456.014	4.55
456.371	4.72
456.727	4.72
457.084	4.52
457.441	4.49
457.797	4.58
458.154	4.55
458.51	4.43
458.867	4.68
459.223	4.6
459.58	4.53
459.936	4.35
460.292	4.5
460.648	4.59
461.005	4.47
461.361	4.51
461.717	4.63
462.073	4.51
462.429	4.5
462.785	4.44
463.141	4.57
463.496	4.5
463.852	4.68
464.208	4.62
464.564	4.48
464.919	4.81
465.275	4.81
465.631	4.55
465.986	4.62
466.342	4.32
466.697	4.68
467.052	4.72
467.408	4.44
467.763	4.49
468.118	4.5
468.473	4.66
468.829	4.65
469.184	4.49
469.539	4.67
469.894	4.55
470.249	4.52
470.603	4.59
470.958	4.61
471.313	4.8
471.668	4.78
472.023	4.55
472.377	4.54
472.732	4.52
473.086	4.47
473.441	4.78
473.795	4.44
474.15	4.47
474.504	4.49
474.859	4.63
475.213	4.36
475.567	4.53
475.921	4.5
476.275	4.47
476.63	4.5
476.984	4.6
477.338	4.42
477.692	4.57
478.045	4.59
478.399	4.44
478.753	4.48
479.107	4.41
479.461	4.56
479.814	4.54
480.168	4.44
480.521	4.55
480.875	4.59
481.228	4.49
481.582	4.49
481.935	4.67
482.289	4.61
482.642	4.6
482.995	4.51
483.348	4.57
483.701	4.58
484.055	4.5
484.408	4.39
484.761	4.46
485.114	4.33
485.466	4.22
485.819	4.24
486.172	4.23
486.525	4.29
486.878	4.33
487.23	4.29
487.583	4.38
487.936	4.44
488.288	4.32
488.641	4.3
488.993	4.33
489.345	4.33
489.698	4.27
490.05	4.28
490.402	4.35
490.754	4.33
491.107	4.32
491.459	4.44
491.811	4.51
492.163	4.32
492.515	4.4
492.866	4.3
493.218	4.34
493.57	4.36
493.922	4.28
494.274	4.35
494.625	4.36
494.977	4.46
495.328	4.48
495.68	4.38
496.031	4.5
496.383	4.46
496.734	4.49
497.086	4.41
497.437	4.45
497.788	4.44
498.139	4.51
498.49	4.5
498.842	4.43
499.193	4.54
499.544	4.4
499.894	4.42
500.245	4.42
500.596	4.49
500.947	4.41
501.298	4.55
501.648	4.56
501.999	4.46
502.35	4.39
502.7	4.54
503.051	4.34
503.401	4.55
503.752	4.66
504.102	4.44
504.452	4.55
504.803	4.47
505.153	4.58
505.503	4.53
505.853	4.59
506.203	4.64
506.553	4.38
506.903	4.47
507.253	4.54
507.603	4.51
507.953	4.52
508.303	4.54
508.652	4.5
509.002	4.53
509.352	4.41
509.701	4.49
510.051	4.36
510.4	4.4
510.75	4.45
511.099	4.33
511.449	4.57
511.798	4.38
512.147	4.45
512.496	4.58
512.846	4.61
513.195	4.42
513.544	4.38
513.893	4.51
514.242	4.36
514.591	4.38
514.939	4.44
515.288	4.35
515.637	4.33
515.986	4.44
516.334	4.52
516.683	4.36
517.032	4.43
517.38	4.39
517.729	4.44
518.077	4.33
518.426	4.49
518.774	4.44
519.122	4.48
519.47	4.36
519.819	4.28
520.167	4.34
520.515	4.25
520.863	4.37
521.211	4.38
521.559	4.4
521.907	4.36
522.255	4.47
522.602	4.46
522.95	4.41
523.298	4.44
523.645	4.49
523.993	4.55
524.341	4.44
524.688	4.42
525.036	4.45
525.383	4.41
525.73	4.35
526.078	4.39
526.425	4.36
526.772	4.42
527.119	4.35
527.466	4.39
527.814	4.24
528.161	4.4
528.508	4.31
528.854	4.28
529.201	4.31
529.548	4.28
529.895	4.18
530.242	4.15
530.588	4.13
530.935	4.21
531.282	4.22
531.628	4.27
531.975	4.25
532.321	4.28
532.667	4.24
533.014	4.35
533.36	4.39
533.706	4.3
534.052	4.32
534.399	4.33
534.745	4.33
535.091	4.24
535.437	4.25
535.783	4.23
536.129	4.27
536.474	4.26
536.82	4.36
537.166	4.44
537.512	4.35
537.857	4.4
538.203	4.34
538.549	4.29
538.894	4.27
539.239	4.27
539.585	4.3
539.93	4.42
540.276	4.44
540.621	4.4
540.966	4.33
541.311	4.52
541.656	4.36
542.001	4.34
542.346	4.31
542.691	4.24
543.036	4.19
543.381	4.16
543.726	4.27
544.071	4.2
544.415	4.22
544.76	4.27
545.105	4.3
545.449	4.32
545.794	4.37
546.138	4.24
546.483	4.38
546.827	4.32
547.171	4.31
547.516	4.32
547.86	4.39
548.204	4.25
548.548	4.37
548.892	4.23
549.236	4.28
549.58	4.42
549.924	4.26
550.268	4.4
550.612	4.28
550.956	4.44
551.3	4.48
551.643	4.41
551.987	4.46
552.33	4.35
552.674	4.4
553.017	4.46
553.361	4.54
553.704	4.42
554.048	4.39
554.391	4.34
554.734	4.47
555.077	4.33
555.42	4.19
555.764	4.45
556.107	4.36
556.45	4.16
556.793	4.21
557.135	4.34
557.478	4.39
557.821	4.37
558.164	4.46
558.507	4.55
558.849	4.37
559.192	4.42
559.534	4.49
559.877	4.38
560.219	4.61
560.562	4.33
560.904	4.45
561.246	4.25
561.589	4.36
561.931	4.42
562.273	4.29
562.615	4.3
562.957	4.39
563.299	4.26
563.641	4.49
563.983	4.27
564.325	4.34
564.667	4.32
565.008	4.23
565.35	4.3
565.692	4.29
566.033	4.46
566.375	4.31
566.716	4.24
567.058	4.28
567.399	4.49
567.741	4.38
568.082	4.39
568.423	4.4
568.764	4.52
569.105	4.39
569.447	4.44
569.788	4.29
570.129	4.34
570.47	4.5
570.811	4.38
571.151	4.52
571.492	4.57
571.833	4.31
572.174	4.37
572.514	4.4
572.855	4.38
573.195	4.09
573.536	4.23
573.876	4.51
574.217	4.35
574.557	4.3
574.898	4.38
575.238	4.37
575.578	4.15
575.918	4.3
576.258	4.45
576.598	4.32
576.938	4.4
577.278	4.35
577.618	4.46
577.958	4.21
578.298	4.51
578.638	4.28
578.977	4.24
579.317	4.3
579.657	4.38
579.996	4.43
580.336	4.45
580.675	4.25
581.014	4.44
581.354	4.37
581.693	4.25
582.032	4.29
582.372	4.58
582.711	4.43
583.05	4.4
583.389	4.3
583.728	4.17
584.067	4.58
584.406	4.38
584.745	4.65
585.083	4.06
585.422	4.52
585.761	4.42
586.1	4.18
586.438	4.42
586.777	4.55
587.115	4.32
587.454	4.55
587.792	4.31
588.13	4.58
588.469	4.23
588.807	4.21
589.145	4.57
589.483	4.49
589.821	4.52
590.159	4.14
590.497	4.42
590.835	4.38
591.173	4.48
591.511	4.4
591.849	4.14
592.187	4.48
592.524	4.18
592.862	4.35
593.2	4.28
593.537	4.19
593.875	4.23
594.212	4.18
594.55	4.46
594.887	4.58
595.224	4.41
595.561	4.38
595.899	4.4
596.236	4.32
596.573	4.31
596.91	4.56
597.247	4.39
597.584	4.22
597.921	4.26
598.258	4.51
598.594	4.57
598.931	4.41
599.268	4.07
599.604	4.11
599.941	4.29
600.277	4.2
600.614	4.48
600.95	4.49
601.287	4.41
601.623	4.26
601.959	4.04
602.296	4.49
602.632	4.2
602.968	4.24
603.304	4.17
603.64	4.46
603.976	4.32
604.312	4.13
604.648	4.4
604.984	4.11
605.319	4.26
605.655	4.15
605.991	4.43
606.326	4.12
606.662	4.31
606.998	4.14
607.333	4.44
607.668	4.34
608.004	4.32
608.339	4.08
608.674	4.27
609.01	4.23
609.345	4.23
609.68	4.28
610.015	4.18
610.35	4.08
610.685	4.51
611.02	4.35
611.355	4.18
611.689	4.25
612.024	4.21
612.359	4.35
612.694	4.18
613.028	4.33
613.363	3.98
613.697	4.37
614.032	4.71
614.366	4.51
614.7	4.11
615.035	4.24
615.369	3.92
615.703	4.2
616.037	4.16
616.371	4.23
616.705	4.18
617.039	4.14
617.373	4.15
617.707	4.2
618.041	4.41
618.375	4.01
618.709	3.95
619.042	4.13
619.376	4.26
619.71	4.34
620.043	4
620.377	4.05
620.71	4.13
621.043	4.12
621.377	3.75
621.71	4.09
622.043	4.33
622.376	4.4
622.709	4.31
623.043	4.3
623.376	4.47
623.709	4.18
624.041	4.16
624.374	4.21
624.707	4.18
625.04	4.2
625.373	4.57
625.705	4.35
626.038	4.04
626.37	4.26
626.703	4.06
627.035	4.01
627.368	4.28
627.7	4.19
628.032	4.13
628.365	4.2
628.697	4.34
629.029	4.08
629.361	4.06
629.693	4.3
630.025	3.86
630.357	4.21
630.689	3.86
631.021	4.31
631.353	4.46
631.684	4.01
632.016	4.2
632.348	4.33
632.679	3.94
633.011	4.32
633.342	4.46
633.674	4.43
634.005	4.56
634.336	4.15
634.668	4.3
634.999	4.25
635.33	4.44
635.661	4.34
635.992	4.31
636.323	3.81
636.654	4.3
636.985	3.99
637.316	4.14
637.647	3.91
637.977	4.83
638.308	4.14
638.639	4.51
638.969	4.11
639.3	4.52
639.63	4.17
639.961	4.55
640.291	3.92
640.622	4.16
640.952	4.34
641.282	4.3
641.612	3.92
641.943	3.9
642.273	4.35
642.603	4.66
642.933	4.02
643.263	4.04
643.592	4.44
643.922	4.63
644.252	4.71
644.582	3.6
644.911	4.16
645.241	3.78
645.571	4.76
645.9	4.22
646.23	3.92
646.559	4.67
646.888	4.37
647.218	4.42
647.547	4.04
647.876	3.98
648.205	4.06
648.534	4.07
648.863	4.66
649.192	4.54
649.521	4.87
649.85	3.56
650.179	4.13
650.508	4.57
650.837	4
651.165	3.73
651.494	4.05
651.822	4.24
652.151	4.46
652.479	4.39
652.808	4.55
653.136	4.27
653.465	4.06
653.793	3.9
654.121	4.53
654.449	4.35
654.777	4.5
655.105	3.85
655.433	4.1
655.761	3.99
656.089	4.14
656.417	4.31
656.745	3.75
657.073	3.79
657.4	4.27
657.728	4.33
658.056	4.42
658.383	4.04
658.711	4.15
659.038	4.6
659.365	4.31
659.693	3.97
660.02	4.04
660.347	3.99
660.674	3.82
661.001	4.32
661.329	4.17
661.656	3.93
661.982	3.75
662.309	4.53
662.636	4.25
662.963	4.16
663.29	4.19
663.616	3.89
663.943	4.32
664.27	4.7
664.596	4.51
664.923	4.98
665.249	4.34
665.576	4.33
665.902	4.23
666.228	4.48
666.554	4.18
666.881	3.48
667.207	4.05
667.533	4.11
667.859	3.75
668.185	4.1
668.511	4.19
668.837	4.25
669.162	4.43
669.488	4.22
669.814	4.04
670.139	4.22
670.465	3.14
670.791	3.75
671.116	4.2
671.442	4.27
671.767	4.01
672.092	4.4
672.418	4
672.743	4.09
673.068	3.68
673.393	4.59
673.718	4.7
674.043	4.66
674.368	3.24
674.693	3.93
675.018	3.74
675.343	4.1
675.667	4.46
675.992	3.7
676.317	3.92
676.641	3.63
676.966	4.25
677.29	3.85
677.615	3.82
677.939	4.39
678.264	4.66
678.588	3.99
678.912	4.23
679.236	4.43
679.56	4.79
679.885	4.2
680.209	4.16
680.532	4.45
680.856	3.99
681.18	4.36
681.504	4.47
681.828	4.21
682.152	4.24
682.475	4.33
682.799	4.2
683.122	3.98
683.446	4.3
683.769	4.99
684.093	3.89
684.416	4.08
684.739	4.45
685.062	4
685.386	4.47
685.709	4.64
686.032	3.92
686.355	3.91
686.678	4.52
687.001	3.8
687.324	4.15
687.646	5.08
687.969	4.46
688.292	3.93
688.614	4.3
688.937	4.3
689.26	4.79
689.582	3.99
689.904	3.9
690.227	4.38
690.549	4.66
690.871	3.77
691.194	4.81
691.516	3.99
691.838	4.09
692.16	4.5
692.482	4.26
692.804	4.1
693.126	4.42
693.448	4.16
