Data from 448_crown_Reflection__1__51.txt Node

Date: Tue Dec 12 18:39:04 CST 2023
User: ToomeyLab
Spectrometer: FLMS14357
Trigger mode: 0
Integration Time (sec): 1.000000E-2
Scans to average: 100
Electric dark correction enabled: true
Nonlinearity correction enabled: false
Boxcar width: 0
XAxis mode: Wavelengths
Number of Pixels in Spectrum: 2048
>>>>>Begin Spectral Data<<<<<
189.047	20.01
189.435	20.01
189.823	20.01
190.211	-416.62
190.599	72.27
190.987	75.84
191.375	77.18
191.763	27.45
192.151	100.03
192.538	119.42
192.926	72.52
193.314	567.14
193.702	149.02
194.089	25.35
194.477	12.54
194.864	60.48
195.252	820.21
195.639	143.14
196.027	-397.02
196.414	59.87
196.801	-624.84
197.189	1138.22
197.576	-132.84
197.963	98.54
198.351	20.9
198.738	24
199.125	-1.93
199.512	-30.06
199.899	-3.31
200.286	13.95
200.673	-35.52
201.06	-12.62
201.447	-51.36
201.833	-18.95
202.22	-8.26
202.607	-118.9
202.994	3.43
203.38	29.85
203.767	-42.59
204.154	5.84
204.54	41.69
204.927	-2.19
205.313	-22.05
205.699	-18.99
206.086	5.61
206.472	2.06
206.858	16.66
207.245	-2.98
207.631	36.46
208.017	-1.75
208.403	-13.1
208.789	-11.35
209.175	-12.38
209.561	33.14
209.947	-14.33
210.333	13.53
210.719	11.64
211.105	-11.42
211.491	22.83
211.876	13.8
212.262	37.39
212.648	-5.94
213.034	-9.54
213.419	5.76
213.805	41.97
214.19	36.9
214.576	12.76
214.961	-9.5
215.346	-0.53
215.732	13.99
216.117	18.79
216.502	-18.09
216.888	-29.12
217.273	-9.06
217.658	-8.22
218.043	20.4
218.428	20.75
218.813	7.21
219.198	0.73
219.583	-4.91
219.968	16.89
220.353	-4.62
220.738	6.05
221.122	-1.41
221.507	3.09
221.892	-7.17
222.276	16.49
222.661	14.64
223.046	-0.28
223.43	20.05
223.815	-13.9
224.199	16.41
224.583	11.5
224.968	10.58
225.352	-5.84
225.736	7.74
226.121	1.26
226.505	6.78
226.889	1.18
227.273	2.66
227.657	8.65
228.041	0.74
228.425	3.28
228.809	2.64
229.193	2.07
229.577	4.72
229.961	3.39
230.344	4.03
230.728	5.25
231.112	5.39
231.495	4.33
231.879	6.1
232.263	4.61
232.646	2.55
233.03	5.7
233.413	2.91
233.797	4.62
234.18	1.71
234.563	1.49
234.946	5.62
235.33	5.49
235.713	6.89
236.096	3.7
236.479	5.21
236.862	6.28
237.245	4.29
237.628	2.32
238.011	3.21
238.394	3.68
238.777	4.31
239.16	4.82
239.543	6.37
239.925	4.84
240.308	3.9
240.691	4.55
241.073	5.15
241.456	4.83
241.838	3.42
242.221	4.25
242.603	4.7
242.986	4.21
243.368	4.23
243.75	3.69
244.133	3.99
244.515	4.67
244.897	4.41
245.279	4.77
245.661	3.57
246.043	4.13
246.425	4.18
246.807	4.04
247.189	4.43
247.571	3.68
247.953	4.58
248.335	4.17
248.717	4.15
249.098	4.23
249.48	4
249.862	4.02
250.243	3.87
250.625	4.82
251.006	4.22
251.388	4.06
251.769	4.39
252.151	3.78
252.532	3.72
252.913	4.38
253.295	4.3
253.676	3.48
254.057	3.99
254.438	3.84
254.819	4.08
255.2	3.48
255.581	3.7
255.962	3.08
256.343	3.75
256.724	5.32
257.105	4.19
257.486	2.83
257.867	3.74
258.247	3.7
258.628	3.93
259.009	3.84
259.389	4.29
259.77	3.73
260.15	3.94
260.531	4.22
260.911	4.29
261.292	3.83
261.672	3.73
262.052	3.71
262.432	3.95
262.813	3.93
263.193	4
263.573	3.52
263.953	4.88
264.333	4.77
264.713	4.06
265.093	3.52
265.473	3.8
265.853	3.5
266.233	2.6
266.612	3.61
266.992	3.75
267.372	4.06
267.752	4.56
268.131	2.88
268.511	3.73
268.89	3.25
269.27	2.84
269.649	3.44
270.029	2.88
270.408	4.22
270.787	3.2
271.167	4
271.546	3.44
271.925	4.23
272.304	3.77
272.683	2.93
273.062	3.74
273.441	3.8
273.82	3.39
274.199	3.55
274.578	3.12
274.957	3.25
275.336	3.8
275.715	4.26
276.093	3.31
276.472	3.85
276.851	4.17
277.229	3.21
277.608	3.69
277.986	3.15
278.365	3.01
278.743	3.87
279.122	3.99
279.5	3.36
279.878	2.84
280.257	3.41
280.635	3.05
281.013	3.45
281.391	4.12
281.769	3.14
282.147	3.35
282.525	3.15
282.903	3.05
283.281	3.1
283.659	3.46
284.037	3.09
284.415	3.5
284.792	3.36
285.17	3.1
285.548	3.6
285.925	3.21
286.303	3.41
286.68	3.22
287.058	3.43
287.435	3.24
287.813	2.73
288.19	3.49
288.567	3.43
288.945	3.57
289.322	2.58
289.699	3.02
290.076	3.55
290.453	3.24
290.83	3.13
291.207	3.15
291.584	3.12
291.961	3.21
292.338	3.27
292.715	3.07
293.092	2.79
293.469	3.12
293.845	3.34
294.222	3.07
294.599	2.78
294.975	3.06
295.352	2.92
295.728	3.01
296.105	3.6
296.481	3.71
296.858	3.33
297.234	3.44
297.61	3.12
297.986	3.15
298.363	3.34
298.739	3.14
299.115	2.84
299.491	3.04
299.867	3.18
300.243	3.12
300.619	3.05
300.995	3.42
301.371	3.32
301.746	2.9
302.122	3.5
302.498	3.15
302.874	3.21
303.249	3.78
303.625	2.95
304	3.39
304.376	3.02
304.751	3.07
305.127	2.81
305.502	2.93
305.878	2.79
306.253	3.34
306.628	2.98
307.003	3.07
307.378	2.87
307.754	3.55
308.129	2.99
308.504	3.61
308.879	3.21
309.254	3.34
309.629	2.94
310.003	3.36
310.378	3
310.753	3.31
311.128	3.38
311.502	2.32
311.877	2.98
312.252	2.81
312.626	2.91
313.001	3.07
313.375	2.78
313.75	3.21
314.124	3.02
314.498	2.84
314.873	3.25
315.247	2.97
315.621	2.52
315.995	2.99
316.369	2.93
316.743	2.49
317.117	2.81
317.491	2.99
317.865	3.09
318.239	3.08
318.613	3.32
318.987	2.93
319.361	2.81
319.734	2.33
320.108	3.67
320.482	3.19
320.855	2.79
321.229	3.21
321.602	3.17
321.976	3.49
322.349	2.99
322.723	3.28
323.096	3.25
323.469	3.55
323.843	3.72
324.216	3.28
324.589	2.98
324.962	3.3
325.335	3.42
325.708	2.73
326.081	3.19
326.454	2.84
326.827	3.53
327.2	2.9
327.573	3
327.945	3.12
328.318	3.86
328.691	2.52
329.063	2.88
329.436	3.43
329.809	3.03
330.181	2.68
330.553	2.98
330.926	3.26
331.298	3.1
331.671	3.13
332.043	2.76
332.415	2.9
332.787	2.72
333.159	3.02
333.532	3.13
333.904	2.99
334.276	3.5
334.648	2.37
335.02	2.4
335.391	2.71
335.763	2.92
336.135	3.37
336.507	3.48
336.879	3.07
337.25	2.77
337.622	2.42
337.993	3.02
338.365	2.7
338.736	3.47
339.108	2.86
339.479	3.37
339.851	2.53
340.222	2.6
340.593	2.84
340.964	3.22
341.336	3.17
341.707	2.08
342.078	2.4
342.449	3
342.82	3.07
343.191	2.78
343.562	2.89
343.933	3.33
344.303	3.41
344.674	3.16
345.045	3.05
345.416	3.25
345.786	3.13
346.157	3.02
346.527	3.45
346.898	2.39
347.268	3.05
347.639	3.05
348.009	2.91
348.38	2.99
348.75	3.28
349.12	3.14
349.49	3
349.861	3.8
350.231	3.42
350.601	2.97
350.971	3.35
351.341	2.98
351.711	3.67
352.081	3.03
352.45	2.78
352.82	2.96
353.19	3.04
353.56	3
353.929	2.57
354.299	3.11
354.669	2.8
355.038	2.95
355.408	3.17
355.777	3.24
356.147	2.88
356.516	3.13
356.885	3.33
357.254	3.28
357.624	3.06
357.993	3.12
358.362	3.32
358.731	3.43
359.1	2.97
359.469	2.87
359.838	2.96
360.207	2.98
360.576	3.53
360.945	2.9
361.314	3.09
361.682	3.08
362.051	3.23
362.42	3.3
362.788	3.09
363.157	3.51
363.525	2.93
363.894	3.23
364.262	3.16
364.631	2.96
364.999	3.33
365.367	3.27
365.735	3.28
366.104	3.17
366.472	2.98
366.84	3.33
367.208	3.58
367.576	3.24
367.944	3
368.312	3.11
368.68	3.37
369.048	3.48
369.416	3.41
369.783	3.29
370.151	3.17
370.519	3.26
370.886	3.63
371.254	3.37
371.621	3.56
371.989	2.97
372.356	3.01
372.724	3.13
373.091	3.37
373.458	2.95
373.826	3.26
374.193	3.24
374.56	3.37
374.927	3.21
375.294	3.13
375.661	3.53
376.028	3.4
376.395	3.67
376.762	3.91
377.129	3.22
377.496	3.44
377.863	3.5
378.229	3.12
378.596	3.04
378.963	3.52
379.329	3.13
379.696	2.94
380.062	3.8
380.429	3.19
380.795	3.53
381.161	3.67
381.528	3.5
381.894	3.53
382.26	3.29
382.626	3.53
382.993	3.57
383.359	3.16
383.725	3.38
384.091	3.31
384.457	3.11
384.823	3.27
385.188	3.58
385.554	3.38
385.92	3.11
386.286	3.73
386.651	3.39
387.017	3.89
387.383	3.63
387.748	3.36
388.114	3.41
388.479	3.37
388.845	3.24
389.21	3.52
389.575	3.12
389.94	3.52
390.306	3.51
390.671	3.52
391.036	3.41
391.401	3.14
391.766	3.67
392.131	3.37
392.496	3.47
392.861	3.31
393.226	3.63
393.591	3.44
393.956	3.39
394.32	3.62
394.685	3.62
395.05	3.32
395.414	3.42
395.779	3.48
396.143	3.67
396.508	3.35
396.872	3.37
397.236	3.51
397.601	3.58
397.965	3.66
398.329	3.3
398.694	3.61
399.058	3.59
399.422	3.46
399.786	3.31
400.15	3.4
400.514	4.04
400.878	3.53
401.242	3.55
401.605	3.69
401.969	3.51
402.333	3.47
402.697	3.44
403.06	3.27
403.424	3.51
403.787	3.48
404.151	3.71
404.514	3.23
404.878	3.4
405.241	3.64
405.604	3.22
405.968	3.49
406.331	3.65
406.694	3.6
407.057	3.36
407.42	3.38
407.783	3.55
408.146	3.61
408.509	3.35
408.872	3.63
409.235	3.57
409.598	3.4
409.961	3.79
410.323	3.48
410.686	3.34
411.049	3.82
411.411	3.74
411.774	3.69
412.136	3.66
412.499	3.48
412.861	3.59
413.223	3.7
413.586	3.59
413.948	3.76
414.31	3.75
414.672	3.71
415.035	3.3
415.397	3.57
415.759	3.45
416.121	3.5
416.483	3.44
416.845	3.37
417.206	3.73
417.568	3.44
417.93	3.61
418.292	3.51
418.653	3.55
419.015	3.5
419.377	3.65
419.738	3.43
420.1	3.38
420.461	3.51
420.822	3.7
421.184	3.61
421.545	3.69
421.906	3.55
422.267	3.44
422.629	3.56
422.99	3.56
423.351	3.51
423.712	3.45
424.073	3.44
424.434	3.51
424.795	3.61
425.155	3.34
425.516	3.4
425.877	3.52
426.238	3.41
426.598	3.44
426.959	3.41
427.32	3.5
427.68	3.48
428.041	3.63
428.401	3.53
428.761	3.58
429.122	3.63
429.482	3.72
429.842	3.65
430.202	3.46
430.563	3.64
430.923	3.7
431.283	3.71
431.643	3.6
432.003	3.51
432.363	3.53
432.722	3.38
433.082	3.71
433.442	3.72
433.802	3.63
434.161	3.63
434.521	3.61
434.881	3.6
435.24	3.57
435.6	3.64
435.959	3.69
436.319	3.84
436.678	3.75
437.037	3.66
437.396	3.57
437.756	3.52
438.115	3.58
438.474	3.42
438.833	3.55
439.192	3.77
439.551	3.52
439.91	3.4
440.269	3.68
440.628	3.54
440.987	3.44
441.345	3.57
441.704	3.46
442.063	3.49
442.421	3.55
442.78	3.53
443.138	3.52
443.497	3.63
443.855	3.59
444.214	3.59
444.572	3.64
444.93	3.63
445.288	3.52
445.647	3.61
446.005	3.54
446.363	3.47
446.721	3.36
447.079	3.55
447.437	3.43
447.795	3.6
448.153	3.58
448.51	3.55
448.868	3.57
449.226	3.65
449.584	3.53
449.941	3.59
450.299	3.62
450.656	3.64
451.014	3.49
451.371	3.71
451.729	3.64
452.086	3.6
452.443	3.69
452.801	3.7
453.158	3.57
453.515	3.58
453.872	3.67
454.229	3.62
454.586	3.54
454.943	3.42
455.3	3.49
455.657	3.67
456.014	3.69
456.371	3.7
456.727	3.75
457.084	3.5
457.441	3.54
457.797	3.65
458.154	3.6
458.51	3.52
458.867	3.68
459.223	3.69
459.58	3.5
459.936	3.5
460.292	3.55
460.648	3.6
461.005	3.56
461.361	3.44
461.717	3.57
462.073	3.46
462.429	3.47
462.785	3.56
463.141	3.51
463.496	3.64
463.852	3.92
464.208	3.71
464.564	3.77
464.919	3.77
465.275	3.73
465.631	3.78
465.986	3.65
466.342	3.5
466.697	3.74
467.052	3.84
467.408	3.52
467.763	3.67
468.118	3.69
468.473	3.65
468.829	3.79
469.184	3.54
469.539	3.74
469.894	3.59
470.249	3.76
470.603	3.47
470.958	3.68
471.313	3.82
471.668	3.58
472.023	3.67
472.377	3.65
472.732	3.76
473.086	3.54
473.441	3.79
473.795	3.52
474.15	3.73
474.504	3.56
474.859	3.68
475.213	3.42
475.567	3.57
475.921	3.64
476.275	3.52
476.63	3.51
476.984	3.64
477.338	3.44
477.692	3.47
478.045	3.44
478.399	3.54
478.753	3.54
479.107	3.57
479.461	3.65
479.814	3.6
480.168	3.56
480.521	3.54
480.875	3.63
481.228	3.68
481.582	3.62
481.935	3.71
482.289	3.66
482.642	3.66
482.995	3.51
483.348	3.42
483.701	3.66
484.055	3.53
484.408	3.51
484.761	3.46
485.114	3.36
485.466	3.32
485.819	3.32
486.172	3.33
486.525	3.4
486.878	3.42
487.23	3.43
487.583	3.4
487.936	3.49
488.288	3.38
488.641	3.45
488.993	3.4
489.345	3.4
489.698	3.37
490.05	3.41
490.402	3.41
490.754	3.41
491.107	3.45
491.459	3.44
491.811	3.57
492.163	3.39
492.515	3.52
492.866	3.52
493.218	3.38
493.57	3.37
493.922	3.38
494.274	3.45
494.625	3.52
494.977	3.58
495.328	3.61
495.68	3.43
496.031	3.64
496.383	3.55
496.734	3.5
497.086	3.59
497.437	3.56
497.788	3.44
498.139	3.48
498.49	3.62
498.842	3.61
499.193	3.49
499.544	3.51
499.894	3.62
500.245	3.58
500.596	3.68
500.947	3.49
501.298	3.63
501.648	3.68
501.999	3.54
502.35	3.56
502.7	3.6
503.051	3.7
503.401	3.56
503.752	3.66
504.102	3.59
504.452	3.7
504.803	3.64
505.153	3.5
505.503	3.63
505.853	3.66
506.203	3.66
506.553	3.6
506.903	3.59
507.253	3.59
507.603	3.61
507.953	3.49
508.303	3.64
508.652	3.48
509.002	3.68
509.352	3.6
509.701	3.57
510.051	3.58
510.4	3.48
510.75	3.47
511.099	3.44
511.449	3.64
511.798	3.55
512.147	3.52
512.496	3.6
512.846	3.55
513.195	3.55
513.544	3.64
513.893	3.59
514.242	3.58
514.591	3.43
514.939	3.45
515.288	3.56
515.637	3.48
515.986	3.52
516.334	3.59
516.683	3.5
517.032	3.66
517.38	3.52
517.729	3.7
518.077	3.48
518.426	3.65
518.774	3.55
519.122	3.5
519.47	3.51
519.819	3.42
520.167	3.54
520.515	3.39
520.863	3.54
521.211	3.44
521.559	3.6
521.907	3.5
522.255	3.58
522.602	3.65
522.95	3.56
523.298	3.53
523.645	3.69
523.993	3.53
524.341	3.54
524.688	3.49
525.036	3.61
525.383	3.54
525.73	3.54
526.078	3.44
526.425	3.56
526.772	3.52
527.119	3.41
527.466	3.47
527.814	3.32
528.161	3.44
528.508	3.51
528.854	3.4
529.201	3.44
529.548	3.41
529.895	3.39
530.242	3.27
530.588	3.28
530.935	3.35
531.282	3.4
531.628	3.46
531.975	3.3
532.321	3.37
532.667	3.33
533.014	3.46
533.36	3.42
533.706	3.36
534.052	3.46
534.399	3.42
534.745	3.37
535.091	3.36
535.437	3.38
535.783	3.38
536.129	3.44
536.474	3.4
536.82	3.44
537.166	3.48
537.512	3.4
537.857	3.52
538.203	3.39
538.549	3.42
538.894	3.43
539.239	3.44
539.585	3.53
539.93	3.55
540.276	3.54
540.621	3.46
540.966	3.35
541.311	3.43
541.656	3.48
542.001	3.51
542.346	3.36
542.691	3.34
543.036	3.31
543.381	3.27
543.726	3.38
544.071	3.39
544.415	3.39
544.76	3.42
545.105	3.47
545.449	3.39
545.794	3.49
546.138	3.29
546.483	3.51
546.827	3.55
547.171	3.44
547.516	3.47
547.86	3.43
548.204	3.52
548.548	3.41
548.892	3.42
549.236	3.48
549.58	3.46
549.924	3.46
550.268	3.48
550.612	3.51
550.956	3.53
551.3	3.57
551.643	3.54
551.987	3.61
552.33	3.56
552.674	3.65
553.017	3.76
553.361	3.68
553.704	3.56
554.048	3.5
554.391	3.53
554.734	3.5
555.077	3.53
555.42	3.5
555.764	3.61
556.107	3.54
556.45	3.56
556.793	3.43
557.135	3.45
557.478	3.48
557.821	3.6
558.164	3.64
558.507	3.59
558.849	3.59
559.192	3.67
559.534	3.68
559.877	3.61
560.219	3.51
560.562	3.46
560.904	3.71
561.246	3.55
561.589	3.53
561.931	3.56
562.273	3.52
562.615	3.42
562.957	3.48
563.299	3.6
563.641	3.57
563.983	3.44
564.325	3.53
564.667	3.52
565.008	3.32
565.35	3.41
565.692	3.65
566.033	3.61
566.375	3.52
566.716	3.44
567.058	3.64
567.399	3.7
567.741	3.57
568.082	3.39
568.423	3.49
568.764	3.45
569.105	3.54
569.447	3.68
569.788	3.59
570.129	3.46
570.47	3.75
570.811	3.57
571.151	3.67
571.492	3.71
571.833	3.59
572.174	3.45
572.514	3.61
572.855	3.51
573.195	3.5
573.536	3.29
573.876	3.4
574.217	3.52
574.557	3.47
574.898	3.41
575.238	3.58
575.578	3.4
575.918	3.56
576.258	3.5
576.598	3.45
576.938	3.46
577.278	3.48
577.618	3.56
577.958	3.53
578.298	3.51
578.638	3.44
578.977	3.45
579.317	3.46
579.657	3.43
579.996	3.65
580.336	3.58
580.675	3.44
581.014	3.6
581.354	3.6
581.693	3.49
582.032	3.41
582.372	3.63
582.711	3.43
583.05	3.66
583.389	3.54
583.728	3.68
584.067	3.78
584.406	3.63
584.745	3.72
585.083	3.41
585.422	3.54
585.761	3.89
586.1	3.51
586.438	3.71
586.777	3.76
587.115	3.37
587.454	3.69
587.792	3.33
588.13	3.77
588.469	3.63
588.807	3.65
589.145	3.44
589.483	3.58
589.821	3.69
590.159	3.56
590.497	3.45
590.835	3.71
591.173	3.56
591.511	3.51
591.849	3.23
592.187	3.32
592.524	3.2
592.862	3.42
593.2	3.43
593.537	3.34
593.875	3.78
594.212	3.55
594.55	3.69
594.887	3.71
595.224	3.29
595.561	3.76
595.899	3.52
596.236	3.49
596.573	3.6
596.91	3.51
597.247	3.46
597.584	3.35
597.921	3.57
598.258	3.36
598.594	3.63
598.931	3.53
599.268	3.41
599.604	3.47
599.941	3.38
600.277	3.46
600.614	3.6
600.95	3.66
601.287	3.52
601.623	3.71
601.959	3.54
602.296	3.69
602.632	3.36
602.968	3.85
603.304	3.38
603.64	3.61
603.976	3.39
604.312	3.53
604.648	3.67
604.984	3.59
605.319	3.67
605.655	3.48
605.991	3.51
606.326	3.31
606.662	3.5
606.998	3.42
607.333	3.61
607.668	3.37
608.004	3.5
608.339	3.56
608.674	3.48
609.01	3.44
609.345	3.61
609.68	3.51
610.015	3.77
610.35	3.53
610.685	3.51
611.02	3.72
611.355	3.58
611.689	3.41
612.024	3.43
612.359	3.34
612.694	3.3
613.028	3.48
613.363	3.5
613.697	3.43
614.032	3.69
614.366	3.58
614.7	3.45
615.035	3.58
615.369	3.56
615.703	3.69
616.037	3.41
616.371	3.29
616.705	3.51
617.039	3.39
617.373	3.67
617.707	3.4
618.041	3.53
618.375	3.34
618.709	3.35
619.042	3.56
619.376	3.18
619.71	3.46
620.043	3.43
620.377	3.6
620.71	3.15
621.043	3.44
621.377	3.24
621.71	3.64
622.043	3.75
622.376	3.91
622.709	3.96
623.043	3.23
623.376	3.86
623.709	3.55
624.041	3.81
624.374	3.41
624.707	3.8
625.04	3.18
625.373	3.76
625.705	3.59
626.038	3.66
626.37	3.85
626.703	3.71
627.035	3.14
627.368	3.64
627.7	3.37
628.032	3.32
628.365	3.52
628.697	3.6
629.029	3.21
629.361	3.45
629.693	3.36
630.025	3.29
630.357	3.58
630.689	3.45
631.021	3.74
631.353	3.65
631.684	3.22
632.016	3.41
632.348	3.77
632.679	3.24
633.011	3.72
633.342	4.07
633.674	3.44
634.005	3.41
634.336	3.46
634.668	3.48
634.999	3.63
635.33	3.63
635.661	3.47
635.992	3.61
636.323	3.16
636.654	3.69
636.985	3.51
637.316	3.47
637.647	3.53
637.977	3.64
638.308	3.59
638.639	3.7
638.969	3.38
639.3	3.02
639.63	3.94
639.961	3.86
640.291	3.14
640.622	3.38
640.952	3.59
641.282	3.42
641.612	3.49
641.943	3.3
642.273	3.78
642.603	3.88
642.933	3.4
643.263	3.56
643.592	4.02
643.922	4.15
644.252	3.99
644.582	2.76
644.911	3.81
645.241	3.14
645.571	3.92
645.9	3.42
646.23	3.26
646.559	3.59
646.888	3.55
647.218	3.46
647.547	3.35
647.876	3.62
648.205	3.59
648.534	3.51
648.863	4.15
649.192	3.84
649.521	3.78
649.85	3.08
650.179	3.86
650.508	4.07
650.837	3.75
651.165	3.13
651.494	3.36
651.822	3.74
652.151	3.67
652.479	3.3
652.808	3.42
653.136	3.66
653.465	3.92
653.793	3.59
654.121	3.92
654.449	3.69
654.777	3.73
655.105	3.63
655.433	4.27
655.761	3.29
656.089	3.38
656.417	3.97
656.745	3.39
657.073	3.09
657.4	3.33
657.728	3.35
658.056	4.23
658.383	3.41
658.711	3.53
659.038	3.83
659.365	3.84
659.693	3.14
660.02	3.4
660.347	3.73
660.674	3.9
661.001	3.79
661.329	3.57
661.656	3.49
661.982	3.66
662.309	4.04
662.636	3.59
662.963	3.91
663.29	3.82
663.616	3.72
663.943	3.81
664.27	3.69
664.596	3.83
664.923	4.23
665.249	3.17
665.576	3.6
665.902	3.76
666.228	3.67
666.554	2.93
666.881	3.21
667.207	4.34
667.533	3.38
667.859	3.91
668.185	3.2
668.511	3.73
668.837	3.08
669.162	4.12
669.488	3.33
669.814	3.7
670.139	3.29
670.465	2.7
670.791	3.42
671.116	3.5
671.442	3.6
671.767	3.87
672.092	3.83
672.418	3.37
672.743	3.76
673.068	3.12
673.393	3.67
673.718	4.29
674.043	3.4
674.368	2.74
674.693	3.45
675.018	3.21
675.343	3.81
675.667	4.02
675.992	3.81
676.317	3.15
676.641	3.74
676.966	4.12
677.29	3.25
677.615	3.5
677.939	3.55
678.264	4.15
678.588	4.07
678.912	3.93
679.236	3.31
679.56	4.13
679.885	4.37
680.209	3.83
680.532	3.65
680.856	3.65
681.18	3.97
681.504	3.83
681.828	3.51
682.152	3.46
682.475	3.48
682.799	3.56
683.122	3.74
683.446	3.73
683.769	4.72
684.093	3.85
684.416	3.04
684.739	3.77
685.062	4.07
685.386	4.23
685.709	4.19
686.032	4.32
686.355	3.43
686.678	4.06
687.001	4.56
687.324	3.58
687.646	4.26
687.969	3.64
688.292	3.91
688.614	3.48
688.937	4.02
689.26	3.73
689.582	3.42
689.904	2.71
690.227	3.72
690.549	3.92
690.871	4.01
691.194	3.89
691.516	4.53
691.838	3.7
692.16	4
692.482	2.81
692.804	3.84
