Data from 448_forehead_Reflection__1__56.txt Node

Date: Tue Dec 12 18:40:45 CST 2023
User: ToomeyLab
Spectrometer: FLMS14357
Trigger mode: 0
Integration Time (sec): 1.000000E-2
Scans to average: 100
Electric dark correction enabled: true
Nonlinearity correction enabled: false
Boxcar width: 0
XAxis mode: Wavelengths
Number of Pixels in Spectrum: 2048
>>>>>Begin Spectral Data<<<<<
189.047	-168.58
189.435	-168.58
189.823	-168.58
190.211	-190.39
190.599	-51.51
190.987	29.35
191.375	173.42
191.763	-24.56
192.151	143.87
192.538	-71.12
192.926	98.54
193.314	-99.19
193.702	118.43
194.089	103.72
194.477	-71.66
194.864	106.12
195.252	231.39
195.639	247.47
196.027	-305.77
196.414	75.41
196.801	-290.21
197.189	1430.5
197.576	21.06
197.963	39.55
198.351	76.1
198.738	38.85
199.125	38.6
199.512	0.08
199.899	34.78
200.286	51.63
200.673	-33.71
201.06	18.09
201.447	-35.12
201.833	10.25
202.22	50.35
202.607	-17.41
202.994	68.29
203.38	52.03
203.767	25.74
204.154	63.49
204.54	58.75
204.927	9.66
205.313	47.45
205.699	25.27
206.086	8.04
206.472	49.73
206.858	33.52
207.245	41.57
207.631	44.92
208.017	26.17
208.403	29
208.789	52.26
209.175	44.78
209.561	41.47
209.947	42.42
210.333	30.54
210.719	30.86
211.105	-14.58
211.491	54.17
211.876	56.36
212.262	51.41
212.648	31.13
213.034	14.41
213.419	16.05
213.805	35.03
214.19	47.69
214.576	37.36
214.961	44.54
215.346	26.07
215.732	51.26
216.117	14.78
216.502	16.7
216.888	14.01
217.273	23.44
217.658	10.56
218.043	-11.27
218.428	11.79
218.813	41.18
219.198	-9.33
219.583	35.42
219.968	36.61
220.353	28.57
220.738	24.18
221.122	17.43
221.507	10.85
221.892	6.16
222.276	26.1
222.661	18.21
223.046	5.28
223.43	29.83
223.815	1.49
224.199	26.21
224.583	9.21
224.968	16.47
225.352	0.69
225.736	19.89
226.121	10.28
226.505	14.84
226.889	6.52
227.273	9.27
227.657	20.47
228.041	11.51
228.425	9.99
228.809	7.9
229.193	7.1
229.577	9.21
229.961	7.45
230.344	8.51
230.728	8.18
231.112	7.68
231.495	6.93
231.879	8.34
232.263	7.42
232.646	8.59
233.03	7.82
233.413	5.55
233.797	7.55
234.18	5.96
234.563	7.92
234.946	10.11
235.33	9.69
235.713	9.95
236.096	6.34
236.479	8.5
236.862	9.09
237.245	8.78
237.628	8.9
238.011	8.87
238.394	7.86
238.777	8.79
239.16	8.78
239.543	6.51
239.925	10.96
240.308	7.41
240.691	8.37
241.073	9.49
241.456	9.91
241.838	7.84
242.221	7.97
242.603	8.5
242.986	7.34
243.368	8.02
243.75	7.27
244.133	7.01
244.515	7.36
244.897	7.49
245.279	7.83
245.661	6.82
246.043	6.55
246.425	9.15
246.807	6.95
247.189	7.94
247.571	7.78
247.953	7.34
248.335	7.17
248.717	6.7
249.098	6.94
249.48	6.78
249.862	6.75
250.243	6.73
250.625	7.88
251.006	7.02
251.388	7.65
251.769	9.14
252.151	7.29
252.532	8.2
252.913	7.61
253.295	8.21
253.676	7.39
254.057	6.95
254.438	7.09
254.819	6.97
255.2	8.01
255.581	8.88
255.962	7.82
256.343	7.28
256.724	8.67
257.105	8.11
257.486	6.94
257.867	6.66
258.247	7.31
258.628	7.08
259.009	6.69
259.389	7.98
259.77	7.48
260.15	7
260.531	7.61
260.911	7.16
261.292	6.76
261.672	6.68
262.052	6.79
262.432	7.25
262.813	6.96
263.193	7.28
263.573	7.34
263.953	7.91
264.333	8.47
264.713	7.74
265.093	6.84
265.473	7.12
265.853	7.09
266.233	6.58
266.612	6.85
266.992	6.96
267.372	7.5
267.752	8.09
268.131	6.51
268.511	6.97
268.89	6.92
269.27	6.83
269.649	6.5
270.029	6.92
270.408	7.23
270.787	7.19
271.167	7.46
271.546	7.48
271.925	7.77
272.304	7.13
272.683	7.02
273.062	7.18
273.441	7.34
273.82	6.34
274.199	6.71
274.578	6.95
274.957	6.74
275.336	7.2
275.715	7.53
276.093	6.82
276.472	6.91
276.851	7.19
277.229	7.24
277.608	7.03
277.986	6.65
278.365	7.23
278.743	7.11
279.122	7.39
279.5	6.6
279.878	6.29
280.257	6.96
280.635	6.85
281.013	7.11
281.391	7.17
281.769	7.16
282.147	6.43
282.525	7.11
282.903	7.11
283.281	6.9
283.659	6.94
284.037	7.04
284.415	6.93
284.792	7.4
285.17	7.23
285.548	7.52
285.925	7.24
286.303	6.88
286.68	7.11
287.058	7.37
287.435	7
287.813	6.71
288.19	7.06
288.567	7.18
288.945	7.4
289.322	6.94
289.699	7.15
290.076	7.17
290.453	7.61
290.83	7.15
291.207	7.85
291.584	7.65
291.961	7.43
292.338	7.83
292.715	7.42
293.092	7.56
293.469	7.53
293.845	7.98
294.222	8.26
294.599	8.6
294.975	7.62
295.352	8.35
295.728	7.85
296.105	8.11
296.481	8.34
296.858	8.33
297.234	8.63
297.61	8.38
297.986	8.46
298.363	8.44
298.739	8.52
299.115	8.2
299.491	8.42
299.867	8.7
300.243	8.43
300.619	9.13
300.995	8.91
301.371	8.89
301.746	9.29
302.122	9.48
302.498	9.32
302.874	8.95
303.249	9.78
303.625	8.82
304	9.89
304.376	9.07
304.751	9.95
305.127	9.67
305.502	9.82
305.878	9.76
306.253	9.76
306.628	9.72
307.003	9.9
307.378	10.05
307.754	10.1
308.129	9.77
308.504	10.83
308.879	10.09
309.254	10.37
309.629	10.2
310.003	9.95
310.378	10.41
310.753	10.76
311.128	11.21
311.502	10.12
311.877	10.36
312.252	11.02
312.626	10.75
313.001	10.84
313.375	10.92
313.75	11.14
314.124	10.97
314.498	11.29
314.873	11.58
315.247	11.91
315.621	11.69
315.995	11.99
316.369	11.92
316.743	11.3
317.117	11.37
317.491	11.95
317.865	11.76
318.239	11.87
318.613	12.63
318.987	12.47
319.361	12.31
319.734	12.44
320.108	12.6
320.482	12.79
320.855	12.46
321.229	13.08
321.602	12.79
321.976	13.5
322.349	13.46
322.723	12.9
323.096	12.49
323.469	12.74
323.843	13.77
324.216	14.16
324.589	12.8
324.962	13.45
325.335	13.73
325.708	13.31
326.081	13.74
326.454	13.74
326.827	14.29
327.2	13.98
327.573	13.79
327.945	13.71
328.318	14.59
328.691	13.8
329.063	14.67
329.436	14.59
329.809	14.33
330.181	14.2
330.553	13.76
330.926	14.73
331.298	14.5
331.671	14.86
332.043	14.97
332.415	14.97
332.787	14.83
333.159	15.17
333.532	15.2
333.904	15.12
334.276	15.42
334.648	15.22
335.02	15.26
335.391	15.49
335.763	15.63
336.135	15.26
336.507	16.21
336.879	15.53
337.25	15.55
337.622	16.15
337.993	15.81
338.365	15.56
338.736	15.86
339.108	16.23
339.479	16.53
339.851	16.22
340.222	16
340.593	16.15
340.964	16.05
341.336	16.45
341.707	16.36
342.078	16.04
342.449	16.6
342.82	16.97
343.191	16.62
343.562	16.42
343.933	16.85
344.303	17.2
344.674	17.17
345.045	17.39
345.416	17.06
345.786	16.91
346.157	17.06
346.527	17.76
346.898	17.07
347.268	17.36
347.639	17.57
348.009	16.94
348.38	17.27
348.75	17.9
349.12	17.79
349.49	17.81
349.861	18.18
350.231	18.33
350.601	18.57
350.971	18.31
351.341	18.07
351.711	18.45
352.081	18.07
352.45	18.16
352.82	18.57
353.19	18.7
353.56	18.39
353.929	18.15
354.299	18.44
354.669	19.1
355.038	18.56
355.408	18.79
355.777	19.29
356.147	19.37
356.516	19.13
356.885	19.28
357.254	19.21
357.624	19.24
357.993	19.72
358.362	19.48
358.731	19.8
359.1	19.15
359.469	19.39
359.838	19.65
360.207	19.34
360.576	19.66
360.945	19.62
361.314	20.15
361.682	19.95
362.051	20.27
362.42	20.43
362.788	19.9
363.157	20.19
363.525	20.36
363.894	20.33
364.262	20.3
364.631	20.35
364.999	20.72
365.367	20.66
365.735	20.72
366.104	20.67
366.472	20.57
366.84	21.05
367.208	21.16
367.576	21.07
367.944	21.19
368.312	21.26
368.68	21.47
369.048	21.4
369.416	21.43
369.783	21.72
370.151	21.66
370.519	21.81
370.886	21.79
371.254	21.73
371.621	22.27
371.989	21.68
372.356	22.15
372.724	21.97
373.091	22.06
373.458	21.99
373.826	22.4
374.193	22.09
374.56	22.46
374.927	22.78
375.294	22.61
375.661	22.59
376.028	22.8
376.395	23.05
376.762	22.94
377.129	22.69
377.496	22.87
377.863	23.1
378.229	23.17
378.596	23.05
378.963	23.27
379.329	23.37
379.696	23.39
380.062	23.69
380.429	23.78
380.795	23.47
381.161	23.46
381.528	23.86
381.894	23.93
382.26	23.8
382.626	24.07
382.993	23.85
383.359	23.82
383.725	24.21
384.091	24.18
384.457	24.06
384.823	24.17
385.188	24.36
385.554	24.43
385.92	24.2
386.286	24.63
386.651	24.71
387.017	24.72
387.383	24.78
387.748	24.66
388.114	24.81
388.479	25.01
388.845	24.78
389.21	24.87
389.575	24.81
389.94	24.94
390.306	25.37
390.671	25.24
391.036	25.59
391.401	25.46
391.766	25.66
392.131	25.61
392.496	25.41
392.861	25.46
393.226	25.84
393.591	25.54
393.956	25.8
394.32	26.05
394.685	26.14
395.05	25.95
395.414	26.32
395.779	25.97
396.143	26.31
396.508	26.2
396.872	26.43
397.236	26.41
397.601	26.73
397.965	26.76
398.329	26.85
398.694	26.46
399.058	26.78
399.422	26.81
399.786	26.75
400.15	26.79
400.514	27.3
400.878	27.09
401.242	27.03
401.605	27.3
401.969	26.96
402.333	27.25
402.697	27.37
403.06	27.43
403.424	27.96
403.787	27.78
404.151	27.82
404.514	27.56
404.878	27.77
405.241	27.78
405.604	27.86
405.968	28.02
406.331	28.25
406.694	28.47
407.057	27.95
407.42	28.39
407.783	28.27
408.146	28.49
408.509	28.63
408.872	28.43
409.235	28.75
409.598	28.67
409.961	28.88
410.323	28.65
410.686	28.94
411.049	28.94
411.411	29.12
411.774	28.86
412.136	29.29
412.499	29.13
412.861	29.34
413.223	29.19
413.586	29.32
413.948	29.44
414.31	29.5
414.672	29.75
415.035	29.96
415.397	29.35
415.759	29.8
416.121	29.66
416.483	29.87
416.845	30.04
417.206	29.99
417.568	29.84
417.93	30.26
418.292	29.98
418.653	30.13
419.015	30.07
419.377	30.01
419.738	29.92
420.1	29.99
420.461	30.03
420.822	29.97
421.184	30.17
421.545	30.26
421.906	29.95
422.267	30.03
422.629	30.16
422.99	30.22
423.351	30.2
423.712	30.14
424.073	30.54
424.434	30.42
424.795	30.69
425.155	30.58
425.516	30.7
425.877	30.8
426.238	30.82
426.598	30.89
426.959	31.03
427.32	31.04
427.68	31.19
428.041	31.33
428.401	31.36
428.761	31.54
429.122	31.46
429.482	31.96
429.842	32.05
430.202	31.97
430.563	32.06
430.923	31.66
431.283	32.26
431.643	32.29
432.003	32.13
432.363	32.25
432.722	32.2
433.082	32.54
433.442	32.4
433.802	32.33
434.161	32.42
434.521	32.27
434.881	32.53
435.24	32.63
435.6	32.61
435.959	32.62
436.319	32.91
436.678	32.88
437.037	33.04
437.396	33.02
437.756	33.24
438.115	33.16
438.474	33.37
438.833	33.26
439.192	33.25
439.551	33.21
439.91	33.36
440.269	33.38
440.628	33.4
440.987	33.27
441.345	33.55
441.704	33.55
442.063	33.58
442.421	33.44
442.78	33.62
443.138	33.51
443.497	33.36
443.855	33.63
444.214	33.98
444.572	33.97
444.93	34.16
445.288	34.15
445.647	34.19
446.005	34.32
446.363	34.12
446.721	34.08
447.079	34.35
447.437	34.29
447.795	34.26
448.153	34.22
448.51	34.31
448.868	34.24
449.226	34.39
449.584	34.47
449.941	34.61
450.299	34.78
450.656	35.01
451.014	34.93
451.371	34.98
451.729	35.32
452.086	35.28
452.443	35.62
452.801	35.53
453.158	35.45
453.515	35.73
453.872	35.69
454.229	35.73
454.586	35.56
454.943	35.56
455.3	35.6
455.657	35.9
456.014	35.97
456.371	36.05
456.727	36.11
457.084	35.97
457.441	36.26
457.797	36.27
458.154	36.1
458.51	36.27
458.867	36.46
459.223	36.49
459.58	36.8
459.936	36.49
460.292	36.46
460.648	36.59
461.005	36.32
461.361	36.42
461.717	36.28
462.073	36.16
462.429	36.37
462.785	36.75
463.141	36.66
463.496	36.97
463.852	37.19
464.208	37.39
464.564	37.38
464.919	37.26
465.275	37.3
465.631	37.8
465.986	37.55
466.342	37.32
466.697	37.71
467.052	37.8
467.408	37.69
467.763	37.76
468.118	37.78
468.473	37.97
468.829	38.11
469.184	37.93
469.539	38.13
469.894	38.08
470.249	38.33
470.603	38.17
470.958	38.14
471.313	38.37
471.668	38.46
472.023	38.44
472.377	38.39
472.732	38.7
473.086	38.56
473.441	38.83
473.795	38.57
474.15	39.05
474.504	38.72
474.859	38.7
475.213	38.82
475.567	38.86
475.921	39.1
476.275	38.88
476.63	39.26
476.984	39.04
477.338	39.14
477.692	39.28
478.045	39.3
478.399	38.95
478.753	39.24
479.107	39.2
479.461	39.43
479.814	39.48
480.168	39.5
480.521	39.5
480.875	39.68
481.228	39.64
481.582	39.57
481.935	39.66
482.289	39.87
482.642	39.98
482.995	39.91
483.348	39.82
483.701	39.96
484.055	39.8
484.408	39.44
484.761	39.17
485.114	38.96
485.466	38.81
485.819	39.11
486.172	39.11
486.525	39.18
486.878	39.19
487.23	39.32
487.583	39.65
487.936	39.91
488.288	39.74
488.641	39.66
488.993	39.46
489.345	39.52
489.698	39.42
490.05	39.52
490.402	39.83
490.754	39.91
491.107	40.19
491.459	40.23
491.811	40.35
492.163	40.6
492.515	40.56
492.866	40.53
493.218	40.3
493.57	40.13
493.922	40.2
494.274	40.41
494.625	40.74
494.977	41.03
495.328	41.26
495.68	41.3
496.031	41.54
496.383	41.7
496.734	41.92
497.086	41.96
497.437	41.85
497.788	41.89
498.139	41.71
498.49	41.83
498.842	41.81
499.193	41.81
499.544	41.9
499.894	41.99
500.245	42.1
500.596	42.28
500.947	42.41
501.298	42.33
501.648	42.58
501.999	42.37
502.35	42.71
502.7	42.62
503.051	42.83
503.401	42.76
503.752	43.02
504.102	42.78
504.452	43.11
504.803	43.01
505.153	43.03
505.503	42.87
505.853	43.1
506.203	42.98
506.553	43.14
506.903	43.11
507.253	43.35
507.603	43.34
507.953	43.54
508.303	43.37
508.652	43.59
509.002	43.7
509.352	43.64
509.701	43.43
510.051	43.38
510.4	43.48
510.75	43.63
511.099	43.6
511.449	43.56
511.798	43.48
512.147	43.97
512.496	43.73
512.846	43.89
513.195	43.76
513.544	43.82
513.893	43.94
514.242	44.01
514.591	44.03
514.939	44.2
515.288	44.08
515.637	44.21
515.986	44.4
516.334	44.43
516.683	44.55
517.032	44.63
517.38	44.46
517.729	44.59
518.077	44.81
518.426	44.64
518.774	44.63
519.122	44.66
519.47	44.65
519.819	44.34
520.167	44.5
520.515	44.36
520.863	44.6
521.211	44.6
521.559	44.68
521.907	44.85
522.255	44.89
522.602	45.1
522.95	45.14
523.298	45.22
523.645	45.28
523.993	45.42
524.341	45.46
524.688	45.25
525.036	45.52
525.383	45.85
525.73	45.54
526.078	45.55
526.425	45.65
526.772	45.27
527.119	45.23
527.466	45.36
527.814	45.26
528.161	45.49
528.508	45.16
528.854	45.4
529.201	45.33
529.548	45.38
529.895	45.09
530.242	44.74
530.588	45.11
530.935	45.23
531.282	45.19
531.628	45.19
531.975	45.41
532.321	45.74
532.667	45.78
533.014	46.12
533.36	46.03
533.706	46.08
534.052	46.05
534.399	46.05
534.745	45.91
535.091	45.83
535.437	45.87
535.783	45.94
536.129	46.2
536.474	46.13
536.82	46.6
537.166	46.63
537.512	46.81
537.857	46.87
538.203	46.63
538.549	46.58
538.894	46.9
539.239	46.7
539.585	46.84
539.93	46.97
540.276	47.38
540.621	47.32
540.966	47.4
541.311	47.43
541.656	47.46
542.001	47.22
542.346	47.08
542.691	46.97
543.036	46.83
543.381	46.77
543.726	47.01
544.071	46.82
544.415	47.1
544.76	47.23
545.105	47.28
545.449	47.59
545.794	47.6
546.138	47.63
546.483	47.92
546.827	48.14
547.171	48.1
547.516	48.45
547.86	48.14
548.204	47.98
548.548	48.08
548.892	48.12
549.236	48.24
549.58	48.33
549.924	48.66
550.268	48.64
550.612	48.61
550.956	48.84
551.3	48.98
551.643	49.19
551.987	49.15
552.33	49.29
552.674	49.38
553.017	49.32
553.361	49.49
553.704	49.19
554.048	49.38
554.391	49.19
554.734	49.36
555.077	49.74
555.42	49.39
555.764	49.39
556.107	49.89
556.45	49.33
556.793	49.68
557.135	49.95
557.478	49.94
557.821	50.09
558.164	49.88
558.507	50.07
558.849	50
559.192	50.25
559.534	50.35
559.877	50.25
560.219	50.52
560.562	49.98
560.904	50.22
561.246	50.12
561.589	50.43
561.931	50.3
562.273	50.7
562.615	50.6
562.957	50.56
563.299	50.45
563.641	50.49
563.983	50.52
564.325	50.79
564.667	50.81
565.008	50.71
565.35	50.71
565.692	50.55
566.033	51.12
566.375	50.95
566.716	50.84
567.058	51.12
567.399	50.88
567.741	50.79
568.082	50.89
568.423	51.07
568.764	51.12
569.105	51.11
569.447	51.33
569.788	51.09
570.129	51.28
570.47	51.19
570.811	51.39
571.151	51.54
571.492	52.07
571.833	51.42
572.174	51.75
572.514	51.65
572.855	51.37
573.195	51.41
573.536	51.44
573.876	51.55
574.217	51.67
574.557	51.76
574.898	51.61
575.238	51.69
575.578	51.83
575.918	51.93
576.258	52.13
576.598	52.13
576.938	52.23
577.278	52.13
577.618	51.87
577.958	52.39
578.298	52
578.638	51.82
578.977	52.32
579.317	52.45
579.657	52.58
579.996	52.54
580.336	52.66
580.675	52.88
581.014	52.8
581.354	52.49
581.693	52.85
582.032	52.71
582.372	52.63
582.711	52.44
583.05	53.53
583.389	52.95
583.728	53.28
584.067	53.44
584.406	53.33
584.745	53.66
585.083	53.23
585.422	53.41
585.761	53.26
586.1	53.11
586.438	53.43
586.777	53.6
587.115	53.82
587.454	53.62
587.792	53.66
588.13	54.1
588.469	53.45
588.807	53.63
589.145	53.6
589.483	53.73
589.821	53.92
590.159	53.89
590.497	53.95
590.835	53.95
591.173	53.72
591.511	53.91
591.849	54.06
592.187	54.2
592.524	54.05
592.862	53.7
593.2	54.28
593.537	53.93
593.875	54.07
594.212	54.04
594.55	54.21
594.887	54.3
595.224	54.36
595.561	54.31
595.899	54.02
596.236	53.84
596.573	54.21
596.91	54.67
597.247	54.58
597.584	54.38
597.921	54.19
598.258	54.06
598.594	54.15
598.931	54.07
599.268	54.47
599.604	54.3
599.941	54.29
600.277	54.31
600.614	54.78
600.95	54.64
601.287	55.25
601.623	54.78
601.959	55.08
602.296	55.11
602.632	55.01
602.968	55.21
603.304	54.92
603.64	55.02
603.976	54.83
604.312	55.22
604.648	55.18
604.984	55.23
605.319	54.9
605.655	54.89
605.991	54.94
606.326	54.85
606.662	55.02
606.998	55.04
607.333	55.03
607.668	55.14
608.004	55.17
608.339	55.21
608.674	55.47
609.01	55.53
609.345	55.41
609.68	55.65
610.015	55.69
610.35	55.74
610.685	55.55
611.02	55.62
611.355	55.88
611.689	55.41
612.024	55.52
612.359	55.49
612.694	55.66
613.028	56.11
613.363	55.82
613.697	56.24
614.032	56.45
614.366	55.81
614.7	55.96
615.035	56.06
615.369	55.95
615.703	56.35
616.037	56.3
616.371	56.34
616.705	56.38
617.039	56.65
617.373	56.53
617.707	56.57
618.041	57.05
618.375	57.11
618.709	56.46
619.042	56.27
619.376	56.38
619.71	56.62
620.043	56.7
620.377	56.98
620.71	56.5
621.043	56.7
621.377	56.67
621.71	56.52
622.043	57
622.376	57.16
622.709	57.16
623.043	57.2
623.376	57.06
623.709	56.99
624.041	57.26
624.374	57.27
624.707	57.4
625.04	57.89
625.373	57.82
625.705	57.6
626.038	57.33
626.37	57.81
626.703	57.39
627.035	57.1
627.368	57.24
627.7	57.79
628.032	57.32
628.365	57.35
628.697	57.52
629.029	57.45
629.361	57.41
629.693	57.7
630.025	57.08
630.357	57.49
630.689	57.68
631.021	58.14
631.353	57.6
631.684	57.56
632.016	57.7
632.348	57.8
632.679	57.6
633.011	57.8
633.342	58.24
633.674	58.5
634.005	58.3
634.336	58.1
634.668	58.35
634.999	58.35
635.33	58.55
635.661	58.66
635.992	58.36
636.323	58.29
636.654	58.31
636.985	58.46
637.316	58.19
637.647	58.47
637.977	58.22
638.308	58.39
638.639	57.97
638.969	58.78
639.3	58.55
639.63	58.34
639.961	58.2
640.291	58.15
640.622	58.78
640.952	58.79
641.282	58.96
641.612	58.32
641.943	58.29
642.273	58.89
642.603	59.28
642.933	58.95
643.263	59.11
643.592	58.94
643.922	58.88
644.252	58.85
644.582	58.76
644.911	58.81
645.241	58.68
645.571	59.4
645.9	59.56
646.23	59.09
646.559	59.49
646.888	59.59
647.218	58.97
647.547	59.62
647.876	59.3
648.205	59.39
648.534	59.64
648.863	59.25
649.192	59.98
649.521	59.21
649.85	59.54
650.179	59.68
650.508	59.92
650.837	59.8
651.165	59.27
651.494	59.44
651.822	60.07
652.151	60.39
652.479	59.27
652.808	59.7
653.136	59.38
653.465	59.73
653.793	59.57
654.121	60.22
654.449	60.18
654.777	59.84
655.105	59.72
655.433	60.3
655.761	60.16
656.089	60.14
656.417	60.16
656.745	59.87
657.073	59.54
657.4	59.54
657.728	59.83
658.056	59.99
658.383	59.88
658.711	60.57
659.038	59.7
659.365	59.49
659.693	60.22
660.02	60.36
660.347	60.08
660.674	59.97
661.001	60.67
661.329	60.4
661.656	60.12
661.982	60.5
662.309	60.77
662.636	60.52
662.963	60.23
663.29	61.41
663.616	59.93
663.943	60.4
664.27	60.54
664.596	60.8
664.923	60.76
665.249	60.94
665.576	60.06
665.902	61.35
666.228	60.14
666.554	60.51
666.881	59.7
667.207	61.25
667.533	60.97
667.859	60.37
668.185	60.47
668.511	60.92
