Data from 448_chest_Reflection__3__48.txt Node

Date: Tue Dec 12 18:37:46 CST 2023
User: ToomeyLab
Spectrometer: FLMS14357
Trigger mode: 0
Integration Time (sec): 1.000000E-2
Scans to average: 100
Electric dark correction enabled: true
Nonlinearity correction enabled: false
Boxcar width: 0
XAxis mode: Wavelengths
Number of Pixels in Spectrum: 2048
>>>>>Begin Spectral Data<<<<<
189.047	-63.45
189.435	-63.45
189.823	-63.45
190.211	15.58
190.599	161.59
190.987	41.05
191.375	58.96
191.763	10.88
192.151	49.23
192.538	-120.54
192.926	20.05
193.314	265.31
193.702	120.68
194.089	9.71
194.477	164.92
194.864	91.89
195.252	-257.89
195.639	-109
196.027	-100.84
196.414	-19.58
196.801	-357.84
197.189	69.5
197.576	63.6
197.963	124.27
198.351	52.86
198.738	37.16
199.125	31.18
199.512	52.47
199.899	20.35
200.286	15.42
200.673	59.36
201.06	15.15
201.447	-39.32
201.833	10.02
202.22	31.18
202.607	-124.08
202.994	21.5
203.38	46.15
203.767	17.05
204.154	21.81
204.54	35.48
204.927	26.76
205.313	7.78
205.699	22.57
206.086	48.63
206.472	60.17
206.858	16.24
207.245	16.37
207.631	51.45
208.017	30.21
208.403	36.6
208.789	19.65
209.175	0.25
209.561	26.03
209.947	-9.45
210.333	21.62
210.719	9.95
211.105	-2.61
211.491	13.45
211.876	7.31
212.262	39.42
212.648	20.85
213.034	0.13
213.419	15.57
213.805	13.41
214.19	16.73
214.576	20.72
214.961	36.45
215.346	12.48
215.732	40.83
216.117	-1.65
216.502	11.93
216.888	10.1
217.273	-24.63
217.658	17.88
218.043	30.45
218.428	32.14
218.813	3.86
219.198	6.69
219.583	25.65
219.968	20.95
220.353	-5.31
220.738	7.42
221.122	-1.48
221.507	-14.03
221.892	9.28
222.276	19.81
222.661	2.14
223.046	-10.31
223.43	16.37
223.815	4.95
224.199	6.63
224.583	8.64
224.968	14.19
225.352	1.87
225.736	3.48
226.121	3.63
226.505	6.67
226.889	1.03
227.273	0.56
227.657	7.16
228.041	7.57
228.425	1.19
228.809	4.37
229.193	2.79
229.577	2.92
229.961	1.96
230.344	1.68
230.728	2.48
231.112	2.95
231.495	1.98
231.879	3.25
232.263	2.75
232.646	3
233.03	2.25
233.413	2.47
233.797	2.64
234.18	3.52
234.563	3.8
234.946	2.79
235.33	3.25
235.713	3.96
236.096	1.79
236.479	4.02
236.862	3.93
237.245	2.18
237.628	1.89
238.011	3.26
238.394	0.84
238.777	3.15
239.16	4.7
239.543	1.72
239.925	3.72
240.308	0.91
240.691	1.86
241.073	2.67
241.456	3.66
241.838	1.47
242.221	2.93
242.603	3.19
242.986	1.75
243.368	2.83
243.75	2.18
244.133	2.14
244.515	2.69
244.897	2.2
245.279	2.61
245.661	1.49
246.043	1.92
246.425	4.38
246.807	1.59
247.189	2.3
247.571	2.02
247.953	2.15
248.335	1.83
248.717	2.01
249.098	2.1
249.48	1.73
249.862	1.97
250.243	1.9
250.625	2.58
251.006	2.29
251.388	1.93
251.769	2.22
252.151	2.36
252.532	2.75
252.913	2.39
253.295	3.4
253.676	2.54
254.057	1.67
254.438	2.43
254.819	1.52
255.2	2.65
255.581	1.75
255.962	2.92
256.343	2.91
256.724	3.29
257.105	2.99
257.486	1.53
257.867	3.21
258.247	1.76
258.628	2.37
259.009	1.51
259.389	2.41
259.77	1.98
260.15	2.43
260.531	2.91
260.911	2.53
261.292	1.73
261.672	1.92
262.052	1.9
262.432	2.06
262.813	1.93
263.193	2.02
263.573	1.97
263.953	3.31
264.333	2.97
264.713	2
265.093	2
265.473	2.78
265.853	1.43
266.233	1.53
266.612	1.73
266.992	1.37
267.372	2.83
267.752	3.47
268.131	1.09
268.511	1.7
268.89	1.35
269.27	1.38
269.649	2.14
270.029	2.05
270.408	1.98
270.787	2.15
271.167	2.27
271.546	2.52
271.925	2.82
272.304	2.35
272.683	1.83
273.062	2.52
273.441	2.3
273.82	2.03
274.199	1.7
274.578	2.19
274.957	2.07
275.336	2.09
275.715	2.24
276.093	1.82
276.472	2.58
276.851	2.85
277.229	2.05
277.608	2.38
277.986	2.22
278.365	2.19
278.743	2.06
279.122	1.52
279.5	2.18
279.878	1.58
280.257	1.99
280.635	2.42
281.013	2.25
281.391	2.46
281.769	2.02
282.147	2.32
282.525	1.15
282.903	1.39
283.281	2.02
283.659	1.82
284.037	2.26
284.415	2.01
284.792	2.35
285.17	1.93
285.548	2.22
285.925	1.66
286.303	1.66
286.68	2.14
287.058	1.87
287.435	2.2
287.813	1.53
288.19	1.91
288.567	1.91
288.945	2.4
289.322	1.72
289.699	1.82
290.076	1.9
290.453	2.42
290.83	1.97
291.207	2.59
291.584	2.41
291.961	1.95
292.338	2.28
292.715	2.33
293.092	2.09
293.469	2.26
293.845	2.14
294.222	2.3
294.599	2.16
294.975	2.1
295.352	2.45
295.728	2.23
296.105	2.52
296.481	2.53
296.858	2.52
297.234	2.47
297.61	2.39
297.986	2.02
298.363	2.42
298.739	2.14
299.115	1.88
299.491	2.1
299.867	2.26
300.243	1.89
300.619	2.43
300.995	2.63
301.371	2.73
301.746	1.97
302.122	3.05
302.498	1.94
302.874	2.14
303.249	2.85
303.625	2.14
304	2.28
304.376	2.4
304.751	2.22
305.127	2.28
305.502	2.72
305.878	2.01
306.253	2.45
306.628	2.28
307.003	2.75
307.378	2.29
307.754	2.15
308.129	1.99
308.504	3.36
308.879	2.05
309.254	2.66
309.629	2.52
310.003	2.55
310.378	2.58
310.753	2.46
311.128	2.45
311.502	2.08
311.877	2.28
312.252	2.03
312.626	2.19
313.001	1.92
313.375	2.11
313.75	2.07
314.124	2.48
314.498	2.27
314.873	1.85
315.247	2.55
315.621	2.12
315.995	2.99
316.369	2.54
316.743	1.97
317.117	1.87
317.491	2.76
317.865	2.19
318.239	2.57
318.613	2.95
318.987	2.89
319.361	1.65
319.734	2.38
320.108	3.03
320.482	2.41
320.855	2.21
321.229	2.62
321.602	2.52
321.976	3.02
322.349	2.83
322.723	2.07
323.096	2.77
323.469	2.74
323.843	2.99
324.216	2.88
324.589	2.22
324.962	2.85
325.335	3.08
325.708	2.57
326.081	2.71
326.454	1.97
326.827	3.07
327.2	2.71
327.573	2.03
327.945	2.89
328.318	2.87
328.691	1.66
329.063	2.72
329.436	2.61
329.809	2.61
330.181	2.19
330.553	2.17
330.926	2.49
331.298	1.95
331.671	2.46
332.043	2.28
332.415	2.82
332.787	2.34
333.159	2.61
333.532	2.65
333.904	2.67
334.276	2.95
334.648	1.97
335.02	2.26
335.391	2.21
335.763	2.45
336.135	2.52
336.507	3.12
336.879	2.64
337.25	2.52
337.622	2
337.993	2.17
338.365	2.22
338.736	2.5
339.108	2.1
339.479	2.63
339.851	2.11
340.222	2.04
340.593	2.58
340.964	2.96
341.336	2.78
341.707	1.96
342.078	1.88
342.449	2.08
342.82	2.7
343.191	2.5
343.562	2.93
343.933	2.98
344.303	2.88
344.674	2.74
345.045	2.69
345.416	3.22
345.786	2.12
346.157	2.34
346.527	2.62
346.898	2.66
347.268	2.64
347.639	2.61
348.009	2.37
348.38	2.63
348.75	2.71
349.12	2.55
349.49	1.89
349.861	2.83
350.231	2.35
350.601	2.74
350.971	2.77
351.341	2.54
351.711	2.59
352.081	2.25
352.45	2.61
352.82	2.25
353.19	2.63
353.56	2.5
353.929	2.29
354.299	2.3
354.669	2.79
355.038	2.37
355.408	2.21
355.777	2.58
356.147	2.43
356.516	2.64
356.885	2.78
357.254	2.74
357.624	2.24
357.993	2.51
358.362	2.6
358.731	2.73
359.1	1.94
359.469	2.29
359.838	2.29
360.207	2.33
360.576	2.63
360.945	2.19
361.314	2.54
361.682	2.42
362.051	2.55
362.42	2.75
362.788	2.28
363.157	2.7
363.525	2.59
363.894	2.31
364.262	2.3
364.631	2.45
364.999	2.74
365.367	2.42
365.735	2.29
366.104	2.77
366.472	2.57
366.84	2.28
367.208	2.63
367.576	2.14
367.944	2.75
368.312	2.45
368.68	2.35
369.048	2.55
369.416	2.26
369.783	2.61
370.151	2.35
370.519	2.16
370.886	2.55
371.254	2.85
371.621	2.61
371.989	2.63
372.356	2.6
372.724	2.72
373.091	2.43
373.458	2.57
373.826	2.65
374.193	2.42
374.56	2.73
374.927	2.68
375.294	2.64
375.661	2.82
376.028	2.73
376.395	2.72
376.762	3.23
377.129	2.49
377.496	2.31
377.863	2.34
378.229	2.6
378.596	2.52
378.963	2.73
379.329	2.33
379.696	2.61
380.062	3.07
380.429	2.5
380.795	3.01
381.161	2.76
381.528	2.8
381.894	2.57
382.26	2.65
382.626	2.51
382.993	2.85
383.359	2.21
383.725	2.39
384.091	2.61
384.457	2.57
384.823	2.67
385.188	2.6
385.554	2.82
385.92	2.29
386.286	2.55
386.651	2.78
387.017	2.94
387.383	2.55
387.748	2.66
388.114	2.81
388.479	2.62
388.845	2.73
389.21	2.98
389.575	2.37
389.94	2.67
390.306	2.96
390.671	2.55
391.036	2.65
391.401	2.64
391.766	2.55
392.131	2.66
392.496	2.74
392.861	2.52
393.226	2.71
393.591	2.5
393.956	2.52
394.32	2.86
394.685	2.84
395.05	2.46
395.414	2.73
395.779	2.6
396.143	2.81
396.508	2.55
396.872	2.64
397.236	2.74
397.601	2.64
397.965	2.66
398.329	2.58
398.694	2.58
399.058	2.69
399.422	2.73
399.786	2.7
400.15	2.45
400.514	2.87
400.878	2.73
401.242	2.65
401.605	2.54
401.969	2.65
402.333	2.78
402.697	2.64
403.06	2.7
403.424	2.74
403.787	2.33
404.151	3.02
404.514	2.57
404.878	2.46
405.241	2.93
405.604	2.65
405.968	2.44
406.331	2.91
406.694	2.91
407.057	2.67
407.42	2.61
407.783	2.49
408.146	2.74
408.509	2.75
408.872	2.7
409.235	2.56
409.598	2.55
409.961	2.89
410.323	2.57
410.686	2.66
411.049	2.98
411.411	2.8
411.774	2.8
412.136	2.78
412.499	2.66
412.861	2.62
413.223	2.87
413.586	2.62
413.948	2.82
414.31	2.95
414.672	2.82
415.035	2.86
415.397	2.56
415.759	2.86
416.121	2.93
416.483	2.82
416.845	2.6
417.206	2.79
417.568	2.76
417.93	2.88
418.292	2.6
418.653	2.72
419.015	2.59
419.377	2.62
419.738	2.79
420.1	2.7
420.461	2.76
420.822	2.77
421.184	2.75
421.545	2.73
421.906	2.63
422.267	2.58
422.629	2.64
422.99	2.69
423.351	2.65
423.712	2.58
424.073	2.57
424.434	2.71
424.795	2.79
425.155	2.42
425.516	2.59
425.877	2.7
426.238	2.57
426.598	2.57
426.959	2.63
427.32	2.65
427.68	2.73
428.041	2.7
428.401	2.73
428.761	2.74
429.122	2.88
429.482	2.79
429.842	2.78
430.202	2.7
430.563	2.84
430.923	2.77
431.283	2.66
431.643	2.69
432.003	2.84
432.363	2.82
432.722	2.51
433.082	2.75
433.442	2.82
433.802	2.8
434.161	2.7
434.521	2.77
434.881	2.83
435.24	2.78
435.6	2.73
435.959	2.88
436.319	2.76
436.678	2.91
437.037	2.8
437.396	2.69
437.756	2.7
438.115	2.93
438.474	2.73
438.833	2.97
439.192	2.98
439.551	2.83
439.91	2.77
440.269	2.76
440.628	2.6
440.987	2.59
441.345	2.82
441.704	2.86
442.063	2.79
442.421	2.73
442.78	2.81
443.138	2.75
443.497	2.79
443.855	2.73
444.214	2.85
444.572	2.88
444.93	2.7
445.288	2.63
445.647	2.84
446.005	2.84
446.363	2.7
446.721	2.69
447.079	2.74
447.437	2.71
447.795	2.73
448.153	2.69
448.51	2.73
448.868	2.78
449.226	2.81
449.584	2.75
449.941	2.75
450.299	2.78
450.656	2.69
451.014	2.77
451.371	2.73
451.729	2.9
452.086	2.79
452.443	3.04
452.801	2.81
453.158	2.86
453.515	2.89
453.872	2.99
454.229	2.99
454.586	2.71
454.943	2.83
455.3	2.76
455.657	2.89
456.014	2.9
456.371	3.01
456.727	2.95
457.084	2.94
457.441	2.91
457.797	2.88
458.154	2.77
458.51	2.89
458.867	3.03
459.223	2.87
459.58	2.69
459.936	2.68
460.292	2.9
460.648	3.04
461.005	2.81
461.361	2.76
461.717	2.85
462.073	2.79
462.429	2.87
462.785	2.65
463.141	2.85
463.496	2.78
463.852	3.12
464.208	2.92
464.564	2.97
464.919	3.12
465.275	3.08
465.631	3.19
465.986	2.94
466.342	2.88
466.697	2.89
467.052	3.21
467.408	3.03
467.763	2.97
468.118	2.98
468.473	2.99
468.829	3
469.184	2.8
469.539	3.03
469.894	3.04
470.249	2.85
470.603	3.04
470.958	2.93
471.313	3.13
471.668	3.01
472.023	2.95
472.377	2.88
472.732	2.93
473.086	2.99
473.441	3.09
473.795	2.98
474.15	3.1
474.504	2.84
474.859	2.97
475.213	2.77
475.567	2.99
475.921	2.94
476.275	2.77
476.63	2.88
476.984	3.06
477.338	2.86
477.692	3.06
478.045	3
478.399	3.05
478.753	3
479.107	3.02
479.461	2.95
479.814	3.13
480.168	2.82
480.521	2.98
480.875	3.09
481.228	3.1
481.582	3.01
481.935	2.96
482.289	2.94
482.642	3.05
482.995	3
483.348	2.88
483.701	3.15
484.055	2.94
484.408	2.92
484.761	3
485.114	2.78
485.466	2.78
485.819	2.77
486.172	2.76
486.525	2.79
486.878	2.85
487.23	2.82
487.583	2.86
487.936	2.97
488.288	2.82
488.641	2.91
488.993	2.87
489.345	2.91
489.698	2.83
490.05	2.83
490.402	2.88
490.754	2.9
491.107	2.94
491.459	2.88
491.811	2.91
492.163	2.99
492.515	3.09
492.866	2.86
493.218	2.82
493.57	2.88
493.922	2.84
494.274	2.94
494.625	2.92
494.977	3.04
495.328	3.12
495.68	2.96
496.031	3.17
496.383	3.1
496.734	2.96
497.086	3.12
497.437	3.04
497.788	3.01
498.139	3.12
498.49	3.16
498.842	3.02
499.193	3.15
499.544	3.08
499.894	3.02
500.245	3.11
500.596	3.06
500.947	3.09
501.298	3.13
501.648	3.19
501.999	3.08
502.35	3.15
502.7	3.01
503.051	3.04
503.401	3.06
503.752	3.28
504.102	3.14
504.452	3.25
504.803	3.22
505.153	3.06
505.503	3.14
505.853	3.26
506.203	3.16
506.553	3.18
506.903	3.32
507.253	3.19
507.603	3.23
507.953	3.15
508.303	3.11
508.652	3.12
509.002	3.17
509.352	3.12
509.701	3.17
510.051	3.13
510.4	3.21
510.75	3.04
511.099	3.12
511.449	3.25
511.798	3.09
512.147	3.2
512.496	3.17
512.846	3.25
513.195	3.18
513.544	3.27
513.893	3.23
514.242	3.27
514.591	3.14
514.939	3.26
515.288	3.16
515.637	3.16
515.986	3.2
516.334	3.27
516.683	3.28
517.032	3.26
517.38	3.27
517.729	3.28
518.077	3.22
518.426	3.37
518.774	3.3
519.122	3.33
519.47	3.3
519.819	3.12
520.167	3.26
520.515	3.17
520.863	3.23
521.211	3.2
521.559	3.29
521.907	3.22
522.255	3.29
522.602	3.38
522.95	3.3
523.298	3.36
523.645	3.42
523.993	3.42
524.341	3.3
524.688	3.32
525.036	3.35
525.383	3.4
525.73	3.18
526.078	3.33
526.425	3.31
526.772	3.3
527.119	3.33
527.466	3.36
527.814	3.2
528.161	3.42
528.508	3.34
528.854	3.31
529.201	3.27
529.548	3.29
529.895	3.25
530.242	3.2
530.588	3.15
530.935	3.27
531.282	3.27
531.628	3.31
531.975	3.28
532.321	3.31
532.667	3.22
533.014	3.3
533.36	3.39
533.706	3.33
534.052	3.41
534.399	3.44
534.745	3.38
535.091	3.35
535.437	3.37
535.783	3.34
536.129	3.47
536.474	3.44
536.82	3.48
537.166	3.55
537.512	3.46
537.857	3.56
538.203	3.5
538.549	3.54
538.894	3.46
539.239	3.51
539.585	3.47
539.93	3.53
540.276	3.55
540.621	3.6
540.966	3.53
541.311	3.57
541.656	3.71
542.001	3.62
542.346	3.56
542.691	3.47
543.036	3.38
543.381	3.32
543.726	3.5
544.071	3.49
544.415	3.57
544.76	3.59
545.105	3.65
545.449	3.61
545.794	3.68
546.138	3.58
546.483	3.7
546.827	3.74
547.171	3.75
547.516	3.77
547.86	3.8
548.204	3.8
548.548	3.85
548.892	3.8
549.236	3.77
549.58	3.86
549.924	3.91
550.268	3.83
550.612	3.73
550.956	3.82
551.3	4.06
551.643	4.01
551.987	4.1
552.33	3.92
552.674	3.97
553.017	4.13
553.361	4.16
553.704	3.97
554.048	4.02
554.391	3.92
554.734	3.93
555.077	4.15
555.42	3.9
555.764	3.98
556.107	4.11
556.45	3.86
556.793	3.81
557.135	4.04
557.478	4.13
557.821	3.95
558.164	4.18
558.507	4.28
558.849	4.13
559.192	4.32
559.534	4.22
559.877	4.24
560.219	4.33
560.562	4.38
560.904	4.25
561.246	4.17
561.589	4.03
561.931	4.19
562.273	3.98
562.615	4.15
562.957	4.22
563.299	4.42
563.641	4.43
563.983	4.36
564.325	4.33
564.667	4.47
565.008	4.16
565.35	4.03
565.692	4.48
566.033	4.45
566.375	4.29
566.716	4.22
567.058	4.47
567.399	4.5
567.741	4.34
568.082	4.31
568.423	4.38
568.764	4.45
569.105	4.54
569.447	4.5
569.788	4.45
570.129	4.5
570.47	4.55
570.811	4.51
571.151	4.72
571.492	4.57
571.833	4.49
572.174	4.53
572.514	4.68
572.855	4.65
573.195	4.56
573.536	4.43
573.876	4.6
574.217	4.58
574.557	4.65
574.898	4.62
575.238	4.61
575.578	4.59
575.918	4.56
576.258	4.81
576.598	4.64
576.938	4.62
577.278	4.75
577.618	4.9
577.958	4.75
578.298	4.87
578.638	4.65
578.977	4.78
579.317	4.89
579.657	4.86
579.996	5.08
580.336	5.02
580.675	5.01
581.014	4.98
581.354	4.72
581.693	4.77
582.032	4.98
582.372	5.09
582.711	5.25
583.05	5.28
583.389	5.22
583.728	5.18
584.067	5.24
584.406	5.33
584.745	5.44
585.083	5.18
585.422	5.31
585.761	5.39
586.1	4.99
586.438	5.51
586.777	5.37
587.115	5.35
587.454	5.34
587.792	4.87
588.13	5.44
588.469	5.27
588.807	5.18
589.145	5.48
589.483	5.39
589.821	5.53
590.159	5.63
590.497	5.54
590.835	5.33
591.173	5.57
591.511	5.36
591.849	5.42
592.187	5.51
592.524	5.52
592.862	5.47
593.2	5.22
593.537	5.36
593.875	5.64
594.212	5.64
594.55	6.08
594.887	5.81
595.224	5.84
595.561	6.12
595.899	5.59
596.236	5.68
596.573	5.61
596.91	5.9
597.247	5.68
597.584	5.84
597.921	5.71
598.258	5.9
598.594	5.8
598.931	5.78
599.268	5.72
599.604	5.67
599.941	5.77
600.277	5.76
600.614	5.93
600.95	6.07
601.287	5.86
601.623	5.95
601.959	5.91
602.296	6.23
602.632	5.76
602.968	6.04
603.304	6.04
603.64	6.32
603.976	5.75
604.312	6.12
604.648	5.95
604.984	6.11
605.319	6.14
605.655	6.02
605.991	6.11
606.326	5.93
606.662	6.26
606.998	6.05
607.333	6.15
607.668	6.14
608.004	6.06
608.339	6.63
608.674	6.35
609.01	6.23
609.345	6.52
609.68	6.38
610.015	6.39
610.35	6.73
610.685	6.67
611.02	6.49
611.355	6.43
611.689	6.48
612.024	6.34
612.359	6.46
612.694	6.4
613.028	6.64
613.363	6.63
613.697	6.86
614.032	6.55
614.366	7.05
614.7	6.4
615.035	6.65
615.369	6.49
615.703	6.91
616.037	6.71
616.371	6.79
616.705	6.88
617.039	6.92
617.373	6.69
617.707	6.73
618.041	6.63
618.375	6.69
618.709	7.05
619.042	7.21
619.376	6.83
619.71	6.86
620.043	6.83
620.377	7.15
620.71	6.94
621.043	6.95
621.377	7.01
621.71	7.23
622.043	7.04
622.376	7.7
622.709	7.11
623.043	7.2
623.376	7.48
623.709	7.27
624.041	7.35
624.374	7.3
624.707	7.17
625.04	7.26
625.373	7.57
625.705	7.72
626.038	7.49
626.37	7.84
626.703	7.72
627.035	7.33
627.368	7.62
627.7	7.87
628.032	7.51
628.365	7.87
628.697	7.71
629.029	7.45
629.361	7.51
629.693	7.43
630.025	7.17
630.357	7.46
630.689	7.88
631.021	7.99
631.353	8.17
631.684	7.6
632.016	7.8
632.348	7.71
632.679	7.22
633.011	7.9
633.342	7.75
633.674	8.16
634.005	7.9
634.336	7.88
634.668	7.88
634.999	8.09
635.33	8.32
635.661	8
635.992	8.03
636.323	7.74
636.654	8.19
636.985	8.47
637.316	8.14
637.647	8.02
637.977	8.39
638.308	8.1
638.639	8.21
638.969	8.46
639.3	8.21
639.63	8.46
639.961	8.42
640.291	8.14
640.622	8.43
640.952	8.57
641.282	8.16
641.612	8.58
641.943	8.66
642.273	8.55
642.603	9.29
642.933	8.38
643.263	8.15
643.592	9.13
643.922	8.77
644.252	8.67
644.582	8.28
644.911	8.61
645.241	8.65
645.571	9.11
645.9	8.87
646.23	8.58
646.559	8.91
646.888	9.02
647.218	9.05
647.547	8.76
647.876	8.85
648.205	9.24
648.534	9.44
648.863	8.75
649.192	9.54
649.521	8.94
649.85	8.71
650.179	9.55
650.508	9.23
650.837	9.07
651.165	8.6
651.494	9.07
651.822	8.85
652.151	9.93
652.479	9.27
652.808	9.17
653.136	9.28
653.465	9.43
653.793	9.64
654.121	9.47
654.449	9.05
654.777	9.52
655.105	9.57
655.433	9.83
655.761	9.58
656.089	9.38
656.417	9.74
656.745	9.54
657.073	9.29
657.4	9.86
657.728	9.15
658.056	9.66
658.383	9.55
658.711	9.73
659.038	10.13
659.365	9.92
659.693	9.83
660.02	9.55
660.347	9.9
660.674	9.89
661.001	9.58
661.329	9.92
661.656	9.62
661.982	9.63
662.309	9.95
662.636	10.05
662.963	10.12
663.29	10.18
663.616	10.24
663.943	10.24
664.27	10.74
664.596	10.06
664.923	10.46
665.249	9.78
665.576	9.91
665.902	10.52
666.228	10.57
666.554	10.06
666.881	9.46
667.207	10.2
667.533	10.22
667.859	10.42
668.185	10.55
668.511	11.05
668.837	10.97
669.162	11.14
669.488	10.44
669.814	10.48
670.139	10.43
670.465	10.09
670.791	10.82
671.116	10.25
671.442	10.63
671.767	10.44
672.092	10.6
672.418	10.79
672.743	11.07
673.068	10.38
673.393	10.76
673.718	10.64
674.043	10.75
674.368	9.52
674.693	10.69
675.018	10.64
675.343	11.21
675.667	10.6
675.992	10.97
676.317	10.69
676.641	10.67
676.966	10.38
677.29	10.74
677.615	10.78
677.939	11.46
678.264	11.04
678.588	11.01
678.912	11.62
679.236	11.44
679.56	11.03
679.885	11.3
680.209	11.26
680.532	11.37
680.856	10.95
681.18	11.42
681.504	11.35
681.828	11.56
682.152	11.28
682.475	11.52
682.799	11.53
683.122	11.34
683.446	11.42
683.769	12.24
684.093	11.1
684.416	11.03
684.739	11.17
685.062	10.97
685.386	11.67
685.709	11.4
686.032	11.95
686.355	11.51
686.678	12.06
687.001	12.41
687.324	12.23
687.646	11.89
687.969	11.75
688.292	12.17
688.614	12.41
688.937	11.29
689.26	12.02
689.582	11.69
689.904	11.59
690.227	12.52
690.549	11.82
