Data from 0069_forehead_Reflection__4__313.txt Node

Date: Fri Dec 16 16:34:26 CST 2022
User: ToomeyLab
Spectrometer: FLMS14357
Trigger mode: 0
Integration Time (sec): 1.000000E-2
Scans to average: 100
Electric dark correction enabled: true
Nonlinearity correction enabled: false
Boxcar width: 0
XAxis mode: Wavelengths
Number of Pixels in Spectrum: 2048
>>>>>Begin Spectral Data<<<<<
189.047	12.34
189.435	12.34
189.823	12.34
190.211	72.84
190.599	-22.04
190.987	-514.43
191.375	20.76
191.763	67.38
192.151	-537.92
192.538	127.16
192.926	-152.66
193.314	63.18
193.702	-1.35
194.089	-126.74
194.477	14.32
194.864	-21.05
195.252	157.36
195.639	136.72
196.027	-2369.72
196.414	61.25
196.801	235.89
197.189	104.33
197.576	89.07
197.963	-39.16
198.351	50.63
198.738	52.52
199.125	8.94
199.512	-5.06
199.899	-33.74
200.286	-15.23
200.673	73.62
201.06	18.31
201.447	43.55
201.833	30.61
202.22	37.4
202.607	8.23
202.994	86.99
203.38	-8.98
203.767	-6.69
204.154	-18.11
204.54	-26.75
204.927	6.65
205.313	36.67
205.699	14.22
206.086	26.82
206.472	-4.31
206.858	41.09
207.245	46.15
207.631	-13.2
208.017	42.78
208.403	17.49
208.789	13.72
209.175	37.46
209.561	57.64
209.947	28.73
210.333	-2.29
210.719	15.54
211.105	-55.91
211.491	19.5
211.876	68.45
212.262	-30.3
212.648	-34.96
213.034	17.54
213.419	54.37
213.805	-3
214.19	3.39
214.576	-15.56
214.961	19.82
215.346	-44.77
215.732	25.87
216.117	-8.53
216.502	-47.01
216.888	0.87
217.273	30.83
217.658	-28.07
218.043	2.46
218.428	-6.46
218.813	7.16
219.198	11.44
219.583	5.82
219.968	-10.7
220.353	30.06
220.738	-16.25
221.122	-0.95
221.507	8.53
221.892	6.39
222.276	10.31
222.661	0.22
223.046	4.8
223.43	2.57
223.815	2.1
224.199	18.24
224.583	2.08
224.968	7.32
225.352	4.6
225.736	12
226.121	-3.43
226.505	13.92
226.889	8.17
227.273	7.2
227.657	7.43
228.041	4.64
228.425	7.63
228.809	5.53
229.193	4.06
229.577	2.49
229.961	4.4
230.344	4.52
230.728	3.66
231.112	3.45
231.495	2.3
231.879	3.73
232.263	1.89
232.646	4.34
233.03	0.93
233.413	2.87
233.797	4.72
234.18	3.54
234.563	4.2
234.946	3.27
235.33	4.53
235.713	4.02
236.096	4.7
236.479	4.06
236.862	5.18
237.245	5.43
237.628	5.2
238.011	4.56
238.394	5.73
238.777	3.03
239.16	3.61
239.543	2.47
239.925	4.08
240.308	3
240.691	3.89
241.073	4.8
241.456	3.16
241.838	2.46
242.221	3.58
242.603	4.12
242.986	4.25
243.368	3.98
243.75	3.35
244.133	3.5
244.515	3.56
244.897	3.12
245.279	3.84
245.661	3.33
246.043	4.04
246.425	3.63
246.807	3.87
247.189	3.72
247.571	3.41
247.953	3.9
248.335	3.73
248.717	3.68
249.098	3.65
249.48	3.95
249.862	3.75
250.243	3.43
250.625	3.58
251.006	3.88
251.388	3.98
251.769	4.91
252.151	4.14
252.532	3.58
252.913	4.03
253.295	4.12
253.676	4.03
254.057	4.15
254.438	3.36
254.819	4.48
255.2	4.57
255.581	3.44
255.962	3.38
256.343	4.38
256.724	3.89
257.105	3.25
257.486	4.03
257.867	2.9
258.247	4.55
258.628	4.64
259.009	3.42
259.389	4.17
259.77	4.16
260.15	4.09
260.531	3.98
260.911	3.77
261.292	3.51
261.672	3.57
262.052	3.61
262.432	3.92
262.813	3.69
263.193	3.11
263.573	4.08
263.953	3.18
264.333	3.63
264.713	2.87
265.093	3.75
265.473	5.12
265.853	3.65
266.233	3.47
266.612	3.99
266.992	3.74
267.372	3.79
267.752	3.33
268.131	3.58
268.511	3.9
268.89	4
269.27	3.83
269.649	4.23
270.029	4.33
270.408	3.84
270.787	3.79
271.167	4.19
271.546	3.07
271.925	3.96
272.304	3.71
272.683	3.56
273.062	3.54
273.441	3.73
273.82	3.95
274.199	4.03
274.578	3.22
274.957	3.31
275.336	3.63
275.715	4.17
276.093	3.98
276.472	3.24
276.851	3.29
277.229	3.73
277.608	3.5
277.986	3.67
278.365	3.25
278.743	3.82
279.122	3.5
279.5	3.21
279.878	3.1
280.257	4.51
280.635	3.15
281.013	4.35
281.391	4.22
281.769	3.53
282.147	3.51
282.525	3.67
282.903	3.51
283.281	3.49
283.659	3.74
284.037	3.96
284.415	3.82
284.792	3.87
285.17	3.81
285.548	3.78
285.925	3.76
286.303	3.48
286.68	4.05
287.058	3.61
287.435	3.28
287.813	3.55
288.19	3.98
288.567	3.67
288.945	3.76
289.322	3.54
289.699	3.78
290.076	3.94
290.453	3.82
290.83	3.84
291.207	3.82
291.584	3.9
291.961	3.93
292.338	3.84
292.715	3.87
293.092	3.96
293.469	4.36
293.845	4.27
294.222	3.57
294.599	4.05
294.975	4.62
295.352	4.06
295.728	4.51
296.105	4.35
296.481	4.59
296.858	4.27
297.234	4.39
297.61	4.33
297.986	4.11
298.363	4.1
298.739	4.27
299.115	3.98
299.491	4.33
299.867	4.39
300.243	4.13
300.619	4.54
300.995	4.24
301.371	4.91
301.746	4.23
302.122	4.93
302.498	4.84
302.874	4.62
303.249	4.72
303.625	4.54
304	4.86
304.376	5.15
304.751	4.56
305.127	4.57
305.502	5.12
305.878	4.82
306.253	4.67
306.628	5.39
307.003	5.35
307.378	4.72
307.754	5.66
308.129	5.1
308.504	4.81
308.879	5.14
309.254	5.62
309.629	5.4
310.003	5.53
310.378	5.43
310.753	5.34
311.128	5.6
311.502	5.56
311.877	5.64
312.252	5.72
312.626	5.28
313.001	5.84
313.375	5.9
313.75	5.63
314.124	6.32
314.498	5.97
314.873	5.8
315.247	5.79
315.621	5.93
315.995	5.72
316.369	6.15
316.743	6.66
317.117	6.5
317.491	6.46
317.865	5.71
318.239	6.57
318.613	5.89
318.987	6.49
319.361	6.61
319.734	7.01
320.108	6.44
320.482	7
320.855	6.64
321.229	7.06
321.602	6.94
321.976	6.5
322.349	6.31
322.723	7.17
323.096	6.43
323.469	6.73
323.843	6.8
324.216	7.08
324.589	7.35
324.962	7.18
325.335	6.91
325.708	7.57
326.081	7.62
326.454	7.51
326.827	7.52
327.2	7.68
327.573	7.49
327.945	7.27
328.318	8.02
328.691	7.48
329.063	7.95
329.436	7.86
329.809	7.83
330.181	8.38
330.553	8
330.926	7.65
331.298	7.64
331.671	8.25
332.043	8.22
332.415	8.34
332.787	9.23
333.159	8.32
333.532	8.12
333.904	7.98
334.276	8.47
334.648	8.55
335.02	8.36
335.391	8.46
335.763	8.65
336.135	9.34
336.507	8.75
336.879	8.8
337.25	8.62
337.622	8.97
337.993	9.07
338.365	9.12
338.736	8.93
339.108	8.73
339.479	8.92
339.851	9.3
340.222	9.66
340.593	9
340.964	9.31
341.336	8.76
341.707	9.66
342.078	9.54
342.449	9.7
342.82	9.49
343.191	9.53
343.562	9.74
343.933	9.52
344.303	9.9
344.674	9.88
345.045	10.33
345.416	9.87
345.786	9.27
346.157	10.04
346.527	9.78
346.898	9.95
347.268	9.75
347.639	9.86
348.009	10.55
348.38	10.23
348.75	10.34
349.12	10.83
349.49	10.17
349.861	10.88
350.231	10.86
350.601	10.76
350.971	10.58
351.341	10.83
351.711	10.9
352.081	10.41
352.45	10.79
352.82	10.72
353.19	10.92
353.56	10.79
353.929	10.81
354.299	11.14
354.669	11.54
355.038	11.34
355.408	11.71
355.777	11.02
356.147	11.38
356.516	11.84
356.885	11.53
357.254	12.29
357.624	11.74
357.993	11.69
358.362	11.97
358.731	11.68
359.1	12.13
359.469	11.74
359.838	11.58
360.207	11.87
360.576	12
360.945	12.22
361.314	12.13
361.682	11.97
362.051	12.12
362.42	12.47
362.788	12.25
363.157	12.13
363.525	11.91
363.894	12.04
364.262	12.15
364.631	13.07
364.999	12.3
365.367	13.24
365.735	12.82
366.104	12.7
366.472	13.15
366.84	13.33
367.208	12.9
367.576	13.18
367.944	13.24
368.312	12.59
368.68	13.72
369.048	13.3
369.416	13.23
369.783	13.43
370.151	13.56
370.519	13.24
370.886	13.78
371.254	13.71
371.621	13.56
371.989	14.05
372.356	13.97
372.724	13.84
373.091	13.93
373.458	13.78
373.826	14.21
374.193	14.43
374.56	14.1
374.927	13.84
375.294	14.38
375.661	14.6
376.028	14.65
376.395	14.19
376.762	14.57
377.129	14.64
377.496	14.45
377.863	14.62
378.229	14.76
378.596	14.8
378.963	14.82
379.329	14.84
379.696	14.78
380.062	15.1
380.429	15
380.795	14.94
381.161	15
381.528	15.1
381.894	15.36
382.26	15.44
382.626	15.32
382.993	15.33
383.359	15.37
383.725	15.77
384.091	16.02
384.457	15.89
384.823	15.94
385.188	16.03
385.554	15.95
385.92	16.2
386.286	16.23
386.651	15.84
387.017	16.28
387.383	16
387.748	16.11
388.114	16.72
388.479	16.3
388.845	16.36
389.21	16.54
389.575	16.53
389.94	16.35
390.306	16.92
390.671	16.91
391.036	17.13
391.401	17.31
391.766	17.2
392.131	16.97
392.496	17.13
392.861	16.92
393.226	17.22
393.591	17.29
393.956	17.37
394.32	17.12
394.685	17.37
395.05	17.53
395.414	17.63
395.779	17.46
396.143	17.61
396.508	17.78
396.872	17.78
397.236	17.61
397.601	17.81
397.965	17.63
398.329	18.34
398.694	18.06
399.058	18.31
399.422	18.43
399.786	18.25
400.15	18.26
400.514	18.44
400.878	18.14
401.242	18.58
401.605	18.5
401.969	18.62
402.333	18.53
402.697	18.96
403.06	18.79
403.424	19.08
403.787	18.98
404.151	18.94
404.514	19.17
404.878	19.1
405.241	19.1
405.604	19.17
405.968	19.2
406.331	19.2
406.694	19.32
407.057	19.44
407.42	19.32
407.783	19.3
408.146	19.33
408.509	19.64
408.872	19.66
409.235	19.63
409.598	20.02
409.961	19.98
410.323	20.07
410.686	20.21
411.049	19.94
411.411	20.6
411.774	20.13
412.136	20.42
412.499	20.44
412.861	20.3
413.223	20.57
413.586	20.34
413.948	20.77
414.31	21.04
414.672	20.69
415.035	21.04
415.397	21.04
415.759	20.8
416.121	21.2
416.483	20.96
416.845	21.22
417.206	21.14
417.568	21.07
417.93	21.11
418.292	20.97
418.653	21.25
419.015	21.29
419.377	21.3
419.738	21.21
420.1	21.17
420.461	21.42
420.822	21.4
421.184	21.28
421.545	21.38
421.906	21.51
422.267	21.5
422.629	21.47
422.99	21.34
423.351	21.51
423.712	21.53
424.073	21.69
424.434	21.83
424.795	21.82
425.155	22.01
425.516	21.79
425.877	21.85
426.238	21.87
426.598	22.07
426.959	22.05
427.32	22.2
427.68	22.31
428.041	22.6
428.401	22.52
428.761	22.55
429.122	22.54
429.482	22.72
429.842	23.1
430.202	23.16
430.563	23.2
430.923	23.15
431.283	23.53
431.643	23.23
432.003	23.39
432.363	23.57
432.722	23.59
433.082	23.5
433.442	23.7
433.802	23.67
434.161	23.56
434.521	23.63
434.881	23.71
435.24	23.68
435.6	23.66
435.959	23.8
436.319	23.82
436.678	23.97
437.037	24.03
437.396	24.22
437.756	24.12
438.115	24.28
438.474	24.26
438.833	24.56
439.192	24.69
439.551	24.78
439.91	24.69
440.269	24.54
440.628	24.67
440.987	24.44
441.345	24.75
441.704	24.62
442.063	24.73
442.421	24.78
442.78	24.71
443.138	24.73
443.497	24.8
443.855	24.77
444.214	25.13
444.572	24.88
444.93	25.37
445.288	25.37
445.647	25.51
446.005	25.41
446.363	25.55
446.721	25.32
447.079	25.45
447.437	25.5
447.795	25.39
448.153	25.24
448.51	25.44
448.868	25.49
449.226	25.54
449.584	25.53
449.941	25.8
450.299	25.94
450.656	26.1
451.014	26.07
451.371	26.15
451.729	26.28
452.086	26.25
452.443	26.23
452.801	26.58
453.158	26.73
453.515	26.68
453.872	26.96
454.229	26.86
454.586	26.93
454.943	26.76
455.3	27.14
455.657	26.9
456.014	27.36
456.371	27.1
456.727	27.03
457.084	27.33
457.441	27.32
457.797	27.42
458.154	27.41
458.51	27.59
458.867	27.66
459.223	27.8
459.58	27.82
459.936	27.8
460.292	27.86
460.648	27.71
461.005	27.58
461.361	27.51
461.717	27.39
462.073	27.47
462.429	27.46
462.785	27.54
463.141	27.92
463.496	27.72
463.852	28.12
464.208	28.43
464.564	28.44
464.919	28.44
465.275	28.55
465.631	28.79
465.986	28.83
466.342	28.91
466.697	28.79
467.052	29.02
467.408	28.81
467.763	28.88
468.118	29.06
468.473	29.17
468.829	29.18
469.184	29.18
469.539	28.95
469.894	29.09
470.249	29.21
470.603	29.54
470.958	29.67
471.313	29.66
471.668	29.65
472.023	29.63
472.377	29.66
472.732	29.72
473.086	29.96
473.441	29.96
473.795	29.92
474.15	30.14
474.504	30.1
474.859	30.21
475.213	30.13
475.567	30.09
475.921	30.37
476.275	30.17
476.63	30.38
476.984	30.62
477.338	30.79
477.692	30.44
478.045	30.56
478.399	30.61
478.753	30.58
479.107	30.73
479.461	30.66
479.814	30.76
480.168	30.67
480.521	30.76
480.875	31.06
481.228	30.91
481.582	30.92
481.935	31.09
482.289	31.06
482.642	31.42
482.995	31.01
483.348	31.08
483.701	30.94
484.055	31.01
484.408	30.96
484.761	30.77
485.114	30.88
485.466	30.66
485.819	30.08
486.172	29.73
486.525	29.79
486.878	30.09
487.23	30.55
487.583	30.83
487.936	31.22
488.288	31.41
488.641	31.2
488.993	30.98
489.345	30.99
489.698	30.93
490.05	30.8
490.402	30.9
490.754	31.12
491.107	31.43
491.459	31.76
491.811	31.92
492.163	32.01
492.515	32.21
492.866	32.03
493.218	31.83
493.57	31.5
493.922	31.33
494.274	31.51
494.625	31.77
494.977	32.06
495.328	32.49
495.68	32.95
496.031	32.84
496.383	33.02
496.734	33.28
497.086	33.18
497.437	33.46
497.788	33.45
498.139	33.33
498.49	33.16
498.842	33.15
499.193	33.2
499.544	33.41
499.894	33.38
500.245	33.54
500.596	33.43
500.947	33.55
501.298	33.7
501.648	33.81
501.999	34.06
502.35	34.16
502.7	34.1
503.051	34.12
503.401	34.14
503.752	34.46
504.102	34.28
504.452	34.48
504.803	34.24
505.153	34.53
505.503	34.66
505.853	34.63
506.203	34.65
506.553	34.68
506.903	34.74
507.253	35.06
507.603	34.89
507.953	34.95
508.303	34.78
508.652	34.92
509.002	35.14
509.352	35.06
509.701	34.99
510.051	35.27
510.4	34.96
510.75	35.01
511.099	35.06
511.449	34.99
511.798	34.99
512.147	35.31
512.496	35.4
512.846	35.27
513.195	35.54
513.544	35.48
513.893	35.4
514.242	35.55
514.591	35.55
514.939	35.67
515.288	35.91
515.637	35.89
515.986	35.93
516.334	36.02
516.683	36.14
517.032	36.2
517.38	36.31
517.729	36.38
518.077	36.51
518.426	36.31
518.774	36.45
519.122	36.54
519.47	36.29
519.819	36.29
520.167	36.28
520.515	36.05
520.863	35.97
521.211	36.14
521.559	36.19
521.907	36.38
522.255	36.56
522.602	36.69
522.95	36.83
523.298	37.09
523.645	36.73
523.993	37.04
524.341	37.2
524.688	37.26
525.036	37.19
525.383	37.5
525.73	37.48
526.078	37.42
526.425	37.38
526.772	37.23
527.119	37.17
527.466	37.04
527.814	36.88
528.161	36.81
528.508	37.12
528.854	37.06
529.201	37.28
529.548	37.32
529.895	37.35
530.242	37.27
530.588	36.66
530.935	36.13
531.282	36.16
531.628	36.48
531.975	36.86
532.321	37.28
532.667	37.43
533.014	37.47
533.36	37.72
533.706	38.06
534.052	37.86
534.399	37.95
534.745	37.88
535.091	37.71
535.437	37.38
535.783	37.41
536.129	37.54
536.474	37.85
536.82	38.06
537.166	38.44
537.512	38.54
537.857	38.82
538.203	38.67
538.549	38.39
538.894	38.24
539.239	38.39
539.585	38.55
539.93	38.82
540.276	39.1
540.621	39.3
540.966	39.4
541.311	39.37
541.656	39.44
542.001	39.45
542.346	39.35
542.691	39.1
543.036	38.8
543.381	38.51
543.726	38.25
544.071	38.55
544.415	38.72
544.76	38.92
545.105	39.06
545.449	39.11
545.794	39.19
546.138	39.68
546.483	39.66
546.827	39.89
547.171	39.98
547.516	40
547.86	40.06
548.204	40.05
548.548	39.89
548.892	40.19
549.236	39.79
549.58	40.26
549.924	40.27
550.268	40.5
550.612	40.69
550.956	40.68
551.3	40.93
551.643	41
551.987	40.94
552.33	41.22
552.674	41.48
553.017	41.21
553.361	41.45
553.704	41.3
554.048	41.68
554.391	41.15
554.734	41.27
555.077	41.2
555.42	41.39
555.764	41.6
556.107	41.56
556.45	41.63
556.793	41.55
557.135	42.08
557.478	42.04
557.821	41.81
558.164	42.19
558.507	42.25
558.849	42.03
559.192	42.03
559.534	42.13
559.877	42.31
560.219	42.27
560.562	42.24
560.904	42.53
561.246	42.68
561.589	42.77
561.931	42.52
562.273	42.49
562.615	42.43
562.957	42.82
563.299	42.65
563.641	42.87
563.983	42.59
564.325	42.62
564.667	42.93
565.008	42.93
565.35	43.12
565.692	43.12
566.033	43.24
566.375	43.14
566.716	43.73
567.058	43.39
567.399	43.25
567.741	43.11
568.082	43
568.423	43.14
568.764	42.95
569.105	43.16
569.447	43.27
569.788	43.24
570.129	43.45
570.47	43.6
570.811	43.65
571.151	43.67
571.492	43.7
571.833	43.57
572.174	43.59
572.514	43.81
572.855	43.65
573.195	43.56
573.536	43.73
573.876	43.82
574.217	43.69
574.557	43.66
574.898	43.74
575.238	43.67
575.578	43.97
575.918	44.29
576.258	44.21
576.598	44.34
576.938	44.42
577.278	44
577.618	44.48
577.958	44.31
578.298	44.3
578.638	44
578.977	44.68
579.317	44.58
579.657	44.79
579.996	44.69
580.336	44.53
580.675	44.89
581.014	45.02
581.354	45.01
581.693	45.12
582.032	45.31
582.372	45.35
582.711	45.32
583.05	45.47
583.389	45.48
583.728	45.38
584.067	45.76
584.406	45.39
584.745	45.54
585.083	45.42
585.422	45.32
585.761	45.56
586.1	46.07
586.438	45.79
586.777	45.92
587.115	45.98
587.454	45.8
587.792	46.21
588.13	46.36
588.469	45.92
588.807	46.05
589.145	46.26
589.483	46.27
589.821	46.32
590.159	46.29
590.497	46.17
590.835	46.38
591.173	46.36
591.511	46.56
591.849	46.64
592.187	46.33
592.524	46.42
592.862	46.62
593.2	46.14
593.537	46.55
593.875	47.05
594.212	46.91
594.55	46.87
594.887	47.16
595.224	47.1
595.561	46.92
595.899	47.36
596.236	47.13
596.573	46.6
596.91	46.83
597.247	47.09
597.584	47.09
597.921	47.07
598.258	47.15
598.594	46.87
598.931	46.81
599.268	46.65
599.604	46.97
599.941	46.87
600.277	46.93
600.614	47.39
600.95	47
601.287	47.61
601.623	47.45
601.959	47.21
602.296	47.54
602.632	47.92
602.968	47.81
603.304	47.84
603.64	47.8
603.976	47.93
604.312	48.16
604.648	48.06
604.984	47.75
605.319	47.85
605.655	47.56
605.991	47.93
606.326	47.89
606.662	47.47
606.998	47.15
607.333	47.45
607.668	48.05
608.004	47.74
608.339	47.77
608.674	47.98
609.01	48.31
609.345	48.42
609.68	48.3
610.015	48.64
610.35	48.83
610.685	48.96
611.02	48.81
611.355	48.47
611.689	48.5
612.024	48.43
612.359	48.18
612.694	48.76
613.028	48.37
613.363	48.55
613.697	48.65
614.032	48.89
614.366	49.16
614.7	49.54
615.035	48.75
615.369	49.06
615.703	49.44
616.037	48.89
616.371	49.27
616.705	49.41
617.039	49.41
617.373	49.42
617.707	49.45
618.041	49.56
618.375	49.68
618.709	49.73
619.042	49.44
619.376	49.56
619.71	49.67
620.043	49.88
620.377	49.66
620.71	49.93
621.043	49.58
621.377	49.68
621.71	50.16
622.043	50.16
622.376	49.89
622.709	50.39
623.043	49.86
623.376	50.17
623.709	50.4
624.041	50.21
624.374	49.75
624.707	50
625.04	50.7
625.373	50.15
625.705	50.18
626.038	50.6
626.37	50.05
626.703	50.67
627.035	50.65
627.368	50.74
627.7	51.16
628.032	50.62
628.365	50.52
628.697	50.73
629.029	50.83
629.361	50.34
629.693	50.51
630.025	50.39
630.357	50.32
630.689	51.33
631.021	50.91
631.353	51.12
631.684	51.22
632.016	50.88
632.348	51.13
632.679	51.3
633.011	51.44
633.342	51.16
633.674	51.12
634.005	50.99
634.336	51.18
634.668	51.35
634.999	51.12
635.33	51.71
635.661	51.69
635.992	51.31
636.323	51.62
636.654	50.8
636.985	51.33
637.316	51.51
637.647	51.85
637.977	51.56
638.308	51.91
638.639	52.01
638.969	51.43
639.3	51.92
639.63	51.39
639.961	52.31
640.291	52.33
640.622	52.21
640.952	52.55
641.282	51.86
641.612	52
641.943	52.4
642.273	52.12
642.603	51.98
642.933	52.33
643.263	52.61
643.592	52.16
643.922	52.58
644.252	52.38
644.582	51.91
644.911	52.43
645.241	52.4
645.571	52.32
645.9	52.52
646.23	52.96
646.559	52.42
646.888	52.22
647.218	53.07
647.547	53.04
647.876	52.42
648.205	52.3
648.534	52.49
648.863	53.51
649.192	53.37
649.521	53.74
649.85	53.07
650.179	52.72
650.508	53.13
650.837	53.7
651.165	53.31
651.494	53.63
651.822	53.51
652.151	53.13
652.479	53.11
652.808	53.55
653.136	52.97
653.465	53.68
653.793	53
654.121	53.08
654.449	52.94
654.777	53.41
655.105	53.1
655.433	53.54
655.761	53.16
656.089	53.68
656.417	54.01
656.745	53.41
657.073	53.66
657.4	53.84
657.728	54.05
658.056	53.17
658.383	53.26
658.711	53.73
659.038	53.84
659.365	53.98
659.693	53.42
660.02	53.76
660.347	54.2
660.674	54.13
661.001	54.05
661.329	53.8
661.656	53.65
661.982	53.93
662.309	53.76
662.636	54.26
662.963	53.66
663.29	53.85
663.616	53.87
663.943	54.25
664.27	54.63
664.596	54.53
664.923	54.21
665.249	53.67
665.576	54.85
665.902	54.42
666.228	54.37
666.554	54.24
666.881	54.34
667.207	54.11
667.533	54.51
667.859	54.56
668.185	54.65
668.511	54.29
668.837	54.84
669.162	54.2
669.488	54.7
669.814	54.67
670.139	54.54
670.465	55.2
670.791	54.75
671.116	55.64
671.442	54.32
