Data from 0069_chest_Reflection__2__301.txt Node

Date: Fri Dec 16 16:30:42 CST 2022
User: ToomeyLab
Spectrometer: FLMS14357
Trigger mode: 0
Integration Time (sec): 1.000000E-2
Scans to average: 100
Electric dark correction enabled: true
Nonlinearity correction enabled: false
Boxcar width: 0
XAxis mode: Wavelengths
Number of Pixels in Spectrum: 2048
>>>>>Begin Spectral Data<<<<<
189.047	78.63
189.435	78.63
189.823	78.63
190.211	367.09
190.599	-26.44
190.987	1336.77
191.375	52.99
191.763	37.07
192.151	1117.47
192.538	57.38
192.926	-55.77
193.314	109.3
193.702	-64.61
194.089	88.58
194.477	-217.55
194.864	-25.06
195.252	-202.67
195.639	108.48
196.027	-4743.12
196.414	1.8
196.801	-385.01
197.189	58.87
197.576	11.21
197.963	48.29
198.351	-66.15
198.738	-66.36
199.125	12.08
199.512	9.56
199.899	-61.29
200.286	-37.08
200.673	4.26
201.06	20.56
201.447	27.94
201.833	53.06
202.22	48.43
202.607	17.76
202.994	48.72
203.38	-38.82
203.767	-83.46
204.154	-59.79
204.54	52.66
204.927	1.47
205.313	8.64
205.699	-6.15
206.086	-68.61
206.472	-38.51
206.858	17.92
207.245	19.51
207.631	-49.03
208.017	29.93
208.403	23.14
208.789	-0.77
209.175	29.27
209.561	1.21
209.947	-10.99
210.333	2.24
210.719	17.82
211.105	-231
211.491	10.48
211.876	11.49
212.262	-46.49
212.648	-25.25
213.034	-9.96
213.419	-1.47
213.805	-13.67
214.19	-31.93
214.576	-7.27
214.961	-19.14
215.346	-11.51
215.732	7.9
216.117	1.91
216.502	-26.84
216.888	-19.41
217.273	5.31
217.658	-46.93
218.043	-11
218.428	3.36
218.813	-12.79
219.198	-28.28
219.583	-10.64
219.968	-14.85
220.353	-5.51
220.738	-13.63
221.122	-45.26
221.507	-16.63
221.892	4.07
222.276	14.63
222.661	-5.66
223.046	-10.55
223.43	0.76
223.815	-5.46
224.199	2.38
224.583	5.07
224.968	-4.06
225.352	-7.9
225.736	1.91
226.121	0.77
226.505	5.63
226.889	7.44
227.273	8.51
227.657	-1.47
228.041	3.7
228.425	2.9
228.809	3.4
229.193	2.36
229.577	2.96
229.961	3.94
230.344	3.87
230.728	3.77
231.112	3.03
231.495	3.85
231.879	2.72
232.263	2.46
232.646	2.58
233.03	2.29
233.413	1.97
233.797	5.36
234.18	0.12
234.563	3.33
234.946	3.4
235.33	3.86
235.713	2.9
236.096	3.15
236.479	3.35
236.862	3.68
237.245	4.48
237.628	4.75
238.011	3.93
238.394	6.1
238.777	4.18
239.16	2.28
239.543	2.3
239.925	5.73
240.308	4.38
240.691	3.23
241.073	4.05
241.456	2.63
241.838	3.24
242.221	3.83
242.603	3.21
242.986	3.99
243.368	3.61
243.75	3.31
244.133	3.62
244.515	3.76
244.897	3.34
245.279	3.55
245.661	3.65
246.043	4.06
246.425	2.93
246.807	3.82
247.189	3.72
247.571	4.12
247.953	3.88
248.335	3.97
248.717	3.78
249.098	3.85
249.48	3.57
249.862	4.04
250.243	3.96
250.625	4.17
251.006	4.18
251.388	4.59
251.769	3.43
252.151	4.09
252.532	3.06
252.913	4.27
253.295	4
253.676	3.97
254.057	3.48
254.438	3.13
254.819	3.96
255.2	2.67
255.581	3.52
255.962	3.08
256.343	2.84
256.724	3.25
257.105	4.78
257.486	2.68
257.867	2.79
258.247	3.4
258.628	4.11
259.009	2.75
259.389	3.82
259.77	3.39
260.15	4.67
260.531	3.3
260.911	3.8
261.292	3.6
261.672	3.59
262.052	3.52
262.432	3.44
262.813	3.17
263.193	3.34
263.573	2.92
263.953	3.87
264.333	3.15
264.713	2.65
265.093	3.46
265.473	4.48
265.853	3.42
266.233	2.13
266.612	3.54
266.992	3.61
267.372	3.9
267.752	2.93
268.131	4.16
268.511	3.48
268.89	3.42
269.27	3.46
269.649	3.82
270.029	3.56
270.408	3.36
270.787	3.07
271.167	3.19
271.546	2.88
271.925	4.05
272.304	3.38
272.683	3.38
273.062	3.81
273.441	4.12
273.82	3.68
274.199	3.49
274.578	2.89
274.957	3.65
275.336	3.48
275.715	3.98
276.093	3.75
276.472	3.43
276.851	3.75
277.229	3.97
277.608	3.52
277.986	3.68
278.365	3.55
278.743	3.94
279.122	3.19
279.5	2.97
279.878	2.87
280.257	4.03
280.635	3.07
281.013	3.56
281.391	3.67
281.769	3.24
282.147	2.72
282.525	3.28
282.903	3.48
283.281	3.43
283.659	3.67
284.037	3.31
284.415	3.33
284.792	3.51
285.17	3.15
285.548	3.21
285.925	3.31
286.303	3.22
286.68	3.46
287.058	3.59
287.435	3.22
287.813	3.6
288.19	3.65
288.567	2.97
288.945	3.52
289.322	3.37
289.699	3.54
290.076	3.99
290.453	3.26
290.83	3.68
291.207	3.51
291.584	3.27
291.961	3.67
292.338	3.7
292.715	3.66
293.092	3.62
293.469	3.85
293.845	3.94
294.222	4.2
294.599	4.39
294.975	3.68
295.352	3.41
295.728	3.51
296.105	3.46
296.481	3.9
296.858	3.78
297.234	3.87
297.61	3.92
297.986	3.7
298.363	3.45
298.739	3.98
299.115	3.42
299.491	3.73
299.867	3.99
300.243	3.73
300.619	3.97
300.995	3.69
301.371	3.72
301.746	3.66
302.122	3.85
302.498	4.24
302.874	4.15
303.249	4.12
303.625	3.76
304	3.51
304.376	3.73
304.751	4.03
305.127	3.91
305.502	4.23
305.878	3.69
306.253	3.54
306.628	4.04
307.003	3.87
307.378	3.5
307.754	4.17
308.129	3.56
308.504	3.18
308.879	4.14
309.254	4.23
309.629	3.96
310.003	4.38
310.378	4.34
310.753	4.03
311.128	3.81
311.502	3.54
311.877	3.83
312.252	3.75
312.626	3.9
313.001	3.71
313.375	3.63
313.75	3.77
314.124	4.31
314.498	3.9
314.873	3.64
315.247	3.44
315.621	4.04
315.995	3.96
316.369	4.29
316.743	4.08
317.117	4.37
317.491	3.55
317.865	3.55
318.239	4.33
318.613	4.01
318.987	3.74
319.361	3.97
319.734	4.1
320.108	3.78
320.482	3.66
320.855	3.54
321.229	3.82
321.602	3.56
321.976	3.49
322.349	3.19
322.723	3.17
323.096	3.83
323.469	3.53
323.843	4.31
324.216	3.14
324.589	4.24
324.962	4.3
325.335	4.02
325.708	4.18
326.081	4.25
326.454	3.8
326.827	3.99
327.2	4.13
327.573	4.38
327.945	4.13
328.318	3.76
328.691	3.86
329.063	3.73
329.436	3.94
329.809	3.49
330.181	4.31
330.553	4.18
330.926	3.89
331.298	3.54
331.671	4.08
332.043	3.81
332.415	3.92
332.787	4.18
333.159	4.07
333.532	4.19
333.904	3.6
334.276	4.15
334.648	3.59
335.02	3.68
335.391	3.59
335.763	3.66
336.135	4.04
336.507	4.54
336.879	4.29
337.25	3.93
337.622	4.87
337.993	4.04
338.365	4
338.736	4.13
339.108	3.87
339.479	3.7
339.851	4.33
340.222	4.4
340.593	3.62
340.964	3.97
341.336	3.48
341.707	4
342.078	3.63
342.449	4.17
342.82	3.81
343.191	3.79
343.562	3.79
343.933	4.01
344.303	4.36
344.674	4.17
345.045	4.11
345.416	3.85
345.786	3.57
346.157	3.52
346.527	3.51
346.898	4.23
347.268	4.08
347.639	3.93
348.009	4.34
348.38	3.8
348.75	4.25
349.12	4.57
349.49	3.96
349.861	4.38
350.231	3.92
350.601	4.12
350.971	4.17
351.341	4.48
351.711	4.43
352.081	4.46
352.45	4.42
352.82	4.02
353.19	4.37
353.56	4.47
353.929	4.38
354.299	3.53
354.669	4.09
355.038	4.41
355.408	4.52
355.777	4.24
356.147	4.11
356.516	4.45
356.885	4.06
357.254	4.09
357.624	4.16
357.993	4.24
358.362	4.31
358.731	4.1
359.1	4.4
359.469	4.24
359.838	3.74
360.207	4.01
360.576	4.39
360.945	3.86
361.314	4.28
361.682	3.98
362.051	4.08
362.42	4.56
362.788	4.28
363.157	3.91
363.525	4.15
363.894	3.91
364.262	4.01
364.631	4.63
364.999	3.84
365.367	4.31
365.735	3.89
366.104	3.97
366.472	4.44
366.84	4.27
367.208	3.82
367.576	4.01
367.944	4.32
368.312	3.75
368.68	4.24
369.048	4.16
369.416	3.93
369.783	4.37
370.151	4.2
370.519	3.7
370.886	4.23
371.254	4.26
371.621	4.29
371.989	4.19
372.356	4.35
372.724	4.41
373.091	4.29
373.458	4.31
373.826	4.22
374.193	4.56
374.56	4.01
374.927	4.18
375.294	4.47
375.661	4.23
376.028	4.5
376.395	4.22
376.762	4.6
377.129	4.21
377.496	4.23
377.863	4.07
378.229	4.08
378.596	3.98
378.963	4.34
379.329	4.21
379.696	4.2
380.062	4.47
380.429	4.11
380.795	4.07
381.161	4.36
381.528	3.78
381.894	4.25
382.26	4.29
382.626	4.17
382.993	3.99
383.359	4.13
383.725	4.26
384.091	4.13
384.457	4.55
384.823	4.33
385.188	4.46
385.554	4.37
385.92	4.56
386.286	4.5
386.651	4.49
387.017	4.38
387.383	4.5
387.748	4.12
388.114	4.59
388.479	4.24
388.845	4.51
389.21	4.25
389.575	4.34
389.94	4.47
390.306	4.08
390.671	4.23
391.036	4.44
391.401	4.47
391.766	4.35
392.131	4.4
392.496	4.34
392.861	4.39
393.226	4.3
393.591	4.42
393.956	4.43
394.32	4.28
394.685	4.62
395.05	4.32
395.414	4.42
395.779	4.26
396.143	4.29
396.508	4.58
396.872	4.56
397.236	4.19
397.601	4.66
397.965	4.28
398.329	4.59
398.694	4.44
399.058	4.55
399.422	4.4
399.786	4.57
400.15	4.43
400.514	4.15
400.878	4.4
401.242	4.6
401.605	4.39
401.969	4.47
402.333	4.45
402.697	4.82
403.06	4.67
403.424	4.46
403.787	4.61
404.151	3.97
404.514	4.53
404.878	4.57
405.241	4.46
405.604	4.4
405.968	4.4
406.331	4.39
406.694	4.46
407.057	4.49
407.42	4.51
407.783	4.47
408.146	4.36
408.509	4.36
408.872	4.31
409.235	4.49
409.598	4.8
409.961	4.34
410.323	4.36
410.686	4.56
411.049	4.46
411.411	4.6
411.774	4.48
412.136	4.38
412.499	4.4
412.861	4.23
413.223	4.72
413.586	4.27
413.948	4.84
414.31	4.48
414.672	4.46
415.035	4.31
415.397	4.31
415.759	4.36
416.121	4.74
416.483	4.56
416.845	4.56
417.206	4.59
417.568	4.65
417.93	4.52
418.292	4.52
418.653	4.54
419.015	4.59
419.377	4.55
419.738	4.44
420.1	4.48
420.461	4.44
420.822	4.52
421.184	4.54
421.545	4.52
421.906	4.56
422.267	4.46
422.629	4.45
422.99	4.47
423.351	4.6
423.712	4.44
424.073	4.48
424.434	4.49
424.795	4.58
425.155	4.51
425.516	4.38
425.877	4.5
426.238	4.37
426.598	4.52
426.959	4.37
427.32	4.61
427.68	4.64
428.041	4.67
428.401	4.56
428.761	4.55
429.122	4.45
429.482	4.5
429.842	4.62
430.202	4.51
430.563	4.53
430.923	4.67
431.283	4.56
431.643	4.53
432.003	4.68
432.363	4.79
432.722	4.72
433.082	4.72
433.442	4.61
433.802	4.71
434.161	4.5
434.521	4.63
434.881	4.71
435.24	4.51
435.6	4.57
435.959	4.54
436.319	4.61
436.678	4.66
437.037	4.74
437.396	4.58
437.756	4.65
438.115	4.63
438.474	4.72
438.833	4.72
439.192	4.79
439.551	4.74
439.91	4.66
440.269	4.89
440.628	4.7
440.987	4.59
441.345	4.61
441.704	4.77
442.063	4.59
442.421	4.67
442.78	4.71
443.138	4.64
443.497	4.54
443.855	4.79
444.214	4.75
444.572	4.61
444.93	4.81
445.288	4.68
445.647	4.77
446.005	4.64
446.363	4.76
446.721	4.73
447.079	4.76
447.437	4.67
447.795	4.6
448.153	4.73
448.51	4.7
448.868	4.66
449.226	4.73
449.584	4.68
449.941	4.75
450.299	4.7
450.656	4.76
451.014	4.77
451.371	4.75
451.729	4.66
452.086	4.71
452.443	4.63
452.801	4.84
453.158	4.96
453.515	4.73
453.872	4.92
454.229	4.81
454.586	4.74
454.943	4.88
455.3	4.93
455.657	4.78
456.014	5.01
456.371	4.9
456.727	4.75
457.084	4.81
457.441	4.7
457.797	5.01
458.154	4.72
458.51	4.77
458.867	4.84
459.223	5.02
459.58	4.93
459.936	4.71
460.292	5
460.648	4.79
461.005	4.72
461.361	4.78
461.717	4.8
462.073	4.93
462.429	4.83
462.785	4.98
463.141	4.83
463.496	4.88
463.852	5.04
464.208	4.91
464.564	4.97
464.919	4.89
465.275	4.88
465.631	4.94
465.986	4.89
466.342	4.95
466.697	4.98
467.052	5.01
467.408	5.14
467.763	4.82
468.118	4.91
468.473	5.1
468.829	4.87
469.184	4.99
469.539	4.77
469.894	4.98
470.249	4.94
470.603	5.16
470.958	5.08
471.313	4.88
471.668	5.03
472.023	4.95
472.377	4.94
472.732	5.06
473.086	4.88
473.441	5.18
473.795	5.05
474.15	4.96
474.504	5.05
474.859	5.1
475.213	5.02
475.567	5.06
475.921	5.02
476.275	5.16
476.63	4.93
476.984	5
477.338	5.22
477.692	5.01
478.045	5.08
478.399	5.16
478.753	4.85
479.107	5.04
479.461	5.04
479.814	4.96
480.168	5.16
480.521	4.96
480.875	5.23
481.228	5.17
481.582	4.98
481.935	4.99
482.289	5.01
482.642	5.17
482.995	4.98
483.348	5.07
483.701	5.04
484.055	4.94
484.408	4.98
484.761	4.9
485.114	4.8
485.466	4.78
485.819	4.79
486.172	4.85
486.525	4.9
486.878	4.92
487.23	4.93
487.583	5
487.936	5.01
488.288	5
488.641	5
488.993	4.85
489.345	4.9
489.698	4.96
490.05	4.88
490.402	5
490.754	5.13
491.107	5.04
491.459	5.16
491.811	5.23
492.163	5.21
492.515	5.16
492.866	4.99
493.218	4.97
493.57	5.05
493.922	4.96
494.274	5.09
494.625	5.05
494.977	5.15
495.328	5.28
495.68	5.44
496.031	5.36
496.383	5.17
496.734	5.3
497.086	5.23
497.437	5.35
497.788	5.18
498.139	5.35
498.49	5.28
498.842	5.21
499.193	5.29
499.544	5.4
499.894	5.39
500.245	5.38
500.596	5.3
500.947	5.33
501.298	5.21
501.648	5.32
501.999	5.53
502.35	5.44
502.7	5.42
503.051	5.43
503.401	5.46
503.752	5.38
504.102	5.26
504.452	5.38
504.803	5.34
505.153	5.46
505.503	5.36
505.853	5.39
506.203	5.47
506.553	5.57
506.903	5.34
507.253	5.5
507.603	5.4
507.953	5.56
508.303	5.43
508.652	5.52
509.002	5.49
509.352	5.54
509.701	5.35
510.051	5.53
510.4	5.44
510.75	5.46
511.099	5.49
511.449	5.47
511.798	5.56
512.147	5.61
512.496	5.7
512.846	5.46
513.195	5.6
513.544	5.51
513.893	5.47
514.242	5.63
514.591	5.68
514.939	5.56
515.288	5.64
515.637	5.62
515.986	5.55
516.334	5.72
516.683	5.6
517.032	5.57
517.38	5.69
517.729	5.76
518.077	5.75
518.426	5.6
518.774	5.67
519.122	5.66
519.47	5.6
519.819	5.69
520.167	5.71
520.515	5.58
520.863	5.59
521.211	5.55
521.559	5.61
521.907	5.67
522.255	5.75
522.602	5.8
522.95	5.85
523.298	5.71
523.645	5.64
523.993	5.87
524.341	5.77
524.688	5.77
525.036	5.95
525.383	5.83
525.73	5.93
526.078	5.73
526.425	5.83
526.772	5.78
527.119	5.75
527.466	5.73
527.814	5.71
528.161	5.76
528.508	5.83
528.854	5.76
529.201	5.73
529.548	5.75
529.895	5.61
530.242	5.58
530.588	5.64
530.935	5.6
531.282	5.75
531.628	5.77
531.975	5.88
532.321	5.95
532.667	5.85
533.014	5.92
533.36	5.95
533.706	5.97
534.052	5.83
534.399	5.9
534.745	5.83
535.091	5.88
535.437	5.84
535.783	5.94
536.129	5.98
536.474	6.06
536.82	6.05
537.166	6.12
537.512	6.09
537.857	6.05
538.203	6.04
538.549	6.08
538.894	6.06
539.239	6.29
539.585	6.17
539.93	6.14
540.276	6.18
540.621	6.12
540.966	6.25
541.311	6.24
541.656	6.24
542.001	6.3
542.346	6.15
542.691	6.07
543.036	6.12
543.381	6.09
543.726	6.17
544.071	6.2
544.415	6.21
544.76	6.22
545.105	6.19
545.449	6.23
545.794	6.33
546.138	6.38
546.483	6.33
546.827	6.43
547.171	6.39
547.516	6.52
547.86	6.57
548.204	6.47
548.548	6.5
548.892	6.58
549.236	6.59
549.58	6.46
549.924	6.5
550.268	6.71
550.612	6.77
550.956	6.63
551.3	6.72
551.643	6.7
551.987	6.78
552.33	6.84
552.674	6.85
553.017	6.89
553.361	6.75
553.704	6.75
554.048	6.87
554.391	6.84
554.734	6.79
555.077	6.86
555.42	6.94
555.764	7.04
556.107	6.85
556.45	6.9
556.793	6.99
557.135	7.05
557.478	7.21
557.821	6.89
558.164	7.1
558.507	6.97
558.849	7.05
559.192	7.1
559.534	7.03
559.877	7.16
560.219	7.17
560.562	7.13
560.904	7.22
561.246	7.3
561.589	7.25
561.931	7.33
562.273	7.22
562.615	7.34
562.957	7.3
563.299	7.23
563.641	7.35
563.983	7.34
564.325	7.18
564.667	7.18
565.008	7.33
565.35	7.46
565.692	7.47
566.033	7.34
566.375	7.33
566.716	7.51
567.058	7.61
567.399	7.59
567.741	7.49
568.082	7.42
568.423	7.38
568.764	7.58
569.105	7.56
569.447	7.61
569.788	7.55
570.129	7.6
570.47	7.58
570.811	7.62
571.151	7.68
571.492	7.71
571.833	7.65
572.174	7.68
572.514	7.64
572.855	7.65
573.195	7.59
573.536	7.77
573.876	7.68
574.217	7.77
574.557	7.82
574.898	7.7
575.238	7.66
575.578	7.94
575.918	7.82
576.258	7.93
576.598	7.95
576.938	8.18
577.278	7.92
577.618	7.99
577.958	7.94
578.298	8.01
578.638	7.94
578.977	8.04
579.317	8.17
579.657	8.2
579.996	8.32
580.336	8.1
580.675	8.41
581.014	8.41
581.354	8.25
581.693	8.27
582.032	8.22
582.372	8.51
582.711	8.24
583.05	8.42
583.389	8.63
583.728	8.38
584.067	8.37
584.406	8.45
584.745	8.44
585.083	8.55
585.422	8.55
585.761	8.61
586.1	8.66
586.438	8.72
586.777	8.64
587.115	8.66
587.454	8.68
587.792	8.62
588.13	8.98
588.469	8.75
588.807	8.94
589.145	8.97
589.483	8.87
589.821	8.83
590.159	8.85
590.497	8.66
590.835	8.84
591.173	9.03
591.511	9.12
591.849	9.12
592.187	9.02
592.524	8.87
592.862	9.07
593.2	8.9
593.537	9.13
593.875	9.14
594.212	9.14
594.55	9.03
594.887	9.29
595.224	9.13
595.561	9.19
595.899	9.32
596.236	9.44
596.573	9.17
596.91	9.38
597.247	9.35
597.584	9.57
597.921	9.33
598.258	9.52
598.594	9.38
598.931	9.34
599.268	9.36
599.604	9.42
599.941	9.48
600.277	9.61
600.614	9.65
600.95	9.62
601.287	9.58
601.623	9.78
601.959	9.54
602.296	9.71
602.632	9.96
602.968	9.69
603.304	9.76
603.64	9.84
603.976	9.75
604.312	10.02
604.648	9.95
604.984	9.98
605.319	9.79
605.655	9.71
605.991	9.9
606.326	9.94
606.662	9.77
606.998	10.18
607.333	10.03
607.668	10
608.004	10.17
608.339	10.12
608.674	10.17
609.01	10.3
609.345	10.5
609.68	10.27
610.015	10.27
610.35	10.21
610.685	10.42
611.02	10.49
611.355	10.31
611.689	10.15
612.024	10.62
612.359	10.48
612.694	10.75
613.028	10.66
613.363	10.33
613.697	10.44
614.032	10.77
614.366	10.46
614.7	10.94
615.035	10.41
615.369	10.71
615.703	10.88
616.037	10.6
616.371	11.02
616.705	10.78
617.039	10.9
617.373	10.77
617.707	10.75
618.041	11.08
618.375	10.96
618.709	11.01
619.042	11.23
619.376	11.09
619.71	10.81
620.043	11.17
620.377	11.19
620.71	11.18
621.043	10.97
621.377	11.31
621.71	11.38
622.043	11.55
622.376	11.62
622.709	11.66
623.043	11.17
623.376	11.55
623.709	11.68
624.041	10.96
624.374	11.17
624.707	11.42
625.04	11.63
625.373	11.6
625.705	11.58
626.038	11.52
626.37	11.49
626.703	11.57
627.035	11.82
627.368	11.84
627.7	12.1
628.032	11.63
628.365	11.65
628.697	11.66
629.029	12.28
629.361	11.6
629.693	11.94
630.025	11.89
630.357	11.81
630.689	12.04
631.021	12.12
631.353	12.15
631.684	11.92
632.016	11.87
632.348	12.04
632.679	11.87
633.011	12.06
633.342	11.97
633.674	12.17
634.005	12.06
634.336	12.28
634.668	12.08
634.999	12.21
635.33	12.14
635.661	12.48
635.992	12.06
636.323	12.42
636.654	12.4
636.985	12.07
637.316	12.62
637.647	12.5
637.977	12.28
638.308	12.68
638.639	12.46
638.969	12.19
639.3	12.85
639.63	12.58
639.961	12.77
640.291	13.18
640.622	13.02
640.952	12.92
641.282	12.47
641.612	12.89
641.943	13.38
642.273	12.75
642.603	13.14
642.933	13.12
643.263	13.32
643.592	13.2
643.922	13.14
644.252	13.27
644.582	12.76
644.911	13
645.241	13.16
645.571	13.17
645.9	13.34
646.23	13.04
646.559	13.64
646.888	12.92
647.218	13.39
647.547	13.55
647.876	13.59
648.205	13.23
648.534	13.27
648.863	14.11
649.192	13.16
649.521	13.69
649.85	13.98
650.179	13.06
650.508	13.36
650.837	13.64
651.165	13.43
651.494	13.75
651.822	13.4
652.151	14.01
652.479	14.16
652.808	13.68
653.136	13.82
653.465	13.81
653.793	14.36
654.121	14.1
654.449	13.62
654.777	13.65
655.105	14.35
655.433	14
655.761	13.95
656.089	14.27
656.417	14.33
656.745	14.47
657.073	14.04
657.4	14.68
657.728	13.95
658.056	13.99
658.383	14.44
658.711	13.92
659.038	14.91
659.365	14.42
659.693	14.08
660.02	13.78
660.347	14.65
660.674	14.21
661.001	14.28
661.329	14.34
661.656	14.35
661.982	14.88
662.309	14.6
662.636	14.58
662.963	14.68
663.29	14.32
663.616	15.08
663.943	15.23
664.27	14.74
664.596	14.75
664.923	15.12
665.249	15.27
665.576	15.33
665.902	15.09
666.228	15.05
666.554	14.57
666.881	15.05
667.207	15.1
667.533	15.32
667.859	14.73
668.185	15.54
668.511	15.01
668.837	14.88
669.162	14.98
669.488	15.19
669.814	15.89
670.139	15.56
670.465	15.34
670.791	15.6
671.116	15.61
671.442	15.32
671.767	15.7
672.092	15.49
672.418	15.51
672.743	15.16
673.068	15.02
673.393	16.04
673.718	15.02
674.043	15.78
674.368	16.4
674.693	15.37
675.018	16.08
675.343	15.75
675.667	16.25
675.992	15.48
676.317	15.48
676.641	15.91
676.966	16.15
677.29	16
677.615	16.16
677.939	16.26
678.264	16.14
678.588	15.68
678.912	16.01
679.236	16.27
679.56	16.22
679.885	15.72
680.209	15.57
680.532	15.83
680.856	16.34
681.18	16.51
681.504	16.1
681.828	16.16
682.152	16.74
682.475	16.46
682.799	16.31
683.122	16.4
683.446	15.86
683.769	16.93
684.093	17.46
684.416	16.53
684.739	16.83
685.062	17.02
685.386	16.87
685.709	16.5
686.032	16.59
686.355	16.87
686.678	16.59
