Data from 0069_chest_Reflection__1__300.txt Node

Date: Fri Dec 16 16:30:31 CST 2022
User: ToomeyLab
Spectrometer: FLMS14357
Trigger mode: 0
Integration Time (sec): 1.000000E-2
Scans to average: 100
Electric dark correction enabled: true
Nonlinearity correction enabled: false
Boxcar width: 0
XAxis mode: Wavelengths
Number of Pixels in Spectrum: 2048
>>>>>Begin Spectral Data<<<<<
189.047	42.07
189.435	42.07
189.823	42.07
190.211	108.38
190.599	-42.65
190.987	553.95
191.375	81.94
191.763	47
192.151	-1378.44
192.538	258.37
192.926	161.35
193.314	42.14
193.702	165.49
194.089	-6
194.477	-280.46
194.864	39.84
195.252	-87.85
195.639	74.3
196.027	2176.15
196.414	56.91
196.801	-87.4
197.189	98
197.576	-0.79
197.963	-8.98
198.351	59.63
198.738	40.21
199.125	18.48
199.512	-6.95
199.899	2.93
200.286	-16.62
200.673	57.58
201.06	54.41
201.447	6.62
201.833	36.39
202.22	36.94
202.607	67.35
202.994	-10.94
203.38	-0.44
203.767	-41.06
204.154	-112.57
204.54	34.17
204.927	-13.24
205.313	30.92
205.699	12.86
206.086	36.1
206.472	-2.23
206.858	-3.17
207.245	32.27
207.631	-0.33
208.017	-2.21
208.403	36.39
208.789	-46.41
209.175	31.96
209.561	-1.41
209.947	-8.61
210.333	-14.8
210.719	-7.35
211.105	-156.5
211.491	7.1
211.876	-30.58
212.262	-40.59
212.648	-51.56
213.034	-29.09
213.419	7.27
213.805	-30.22
214.19	-18.7
214.576	-0.55
214.961	-34.65
215.346	-32.35
215.732	-48.56
216.117	-15.74
216.502	-22.28
216.888	-41.72
217.273	5.46
217.658	-15.59
218.043	-20.25
218.428	-2.8
218.813	-41.25
219.198	-38.75
219.583	-9.57
219.968	-40.02
220.353	16.86
220.738	-19.27
221.122	15.56
221.507	-19.78
221.892	-11.78
222.276	4.65
222.661	-13.67
223.046	8.32
223.43	-10.52
223.815	3.87
224.199	-3.77
224.583	-4.85
224.968	4.45
225.352	2.65
225.736	1.72
226.121	-6.67
226.505	5.58
226.889	8.97
227.273	-2.83
227.657	0.54
228.041	2.83
228.425	-1.55
228.809	3.06
229.193	-1.33
229.577	1.59
229.961	1.75
230.344	2.28
230.728	2.28
231.112	1.67
231.495	-0.02
231.879	2.46
232.263	1.25
232.646	0.65
233.03	-0.52
233.413	-0.35
233.797	5.08
234.18	0.73
234.563	1.99
234.946	2.4
235.33	1.12
235.713	2.74
236.096	0.89
236.479	1.5
236.862	2.51
237.245	2.66
237.628	1.75
238.011	1.62
238.394	2.72
238.777	2.13
239.16	0.73
239.543	0.28
239.925	1.34
240.308	2.31
240.691	1.25
241.073	3.14
241.456	1.31
241.838	1.62
242.221	1.83
242.603	2.66
242.986	3.12
243.368	2.18
243.75	1.94
244.133	2.08
244.515	2.01
244.897	1.53
245.279	2.18
245.661	0.84
246.043	2.61
246.425	1.06
246.807	2.25
247.189	1.84
247.571	2.16
247.953	1.93
248.335	2.3
248.717	2.22
249.098	2.34
249.48	1.9
249.862	2.44
250.243	1.76
250.625	2.22
251.006	2.59
251.388	2.95
251.769	1.77
252.151	1.94
252.532	2.2
252.913	2.11
253.295	2.2
253.676	1.96
254.057	1.62
254.438	2.52
254.819	1.53
255.2	2.03
255.581	1.35
255.962	1.97
256.343	1.75
256.724	2.31
257.105	1.51
257.486	1.5
257.867	-0.37
258.247	2.3
258.628	2.2
259.009	2.1
259.389	2.51
259.77	2.23
260.15	2.42
260.531	2.33
260.911	2.04
261.292	2.18
261.672	2.14
262.052	1.88
262.432	1.98
262.813	2.14
263.193	1.75
263.573	1.83
263.953	2.47
264.333	2.33
264.713	1.44
265.093	1.96
265.473	2.82
265.853	1.98
266.233	1.65
266.612	1.6
266.992	1.53
267.372	1.68
267.752	1.91
268.131	1.88
268.511	2.2
268.89	2.34
269.27	1.84
269.649	1.65
270.029	2.01
270.408	2.19
270.787	1.84
271.167	2.07
271.546	1.64
271.925	1.97
272.304	1.82
272.683	1.94
273.062	2.15
273.441	2.27
273.82	2.29
274.199	2.3
274.578	1.71
274.957	2.17
275.336	1.78
275.715	2.92
276.093	2.19
276.472	2.43
276.851	1.71
277.229	2.27
277.608	2.03
277.986	1.7
278.365	1.37
278.743	1.95
279.122	1.63
279.5	1.7
279.878	1.66
280.257	1.89
280.635	1.48
281.013	2.27
281.391	1.41
281.769	2.28
282.147	2.48
282.525	1.78
282.903	1.7
283.281	2.15
283.659	1.97
284.037	2.01
284.415	2.43
284.792	1.86
285.17	1.84
285.548	1.82
285.925	2.12
286.303	1.57
286.68	2.38
287.058	1.87
287.435	1.73
287.813	2.09
288.19	2.57
288.567	1.78
288.945	1.89
289.322	1.72
289.699	1.79
290.076	2.42
290.453	2.13
290.83	2.32
291.207	2.04
291.584	1.74
291.961	2.51
292.338	2.27
292.715	2.25
293.092	2.12
293.469	2.39
293.845	2.29
294.222	2.26
294.599	2.78
294.975	2.57
295.352	2.25
295.728	2.48
296.105	1.9
296.481	2.82
296.858	2.05
297.234	2.19
297.61	2.55
297.986	2.56
298.363	1.99
298.739	2.32
299.115	2.07
299.491	2.06
299.867	2.4
300.243	2.16
300.619	1.91
300.995	1.67
301.371	2.77
301.746	1.9
302.122	2.35
302.498	2.05
302.874	2.2
303.249	2.47
303.625	2.31
304	1.49
304.376	1.85
304.751	1.99
305.127	2.38
305.502	2.37
305.878	1.88
306.253	2.52
306.628	2.26
307.003	2.38
307.378	1.81
307.754	2.38
308.129	1.6
308.504	2.34
308.879	1.77
309.254	2.75
309.629	2.64
310.003	2.82
310.378	2.23
310.753	2.21
311.128	2.26
311.502	2.17
311.877	2.18
312.252	2.03
312.626	2.06
313.001	2.18
313.375	2.49
313.75	2.23
314.124	2.9
314.498	2.07
314.873	2.23
315.247	2.3
315.621	2.59
315.995	2.6
316.369	2.53
316.743	3.08
317.117	2.39
317.491	2.46
317.865	2.03
318.239	2.92
318.613	1.74
318.987	2.06
319.361	2.2
319.734	2.53
320.108	2.26
320.482	2.16
320.855	2.83
321.229	2.6
321.602	2.06
321.976	1.92
322.349	1.88
322.723	1.41
323.096	2.07
323.469	1.95
323.843	2.53
324.216	2.13
324.589	2.49
324.962	2.61
325.335	2.02
325.708	2.6
326.081	2.81
326.454	2.15
326.827	2.38
327.2	2.61
327.573	2.97
327.945	2.11
328.318	2.5
328.691	2.43
329.063	2.27
329.436	2.08
329.809	1.83
330.181	2.41
330.553	2.65
330.926	2.53
331.298	2.28
331.671	2.83
332.043	2.82
332.415	2.62
332.787	2.86
333.159	2.37
333.532	2.34
333.904	2.68
334.276	2.37
334.648	2.57
335.02	2.09
335.391	2.8
335.763	2.55
336.135	2.91
336.507	2.64
336.879	2.43
337.25	2.32
337.622	2.48
337.993	2.4
338.365	2.25
338.736	2.5
339.108	2.41
339.479	2.52
339.851	2.79
340.222	2.81
340.593	2.42
340.964	2.14
341.336	2.61
341.707	1.91
342.078	2.28
342.449	2.45
342.82	2.6
343.191	2.36
343.562	2.68
343.933	2.53
344.303	2.12
344.674	2.19
345.045	2.78
345.416	2.39
345.786	2.37
346.157	2.66
346.527	2.25
346.898	2.46
347.268	2.7
347.639	2.41
348.009	2.7
348.38	2.59
348.75	2.55
349.12	2.43
349.49	2.27
349.861	3.06
350.231	2.8
350.601	2.55
350.971	2.32
351.341	3.02
351.711	2.59
352.081	2.51
352.45	2.47
352.82	2.94
353.19	2.5
353.56	2.46
353.929	2.52
354.299	2.71
354.669	2.66
355.038	2.6
355.408	3.2
355.777	2.18
356.147	2.72
356.516	3.11
356.885	2.56
357.254	2.7
357.624	2.49
357.993	2.65
358.362	2.5
358.731	2.7
359.1	2.92
359.469	2.93
359.838	2.76
360.207	2.44
360.576	2.61
360.945	2.19
361.314	2.84
361.682	2.56
362.051	2.41
362.42	3.03
362.788	2.68
363.157	2.43
363.525	2.58
363.894	2.23
364.262	2.47
364.631	3.27
364.999	2.49
365.367	2.58
365.735	2.55
366.104	2.64
366.472	2.75
366.84	2.72
367.208	2.41
367.576	2.67
367.944	2.93
368.312	2.37
368.68	2.58
369.048	2.75
369.416	2.94
369.783	2.53
370.151	2.94
370.519	2.6
370.886	2.34
371.254	2.47
371.621	2.62
371.989	2.5
372.356	2.54
372.724	2.99
373.091	2.62
373.458	2.69
373.826	2.44
374.193	3.18
374.56	2.34
374.927	2.42
375.294	2.56
375.661	2.76
376.028	2.57
376.395	2.62
376.762	3.04
377.129	2.87
377.496	2.67
377.863	2.97
378.229	2.6
378.596	2.5
378.963	2.67
379.329	2.78
379.696	2.37
380.062	2.84
380.429	2.78
380.795	2.38
381.161	2.49
381.528	2.33
381.894	2.85
382.26	2.76
382.626	2.8
382.993	2.64
383.359	2.81
383.725	3.21
384.091	2.75
384.457	2.88
384.823	2.8
385.188	3.09
385.554	2.94
385.92	2.85
386.286	2.96
386.651	2.66
387.017	3.02
387.383	2.85
387.748	2.71
388.114	2.79
388.479	2.92
388.845	2.83
389.21	2.81
389.575	3.04
389.94	2.91
390.306	2.93
390.671	2.85
391.036	2.68
391.401	3.13
391.766	3.17
392.131	2.71
392.496	2.91
392.861	2.7
393.226	2.88
393.591	2.88
393.956	2.84
394.32	2.82
394.685	3.07
395.05	2.63
395.414	3.01
395.779	2.79
396.143	2.76
396.508	2.94
396.872	2.97
397.236	2.48
397.601	3.22
397.965	2.61
398.329	2.95
398.694	2.62
399.058	2.8
399.422	3
399.786	2.88
400.15	2.63
400.514	2.87
400.878	2.58
401.242	2.89
401.605	3.04
401.969	2.8
402.333	2.82
402.697	3.09
403.06	2.87
403.424	2.79
403.787	2.93
404.151	2.57
404.514	2.98
404.878	3.02
405.241	3.06
405.604	2.92
405.968	2.89
406.331	3
406.694	2.77
407.057	3.07
407.42	2.98
407.783	2.8
408.146	2.99
408.509	2.66
408.872	2.77
409.235	3.04
409.598	2.87
409.961	3.18
410.323	3.09
410.686	3.11
411.049	2.95
411.411	2.98
411.774	2.82
412.136	2.97
412.499	2.88
412.861	2.74
413.223	3.08
413.586	2.82
413.948	3.1
414.31	3.22
414.672	2.95
415.035	3.07
415.397	3.14
415.759	3.04
416.121	2.96
416.483	3.05
416.845	3.04
417.206	2.89
417.568	3.01
417.93	3.08
418.292	3
418.653	2.96
419.015	3.03
419.377	3.05
419.738	2.85
420.1	3.08
420.461	3.01
420.822	2.96
421.184	2.99
421.545	2.9
421.906	2.91
422.267	2.99
422.629	2.95
422.99	2.96
423.351	3.03
423.712	2.97
424.073	3.05
424.434	2.93
424.795	2.97
425.155	3.01
425.516	2.85
425.877	3.04
426.238	2.93
426.598	3.07
426.959	3.06
427.32	3.08
427.68	3.02
428.041	3.01
428.401	2.95
428.761	3.05
429.122	2.92
429.482	2.96
429.842	3.09
430.202	3.01
430.563	3.07
430.923	3.09
431.283	3.12
431.643	3.04
432.003	3.22
432.363	3.19
432.722	3.01
433.082	2.91
433.442	3.07
433.802	3.17
434.161	2.94
434.521	3.18
434.881	3.15
435.24	3.1
435.6	3.11
435.959	3.05
436.319	3.13
436.678	3.06
437.037	3.08
437.396	3.29
437.756	3.06
438.115	3.09
438.474	3.07
438.833	3.21
439.192	3.22
439.551	3.21
439.91	3.23
440.269	3.34
440.628	3.16
440.987	3.02
441.345	3.16
441.704	3.12
442.063	3.13
442.421	3.19
442.78	3.05
443.138	3.14
443.497	3.06
443.855	3.17
444.214	3.13
444.572	3.17
444.93	3.18
445.288	3.17
445.647	3.16
446.005	3.03
446.363	3.16
446.721	3.08
447.079	3.15
447.437	3.16
447.795	3.08
448.153	3.07
448.51	3.15
448.868	3.18
449.226	3.18
449.584	3.12
449.941	3.28
450.299	3.18
450.656	3.21
451.014	3.08
451.371	3.26
451.729	3.21
452.086	3.09
452.443	3.21
452.801	3.27
453.158	3.31
453.515	3.15
453.872	3.38
454.229	3.12
454.586	3.17
454.943	3.21
455.3	3.4
455.657	3.21
456.014	3.24
456.371	3.42
456.727	3.25
457.084	3.31
457.441	3.32
457.797	3.38
458.154	3.35
458.51	3.21
458.867	3.18
459.223	3.19
459.58	3.25
459.936	3.4
460.292	3.46
460.648	3.18
461.005	3.16
461.361	3.28
461.717	3.22
462.073	3.3
462.429	3.19
462.785	3.4
463.141	3.37
463.496	3.32
463.852	3.5
464.208	3.44
464.564	3.35
464.919	3.14
465.275	3.37
465.631	3.3
465.986	3.15
466.342	3.35
466.697	3.22
467.052	3.46
467.408	3.35
467.763	3.19
468.118	3.41
468.473	3.51
468.829	3.39
469.184	3.36
469.539	3.22
469.894	3.35
470.249	3.33
470.603	3.5
470.958	3.48
471.313	3.26
471.668	3.5
472.023	3.49
472.377	3.45
472.732	3.36
473.086	3.29
473.441	3.44
473.795	3.44
474.15	3.46
474.504	3.5
474.859	3.5
475.213	3.29
475.567	3.4
475.921	3.47
476.275	3.52
476.63	3.42
476.984	3.43
477.338	3.66
477.692	3.34
478.045	3.39
478.399	3.51
478.753	3.36
479.107	3.57
479.461	3.44
479.814	3.5
480.168	3.65
480.521	3.32
480.875	3.51
481.228	3.45
481.582	3.42
481.935	3.5
482.289	3.46
482.642	3.54
482.995	3.51
483.348	3.49
483.701	3.45
484.055	3.36
484.408	3.33
484.761	3.36
485.114	3.25
485.466	3.28
485.819	3.28
486.172	3.37
486.525	3.4
486.878	3.4
487.23	3.41
487.583	3.42
487.936	3.45
488.288	3.43
488.641	3.37
488.993	3.37
489.345	3.37
489.698	3.4
490.05	3.39
490.402	3.51
490.754	3.59
491.107	3.52
491.459	3.55
491.811	3.63
492.163	3.48
492.515	3.58
492.866	3.45
493.218	3.42
493.57	3.5
493.922	3.48
494.274	3.52
494.625	3.48
494.977	3.68
495.328	3.68
495.68	3.69
496.031	3.66
496.383	3.63
496.734	3.67
497.086	3.52
497.437	3.75
497.788	3.64
498.139	3.78
498.49	3.75
498.842	3.64
499.193	3.77
499.544	3.75
499.894	3.68
500.245	3.74
500.596	3.68
500.947	3.58
501.298	3.61
501.648	3.68
501.999	3.9
502.35	3.93
502.7	3.84
503.051	3.94
503.401	3.76
503.752	3.7
504.102	3.8
504.452	3.71
504.803	3.65
505.153	3.69
505.503	3.77
505.853	3.77
506.203	3.79
506.553	3.7
506.903	3.69
507.253	3.85
507.603	3.78
507.953	3.9
508.303	3.86
508.652	3.83
509.002	3.84
509.352	3.86
509.701	3.75
510.051	3.98
510.4	3.79
510.75	3.97
511.099	3.82
511.449	3.86
511.798	3.89
512.147	3.92
512.496	3.85
512.846	3.82
513.195	3.91
513.544	3.92
513.893	3.86
514.242	3.96
514.591	3.97
514.939	3.86
515.288	4
515.637	4.08
515.986	3.97
516.334	3.96
516.683	3.96
517.032	4.03
517.38	4.03
517.729	3.96
518.077	4.1
518.426	3.99
518.774	4.02
519.122	3.97
519.47	3.96
519.819	3.99
520.167	3.95
520.515	3.92
520.863	3.95
521.211	4.01
521.559	4.05
521.907	4.03
522.255	4.12
522.602	4.13
522.95	4.1
523.298	4.06
523.645	4.01
523.993	4.15
524.341	4.11
524.688	4.17
525.036	4.16
525.383	4.15
525.73	4.23
526.078	4.14
526.425	4.14
526.772	3.95
527.119	4.01
527.466	4.14
527.814	4.06
528.161	4.09
528.508	4.1
528.854	4.05
529.201	4.11
529.548	4.03
529.895	3.96
530.242	3.99
530.588	4.03
530.935	4.09
531.282	4.17
531.628	4.14
531.975	4.14
532.321	4.25
532.667	4.25
533.014	4.21
533.36	4.2
533.706	4.28
534.052	4.2
534.399	4.17
534.745	4.18
535.091	4.23
535.437	4.23
535.783	4.3
536.129	4.27
536.474	4.39
536.82	4.26
537.166	4.35
537.512	4.37
537.857	4.37
538.203	4.32
538.549	4.36
538.894	4.32
539.239	4.46
539.585	4.46
539.93	4.47
540.276	4.42
540.621	4.49
540.966	4.54
541.311	4.5
541.656	4.51
542.001	4.56
542.346	4.46
542.691	4.3
543.036	4.37
543.381	4.4
543.726	4.43
544.071	4.54
544.415	4.47
544.76	4.39
545.105	4.52
545.449	4.57
545.794	4.53
546.138	4.77
546.483	4.48
546.827	4.64
547.171	4.55
547.516	4.72
547.86	4.63
548.204	4.61
548.548	4.75
548.892	4.68
549.236	4.68
549.58	4.87
549.924	4.81
550.268	4.8
550.612	4.86
550.956	4.8
551.3	4.85
551.643	4.84
551.987	4.82
552.33	4.78
552.674	4.85
553.017	4.96
553.361	4.87
553.704	4.73
554.048	4.96
554.391	4.84
554.734	4.88
555.077	4.95
555.42	4.97
555.764	5.08
556.107	4.99
556.45	4.94
556.793	5.11
557.135	5.07
557.478	5.1
557.821	4.99
558.164	5.25
558.507	5.02
558.849	4.97
559.192	5.13
559.534	4.92
559.877	5.15
560.219	5.29
560.562	5.23
560.904	5.18
561.246	5.23
561.589	5.25
561.931	5.29
562.273	5.24
562.615	5.29
562.957	5.21
563.299	5.17
563.641	5.31
563.983	5.37
564.325	5.15
564.667	5.31
565.008	5.34
565.35	5.41
565.692	5.52
566.033	5.31
566.375	5.22
566.716	5.35
567.058	5.51
567.399	5.5
567.741	5.44
568.082	5.33
568.423	5.43
568.764	5.53
569.105	5.66
569.447	5.54
569.788	5.5
570.129	5.44
570.47	5.48
570.811	5.76
571.151	5.48
571.492	5.75
571.833	5.61
572.174	5.54
572.514	5.48
572.855	5.69
573.195	5.66
573.536	5.53
573.876	5.58
574.217	5.75
574.557	5.68
574.898	5.49
575.238	5.7
575.578	5.95
575.918	5.79
576.258	5.79
576.598	5.59
576.938	5.8
577.278	5.71
577.618	5.83
577.958	5.94
578.298	5.89
578.638	5.91
578.977	6.12
579.317	6.06
579.657	5.87
579.996	5.85
580.336	5.83
580.675	6.06
581.014	5.99
581.354	6.26
581.693	6.22
582.032	6.02
582.372	6.16
582.711	6.18
583.05	6.17
583.389	6.41
583.728	6.06
584.067	6.34
584.406	6.48
584.745	6.24
585.083	6.53
585.422	6.32
585.761	6.17
586.1	6.38
586.438	6.34
586.777	6.35
587.115	6.48
587.454	6.48
587.792	6.25
588.13	6.81
588.469	6.58
588.807	6.64
589.145	6.41
589.483	6.51
589.821	6.41
590.159	6.42
590.497	6.27
590.835	6.72
591.173	6.63
591.511	6.58
591.849	6.72
592.187	6.79
592.524	6.66
592.862	6.65
593.2	6.81
593.537	6.82
593.875	6.72
594.212	6.85
594.55	6.93
594.887	6.91
595.224	6.57
595.561	6.88
595.899	6.79
596.236	6.77
596.573	6.72
596.91	6.83
597.247	6.85
597.584	6.98
597.921	6.87
598.258	6.96
598.594	6.6
598.931	6.84
599.268	6.9
599.604	7.05
599.941	6.99
600.277	7.06
600.614	7.18
600.95	7.18
601.287	7.09
601.623	7.42
601.959	6.81
602.296	7.23
602.632	7.39
602.968	7.3
603.304	7.21
603.64	7.15
603.976	7.1
604.312	7.23
604.648	7.43
604.984	7.16
605.319	7.32
605.655	7.36
605.991	7.37
606.326	7.21
606.662	7.15
606.998	7.51
607.333	7.35
607.668	7.35
608.004	7.25
608.339	7.65
608.674	7.32
609.01	7.64
609.345	7.67
609.68	7.2
610.015	7.82
610.35	7.69
610.685	7.39
611.02	7.77
611.355	7.57
611.689	7.41
612.024	7.75
612.359	7.75
612.694	7.92
613.028	8.06
613.363	7.25
613.697	7.82
614.032	7.71
614.366	7.77
614.7	8.11
615.035	7.92
615.369	8.06
615.703	8.12
616.037	7.84
616.371	7.65
616.705	7.71
617.039	8.19
617.373	7.81
617.707	7.91
618.041	8.23
618.375	8.07
618.709	7.99
619.042	8.02
619.376	8.02
619.71	8.21
620.043	8.07
620.377	8.15
620.71	8.32
621.043	8.06
621.377	8.05
621.71	8.52
622.043	8.52
622.376	8.01
622.709	8.43
623.043	8.12
623.376	8.45
623.709	8.59
624.041	8.5
624.374	8.26
624.707	8.31
625.04	8.62
625.373	7.96
625.705	8.53
626.038	8.66
626.37	8.57
626.703	8.56
627.035	8.69
627.368	8.7
627.7	8.79
628.032	8.6
628.365	8.38
628.697	8.7
629.029	8.84
629.361	8.7
629.693	8.67
630.025	9.04
630.357	8.89
630.689	8.98
631.021	8.93
631.353	9.07
631.684	8.76
632.016	8.86
632.348	9.05
632.679	8.69
633.011	8.94
633.342	8.89
633.674	9
634.005	9.42
634.336	9.19
634.668	9.01
634.999	9.26
635.33	9.25
635.661	9.32
635.992	8.84
636.323	9.31
636.654	9.25
636.985	8.96
637.316	9.22
637.647	9.19
637.977	9.09
638.308	9.47
638.639	9.3
638.969	9.14
639.3	9.12
639.63	9.1
639.961	9.58
640.291	10.07
640.622	9.53
640.952	9.45
641.282	9.17
641.612	9.21
641.943	9.78
642.273	9.8
642.603	9.95
642.933	9.62
643.263	10.2
643.592	9.41
643.922	10.16
644.252	10.04
644.582	9.47
644.911	9.72
645.241	9.57
645.571	9.82
645.9	10.27
646.23	9.54
646.559	9.81
646.888	9.57
647.218	10.07
647.547	10.16
647.876	10.06
648.205	10.14
648.534	9.9
648.863	10.43
649.192	10.07
649.521	10.23
649.85	10.18
650.179	9.76
650.508	10.3
650.837	10.36
651.165	10.5
651.494	10.64
651.822	10.31
652.151	10.43
652.479	10.44
652.808	9.85
653.136	9.81
653.465	10.84
653.793	10.61
654.121	10.71
654.449	10.41
654.777	10.4
655.105	10.62
655.433	10.88
655.761	10.17
656.089	10.62
656.417	10.55
656.745	11.06
657.073	10.63
657.4	10.66
657.728	10.78
658.056	10.33
658.383	10.55
658.711	10.53
659.038	10.51
659.365	10.87
659.693	10.51
660.02	10.34
660.347	11.08
660.674	10.44
661.001	10.49
661.329	10.83
661.656	10.69
661.982	11.13
662.309	11.06
662.636	10.38
662.963	11.07
663.29	10.75
663.616	10.96
663.943	11.27
664.27	11.46
664.596	11.16
664.923	11.08
665.249	11.15
665.576	11.4
665.902	10.66
666.228	11.33
666.554	10.94
666.881	11.63
667.207	11.16
667.533	11.96
667.859	11.01
668.185	11.03
668.511	11.18
668.837	10.82
669.162	11.74
669.488	11.4
669.814	11.36
670.139	12.29
670.465	11.44
670.791	11.45
671.116	11.23
671.442	11.63
671.767	11.18
672.092	12.16
672.418	11.83
672.743	11.37
673.068	11.62
673.393	11.7
673.718	11.48
674.043	11.76
674.368	11.76
674.693	12.05
675.018	11.98
675.343	12.05
675.667	12.07
675.992	11.13
676.317	11.97
676.641	11.81
676.966	12.39
677.29	11.88
677.615	12.25
677.939	12.07
678.264	11.64
678.588	12.22
678.912	12.95
679.236	12.15
679.56	11.99
679.885	11.82
680.209	12.05
680.532	11.63
680.856	12.83
681.18	12.52
681.504	12.08
681.828	12.16
682.152	12.32
682.475	12.39
682.799	12.36
683.122	11.91
683.446	12.37
683.769	12.35
684.093	12.78
684.416	12.28
684.739	13
685.062	12.5
685.386	12.73
685.709	12.06
686.032	12.49
686.355	12.61
686.678	12.07
687.001	10.91
687.324	12.42
687.646	12.18
687.969	13
688.292	12.91
688.614	13.13
688.937	12.98
