Data from 0069_chest_Reflection__3__302.txt Node

Date: Fri Dec 16 16:30:55 CST 2022
User: ToomeyLab
Spectrometer: FLMS14357
Trigger mode: 0
Integration Time (sec): 1.000000E-2
Scans to average: 100
Electric dark correction enabled: true
Nonlinearity correction enabled: false
Boxcar width: 0
XAxis mode: Wavelengths
Number of Pixels in Spectrum: 2048
>>>>>Begin Spectral Data<<<<<
189.047	52.96
189.435	52.96
189.823	52.96
190.211	85.32
190.599	-8.27
190.987	-592.78
191.375	0.64
191.763	44.64
192.151	331.97
192.538	123.89
192.926	-105.45
193.314	82.33
193.702	49.52
194.089	-73.26
194.477	33.12
194.864	15.01
195.252	123.63
195.639	77.65
196.027	4063.3
196.414	-9.4
196.801	760.93
197.189	75.98
197.576	-15.41
197.963	29.13
198.351	-9.13
198.738	-33.35
199.125	41.51
199.512	2.38
199.899	27.53
200.286	-17.98
200.673	100
201.06	35.97
201.447	63.87
201.833	-39.07
202.22	60.39
202.607	-29.39
202.994	-24.31
203.38	-57.93
203.767	-29.63
204.154	-79.47
204.54	43.45
204.927	-4.06
205.313	24.16
205.699	21.2
206.086	-27.13
206.472	2.51
206.858	16.06
207.245	-0.53
207.631	-19.78
208.017	33.91
208.403	17.07
208.789	16.45
209.175	27.5
209.561	-14.44
209.947	-23.66
210.333	9.05
210.719	-11.8
211.105	58.53
211.491	-3.62
211.876	-22.32
212.262	3.96
212.648	-47.84
213.034	19.85
213.419	21.8
213.805	-33.71
214.19	-8.51
214.576	3.67
214.961	5.38
215.346	-43.18
215.732	47.31
216.117	6.82
216.502	-47.59
216.888	-71.21
217.273	6.06
217.658	-51.28
218.043	8.84
218.428	-18.73
218.813	7.82
219.198	-55.12
219.583	12.34
219.968	10.2
220.353	9.19
220.738	-51.19
221.122	-11.3
221.507	-2.97
221.892	3.95
222.276	9.44
222.661	-19.43
223.046	-7.28
223.43	-7.81
223.815	-5.26
224.199	6.86
224.583	-12.44
224.968	4.71
225.352	-5.86
225.736	2.73
226.121	2.69
226.505	-0.02
226.889	5.07
227.273	4.77
227.657	5.4
228.041	6.14
228.425	2.2
228.809	2.72
229.193	-0.96
229.577	2.13
229.961	2.67
230.344	4.13
230.728	3.27
231.112	3.86
231.495	2.76
231.879	3.62
232.263	0.56
232.646	1.71
233.03	0.12
233.413	1.6
233.797	6.05
234.18	-0.3
234.563	0.79
234.946	1.93
235.33	3.37
235.713	3.28
236.096	1.58
236.479	3.92
236.862	2.38
237.245	4.44
237.628	3.48
238.011	2.35
238.394	6.09
238.777	3.46
239.16	3.07
239.543	1.4
239.925	1.76
240.308	2.81
240.691	3.26
241.073	1.4
241.456	2.32
241.838	3.09
242.221	3.24
242.603	3.02
242.986	4.07
243.368	3.66
243.75	3.32
244.133	3.76
244.515	3.46
244.897	3.7
245.279	2.97
245.661	4.21
246.043	2.72
246.425	1.99
246.807	2.9
247.189	3.14
247.571	3.36
247.953	3.23
248.335	3.68
248.717	3.48
249.098	3.62
249.48	3.2
249.862	3.65
250.243	3.45
250.625	3.13
251.006	2.77
251.388	3.28
251.769	3.05
252.151	2.97
252.532	3.52
252.913	3.5
253.295	3.22
253.676	3.41
254.057	3.64
254.438	2.35
254.819	3.46
255.2	3.45
255.581	2.8
255.962	3.13
256.343	2.94
256.724	3.36
257.105	2.82
257.486	2.98
257.867	1.63
258.247	2.85
258.628	4.11
259.009	3.25
259.389	3.34
259.77	4.15
260.15	3.75
260.531	3.56
260.911	3.41
261.292	3.52
261.672	3.38
262.052	3.17
262.432	2.75
262.813	3.05
263.193	3.12
263.573	2.83
263.953	2.63
264.333	3.11
264.713	3.29
265.093	2.63
265.473	4.57
265.853	3.17
266.233	2.41
266.612	3.05
266.992	2.35
267.372	3.4
267.752	2.47
268.131	3.53
268.511	3.61
268.89	3.53
269.27	3.77
269.649	3.54
270.029	2.95
270.408	3.46
270.787	3.21
271.167	3.41
271.546	2.74
271.925	3.28
272.304	3.76
272.683	3.13
273.062	3.21
273.441	3.13
273.82	3.6
274.199	3.22
274.578	2.91
274.957	3.32
275.336	2.97
275.715	3.19
276.093	3.81
276.472	3.52
276.851	3.2
277.229	3.83
277.608	3.44
277.986	3
278.365	3.1
278.743	3.43
279.122	2.28
279.5	3.18
279.878	2.09
280.257	3.33
280.635	2.85
281.013	3.41
281.391	3.23
281.769	2.93
282.147	3.29
282.525	2.77
282.903	2.93
283.281	3.31
283.659	2.96
284.037	2.9
284.415	3.24
284.792	3.42
285.17	2.98
285.548	3.14
285.925	2.86
286.303	2.88
286.68	3.58
287.058	3.26
287.435	3.18
287.813	3.43
288.19	3.21
288.567	3.05
288.945	3.01
289.322	3.17
289.699	3.24
290.076	3.2
290.453	3.04
290.83	3.22
291.207	3.1
291.584	2.64
291.961	3.38
292.338	3.4
292.715	3.31
293.092	3.06
293.469	3.39
293.845	3.13
294.222	3.67
294.599	3.6
294.975	3.55
295.352	2.91
295.728	3.2
296.105	3.43
296.481	3.71
296.858	3.28
297.234	3.55
297.61	3.35
297.986	3.44
298.363	2.89
298.739	3.28
299.115	2.94
299.491	3.56
299.867	3.57
300.243	2.96
300.619	3.26
300.995	3.21
301.371	3.27
301.746	3.2
302.122	3.44
302.498	3.51
302.874	3.38
303.249	3.19
303.625	3.44
304	3.05
304.376	3.32
304.751	2.92
305.127	3.65
305.502	3.53
305.878	3.44
306.253	3.07
306.628	3.51
307.003	3.17
307.378	2.74
307.754	3.43
308.129	3.17
308.504	3.39
308.879	3.66
309.254	4.06
309.629	3.38
310.003	4.18
310.378	3.36
310.753	3.53
311.128	3.69
311.502	3.22
311.877	3.45
312.252	2.96
312.626	3.37
313.001	3.26
313.375	3.37
313.75	3.56
314.124	4.12
314.498	3.4
314.873	3.41
315.247	3.56
315.621	3.89
315.995	3.51
316.369	3.56
316.743	3.87
317.117	3.68
317.491	3.26
317.865	2.58
318.239	3.8
318.613	3.5
318.987	3.52
319.361	3.21
319.734	3.34
320.108	3.33
320.482	3.14
320.855	2.93
321.229	3.88
321.602	3.6
321.976	3.33
322.349	2.23
322.723	2.63
323.096	3.29
323.469	2.9
323.843	3.59
324.216	2.74
324.589	3.82
324.962	3.4
325.335	3.26
325.708	3.79
326.081	3.93
326.454	3.27
326.827	3.55
327.2	3.5
327.573	3.63
327.945	3.34
328.318	2.98
328.691	3.74
329.063	3.09
329.436	3.53
329.809	3.31
330.181	3.8
330.553	3.95
330.926	4.08
331.298	3.37
331.671	3.92
332.043	3.28
332.415	3.56
332.787	4.14
333.159	3.32
333.532	3.35
333.904	3.8
334.276	3.5
334.648	3.64
335.02	3.36
335.391	3.68
335.763	3.49
336.135	3.46
336.507	3.31
336.879	3.28
337.25	3.48
337.622	3.39
337.993	3.86
338.365	3.84
338.736	3.17
339.108	3.07
339.479	3.57
339.851	3.39
340.222	3.74
340.593	3.03
340.964	3.55
341.336	2.89
341.707	3.19
342.078	3.44
342.449	3.69
342.82	3.59
343.191	3.52
343.562	3.48
343.933	3.42
344.303	3.83
344.674	3.33
345.045	3.9
345.416	3.58
345.786	3.24
346.157	3.26
346.527	3.14
346.898	3.15
347.268	3.14
347.639	3.38
348.009	3.72
348.38	3.6
348.75	3.37
349.12	3.39
349.49	3.45
349.861	3.84
350.231	3.7
350.601	3.55
350.971	3.59
351.341	3.49
351.711	3.35
352.081	3.35
352.45	3.84
352.82	3.7
353.19	3.5
353.56	3.37
353.929	3.6
354.299	2.85
354.669	3.42
355.038	3.47
355.408	3.88
355.777	3.4
356.147	3.89
356.516	3.89
356.885	3.5
357.254	3.7
357.624	3.8
357.993	3.74
358.362	3.49
358.731	3.41
359.1	3.93
359.469	3.6
359.838	3.3
360.207	3.47
360.576	3.6
360.945	3.45
361.314	3.66
361.682	3.13
362.051	3.49
362.42	3.82
362.788	3.42
363.157	3.35
363.525	3.45
363.894	3.26
364.262	3.52
364.631	4.07
364.999	3.45
365.367	3.8
365.735	3.39
366.104	3.29
366.472	3.83
366.84	3.92
367.208	3.6
367.576	3.45
367.944	3.82
368.312	3.07
368.68	3.66
369.048	3.76
369.416	3.61
369.783	3.44
370.151	3.73
370.519	3.27
370.886	3.44
371.254	3.34
371.621	3.91
371.989	3.55
372.356	3.74
372.724	3.58
373.091	3.56
373.458	3.53
373.826	3.56
374.193	3.93
374.56	3.28
374.927	3.47
375.294	3.94
375.661	3.47
376.028	3.53
376.395	3.7
376.762	3.79
377.129	3.51
377.496	3.81
377.863	3.57
378.229	3.56
378.596	3.76
378.963	3.53
379.329	3.79
379.696	3.56
380.062	3.69
380.429	3.57
380.795	3.46
381.161	3.41
381.528	3.17
381.894	3.67
382.26	3.61
382.626	3.5
382.993	3.29
383.359	3.68
383.725	3.78
384.091	3.68
384.457	3.74
384.823	3.87
385.188	3.6
385.554	3.72
385.92	3.87
386.286	3.43
386.651	3.47
387.017	3.74
387.383	3.68
387.748	3.57
388.114	3.57
388.479	3.86
388.845	3.54
389.21	3.66
389.575	3.79
389.94	3.66
390.306	3.68
390.671	3.57
391.036	4
391.401	3.97
391.766	3.88
392.131	3.58
392.496	3.65
392.861	3.53
393.226	3.67
393.591	3.61
393.956	3.77
394.32	3.53
394.685	3.78
395.05	3.58
395.414	3.84
395.779	3.74
396.143	3.61
396.508	3.77
396.872	3.66
397.236	3.74
397.601	3.95
397.965	3.53
398.329	4.04
398.694	3.56
399.058	3.58
399.422	3.93
399.786	3.73
400.15	3.74
400.514	3.84
400.878	3.55
401.242	4.02
401.605	3.7
401.969	3.69
402.333	3.77
402.697	3.9
403.06	3.82
403.424	3.47
403.787	4.01
404.151	3.59
404.514	3.86
404.878	3.95
405.241	3.85
405.604	3.95
405.968	3.81
406.331	3.7
406.694	3.84
407.057	4.09
407.42	3.78
407.783	3.6
408.146	3.92
408.509	3.61
408.872	3.79
409.235	3.86
409.598	3.9
409.961	3.79
410.323	3.64
410.686	3.74
411.049	3.71
411.411	3.72
411.774	3.74
412.136	3.71
412.499	3.77
412.861	3.75
413.223	3.94
413.586	3.76
413.948	3.89
414.31	3.96
414.672	3.9
415.035	4.05
415.397	3.84
415.759	3.75
416.121	4.03
416.483	4.11
416.845	3.75
417.206	3.73
417.568	3.92
417.93	3.87
418.292	3.94
418.653	3.98
419.015	3.92
419.377	3.85
419.738	3.77
420.1	3.79
420.461	3.74
420.822	3.97
421.184	3.82
421.545	3.88
421.906	3.89
422.267	3.74
422.629	3.86
422.99	3.73
423.351	3.84
423.712	3.74
424.073	3.83
424.434	3.79
424.795	3.88
425.155	3.84
425.516	3.79
425.877	3.81
426.238	3.7
426.598	3.89
426.959	3.84
427.32	3.95
427.68	4.02
428.041	3.85
428.401	3.96
428.761	3.8
429.122	3.84
429.482	3.73
429.842	3.88
430.202	3.86
430.563	3.77
430.923	3.81
431.283	3.95
431.643	3.9
432.003	3.87
432.363	3.88
432.722	3.89
433.082	3.91
433.442	3.85
433.802	3.89
434.161	3.91
434.521	3.92
434.881	3.99
435.24	3.95
435.6	3.91
435.959	3.93
436.319	3.77
436.678	3.94
437.037	4.08
437.396	3.98
437.756	3.87
438.115	3.86
438.474	3.97
438.833	4.03
439.192	4.07
439.551	3.99
439.91	4.06
440.269	4.2
440.628	3.95
440.987	3.85
441.345	3.87
441.704	3.94
442.063	3.84
442.421	3.93
442.78	3.83
443.138	3.93
443.497	4.03
443.855	4.01
444.214	4.15
444.572	4.05
444.93	4.05
445.288	3.97
445.647	4.23
446.005	3.94
446.363	3.99
446.721	3.83
447.079	3.94
447.437	4.05
447.795	3.92
448.153	3.86
448.51	3.92
448.868	4.05
449.226	4.04
449.584	4.03
449.941	4.03
450.299	4.03
450.656	4.03
451.014	3.97
451.371	4.12
451.729	4.01
452.086	3.93
452.443	3.91
452.801	3.96
453.158	4.19
453.515	3.99
453.872	4.07
454.229	4.02
454.586	4.02
454.943	4
455.3	4.22
455.657	3.92
456.014	4.08
456.371	4.21
456.727	4.06
457.084	3.99
457.441	3.92
457.797	4.2
458.154	4.07
458.51	3.97
458.867	3.99
459.223	4.12
459.58	3.99
459.936	3.98
460.292	4.08
460.648	3.97
461.005	3.97
461.361	4.03
461.717	4
462.073	4.12
462.429	4.14
462.785	4.18
463.141	4.13
463.496	4.04
463.852	4.21
464.208	4.1
464.564	4.01
464.919	4.09
465.275	4.1
465.631	4.18
465.986	4.14
466.342	4.13
466.697	4.19
467.052	4.09
467.408	4.11
467.763	4.18
468.118	4.17
468.473	4.28
468.829	4.06
469.184	4.11
469.539	4.19
469.894	4.17
470.249	4.25
470.603	4.29
470.958	4.35
471.313	4.15
471.668	4.19
472.023	4.34
472.377	4.19
472.732	4.12
473.086	4.11
473.441	4.27
473.795	4.34
474.15	4.12
474.504	4.23
474.859	4.18
475.213	4.19
475.567	4.02
475.921	4.36
476.275	4.27
476.63	4.17
476.984	4.14
477.338	4.53
477.692	4.19
478.045	4.15
478.399	4.26
478.753	4.16
479.107	4.36
479.461	4.35
479.814	4.23
480.168	4.2
480.521	4.22
480.875	4.37
481.228	4.26
481.582	4.23
481.935	4.2
482.289	4.13
482.642	4.28
482.995	4.25
483.348	4.15
483.701	4.12
484.055	4.2
484.408	4.11
484.761	3.99
485.114	3.94
485.466	3.98
485.819	3.98
486.172	4.1
486.525	4.17
486.878	4.11
487.23	4.17
487.583	4.18
487.936	4.18
488.288	4.14
488.641	4.11
488.993	4
489.345	4.06
489.698	4.22
490.05	4.16
490.402	4.26
490.754	4.28
491.107	4.24
491.459	4.32
491.811	4.39
492.163	4.35
492.515	4.18
492.866	4.11
493.218	4.11
493.57	4.21
493.922	4.24
494.274	4.31
494.625	4.29
494.977	4.33
495.328	4.44
495.68	4.52
496.031	4.31
496.383	4.23
496.734	4.45
497.086	4.3
497.437	4.5
497.788	4.42
498.139	4.3
498.49	4.51
498.842	4.36
499.193	4.44
499.544	4.42
499.894	4.42
500.245	4.41
500.596	4.48
500.947	4.42
501.298	4.38
501.648	4.45
501.999	4.57
502.35	4.54
502.7	4.58
503.051	4.59
503.401	4.54
503.752	4.48
504.102	4.4
504.452	4.32
504.803	4.37
505.153	4.54
505.503	4.44
505.853	4.45
506.203	4.49
506.553	4.49
506.903	4.4
507.253	4.53
507.603	4.48
507.953	4.58
508.303	4.47
508.652	4.51
509.002	4.58
509.352	4.58
509.701	4.5
510.051	4.7
510.4	4.48
510.75	4.62
511.099	4.44
511.449	4.5
511.798	4.7
512.147	4.62
512.496	4.7
512.846	4.52
513.195	4.51
513.544	4.52
513.893	4.43
514.242	4.63
514.591	4.71
514.939	4.57
515.288	4.7
515.637	4.63
515.986	4.56
516.334	4.76
516.683	4.63
517.032	4.63
517.38	4.64
517.729	4.59
518.077	4.68
518.426	4.65
518.774	4.65
519.122	4.71
519.47	4.65
519.819	4.56
520.167	4.62
520.515	4.64
520.863	4.61
521.211	4.75
521.559	4.74
521.907	4.75
522.255	4.76
522.602	4.81
522.95	4.77
523.298	4.73
523.645	4.7
523.993	4.9
524.341	4.76
524.688	4.74
525.036	4.82
525.383	4.94
525.73	4.8
526.078	4.83
526.425	4.84
526.772	4.64
527.119	4.73
527.466	4.74
527.814	4.67
528.161	4.88
528.508	4.77
528.854	4.67
529.201	4.72
529.548	4.63
529.895	4.55
530.242	4.61
530.588	4.66
530.935	4.74
531.282	4.76
531.628	4.8
531.975	4.84
532.321	4.84
532.667	4.83
533.014	4.87
533.36	4.91
533.706	4.93
534.052	4.86
534.399	4.76
534.745	4.74
535.091	4.82
535.437	4.85
535.783	5.03
536.129	4.93
536.474	5.09
536.82	4.95
537.166	5.03
537.512	5
537.857	4.96
538.203	4.94
538.549	5.07
538.894	4.99
539.239	5.21
539.585	5.04
539.93	5.08
540.276	5.13
540.621	5.1
540.966	5.14
541.311	5.1
541.656	5.13
542.001	5.15
542.346	5.01
542.691	4.86
543.036	4.97
543.381	5.01
543.726	5.03
544.071	5.13
544.415	5.15
544.76	5.12
545.105	5.17
545.449	5.15
545.794	5.21
546.138	5.33
546.483	5.21
546.827	5.22
547.171	5.19
547.516	5.43
547.86	5.28
548.204	5.23
548.548	5.25
548.892	5.26
549.236	5.37
549.58	5.3
549.924	5.49
550.268	5.6
550.612	5.56
550.956	5.26
551.3	5.52
551.643	5.56
551.987	5.45
552.33	5.44
552.674	5.59
553.017	5.51
553.361	5.37
553.704	5.41
554.048	5.58
554.391	5.42
554.734	5.49
555.077	5.59
555.42	5.58
555.764	5.79
556.107	5.66
556.45	5.49
556.793	5.83
557.135	5.86
557.478	5.7
557.821	5.63
558.164	5.66
558.507	5.65
558.849	5.51
559.192	5.74
559.534	5.59
559.877	5.73
560.219	5.93
560.562	5.76
560.904	5.75
561.246	5.82
561.589	5.93
561.931	5.9
562.273	5.88
562.615	5.94
562.957	5.79
563.299	5.77
563.641	6.06
563.983	5.99
564.325	5.69
564.667	5.78
565.008	5.94
565.35	6.16
565.692	6.1
566.033	5.86
566.375	5.73
566.716	6.08
567.058	6.13
567.399	5.94
567.741	6.04
568.082	5.86
568.423	6.05
568.764	6.06
569.105	6.27
569.447	6.39
569.788	5.96
570.129	6.09
570.47	6.34
570.811	6.2
571.151	6.15
571.492	6.32
571.833	6.3
572.174	6.23
572.514	6.2
572.855	6.36
573.195	6.09
573.536	6.17
573.876	6.3
574.217	6.21
574.557	6.41
574.898	6.17
575.238	6.19
575.578	6.55
575.918	6.42
576.258	6.51
576.598	6.33
576.938	6.48
577.278	6.39
577.618	6.36
577.958	6.47
578.298	6.45
578.638	6.35
578.977	6.56
579.317	6.68
579.657	6.64
579.996	6.68
580.336	6.31
580.675	6.72
581.014	6.6
581.354	6.82
581.693	6.83
582.032	6.51
582.372	6.83
582.711	6.64
583.05	6.91
583.389	6.8
583.728	6.88
584.067	6.9
584.406	6.91
584.745	6.87
585.083	6.87
585.422	7.05
585.761	6.7
586.1	7.05
586.438	6.95
586.777	6.93
587.115	7.17
587.454	7.21
587.792	7.03
588.13	7.28
588.469	7.31
588.807	7.42
589.145	7.24
589.483	6.92
589.821	7.33
590.159	7.09
590.497	6.8
590.835	7.11
591.173	7.09
591.511	7.39
591.849	7.25
592.187	7.26
592.524	7.04
592.862	7.35
593.2	7.38
593.537	7.19
593.875	7.37
594.212	7.3
594.55	7.33
594.887	7.51
595.224	7.51
595.561	7.51
595.899	7.46
596.236	7.54
596.573	7.29
596.91	7.67
597.247	7.37
597.584	7.63
597.921	7.73
598.258	7.54
598.594	7.29
598.931	7.48
599.268	7.56
599.604	7.71
599.941	7.66
600.277	7.79
600.614	7.83
600.95	7.8
601.287	7.71
601.623	7.8
601.959	7.85
602.296	7.92
602.632	8.01
602.968	7.81
603.304	7.79
603.64	7.9
603.976	7.93
604.312	8
604.648	7.88
604.984	7.87
605.319	8.04
605.655	8.07
605.991	7.93
606.326	7.87
606.662	7.89
606.998	8.04
607.333	8.02
607.668	8.23
608.004	8.14
608.339	8.1
608.674	8.15
609.01	8.23
609.345	8.24
609.68	8.09
610.015	8.21
610.35	8.42
610.685	8.22
611.02	8.32
611.355	8.44
611.689	8.15
612.024	8.39
612.359	8.44
612.694	8.42
613.028	8.48
613.363	8.42
613.697	8.54
614.032	8.63
614.366	8.21
614.7	8.74
615.035	8.32
615.369	8.65
615.703	8.79
616.037	9.02
616.371	8.73
616.705	8.75
617.039	9.09
617.373	8.77
617.707	8.63
618.041	8.89
618.375	8.84
618.709	8.69
619.042	8.66
619.376	8.97
619.71	8.91
620.043	8.83
620.377	8.6
620.71	9.11
621.043	9.33
621.377	8.95
621.71	9.13
622.043	9.13
622.376	8.91
622.709	9.13
623.043	9.38
623.376	9.18
623.709	9.2
624.041	9.13
624.374	9.07
624.707	9.2
625.04	9.28
625.373	9.21
625.705	9.15
626.038	9.36
626.37	9.54
626.703	9.05
627.035	9.45
627.368	9.7
627.7	9.63
628.032	9.5
628.365	9.24
628.697	9.34
629.029	9.63
629.361	9.49
629.693	9.82
630.025	9.61
630.357	9.89
630.689	9.48
631.021	9.94
631.353	9.75
631.684	9.96
632.016	9.81
632.348	9.86
632.679	9.96
633.011	9.91
633.342	9.86
633.674	9.87
634.005	10.06
634.336	9.88
634.668	9.76
634.999	9.96
635.33	9.94
635.661	10.02
635.992	9.92
636.323	10.09
636.654	10.29
636.985	10.16
637.316	9.85
637.647	10.16
637.977	10.17
638.308	9.83
638.639	9.85
638.969	10.44
639.3	10.39
639.63	10.32
639.961	10.65
640.291	10.56
640.622	10.75
640.952	10.42
641.282	10.11
641.612	10.22
641.943	10.76
642.273	10.47
642.603	10.78
642.933	10.76
643.263	10.49
643.592	10.71
643.922	10.94
644.252	10.84
644.582	10.81
644.911	10.53
645.241	10.17
645.571	10.6
645.9	11.19
646.23	10.55
646.559	10.65
646.888	10.66
647.218	10.88
647.547	11.28
647.876	11.31
648.205	11.09
648.534	10.66
648.863	11.28
649.192	10.99
649.521	11.01
649.85	11.31
650.179	10.82
650.508	11.5
650.837	10.94
651.165	11.01
651.494	10.85
651.822	11.27
652.151	11.61
652.479	11.53
652.808	11.38
653.136	11.64
653.465	11.48
653.793	11.58
654.121	11.88
654.449	11.59
654.777	11.58
655.105	12.03
655.433	11.86
655.761	11.85
656.089	11.61
656.417	11.25
656.745	11.75
657.073	12.04
657.4	11.57
657.728	11.69
658.056	11.37
658.383	11.83
658.711	11.66
659.038	12.09
659.365	11.55
659.693	12.01
660.02	11.57
660.347	12.03
660.674	11.79
661.001	11.42
661.329	11.91
661.656	11.62
661.982	12.03
662.309	11.8
662.636	12.2
662.963	12.4
663.29	12.2
663.616	12.25
663.943	12.48
664.27	12.54
664.596	12.27
664.923	12.52
665.249	12.31
665.576	12.7
665.902	12.25
666.228	12.51
666.554	11.86
666.881	12.91
667.207	12.21
667.533	12.83
667.859	12.35
668.185	12.58
668.511	12.24
668.837	12.08
669.162	12.71
669.488	12.46
669.814	12.6
670.139	13.38
670.465	12.8
670.791	13.3
671.116	12.96
671.442	12.91
671.767	12.59
672.092	13.01
672.418	13.08
672.743	13.63
673.068	13.13
673.393	13.03
673.718	12.46
674.043	12.7
674.368	13.4
674.693	13.19
675.018	13.05
675.343	14.12
675.667	13.65
675.992	12.94
676.317	13.59
676.641	13.53
676.966	12.96
677.29	13.28
677.615	13.33
677.939	13.23
678.264	13.33
678.588	13.37
678.912	13.89
679.236	13.55
679.56	13.11
679.885	13.92
680.209	13.3
680.532	13.32
680.856	14.24
681.18	13.5
681.504	13.48
681.828	13.49
682.152	14.07
682.475	13.54
682.799	13.75
683.122	13.96
683.446	13.44
683.769	14.09
684.093	13.87
684.416	13.86
684.739	14.07
685.062	14.33
685.386	14.1
685.709	13.87
686.032	14.23
686.355	13.9
686.678	13.54
687.001	13.62
687.324	13.57
687.646	13.21
687.969	13.62
688.292	14.46
688.614	14.28
