Data from 0069_crown_Reflection__3__307.txt Node

Date: Fri Dec 16 16:32:48 CST 2022
User: ToomeyLab
Spectrometer: FLMS14357
Trigger mode: 0
Integration Time (sec): 1.000000E-2
Scans to average: 100
Electric dark correction enabled: true
Nonlinearity correction enabled: false
Boxcar width: 0
XAxis mode: Wavelengths
Number of Pixels in Spectrum: 2048
>>>>>Begin Spectral Data<<<<<
189.047	-62.59
189.435	-62.59
189.823	-62.59
190.211	-83.24
190.599	69.18
190.987	373.54
191.375	88.53
191.763	79.78
192.151	1778.81
192.538	63.17
192.926	-332.17
193.314	57.38
193.702	126.16
194.089	-16.63
194.477	-138.66
194.864	-21.91
195.252	108.19
195.639	142.22
196.027	-2200.92
196.414	88.94
196.801	255.02
197.189	92.74
197.576	26.63
197.963	-152.11
198.351	-28.65
198.738	-30.06
199.125	23.34
199.512	-22.13
199.899	-45.72
200.286	-39.46
200.673	59.74
201.06	10.04
201.447	23.77
201.833	18.3
202.22	-2.27
202.607	9.8
202.994	22.95
203.38	-46.35
203.767	37.16
204.154	-91.35
204.54	22.19
204.927	-4.48
205.313	0.55
205.699	13.59
206.086	-25.58
206.472	13.42
206.858	28.01
207.245	37.73
207.631	-8.63
208.017	13.41
208.403	34.35
208.789	-10.12
209.175	53.74
209.561	-21.98
209.947	-32.14
210.333	-9.03
210.719	-47.68
211.105	-148.93
211.491	-23.43
211.876	-19.97
212.262	-103.89
212.648	-52.1
213.034	-1.61
213.419	48.5
213.805	11.97
214.19	3.31
214.576	3.64
214.961	-43.53
215.346	-8.09
215.732	3.54
216.117	-52.62
216.502	-3.94
216.888	-24.02
217.273	23.34
217.658	-67.02
218.043	4.84
218.428	-9.86
218.813	-29.67
219.198	-57.67
219.583	2.77
219.968	-23.46
220.353	9.25
220.738	6.82
221.122	-27.21
221.507	6.39
221.892	-2.19
222.276	12.58
222.661	-14.04
223.046	9.41
223.43	-10.65
223.815	5.59
224.199	6.28
224.583	2.21
224.968	16.57
225.352	9.47
225.736	5.27
226.121	4.94
226.505	4.55
226.889	7.11
227.273	10.98
227.657	-0.95
228.041	12.73
228.425	10.44
228.809	11.19
229.193	8.7
229.577	8.68
229.961	9.43
230.344	10.54
230.728	10.56
231.112	10.1
231.495	8.14
231.879	9.8
232.263	10.01
232.646	9.58
233.03	8.6
233.413	6.64
233.797	12.56
234.18	7.39
234.563	8.82
234.946	8.91
235.33	10.06
235.713	9.94
236.096	9.87
236.479	10.46
236.862	9.73
237.245	9.79
237.628	10.33
238.011	9.05
238.394	10.98
238.777	9.65
239.16	7.61
239.543	9.69
239.925	10.07
240.308	8.54
240.691	8.3
241.073	9.14
241.456	9.41
241.838	9.16
242.221	10.17
242.603	9.3
242.986	9.88
243.368	9.49
243.75	9.17
244.133	9.52
244.515	9.26
244.897	7.9
245.279	8.86
245.661	7.9
246.043	8.63
246.425	8.69
246.807	8.82
247.189	9.05
247.571	9.54
247.953	9.38
248.335	9.46
248.717	9.13
249.098	9.44
249.48	9.16
249.862	9.22
250.243	9.06
250.625	9.15
251.006	9.71
251.388	9.46
251.769	8.42
252.151	8.37
252.532	9.38
252.913	9.39
253.295	9.09
253.676	9.53
254.057	9.26
254.438	8.28
254.819	8.1
255.2	8.78
255.581	7.61
255.962	7.6
256.343	8.75
256.724	7.72
257.105	8.78
257.486	7.82
257.867	7.67
258.247	8.16
258.628	9.08
259.009	8.33
259.389	9.23
259.77	8.54
260.15	8.88
260.531	8.68
260.911	8.84
261.292	8.56
261.672	8.43
262.052	8.23
262.432	8.16
262.813	8.71
263.193	8.18
263.573	8.39
263.953	8.19
264.333	8.62
264.713	7.54
265.093	7.26
265.473	9.4
265.853	8.58
266.233	7.37
266.612	8.31
266.992	7.66
267.372	8.14
267.752	7.75
268.131	8.15
268.511	8.6
268.89	8.7
269.27	8.42
269.649	8.63
270.029	8.53
270.408	7.84
270.787	7.69
271.167	8.3
271.546	7.67
271.925	8.25
272.304	8.48
272.683	7.96
273.062	8.16
273.441	7.97
273.82	8.08
274.199	8.38
274.578	7.62
274.957	7.65
275.336	7.28
275.715	8.05
276.093	8.02
276.472	7.74
276.851	8.2
277.229	8.08
277.608	7.3
277.986	8.12
278.365	7.41
278.743	7.51
279.122	7.84
279.5	7.45
279.878	6.76
280.257	7.8
280.635	7.52
281.013	7.31
281.391	8.09
281.769	7.43
282.147	7.81
282.525	7.41
282.903	7.7
283.281	7.89
283.659	7.72
284.037	7.55
284.415	7.82
284.792	7.61
285.17	7.4
285.548	7.07
285.925	7.41
286.303	7.23
286.68	7.83
287.058	7.4
287.435	7.07
287.813	7.43
288.19	7.72
288.567	6.87
288.945	7.28
289.322	7.45
289.699	7.1
290.076	7.54
290.453	6.93
290.83	7.38
291.207	7.33
291.584	6.93
291.961	7.61
292.338	7.29
292.715	6.78
293.092	6.74
293.469	7.58
293.845	7.4
294.222	6.91
294.599	7.41
294.975	7.19
295.352	6.98
295.728	6.98
296.105	7.18
296.481	7.1
296.858	6.94
297.234	7.04
297.61	7.06
297.986	6.99
298.363	6.77
298.739	7.41
299.115	6.64
299.491	7.02
299.867	6.76
300.243	6.74
300.619	6.81
300.995	7.41
301.371	7.24
301.746	7.15
302.122	7.26
302.498	7.23
302.874	6.86
303.249	6.78
303.625	6.95
304	6.28
304.376	6.79
304.751	7.1
305.127	7.06
305.502	6.83
305.878	6.81
306.253	6.44
306.628	6.71
307.003	6.58
307.378	6.07
307.754	6.51
308.129	6.35
308.504	6.15
308.879	6.34
309.254	6.73
309.629	6.29
310.003	6.99
310.378	6.6
310.753	6.75
311.128	6.28
311.502	6.15
311.877	6.2
312.252	6.25
312.626	6.22
313.001	6.19
313.375	6
313.75	6.12
314.124	6.92
314.498	6.14
314.873	6.38
315.247	6.03
315.621	6.67
315.995	5.67
316.369	6.52
316.743	6.61
317.117	6.42
317.491	6.21
317.865	5.77
318.239	6.29
318.613	5.97
318.987	6.15
319.361	5.79
319.734	6.25
320.108	6.31
320.482	5.89
320.855	6.27
321.229	6.49
321.602	5.96
321.976	6.29
322.349	5.41
322.723	5.25
323.096	6.06
323.469	5.86
323.843	5.92
324.216	6.07
324.589	6.38
324.962	6.11
325.335	5.71
325.708	6.1
326.081	6.39
326.454	6.29
326.827	6.48
327.2	6.69
327.573	5.97
327.945	5.84
328.318	6.43
328.691	5.92
329.063	5.74
329.436	5.97
329.809	5.94
330.181	5.79
330.553	6.29
330.926	6.21
331.298	5.8
331.671	6.17
332.043	6.24
332.415	5.98
332.787	6.63
333.159	6.19
333.532	5.65
333.904	6.29
334.276	6.37
334.648	6.31
335.02	5.76
335.391	6.65
335.763	6.06
336.135	6.12
336.507	6.45
336.879	6.1
337.25	6.09
337.622	5.87
337.993	5.93
338.365	6.28
338.736	5.85
339.108	5.97
339.479	5.49
339.851	6.39
340.222	5.93
340.593	5.85
340.964	6.05
341.336	5.44
341.707	5.83
342.078	5.72
342.449	6.45
342.82	6.02
343.191	5.85
343.562	5.93
343.933	5.9
344.303	5.82
344.674	5.97
345.045	6.13
345.416	6.16
345.786	5.86
346.157	6.09
346.527	6.22
346.898	6.11
347.268	5.87
347.639	5.54
348.009	6.27
348.38	5.98
348.75	5.89
349.12	6
349.49	5.7
349.861	6.16
350.231	6.52
350.601	6.28
350.971	6.01
351.341	5.93
351.711	6.15
352.081	5.75
352.45	6.41
352.82	6.32
353.19	6.23
353.56	5.85
353.929	5.89
354.299	6.16
354.669	6.37
355.038	5.52
355.408	6.82
355.777	5.97
356.147	5.95
356.516	6.49
356.885	5.99
357.254	6.48
357.624	6.36
357.993	6.22
358.362	6.38
358.731	6
359.1	6.2
359.469	6.23
359.838	5.84
360.207	5.98
360.576	6.2
360.945	6.22
361.314	6.21
361.682	6.13
362.051	6.41
362.42	6.35
362.788	6.23
363.157	6
363.525	6.1
363.894	5.84
364.262	5.86
364.631	6.83
364.999	6.38
365.367	6.5
365.735	6.14
366.104	6.05
366.472	6.91
366.84	6.56
367.208	6.07
367.576	6.31
367.944	6.71
368.312	6.09
368.68	6.6
369.048	6.38
369.416	6.44
369.783	6.34
370.151	6.17
370.519	6.18
370.886	6.09
371.254	6.42
371.621	6.65
371.989	6.4
372.356	6.27
372.724	6.46
373.091	6.61
373.458	6.59
373.826	6.12
374.193	6.77
374.56	6.06
374.927	6.47
375.294	6.66
375.661	6.3
376.028	6.27
376.395	6.49
376.762	6.37
377.129	6.81
377.496	6.62
377.863	6.83
378.229	6.22
378.596	6.58
378.963	6.55
379.329	6.26
379.696	6.52
380.062	6.71
380.429	6.44
380.795	6.32
381.161	6.53
381.528	6.2
381.894	6.7
382.26	6.6
382.626	6.23
382.993	6.63
383.359	6.43
383.725	6.74
384.091	6.76
384.457	6.81
384.823	6.85
385.188	6.97
385.554	6.81
385.92	6.88
386.286	6.91
386.651	6.72
387.017	6.83
387.383	6.7
387.748	6.48
388.114	6.66
388.479	6.88
388.845	6.8
389.21	6.85
389.575	6.58
389.94	6.85
390.306	6.67
390.671	6.72
391.036	6.76
391.401	7.38
391.766	6.9
392.131	6.75
392.496	6.83
392.861	6.76
393.226	6.87
393.591	6.84
393.956	6.87
394.32	6.97
394.685	6.94
395.05	6.65
395.414	6.92
395.779	6.93
396.143	7.1
396.508	6.94
396.872	7
397.236	6.57
397.601	6.8
397.965	6.53
398.329	7.19
398.694	6.6
399.058	7.14
399.422	7.09
399.786	7.03
400.15	6.88
400.514	7.24
400.878	6.95
401.242	7.34
401.605	6.91
401.969	7.07
402.333	7
402.697	7.29
403.06	7.31
403.424	7.11
403.787	7.42
404.151	6.92
404.514	7.31
404.878	7.29
405.241	7.12
405.604	7.19
405.968	6.97
406.331	7.19
406.694	7.24
407.057	7.39
407.42	7.11
407.783	7.03
408.146	7.08
408.509	7.11
408.872	6.99
409.235	7.11
409.598	7.42
409.961	7.19
410.323	7.36
410.686	7.18
411.049	7.14
411.411	7.22
411.774	7.07
412.136	7.25
412.499	7.12
412.861	7.06
413.223	7.39
413.586	7.12
413.948	7.18
414.31	7.12
414.672	7.1
415.035	7.21
415.397	7.36
415.759	7.05
416.121	7.51
416.483	7.49
416.845	7.39
417.206	7.52
417.568	7.31
417.93	7.29
418.292	7.34
418.653	7.34
419.015	7.4
419.377	7.4
419.738	7.27
420.1	7.26
420.461	7.18
420.822	7.17
421.184	7.18
421.545	7.19
421.906	7.32
422.267	7.16
422.629	7.27
422.99	7.13
423.351	7.25
423.712	7.21
424.073	7.34
424.434	7.2
424.795	7.25
425.155	7.35
425.516	7.23
425.877	7.17
426.238	7.2
426.598	7.37
426.959	7.16
427.32	7.21
427.68	7.35
428.041	7.3
428.401	7.42
428.761	7.28
429.122	7.4
429.482	7.28
429.842	7.45
430.202	7.35
430.563	7.51
430.923	7.49
431.283	7.55
431.643	7.34
432.003	7.56
432.363	7.59
432.722	7.43
433.082	7.47
433.442	7.46
433.802	7.66
434.161	7.51
434.521	7.42
434.881	7.63
435.24	7.35
435.6	7.54
435.959	7.39
436.319	7.32
436.678	7.4
437.037	7.46
437.396	7.49
437.756	7.6
438.115	7.38
438.474	7.67
438.833	7.65
439.192	7.68
439.551	7.59
439.91	7.68
440.269	7.66
440.628	7.73
440.987	7.46
441.345	7.57
441.704	7.62
442.063	7.51
442.421	7.5
442.78	7.47
443.138	7.37
443.497	7.35
443.855	7.48
444.214	7.46
444.572	7.45
444.93	7.54
445.288	7.77
445.647	7.58
446.005	7.44
446.363	7.49
446.721	7.55
447.079	7.6
447.437	7.59
447.795	7.52
448.153	7.56
448.51	7.53
448.868	7.61
449.226	7.47
449.584	7.71
449.941	7.58
450.299	7.54
450.656	7.7
451.014	7.5
451.371	7.58
451.729	7.61
452.086	7.57
452.443	7.59
452.801	7.62
453.158	7.51
453.515	7.58
453.872	7.73
454.229	7.51
454.586	7.67
454.943	7.6
455.3	7.71
455.657	7.63
456.014	7.7
456.371	7.88
456.727	7.58
457.084	7.6
457.441	7.56
457.797	7.85
458.154	7.72
458.51	7.83
458.867	7.71
459.223	7.77
459.58	7.71
459.936	7.73
460.292	7.81
460.648	7.61
461.005	7.6
461.361	7.59
461.717	7.5
462.073	7.58
462.429	7.63
462.785	7.74
463.141	7.79
463.496	7.58
463.852	7.78
464.208	7.66
464.564	7.68
464.919	7.68
465.275	7.88
465.631	7.75
465.986	7.76
466.342	7.8
466.697	7.72
467.052	7.81
467.408	7.83
467.763	7.59
468.118	7.93
468.473	7.85
468.829	7.71
469.184	7.81
469.539	7.58
469.894	7.83
470.249	7.71
470.603	7.91
470.958	7.95
471.313	7.78
471.668	7.79
472.023	7.94
472.377	7.68
472.732	7.62
473.086	7.61
473.441	7.8
473.795	7.81
474.15	7.75
474.504	7.74
474.859	7.9
475.213	7.59
475.567	7.84
475.921	7.84
476.275	7.92
476.63	7.8
476.984	7.82
477.338	8.02
477.692	7.73
478.045	7.86
478.399	7.81
478.753	7.59
479.107	7.8
479.461	7.74
479.814	7.77
480.168	7.83
480.521	7.64
480.875	7.92
481.228	7.71
481.582	7.73
481.935	7.79
482.289	7.69
482.642	7.89
482.995	7.74
483.348	7.68
483.701	7.71
484.055	7.67
484.408	7.79
484.761	7.61
485.114	7.55
485.466	7.46
485.819	7.32
486.172	7.29
486.525	7.34
486.878	7.39
487.23	7.47
487.583	7.62
487.936	7.69
488.288	7.61
488.641	7.66
488.993	7.51
489.345	7.48
489.698	7.5
490.05	7.47
490.402	7.56
490.754	7.58
491.107	7.64
491.459	7.74
491.811	7.74
492.163	7.73
492.515	7.78
492.866	7.62
493.218	7.55
493.57	7.52
493.922	7.47
494.274	7.59
494.625	7.62
494.977	7.62
495.328	7.75
495.68	7.82
496.031	7.83
496.383	7.72
496.734	7.89
497.086	7.73
497.437	7.94
497.788	7.86
498.139	7.89
498.49	7.81
498.842	7.78
499.193	7.81
499.544	7.92
499.894	7.9
500.245	7.93
500.596	7.8
500.947	7.79
501.298	7.85
501.648	7.89
501.999	7.87
502.35	8
502.7	7.93
503.051	7.85
503.401	7.88
503.752	7.75
504.102	7.96
504.452	7.86
504.803	7.73
505.153	7.91
505.503	7.9
505.853	7.98
506.203	7.88
506.553	7.84
506.903	7.89
507.253	7.87
507.603	7.89
507.953	7.97
508.303	7.89
508.652	8
509.002	7.97
509.352	7.88
509.701	7.95
510.051	7.95
510.4	7.76
510.75	7.93
511.099	7.82
511.449	7.87
511.798	7.93
512.147	7.92
512.496	7.82
512.846	7.75
513.195	7.89
513.544	7.81
513.893	7.77
514.242	7.92
514.591	7.84
514.939	7.73
515.288	7.95
515.637	7.93
515.986	7.8
516.334	7.98
516.683	7.99
517.032	7.79
517.38	7.95
517.729	7.94
518.077	7.92
518.426	7.84
518.774	7.98
519.122	7.9
519.47	7.95
519.819	7.82
520.167	7.92
520.515	7.79
520.863	7.75
521.211	7.76
521.559	7.8
521.907	7.86
522.255	7.8
522.602	8
522.95	8
523.298	7.92
523.645	7.76
523.993	7.92
524.341	7.85
524.688	7.91
525.036	8
525.383	8.02
525.73	7.94
526.078	7.98
526.425	7.91
526.772	7.82
527.119	7.75
527.466	7.84
527.814	7.71
528.161	7.76
528.508	7.77
528.854	7.72
529.201	7.78
529.548	7.75
529.895	7.66
530.242	7.6
530.588	7.53
530.935	7.5
531.282	7.51
531.628	7.59
531.975	7.69
532.321	7.75
532.667	7.8
533.014	7.74
533.36	7.65
533.706	7.84
534.052	7.79
534.399	7.76
534.745	7.7
535.091	7.67
535.437	7.63
535.783	7.66
536.129	7.65
536.474	7.76
536.82	7.74
537.166	7.9
537.512	7.93
537.857	7.81
538.203	7.87
538.549	7.84
538.894	7.69
539.239	7.88
539.585	7.9
539.93	7.9
540.276	7.87
540.621	7.69
540.966	7.8
541.311	7.95
541.656	7.9
542.001	7.93
542.346	7.87
542.691	7.81
543.036	7.67
543.381	7.66
543.726	7.54
544.071	7.62
544.415	7.71
544.76	7.63
545.105	7.7
545.449	7.66
545.794	7.72
546.138	7.84
546.483	7.93
546.827	7.92
547.171	7.9
547.516	7.89
547.86	7.86
548.204	7.88
548.548	7.89
548.892	7.79
549.236	7.87
549.58	8.01
549.924	7.75
550.268	7.9
550.612	8.02
550.956	8
551.3	7.92
551.643	7.97
551.987	8.12
552.33	7.85
552.674	7.98
553.017	8.03
553.361	7.88
553.704	7.92
554.048	8.07
554.391	8.04
554.734	7.91
555.077	8.04
555.42	7.94
555.764	7.99
556.107	7.97
556.45	7.78
556.793	8.08
557.135	8.05
557.478	8.05
557.821	8.01
558.164	8.2
558.507	7.91
558.849	7.89
559.192	7.94
559.534	7.84
559.877	8.06
560.219	8.11
560.562	8.06
560.904	7.96
561.246	8.04
561.589	8.11
561.931	8.19
562.273	8.03
562.615	7.99
562.957	8.02
563.299	7.96
563.641	8.02
563.983	8
564.325	7.78
564.667	7.98
565.008	8
565.35	8.19
565.692	8.12
566.033	8.05
566.375	8
566.716	8.24
567.058	8.16
567.399	8.15
567.741	8.03
568.082	8.12
568.423	7.86
568.764	7.93
569.105	7.83
569.447	7.93
569.788	7.95
570.129	8.07
570.47	8.07
570.811	8.22
571.151	7.95
571.492	7.99
571.833	7.89
572.174	7.87
572.514	7.88
572.855	7.94
573.195	7.83
573.536	7.98
573.876	8.02
574.217	7.9
574.557	7.97
574.898	7.8
575.238	7.77
575.578	7.87
575.918	7.88
576.258	8.01
576.598	7.86
576.938	8.04
577.278	7.74
577.618	7.75
577.958	7.9
578.298	7.96
578.638	7.83
578.977	8.1
579.317	8.19
579.657	7.97
579.996	7.71
580.336	7.85
580.675	8.01
581.014	7.84
581.354	8.02
581.693	8.13
582.032	7.77
582.372	8.01
582.711	7.98
583.05	8.32
583.389	8.2
583.728	8.14
584.067	8.07
584.406	8.02
584.745	8.06
585.083	8.17
585.422	7.85
585.761	8.11
586.1	8.29
586.438	8.02
586.777	7.9
587.115	8.09
587.454	7.93
587.792	7.93
588.13	8.25
588.469	8.18
588.807	8.14
589.145	8.03
589.483	7.81
589.821	8.17
590.159	7.95
590.497	7.76
590.835	7.84
591.173	8
591.511	8.08
591.849	8.19
592.187	7.89
592.524	7.92
592.862	8.17
593.2	7.99
593.537	7.82
593.875	7.75
594.212	7.9
594.55	7.9
594.887	7.94
595.224	7.94
595.561	7.97
595.899	8.01
596.236	8.06
596.573	7.86
596.91	8.03
597.247	7.82
597.584	7.96
597.921	7.83
598.258	7.89
598.594	7.82
598.931	7.74
599.268	7.98
599.604	8.06
599.941	7.71
600.277	7.89
600.614	7.93
600.95	7.87
601.287	8.06
601.623	7.77
601.959	7.74
602.296	8.04
602.632	8.08
602.968	7.84
603.304	7.78
603.64	7.92
603.976	7.75
604.312	8.09
604.648	7.86
604.984	7.94
605.319	7.9
605.655	7.92
605.991	7.89
606.326	7.75
606.662	7.62
606.998	7.76
607.333	7.57
607.668	7.78
608.004	7.8
608.339	7.72
608.674	7.76
609.01	8.08
609.345	8.15
609.68	7.57
610.015	7.95
610.35	7.86
610.685	8.12
611.02	7.76
611.355	7.93
611.689	7.64
612.024	7.95
612.359	7.57
612.694	8.01
613.028	7.99
613.363	7.62
613.697	7.61
614.032	8.18
614.366	7.59
614.7	8.26
615.035	7.73
615.369	7.75
615.703	7.98
616.037	7.73
616.371	7.66
616.705	7.71
617.039	8.09
617.373	7.92
617.707	8.07
618.041	8.02
618.375	7.5
618.709	7.97
619.042	7.98
619.376	7.89
619.71	7.72
620.043	7.81
620.377	8.15
620.71	8.04
621.043	7.73
621.377	7.76
621.71	7.77
622.043	8.17
622.376	7.43
622.709	8.01
623.043	7.47
623.376	8.11
623.709	7.67
624.041	7.43
624.374	7.81
624.707	7.76
625.04	7.83
625.373	7.83
625.705	7.46
626.038	8.07
626.37	7.95
626.703	7.73
627.035	8.03
627.368	8.12
627.7	8.06
628.032	7.97
628.365	7.53
628.697	7.49
629.029	8.06
629.361	7.76
629.693	7.93
630.025	7.83
630.357	7.66
630.689	7.9
631.021	8.1
631.353	7.9
631.684	7.68
632.016	7.51
632.348	7.61
632.679	8
633.011	7.56
633.342	7.73
633.674	7.56
634.005	8.06
634.336	7.7
634.668	7.75
634.999	7.96
635.33	7.68
635.661	7.8
635.992	7.6
636.323	7.9
636.654	7.97
636.985	7.88
637.316	7.56
637.647	8.22
637.977	7.71
638.308	7.73
638.639	7.47
638.969	7.46
639.3	7.9
639.63	7.61
639.961	7.48
640.291	7.85
640.622	7.97
640.952	7.77
641.282	7.49
641.612	7.54
641.943	8.07
642.273	7.93
642.603	8.02
642.933	7.82
643.263	7.87
643.592	7.59
643.922	8.05
644.252	7.46
644.582	7.17
644.911	7.54
645.241	7.67
645.571	7.48
645.9	7.71
646.23	7.59
646.559	7.54
646.888	7.63
647.218	7.63
647.547	8.09
647.876	8.25
648.205	7.57
648.534	7.37
648.863	8
649.192	7.46
649.521	7.6
649.85	7.87
650.179	7.38
650.508	7.67
650.837	7.71
651.165	7.5
651.494	7.55
651.822	8.16
652.151	8.07
652.479	8.09
652.808	7.5
653.136	7.42
653.465	8.13
653.793	7.88
654.121	7.76
654.449	7.67
654.777	7.64
655.105	7.84
655.433	7.87
655.761	7.45
656.089	7.93
656.417	6.99
656.745	7.76
657.073	7.94
657.4	7.15
657.728	8.11
658.056	7.66
658.383	7.63
658.711	7.09
659.038	7.99
659.365	7.75
659.693	8.09
660.02	7.59
660.347	7.81
660.674	7.53
661.001	7.56
661.329	7.75
661.656	7.67
661.982	7.87
662.309	7.5
662.636	7.29
662.963	8.12
663.29	7.67
663.616	7.75
663.943	8.22
664.27	7.84
664.596	7.36
664.923	8.32
665.249	7.67
665.576	8.03
665.902	7.67
666.228	7.92
666.554	7.29
666.881	8.1
667.207	7.73
667.533	8.11
667.859	7.62
668.185	7.54
668.511	7.39
668.837	7.36
669.162	8.2
669.488	8.02
669.814	7.77
670.139	8.24
670.465	7.94
670.791	7.83
671.116	7.99
671.442	8.05
671.767	7.39
672.092	8.03
672.418	7.97
672.743	7.83
673.068	7.62
673.393	7.75
673.718	7.29
674.043	7.73
674.368	8.02
674.693	7.76
675.018	7.58
675.343	8.11
675.667	7.58
675.992	7.52
676.317	7.75
676.641	7.85
676.966	7.89
677.29	7.63
677.615	8.07
677.939	7.64
678.264	7.24
678.588	7.44
678.912	7.76
679.236	8.43
679.56	6.85
679.885	7.88
680.209	7.44
680.532	7.37
680.856	7.86
681.18	7.56
681.504	7.46
681.828	7.09
682.152	7.83
682.475	7.28
682.799	7.69
683.122	7.84
683.446	7.22
683.769	7.97
684.093	8.35
684.416	7.75
684.739	8.18
685.062	8.02
685.386	7.45
685.709	7.19
686.032	8.29
686.355	7.88
686.678	7.65
687.001	6.98
687.324	7.74
687.646	7.55
687.969	7.68
688.292	8
688.614	8.57
688.937	7.67
689.26	7.38
689.582	7.29
689.904	8.11
690.227	7.93
690.549	7.98
690.871	8.24
691.194	7.85
691.516	8.23
691.838	7.7
692.16	7.29
692.482	8.59
