Data from 0069_crown_Reflection__1__305.txt Node

Date: Fri Dec 16 16:32:29 CST 2022
User: ToomeyLab
Spectrometer: FLMS14357
Trigger mode: 0
Integration Time (sec): 1.000000E-2
Scans to average: 100
Electric dark correction enabled: true
Nonlinearity correction enabled: false
Boxcar width: 0
XAxis mode: Wavelengths
Number of Pixels in Spectrum: 2048
>>>>>Begin Spectral Data<<<<<
189.047	200.18
189.435	200.18
189.823	200.18
190.211	143.61
190.599	28.32
190.987	542.96
191.375	15.52
191.763	112.78
192.151	542.75
192.538	169.64
192.926	385.47
193.314	36.82
193.702	111.34
194.089	159.95
194.477	52.25
194.864	2.48
195.252	66.89
195.639	96.65
196.027	106.42
196.414	75.53
196.801	425.52
197.189	36.6
197.576	49.25
197.963	-103.97
198.351	-8.17
198.738	-1.82
199.125	13.98
199.512	3.84
199.899	-66.75
200.286	-51.74
200.673	47.79
201.06	52.93
201.447	33.92
201.833	39.63
202.22	7.14
202.607	-49.3
202.994	-15.89
203.38	-14.25
203.767	-51.68
204.154	-40.44
204.54	-1.57
204.927	-7.51
205.313	35.05
205.699	-6.06
206.086	-26.77
206.472	-7.77
206.858	1.13
207.245	9.02
207.631	-54.61
208.017	13.39
208.403	1.13
208.789	12.45
209.175	4.1
209.561	19.71
209.947	5.47
210.333	-37.54
210.719	0.7
211.105	7.8
211.491	11.08
211.876	-11.06
212.262	-39.9
212.648	-56.92
213.034	11.05
213.419	27.93
213.805	-7.24
214.19	10.56
214.576	-54.19
214.961	-5.68
215.346	-50.88
215.732	-11.16
216.117	8.78
216.502	-14.68
216.888	-32.82
217.273	25.74
217.658	-7.81
218.043	-11.27
218.428	3.9
218.813	-36.38
219.198	-23.89
219.583	-4.69
219.968	-0.96
220.353	-2.21
220.738	-9.6
221.122	10
221.507	1.65
221.892	5.32
222.276	7.65
222.661	-14.36
223.046	-1.1
223.43	-12.73
223.815	9.7
224.199	4.32
224.583	1.1
224.968	8.58
225.352	6.64
225.736	5.17
226.121	-9.66
226.505	12.16
226.889	11.97
227.273	9.49
227.657	5.69
228.041	3.48
228.425	10.22
228.809	8.75
229.193	4.83
229.577	8.01
229.961	8.63
230.344	9.04
230.728	9.12
231.112	7.42
231.495	8.85
231.879	8.12
232.263	7.22
232.646	7.85
233.03	7.17
233.413	7.3
233.797	9.83
234.18	4.6
234.563	7.96
234.946	6.55
235.33	10.37
235.713	8.65
236.096	7.95
236.479	8.37
236.862	7.54
237.245	10.77
237.628	7.23
238.011	6.94
238.394	10.18
238.777	5.93
239.16	6.39
239.543	6.33
239.925	8.4
240.308	8.81
240.691	6.96
241.073	7.86
241.456	7.82
241.838	7.09
242.221	8.29
242.603	7.73
242.986	9.57
243.368	7.97
243.75	8.07
244.133	7.99
244.515	7.95
244.897	7.48
245.279	7.72
245.661	7.07
246.043	8.62
246.425	7.62
246.807	8.58
247.189	7.36
247.571	8.35
247.953	7.9
248.335	8.14
248.717	7.61
249.098	7.7
249.48	7.52
249.862	7.55
250.243	7.53
250.625	7.2
251.006	7.88
251.388	8.27
251.769	7.38
252.151	8.41
252.532	6.95
252.913	8.66
253.295	7.26
253.676	8.12
254.057	6.93
254.438	6.82
254.819	7.22
255.2	6.96
255.581	7.62
255.962	7.62
256.343	7.44
256.724	7.64
257.105	6.43
257.486	7.82
257.867	6.17
258.247	7.31
258.628	7.78
259.009	6.63
259.389	8.09
259.77	7.16
260.15	7.8
260.531	7.32
260.911	7.28
261.292	7.26
261.672	7.09
262.052	6.95
262.432	7.41
262.813	7.24
263.193	6.37
263.573	6.89
263.953	7.06
264.333	6.63
264.713	6.31
265.093	6.43
265.473	7.14
265.853	6.44
266.233	5.85
266.612	7.03
266.992	6.49
267.372	6.46
267.752	6.44
268.131	6.89
268.511	6.84
268.89	7.76
269.27	7.25
269.649	7.21
270.029	6.6
270.408	6.44
270.787	6.99
271.167	7.28
271.546	6.65
271.925	6.68
272.304	7.09
272.683	6.34
273.062	6.64
273.441	7.15
273.82	6.81
274.199	6.96
274.578	6.2
274.957	6.76
275.336	6.16
275.715	7.12
276.093	7.06
276.472	6.61
276.851	6.65
277.229	7.17
277.608	6.02
277.986	6.3
278.365	6.23
278.743	6.7
279.122	6.28
279.5	6.38
279.878	5.81
280.257	7.53
280.635	6.25
281.013	6.81
281.391	6.6
281.769	6.4
282.147	6.17
282.525	6.01
282.903	6.88
283.281	6.43
283.659	6.57
284.037	6.37
284.415	6.64
284.792	6.25
285.17	6.07
285.548	5.9
285.925	6.25
286.303	6.33
286.68	6.41
287.058	6.17
287.435	5.92
287.813	5.97
288.19	6.81
288.567	6.19
288.945	6.28
289.322	6.21
289.699	6.26
290.076	6.82
290.453	6.18
290.83	6.02
291.207	6.32
291.584	5.92
291.961	6.32
292.338	6.23
292.715	5.93
293.092	5.78
293.469	6.18
293.845	5.95
294.222	5.64
294.599	6.22
294.975	5.69
295.352	5.44
295.728	5.83
296.105	5.64
296.481	6.22
296.858	6.19
297.234	5.77
297.61	5.56
297.986	5.84
298.363	5.69
298.739	5.86
299.115	5.33
299.491	5.66
299.867	6.09
300.243	5.35
300.619	5.78
300.995	5.94
301.371	6.22
301.746	5.47
302.122	5.22
302.498	5.75
302.874	5.89
303.249	6.02
303.625	5.53
304	5.3
304.376	5.4
304.751	5.41
305.127	5.58
305.502	5.9
305.878	5.37
306.253	5.18
306.628	5.49
307.003	5.41
307.378	5.23
307.754	5.4
308.129	5.17
308.504	5.32
308.879	5.82
309.254	5.5
309.629	5.71
310.003	6.02
310.378	5.79
310.753	5.56
311.128	5.58
311.502	5.35
311.877	5.69
312.252	5.2
312.626	5.5
313.001	5.3
313.375	5.13
313.75	5.01
314.124	5.52
314.498	5.15
314.873	5.1
315.247	4.98
315.621	5.57
315.995	5.38
316.369	4.87
316.743	5.85
317.117	5.14
317.491	5.18
317.865	4.56
318.239	5.46
318.613	5.04
318.987	5.17
319.361	5.06
319.734	4.74
320.108	5.62
320.482	5.42
320.855	5.42
321.229	5.37
321.602	5.09
321.976	4.86
322.349	4.99
322.723	3.8
323.096	5.08
323.469	4.55
323.843	4.8
324.216	5.11
324.589	5.31
324.962	5.04
325.335	4.96
325.708	4.96
326.081	5.16
326.454	5.37
326.827	4.95
327.2	5.39
327.573	5.38
327.945	5.32
328.318	4.87
328.691	5.26
329.063	4.63
329.436	5.29
329.809	4.74
330.181	5.19
330.553	5.11
330.926	4.91
331.298	4.76
331.671	5.42
332.043	4.68
332.415	5.27
332.787	5.29
333.159	4.64
333.532	5.12
333.904	5.05
334.276	5.52
334.648	5.21
335.02	5.01
335.391	5.13
335.763	5.34
336.135	5.24
336.507	5.2
336.879	4.8
337.25	5.39
337.622	5.39
337.993	5.03
338.365	5.11
338.736	5.06
339.108	4.38
339.479	5.13
339.851	5.33
340.222	5.39
340.593	4.83
340.964	4.78
341.336	4.57
341.707	4.88
342.078	4.93
342.449	5.31
342.82	5.48
343.191	4.78
343.562	4.79
343.933	5.18
344.303	4.68
344.674	5.09
345.045	5.35
345.416	5.01
345.786	4.74
346.157	5.45
346.527	5.03
346.898	4.94
347.268	4.96
347.639	5.43
348.009	5.13
348.38	5.13
348.75	5.22
349.12	5
349.49	5.46
349.861	5.1
350.231	5.1
350.601	5.2
350.971	4.94
351.341	5.34
351.711	5.06
352.081	5.09
352.45	5.81
352.82	5.33
353.19	4.87
353.56	5.06
353.929	5.31
354.299	5.01
354.669	5.08
355.038	5.28
355.408	5.12
355.777	5.12
356.147	5.2
356.516	5.79
356.885	5.29
357.254	5.5
357.624	5.24
357.993	4.89
358.362	5.75
358.731	5.2
359.1	5.45
359.469	5.45
359.838	5.02
360.207	5.23
360.576	5.42
360.945	5.01
361.314	5.24
361.682	4.97
362.051	5.1
362.42	5.59
362.788	5.39
363.157	5.22
363.525	5.23
363.894	4.97
364.262	5.22
364.631	5.95
364.999	4.97
365.367	5.74
365.735	4.88
366.104	5.09
366.472	5.4
366.84	5.26
367.208	5.05
367.576	5.4
367.944	5.42
368.312	5.15
368.68	5.59
369.048	5.66
369.416	5.3
369.783	5.42
370.151	5.67
370.519	5.4
370.886	5.54
371.254	5.22
371.621	5.34
371.989	5.78
372.356	5.34
372.724	5.74
373.091	5.34
373.458	5.38
373.826	5.43
374.193	5.62
374.56	5.5
374.927	5.28
375.294	5.55
375.661	5.51
376.028	5.51
376.395	5.66
376.762	5.95
377.129	5.64
377.496	5.77
377.863	5.7
378.229	5.36
378.596	5.51
378.963	5.65
379.329	5.56
379.696	5.44
380.062	5.58
380.429	5.52
380.795	5.26
381.161	5.41
381.528	5.09
381.894	5.81
382.26	5.59
382.626	5.47
382.993	5.4
383.359	5.66
383.725	5.47
384.091	5.69
384.457	5.7
384.823	5.44
385.188	5.89
385.554	5.74
385.92	5.74
386.286	5.95
386.651	5.64
387.017	5.83
387.383	6.02
387.748	5.54
388.114	5.76
388.479	5.7
388.845	5.7
389.21	5.98
389.575	5.88
389.94	5.71
390.306	5.5
390.671	6.02
391.036	5.88
391.401	6.14
391.766	5.82
392.131	6.01
392.496	5.84
392.861	5.5
393.226	5.98
393.591	6.04
393.956	6.04
394.32	5.7
394.685	5.85
395.05	5.67
395.414	6.01
395.779	5.71
396.143	6.06
396.508	6.01
396.872	6.09
397.236	5.26
397.601	6.25
397.965	5.91
398.329	5.93
398.694	5.61
399.058	5.81
399.422	6.02
399.786	5.85
400.15	6.08
400.514	5.83
400.878	5.79
401.242	6.04
401.605	5.59
401.969	5.86
402.333	5.69
402.697	6.3
403.06	5.97
403.424	5.9
403.787	6
404.151	6.01
404.514	6.05
404.878	5.97
405.241	6.22
405.604	5.93
405.968	5.94
406.331	6.22
406.694	6.12
407.057	6.4
407.42	6.11
407.783	5.96
408.146	5.85
408.509	5.9
408.872	5.75
409.235	6.13
409.598	6.09
409.961	6.04
410.323	6.2
410.686	6.15
411.049	6.01
411.411	6.1
411.774	6.05
412.136	6.07
412.499	5.9
412.861	5.93
413.223	6.22
413.586	6.01
413.948	6.09
414.31	6.2
414.672	6.1
415.035	6.04
415.397	6.09
415.759	6.01
416.121	6.35
416.483	6.21
416.845	6.25
417.206	6.4
417.568	6.23
417.93	6.38
418.292	6.23
418.653	6.28
419.015	6.23
419.377	6.33
419.738	6.07
420.1	6.14
420.461	6.22
420.822	6.25
421.184	6.03
421.545	6.13
421.906	6.17
422.267	6.09
422.629	6.16
422.99	6.1
423.351	6.09
423.712	6.17
424.073	6.23
424.434	6.11
424.795	6.2
425.155	6.22
425.516	6.04
425.877	6.07
426.238	6.11
426.598	6.21
426.959	6.1
427.32	6.27
427.68	6.3
428.041	6.17
428.401	6.22
428.761	6.12
429.122	6.21
429.482	6.16
429.842	6.44
430.202	6.2
430.563	6.38
430.923	6.3
431.283	6.29
431.643	6.28
432.003	6.45
432.363	6.38
432.722	6.32
433.082	6.36
433.442	6.49
433.802	6.34
434.161	6.13
434.521	6.45
434.881	6.45
435.24	6.28
435.6	6.28
435.959	6.33
436.319	6.26
436.678	6.36
437.037	6.26
437.396	6.41
437.756	6.44
438.115	6.28
438.474	6.39
438.833	6.52
439.192	6.55
439.551	6.54
439.91	6.5
440.269	6.53
440.628	6.32
440.987	6.34
441.345	6.35
441.704	6.37
442.063	6.46
442.421	6.43
442.78	6.35
443.138	6.4
443.497	6.33
443.855	6.3
444.214	6.37
444.572	6.34
444.93	6.4
445.288	6.5
445.647	6.43
446.005	6.36
446.363	6.44
446.721	6.44
447.079	6.44
447.437	6.36
447.795	6.35
448.153	6.37
448.51	6.36
448.868	6.49
449.226	6.4
449.584	6.29
449.941	6.39
450.299	6.34
450.656	6.35
451.014	6.37
451.371	6.49
451.729	6.43
452.086	6.33
452.443	6.4
452.801	6.59
453.158	6.55
453.515	6.45
453.872	6.64
454.229	6.46
454.586	6.44
454.943	6.45
455.3	6.56
455.657	6.37
456.014	6.58
456.371	6.62
456.727	6.45
457.084	6.54
457.441	6.37
457.797	6.56
458.154	6.42
458.51	6.5
458.867	6.48
459.223	6.53
459.58	6.5
459.936	6.45
460.292	6.71
460.648	6.44
461.005	6.41
461.361	6.51
461.717	6.42
462.073	6.4
462.429	6.41
462.785	6.51
463.141	6.5
463.496	6.53
463.852	6.67
464.208	6.63
464.564	6.36
464.919	6.4
465.275	6.54
465.631	6.58
465.986	6.65
466.342	6.6
466.697	6.69
467.052	6.6
467.408	6.5
467.763	6.41
468.118	6.55
468.473	6.77
468.829	6.54
469.184	6.72
469.539	6.43
469.894	6.52
470.249	6.5
470.603	6.64
470.958	6.74
471.313	6.56
471.668	6.64
472.023	6.89
472.377	6.51
472.732	6.56
473.086	6.48
473.441	6.44
473.795	6.82
474.15	6.63
474.504	6.51
474.859	6.61
475.213	6.63
475.567	6.51
475.921	6.75
476.275	6.62
476.63	6.44
476.984	6.68
477.338	6.82
477.692	6.65
478.045	6.5
478.399	6.71
478.753	6.51
479.107	6.67
479.461	6.67
479.814	6.66
480.168	6.72
480.521	6.46
480.875	6.68
481.228	6.62
481.582	6.63
481.935	6.59
482.289	6.52
482.642	6.67
482.995	6.61
483.348	6.68
483.701	6.44
484.055	6.49
484.408	6.48
484.761	6.43
485.114	6.43
485.466	6.33
485.819	6.23
486.172	6.18
486.525	6.21
486.878	6.27
487.23	6.32
487.583	6.41
487.936	6.53
488.288	6.49
488.641	6.43
488.993	6.31
489.345	6.35
489.698	6.37
490.05	6.31
490.402	6.38
490.754	6.43
491.107	6.41
491.459	6.53
491.811	6.58
492.163	6.56
492.515	6.54
492.866	6.39
493.218	6.46
493.57	6.4
493.922	6.36
494.274	6.4
494.625	6.37
494.977	6.47
495.328	6.69
495.68	6.79
496.031	6.63
496.383	6.56
496.734	6.63
497.086	6.43
497.437	6.76
497.788	6.67
498.139	6.73
498.49	6.63
498.842	6.48
499.193	6.55
499.544	6.65
499.894	6.57
500.245	6.71
500.596	6.57
500.947	6.65
501.298	6.55
501.648	6.58
501.999	6.61
502.35	6.73
502.7	6.65
503.051	6.76
503.401	6.68
503.752	6.57
504.102	6.6
504.452	6.67
504.803	6.54
505.153	6.74
505.503	6.65
505.853	6.75
506.203	6.72
506.553	6.75
506.903	6.79
507.253	6.66
507.603	6.6
507.953	6.87
508.303	6.59
508.652	6.73
509.002	6.65
509.352	6.67
509.701	6.63
510.051	6.72
510.4	6.72
510.75	6.66
511.099	6.61
511.449	6.76
511.798	6.79
512.147	6.66
512.496	6.77
512.846	6.66
513.195	6.68
513.544	6.69
513.893	6.63
514.242	6.66
514.591	6.64
514.939	6.7
515.288	6.65
515.637	6.83
515.986	6.71
516.334	6.83
516.683	6.77
517.032	6.76
517.38	6.67
517.729	6.61
518.077	6.9
518.426	6.73
518.774	6.79
519.122	6.72
519.47	6.73
519.819	6.77
520.167	6.7
520.515	6.58
520.863	6.55
521.211	6.63
521.559	6.73
521.907	6.69
522.255	6.61
522.602	6.73
522.95	6.78
523.298	6.71
523.645	6.68
523.993	6.95
524.341	6.71
524.688	6.61
525.036	6.76
525.383	6.87
525.73	6.81
526.078	6.81
526.425	6.77
526.772	6.53
527.119	6.66
527.466	6.69
527.814	6.62
528.161	6.6
528.508	6.69
528.854	6.56
529.201	6.64
529.548	6.61
529.895	6.56
530.242	6.52
530.588	6.52
530.935	6.41
531.282	6.39
531.628	6.46
531.975	6.54
532.321	6.53
532.667	6.64
533.014	6.74
533.36	6.59
533.706	6.79
534.052	6.63
534.399	6.69
534.745	6.6
535.091	6.61
535.437	6.57
535.783	6.63
536.129	6.53
536.474	6.64
536.82	6.61
537.166	6.79
537.512	6.77
537.857	6.76
538.203	6.69
538.549	6.67
538.894	6.63
539.239	6.86
539.585	6.7
539.93	6.73
540.276	6.63
540.621	6.76
540.966	6.82
541.311	6.98
541.656	6.77
542.001	6.77
542.346	6.75
542.691	6.66
543.036	6.59
543.381	6.56
543.726	6.52
544.071	6.55
544.415	6.59
544.76	6.49
545.105	6.59
545.449	6.53
545.794	6.66
546.138	6.78
546.483	6.71
546.827	6.9
547.171	6.74
547.516	6.73
547.86	6.68
548.204	6.75
548.548	6.8
548.892	6.73
549.236	6.77
549.58	6.63
549.924	6.76
550.268	6.86
550.612	6.83
550.956	6.7
551.3	6.8
551.643	6.93
551.987	6.78
552.33	6.77
552.674	6.82
553.017	6.76
553.361	6.83
553.704	6.73
554.048	6.87
554.391	6.71
554.734	6.82
555.077	6.96
555.42	6.82
555.764	6.85
556.107	6.85
556.45	6.87
556.793	7.05
557.135	6.85
557.478	6.88
557.821	6.73
558.164	6.85
558.507	6.84
558.849	6.67
559.192	6.85
559.534	6.75
559.877	7.08
560.219	7.01
560.562	6.87
560.904	6.81
561.246	6.94
561.589	7.06
561.931	7.05
562.273	6.86
562.615	7.05
562.957	6.82
563.299	6.84
563.641	7.06
563.983	6.79
564.325	6.71
564.667	6.79
565.008	6.87
565.35	6.94
565.692	6.99
566.033	6.91
566.375	6.66
566.716	6.82
567.058	7.02
567.399	6.82
567.741	6.9
568.082	6.87
568.423	6.85
568.764	6.87
569.105	7
569.447	6.83
569.788	6.93
570.129	6.98
570.47	7
570.811	6.94
571.151	7.02
571.492	6.99
571.833	6.96
572.174	6.88
572.514	6.95
572.855	7.08
573.195	6.77
573.536	6.8
573.876	7.03
574.217	6.92
574.557	6.84
574.898	6.77
575.238	6.67
575.578	7.12
575.918	6.82
576.258	6.95
576.598	6.95
576.938	6.96
577.278	6.83
577.618	6.79
577.958	6.92
578.298	7
578.638	6.74
578.977	6.99
579.317	7.03
579.657	6.79
579.996	7.04
580.336	6.63
580.675	6.9
581.014	6.82
581.354	6.95
581.693	6.79
582.032	6.77
582.372	7.17
582.711	6.87
583.05	7.15
583.389	6.86
583.728	7.07
584.067	6.83
584.406	7
584.745	6.94
585.083	7.12
585.422	7.09
585.761	7.05
586.1	6.91
586.438	7.08
586.777	7.11
587.115	7.15
587.454	6.85
587.792	6.61
588.13	7.08
588.469	7.05
588.807	7.12
589.145	7.15
589.483	6.96
589.821	7.41
590.159	6.81
590.497	7
590.835	6.95
591.173	7.1
591.511	6.87
591.849	7
592.187	6.9
592.524	6.66
592.862	6.85
593.2	6.84
593.537	6.89
593.875	6.74
594.212	7.05
594.55	6.83
594.887	7.16
595.224	6.9
595.561	6.87
595.899	6.97
596.236	7.05
596.573	6.81
596.91	6.88
597.247	6.77
597.584	7.07
597.921	7.12
598.258	7.02
598.594	6.73
598.931	6.88
599.268	6.75
599.604	7.1
599.941	6.74
600.277	6.92
600.614	6.87
600.95	6.88
601.287	7.22
601.623	7.1
601.959	6.64
602.296	6.72
602.632	7.3
602.968	7.16
603.304	6.9
603.64	6.72
603.976	6.79
604.312	6.92
604.648	6.98
604.984	7.11
605.319	6.9
605.655	6.94
605.991	6.94
606.326	6.84
606.662	6.7
606.998	6.76
607.333	6.79
607.668	6.91
608.004	6.91
608.339	6.85
608.674	6.93
609.01	6.94
609.345	7.13
609.68	6.69
610.015	6.76
610.35	7.04
610.685	7.01
611.02	7.3
611.355	7.08
611.689	6.73
612.024	6.98
612.359	6.85
612.694	7
613.028	7.08
613.363	6.8
613.697	6.86
614.032	6.86
614.366	6.83
614.7	7.18
615.035	6.88
615.369	6.98
615.703	7.34
616.037	7.1
616.371	6.74
616.705	7.1
617.039	7
617.373	6.96
617.707	6.71
618.041	6.88
618.375	6.93
618.709	6.93
619.042	6.72
619.376	6.73
619.71	6.84
620.043	6.91
620.377	6.94
620.71	6.98
621.043	6.45
621.377	6.7
621.71	6.64
622.043	6.92
622.376	6.52
622.709	7
623.043	7.13
623.376	6.72
623.709	7.12
624.041	6.5
624.374	6.69
624.707	6.89
625.04	7.12
625.373	6.59
625.705	7.04
626.038	6.87
626.37	6.6
626.703	6.99
627.035	7.06
627.368	6.76
627.7	6.93
628.032	6.99
628.365	6.76
628.697	6.86
629.029	7.31
629.361	6.54
629.693	7.28
630.025	6.82
630.357	6.68
630.689	7.14
631.021	6.97
631.353	7
631.684	7.15
632.016	6.71
632.348	6.95
632.679	6.83
633.011	6.85
633.342	6.83
633.674	6.59
634.005	6.73
634.336	6.93
634.668	6.7
634.999	6.67
635.33	6.78
635.661	6.83
635.992	6.94
636.323	6.6
636.654	6.92
636.985	6.59
637.316	6.85
637.647	6.85
637.977	6.74
638.308	6.57
638.639	6.51
638.969	6.86
639.3	6.93
639.63	6.81
639.961	6.81
640.291	7.22
640.622	6.92
640.952	6.81
641.282	6.22
641.612	6.91
641.943	6.94
642.273	6.87
642.603	6.55
642.933	6.63
643.263	6.98
643.592	6.87
643.922	6.98
644.252	7.32
644.582	7.04
644.911	6.65
645.241	6.74
645.571	6.73
645.9	6.84
646.23	6.94
646.559	7.3
646.888	6.55
647.218	6.91
647.547	7.39
647.876	7.09
648.205	6.43
648.534	7.01
648.863	7.45
649.192	6.76
649.521	6.72
649.85	7.21
650.179	6.44
650.508	6.62
650.837	7.11
651.165	6.8
651.494	6.52
651.822	6.88
652.151	7.39
652.479	7.21
652.808	6.37
653.136	6.83
653.465	7.26
653.793	7.33
654.121	7.15
654.449	6.88
654.777	7.12
655.105	7.06
655.433	7.61
655.761	6.91
656.089	6.62
656.417	6.5
656.745	7.74
657.073	7.57
657.4	6.91
657.728	7.3
658.056	6.87
658.383	7.18
658.711	6.8
659.038	7.18
659.365	7.03
659.693	6.99
660.02	6.91
660.347	7.12
660.674	6.77
661.001	6.6
661.329	6.87
661.656	6.7
661.982	6.53
662.309	6.91
662.636	7.27
662.963	6.93
663.29	7.13
663.616	6.99
663.943	7.33
664.27	6.95
664.596	6.78
664.923	7.15
665.249	6.62
665.576	6.63
665.902	6.62
666.228	7
666.554	7.14
666.881	6.97
667.207	6.84
667.533	7.3
667.859	6.78
668.185	6.68
668.511	7.03
668.837	6.65
669.162	7.06
669.488	7.06
669.814	7.27
670.139	7.62
670.465	6.86
670.791	6.91
671.116	7.08
671.442	6.83
671.767	6.9
672.092	7.47
672.418	7.03
672.743	6.76
673.068	6.73
673.393	7.18
673.718	6.52
674.043	6.64
674.368	6.91
674.693	6.59
675.018	7.39
675.343	6.88
675.667	7.17
675.992	6.61
676.317	7.16
676.641	6.68
676.966	7.43
677.29	6.78
677.615	7.16
677.939	6.95
678.264	6.54
678.588	7.33
678.912	7.07
679.236	6.77
679.56	6.45
679.885	6.79
680.209	6.77
680.532	6.78
680.856	6.87
681.18	6.92
681.504	6.8
681.828	6.97
682.152	6.9
682.475	7.12
682.799	7.39
683.122	7.01
683.446	7.09
683.769	6.95
684.093	7.4
684.416	7.1
684.739	7.61
685.062	6.88
685.386	6.68
685.709	6.49
686.032	7.01
686.355	7.2
686.678	6.87
687.001	6.35
687.324	6.51
687.646	6.83
687.969	6.73
688.292	7.13
688.614	8.17
688.937	6.58
689.26	7.2
689.582	6.44
689.904	7.49
690.227	7.07
690.549	7.12
690.871	7.31
691.194	7.37
691.516	7.02
691.838	6.6
692.16	7.1
692.482	7.22
692.804	6.86
693.126	6.62
