Data from 0069_chest_Reflection__4__303.txt Node

Date: Fri Dec 16 16:31:06 CST 2022
User: ToomeyLab
Spectrometer: FLMS14357
Trigger mode: 0
Integration Time (sec): 1.000000E-2
Scans to average: 100
Electric dark correction enabled: true
Nonlinearity correction enabled: false
Boxcar width: 0
XAxis mode: Wavelengths
Number of Pixels in Spectrum: 2048
>>>>>Begin Spectral Data<<<<<
189.047	142.95
189.435	142.95
189.823	142.95
190.211	212.11
190.599	10.58
190.987	-512.71
191.375	-1.75
191.763	116.02
192.151	-813.38
192.538	108.78
192.926	312.84
193.314	41.76
193.702	75.58
194.089	76.45
194.477	-69.8
194.864	42.24
195.252	2.1
195.639	27.98
196.027	3335.78
196.414	159.32
196.801	486.76
197.189	106.98
197.576	-36.4
197.963	-9.47
198.351	-77.6
198.738	-49.74
199.125	16.63
199.512	-10.96
199.899	-46.31
200.286	-9.95
200.673	145.63
201.06	38.89
201.447	56.14
201.833	6.82
202.22	-2.55
202.607	-88.33
202.994	-13.31
203.38	5.08
203.767	6.36
204.154	-125.13
204.54	-17.77
204.927	20.38
205.313	12.19
205.699	-10.69
206.086	21.59
206.472	47.98
206.858	9.27
207.245	16.81
207.631	14.81
208.017	11.4
208.403	10.43
208.789	-14.09
209.175	57.28
209.561	40.66
209.947	3.42
210.333	-16.67
210.719	-4.91
211.105	-105.55
211.491	1.29
211.876	-12.11
212.262	-57.87
212.648	-76.27
213.034	-23.18
213.419	19.52
213.805	-24.72
214.19	-9.85
214.576	-40.26
214.961	-45.05
215.346	-38.27
215.732	-36.5
216.117	-17.08
216.502	-18.48
216.888	-17.44
217.273	26.67
217.658	-8.9
218.043	-5.88
218.428	-37.05
218.813	-41.81
219.198	-45.1
219.583	-4.58
219.968	-1.24
220.353	-2.62
220.738	-18.05
221.122	13.18
221.507	-9.46
221.892	-3.53
222.276	3.9
222.661	6.09
223.046	-3.7
223.43	3.76
223.815	9.62
224.199	-8.29
224.583	-3.3
224.968	-2.86
225.352	-6.19
225.736	2.38
226.121	-6.11
226.505	0.21
226.889	4.15
227.273	-2.64
227.657	-0.88
228.041	-0.67
228.425	3.25
228.809	1.78
229.193	1.24
229.577	1.72
229.961	5.06
230.344	4.43
230.728	3.7
231.112	3.56
231.495	3.57
231.879	3.82
232.263	2.55
232.646	2.37
233.03	1.78
233.413	3.49
233.797	5.21
234.18	-0.38
234.563	0.96
234.946	3.36
235.33	4.06
235.713	3.66
236.096	3.82
236.479	5.02
236.862	4.69
237.245	5.17
237.628	6.17
238.011	1.71
238.394	5.02
238.777	5.94
239.16	0.98
239.543	2.33
239.925	4.43
240.308	3.7
240.691	3
241.073	1.95
241.456	3.99
241.838	3.04
242.221	3.85
242.603	4.23
242.986	4.71
243.368	4.22
243.75	4.16
244.133	4.21
244.515	4.05
244.897	3.08
245.279	3.58
245.661	4.32
246.043	4.48
246.425	4.11
246.807	3.56
247.189	3.74
247.571	4.33
247.953	4.03
248.335	4.29
248.717	4.4
249.098	4.31
249.48	3.66
249.862	4.42
250.243	4.22
250.625	3.9
251.006	4.09
251.388	4.6
251.769	3.92
252.151	4.47
252.532	3.77
252.913	4.02
253.295	4.04
253.676	4.49
254.057	4.21
254.438	3.62
254.819	3.47
255.2	4.42
255.581	3.36
255.962	4.13
256.343	3.29
256.724	3.35
257.105	3.98
257.486	3.9
257.867	2.5
258.247	4.09
258.628	4.91
259.009	3.95
259.389	4.7
259.77	3.81
260.15	4.58
260.531	4.2
260.911	4.08
261.292	4.14
261.672	4.09
262.052	4.04
262.432	4.12
262.813	3.76
263.193	3.31
263.573	4.08
263.953	3.73
264.333	3.81
264.713	3.15
265.093	3.76
265.473	5.2
265.853	3.15
266.233	3.58
266.612	4.09
266.992	3.65
267.372	4.02
267.752	3.68
268.131	4.03
268.511	3.94
268.89	3.83
269.27	4.11
269.649	4.27
270.029	3.84
270.408	3.2
270.787	2.94
271.167	4.1
271.546	3.59
271.925	3.34
272.304	3.37
272.683	3.57
273.062	3.95
273.441	3.97
273.82	3.93
274.199	3.87
274.578	3.56
274.957	4.07
275.336	3.92
275.715	4.2
276.093	4.01
276.472	4.13
276.851	3.92
277.229	4.65
277.608	3.37
277.986	3.68
278.365	3.12
278.743	4.11
279.122	3.38
279.5	3.83
279.878	3.09
280.257	3.57
280.635	3.53
281.013	4.46
281.391	3.4
281.769	3.73
282.147	3.39
282.525	3.47
282.903	3.87
283.281	3.61
283.659	4.01
284.037	3.65
284.415	3.78
284.792	3.62
285.17	3.23
285.548	3.77
285.925	3.8
286.303	3.65
286.68	4.17
287.058	3.58
287.435	3.88
287.813	3.95
288.19	4.15
288.567	3.79
288.945	3.53
289.322	3.89
289.699	3.76
290.076	3.77
290.453	3.77
290.83	4.09
291.207	3.65
291.584	3.77
291.961	3.78
292.338	4.35
292.715	4.03
293.092	4.06
293.469	4.55
293.845	4.62
294.222	4.12
294.599	4.36
294.975	3.97
295.352	3.94
295.728	4.26
296.105	4.23
296.481	4.67
296.858	4.63
297.234	4.06
297.61	4.7
297.986	4.6
298.363	3.87
298.739	4.37
299.115	4.01
299.491	4.46
299.867	4.38
300.243	4.49
300.619	4.22
300.995	3.83
301.371	4.7
301.746	4.04
302.122	4.53
302.498	4.32
302.874	4.24
303.249	4.65
303.625	4.58
304	4.28
304.376	4.96
304.751	4.29
305.127	4.58
305.502	5.2
305.878	4.2
306.253	4.23
306.628	4.89
307.003	4.83
307.378	4.86
307.754	4.94
308.129	4.53
308.504	4.65
308.879	4.31
309.254	4.61
309.629	4.25
310.003	5.06
310.378	4.57
310.753	4.87
311.128	4.58
311.502	4.82
311.877	4.65
312.252	4.31
312.626	4.58
313.001	4.93
313.375	4.35
313.75	5.05
314.124	5.1
314.498	4.53
314.873	4.59
315.247	4.45
315.621	5.25
315.995	5.02
316.369	5.13
316.743	5.1
317.117	4.25
317.491	5.37
317.865	4.33
318.239	5.37
318.613	4.6
318.987	4.96
319.361	4.82
319.734	5.31
320.108	4.6
320.482	4.93
320.855	4.9
321.229	5.02
321.602	4.44
321.976	4.99
322.349	4.23
322.723	4.94
323.096	4.65
323.469	4.54
323.843	5.14
324.216	4.72
324.589	5.06
324.962	5.04
325.335	4.89
325.708	5.22
326.081	5.48
326.454	5.05
326.827	4.93
327.2	5.15
327.573	4.9
327.945	5.1
328.318	4.67
328.691	5.3
329.063	5.12
329.436	4.48
329.809	4.21
330.181	5.12
330.553	4.71
330.926	5.38
331.298	4.48
331.671	4.61
332.043	4.76
332.415	5.61
332.787	5.45
333.159	5.07
333.532	4.84
333.904	4.53
334.276	5.06
334.648	5.43
335.02	4.85
335.391	4.86
335.763	5.25
336.135	5.01
336.507	4.98
336.879	4.72
337.25	5.37
337.622	4.93
337.993	4.76
338.365	5.32
338.736	4.96
339.108	4.68
339.479	4.71
339.851	5.53
340.222	5.28
340.593	5.01
340.964	5.01
341.336	4.64
341.707	5.25
342.078	4.91
342.449	5.69
342.82	5.07
343.191	5.03
343.562	4.77
343.933	5.14
344.303	5.12
344.674	5.07
345.045	5.41
345.416	4.65
345.786	4.89
346.157	4.69
346.527	4.5
346.898	4.99
347.268	4.76
347.639	5.09
348.009	5.35
348.38	5.18
348.75	5
349.12	4.77
349.49	4.63
349.861	5.49
350.231	5.6
350.601	5.32
350.971	5.07
351.341	4.97
351.711	4.94
352.081	4.91
352.45	5.28
352.82	4.95
353.19	5.05
353.56	4.77
353.929	5.19
354.299	5.02
354.669	5.35
355.038	5.17
355.408	5.57
355.777	4.73
356.147	5.38
356.516	5.4
356.885	4.96
357.254	5.58
357.624	5.61
357.993	4.9
358.362	5.26
358.731	5.25
359.1	5.39
359.469	5.21
359.838	4.89
360.207	4.95
360.576	5.22
360.945	5.29
361.314	5.29
361.682	4.88
362.051	5.07
362.42	5.11
362.788	5.34
363.157	5.14
363.525	5.2
363.894	4.91
364.262	5.03
364.631	5.92
364.999	5.09
365.367	5.69
365.735	5.1
366.104	4.89
366.472	5.35
366.84	5.03
367.208	4.69
367.576	5.12
367.944	5.62
368.312	5.05
368.68	5.22
369.048	5.47
369.416	5.28
369.783	5.48
370.151	5.47
370.519	4.84
370.886	5.36
371.254	5.38
371.621	5.22
371.989	5.49
372.356	4.99
372.724	5.09
373.091	5.31
373.458	5.04
373.826	5.02
374.193	5.64
374.56	5.09
374.927	5.01
375.294	5.41
375.661	5.52
376.028	5.54
376.395	5.08
376.762	5.15
377.129	5.4
377.496	5.21
377.863	5.33
378.229	5.21
378.596	5.13
378.963	4.91
379.329	5.24
379.696	5.13
380.062	5.57
380.429	5.49
380.795	5.1
381.161	5.3
381.528	4.75
381.894	5.28
382.26	5.37
382.626	5.24
382.993	5.04
383.359	5.17
383.725	5.65
384.091	5.43
384.457	5.69
384.823	5.31
385.188	5.49
385.554	5.23
385.92	5.36
386.286	5.38
386.651	5.37
387.017	5.48
387.383	5.51
387.748	5.42
388.114	5.44
388.479	5.42
388.845	5.63
389.21	5.49
389.575	5.39
389.94	5.49
390.306	5.25
390.671	5.39
391.036	5.41
391.401	5.8
391.766	5.5
392.131	5.55
392.496	5.43
392.861	5.11
393.226	5.29
393.591	5.45
393.956	5.61
394.32	5.28
394.685	5.39
395.05	5.25
395.414	5.53
395.779	5.25
396.143	5.47
396.508	5.59
396.872	5.4
397.236	5.14
397.601	5.82
397.965	5.1
398.329	5.81
398.694	5.33
399.058	5.49
399.422	5.37
399.786	5.59
400.15	5.6
400.514	5.35
400.878	5.32
401.242	5.56
401.605	5.65
401.969	5.55
402.333	5.5
402.697	5.68
403.06	5.69
403.424	5.57
403.787	5.62
404.151	5.27
404.514	5.57
404.878	5.49
405.241	5.57
405.604	5.6
405.968	5.56
406.331	5.56
406.694	5.77
407.057	5.8
407.42	5.43
407.783	5.39
408.146	5.58
408.509	5.36
408.872	5.43
409.235	5.73
409.598	5.76
409.961	5.65
410.323	5.52
410.686	5.47
411.049	5.31
411.411	5.62
411.774	5.58
412.136	5.64
412.499	5.57
412.861	5.36
413.223	5.4
413.586	5.47
413.948	5.76
414.31	5.93
414.672	5.65
415.035	5.79
415.397	5.6
415.759	5.67
416.121	5.83
416.483	5.93
416.845	5.91
417.206	5.73
417.568	5.83
417.93	5.66
418.292	5.61
418.653	5.66
419.015	5.72
419.377	5.7
419.738	5.53
420.1	5.61
420.461	5.61
420.822	5.66
421.184	5.58
421.545	5.6
421.906	5.67
422.267	5.6
422.629	5.6
422.99	5.61
423.351	5.62
423.712	5.63
424.073	5.68
424.434	5.57
424.795	5.65
425.155	5.66
425.516	5.62
425.877	5.71
426.238	5.57
426.598	5.7
426.959	5.61
427.32	5.68
427.68	5.68
428.041	5.68
428.401	5.6
428.761	5.7
429.122	5.77
429.482	5.74
429.842	5.85
430.202	5.79
430.563	5.75
430.923	5.72
431.283	5.78
431.643	5.78
432.003	5.95
432.363	5.98
432.722	5.83
433.082	5.82
433.442	5.76
433.802	5.88
434.161	5.7
434.521	5.95
434.881	5.99
435.24	5.69
435.6	5.83
435.959	5.87
436.319	5.95
436.678	5.94
437.037	5.73
437.396	5.84
437.756	5.77
438.115	6.02
438.474	5.93
438.833	5.81
439.192	5.96
439.551	5.87
439.91	5.98
440.269	6.02
440.628	5.86
440.987	5.73
441.345	5.88
441.704	5.88
442.063	5.84
442.421	5.93
442.78	5.84
443.138	5.74
443.497	5.72
443.855	5.87
444.214	5.81
444.572	5.78
444.93	5.92
445.288	5.96
445.647	6.08
446.005	5.84
446.363	5.9
446.721	5.85
447.079	5.83
447.437	5.93
447.795	5.83
448.153	5.83
448.51	5.78
448.868	5.88
449.226	5.89
449.584	5.94
449.941	6.05
450.299	5.95
450.656	6.11
451.014	5.98
451.371	5.96
451.729	6.03
452.086	5.9
452.443	5.76
452.801	6
453.158	6.04
453.515	5.77
453.872	6.24
454.229	6.1
454.586	6.02
454.943	6.07
455.3	6.08
455.657	6.13
456.014	6
456.371	6.03
456.727	5.97
457.084	6.09
457.441	6.24
457.797	6.11
458.154	6.17
458.51	6.07
458.867	6.13
459.223	6.12
459.58	6.06
459.936	6.13
460.292	6.13
460.648	5.97
461.005	5.94
461.361	5.97
461.717	5.93
462.073	6.08
462.429	6.09
462.785	6.02
463.141	6.08
463.496	6.17
463.852	6.36
464.208	6.18
464.564	6.07
464.919	6.2
465.275	6.16
465.631	6.26
465.986	6.15
466.342	6.4
466.697	6.09
467.052	6.16
467.408	6.16
467.763	6.13
468.118	6.29
468.473	6.34
468.829	6.33
469.184	6.26
469.539	6.04
469.894	6.4
470.249	6.27
470.603	6.34
470.958	6.35
471.313	6.41
471.668	6.44
472.023	6.49
472.377	6.29
472.732	6.24
473.086	6.17
473.441	6.34
473.795	6.35
474.15	6.27
474.504	6.21
474.859	6.52
475.213	6.25
475.567	6.3
475.921	6.45
476.275	6.36
476.63	6.3
476.984	6.29
477.338	6.47
477.692	6.5
478.045	6.31
478.399	6.38
478.753	6.28
479.107	6.41
479.461	6.41
479.814	6.4
480.168	6.47
480.521	6.42
480.875	6.5
481.228	6.48
481.582	6.29
481.935	6.33
482.289	6.36
482.642	6.33
482.995	6.33
483.348	6.42
483.701	6.37
484.055	6.33
484.408	6.31
484.761	6.16
485.114	6.16
485.466	6.11
485.819	6.05
486.172	6.06
486.525	6.14
486.878	6.22
487.23	6.3
487.583	6.28
487.936	6.33
488.288	6.34
488.641	6.3
488.993	6.21
489.345	6.19
489.698	6.27
490.05	6.27
490.402	6.35
490.754	6.38
491.107	6.46
491.459	6.42
491.811	6.46
492.163	6.57
492.515	6.48
492.866	6.29
493.218	6.31
493.57	6.38
493.922	6.29
494.274	6.42
494.625	6.44
494.977	6.48
495.328	6.72
495.68	6.72
496.031	6.59
496.383	6.72
496.734	6.77
497.086	6.54
497.437	6.66
497.788	6.67
498.139	6.74
498.49	6.7
498.842	6.68
499.193	6.7
499.544	6.78
499.894	6.74
500.245	6.73
500.596	6.64
500.947	6.71
501.298	6.66
501.648	6.78
501.999	6.86
502.35	6.86
502.7	6.76
503.051	6.92
503.401	6.79
503.752	6.72
504.102	6.82
504.452	6.81
504.803	6.76
505.153	6.81
505.503	6.78
505.853	6.87
506.203	6.92
506.553	6.85
506.903	6.84
507.253	6.94
507.603	6.91
507.953	7
508.303	7
508.652	6.94
509.002	6.9
509.352	6.78
509.701	6.93
510.051	7.08
510.4	6.93
510.75	6.91
511.099	6.89
511.449	6.96
511.798	7.14
512.147	6.99
512.496	6.98
512.846	6.98
513.195	6.93
513.544	7.01
513.893	7
514.242	7
514.591	7.18
514.939	7.04
515.288	7.18
515.637	7.15
515.986	7.14
516.334	7.15
516.683	7.2
517.032	7.18
517.38	7.16
517.729	7.22
518.077	7.27
518.426	7.16
518.774	7.28
519.122	7.14
519.47	7.21
519.819	7.18
520.167	7.17
520.515	7.12
520.863	7.18
521.211	7.17
521.559	7.24
521.907	7.31
522.255	7.38
522.602	7.36
522.95	7.3
523.298	7.27
523.645	7.37
523.993	7.46
524.341	7.37
524.688	7.33
525.036	7.52
525.383	7.46
525.73	7.49
526.078	7.38
526.425	7.48
526.772	7.27
527.119	7.31
527.466	7.37
527.814	7.39
528.161	7.41
528.508	7.36
528.854	7.37
529.201	7.42
529.548	7.26
529.895	7.3
530.242	7.26
530.588	7.25
530.935	7.25
531.282	7.29
531.628	7.36
531.975	7.41
532.321	7.49
532.667	7.53
533.014	7.54
533.36	7.66
533.706	7.65
534.052	7.58
534.399	7.57
534.745	7.53
535.091	7.55
535.437	7.56
535.783	7.65
536.129	7.65
536.474	7.69
536.82	7.67
537.166	7.8
537.512	7.84
537.857	7.8
538.203	7.8
538.549	7.87
538.894	7.79
539.239	7.95
539.585	7.92
539.93	7.91
540.276	7.95
540.621	8.05
540.966	8.04
541.311	8.06
541.656	7.95
542.001	8.06
542.346	7.96
542.691	7.86
543.036	7.84
543.381	7.94
543.726	7.83
544.071	7.96
544.415	7.94
544.76	7.92
545.105	7.96
545.449	8.12
545.794	8.06
546.138	8.23
546.483	8.24
546.827	8.21
547.171	8.17
547.516	8.42
547.86	8.29
548.204	8.25
548.548	8.35
548.892	8.29
549.236	8.39
549.58	8.34
549.924	8.47
550.268	8.52
550.612	8.51
550.956	8.41
551.3	8.46
551.643	8.67
551.987	8.46
552.33	8.59
552.674	8.82
553.017	8.6
553.361	8.61
553.704	8.65
554.048	8.86
554.391	8.57
554.734	8.68
555.077	8.7
555.42	8.78
555.764	8.9
556.107	8.79
556.45	8.65
556.793	9.05
557.135	9.01
557.478	9.01
557.821	8.96
558.164	9.13
558.507	8.91
558.849	8.82
559.192	9.09
559.534	8.96
559.877	8.97
560.219	9.36
560.562	9.28
560.904	9.46
561.246	9.19
561.589	9.34
561.931	9.42
562.273	9.14
562.615	9.36
562.957	9.29
563.299	9.32
563.641	9.53
563.983	9.59
564.325	9.25
564.667	9.43
565.008	9.36
565.35	9.55
565.692	9.73
566.033	9.55
566.375	9.4
566.716	9.65
567.058	9.83
567.399	9.73
567.741	9.75
568.082	9.57
568.423	9.66
568.764	9.67
569.105	9.61
569.447	9.77
569.788	9.75
570.129	9.78
570.47	9.85
570.811	9.88
571.151	9.72
571.492	9.92
571.833	9.89
572.174	9.88
572.514	9.82
572.855	9.9
573.195	9.96
573.536	9.95
573.876	10.07
574.217	10.06
574.557	10.03
574.898	9.93
575.238	9.84
575.578	10.05
575.918	10.11
576.258	10.15
576.598	10.16
576.938	10.38
577.278	9.95
577.618	10.27
577.958	10.29
578.298	10.36
578.638	10.38
578.977	10.36
579.317	10.51
579.657	10.41
579.996	10.58
580.336	10.4
580.675	10.52
581.014	10.5
581.354	10.65
581.693	10.6
582.032	10.44
582.372	10.5
582.711	10.73
583.05	10.8
583.389	10.88
583.728	10.75
584.067	10.81
584.406	10.84
584.745	10.81
585.083	11.19
585.422	10.97
585.761	11.19
586.1	11.1
586.438	11.21
586.777	11.06
587.115	11.09
587.454	11.18
587.792	11.04
588.13	11.42
588.469	11.21
588.807	11.43
589.145	11.47
589.483	11.19
589.821	11.32
590.159	11.43
590.497	11.13
590.835	11.43
591.173	11.56
591.511	11.54
591.849	11.58
592.187	11.47
592.524	11.57
592.862	11.74
593.2	11.44
593.537	11.62
593.875	11.72
594.212	11.92
594.55	11.83
594.887	12.25
595.224	11.87
595.561	11.85
595.899	11.94
596.236	11.89
596.573	11.87
596.91	11.73
597.247	12
597.584	12.07
597.921	12.07
598.258	12.04
598.594	11.96
598.931	11.87
599.268	12.14
599.604	12
599.941	12.12
600.277	11.95
600.614	12.29
600.95	12.34
601.287	12.24
601.623	12.45
601.959	12.18
602.296	12.41
602.632	12.56
602.968	12.39
603.304	12.55
603.64	12.34
603.976	12.46
604.312	12.6
604.648	12.74
604.984	12.7
605.319	12.77
605.655	12.57
605.991	12.82
606.326	12.56
606.662	12.48
606.998	12.61
607.333	12.66
607.668	12.8
608.004	12.53
608.339	12.71
608.674	12.77
609.01	12.93
609.345	13.01
609.68	12.79
610.015	13.21
610.35	13.07
610.685	13.22
611.02	13.37
611.355	13.37
611.689	12.98
612.024	13.18
612.359	13.21
612.694	13.24
613.028	13.57
613.363	13.3
613.697	13.53
614.032	13.6
614.366	13.34
614.7	13.7
615.035	13.43
615.369	13.45
615.703	13.84
616.037	13.3
616.371	13.5
616.705	13.61
617.039	13.91
617.373	13.64
617.707	13.75
618.041	14.04
618.375	14.01
618.709	14.07
619.042	14.14
619.376	13.85
619.71	13.78
620.043	14.34
620.377	13.91
620.71	14.18
621.043	13.93
621.377	13.92
621.71	14.4
622.043	14.45
622.376	14.31
622.709	14.47
623.043	14.11
623.376	14.54
623.709	14.44
624.041	14.15
624.374	14.21
624.707	14.39
625.04	14.87
625.373	14.45
625.705	14.35
626.038	14.34
626.37	14.61
626.703	14.42
627.035	14.58
627.368	14.88
627.7	15.01
628.032	14.65
628.365	14.63
628.697	14.76
629.029	15.17
629.361	14.91
629.693	14.81
630.025	14.83
630.357	14.62
630.689	15.39
631.021	14.96
631.353	15.2
631.684	14.95
632.016	15.28
632.348	15.21
632.679	14.91
633.011	15.24
633.342	15.11
633.674	15.63
634.005	15.21
634.336	15.54
634.668	15.07
634.999	15.68
635.33	15.53
635.661	15.64
635.992	15.55
636.323	15.47
636.654	15.14
636.985	15.34
637.316	15.75
637.647	15.8
637.977	15.75
638.308	15.55
638.639	15.26
638.969	15.86
639.3	15.51
639.63	15.47
639.961	16.11
640.291	15.89
640.622	15.97
640.952	15.78
641.282	15.75
641.612	16.14
641.943	16.61
642.273	16.41
642.603	16.1
642.933	16.08
643.263	16.65
643.592	16.24
643.922	16.39
644.252	16.32
644.582	16.17
644.911	16.17
645.241	16.29
645.571	16.03
645.9	16.56
646.23	16.46
646.559	16.85
646.888	16.4
647.218	16.83
647.547	17.01
647.876	16.93
648.205	16.27
648.534	16.22
648.863	16.79
649.192	16.78
649.521	16.22
649.85	17.11
650.179	16.65
650.508	16.64
650.837	17.25
651.165	17.33
651.494	17.23
651.822	17.13
652.151	17.7
652.479	17.53
652.808	17.25
653.136	16.97
653.465	17.46
653.793	17.61
654.121	17.33
654.449	17.45
654.777	17.5
655.105	17.32
655.433	17.6
655.761	17.32
656.089	17.16
656.417	17.3
656.745	17.94
657.073	17.86
657.4	18.23
657.728	17.69
658.056	17.12
658.383	17.5
658.711	17.87
659.038	18
659.365	17.8
659.693	17.42
660.02	17.67
660.347	18.17
660.674	17.98
661.001	17.85
661.329	17.94
661.656	17.75
661.982	18.04
662.309	18.04
662.636	18.16
662.963	18.4
663.29	17.43
663.616	18.4
663.943	18.62
664.27	18.28
664.596	17.98
664.923	18.68
665.249	18.07
665.576	17.73
665.902	18.16
666.228	18.44
666.554	18.18
666.881	18.71
667.207	18.64
667.533	19.24
667.859	18.03
668.185	18.67
668.511	18.34
668.837	18.31
669.162	19.11
669.488	18.27
669.814	18.77
670.139	19.28
670.465	18.99
670.791	18.97
671.116	18.62
671.442	18.61
671.767	18.67
672.092	19.13
672.418	18.61
672.743	18.78
673.068	19.29
673.393	19.37
673.718	19.05
674.043	19.3
674.368	19.7
674.693	19.89
675.018	19.5
675.343	19.49
675.667	19.53
675.992	18.85
676.317	19.45
676.641	19.64
676.966	19.06
677.29	19.26
677.615	19.62
677.939	19.3
678.264	20.36
678.588	20.48
678.912	19.67
679.236	19.62
679.56	19.59
679.885	20.04
680.209	19.7
680.532	19.62
680.856	19.92
681.18	19.78
681.504	19.42
681.828	19.52
682.152	19.58
682.475	19.69
682.799	19.79
683.122	19.77
683.446	20.15
683.769	19.62
684.093	20.27
684.416	20
