Data from 0069_forehead_Reflection__0__309.txt Node

Date: Fri Dec 16 16:33:25 CST 2022
User: ToomeyLab
Spectrometer: FLMS14357
Trigger mode: 0
Integration Time (sec): 1.000000E-2
Scans to average: 100
Electric dark correction enabled: true
Nonlinearity correction enabled: false
Boxcar width: 0
XAxis mode: Wavelengths
Number of Pixels in Spectrum: 2048
>>>>>Begin Spectral Data<<<<<
189.047	83.42
189.435	83.42
189.823	83.42
190.211	182.02
190.599	-107.36
190.987	-98.97
191.375	28.08
191.763	33.07
192.151	1249.07
192.538	127.98
192.926	29.05
193.314	98.63
193.702	55.73
194.089	-97.06
194.477	117.03
194.864	65.45
195.252	91.47
195.639	46.68
196.027	-1614.68
196.414	78.67
196.801	91.87
197.189	115.29
197.576	52.3
197.963	49.71
198.351	-22.42
198.738	36.33
199.125	5.73
199.512	-7.88
199.899	-20.25
200.286	5.58
200.673	109.21
201.06	42.68
201.447	31.46
201.833	-8.78
202.22	15.59
202.607	-53.01
202.994	56.22
203.38	29.97
203.767	-12.82
204.154	-10.34
204.54	5.86
204.927	7.38
205.313	46.09
205.699	1.82
206.086	42.38
206.472	7.01
206.858	13.72
207.245	46.78
207.631	79.6
208.017	29.91
208.403	20.28
208.789	31.14
209.175	62.93
209.561	3.07
209.947	27.78
210.333	22.5
210.719	24.51
211.105	7.9
211.491	51.65
211.876	26.97
212.262	-7.6
212.648	9.77
213.034	-7.02
213.419	44.67
213.805	13.08
214.19	35.12
214.576	-24.86
214.961	20.95
215.346	4.31
215.732	40.33
216.117	17.16
216.502	-27.67
216.888	-42.9
217.273	32.65
217.658	6.69
218.043	-2.66
218.428	22.68
218.813	13.65
219.198	-18.94
219.583	16.42
219.968	-23.17
220.353	6.9
220.738	18.53
221.122	13.01
221.507	15.48
221.892	14.61
222.276	20.08
222.661	-1.38
223.046	2.6
223.43	6.08
223.815	18.56
224.199	17.84
224.583	3.32
224.968	19.85
225.352	1.17
225.736	7.87
226.121	1.66
226.505	8.4
226.889	13.12
227.273	5.4
227.657	5.85
228.041	-0.5
228.425	6.66
228.809	5.7
229.193	2.53
229.577	4.06
229.961	5.59
230.344	5.68
230.728	5.13
231.112	4.79
231.495	4.92
231.879	6.42
232.263	3.83
232.646	5.1
233.03	2.69
233.413	2.96
233.797	6.51
234.18	5.08
234.563	4.57
234.946	5.07
235.33	4.98
235.713	5.07
236.096	5.74
236.479	6.43
236.862	6.61
237.245	7.46
237.628	6.69
238.011	4.74
238.394	7.02
238.777	6.1
239.16	2.86
239.543	3.04
239.925	6.62
240.308	5.25
240.691	3.69
241.073	5.33
241.456	3.97
241.838	5.66
242.221	5.56
242.603	5.27
242.986	6.27
243.368	4.46
243.75	4.46
244.133	4.73
244.515	5.01
244.897	4.88
245.279	5.24
245.661	5.13
246.043	4.27
246.425	3.78
246.807	4.45
247.189	4.48
247.571	5.1
247.953	4.68
248.335	4.96
248.717	4.78
249.098	4.85
249.48	4.71
249.862	4.7
250.243	4.59
250.625	4.69
251.006	4.85
251.388	5.64
251.769	5.78
252.151	5.28
252.532	4.94
252.913	5.35
253.295	4.96
253.676	4.76
254.057	4.8
254.438	4.33
254.819	4.72
255.2	4.82
255.581	5.25
255.962	5.19
256.343	6.54
256.724	5.04
257.105	4.8
257.486	4.52
257.867	3.1
258.247	4.43
258.628	5.47
259.009	4.23
259.389	4.58
259.77	4.08
260.15	5.67
260.531	4.84
260.911	4.65
261.292	4.6
261.672	4.71
262.052	4.34
262.432	4.43
262.813	4.91
263.193	4.23
263.573	5.45
263.953	4.51
264.333	4.88
264.713	4.66
265.093	4.92
265.473	5.48
265.853	5.23
266.233	3.81
266.612	5.82
266.992	4.12
267.372	4.89
267.752	4.38
268.131	4.09
268.511	4.16
268.89	4.87
269.27	5.18
269.649	5.06
270.029	4.26
270.408	4.46
270.787	4.45
271.167	5.06
271.546	4.28
271.925	4.82
272.304	4.89
272.683	4.52
273.062	4.94
273.441	4.81
273.82	4.62
274.199	4.91
274.578	4.61
274.957	4.72
275.336	4.65
275.715	5.41
276.093	5.36
276.472	4.86
276.851	5.57
277.229	5.04
277.608	4.75
277.986	4.56
278.365	4.18
278.743	5.02
279.122	3.83
279.5	4.22
279.878	4.29
280.257	5.43
280.635	4.53
281.013	4.87
281.391	4.49
281.769	4.71
282.147	5
282.525	4.26
282.903	4.63
283.281	4.55
283.659	4.81
284.037	4.36
284.415	4.49
284.792	3.99
285.17	4.72
285.548	4.4
285.925	4.81
286.303	4.54
286.68	4.52
287.058	4.92
287.435	4.52
287.813	4.47
288.19	4.74
288.567	4.64
288.945	4.6
289.322	4.5
289.699	4.89
290.076	5.01
290.453	4.64
290.83	5.1
291.207	4.78
291.584	4.53
291.961	5.11
292.338	4.74
292.715	5.09
293.092	4.95
293.469	5.01
293.845	4.86
294.222	5.13
294.599	5.47
294.975	5.13
295.352	4.52
295.728	5.32
296.105	5.12
296.481	5.44
296.858	5.38
297.234	5.45
297.61	5.31
297.986	4.96
298.363	4.83
298.739	5.04
299.115	4.85
299.491	4.95
299.867	5.35
300.243	5.11
300.619	5.3
300.995	5.45
301.371	5.54
301.746	5.19
302.122	5.55
302.498	5.25
302.874	5.55
303.249	5.79
303.625	5.6
304	4.78
304.376	5.52
304.751	5.6
305.127	5.63
305.502	6.21
305.878	5.87
306.253	5.49
306.628	5.99
307.003	6.17
307.378	6.31
307.754	6.05
308.129	6
308.504	6.06
308.879	6.09
309.254	6.65
309.629	6.34
310.003	6.69
310.378	6.39
310.753	6.42
311.128	6.25
311.502	5.83
311.877	6.31
312.252	6.13
312.626	5.94
313.001	6.48
313.375	6.25
313.75	6.51
314.124	6.44
314.498	6.49
314.873	6.6
315.247	6.79
315.621	6.91
315.995	7.02
316.369	7.01
316.743	6.92
317.117	7.38
317.491	7.31
317.865	6.74
318.239	7.35
318.613	7.13
318.987	7.44
319.361	7.39
319.734	7.45
320.108	7.75
320.482	7.55
320.855	7.23
321.229	8.12
321.602	7.52
321.976	8.03
322.349	6.51
322.723	6.92
323.096	7.43
323.469	7
323.843	7.68
324.216	7.88
324.589	8.03
324.962	7.92
325.335	7.6
325.708	7.93
326.081	8.52
326.454	7.75
326.827	8.01
327.2	8.51
327.573	8.53
327.945	7.9
328.318	8.06
328.691	8.44
329.063	7.89
329.436	8.31
329.809	8.09
330.181	8.27
330.553	8.83
330.926	8.77
331.298	7.86
331.671	8.48
332.043	8.37
332.415	8.95
332.787	8.71
333.159	8.72
333.532	8.66
333.904	8.39
334.276	8.55
334.648	9.14
335.02	9.07
335.391	8.75
335.763	8.77
336.135	9.18
336.507	9.35
336.879	9.05
337.25	9.33
337.622	9.43
337.993	9.2
338.365	9.78
338.736	9.17
339.108	8.94
339.479	9.37
339.851	9.72
340.222	9.77
340.593	9.35
340.964	9.45
341.336	9.33
341.707	9.75
342.078	9.34
342.449	9.9
342.82	10.14
343.191	9.61
343.562	9.65
343.933	9.23
344.303	9.85
344.674	9.92
345.045	10.38
345.416	9.8
345.786	10.05
346.157	9.99
346.527	9.8
346.898	9.85
347.268	10.17
347.639	9.87
348.009	10.57
348.38	10.59
348.75	10.14
349.12	10.36
349.49	10.16
349.861	10.85
350.231	11.58
350.601	10.59
350.971	10.45
351.341	10.74
351.711	10.79
352.081	10.96
352.45	11.04
352.82	10.93
353.19	10.66
353.56	11.1
353.929	11.46
354.299	10.94
354.669	11.07
355.038	11.33
355.408	11.79
355.777	11.18
356.147	11.35
356.516	11.8
356.885	11.46
357.254	11.6
357.624	11.49
357.993	11.75
358.362	11.99
358.731	11.48
359.1	11.68
359.469	11.7
359.838	11.67
360.207	11.75
360.576	12.08
360.945	11.98
361.314	12.01
361.682	11.83
362.051	12.06
362.42	12.16
362.788	12.36
363.157	12.18
363.525	12.07
363.894	12.03
364.262	12.21
364.631	12.75
364.999	12.18
365.367	12.25
365.735	12.2
366.104	12.59
366.472	12.52
366.84	12.54
367.208	12.57
367.576	12.64
367.944	12.91
368.312	12.16
368.68	13.15
369.048	13.08
369.416	13.1
369.783	13.17
370.151	12.99
370.519	12.93
370.886	13.42
371.254	13.44
371.621	13.37
371.989	13.56
372.356	13.5
372.724	13.45
373.091	13.53
373.458	13.37
373.826	13.68
374.193	13.8
374.56	13.37
374.927	13.51
375.294	13.94
375.661	14.1
376.028	14.28
376.395	13.64
376.762	14.31
377.129	14.17
377.496	14.21
377.863	14.29
378.229	13.91
378.596	14.11
378.963	14.38
379.329	14.37
379.696	14.49
380.062	14.93
380.429	14.46
380.795	14.11
381.161	14.85
381.528	14.58
381.894	14.65
382.26	14.81
382.626	14.85
382.993	14.64
383.359	14.75
383.725	15.55
384.091	15.27
384.457	15.02
384.823	15.32
385.188	15.28
385.554	15.18
385.92	15.24
386.286	15.75
386.651	15.57
387.017	15.87
387.383	15.41
387.748	15.47
388.114	16.04
388.479	15.99
388.845	15.67
389.21	15.73
389.575	15.97
389.94	16.1
390.306	15.89
390.671	16.18
391.036	16.33
391.401	16.41
391.766	16.19
392.131	16.34
392.496	16.47
392.861	16.11
393.226	16.39
393.591	16.45
393.956	16.48
394.32	16.38
394.685	16.79
395.05	16.55
395.414	16.88
395.779	16.66
396.143	16.98
396.508	16.78
396.872	17.05
397.236	16.91
397.601	17.35
397.965	16.85
398.329	17.42
398.694	17.24
399.058	17.22
399.422	17.13
399.786	17.26
400.15	17.29
400.514	17.44
400.878	17.47
401.242	17.72
401.605	17.66
401.969	17.81
402.333	17.79
402.697	17.86
403.06	18.18
403.424	17.81
403.787	18.1
404.151	17.82
404.514	18.23
404.878	18.13
405.241	18.2
405.604	18.11
405.968	18.21
406.331	18.34
406.694	18.22
407.057	18.59
407.42	18.61
407.783	18.55
408.146	18.26
408.509	18.78
408.872	18.61
409.235	18.63
409.598	18.6
409.961	19.02
410.323	19.06
410.686	18.78
411.049	18.84
411.411	18.82
411.774	18.93
412.136	19.27
412.499	19.06
412.861	18.94
413.223	19.53
413.586	19.29
413.948	19.8
414.31	19.71
414.672	19.37
415.035	19.71
415.397	19.75
415.759	19.66
416.121	20.08
416.483	19.83
416.845	19.98
417.206	19.96
417.568	19.93
417.93	20.02
418.292	19.85
418.653	20.1
419.015	19.98
419.377	20.01
419.738	20
420.1	19.88
420.461	20.12
420.822	20.06
421.184	20.13
421.545	20.1
421.906	20.34
422.267	20.03
422.629	20.06
422.99	19.99
423.351	20.22
423.712	20.43
424.073	20.41
424.434	20.48
424.795	20.42
425.155	20.64
425.516	20.46
425.877	20.5
426.238	20.62
426.598	20.75
426.959	20.68
427.32	21.04
427.68	21.03
428.041	21.29
428.401	21.09
428.761	21.27
429.122	21.34
429.482	21.4
429.842	21.56
430.202	21.72
430.563	21.69
430.923	21.69
431.283	21.87
431.643	21.91
432.003	22
432.363	21.96
432.722	22.04
433.082	22.05
433.442	22.01
433.802	22.05
434.161	22.17
434.521	22.33
434.881	22.39
435.24	22.21
435.6	22.24
435.959	22.36
436.319	22.29
436.678	22.49
437.037	22.61
437.396	22.83
437.756	22.74
438.115	22.84
438.474	22.66
438.833	23.02
439.192	23.09
439.551	23.09
439.91	22.84
440.269	22.96
440.628	23.04
440.987	22.84
441.345	23.1
441.704	23.07
442.063	23.07
442.421	23.04
442.78	23.07
443.138	23.23
443.497	23.31
443.855	23.31
444.214	23.59
444.572	23.53
444.93	23.42
445.288	23.61
445.647	23.78
446.005	23.62
446.363	23.88
446.721	23.61
447.079	23.61
447.437	23.63
447.795	23.56
448.153	23.74
448.51	23.61
448.868	23.93
449.226	23.91
449.584	23.94
449.941	24.13
450.299	24.14
450.656	24.5
451.014	24.42
451.371	24.63
451.729	24.36
452.086	24.33
452.443	24.8
452.801	24.86
453.158	24.7
453.515	24.78
453.872	24.94
454.229	24.9
454.586	24.8
454.943	25.14
455.3	25.19
455.657	24.98
456.014	25.34
456.371	25.44
456.727	25.39
457.084	25.29
457.441	25.58
457.797	25.57
458.154	25.68
458.51	25.78
458.867	25.68
459.223	25.82
459.58	25.9
459.936	25.72
460.292	25.79
460.648	25.7
461.005	25.55
461.361	25.5
461.717	25.61
462.073	25.73
462.429	25.79
462.785	25.98
463.141	26.23
463.496	26.03
463.852	26.33
464.208	26.57
464.564	26.7
464.919	26.73
465.275	26.64
465.631	26.68
465.986	26.79
466.342	26.87
466.697	26.64
467.052	26.97
467.408	26.76
467.763	26.8
468.118	26.98
468.473	27.08
468.829	27.03
469.184	27.17
469.539	27.01
469.894	27.06
470.249	27.28
470.603	27.47
470.958	27.58
471.313	27.39
471.668	27.71
472.023	27.73
472.377	27.68
472.732	27.88
473.086	27.66
473.441	27.67
473.795	27.8
474.15	27.9
474.504	27.98
474.859	28.08
475.213	28.05
475.567	28.05
475.921	28.31
476.275	28.26
476.63	28.47
476.984	28.31
477.338	28.71
477.692	28.44
478.045	28.47
478.399	28.5
478.753	28.4
479.107	28.52
479.461	28.51
479.814	28.36
480.168	28.5
480.521	28.49
480.875	28.82
481.228	28.89
481.582	28.68
481.935	28.85
482.289	28.69
482.642	28.8
482.995	28.77
483.348	28.63
483.701	28.59
484.055	28.69
484.408	28.47
484.761	28.28
485.114	28.11
485.466	28.06
485.819	28.03
486.172	28.16
486.525	28.21
486.878	28.49
487.23	28.61
487.583	28.84
487.936	29.04
488.288	28.88
488.641	28.72
488.993	28.74
489.345	28.72
489.698	28.8
490.05	28.91
490.402	29.07
490.754	29.27
491.107	29.6
491.459	29.57
491.811	29.76
492.163	29.81
492.515	29.72
492.866	29.41
493.218	29.33
493.57	29.39
493.922	29.49
494.274	29.69
494.625	29.93
494.977	30.2
495.328	30.48
495.68	30.81
496.031	30.74
496.383	30.74
496.734	31
497.086	31.01
497.437	31.19
497.788	31.03
498.139	30.91
498.49	30.89
498.842	31.03
499.193	31.23
499.544	31.37
499.894	31.19
500.245	31.35
500.596	31.32
500.947	31.31
501.298	31.43
501.648	31.63
501.999	31.66
502.35	31.9
502.7	31.85
503.051	31.89
503.401	32.01
503.752	32.08
504.102	32.13
504.452	32.01
504.803	31.99
505.153	32.36
505.503	32.25
505.853	32.31
506.203	32.33
506.553	32.52
506.903	32.52
507.253	32.5
507.603	32.52
507.953	32.78
508.303	32.46
508.652	32.76
509.002	32.65
509.352	32.74
509.701	32.6
510.051	32.66
510.4	32.62
510.75	32.59
511.099	32.71
511.449	32.84
511.798	32.85
512.147	33.07
512.496	32.91
512.846	32.98
513.195	33.1
513.544	33.14
513.893	33
514.242	33.13
514.591	33.33
514.939	33.45
515.288	33.49
515.637	33.65
515.986	33.71
516.334	33.68
516.683	33.78
517.032	33.81
517.38	34.03
517.729	33.99
518.077	34.06
518.426	33.88
518.774	33.95
519.122	33.68
519.47	33.84
519.819	33.76
520.167	33.54
520.515	33.69
520.863	33.81
521.211	33.91
521.559	34
521.907	34.2
522.255	34.3
522.602	34.54
522.95	34.56
523.298	34.58
523.645	34.61
523.993	34.87
524.341	34.68
524.688	34.88
525.036	34.98
525.383	34.88
525.73	34.95
526.078	34.88
526.425	34.79
526.772	34.69
527.119	34.43
527.466	34.49
527.814	34.54
528.161	34.72
528.508	34.66
528.854	34.73
529.201	34.69
529.548	34.44
529.895	34.29
530.242	34.5
530.588	34.42
530.935	34.24
531.282	34.41
531.628	34.71
531.975	34.96
532.321	35.17
532.667	35.23
533.014	35.38
533.36	35.41
533.706	35.62
534.052	35.48
534.399	35.26
534.745	35.2
535.091	35.27
535.437	35.37
535.783	35.52
536.129	35.63
536.474	35.77
536.82	36.08
537.166	36.21
537.512	36.01
537.857	36.17
538.203	36.06
538.549	36.07
538.894	36.12
539.239	36.4
539.585	36.56
539.93	36.73
540.276	36.94
540.621	36.92
540.966	37.1
541.311	36.95
541.656	36.81
542.001	36.78
542.346	36.48
542.691	36.32
543.036	36.2
543.381	36.37
543.726	36.28
544.071	36.6
544.415	36.62
544.76	36.7
545.105	36.9
545.449	36.96
545.794	37.16
546.138	37.5
546.483	37.55
546.827	37.54
547.171	37.74
547.516	37.81
547.86	37.66
548.204	37.59
548.548	37.69
548.892	37.77
549.236	37.81
549.58	37.94
549.924	38.19
550.268	38.38
550.612	38.41
550.956	38.55
551.3	38.42
551.643	38.88
551.987	38.68
552.33	38.96
552.674	38.91
553.017	38.88
553.361	38.99
553.704	39.18
554.048	38.87
554.391	38.93
554.734	38.87
555.077	39.19
555.42	38.91
555.764	39.23
556.107	39.44
556.45	39.37
556.793	39.55
557.135	39.66
557.478	39.79
557.821	39.69
558.164	39.66
558.507	39.63
558.849	39.83
559.192	39.83
559.534	40.03
559.877	39.98
560.219	40.02
560.562	40.08
560.904	40.32
561.246	40.32
561.589	40.41
561.931	40.15
562.273	40.05
562.615	40.47
562.957	40.13
563.299	40.36
563.641	40.43
563.983	40.36
564.325	40.18
564.667	40.81
565.008	40.74
565.35	41.03
565.692	40.84
566.033	40.7
566.375	40.78
566.716	40.99
567.058	40.93
567.399	40.59
567.741	40.66
568.082	40.85
568.423	40.93
568.764	40.6
569.105	41.08
569.447	41.17
569.788	41.13
570.129	41.19
570.47	41.14
570.811	41.37
571.151	41.19
571.492	41.29
571.833	41.25
572.174	41.51
572.514	41.61
572.855	41.26
573.195	41.47
573.536	41.41
573.876	41.72
574.217	41.43
574.557	41.5
574.898	41.79
575.238	41.52
575.578	41.93
575.918	42.08
576.258	41.87
576.598	41.89
576.938	42.06
577.278	41.71
577.618	42.16
577.958	41.84
578.298	41.95
578.638	42
578.977	42.47
579.317	42.39
579.657	42.42
579.996	42.28
580.336	42.56
580.675	42.81
581.014	42.57
581.354	43.17
581.693	43.25
582.032	42.82
582.372	43.06
582.711	43.07
583.05	43.35
583.389	43.12
583.728	43.53
584.067	43.11
584.406	43.12
584.745	43.52
585.083	43.65
585.422	43.3
585.761	43.76
586.1	43.6
586.438	43.53
586.777	43.69
587.115	43.79
587.454	43.67
587.792	43.86
588.13	44.28
588.469	43.75
588.807	44.1
589.145	44.01
589.483	43.98
589.821	43.83
590.159	44.07
590.497	44.13
590.835	43.94
591.173	44
591.511	44.33
591.849	44.24
592.187	44.09
592.524	44.09
592.862	44.65
593.2	44.31
593.537	44.2
593.875	44.64
594.212	44.79
594.55	44.69
594.887	44.77
595.224	44.88
595.561	44.78
595.899	44.88
596.236	44.73
596.573	44.54
596.91	44.61
597.247	44.81
597.584	44.86
597.921	44.94
598.258	44.65
598.594	44.42
598.931	44.6
599.268	44.92
599.604	44.56
599.941	44.8
600.277	45.14
600.614	45.46
600.95	45.11
601.287	45.17
601.623	45.5
601.959	45.62
602.296	45.57
602.632	45.59
602.968	45.94
603.304	45.43
603.64	45.78
603.976	45.74
604.312	45.88
604.648	45.95
604.984	45.65
605.319	45.56
605.655	45.57
605.991	45.56
606.326	45.44
606.662	45.24
606.998	45.53
607.333	45.54
607.668	45.59
608.004	45.62
608.339	45.95
608.674	46.02
609.01	46.38
609.345	46.64
609.68	46.16
610.015	46.48
610.35	46.71
610.685	46.94
611.02	46.65
611.355	46.14
611.689	46.5
612.024	46.56
612.359	46.53
612.694	46.82
613.028	47.18
613.363	46.63
613.697	47.22
614.032	46.97
614.366	47.11
614.7	47.49
615.035	46.87
615.369	47.39
615.703	47.19
616.037	46.97
616.371	47.28
616.705	47.35
617.039	47.41
617.373	47.31
617.707	47.27
618.041	47.42
618.375	47.72
618.709	47.63
619.042	47.65
619.376	47.8
619.71	47.91
620.043	47.87
620.377	48.1
620.71	48.3
621.043	47.85
621.377	48.07
621.71	47.78
622.043	48.11
622.376	47.89
622.709	48.16
623.043	47.84
623.376	48.2
623.709	48.55
624.041	48.19
624.374	48.04
624.707	48.08
625.04	48.9
625.373	48.45
625.705	48.42
626.038	48.53
626.37	48.59
626.703	48.55
627.035	48.32
627.368	48.43
627.7	49.13
628.032	48.65
628.365	48.44
628.697	48.59
629.029	49.19
629.361	48.63
629.693	49.19
630.025	48.83
630.357	48.89
630.689	49.04
631.021	48.86
631.353	49.23
631.684	49.02
632.016	49.04
632.348	48.99
632.679	49.27
633.011	49.31
633.342	49.14
633.674	49.17
634.005	48.91
634.336	49.47
634.668	49.12
634.999	49.41
635.33	49.39
635.661	49.69
635.992	49.3
636.323	49.71
636.654	49.49
636.985	49.76
637.316	49.27
637.647	49.78
637.977	50.33
638.308	50.28
638.639	49.77
638.969	50.39
639.3	50.23
639.63	50.23
639.961	50.35
640.291	50.1
640.622	50.96
640.952	50.31
641.282	50.41
641.612	50.9
641.943	50.66
642.273	49.91
642.603	50.1
642.933	50.75
643.263	51.16
643.592	51.06
643.922	50.6
644.252	51.08
644.582	50.15
644.911	50.14
645.241	50.2
645.571	50.92
645.9	50.78
646.23	50.99
646.559	50.83
646.888	50.55
647.218	51.08
647.547	51.24
647.876	51.23
648.205	50.64
648.534	51.35
648.863	51.23
649.192	51.4
649.521	51.89
649.85	50.89
650.179	50.76
650.508	51.1
650.837	51.26
651.165	51.38
651.494	51.85
651.822	51.36
652.151	51.16
652.479	51.63
652.808	50.66
653.136	50.87
653.465	51.47
653.793	51.66
654.121	51.78
654.449	51.14
654.777	51.61
655.105	51.73
655.433	52.02
655.761	50.89
656.089	51.56
656.417	51.29
656.745	52.11
657.073	51.91
657.4	52.38
657.728	52.35
658.056	52.27
658.383	52.01
658.711	51.88
659.038	52.35
659.365	52.63
659.693	52.26
660.02	52.05
660.347	52.28
660.674	51.96
661.001	52.02
661.329	52.29
661.656	51.76
661.982	52.52
662.309	52.87
662.636	52.37
662.963	52.43
663.29	52.29
663.616	52.47
663.943	53.04
664.27	52.97
664.596	52.51
664.923	52.73
665.249	52.81
665.576	52.96
665.902	52.73
666.228	52.95
666.554	52.9
666.881	53.79
667.207	52.95
667.533	53
667.859	52.87
668.185	53.28
668.511	52.08
668.837	52.54
669.162	53.15
669.488	52.97
669.814	53.75
670.139	52.99
670.465	53.48
670.791	53.3
