Data from 0069_forehead_Reflection__2__311.txt Node

Date: Fri Dec 16 16:34:06 CST 2022
User: ToomeyLab
Spectrometer: FLMS14357
Trigger mode: 0
Integration Time (sec): 1.000000E-2
Scans to average: 100
Electric dark correction enabled: true
Nonlinearity correction enabled: false
Boxcar width: 0
XAxis mode: Wavelengths
Number of Pixels in Spectrum: 2048
>>>>>Begin Spectral Data<<<<<
189.047	75.72
189.435	75.72
189.823	75.72
190.211	205.63
190.599	-38.73
190.987	-510.65
191.375	180.97
191.763	24.13
192.151	433.46
192.538	168.29
192.926	-358.75
193.314	61.6
193.702	116.79
194.089	-1.17
194.477	-72.1
194.864	-39.45
195.252	-38.02
195.639	91.36
196.027	-89.91
196.414	-80.13
196.801	-242.11
197.189	76.2
197.576	1.75
197.963	-105.75
198.351	0.03
198.738	-4.49
199.125	35.25
199.512	9.56
199.899	-8.52
200.286	3.81
200.673	62.7
201.06	61.87
201.447	37.91
201.833	25.21
202.22	48.93
202.607	31.12
202.994	61.39
203.38	-14.96
203.767	2.95
204.154	-21.88
204.54	36.32
204.927	-3
205.313	28.93
205.699	36.47
206.086	-42.58
206.472	9.5
206.858	37.91
207.245	14.78
207.631	10.47
208.017	48.51
208.403	38.25
208.789	21.3
209.175	22.24
209.561	-1.85
209.947	-15.47
210.333	-8.19
210.719	22.45
211.105	48.63
211.491	43.36
211.876	3.89
212.262	0.49
212.648	34.88
213.034	2.85
213.419	40.35
213.805	19.2
214.19	70.09
214.576	13.68
214.961	9.38
215.346	-20.78
215.732	-1.53
216.117	23.2
216.502	-50.31
216.888	-1.2
217.273	19.45
217.658	-19.26
218.043	-0.46
218.428	35.41
218.813	15.61
219.198	-2.14
219.583	9.67
219.968	17.39
220.353	0.25
220.738	-6.91
221.122	-17.66
221.507	19.92
221.892	5.65
222.276	2.79
222.661	-3.7
223.046	13.63
223.43	2.5
223.815	10.08
224.199	14.56
224.583	4.66
224.968	2.82
225.352	0.08
225.736	8
226.121	-5.5
226.505	11.68
226.889	-1.27
227.273	3.54
227.657	3.32
228.041	9.55
228.425	8.97
228.809	6.22
229.193	3.87
229.577	3.64
229.961	5.21
230.344	4.5
230.728	4.32
231.112	3.87
231.495	3.88
231.879	4.21
232.263	2.71
232.646	4.46
233.03	3.97
233.413	2.74
233.797	7.47
234.18	5.56
234.563	3.63
234.946	3.56
235.33	5.58
235.713	4.14
236.096	3.37
236.479	5.66
236.862	6.16
237.245	6.02
237.628	6.52
238.011	4.38
238.394	6
238.777	4.04
239.16	2.77
239.543	4.31
239.925	4.64
240.308	4.55
240.691	4.9
241.073	4.61
241.456	4.26
241.838	5.57
242.221	4.83
242.603	5.07
242.986	5.68
243.368	4.84
243.75	4.46
244.133	4.75
244.515	4.79
244.897	4.41
245.279	4.18
245.661	4.88
246.043	4.85
246.425	4.04
246.807	5.47
247.189	4.41
247.571	4.45
247.953	4.83
248.335	4.76
248.717	4.68
249.098	4.72
249.48	4.16
249.862	4.8
250.243	4.89
250.625	4.95
251.006	5.57
251.388	4.94
251.769	4.97
252.151	5.11
252.532	4.78
252.913	5.11
253.295	5.22
253.676	4.93
254.057	4.68
254.438	5.21
254.819	4.4
255.2	4.57
255.581	5.2
255.962	6.08
256.343	5.38
256.724	4.21
257.105	5.13
257.486	4.28
257.867	3.07
258.247	5.19
258.628	5.49
259.009	4.83
259.389	4.92
259.77	4.37
260.15	5.52
260.531	4.89
260.911	4.78
261.292	4.66
261.672	4.51
262.052	4.26
262.432	4.68
262.813	4.54
263.193	4.01
263.573	4.42
263.953	4.42
264.333	4.48
264.713	4.24
265.093	4.11
265.473	5.51
265.853	4.19
266.233	4.66
266.612	5.06
266.992	4.64
267.372	4.54
267.752	4.6
268.131	4.51
268.511	4.77
268.89	4.83
269.27	4.5
269.649	4.98
270.029	4.79
270.408	4.1
270.787	4.47
271.167	4.42
271.546	4.11
271.925	5.01
272.304	4.58
272.683	4.33
273.062	4.95
273.441	5.09
273.82	4.82
274.199	4.63
274.578	4.55
274.957	4.67
275.336	4.38
275.715	4.75
276.093	5.25
276.472	4.68
276.851	5
277.229	4.86
277.608	4.44
277.986	4.43
278.365	4.14
278.743	4.76
279.122	4.66
279.5	4.28
279.878	4.1
280.257	4.94
280.635	4.09
281.013	4.78
281.391	4.36
281.769	4.15
282.147	5.19
282.525	4.52
282.903	4.43
283.281	4.52
283.659	5.14
284.037	4.56
284.415	5.24
284.792	4.57
285.17	4.64
285.548	3.86
285.925	4.39
286.303	4.17
286.68	5.22
287.058	4.63
287.435	4.55
287.813	4.35
288.19	5.01
288.567	4.1
288.945	4.49
289.322	4.23
289.699	4.61
290.076	4.79
290.453	4.54
290.83	5.01
291.207	4.86
291.584	4.91
291.961	5.6
292.338	4.92
292.715	5.09
293.092	5.02
293.469	5.16
293.845	5.29
294.222	5.16
294.599	5.73
294.975	5.06
295.352	4.81
295.728	5.52
296.105	5.29
296.481	5.57
296.858	5.58
297.234	5.15
297.61	5.66
297.986	5.4
298.363	4.77
298.739	5.24
299.115	5.21
299.491	5.47
299.867	5.59
300.243	4.98
300.619	5.53
300.995	5.8
301.371	6.1
301.746	5.85
302.122	6.03
302.498	6.01
302.874	5.95
303.249	6.05
303.625	6.18
304	5.37
304.376	5.97
304.751	5.69
305.127	6.23
305.502	6.28
305.878	5.88
306.253	6.05
306.628	6.69
307.003	6.3
307.378	6.14
307.754	7
308.129	5.64
308.504	5.89
308.879	6.5
309.254	6.61
309.629	6.79
310.003	7.01
310.378	6.59
310.753	7.12
311.128	6.61
311.502	6.61
311.877	6.5
312.252	6.43
312.626	6.56
313.001	6.57
313.375	6.94
313.75	6.96
314.124	7.41
314.498	6.55
314.873	7
315.247	7.06
315.621	7.52
315.995	7.23
316.369	7.53
316.743	7.26
317.117	6.89
317.491	7.47
317.865	7
318.239	8.03
318.613	7.33
318.987	7.35
319.361	7.46
319.734	7.93
320.108	7.86
320.482	7.77
320.855	7.63
321.229	8.23
321.602	7.53
321.976	7.72
322.349	7.37
322.723	7.23
323.096	7.88
323.469	7.33
323.843	8.08
324.216	8.13
324.589	8.61
324.962	8.2
325.335	8.32
325.708	8.35
326.081	8.59
326.454	8.45
326.827	8.33
327.2	8.5
327.573	8.62
327.945	8.11
328.318	8.5
328.691	8.86
329.063	8.45
329.436	8.31
329.809	8.07
330.181	8.87
330.553	8.67
330.926	8.53
331.298	8.47
331.671	8.59
332.043	8.86
332.415	9.55
332.787	9.92
333.159	8.83
333.532	8.95
333.904	9.23
334.276	9.2
334.648	9.1
335.02	8.89
335.391	9.59
335.763	9.22
336.135	9.64
336.507	9.49
336.879	9.57
337.25	9.56
337.622	9.84
337.993	9.44
338.365	9.62
338.736	9.45
339.108	9.4
339.479	9.42
339.851	9.94
340.222	10.02
340.593	9.67
340.964	9.39
341.336	9.56
341.707	9.44
342.078	9.65
342.449	9.93
342.82	9.41
343.191	9.49
343.562	9.77
343.933	10.15
344.303	10.15
344.674	10.11
345.045	10.09
345.416	10.17
345.786	9.54
346.157	10.31
346.527	10.21
346.898	10.44
347.268	9.9
347.639	10.26
348.009	10.55
348.38	10.23
348.75	10.33
349.12	10.37
349.49	10.27
349.861	10.98
350.231	10.86
350.601	10.84
350.971	10.77
351.341	10.8
351.711	10.96
352.081	10.8
352.45	10.83
352.82	10.95
353.19	11.02
353.56	11.25
353.929	11.2
354.299	11
354.669	11.22
355.038	10.98
355.408	11.27
355.777	11.24
356.147	11.5
356.516	11.79
356.885	11.7
357.254	11.26
357.624	11.27
357.993	11.23
358.362	11.83
358.731	11.4
359.1	11.86
359.469	11.81
359.838	11.53
360.207	11.68
360.576	11.67
360.945	11.99
361.314	12.24
361.682	11.85
362.051	11.76
362.42	12.05
362.788	12.15
363.157	11.71
363.525	12.06
363.894	12.09
364.262	12.11
364.631	12.92
364.999	12.08
365.367	12.62
365.735	12.24
366.104	12.43
366.472	12.86
366.84	12.38
367.208	12.14
367.576	12.39
367.944	12.7
368.312	12.36
368.68	12.8
369.048	12.55
369.416	13.16
369.783	12.72
370.151	12.79
370.519	12.8
370.886	13.18
371.254	13.3
371.621	13.3
371.989	13.05
372.356	13.28
372.724	13.26
373.091	13.44
373.458	13.37
373.826	13.35
374.193	13.48
374.56	13.11
374.927	13.5
375.294	13.75
375.661	13.71
376.028	13.96
376.395	13.55
376.762	13.91
377.129	14.06
377.496	14.1
377.863	14.15
378.229	13.87
378.596	13.89
378.963	13.85
379.329	13.81
379.696	14.08
380.062	14.52
380.429	14.19
380.795	13.88
381.161	14.46
381.528	14.01
381.894	14.57
382.26	14.25
382.626	14.46
382.993	14.03
383.359	14.58
383.725	14.35
384.091	14.49
384.457	14.61
384.823	14.82
385.188	14.88
385.554	15.05
385.92	14.84
386.286	14.99
386.651	14.53
387.017	15.32
387.383	14.76
387.748	14.84
388.114	15.17
388.479	14.77
388.845	15.27
389.21	15.11
389.575	15.24
389.94	15.25
390.306	15.31
390.671	15.19
391.036	15.53
391.401	15.77
391.766	15.74
392.131	15.62
392.496	15.8
392.861	15.54
393.226	15.73
393.591	15.74
393.956	15.87
394.32	15.75
394.685	16.01
395.05	15.71
395.414	16.13
395.779	15.81
396.143	16.25
396.508	16.3
396.872	16.16
397.236	15.9
397.601	16.03
397.965	16.08
398.329	16.31
398.694	16.18
399.058	16.03
399.422	16.45
399.786	16.53
400.15	16.56
400.514	16.61
400.878	16.4
401.242	16.73
401.605	16.6
401.969	16.81
402.333	16.97
402.697	16.99
403.06	17.03
403.424	17.05
403.787	16.97
404.151	16.92
404.514	17.13
404.878	17.22
405.241	17.3
405.604	17.15
405.968	17.19
406.331	17.1
406.694	17.17
407.057	17.63
407.42	17.49
407.783	17.43
408.146	17.37
408.509	17.36
408.872	17.47
409.235	17.69
409.598	17.76
409.961	17.55
410.323	17.6
410.686	17.85
411.049	17.66
411.411	18.11
411.774	17.95
412.136	18.03
412.499	17.98
412.861	18.07
413.223	18.14
413.586	18.07
413.948	18.22
414.31	18.51
414.672	18.32
415.035	18.41
415.397	18.24
415.759	18.32
416.121	18.77
416.483	18.63
416.845	18.47
417.206	18.65
417.568	18.54
417.93	18.42
418.292	18.55
418.653	18.48
419.015	18.69
419.377	18.58
419.738	18.52
420.1	18.54
420.461	18.6
420.822	18.73
421.184	18.63
421.545	18.69
421.906	18.75
422.267	18.61
422.629	18.67
422.99	18.68
423.351	18.89
423.712	18.92
424.073	19
424.434	18.97
424.795	18.94
425.155	19.06
425.516	18.94
425.877	19.05
426.238	19.01
426.598	19.12
426.959	19.24
427.32	19.28
427.68	19.48
428.041	19.53
428.401	19.57
428.761	19.67
429.122	19.65
429.482	19.64
429.842	19.96
430.202	19.96
430.563	20.04
430.923	19.92
431.283	20.22
431.643	20.2
432.003	20.11
432.363	20.32
432.722	20.24
433.082	20.34
433.442	20.39
433.802	20.22
434.161	20.26
434.521	20.23
434.881	20.57
435.24	20.5
435.6	20.48
435.959	20.54
436.319	20.62
436.678	20.68
437.037	20.86
437.396	20.76
437.756	20.94
438.115	20.76
438.474	21.04
438.833	21.07
439.192	21.06
439.551	21.19
439.91	21.11
440.269	21.29
440.628	21
440.987	20.92
441.345	21.18
441.704	21.13
442.063	21.08
442.421	21.16
442.78	21.26
443.138	21.29
443.497	21.17
443.855	21.39
444.214	21.55
444.572	21.6
444.93	21.72
445.288	21.79
445.647	21.79
446.005	21.63
446.363	21.86
446.721	21.65
447.079	21.7
447.437	21.61
447.795	21.61
448.153	21.62
448.51	21.56
448.868	21.7
449.226	21.85
449.584	21.95
449.941	21.93
450.299	22
450.656	22.29
451.014	22.21
451.371	22.39
451.729	22.46
452.086	22.44
452.443	22.43
452.801	22.6
453.158	22.69
453.515	22.71
453.872	22.74
454.229	22.8
454.586	22.8
454.943	22.89
455.3	23.05
455.657	22.87
456.014	23.02
456.371	22.94
456.727	23.13
457.084	23.1
457.441	23.14
457.797	23.29
458.154	23.15
458.51	23.38
458.867	23.44
459.223	23.29
459.58	23.52
459.936	23.44
460.292	23.55
460.648	23.19
461.005	23.27
461.361	23.36
461.717	23.09
462.073	23.32
462.429	23.33
462.785	23.59
463.141	23.76
463.496	23.77
463.852	24.06
464.208	23.86
464.564	24.08
464.919	24.07
465.275	24.37
465.631	24.11
465.986	24.49
466.342	24.26
466.697	24.25
467.052	24.3
467.408	24.44
467.763	24.43
468.118	24.58
468.473	24.53
468.829	24.6
469.184	24.68
469.539	24.58
469.894	24.63
470.249	24.89
470.603	24.7
470.958	25
471.313	24.78
471.668	25
472.023	25.16
472.377	25.03
472.732	25
473.086	24.98
473.441	25.21
473.795	25.34
474.15	25.14
474.504	25.43
474.859	25.34
475.213	25.36
475.567	25.49
475.921	25.48
476.275	25.54
476.63	25.58
476.984	25.64
477.338	26.07
477.692	25.62
478.045	25.66
478.399	25.68
478.753	25.69
479.107	25.92
479.461	25.88
479.814	25.77
480.168	25.9
480.521	25.77
480.875	26.24
481.228	26.01
481.582	25.94
481.935	26.11
482.289	26.11
482.642	26.13
482.995	25.95
483.348	25.97
483.701	25.83
484.055	25.82
484.408	25.72
484.761	25.44
485.114	25.44
485.466	25.34
485.819	25.32
486.172	25.28
486.525	25.42
486.878	25.68
487.23	25.83
487.583	25.98
487.936	26.09
488.288	26.08
488.641	26.01
488.993	25.82
489.345	25.95
489.698	25.94
490.05	26
490.402	26.14
490.754	26.33
491.107	26.61
491.459	26.78
491.811	26.85
492.163	26.82
492.515	26.82
492.866	26.5
493.218	26.51
493.57	26.47
493.922	26.6
494.274	26.76
494.625	26.93
494.977	27.03
495.328	27.58
495.68	27.72
496.031	27.62
496.383	27.6
496.734	27.93
497.086	27.58
497.437	28
497.788	27.94
498.139	27.86
498.49	27.86
498.842	27.97
499.193	28.16
499.544	28.09
499.894	28.02
500.245	28.2
500.596	28.1
500.947	28.23
501.298	28.39
501.648	28.41
501.999	28.54
502.35	28.64
502.7	28.71
503.051	28.94
503.401	28.78
503.752	28.83
504.102	29.03
504.452	28.85
504.803	28.96
505.153	28.89
505.503	28.99
505.853	29.01
506.203	29.09
506.553	29.05
506.903	29.28
507.253	29.42
507.603	29.13
507.953	29.28
508.303	29.25
508.652	29.34
509.002	29.43
509.352	29.49
509.701	29.24
510.051	29.57
510.4	29.59
510.75	29.56
511.099	29.5
511.449	29.56
511.798	29.61
512.147	29.61
512.496	29.77
512.846	29.66
513.195	29.86
513.544	29.85
513.893	29.81
514.242	29.99
514.591	30.02
514.939	29.95
515.288	30.01
515.637	30.26
515.986	30.09
516.334	30.5
516.683	30.26
517.032	30.43
517.38	30.64
517.729	30.49
518.077	30.53
518.426	30.47
518.774	30.64
519.122	30.4
519.47	30.35
519.819	30.4
520.167	30.21
520.515	30.31
520.863	30.26
521.211	30.41
521.559	30.5
521.907	30.66
522.255	30.81
522.602	30.84
522.95	31.03
523.298	30.99
523.645	31.16
523.993	31.46
524.341	31.31
524.688	31.45
525.036	31.37
525.383	31.4
525.73	31.49
526.078	31.29
526.425	31.46
526.772	31.05
527.119	31.15
527.466	31.1
527.814	31.06
528.161	31.13
528.508	31.21
528.854	31.15
529.201	31.17
529.548	31
529.895	30.91
530.242	30.89
530.588	30.91
530.935	30.76
531.282	30.93
531.628	31.04
531.975	31.34
532.321	31.51
532.667	31.64
533.014	31.73
533.36	32.11
533.706	31.93
534.052	31.78
534.399	31.74
534.745	31.72
535.091	31.75
535.437	31.81
535.783	31.79
536.129	31.92
536.474	32.36
536.82	32.25
537.166	32.43
537.512	32.59
537.857	32.49
538.203	32.32
538.549	32.4
538.894	32.46
539.239	32.73
539.585	32.69
539.93	32.88
540.276	33.05
540.621	33.12
540.966	33.33
541.311	33.31
541.656	33.17
542.001	32.95
542.346	32.78
542.691	32.65
543.036	32.59
543.381	32.69
543.726	32.49
544.071	32.74
544.415	32.96
544.76	32.94
545.105	33.24
545.449	33.23
545.794	33.43
546.138	33.72
546.483	33.58
546.827	33.6
547.171	33.77
547.516	33.87
547.86	33.92
548.204	33.79
548.548	33.8
548.892	33.95
549.236	33.95
549.58	34.12
549.924	34.36
550.268	34.52
550.612	34.5
550.956	34.44
551.3	34.64
551.643	34.93
551.987	34.84
552.33	34.74
552.674	34.94
553.017	35.19
553.361	34.84
553.704	34.89
554.048	35.05
554.391	34.77
554.734	35.11
555.077	35.07
555.42	35.21
555.764	35.25
556.107	35.19
556.45	35.32
556.793	35.64
557.135	35.5
557.478	35.7
557.821	35.44
558.164	35.8
558.507	35.73
558.849	35.85
559.192	35.71
559.534	35.78
559.877	35.83
560.219	35.86
560.562	36.1
560.904	36.39
561.246	36.26
561.589	36.12
561.931	36.01
562.273	36.34
562.615	36.18
562.957	36.4
563.299	36.22
563.641	36.16
563.983	36.38
564.325	36.08
564.667	36.41
565.008	36.38
565.35	36.79
565.692	36.61
566.033	36.89
566.375	36.63
566.716	36.67
567.058	36.89
567.399	36.88
567.741	36.68
568.082	36.75
568.423	36.63
568.764	36.62
569.105	36.79
569.447	36.95
569.788	36.82
570.129	36.88
570.47	37.11
570.811	37.28
571.151	37.1
571.492	37
571.833	37.22
572.174	37.24
572.514	37.39
572.855	37.26
573.195	37.12
573.536	37.03
573.876	37.38
574.217	37.26
574.557	37.3
574.898	37.29
575.238	37.31
575.578	37.63
575.918	37.77
576.258	37.78
576.598	37.63
576.938	37.96
577.278	37.56
577.618	37.81
577.958	37.8
578.298	37.69
578.638	37.52
578.977	38.04
579.317	37.98
579.657	38.03
579.996	38.13
580.336	38.08
580.675	38.3
581.014	38.41
581.354	38.45
581.693	38.48
582.032	38.58
582.372	38.67
582.711	38.64
583.05	38.75
583.389	38.77
583.728	38.77
584.067	39.07
584.406	38.71
584.745	38.85
585.083	39.22
585.422	38.8
585.761	39.27
586.1	39.28
586.438	39.11
586.777	39.33
587.115	39.3
587.454	39.24
587.792	39.26
588.13	39.6
588.469	39.52
588.807	39.6
589.145	39.31
589.483	39.39
589.821	39.46
590.159	39.48
590.497	39.63
590.835	39.44
591.173	39.51
591.511	39.85
591.849	40.01
592.187	39.81
592.524	39.67
592.862	39.96
593.2	39.93
593.537	39.78
593.875	40.22
594.212	39.99
594.55	40.12
594.887	40.15
595.224	40.17
595.561	39.75
595.899	40.16
596.236	40.68
596.573	39.95
596.91	40.03
597.247	40.25
597.584	40.65
597.921	40.3
598.258	40.24
598.594	39.95
598.931	40.27
599.268	40.06
599.604	39.97
599.941	40.08
600.277	40.45
600.614	40.61
600.95	40.2
601.287	40.65
601.623	40.83
601.959	40.62
602.296	40.67
602.632	40.81
602.968	41.37
603.304	40.84
603.64	40.84
603.976	41.25
604.312	40.9
604.648	41.12
604.984	40.82
605.319	40.85
605.655	40.63
605.991	40.71
606.326	40.76
606.662	40.69
606.998	40.91
607.333	40.72
607.668	41.31
608.004	40.91
608.339	41.2
608.674	41.25
609.01	41.63
609.345	41.42
609.68	41.14
610.015	41.53
610.35	41.58
610.685	41.81
611.02	41.64
611.355	41.57
611.689	41.33
612.024	41.62
612.359	41.66
612.694	41.58
613.028	41.84
613.363	41.95
613.697	42.12
614.032	41.91
614.366	42.06
614.7	42.02
615.035	42.21
615.369	42.45
615.703	42.68
616.037	42.13
616.371	42.4
616.705	41.76
617.039	42.71
617.373	42.49
617.707	42.61
618.041	42.61
618.375	42.48
618.709	43.11
619.042	42.85
619.376	42.46
619.71	42.73
620.043	42.58
620.377	42.54
620.71	42.86
621.043	43.15
621.377	43.15
621.71	42.7
622.043	42.35
622.376	42.95
622.709	42.9
623.043	42.98
623.376	42.87
623.709	42.99
624.041	42.79
624.374	42.82
624.707	43.08
625.04	43.38
625.373	43.26
625.705	42.93
626.038	43.38
626.37	43.25
626.703	43.4
627.035	43.29
627.368	43.44
627.7	43.63
628.032	43.57
628.365	43.27
628.697	43.35
629.029	43.68
629.361	43.47
629.693	43.68
630.025	43.48
630.357	43.13
630.689	43.97
631.021	44.05
631.353	43.62
631.684	43.5
632.016	43.45
632.348	43.65
632.679	43.74
633.011	44.16
633.342	43.6
633.674	43.8
634.005	44.17
634.336	43.88
634.668	43.81
634.999	44.13
635.33	43.98
635.661	44.46
635.992	43.82
636.323	44.37
636.654	44.27
636.985	43.99
637.316	43.91
637.647	44.13
637.977	44.42
638.308	44.88
638.639	44.16
638.969	44.3
639.3	44.77
639.63	43.95
639.961	44.85
640.291	44.71
640.622	44.64
640.952	44.63
641.282	44.6
641.612	44.96
641.943	44.9
642.273	44.78
642.603	44.74
642.933	45.3
643.263	45
643.592	44.48
643.922	44.95
644.252	45.31
644.582	45.2
644.911	44.92
645.241	44.89
645.571	45.45
645.9	44.89
646.23	44.77
646.559	44.64
646.888	44.81
647.218	45.34
647.547	45.63
647.876	45.23
648.205	44.95
648.534	45.33
648.863	45.73
649.192	45.72
649.521	45.84
649.85	45.4
650.179	44.95
650.508	45.16
650.837	45.84
651.165	45.65
651.494	45.89
651.822	45.49
652.151	45.72
652.479	45.66
652.808	45.37
653.136	45.58
653.465	45.89
653.793	46.02
654.121	45.99
654.449	45.45
654.777	46.01
655.105	45.98
655.433	46.28
655.761	45.71
656.089	45.38
656.417	45.94
656.745	46.2
657.073	46.1
657.4	45.97
657.728	45.89
658.056	46.11
658.383	46.13
658.711	46.71
659.038	45.56
659.365	45.82
659.693	45.76
660.02	45.93
660.347	46.34
660.674	46.33
661.001	45.82
661.329	46.59
661.656	45.77
661.982	46.89
662.309	46.47
662.636	46.9
662.963	46.75
663.29	46.65
663.616	46.14
663.943	46.46
664.27	46.84
664.596	46.77
664.923	46.63
665.249	46.87
665.576	47.01
665.902	46.57
666.228	47.11
666.554	46.86
666.881	46.84
667.207	46.66
667.533	47.22
667.859	47
668.185	46.2
668.511	46.16
668.837	46.77
669.162	47.32
669.488	46.9
669.814	46.66
670.139	46.48
670.465	46.64
670.791	46.83
671.116	47.32
671.442	46.56
