Data from 0069_crown_Reflection__4__308.txt Node

Date: Fri Dec 16 16:32:58 CST 2022
User: ToomeyLab
Spectrometer: FLMS14357
Trigger mode: 0
Integration Time (sec): 1.000000E-2
Scans to average: 100
Electric dark correction enabled: true
Nonlinearity correction enabled: false
Boxcar width: 0
XAxis mode: Wavelengths
Number of Pixels in Spectrum: 2048
>>>>>Begin Spectral Data<<<<<
189.047	15.37
189.435	15.37
189.823	15.37
190.211	152.35
190.599	-28.06
190.987	993.47
191.375	-28.25
191.763	61.36
192.151	1631.6
192.538	174.23
192.926	366.67
193.314	72.35
193.702	83.96
194.089	-6.98
194.477	8.88
194.864	26.49
195.252	9.67
195.639	58.45
196.027	-1522.02
196.414	94.65
196.801	131.9
197.189	50.82
197.576	107.89
197.963	36.27
198.351	-33.58
198.738	-47.59
199.125	31.16
199.512	-37.1
199.899	-69.92
200.286	-42.38
200.673	46.72
201.06	21.88
201.447	8.69
201.833	-22.38
202.22	0.72
202.607	-24.69
202.994	7.06
203.38	-55.86
203.767	16.05
204.154	-74.18
204.54	-14.43
204.927	6.77
205.313	19.99
205.699	-22.9
206.086	-58.57
206.472	11.05
206.858	-18.29
207.245	14.02
207.631	-55.41
208.017	28.19
208.403	21.4
208.789	14.28
209.175	38.33
209.561	-58.98
209.947	-32.17
210.333	-19.73
210.719	-28.81
211.105	-144.68
211.491	-14.83
211.876	2.19
212.262	-12.51
212.648	-37.4
213.034	10.55
213.419	44.26
213.805	1.31
214.19	-41.81
214.576	-36.75
214.961	-59.17
215.346	-30.85
215.732	-26.78
216.117	5.09
216.502	-30.02
216.888	-20.15
217.273	-9.24
217.658	-60.22
218.043	-19.08
218.428	-15.15
218.813	-21.07
219.198	-27.37
219.583	-15.01
219.968	-17.5
220.353	8.01
220.738	-14.29
221.122	-10.56
221.507	3.68
221.892	-8.14
222.276	-11.69
222.661	-5.05
223.046	10.87
223.43	8.51
223.815	9.13
224.199	10.21
224.583	4.86
224.968	14.28
225.352	0.85
225.736	14.49
226.121	-2.6
226.505	3.69
226.889	7.24
227.273	6.31
227.657	3.65
228.041	9.09
228.425	9.27
228.809	5.24
229.193	7.53
229.577	7.83
229.961	10.01
230.344	9.21
230.728	8.7
231.112	8.76
231.495	9.37
231.879	8.98
232.263	6.76
232.646	8.05
233.03	6.73
233.413	6.52
233.797	9.47
234.18	6.37
234.563	5.85
234.946	7.95
235.33	9.13
235.713	9.45
236.096	7.41
236.479	7.73
236.862	7.64
237.245	8.65
237.628	9.67
238.011	7.28
238.394	8.83
238.777	7.26
239.16	4.94
239.543	5.23
239.925	6.75
240.308	9.41
240.691	7.77
241.073	8.34
241.456	7.27
241.838	7.44
242.221	7.84
242.603	8.01
242.986	9.36
243.368	8.52
243.75	8.17
244.133	7.89
244.515	8.07
244.897	8.12
245.279	7.67
245.661	7.67
246.043	8.56
246.425	7.25
246.807	8.42
247.189	7.54
247.571	8.05
247.953	8.02
248.335	8.32
248.717	8.08
249.098	8.14
249.48	7.71
249.862	8.1
250.243	7.92
250.625	7.54
251.006	7.64
251.388	7.51
251.769	7.32
252.151	7.58
252.532	7.26
252.913	7.41
253.295	7.82
253.676	7.75
254.057	7.09
254.438	7.33
254.819	7.8
255.2	8.19
255.581	5.99
255.962	7.29
256.343	7.64
256.724	7.07
257.105	6.98
257.486	7.19
257.867	5.58
258.247	6.79
258.628	8.04
259.009	7.87
259.389	7.12
259.77	7.24
260.15	7.64
260.531	7.69
260.911	7.2
261.292	7.33
261.672	7.25
262.052	7.35
262.432	6.63
262.813	7.09
263.193	6.68
263.573	7.21
263.953	6.98
264.333	7.51
264.713	7.01
265.093	5.62
265.473	7.66
265.853	7.09
266.233	6.47
266.612	6.82
266.992	6.29
267.372	6.9
267.752	6.71
268.131	6.98
268.511	6.88
268.89	7.55
269.27	7.26
269.649	7.14
270.029	6.79
270.408	6.69
270.787	7.34
271.167	7.26
271.546	6.45
271.925	7.03
272.304	7.04
272.683	6.63
273.062	7.01
273.441	7.13
273.82	6.82
274.199	7.09
274.578	6.32
274.957	6.74
275.336	6.96
275.715	6.95
276.093	6.79
276.472	6.22
276.851	6.73
277.229	7.52
277.608	6.73
277.986	6.47
278.365	6.24
278.743	7.01
279.122	6.35
279.5	6.38
279.878	5.98
280.257	6.69
280.635	5.99
281.013	6.96
281.391	6.34
281.769	6.27
282.147	6.94
282.525	6.28
282.903	6.65
283.281	6.35
283.659	6.37
284.037	6.07
284.415	6.65
284.792	6.73
285.17	6.48
285.548	6.31
285.925	6.31
286.303	6.46
286.68	6.62
287.058	6.68
287.435	6.11
287.813	6.38
288.19	6.75
288.567	5.86
288.945	6.44
289.322	6.26
289.699	5.85
290.076	6.09
290.453	5.98
290.83	6.34
291.207	6.29
291.584	6.21
291.961	6.15
292.338	5.75
292.715	6.43
293.092	6.22
293.469	6.35
293.845	6.53
294.222	6.16
294.599	6.03
294.975	6.1
295.352	6.06
295.728	6.1
296.105	5.93
296.481	6.57
296.858	6.45
297.234	6.02
297.61	6.02
297.986	5.88
298.363	5.82
298.739	6.16
299.115	5.47
299.491	5.94
299.867	6.16
300.243	5.46
300.619	6.34
300.995	5.85
301.371	6.03
301.746	5.74
302.122	5.96
302.498	5.7
302.874	5.55
303.249	5.78
303.625	5.65
304	5.52
304.376	5.96
304.751	5.47
305.127	5.67
305.502	6.19
305.878	5.29
306.253	5.48
306.628	5.35
307.003	5.89
307.378	5.72
307.754	5.97
308.129	5.11
308.504	5.23
308.879	5.8
309.254	5.92
309.629	5.59
310.003	5.97
310.378	5.73
310.753	5.59
311.128	5.27
311.502	5.32
311.877	5.4
312.252	5.22
312.626	5.77
313.001	5.15
313.375	5.45
313.75	4.99
314.124	5.75
314.498	5.21
314.873	5.01
315.247	5.02
315.621	5.83
315.995	5.42
316.369	5.73
316.743	5.97
317.117	5.15
317.491	5.45
317.865	5
318.239	4.99
318.613	5.09
318.987	5.36
319.361	5.27
319.734	5.39
320.108	5.33
320.482	5.03
320.855	5.59
321.229	5.83
321.602	5.37
321.976	5.38
322.349	4.1
322.723	4.17
323.096	4.97
323.469	4.56
323.843	5.81
324.216	4.86
324.589	5.26
324.962	5.06
325.335	5.14
325.708	5.18
326.081	5.43
326.454	5.65
326.827	5.85
327.2	5.68
327.573	5.31
327.945	4.85
328.318	5.19
328.691	5.55
329.063	5.25
329.436	5.1
329.809	4.95
330.181	4.86
330.553	5.14
330.926	5.28
331.298	4.85
331.671	5.5
332.043	5.2
332.415	5.67
332.787	5.72
333.159	5.04
333.532	4.97
333.904	4.92
334.276	5.15
334.648	5.4
335.02	5.26
335.391	5.42
335.763	5.44
336.135	5.12
336.507	5.25
336.879	4.96
337.25	5.37
337.622	5.1
337.993	5.47
338.365	4.94
338.736	5.5
339.108	4.99
339.479	4.94
339.851	5.66
340.222	5.37
340.593	4.99
340.964	5.05
341.336	5.24
341.707	4.97
342.078	4.94
342.449	5.23
342.82	5.13
343.191	4.92
343.562	5.14
343.933	4.88
344.303	5.65
344.674	5.29
345.045	5.78
345.416	5.13
345.786	4.91
346.157	5.13
346.527	5.28
346.898	5.27
347.268	5.02
347.639	5.21
348.009	5.73
348.38	5.13
348.75	4.92
349.12	5.52
349.49	5.28
349.861	5.69
350.231	5.86
350.601	5.36
350.971	5.55
351.341	5.29
351.711	4.99
352.081	5.29
352.45	5.28
352.82	5.26
353.19	5.26
353.56	5.21
353.929	5.63
354.299	4.99
354.669	5.36
355.038	5.19
355.408	5.42
355.777	5.41
356.147	5.33
356.516	5.63
356.885	5.29
357.254	5.61
357.624	5.42
357.993	5.26
358.362	5.89
358.731	5.34
359.1	5.57
359.469	5.41
359.838	5.24
360.207	4.98
360.576	5.26
360.945	5.52
361.314	5.85
361.682	5.2
362.051	5.38
362.42	5.65
362.788	5.71
363.157	5.44
363.525	5.56
363.894	5.29
364.262	5.3
364.631	5.91
364.999	5.11
365.367	5.79
365.735	5.56
366.104	5.14
366.472	5.63
366.84	5.51
367.208	5.2
367.576	5.75
367.944	5.74
368.312	5.25
368.68	5.52
369.048	5.55
369.416	5.6
369.783	5.63
370.151	5.48
370.519	5.61
370.886	5.75
371.254	5.54
371.621	5.46
371.989	5.61
372.356	5.85
372.724	5.59
373.091	5.47
373.458	5.51
373.826	5.25
374.193	6.03
374.56	5.58
374.927	5.42
375.294	5.63
375.661	5.69
376.028	6.04
376.395	5.6
376.762	5.82
377.129	5.83
377.496	5.77
377.863	5.92
378.229	5.81
378.596	5.64
378.963	5.83
379.329	5.64
379.696	5.87
380.062	5.97
380.429	5.74
380.795	5.55
381.161	5.81
381.528	5.41
381.894	5.85
382.26	5.41
382.626	5.54
382.993	5.6
383.359	5.59
383.725	5.55
384.091	5.65
384.457	6.04
384.823	6.09
385.188	6.22
385.554	6.03
385.92	6.02
386.286	6.01
386.651	5.77
387.017	5.88
387.383	5.83
387.748	5.7
388.114	5.86
388.479	6.3
388.845	5.98
389.21	6.06
389.575	6
389.94	5.94
390.306	5.72
390.671	6.18
391.036	6.34
391.401	6.16
391.766	5.92
392.131	6.09
392.496	5.91
392.861	5.9
393.226	6.08
393.591	5.84
393.956	5.96
394.32	6.02
394.685	6.22
395.05	6.11
395.414	6.04
395.779	5.82
396.143	6.14
396.508	6.24
396.872	6.25
397.236	5.69
397.601	6.33
397.965	5.86
398.329	6.24
398.694	5.53
399.058	6.17
399.422	6.18
399.786	6.13
400.15	6.26
400.514	6.32
400.878	6.07
401.242	6.32
401.605	6.11
401.969	6.13
402.333	5.97
402.697	6.51
403.06	6.39
403.424	6.18
403.787	6.59
404.151	5.97
404.514	6.35
404.878	6.32
405.241	6.28
405.604	6.21
405.968	6.2
406.331	6.2
406.694	6.24
407.057	6.71
407.42	6.31
407.783	6.24
408.146	6.16
408.509	6.14
408.872	6.21
409.235	6.25
409.598	6.33
409.961	6.41
410.323	6.32
410.686	6.4
411.049	6.23
411.411	6.35
411.774	6.25
412.136	6.39
412.499	6.21
412.861	6.21
413.223	6.39
413.586	6.23
413.948	6.55
414.31	6.4
414.672	6.23
415.035	6.21
415.397	6.5
415.759	6.34
416.121	6.55
416.483	6.62
416.845	6.34
417.206	6.45
417.568	6.4
417.93	6.26
418.292	6.52
418.653	6.45
419.015	6.46
419.377	6.58
419.738	6.3
420.1	6.4
420.461	6.31
420.822	6.42
421.184	6.5
421.545	6.33
421.906	6.54
422.267	6.36
422.629	6.43
422.99	6.39
423.351	6.41
423.712	6.33
424.073	6.54
424.434	6.27
424.795	6.28
425.155	6.34
425.516	6.38
425.877	6.32
426.238	6.27
426.598	6.37
426.959	6.41
427.32	6.46
427.68	6.59
428.041	6.51
428.401	6.31
428.761	6.21
429.122	6.55
429.482	6.47
429.842	6.46
430.202	6.52
430.563	6.52
430.923	6.36
431.283	6.63
431.643	6.31
432.003	6.55
432.363	6.63
432.722	6.48
433.082	6.59
433.442	6.6
433.802	6.57
434.161	6.57
434.521	6.63
434.881	6.84
435.24	6.49
435.6	6.54
435.959	6.49
436.319	6.49
436.678	6.56
437.037	6.82
437.396	6.48
437.756	6.64
438.115	6.65
438.474	6.62
438.833	6.82
439.192	6.8
439.551	6.64
439.91	6.78
440.269	6.7
440.628	6.59
440.987	6.52
441.345	6.62
441.704	6.65
442.063	6.56
442.421	6.61
442.78	6.58
443.138	6.64
443.497	6.49
443.855	6.55
444.214	6.52
444.572	6.64
444.93	6.63
445.288	6.6
445.647	6.74
446.005	6.68
446.363	6.8
446.721	6.62
447.079	6.69
447.437	6.67
447.795	6.57
448.153	6.6
448.51	6.56
448.868	6.57
449.226	6.6
449.584	6.56
449.941	6.63
450.299	6.55
450.656	6.81
451.014	6.65
451.371	6.73
451.729	6.64
452.086	6.64
452.443	6.62
452.801	6.63
453.158	6.8
453.515	6.71
453.872	6.74
454.229	6.64
454.586	6.81
454.943	6.49
455.3	6.92
455.657	6.67
456.014	6.63
456.371	6.77
456.727	6.68
457.084	6.68
457.441	6.6
457.797	6.72
458.154	6.77
458.51	6.88
458.867	6.57
459.223	6.91
459.58	6.65
459.936	6.77
460.292	6.82
460.648	6.57
461.005	6.68
461.361	6.61
461.717	6.66
462.073	6.64
462.429	6.52
462.785	6.72
463.141	6.7
463.496	6.53
463.852	6.91
464.208	6.74
464.564	6.75
464.919	6.47
465.275	6.89
465.631	6.83
465.986	6.72
466.342	6.79
466.697	6.65
467.052	6.78
467.408	6.75
467.763	6.71
468.118	6.89
468.473	6.8
468.829	6.63
469.184	6.82
469.539	6.77
469.894	6.69
470.249	6.74
470.603	6.91
470.958	6.84
471.313	6.89
471.668	7
472.023	6.88
472.377	6.64
472.732	6.67
473.086	6.86
473.441	6.84
473.795	6.95
474.15	6.81
474.504	6.84
474.859	6.84
475.213	6.8
475.567	6.8
475.921	6.96
476.275	6.74
476.63	6.81
476.984	6.74
477.338	7
477.692	6.79
478.045	6.68
478.399	7
478.753	6.88
479.107	6.81
479.461	6.83
479.814	6.83
480.168	6.83
480.521	6.78
480.875	7.05
481.228	6.95
481.582	6.74
481.935	6.75
482.289	6.76
482.642	6.91
482.995	6.73
483.348	6.76
483.701	6.73
484.055	6.7
484.408	6.79
484.761	6.69
485.114	6.67
485.466	6.55
485.819	6.42
486.172	6.4
486.525	6.42
486.878	6.39
487.23	6.51
487.583	6.6
487.936	6.74
488.288	6.74
488.641	6.7
488.993	6.59
489.345	6.59
489.698	6.64
490.05	6.52
490.402	6.54
490.754	6.68
491.107	6.64
491.459	6.76
491.811	6.9
492.163	6.96
492.515	6.86
492.866	6.72
493.218	6.67
493.57	6.61
493.922	6.52
494.274	6.61
494.625	6.59
494.977	6.6
495.328	6.78
495.68	6.93
496.031	6.78
496.383	6.75
496.734	6.86
497.086	6.84
497.437	6.94
497.788	6.87
498.139	6.92
498.49	6.85
498.842	6.73
499.193	6.89
499.544	6.91
499.894	6.84
500.245	6.9
500.596	6.73
500.947	6.81
501.298	6.78
501.648	6.82
501.999	6.86
502.35	7
502.7	6.95
503.051	6.97
503.401	6.89
503.752	6.82
504.102	6.87
504.452	6.84
504.803	6.68
505.153	6.95
505.503	6.9
505.853	6.94
506.203	6.84
506.553	6.84
506.903	6.89
507.253	6.96
507.603	6.86
507.953	7.02
508.303	7.01
508.652	6.88
509.002	6.89
509.352	6.99
509.701	6.84
510.051	6.85
510.4	6.91
510.75	6.91
511.099	6.85
511.449	6.77
511.798	6.9
512.147	6.82
512.496	6.91
512.846	6.84
513.195	6.91
513.544	6.88
513.893	6.74
514.242	6.92
514.591	6.86
514.939	6.93
515.288	6.85
515.637	6.93
515.986	6.79
516.334	6.89
516.683	6.86
517.032	6.84
517.38	7.01
517.729	6.9
518.077	6.95
518.426	6.91
518.774	6.9
519.122	6.86
519.47	7.02
519.819	6.93
520.167	6.9
520.515	6.87
520.863	6.76
521.211	6.79
521.559	6.82
521.907	6.87
522.255	6.85
522.602	6.9
522.95	6.97
523.298	6.94
523.645	6.85
523.993	6.94
524.341	6.98
524.688	6.93
525.036	6.95
525.383	6.99
525.73	6.99
526.078	6.98
526.425	7.02
526.772	6.93
527.119	6.94
527.466	6.86
527.814	6.78
528.161	6.8
528.508	6.91
528.854	6.84
529.201	6.82
529.548	6.83
529.895	6.81
530.242	6.75
530.588	6.7
530.935	6.58
531.282	6.6
531.628	6.62
531.975	6.7
532.321	6.75
532.667	6.73
533.014	6.8
533.36	6.82
533.706	6.9
534.052	6.89
534.399	6.91
534.745	6.86
535.091	6.73
535.437	6.76
535.783	6.74
536.129	6.7
536.474	6.86
536.82	6.78
537.166	6.87
537.512	6.99
537.857	6.97
538.203	6.94
538.549	6.97
538.894	6.76
539.239	6.88
539.585	6.83
539.93	6.94
540.276	6.82
540.621	6.89
540.966	6.93
541.311	7.02
541.656	7.02
542.001	7.02
542.346	6.97
542.691	6.97
543.036	6.84
543.381	6.84
543.726	6.74
544.071	6.76
544.415	6.86
544.76	6.8
545.105	6.82
545.449	6.82
545.794	6.8
546.138	6.87
546.483	6.92
546.827	6.91
547.171	6.93
547.516	7.04
547.86	7.01
548.204	6.88
548.548	6.99
548.892	7
549.236	6.97
549.58	6.87
549.924	6.84
550.268	7.01
550.612	7.01
550.956	6.93
551.3	7.03
551.643	7.02
551.987	6.98
552.33	7.08
552.674	7.25
553.017	7.04
553.361	6.96
553.704	7.1
554.048	7.29
554.391	6.99
554.734	6.95
555.077	7.05
555.42	6.95
555.764	7.1
556.107	7.13
556.45	6.81
556.793	7.06
557.135	7.19
557.478	7.1
557.821	6.98
558.164	7.08
558.507	6.79
558.849	7.12
559.192	7.04
559.534	6.99
559.877	7.16
560.219	7.09
560.562	7.03
560.904	7.13
561.246	7.24
561.589	7.05
561.931	7.3
562.273	6.96
562.615	7.16
562.957	7.15
563.299	7.22
563.641	7.08
563.983	7.01
564.325	6.88
564.667	7.05
565.008	7.22
565.35	7.13
565.692	7.3
566.033	7.15
566.375	6.95
566.716	7.21
567.058	7.16
567.399	7.1
567.741	7.16
568.082	7.05
568.423	7.03
568.764	7.1
569.105	7.09
569.447	6.97
569.788	6.99
570.129	7.11
570.47	7.36
570.811	7.05
571.151	7.18
571.492	7.26
571.833	7.06
572.174	6.92
572.514	7.03
572.855	7.13
573.195	7.06
573.536	7.18
573.876	7.18
574.217	6.98
574.557	7.12
574.898	7.1
575.238	6.98
575.578	7.12
575.918	7.03
576.258	7.1
576.598	7.08
576.938	7.19
577.278	7.09
577.618	6.99
577.958	7.03
578.298	6.99
578.638	7.06
578.977	7.11
579.317	7.3
579.657	7.07
579.996	7.23
580.336	6.78
580.675	7.23
581.014	7.12
581.354	6.94
581.693	6.99
582.032	6.98
582.372	7.19
582.711	7.12
583.05	7.25
583.389	7.21
583.728	7.25
584.067	7.09
584.406	7.06
584.745	7.04
585.083	7.5
585.422	7.08
585.761	7.25
586.1	7.35
586.438	6.99
586.777	7.28
587.115	7.1
587.454	7.03
587.792	6.9
588.13	7.27
588.469	7.37
588.807	7.54
589.145	7.19
589.483	6.97
589.821	7.28
590.159	7.04
590.497	6.77
590.835	7.18
591.173	7.31
591.511	7.37
591.849	7.17
592.187	7.05
592.524	6.9
592.862	7.16
593.2	7.13
593.537	7.2
593.875	7.29
594.212	7.02
594.55	7.09
594.887	7.22
595.224	7.17
595.561	7.15
595.899	7.24
596.236	7.07
596.573	6.96
596.91	7.17
597.247	7.08
597.584	7.2
597.921	7.05
598.258	7.1
598.594	7.02
598.931	7.1
599.268	7.22
599.604	7.12
599.941	6.89
600.277	7.06
600.614	7.13
600.95	7.16
601.287	7.09
601.623	7.21
601.959	6.93
602.296	7.15
602.632	7.5
602.968	7.1
603.304	7.11
603.64	7.01
603.976	7.19
604.312	6.97
604.648	7.3
604.984	7.19
605.319	7.2
605.655	7.2
605.991	7.13
606.326	7.12
606.662	6.94
606.998	7.01
607.333	7.06
607.668	7.02
608.004	7.1
608.339	6.96
608.674	6.87
609.01	7.28
609.345	7.26
609.68	6.96
610.015	7.17
610.35	7.25
610.685	7.31
611.02	7.39
611.355	7.03
611.689	6.73
612.024	7.05
612.359	7.15
612.694	7.27
613.028	7.04
613.363	6.96
613.697	7.42
614.032	6.99
614.366	6.71
614.7	7.75
615.035	7.04
615.369	7.31
615.703	7.43
616.037	6.91
616.371	7.11
616.705	7.19
617.039	7.29
617.373	7.23
617.707	6.83
618.041	7.2
618.375	6.7
618.709	7.02
619.042	7.17
619.376	6.91
619.71	6.79
620.043	6.93
620.377	7.24
620.71	6.95
621.043	6.92
621.377	6.86
621.71	7.26
622.043	7.32
622.376	6.96
622.709	7.2
623.043	7.21
623.376	7.13
623.709	7.06
624.041	6.83
624.374	6.96
624.707	6.74
625.04	7.34
625.373	6.98
625.705	7.01
626.038	6.82
626.37	7.26
626.703	7.04
627.035	7.06
627.368	7.28
627.7	7.23
628.032	7.1
628.365	6.93
628.697	7.06
629.029	7.42
629.361	6.98
629.693	7.45
630.025	7.31
630.357	6.84
630.689	7.33
631.021	7.28
631.353	6.94
631.684	6.93
632.016	6.98
632.348	7.13
632.679	7.04
633.011	7.13
633.342	6.92
633.674	7.1
634.005	7.02
634.336	6.7
634.668	6.74
634.999	7.36
635.33	7.08
635.661	7.41
635.992	6.87
636.323	7.27
636.654	6.97
636.985	6.97
637.316	6.97
637.647	7.3
637.977	7.02
638.308	7.1
638.639	6.98
638.969	6.89
639.3	7.11
639.63	6.96
639.961	6.88
640.291	7.52
640.622	7.19
640.952	7.32
641.282	6.78
641.612	6.58
641.943	7.31
642.273	7.28
642.603	7
642.933	7.07
643.263	7.64
643.592	7.19
643.922	7.22
644.252	6.99
644.582	7.13
644.911	7.07
645.241	6.9
645.571	6.85
645.9	7.15
646.23	7.03
646.559	7.16
646.888	7.33
647.218	7.07
647.547	7.19
647.876	7.64
648.205	7.21
648.534	7.36
648.863	7.41
649.192	6.89
649.521	6.84
649.85	7.13
650.179	6.68
650.508	6.87
650.837	7.2
651.165	7.03
651.494	7.18
651.822	7.26
652.151	7.21
652.479	7.8
652.808	6.67
653.136	7.06
653.465	7.01
653.793	7.38
654.121	6.88
654.449	7.13
654.777	7.39
655.105	7.11
655.433	7.11
655.761	6.96
656.089	7.08
656.417	7.03
656.745	7.61
657.073	7.85
657.4	7.18
657.728	6.58
658.056	7.06
658.383	7.09
658.711	7.17
659.038	7.18
659.365	7.64
659.693	7.24
660.02	7.21
660.347	7.47
660.674	7.06
661.001	6.74
661.329	7.16
661.656	6.89
661.982	7.26
662.309	7.65
662.636	6.93
662.963	7.15
663.29	6.82
663.616	6.81
663.943	7.68
664.27	7.14
664.596	7.09
664.923	6.85
665.249	7.56
665.576	6.5
665.902	6.89
666.228	6.95
666.554	6.82
666.881	7.36
667.207	6.74
667.533	7.72
667.859	6.78
668.185	7.4
668.511	6.57
668.837	6.23
669.162	7.31
669.488	7.43
669.814	7.43
670.139	7.68
670.465	7.46
670.791	7.33
671.116	7.02
671.442	7.12
671.767	6.96
672.092	7.05
672.418	7.15
672.743	7.4
673.068	6.64
673.393	7.22
673.718	7.21
674.043	6.87
674.368	7.27
674.693	7.03
675.018	7.43
675.343	7.79
675.667	7.01
675.992	6.92
676.317	7.24
676.641	7.3
676.966	7.66
677.29	7.18
677.615	7.17
677.939	7.86
678.264	6.68
678.588	7.17
678.912	7.81
679.236	7.47
679.56	7.03
679.885	7.21
680.209	6.93
680.532	6.93
680.856	7.56
681.18	7.15
681.504	6.96
681.828	6.95
682.152	6.96
682.475	7.12
682.799	7.36
683.122	7.47
683.446	6.69
683.769	7.68
684.093	7.32
684.416	7.23
684.739	7.28
685.062	7.7
685.386	6.94
685.709	6.83
686.032	7.67
686.355	6.59
686.678	7.22
687.001	6.54
687.324	7.4
687.646	7.15
687.969	7.11
688.292	7.55
688.614	7.76
688.937	7.17
689.26	7.42
689.582	6.29
689.904	7.44
690.227	7.07
690.549	7.12
690.871	7.47
691.194	7.15
691.516	6.92
691.838	7.33
