Data from 0069_crown_Reflection__2__306.txt Node

Date: Fri Dec 16 16:32:38 CST 2022
User: ToomeyLab
Spectrometer: FLMS14357
Trigger mode: 0
Integration Time (sec): 1.000000E-2
Scans to average: 100
Electric dark correction enabled: true
Nonlinearity correction enabled: false
Boxcar width: 0
XAxis mode: Wavelengths
Number of Pixels in Spectrum: 2048
>>>>>Begin Spectral Data<<<<<
189.047	-34.56
189.435	-34.56
189.823	-34.56
190.211	-178.35
190.599	35.6
190.987	493.47
191.375	-49.81
191.763	26.87
192.151	840.15
192.538	-13.51
192.926	-62.78
193.314	39.48
193.702	149.72
194.089	196.48
194.477	104.08
194.864	-58.51
195.252	18.87
195.639	74.12
196.027	-1126.61
196.414	5.7
196.801	-38.92
197.189	146.46
197.576	85.32
197.963	-58.2
198.351	-21.68
198.738	-16.55
199.125	35.83
199.512	-6.95
199.899	-41.85
200.286	-7.25
200.673	45.94
201.06	24.28
201.447	21.78
201.833	-13.4
202.22	-8.58
202.607	-40.33
202.994	-5
203.38	-31.4
203.767	-44.72
204.154	-69
204.54	16.58
204.927	17.66
205.313	24.31
205.699	-14.48
206.086	-86.2
206.472	-33.02
206.858	-23.74
207.245	-1.43
207.631	-46.52
208.017	-6.29
208.403	-22.77
208.789	15.21
209.175	19.02
209.561	-36.66
209.947	-50.08
210.333	-22.65
210.719	-24.42
211.105	-4.84
211.491	23.87
211.876	-39.07
212.262	-134.56
212.648	-37.58
213.034	-16.65
213.419	21.37
213.805	-54.79
214.19	-44.49
214.576	-28.02
214.961	-9.84
215.346	-35.8
215.732	1.04
216.117	-23.77
216.502	-55.92
216.888	-58.45
217.273	1.56
217.658	-19.16
218.043	-0.64
218.428	18.15
218.813	-26.63
219.198	-64.76
219.583	-12.46
219.968	-12.73
220.353	16.78
220.738	-26.19
221.122	-26.93
221.507	-10.48
221.892	15.39
222.276	2.61
222.661	-5.24
223.046	0.6
223.43	-7.6
223.815	9.86
224.199	8.22
224.583	6.79
224.968	7.87
225.352	7.31
225.736	15.52
226.121	4.24
226.505	5.68
226.889	8.95
227.273	8.42
227.657	8.7
228.041	6.32
228.425	7.18
228.809	7.61
229.193	6.9
229.577	10.59
229.961	11.57
230.344	10.75
230.728	10.46
231.112	10.29
231.495	10.23
231.879	9.26
232.263	8.82
232.646	9.92
233.03	8.35
233.413	8.84
233.797	12.77
234.18	6.09
234.563	9.59
234.946	8.62
235.33	8.96
235.713	9.59
236.096	8.02
236.479	11.89
236.862	11.59
237.245	9.09
237.628	9.45
238.011	8.85
238.394	9.71
238.777	8.51
239.16	7.76
239.543	8.32
239.925	9.96
240.308	10.42
240.691	9.39
241.073	10.74
241.456	8.76
241.838	9.95
242.221	9.27
242.603	10
242.986	10.8
243.368	10.04
243.75	10.16
244.133	10.13
244.515	10.27
244.897	8.81
245.279	8.86
245.661	9.11
246.043	9.42
246.425	9.74
246.807	9.12
247.189	10.43
247.571	10.22
247.953	10
248.335	10.32
248.717	9.7
249.098	9.73
249.48	9.24
249.862	9.69
250.243	9.15
250.625	9.27
251.006	9.15
251.388	9.7
251.769	8.84
252.151	9.36
252.532	8.99
252.913	10.03
253.295	9.25
253.676	9.26
254.057	8.64
254.438	8.82
254.819	9.58
255.2	9.11
255.581	8.26
255.962	8.71
256.343	10.37
256.724	9.54
257.105	8.77
257.486	9.63
257.867	7.25
258.247	8.96
258.628	9.25
259.009	8.41
259.389	9.59
259.77	9.04
260.15	9.47
260.531	9.32
260.911	9.3
261.292	8.89
261.672	8.84
262.052	8.53
262.432	8.52
262.813	8.99
263.193	7.82
263.573	8.64
263.953	8.74
264.333	9.17
264.713	8.38
265.093	7.82
265.473	9.59
265.853	7.91
266.233	8.29
266.612	8.17
266.992	8.48
267.372	8.58
267.752	8.42
268.131	8.94
268.511	8.69
268.89	8.84
269.27	9.33
269.649	9.24
270.029	8.41
270.408	8.45
270.787	8.15
271.167	8.36
271.546	8.42
271.925	8.62
272.304	8.8
272.683	8.29
273.062	8.84
273.441	8.3
273.82	8.79
274.199	8.27
274.578	8.26
274.957	8.37
275.336	8.34
275.715	8.44
276.093	8.74
276.472	8.76
276.851	8.17
277.229	8.8
277.608	8.27
277.986	8.14
278.365	8.01
278.743	8.31
279.122	7.32
279.5	8.21
279.878	7.91
280.257	8.37
280.635	7.96
281.013	8.91
281.391	7.96
281.769	7.95
282.147	7.83
282.525	7.35
282.903	7.99
283.281	8.02
283.659	8.05
284.037	7.55
284.415	7.73
284.792	8.05
285.17	8.2
285.548	8.11
285.925	7.76
286.303	7.61
286.68	8.28
287.058	7.94
287.435	7.85
287.813	7.66
288.19	8.17
288.567	7.69
288.945	7.42
289.322	7.87
289.699	7.6
290.076	8.15
290.453	7.63
290.83	7.51
291.207	7.44
291.584	7.6
291.961	7.61
292.338	7.53
292.715	7.53
293.092	7.63
293.469	7.56
293.845	7.93
294.222	7.58
294.599	7.49
294.975	7.22
295.352	7.34
295.728	7.14
296.105	7.11
296.481	7.82
296.858	7.39
297.234	7.3
297.61	7.44
297.986	7.38
298.363	7.03
298.739	7.56
299.115	7.09
299.491	7.16
299.867	7.12
300.243	7.08
300.619	6.88
300.995	7.34
301.371	7.32
301.746	6.97
302.122	7.27
302.498	7.17
302.874	7.07
303.249	7.18
303.625	7.09
304	7.3
304.376	7.04
304.751	7.02
305.127	7.33
305.502	7.21
305.878	6.82
306.253	6.39
306.628	6.89
307.003	7.13
307.378	6.48
307.754	7.2
308.129	6.01
308.504	6.75
308.879	7.28
309.254	7.11
309.629	7.31
310.003	7.25
310.378	6.89
310.753	7.29
311.128	6.8
311.502	6.83
311.877	6.49
312.252	6.99
312.626	7.15
313.001	6.9
313.375	6.73
313.75	6.64
314.124	6.85
314.498	6.59
314.873	6.17
315.247	6.71
315.621	7.33
315.995	6.84
316.369	6.34
316.743	6.92
317.117	6.54
317.491	6.5
317.865	6.4
318.239	6.92
318.613	6.64
318.987	7.39
319.361	6.4
319.734	6.71
320.108	6.52
320.482	6.89
320.855	6.53
321.229	6.81
321.602	6.59
321.976	6.05
322.349	5.45
322.723	5.61
323.096	6.23
323.469	6.16
323.843	6.49
324.216	6.81
324.589	6.81
324.962	6.8
325.335	6.43
325.708	6.83
326.081	6.91
326.454	6.12
326.827	6.11
327.2	6.93
327.573	6.6
327.945	6.4
328.318	6.57
328.691	6.45
329.063	6.15
329.436	6.56
329.809	5.82
330.181	5.91
330.553	6.47
330.926	6.03
331.298	5.65
331.671	6.78
332.043	6.73
332.415	7.13
332.787	7.11
333.159	6.5
333.532	6.38
333.904	6.67
334.276	6.59
334.648	6.57
335.02	5.84
335.391	6.28
335.763	6.29
336.135	6.23
336.507	6.67
336.879	6.28
337.25	6.27
337.622	6.52
337.993	6.25
338.365	6.65
338.736	6.51
339.108	6.3
339.479	6.21
339.851	6.65
340.222	6.57
340.593	6.28
340.964	6.48
341.336	6.21
341.707	6.4
342.078	6.14
342.449	6.83
342.82	6.44
343.191	6.04
343.562	6.2
343.933	6.1
344.303	6.42
344.674	6.68
345.045	6.99
345.416	6.78
345.786	6.16
346.157	6.36
346.527	6.4
346.898	6.36
347.268	6.47
347.639	6.21
348.009	6.75
348.38	6.46
348.75	6.5
349.12	6.63
349.49	6.7
349.861	6.8
350.231	6.73
350.601	6.52
350.971	6.42
351.341	6.66
351.711	6.27
352.081	6.29
352.45	6.45
352.82	6.47
353.19	6.62
353.56	6.25
353.929	6.36
354.299	6.68
354.669	6.78
355.038	6.5
355.408	6.89
355.777	6.72
356.147	6.79
356.516	7.2
356.885	6.41
357.254	6.57
357.624	6.76
357.993	6.4
358.362	6.77
358.731	6.71
359.1	6.71
359.469	6.54
359.838	6.52
360.207	6.47
360.576	6.3
360.945	6.46
361.314	6.91
361.682	6.45
362.051	6.64
362.42	6.8
362.788	6.76
363.157	6.52
363.525	6.63
363.894	6.49
364.262	6.59
364.631	7.09
364.999	6.59
365.367	6.95
365.735	6.55
366.104	6.26
366.472	6.75
366.84	7.01
367.208	6.15
367.576	6.53
367.944	6.97
368.312	6.21
368.68	6.91
369.048	6.76
369.416	6.51
369.783	6.59
370.151	6.9
370.519	6.53
370.886	6.92
371.254	6.69
371.621	6.53
371.989	6.85
372.356	6.86
372.724	6.63
373.091	6.88
373.458	6.71
373.826	6.73
374.193	6.99
374.56	6.72
374.927	6.49
375.294	7.15
375.661	7.08
376.028	6.77
376.395	6.84
376.762	7.14
377.129	7.16
377.496	6.74
377.863	7.05
378.229	7.03
378.596	7.27
378.963	6.85
379.329	6.62
379.696	6.97
380.062	7.09
380.429	6.9
380.795	6.74
381.161	6.84
381.528	6.48
381.894	7.15
382.26	6.86
382.626	6.73
382.993	6.9
383.359	6.9
383.725	7.06
384.091	6.86
384.457	7.09
384.823	7.04
385.188	7.39
385.554	6.92
385.92	7.18
386.286	7.23
386.651	7.06
387.017	7.13
387.383	7.12
387.748	6.96
388.114	7.05
388.479	6.99
388.845	7.1
389.21	7.06
389.575	7.27
389.94	7.21
390.306	7.34
390.671	7.03
391.036	7.24
391.401	7.35
391.766	7.04
392.131	7.02
392.496	7.22
392.861	7.26
393.226	7.3
393.591	7.34
393.956	7.33
394.32	7.21
394.685	7.41
395.05	7.06
395.414	7.39
395.779	7.03
396.143	7.23
396.508	7.33
396.872	7.27
397.236	6.86
397.601	7.27
397.965	7.05
398.329	7.32
398.694	7.11
399.058	7.36
399.422	7.24
399.786	7.53
400.15	7.53
400.514	7.45
400.878	7.22
401.242	7.55
401.605	7.43
401.969	7.31
402.333	7.29
402.697	7.55
403.06	7.58
403.424	7.42
403.787	7.6
404.151	7.24
404.514	7.57
404.878	7.36
405.241	7.7
405.604	7.37
405.968	7.43
406.331	7.54
406.694	7.3
407.057	7.6
407.42	7.53
407.783	7.29
408.146	7.42
408.509	7.29
408.872	7.27
409.235	7.4
409.598	7.64
409.961	7.48
410.323	7.57
410.686	7.56
411.049	7.56
411.411	7.73
411.774	7.44
412.136	7.58
412.499	7.59
412.861	7.31
413.223	7.56
413.586	7.33
413.948	7.6
414.31	7.72
414.672	7.37
415.035	7.59
415.397	7.61
415.759	7.55
416.121	7.82
416.483	7.77
416.845	7.61
417.206	7.69
417.568	7.63
417.93	7.53
418.292	7.78
418.653	7.66
419.015	7.62
419.377	7.68
419.738	7.45
420.1	7.54
420.461	7.6
420.822	7.57
421.184	7.66
421.545	7.6
421.906	7.63
422.267	7.48
422.629	7.56
422.99	7.52
423.351	7.72
423.712	7.56
424.073	7.6
424.434	7.54
424.795	7.63
425.155	7.66
425.516	7.63
425.877	7.57
426.238	7.54
426.598	7.66
426.959	7.57
427.32	7.73
427.68	7.67
428.041	7.73
428.401	7.64
428.761	7.51
429.122	7.51
429.482	7.59
429.842	7.74
430.202	7.76
430.563	7.69
430.923	7.77
431.283	7.89
431.643	7.74
432.003	7.7
432.363	7.91
432.722	7.75
433.082	7.88
433.442	7.73
433.802	7.96
434.161	7.75
434.521	7.8
434.881	7.85
435.24	7.83
435.6	7.72
435.959	7.7
436.319	7.59
436.678	7.74
437.037	7.75
437.396	7.76
437.756	7.69
438.115	7.79
438.474	7.72
438.833	7.87
439.192	8.04
439.551	7.94
439.91	7.92
440.269	7.94
440.628	7.87
440.987	7.73
441.345	7.83
441.704	7.99
442.063	7.86
442.421	7.93
442.78	7.77
443.138	7.86
443.497	7.75
443.855	7.78
444.214	7.75
444.572	7.89
444.93	7.94
445.288	7.85
445.647	8.06
446.005	7.9
446.363	7.93
446.721	7.81
447.079	7.96
447.437	7.9
447.795	7.82
448.153	7.91
448.51	7.73
448.868	7.96
449.226	7.82
449.584	8
449.941	7.95
450.299	7.87
450.656	7.87
451.014	7.84
451.371	7.94
451.729	7.96
452.086	7.75
452.443	8.02
452.801	7.95
453.158	7.93
453.515	8.02
453.872	8.11
454.229	8
454.586	8.04
454.943	8
455.3	8.04
455.657	7.89
456.014	7.94
456.371	8.14
456.727	8.12
457.084	7.85
457.441	7.79
457.797	7.98
458.154	7.93
458.51	8
458.867	7.96
459.223	8.19
459.58	8.03
459.936	8.07
460.292	8.02
460.648	8.07
461.005	8.04
461.361	7.94
461.717	7.87
462.073	7.86
462.429	7.94
462.785	7.87
463.141	7.89
463.496	7.9
463.852	8.13
464.208	7.99
464.564	7.95
464.919	8.05
465.275	8.17
465.631	8.09
465.986	8.1
466.342	8.17
466.697	7.92
467.052	8.12
467.408	8.17
467.763	8.06
468.118	8.1
468.473	8.01
468.829	7.92
469.184	8.09
469.539	7.81
469.894	7.87
470.249	8.13
470.603	8.03
470.958	8.32
471.313	7.95
471.668	8.22
472.023	8.18
472.377	7.96
472.732	7.96
473.086	8.01
473.441	8.18
473.795	8.14
474.15	8.06
474.504	7.9
474.859	8.28
475.213	8.01
475.567	8.15
475.921	8.15
476.275	8.1
476.63	8.16
476.984	8.1
477.338	8.42
477.692	8.22
478.045	8.18
478.399	8.28
478.753	8.1
479.107	8.19
479.461	8.03
479.814	8.09
480.168	8.05
480.521	8.04
480.875	8.16
481.228	8.2
481.582	8.07
481.935	8.33
482.289	8.08
482.642	8.21
482.995	8.19
483.348	8.07
483.701	8.07
484.055	8.13
484.408	8.16
484.761	8
485.114	8.02
485.466	7.88
485.819	7.71
486.172	7.66
486.525	7.72
486.878	7.78
487.23	7.86
487.583	7.95
487.936	8.08
488.288	8.03
488.641	8.04
488.993	7.91
489.345	7.9
489.698	7.9
490.05	7.85
490.402	7.88
490.754	7.91
491.107	7.9
491.459	8.06
491.811	8.09
492.163	8.22
492.515	8.23
492.866	8.01
493.218	8.01
493.57	7.94
493.922	7.86
494.274	7.92
494.625	7.93
494.977	7.97
495.328	8.11
495.68	8.25
496.031	8.25
496.383	8.12
496.734	8.31
497.086	8.12
497.437	8.3
497.788	8.19
498.139	8.28
498.49	8.2
498.842	8.16
499.193	8.16
499.544	8.27
499.894	8.24
500.245	8.2
500.596	8.12
500.947	8.3
501.298	8.21
501.648	8.3
501.999	8.33
502.35	8.39
502.7	8.31
503.051	8.37
503.401	8.33
503.752	8.22
504.102	8.3
504.452	8.3
504.803	8.08
505.153	8.26
505.503	8.16
505.853	8.23
506.203	8.32
506.553	8.49
506.903	8.29
507.253	8.2
507.603	8.23
507.953	8.53
508.303	8.34
508.652	8.41
509.002	8.46
509.352	8.39
509.701	8.24
510.051	8.5
510.4	8.32
510.75	8.26
511.099	8.2
511.449	8.25
511.798	8.34
512.147	8.32
512.496	8.44
512.846	8.3
513.195	8.4
513.544	8.39
513.893	8.29
514.242	8.46
514.591	8.4
514.939	8.27
515.288	8.4
515.637	8.41
515.986	8.18
516.334	8.38
516.683	8.47
517.032	8.37
517.38	8.45
517.729	8.4
518.077	8.41
518.426	8.28
518.774	8.38
519.122	8.38
519.47	8.44
519.819	8.47
520.167	8.3
520.515	8.33
520.863	8.24
521.211	8.24
521.559	8.29
521.907	8.24
522.255	8.27
522.602	8.51
522.95	8.44
523.298	8.38
523.645	8.43
523.993	8.43
524.341	8.5
524.688	8.44
525.036	8.53
525.383	8.49
525.73	8.4
526.078	8.38
526.425	8.44
526.772	8.41
527.119	8.36
527.466	8.29
527.814	8.29
528.161	8.33
528.508	8.33
528.854	8.24
529.201	8.36
529.548	8.37
529.895	8.29
530.242	8.2
530.588	8.13
530.935	8.02
531.282	8.05
531.628	8.08
531.975	8.16
532.321	8.19
532.667	8.27
533.014	8.32
533.36	8.29
533.706	8.3
534.052	8.33
534.399	8.36
534.745	8.34
535.091	8.25
535.437	8.18
535.783	8.24
536.129	8.17
536.474	8.24
536.82	8.33
537.166	8.47
537.512	8.39
537.857	8.52
538.203	8.39
538.549	8.38
538.894	8.31
539.239	8.4
539.585	8.35
539.93	8.46
540.276	8.33
540.621	8.42
540.966	8.42
541.311	8.56
541.656	8.46
542.001	8.52
542.346	8.48
542.691	8.43
543.036	8.26
543.381	8.24
543.726	8.15
544.071	8.22
544.415	8.26
544.76	8.22
545.105	8.28
545.449	8.32
545.794	8.34
546.138	8.37
546.483	8.33
546.827	8.4
547.171	8.45
547.516	8.53
547.86	8.4
548.204	8.49
548.548	8.47
548.892	8.44
549.236	8.39
549.58	8.41
549.924	8.43
550.268	8.44
550.612	8.63
550.956	8.49
551.3	8.3
551.643	8.6
551.987	8.56
552.33	8.48
552.674	8.62
553.017	8.53
553.361	8.41
553.704	8.52
554.048	8.64
554.391	8.49
554.734	8.47
555.077	8.54
555.42	8.45
555.764	8.48
556.107	8.46
556.45	8.5
556.793	8.61
557.135	8.73
557.478	8.57
557.821	8.39
558.164	8.62
558.507	8.39
558.849	8.51
559.192	8.46
559.534	8.37
559.877	8.74
560.219	8.76
560.562	8.56
560.904	8.47
561.246	8.59
561.589	8.83
561.931	8.56
562.273	8.47
562.615	8.77
562.957	8.67
563.299	8.52
563.641	8.72
563.983	8.57
564.325	8.4
564.667	8.48
565.008	8.59
565.35	8.64
565.692	8.64
566.033	8.57
566.375	8.45
566.716	8.6
567.058	8.68
567.399	8.53
567.741	8.6
568.082	8.43
568.423	8.52
568.764	8.64
569.105	8.47
569.447	8.51
569.788	8.42
570.129	8.5
570.47	8.59
570.811	8.62
571.151	8.6
571.492	8.69
571.833	8.6
572.174	8.56
572.514	8.63
572.855	8.65
573.195	8.54
573.536	8.58
573.876	8.57
574.217	8.44
574.557	8.54
574.898	8.35
575.238	8.42
575.578	8.66
575.918	8.59
576.258	8.64
576.598	8.54
576.938	8.55
577.278	8.56
577.618	8.54
577.958	8.48
578.298	8.54
578.638	8.52
578.977	8.54
579.317	8.62
579.657	8.47
579.996	8.45
580.336	8.51
580.675	8.83
581.014	8.54
581.354	8.48
581.693	8.39
582.032	8.57
582.372	8.68
582.711	8.6
583.05	8.64
583.389	8.63
583.728	8.64
584.067	8.45
584.406	8.81
584.745	8.6
585.083	8.89
585.422	8.54
585.761	8.63
586.1	8.59
586.438	8.57
586.777	8.57
587.115	8.48
587.454	8.57
587.792	8.28
588.13	8.74
588.469	8.55
588.807	8.62
589.145	8.67
589.483	8.59
589.821	8.62
590.159	8.43
590.497	8.28
590.835	8.55
591.173	8.58
591.511	8.71
591.849	8.63
592.187	8.58
592.524	8.52
592.862	8.6
593.2	8.57
593.537	8.51
593.875	8.66
594.212	8.39
594.55	8.53
594.887	8.75
595.224	8.43
595.561	8.57
595.899	8.52
596.236	8.63
596.573	8.5
596.91	8.62
597.247	8.43
597.584	8.58
597.921	8.62
598.258	8.55
598.594	8.38
598.931	8.56
599.268	8.44
599.604	8.44
599.941	8.41
600.277	8.47
600.614	8.75
600.95	8.57
601.287	8.63
601.623	8.56
601.959	8.25
602.296	8.57
602.632	8.61
602.968	8.51
603.304	8.54
603.64	8.46
603.976	8.62
604.312	8.63
604.648	8.89
604.984	8.68
605.319	8.7
605.655	8.66
605.991	8.61
606.326	8.52
606.662	8.52
606.998	8.58
607.333	8.53
607.668	8.62
608.004	8.4
608.339	8.52
608.674	8.32
609.01	8.61
609.345	8.68
609.68	8.59
610.015	8.57
610.35	8.72
610.685	8.67
611.02	8.78
611.355	8.62
611.689	8.48
612.024	8.72
612.359	8.66
612.694	8.7
613.028	8.72
613.363	8.33
613.697	8.64
614.032	8.28
614.366	8.29
614.7	8.69
615.035	8.28
615.369	8.54
615.703	8.98
616.037	8.63
616.371	8.35
616.705	8.79
617.039	8.48
617.373	8.45
617.707	8.41
618.041	8.76
618.375	8.34
618.709	8.75
619.042	8.32
619.376	8.19
619.71	8.64
620.043	8.77
620.377	8.52
620.71	8.67
621.043	8.47
621.377	8.59
621.71	8.44
622.043	8.42
622.376	8.5
622.709	8.82
623.043	8.53
623.376	8.24
623.709	8.75
624.041	8.38
624.374	8.14
624.707	8.42
625.04	8.96
625.373	8.24
625.705	8.2
626.038	8.59
626.37	8.7
626.703	8.49
627.035	8.41
627.368	8.71
627.7	8.87
628.032	8.79
628.365	8.34
628.697	8.44
629.029	8.84
629.361	8.53
629.693	8.71
630.025	8.42
630.357	7.97
630.689	8.82
631.021	8.52
631.353	8.64
631.684	8.5
632.016	8.24
632.348	8.61
632.679	8.61
633.011	8.41
633.342	8.34
633.674	8.63
634.005	8.49
634.336	8.37
634.668	8.46
634.999	8.4
635.33	8.41
635.661	8.39
635.992	8.4
636.323	8.52
636.654	8.62
636.985	8.84
637.316	8.43
637.647	8.3
637.977	8.34
638.308	8.28
638.639	8.58
638.969	8.42
639.3	8.43
639.63	8.45
639.961	8.55
640.291	8.96
640.622	8.56
640.952	8.76
641.282	8.53
641.612	7.77
641.943	8.66
642.273	8.38
642.603	8.6
642.933	8.33
643.263	8.75
643.592	8.39
643.922	8.83
644.252	8.65
644.582	8.46
644.911	8.26
645.241	8.41
645.571	8.42
645.9	8.5
646.23	8.54
646.559	8.49
646.888	8.54
647.218	8.35
647.547	8.59
647.876	8.86
648.205	7.68
648.534	8.23
648.863	9.15
649.192	8.54
649.521	8.06
649.85	8.7
650.179	8.26
650.508	8.64
650.837	8.55
651.165	8.8
651.494	8.51
651.822	8.92
652.151	8.43
652.479	9.08
652.808	8.43
653.136	8.62
653.465	8.81
653.793	8.48
654.121	8.46
654.449	8.24
654.777	8.57
655.105	8.85
655.433	8.77
655.761	8.39
656.089	8.25
656.417	8.08
656.745	8.61
657.073	8.9
657.4	8.72
657.728	8.73
658.056	8.71
658.383	8.77
658.711	8.6
659.038	8.58
659.365	8.21
659.693	8.66
660.02	8.5
660.347	8.7
660.674	8.44
661.001	8.01
661.329	8.55
661.656	8.37
661.982	8.44
662.309	8.78
662.636	8.47
662.963	8.92
663.29	8.25
663.616	8.85
663.943	8.77
664.27	8.42
664.596	8.54
664.923	9.08
665.249	8.91
665.576	8.59
665.902	8
666.228	8.16
666.554	8.29
666.881	8.08
667.207	8.3
667.533	8.7
667.859	8.23
668.185	8.65
668.511	7.94
668.837	7.74
669.162	8.58
669.488	8.54
669.814	8.79
670.139	8.81
670.465	8.47
670.791	8.83
671.116	8.18
671.442	8.2
671.767	8.4
672.092	9.03
672.418	8.4
672.743	8.24
673.068	7.92
673.393	8
673.718	8.29
674.043	8.6
674.368	8.81
674.693	8.93
675.018	9.05
675.343	8.84
675.667	9.01
675.992	8.09
676.317	8.66
676.641	9.26
676.966	8.62
677.29	8.19
677.615	9.25
677.939	8.01
678.264	8.25
678.588	8.46
678.912	9.3
679.236	8.73
679.56	8.29
679.885	8.81
680.209	8.71
680.532	7.94
680.856	9.26
681.18	8.33
681.504	8.29
681.828	8.36
682.152	8.67
682.475	8.8
682.799	9.04
683.122	8.31
683.446	8.06
683.769	8.91
684.093	8.76
684.416	8.64
684.739	9.06
685.062	8.73
685.386	8.55
685.709	8.36
686.032	8.6
686.355	8.9
686.678	8.35
687.001	7.8
687.324	8.97
687.646	8.3
687.969	8.53
688.292	8.98
688.614	9.52
688.937	8.65
689.26	8.07
689.582	8.72
689.904	8.67
690.227	8.63
690.549	9.17
690.871	8.6
691.194	9.1
691.516	8.18
691.838	8.82
