Data from 0069_forehead_Reflection__1__310.txt Node

Date: Fri Dec 16 16:33:50 CST 2022
User: ToomeyLab
Spectrometer: FLMS14357
Trigger mode: 0
Integration Time (sec): 1.000000E-2
Scans to average: 100
Electric dark correction enabled: true
Nonlinearity correction enabled: false
Boxcar width: 0
XAxis mode: Wavelengths
Number of Pixels in Spectrum: 2048
>>>>>Begin Spectral Data<<<<<
189.047	57.29
189.435	57.29
189.823	57.29
190.211	-84.04
190.599	58.17
190.987	858.42
191.375	62.17
191.763	10.83
192.151	-684.76
192.538	151.8
192.926	216.08
193.314	58.18
193.702	145.71
194.089	349.51
194.477	106.79
194.864	83.23
195.252	145.69
195.639	79.1
196.027	-89.91
196.414	-37.3
196.801	-86.44
197.189	52.4
197.576	144.66
197.963	-2.89
198.351	59.46
198.738	-72.25
199.125	18.95
199.512	-5.65
199.899	-50.33
200.286	-55.81
200.673	74.33
201.06	29
201.447	51.72
201.833	-18.1
202.22	28.94
202.607	-28.15
202.994	65.74
203.38	-41.38
203.767	-10.23
204.154	-66.19
204.54	31.15
204.927	-0.47
205.313	31.14
205.699	-13.58
206.086	-24.15
206.472	-21.29
206.858	11.29
207.245	35.24
207.631	16.47
208.017	-4.46
208.403	50.78
208.789	-23.5
209.175	18.58
209.561	-6.96
209.947	-3.06
210.333	-36.79
210.719	-26.08
211.105	-5.09
211.491	52.99
211.876	0.91
212.262	-25.08
212.648	-32.72
213.034	-24.73
213.419	38.25
213.805	-2.43
214.19	-9.15
214.576	-28.62
214.961	-12.31
215.346	-32.09
215.732	-64.57
216.117	11.27
216.502	-29.28
216.888	-58
217.273	27.36
217.658	-44.6
218.043	2.04
218.428	-4.29
218.813	-10.01
219.198	-28.16
219.583	8.11
219.968	-24.56
220.353	5.85
220.738	4.9
221.122	21.86
221.507	-21.28
221.892	-4.72
222.276	21.05
222.661	-8.74
223.046	10.75
223.43	-9.09
223.815	1.47
224.199	13.99
224.583	2.44
224.968	5.92
225.352	-2.27
225.736	10.63
226.121	-0.29
226.505	0.92
226.889	5.3
227.273	1.95
227.657	-2.09
228.041	7.4
228.425	-0.43
228.809	0.18
229.193	-3
229.577	1.96
229.961	2.31
230.344	2.22
230.728	1.83
231.112	0.95
231.495	-0.1
231.879	2.4
232.263	0.35
232.646	1.16
233.03	1.34
233.413	0.55
233.797	3.27
234.18	-2.12
234.563	0.03
234.946	0.85
235.33	1
235.713	1.39
236.096	0.96
236.479	4
236.862	3.15
237.245	1.59
237.628	1.51
238.011	2.64
238.394	2.56
238.777	3.23
239.16	-0.07
239.543	0.12
239.925	2.92
240.308	2.83
240.691	1.97
241.073	3.21
241.456	1.11
241.838	2.1
242.221	1.32
242.603	2.49
242.986	2.91
243.368	2.16
243.75	1.55
244.133	2.17
244.515	2.14
244.897	1.41
245.279	1
245.661	1.72
246.043	1.73
246.425	1.29
246.807	1.72
247.189	1.64
247.571	2.28
247.953	2.14
248.335	2.07
248.717	2.09
249.098	2.17
249.48	1.8
249.862	1.96
250.243	1.83
250.625	1.81
251.006	2.42
251.388	2.44
251.769	2.33
252.151	1.95
252.532	1.31
252.913	2.33
253.295	2.03
253.676	2.66
254.057	1.72
254.438	1.61
254.819	1.89
255.2	2
255.581	0.95
255.962	1.11
256.343	1.7
256.724	1.7
257.105	2.03
257.486	1.61
257.867	0.81
258.247	2.2
258.628	2.75
259.009	2.34
259.389	2.68
259.77	1.56
260.15	2.56
260.531	2.18
260.911	2.28
261.292	2.02
261.672	2.06
262.052	1.8
262.432	1.88
262.813	2.39
263.193	2.08
263.573	2.19
263.953	1.58
264.333	1.34
264.713	2.59
265.093	2.08
265.473	2.86
265.853	2.17
266.233	1.91
266.612	1.17
266.992	2.21
267.372	1.89
267.752	1.65
268.131	2.14
268.511	2.05
268.89	2.72
269.27	2.44
269.649	2.63
270.029	1.99
270.408	1.88
270.787	1.88
271.167	2.21
271.546	1.63
271.925	1.85
272.304	2.19
272.683	1.66
273.062	2.12
273.441	2.09
273.82	2.02
274.199	2.29
274.578	1.8
274.957	2.3
275.336	1.97
275.715	2.34
276.093	1.8
276.472	2.11
276.851	1.99
277.229	2.92
277.608	2.09
277.986	2.18
278.365	1.98
278.743	2.21
279.122	1.76
279.5	1.99
279.878	1.64
280.257	2.35
280.635	1.94
281.013	2.21
281.391	2
281.769	1.8
282.147	2.25
282.525	1.78
282.903	2.27
283.281	2.42
283.659	1.91
284.037	1.8
284.415	2.34
284.792	2.05
285.17	1.75
285.548	1.86
285.925	1.83
286.303	1.96
286.68	2.66
287.058	2.16
287.435	1.87
287.813	2.09
288.19	2.42
288.567	2.05
288.945	1.83
289.322	1.89
289.699	2.1
290.076	2.48
290.453	2.02
290.83	2.41
291.207	2.01
291.584	2.22
291.961	2.24
292.338	2.27
292.715	2.33
293.092	2.03
293.469	2.66
293.845	2.52
294.222	2.21
294.599	2.72
294.975	2.47
295.352	2.1
295.728	2.43
296.105	1.96
296.481	2.48
296.858	2.48
297.234	2.63
297.61	2.69
297.986	2.28
298.363	2.38
298.739	2.91
299.115	2.09
299.491	2.53
299.867	2.35
300.243	2.24
300.619	2.14
300.995	2.34
301.371	2.77
301.746	2.7
302.122	2.63
302.498	2.74
302.874	2.87
303.249	3.12
303.625	2.59
304	2.34
304.376	2.55
304.751	2.61
305.127	2.65
305.502	3.15
305.878	2.43
306.253	2.64
306.628	3.77
307.003	3.13
307.378	2.88
307.754	3.36
308.129	2.82
308.504	2.68
308.879	2.8
309.254	3.33
309.629	3.09
310.003	3.26
310.378	3.32
310.753	3.51
311.128	3.19
311.502	3.25
311.877	3.43
312.252	3.2
312.626	3.23
313.001	3.43
313.375	3.39
313.75	3.13
314.124	3.78
314.498	3.49
314.873	3.63
315.247	3.21
315.621	3.79
315.995	3.23
316.369	3.44
316.743	4.46
317.117	4.01
317.491	3.69
317.865	3.14
318.239	4.54
318.613	3.91
318.987	4.01
319.361	3.83
319.734	4.56
320.108	4.05
320.482	3.98
320.855	4.34
321.229	4.21
321.602	4.13
321.976	3.98
322.349	3.81
322.723	3.9
323.096	3.92
323.469	4.74
323.843	4.27
324.216	3.69
324.589	4.71
324.962	4.47
325.335	4.67
325.708	4.58
326.081	4.65
326.454	4.64
326.827	4.86
327.2	5.56
327.573	4.72
327.945	4.72
328.318	5.32
328.691	4.79
329.063	4.86
329.436	4.89
329.809	4.88
330.181	4.86
330.553	5.29
330.926	5.26
331.298	4.84
331.671	4.93
332.043	5.25
332.415	5.38
332.787	5.85
333.159	5.01
333.532	5.46
333.904	5.45
334.276	5.26
334.648	5.23
335.02	5.39
335.391	5.16
335.763	5.47
336.135	5.58
336.507	6.23
336.879	5.67
337.25	5.89
337.622	5.34
337.993	5.66
338.365	5.77
338.736	5.58
339.108	5.55
339.479	5.85
339.851	6.07
340.222	5.97
340.593	5.64
340.964	5.86
341.336	6.13
341.707	5.99
342.078	5.2
342.449	6.25
342.82	6.05
343.191	5.88
343.562	6.11
343.933	6.09
344.303	6.65
344.674	6.11
345.045	6.25
345.416	6.3
345.786	6.34
346.157	6.47
346.527	6.55
346.898	6.34
347.268	6.43
347.639	6.53
348.009	7.04
348.38	6.67
348.75	6.59
349.12	6.98
349.49	6.55
349.861	7.67
350.231	7.05
350.601	7.13
350.971	7.05
351.341	7.22
351.711	7.26
352.081	7.15
352.45	7.15
352.82	7.07
353.19	7.3
353.56	7.16
353.929	7.31
354.299	7.38
354.669	7.72
355.038	7.27
355.408	7.89
355.777	7.25
356.147	7.58
356.516	7.68
356.885	7.61
357.254	7.64
357.624	7.75
357.993	7.75
358.362	7.91
358.731	8.11
359.1	8
359.469	8.02
359.838	7.84
360.207	7.44
360.576	7.96
360.945	8.11
361.314	8.27
361.682	7.74
362.051	8.23
362.42	8.37
362.788	8.37
363.157	8.18
363.525	8.37
363.894	8.14
364.262	8.32
364.631	8.79
364.999	8.05
365.367	8.79
365.735	8.75
366.104	8.77
366.472	8.66
366.84	8.51
367.208	8.78
367.576	8.86
367.944	9.01
368.312	8.73
368.68	8.9
369.048	8.86
369.416	9.16
369.783	8.9
370.151	8.73
370.519	9.06
370.886	8.94
371.254	8.98
371.621	9.04
371.989	9.5
372.356	9.46
372.724	9.45
373.091	9.53
373.458	9.45
373.826	9.56
374.193	9.97
374.56	9.19
374.927	9.45
375.294	10.21
375.661	9.97
376.028	9.97
376.395	9.7
376.762	9.9
377.129	10.13
377.496	9.98
377.863	9.95
378.229	9.92
378.596	9.8
378.963	10.09
379.329	10.07
379.696	10.23
380.062	10.46
380.429	10.64
380.795	10.03
381.161	10.38
381.528	9.99
381.894	10.68
382.26	10.56
382.626	10.39
382.993	10.46
383.359	10.69
383.725	10.62
384.091	10.71
384.457	11.11
384.823	10.77
385.188	11.1
385.554	10.89
385.92	10.95
386.286	11.17
386.651	11.13
387.017	11.15
387.383	11.15
387.748	11.03
388.114	11.46
388.479	11.46
388.845	11.59
389.21	11.65
389.575	11.55
389.94	11.92
390.306	11.48
390.671	11.68
391.036	11.76
391.401	12.03
391.766	11.79
392.131	11.78
392.496	11.83
392.861	11.84
393.226	12.01
393.591	11.97
393.956	12.05
394.32	12.33
394.685	12.36
395.05	12.3
395.414	12.18
395.779	12.37
396.143	12.4
396.508	12.37
396.872	12.45
397.236	12.24
397.601	12.72
397.965	12.5
398.329	12.75
398.694	12.45
399.058	12.9
399.422	12.71
399.786	12.79
400.15	12.84
400.514	12.85
400.878	13.05
401.242	12.89
401.605	13.03
401.969	13.03
402.333	13.24
402.697	13.53
403.06	13.3
403.424	13.32
403.787	13.56
404.151	13.18
404.514	13.63
404.878	13.53
405.241	13.69
405.604	13.5
405.968	13.6
406.331	13.7
406.694	13.7
407.057	13.9
407.42	13.7
407.783	13.93
408.146	13.69
408.509	13.9
408.872	13.99
409.235	14.02
409.598	14.33
409.961	14.2
410.323	14.25
410.686	14.26
411.049	14.05
411.411	14.48
411.774	14.23
412.136	14.5
412.499	14.51
412.861	14.46
413.223	14.43
413.586	14.55
413.948	15.12
414.31	15.01
414.672	14.75
415.035	14.9
415.397	15.1
415.759	14.73
416.121	15.07
416.483	14.97
416.845	14.96
417.206	15.18
417.568	15.05
417.93	14.96
418.292	15.01
418.653	15.24
419.015	15.22
419.377	15.22
419.738	15.08
420.1	15.21
420.461	15.29
420.822	15.28
421.184	15.24
421.545	15.35
421.906	15.37
422.267	15.44
422.629	15.31
422.99	15.32
423.351	15.38
423.712	15.46
424.073	15.58
424.434	15.5
424.795	15.68
425.155	15.75
425.516	15.74
425.877	15.67
426.238	15.72
426.598	15.82
426.959	15.75
427.32	16.01
427.68	16.06
428.041	16.09
428.401	16.18
428.761	16.3
429.122	16.4
429.482	16.42
429.842	16.73
430.202	16.63
430.563	16.8
430.923	16.7
431.283	17.07
431.643	16.68
432.003	16.96
432.363	17
432.722	16.84
433.082	16.79
433.442	17.11
433.802	17.26
434.161	17.05
434.521	17.15
434.881	17.21
435.24	17.21
435.6	17.25
435.959	17.27
436.319	17.29
436.678	17.21
437.037	17.46
437.396	17.46
437.756	17.68
438.115	17.63
438.474	17.72
438.833	17.79
439.192	17.81
439.551	17.83
439.91	17.98
440.269	18.06
440.628	17.98
440.987	17.83
441.345	17.99
441.704	17.96
442.063	17.99
442.421	17.97
442.78	17.95
443.138	18.05
443.497	18.03
443.855	18.11
444.214	18.44
444.572	18.44
444.93	18.52
445.288	18.47
445.647	18.65
446.005	18.53
446.363	18.58
446.721	18.48
447.079	18.72
447.437	18.65
447.795	18.4
448.153	18.42
448.51	18.49
448.868	18.6
449.226	18.59
449.584	18.62
449.941	18.75
450.299	18.88
450.656	19.17
451.014	19.13
451.371	19.06
451.729	19.2
452.086	19.22
452.443	19.17
452.801	19.59
453.158	19.68
453.515	19.5
453.872	19.66
454.229	19.56
454.586	19.64
454.943	19.77
455.3	19.8
455.657	19.68
456.014	20.01
456.371	19.95
456.727	20.06
457.084	20.06
457.441	20.15
457.797	20.12
458.154	19.93
458.51	20.28
458.867	20.27
459.223	20.32
459.58	20.37
459.936	20.32
460.292	20.53
460.648	20.27
461.005	20.26
461.361	20.26
461.717	20.12
462.073	20.14
462.429	20.17
462.785	20.37
463.141	20.5
463.496	20.69
463.852	20.89
464.208	20.92
464.564	20.75
464.919	21.13
465.275	21.05
465.631	21.1
465.986	21.07
466.342	21.38
466.697	21.27
467.052	21.38
467.408	21.4
467.763	21.32
468.118	21.49
468.473	21.81
468.829	21.53
469.184	21.53
469.539	21.49
469.894	21.47
470.249	21.73
470.603	21.8
470.958	21.94
471.313	21.85
471.668	22.09
472.023	21.96
472.377	22.04
472.732	22.02
473.086	21.99
473.441	22.25
473.795	22.24
474.15	22.49
474.504	22.3
474.859	22.31
475.213	22.47
475.567	22.46
475.921	22.53
476.275	22.56
476.63	22.61
476.984	22.68
477.338	23
477.692	22.71
478.045	22.78
478.399	22.79
478.753	22.57
479.107	22.94
479.461	22.9
479.814	22.63
480.168	22.85
480.521	22.99
480.875	23.18
481.228	22.95
481.582	23.04
481.935	23.25
482.289	23.09
482.642	23.26
482.995	23.07
483.348	23.05
483.701	22.99
484.055	23.13
484.408	22.94
484.761	22.79
485.114	22.75
485.466	22.49
485.819	22.09
486.172	22.03
486.525	22.09
486.878	22.28
487.23	22.64
487.583	22.99
487.936	23.06
488.288	23.22
488.641	23.11
488.993	22.97
489.345	22.91
489.698	22.89
490.05	22.71
490.402	22.95
490.754	23.03
491.107	23.4
491.459	23.68
491.811	23.75
492.163	23.91
492.515	24
492.866	23.79
493.218	23.59
493.57	23.4
493.922	23.28
494.274	23.46
494.625	23.67
494.977	23.93
495.328	24.34
495.68	24.54
496.031	24.61
496.383	24.65
496.734	24.97
497.086	24.87
497.437	25.11
497.788	24.92
498.139	24.85
498.49	24.8
498.842	24.82
499.193	24.9
499.544	25.01
499.894	25.23
500.245	25.18
500.596	25
500.947	25.25
501.298	25.24
501.648	25.26
501.999	25.66
502.35	25.59
502.7	25.65
503.051	25.8
503.401	25.77
503.752	25.9
504.102	25.97
504.452	25.92
504.803	25.85
505.153	25.93
505.503	25.95
505.853	25.88
506.203	26.03
506.553	26.16
506.903	26.28
507.253	26.24
507.603	26.35
507.953	26.45
508.303	26.26
508.652	26.41
509.002	26.63
509.352	26.57
509.701	26.36
510.051	26.54
510.4	26.39
510.75	26.21
511.099	26.33
511.449	26.45
511.798	26.6
512.147	26.49
512.496	26.6
512.846	26.54
513.195	26.77
513.544	26.74
513.893	26.66
514.242	26.86
514.591	26.78
514.939	26.94
515.288	27.04
515.637	27.16
515.986	27.14
516.334	27.31
516.683	27.4
517.032	27.27
517.38	27.4
517.729	27.43
518.077	27.61
518.426	27.28
518.774	27.51
519.122	27.47
519.47	27.4
519.819	27.45
520.167	27.3
520.515	27.07
520.863	27.13
521.211	27.19
521.559	27.27
521.907	27.4
522.255	27.63
522.602	27.83
522.95	27.91
523.298	27.87
523.645	27.92
523.993	28.15
524.341	28.18
524.688	28.19
525.036	28.37
525.383	28.34
525.73	28.31
526.078	28.23
526.425	28.36
526.772	28.08
527.119	27.92
527.466	27.92
527.814	27.8
528.161	27.91
528.508	27.95
528.854	28.09
529.201	28.1
529.548	28.05
529.895	28
530.242	27.87
530.588	27.51
530.935	27.19
531.282	27.25
531.628	27.47
531.975	27.85
532.321	28.06
532.667	28.33
533.014	28.49
533.36	28.68
533.706	28.85
534.052	28.52
534.399	28.74
534.745	28.63
535.091	28.45
535.437	28.23
535.783	28.29
536.129	28.34
536.474	28.59
536.82	28.89
537.166	29
537.512	29.31
537.857	29.45
538.203	29.36
538.549	29.09
538.894	28.95
539.239	29.24
539.585	29.17
539.93	29.28
540.276	29.75
540.621	29.96
540.966	29.94
541.311	30.14
541.656	30.06
542.001	29.94
542.346	29.8
542.691	29.54
543.036	29.38
543.381	29.21
543.726	29.06
544.071	29.07
544.415	29.37
544.76	29.55
545.105	29.69
545.449	29.75
545.794	29.86
546.138	30.09
546.483	30.27
546.827	30.5
547.171	30.53
547.516	30.68
547.86	30.55
548.204	30.49
548.548	30.33
548.892	30.48
549.236	30.46
549.58	30.59
549.924	30.88
550.268	30.97
550.612	30.97
550.956	31.07
551.3	31.43
551.643	31.38
551.987	31.19
552.33	31.53
552.674	31.73
553.017	31.54
553.361	31.76
553.704	31.72
554.048	31.54
554.391	31.61
554.734	31.55
555.077	31.62
555.42	31.75
555.764	31.75
556.107	31.63
556.45	31.8
556.793	32
557.135	32.12
557.478	32.15
557.821	32.1
558.164	32.42
558.507	32.15
558.849	32.3
559.192	32.39
559.534	32.42
559.877	32.45
560.219	32.44
560.562	32.66
560.904	32.76
561.246	32.58
561.589	32.68
561.931	32.8
562.273	32.85
562.615	32.79
562.957	32.61
563.299	32.72
563.641	32.62
563.983	32.83
564.325	32.75
564.667	32.87
565.008	32.96
565.35	33.26
565.692	33.08
566.033	33.11
566.375	33.2
566.716	33.21
567.058	33.26
567.399	33.2
567.741	33.08
568.082	33.06
568.423	32.92
568.764	32.97
569.105	32.99
569.447	33.1
569.788	33.28
570.129	33.15
570.47	33.48
570.811	33.67
571.151	33.49
571.492	33.58
571.833	33.51
572.174	33.79
572.514	33.47
572.855	33.43
573.195	33.66
573.536	33.61
573.876	33.68
574.217	33.64
574.557	33.52
574.898	33.62
575.238	33.62
575.578	33.97
575.918	33.91
576.258	33.85
576.598	33.88
576.938	33.99
577.278	33.72
577.618	34.09
577.958	34.16
578.298	33.94
578.638	33.89
578.977	34.49
579.317	34.31
579.657	34.49
579.996	34.41
580.336	34.39
580.675	34.7
581.014	34.63
581.354	34.73
581.693	34.83
582.032	34.81
582.372	34.97
582.711	34.88
583.05	35.1
583.389	35.05
583.728	34.78
584.067	35.04
584.406	34.92
584.745	34.93
585.083	35.42
585.422	35.19
585.761	35.26
586.1	35.34
586.438	35.28
586.777	35.38
587.115	35.4
587.454	35.63
587.792	35.52
588.13	36.13
588.469	35.67
588.807	35.83
589.145	35.63
589.483	35.61
589.821	35.44
590.159	35.54
590.497	35.63
590.835	35.67
591.173	35.98
591.511	35.95
591.849	35.9
592.187	35.64
592.524	35.65
592.862	36.15
593.2	36
593.537	36.18
593.875	35.9
594.212	36.05
594.55	36.13
594.887	36.26
595.224	36.58
595.561	36.4
595.899	36.4
596.236	36.42
596.573	36.22
596.91	36.43
597.247	36.6
597.584	36.61
597.921	36.46
598.258	36.64
598.594	36.28
598.931	36.2
599.268	35.79
599.604	36.21
599.941	36.03
600.277	36.2
600.614	36.59
600.95	36.68
601.287	36.81
601.623	37.04
601.959	36.42
602.296	36.9
602.632	37.22
602.968	36.84
603.304	36.92
603.64	37.02
603.976	37.04
604.312	37.33
604.648	37.09
604.984	36.99
605.319	36.96
605.655	36.83
605.991	36.88
606.326	36.93
606.662	36.8
606.998	36.68
607.333	36.82
607.668	36.7
608.004	36.65
608.339	37.27
608.674	37.25
609.01	37.41
609.345	37.61
609.68	37.38
610.015	37.7
610.35	37.83
610.685	38.04
611.02	37.76
611.355	37.5
611.689	37.23
612.024	37.37
612.359	37.38
612.694	37.75
613.028	37.73
613.363	37.69
613.697	37.79
614.032	38.13
614.366	37.89
614.7	38.5
615.035	37.98
615.369	38.13
615.703	38.55
616.037	37.79
616.371	38.27
616.705	38.01
617.039	38.56
617.373	37.95
617.707	38.47
618.041	38.35
618.375	38.32
618.709	38.96
619.042	38.28
619.376	38.5
619.71	38.23
620.043	38.96
620.377	38.13
620.71	38.42
621.043	38.62
621.377	38.62
621.71	38.88
622.043	38.69
622.376	38.64
622.709	38.82
623.043	38.36
623.376	39.18
623.709	39.35
624.041	39.02
624.374	38.77
624.707	39.02
625.04	39.37
625.373	38.97
625.705	39.31
626.038	39.07
626.37	39.18
626.703	39.11
627.035	39.18
627.368	39.5
627.7	39.41
628.032	39.44
628.365	39.07
628.697	39.6
629.029	39.45
629.361	39.24
629.693	39.36
630.025	39.68
630.357	39.08
630.689	39.67
631.021	39.4
631.353	39.81
631.684	39.69
632.016	39.56
632.348	39.37
632.679	39.58
633.011	40.1
633.342	39.47
633.674	39.87
634.005	39.7
634.336	40.02
634.668	39.93
634.999	40.16
635.33	40.33
635.661	40.33
635.992	40.12
636.323	40.19
636.654	39.8
636.985	39.92
637.316	39.62
637.647	40.13
637.977	40.4
638.308	40.24
638.639	40.27
638.969	40.07
639.3	40.35
639.63	39.91
639.961	40.95
640.291	40.46
640.622	40.88
640.952	40.39
641.282	39.87
641.612	40.72
641.943	41.11
642.273	40.68
642.603	40.38
642.933	40.89
643.263	41.35
643.592	40.74
643.922	41.02
644.252	41.12
644.582	40.96
644.911	40.95
645.241	40.53
645.571	40.83
645.9	41.64
646.23	40.66
646.559	41.04
646.888	40.93
647.218	41.42
647.547	41.72
647.876	41.16
648.205	40.49
648.534	41.42
648.863	41.44
649.192	41.4
649.521	41.67
649.85	41.27
650.179	40.98
650.508	41.41
650.837	41.59
651.165	41.32
651.494	41.57
651.822	41.68
652.151	41.41
652.479	42.15
652.808	41.56
653.136	41.55
653.465	41.76
653.793	41.67
654.121	41.5
654.449	41.16
654.777	41.54
655.105	41.58
655.433	41.98
655.761	41.67
656.089	42.16
656.417	41.81
656.745	42.05
657.073	42
657.4	41.95
657.728	41.95
658.056	42.13
658.383	42.05
658.711	41.94
659.038	42.41
659.365	42.13
659.693	42.19
660.02	42.33
660.347	42
660.674	42.16
661.001	41.94
661.329	41.87
661.656	41.39
661.982	42.27
662.309	42.26
662.636	42.14
662.963	42.21
663.29	42.24
663.616	41.95
663.943	42.61
664.27	42.99
664.596	42.4
664.923	42.43
665.249	42.82
665.576	42.56
665.902	41.99
666.228	42.97
666.554	42.21
666.881	42.63
667.207	42.23
667.533	43.25
667.859	42.49
668.185	42.62
668.511	41.94
668.837	42.44
669.162	43.1
669.488	42.68
669.814	43.41
670.139	42.99
670.465	42.98
670.791	42.5
671.116	42.48
671.442	43.05
671.767	42.18
672.092	43.36
672.418	43.04
672.743	42.84
