Data from 0150_crown_Reflection__2__88.txt Node

Date: Fri Sep 22 21:00:20 CDT 2023
User: ToomeyLab
Spectrometer: FLMS14357
Trigger mode: 0
Integration Time (sec): 1.000000E-2
Scans to average: 100
Electric dark correction enabled: true
Nonlinearity correction enabled: false
Boxcar width: 0
XAxis mode: Wavelengths
Number of Pixels in Spectrum: 2048
>>>>>Begin Spectral Data<<<<<
189.047	136
189.435	136
189.823	136
190.211	186.28
190.599	-150.46
190.987	4.73
191.375	-15.13
191.763	54.22
192.151	46.7
192.538	-138.08
192.926	-31.66
193.314	-1987.82
193.702	22.1
194.089	63.68
194.477	-39.52
194.864	289.44
195.252	32.71
195.639	1752.69
196.027	29.03
196.414	64.52
196.801	20.52
197.189	-25.21
197.576	76.8
197.963	10.8
198.351	39.26
198.738	26.3
199.125	-18.62
199.512	27.27
199.899	18.04
200.286	23.02
200.673	31.48
201.06	48.12
201.447	35.37
201.833	-21.97
202.22	-3.34
202.607	39.53
202.994	43.02
203.38	24.81
203.767	24.76
204.154	39.99
204.54	32.36
204.927	0.99
205.313	38.16
205.699	42.75
206.086	42.76
206.472	53.62
206.858	-5.04
207.245	-15.82
207.631	34.29
208.017	28.19
208.403	14.13
208.789	25.73
209.175	59.73
209.561	29.03
209.947	45.34
210.333	42.59
210.719	23.82
211.105	48.49
211.491	35.77
211.876	9.16
212.262	20.99
212.648	15.78
213.034	40.36
213.419	9.12
213.805	16.43
214.19	12.56
214.576	10.61
214.961	6.75
215.346	17.7
215.732	25.75
216.117	-1.11
216.502	23.41
216.888	22.81
217.273	33.36
217.658	17.66
218.043	33.36
218.428	34.85
218.813	-3.74
219.198	9.88
219.583	23.53
219.968	6.58
220.353	29.17
220.738	23.05
221.122	10.4
221.507	27.78
221.892	-9.19
222.276	10
222.661	-4.15
223.046	12.07
223.43	19.98
223.815	8.33
224.199	2.23
224.583	12.9
224.968	9.51
225.352	13.25
225.736	11.19
226.121	15.64
226.505	15.05
226.889	9.8
227.273	11.08
227.657	7.45
228.041	5.06
228.425	15.72
228.809	10.1
229.193	9.23
229.577	11.52
229.961	9.11
230.344	9.83
230.728	8.01
231.112	7.88
231.495	8.57
231.879	8.3
232.263	7.91
232.646	7.9
233.03	7.2
233.413	7.88
233.797	7.65
234.18	9.13
234.563	11.74
234.946	10.48
235.33	7.44
235.713	7.82
236.096	7.81
236.479	7.87
236.862	8.89
237.245	8.3
237.628	8.41
238.011	9.15
238.394	7.35
238.777	9.81
239.16	7.9
239.543	10.14
239.925	7.12
240.308	7.45
240.691	8.56
241.073	9.45
241.456	9.15
241.838	6.98
242.221	7.95
242.603	7.65
242.986	7.74
243.368	7.14
243.75	8.04
244.133	7.47
244.515	7.27
244.897	6.8
245.279	6.74
245.661	6.77
246.043	7.89
246.425	7.26
246.807	7.27
247.189	6.67
247.571	6.98
247.953	7.72
248.335	7.33
248.717	7.01
249.098	7.01
249.48	6.72
249.862	6.94
250.243	6.74
250.625	6.97
251.006	6.61
251.388	7.11
251.769	6.68
252.151	8.2
252.532	7.66
252.913	8.06
253.295	7.52
253.676	6.68
254.057	6.56
254.438	7.54
254.819	6.32
255.2	7.29
255.581	6.3
255.962	6.49
256.343	7.37
256.724	6.92
257.105	7.51
257.486	6.69
257.867	6.39
258.247	6.98
258.628	7.26
259.009	6.19
259.389	6.11
259.77	6.7
260.15	6.44
260.531	6.58
260.911	6.02
261.292	6.49
261.672	5.98
262.052	6.14
262.432	6.12
262.813	6.31
263.193	6.38
263.573	7.05
263.953	6.47
264.333	6.19
264.713	6.62
265.093	6.36
265.473	6.68
265.853	6.28
266.233	5.9
266.612	6.96
266.992	6.72
267.372	6.44
267.752	6.85
268.131	6.32
268.511	5.38
268.89	6.3
269.27	5.91
269.649	6.01
270.029	5.67
270.408	5.74
270.787	6.1
271.167	5.76
271.546	5.82
271.925	5.89
272.304	5.67
272.683	6.39
273.062	6.54
273.441	5.86
273.82	6.39
274.199	5.96
274.578	6.21
274.957	5.62
275.336	5.63
275.715	6.01
276.093	5.61
276.472	5.54
276.851	5.83
277.229	4.92
277.608	5.96
277.986	5.57
278.365	5.97
278.743	5.84
279.122	6.1
279.5	5.75
279.878	5.39
280.257	6.42
280.635	5.84
281.013	6.11
281.391	5.64
281.769	5.62
282.147	5.83
282.525	5.24
282.903	5.95
283.281	5.36
283.659	5.6
284.037	5.74
284.415	5.8
284.792	5.84
285.17	5.7
285.548	5.76
285.925	5.4
286.303	5.53
286.68	5.01
287.058	5.07
287.435	5.25
287.813	5.4
288.19	4.95
288.567	5.44
288.945	4.97
289.322	5.37
289.699	5.25
290.076	5.58
290.453	5.49
290.83	4.83
291.207	4.83
291.584	4.75
291.961	5.2
292.338	5.23
292.715	5.54
293.092	4.92
293.469	5.33
293.845	4.96
294.222	5.39
294.599	5.32
294.975	5.72
295.352	5.65
295.728	5.23
296.105	4.98
296.481	4.87
296.858	5.31
297.234	4.91
297.61	4.91
297.986	4.94
298.363	4.77
298.739	5.07
299.115	4.59
299.491	4.82
299.867	4.67
300.243	4.81
300.619	5.09
300.995	4.65
301.371	5.05
301.746	4.87
302.122	5.13
302.498	4.61
302.874	4.95
303.249	5
303.625	4.49
304	5.27
304.376	5.02
304.751	4.84
305.127	4.52
305.502	5.29
305.878	5
306.253	4.96
306.628	4.35
307.003	4.72
307.378	5.05
307.754	4.59
308.129	4.59
308.504	4.99
308.879	4.46
309.254	4.59
309.629	4.86
310.003	5.76
310.378	5.45
310.753	4.76
311.128	4.52
311.502	5.31
311.877	4.67
312.252	4.58
312.626	4.63
313.001	4.84
313.375	4.87
313.75	4.83
314.124	4.67
314.498	4.52
314.873	4.73
315.247	4.79
315.621	4.48
315.995	4.77
316.369	4.69
316.743	4.09
317.117	4.97
317.491	4.78
317.865	4.09
318.239	4.66
318.613	4.51
318.987	4.6
319.361	4.49
319.734	4.74
320.108	4.92
320.482	4.88
320.855	4.33
321.229	4.87
321.602	4.67
321.976	4.61
322.349	4.99
322.723	4.92
323.096	4.63
323.469	4.63
323.843	4.76
324.216	4.56
324.589	4.71
324.962	4.87
325.335	4.5
325.708	4.29
326.081	4.96
326.454	4.08
326.827	4.6
327.2	4.44
327.573	5.11
327.945	4.53
328.318	4.95
328.691	4.33
329.063	4.26
329.436	4.75
329.809	4.66
330.181	4.63
330.553	4.55
330.926	4.53
331.298	4.63
331.671	4.84
332.043	4.25
332.415	4.55
332.787	4.89
333.159	4.15
333.532	3.73
333.904	4.65
334.276	4.72
334.648	3.92
335.02	4.07
335.391	4.77
335.763	4.42
336.135	4.32
336.507	4.44
336.879	4.45
337.25	4.77
337.622	4.85
337.993	4.88
338.365	5.1
338.736	4.44
339.108	4.5
339.479	4.65
339.851	4.13
340.222	4.46
340.593	4.4
340.964	4.2
341.336	4.16
341.707	4.69
342.078	4.23
342.449	4.72
342.82	4.39
343.191	3.93
343.562	4.38
343.933	4.74
344.303	4.4
344.674	4.28
345.045	4.68
345.416	5.1
345.786	4.31
346.157	4.71
346.527	4.34
346.898	4.2
347.268	4.27
347.639	4.47
348.009	4.19
348.38	4.69
348.75	4.84
349.12	4.4
349.49	5.23
349.861	4.93
350.231	4.77
350.601	4.58
350.971	4.55
351.341	4.34
351.711	4.45
352.081	4.73
352.45	4.51
352.82	4.73
353.19	4.89
353.56	4.26
353.929	4.66
354.299	4.67
354.669	4.49
355.038	4.7
355.408	4.76
355.777	4.78
356.147	4.8
356.516	4.81
356.885	4.46
357.254	4.79
357.624	4.39
357.993	4.73
358.362	4.93
358.731	4.86
359.1	4.47
359.469	4.7
359.838	4.37
360.207	4.4
360.576	4.89
360.945	4.81
361.314	4.77
361.682	4.8
362.051	5.02
362.42	4.94
362.788	4.46
363.157	4.76
363.525	4.68
363.894	4.6
364.262	4.67
364.631	4.7
364.999	4.76
365.367	4.57
365.735	4.84
366.104	4.74
366.472	4.9
366.84	4.52
367.208	4.89
367.576	4.74
367.944	4.65
368.312	4.79
368.68	4.99
369.048	4.89
369.416	4.83
369.783	4.57
370.151	4.55
370.519	5
370.886	4.86
371.254	4.94
371.621	4.95
371.989	4.85
372.356	4.74
372.724	5.28
373.091	5.12
373.458	4.77
373.826	4.64
374.193	4.91
374.56	5.21
374.927	5
375.294	4.63
375.661	4.85
376.028	5.02
376.395	4.97
376.762	4.77
377.129	5.16
377.496	5.13
377.863	5.12
378.229	4.8
378.596	4.63
378.963	5.13
379.329	4.81
379.696	5.12
380.062	4.75
380.429	5.06
380.795	4.87
381.161	4.96
381.528	4.64
381.894	4.45
382.26	4.99
382.626	4.71
382.993	5.01
383.359	4.71
383.725	4.92
384.091	5.13
384.457	5.03
384.823	5.09
385.188	5.1
385.554	5.09
385.92	5.47
386.286	4.91
386.651	4.93
387.017	5.27
387.383	4.87
387.748	4.93
388.114	4.97
388.479	5.1
388.845	4.97
389.21	4.9
389.575	5.05
389.94	4.84
390.306	5.11
390.671	5.46
391.036	4.79
391.401	5.21
391.766	5.34
392.131	4.9
392.496	5.12
392.861	4.93
393.226	5.19
393.591	5.16
393.956	5.13
394.32	4.92
394.685	5.24
395.05	5.27
395.414	5.38
395.779	5.18
396.143	5.16
396.508	5.18
396.872	4.95
397.236	5.24
397.601	5.04
397.965	5.11
398.329	5.16
398.694	4.98
399.058	5.19
399.422	4.95
399.786	5.21
400.15	5.44
400.514	5.35
400.878	5.07
401.242	5.47
401.605	5.22
401.969	5.08
402.333	5.48
402.697	5.14
403.06	5.22
403.424	5.24
403.787	5.26
404.151	5.29
404.514	5.35
404.878	5.53
405.241	5.49
405.604	5.47
405.968	5.36
406.331	5.32
406.694	5.22
407.057	5.12
407.42	5.38
407.783	5.2
408.146	5.25
408.509	5.2
408.872	5.24
409.235	5.27
409.598	5.21
409.961	5.66
410.323	5.52
410.686	5.32
411.049	5.51
411.411	5.42
411.774	5.33
412.136	5.31
412.499	5.27
412.861	5.49
413.223	5.38
413.586	5.35
413.948	5.65
414.31	5.55
414.672	5.21
415.035	5.43
415.397	5.61
415.759	5.66
416.121	5.24
416.483	5.63
416.845	5.26
417.206	5.33
417.568	5.39
417.93	5.35
418.292	5.5
418.653	5.4
419.015	5.32
419.377	5.39
419.738	5.52
420.1	5.25
420.461	5.39
420.822	5.29
421.184	5.22
421.545	5.23
421.906	5.3
422.267	5.34
422.629	5.32
422.99	5.31
423.351	5.22
423.712	5.18
424.073	5.21
424.434	5.39
424.795	5.39
425.155	5.29
425.516	5.39
425.877	5.31
426.238	5.2
426.598	5.25
426.959	5.26
427.32	5.37
427.68	5.39
428.041	5.25
428.401	5.35
428.761	5.51
429.122	5.36
429.482	5.51
429.842	5.52
430.202	5.48
430.563	5.58
430.923	5.4
431.283	5.53
431.643	5.57
432.003	5.47
432.363	5.73
432.722	5.69
433.082	5.59
433.442	5.47
433.802	5.49
434.161	5.29
434.521	5.54
434.881	5.44
435.24	5.46
435.6	5.23
435.959	5.28
436.319	5.47
436.678	5.59
437.037	5.57
437.396	5.4
437.756	5.51
438.115	5.64
438.474	5.64
438.833	5.63
439.192	5.47
439.551	5.56
439.91	5.59
440.269	5.53
440.628	5.34
440.987	5.33
441.345	5.55
441.704	5.46
442.063	5.4
442.421	5.5
442.78	5.49
443.138	5.4
443.497	5.38
443.855	5.53
444.214	5.29
444.572	5.5
444.93	5.51
445.288	5.63
445.647	5.58
446.005	5.48
446.363	5.45
446.721	5.46
447.079	5.45
447.437	5.44
447.795	5.38
448.153	5.36
448.51	5.39
448.868	5.38
449.226	5.46
449.584	5.43
449.941	5.4
450.299	5.48
450.656	5.62
451.014	5.55
451.371	5.54
451.729	5.56
452.086	5.49
452.443	5.65
452.801	5.44
453.158	5.47
453.515	5.71
453.872	5.65
454.229	5.6
454.586	5.56
454.943	5.5
455.3	5.42
455.657	5.47
456.014	5.5
456.371	5.6
456.727	5.79
457.084	5.62
457.441	5.56
457.797	5.79
458.154	5.57
458.51	5.53
458.867	5.52
459.223	5.54
459.58	5.58
459.936	5.78
460.292	5.76
460.648	5.77
461.005	5.53
461.361	5.67
461.717	5.31
462.073	5.49
462.429	5.43
462.785	5.55
463.141	5.46
463.496	5.68
463.852	5.51
464.208	5.69
464.564	5.69
464.919	5.58
465.275	5.86
465.631	5.63
465.986	5.7
466.342	5.72
466.697	5.79
467.052	5.8
467.408	5.87
467.763	5.67
468.118	5.88
468.473	5.67
468.829	5.66
469.184	5.64
469.539	5.62
469.894	5.67
470.249	5.73
470.603	5.66
470.958	5.62
471.313	5.7
471.668	5.75
472.023	5.57
472.377	5.82
472.732	5.74
473.086	5.81
473.441	5.58
473.795	5.77
474.15	5.61
474.504	5.64
474.859	5.8
475.213	5.51
475.567	5.6
475.921	5.76
476.275	5.82
476.63	5.61
476.984	5.71
477.338	5.75
477.692	5.67
478.045	5.69
478.399	5.76
478.753	5.73
479.107	5.71
479.461	5.69
479.814	5.61
480.168	5.82
480.521	5.72
480.875	5.76
481.228	5.78
481.582	5.61
481.935	5.6
482.289	5.68
482.642	5.58
482.995	5.68
483.348	5.7
483.701	5.66
484.055	5.66
484.408	5.56
484.761	5.57
485.114	5.48
485.466	5.41
485.819	5.3
486.172	5.23
486.525	5.25
486.878	5.32
487.23	5.38
487.583	5.47
487.936	5.51
488.288	5.49
488.641	5.51
488.993	5.42
489.345	5.42
489.698	5.38
490.05	5.34
490.402	5.41
490.754	5.39
491.107	5.42
491.459	5.49
491.811	5.53
492.163	5.55
492.515	5.56
492.866	5.52
493.218	5.61
493.57	5.58
493.922	5.47
494.274	5.46
494.625	5.5
494.977	5.53
495.328	5.63
495.68	5.6
496.031	5.65
496.383	5.65
496.734	5.63
497.086	5.73
497.437	5.71
497.788	5.71
498.139	5.7
498.49	5.83
498.842	5.59
499.193	5.55
499.544	5.75
499.894	5.58
500.245	5.69
500.596	5.63
500.947	5.77
501.298	5.75
501.648	5.71
501.999	5.76
502.35	5.68
502.7	5.88
503.051	5.84
503.401	5.72
503.752	5.76
504.102	5.81
504.452	5.79
504.803	5.75
505.153	5.67
505.503	5.81
505.853	5.79
506.203	5.71
506.553	5.82
506.903	5.82
507.253	5.71
507.603	5.65
507.953	5.81
508.303	5.76
508.652	5.64
509.002	5.87
509.352	5.67
509.701	5.75
510.051	5.7
510.4	5.76
510.75	5.7
511.099	5.62
511.449	5.81
511.798	5.78
512.147	5.62
512.496	5.65
512.846	5.69
513.195	5.71
513.544	5.82
513.893	5.76
514.242	5.63
514.591	5.74
514.939	5.84
515.288	5.73
515.637	5.69
515.986	5.74
516.334	5.84
516.683	5.76
517.032	5.78
517.38	5.76
517.729	5.63
518.077	5.68
518.426	5.71
518.774	5.8
519.122	5.75
519.47	5.7
519.819	5.72
520.167	5.69
520.515	5.73
520.863	5.56
521.211	5.58
521.559	5.66
521.907	5.67
522.255	5.69
522.602	5.71
522.95	5.7
523.298	5.8
523.645	5.85
523.993	5.82
524.341	5.51
524.688	5.77
525.036	5.73
525.383	5.76
525.73	5.87
526.078	5.78
526.425	5.61
526.772	5.81
527.119	5.57
527.466	5.62
527.814	5.52
528.161	5.52
528.508	5.58
528.854	5.65
529.201	5.67
529.548	5.68
529.895	5.52
530.242	5.46
530.588	5.45
530.935	5.34
531.282	5.35
531.628	5.44
531.975	5.42
532.321	5.44
532.667	5.62
533.014	5.65
533.36	5.63
533.706	5.68
534.052	5.68
534.399	5.65
534.745	5.64
535.091	5.47
535.437	5.52
535.783	5.34
536.129	5.49
536.474	5.6
536.82	5.53
537.166	5.63
537.512	5.65
537.857	5.59
538.203	5.75
538.549	5.67
538.894	5.56
539.239	5.56
539.585	5.6
539.93	5.69
540.276	5.6
540.621	5.67
540.966	5.63
541.311	5.79
541.656	5.59
542.001	5.66
542.346	5.63
542.691	5.68
543.036	5.53
543.381	5.45
543.726	5.43
544.071	5.38
544.415	5.44
544.76	5.42
545.105	5.46
545.449	5.46
545.794	5.5
546.138	5.54
546.483	5.54
546.827	5.5
547.171	5.58
547.516	5.72
547.86	5.62
548.204	5.63
548.548	5.57
548.892	5.64
549.236	5.46
549.58	5.59
549.924	5.71
550.268	5.8
550.612	5.69
550.956	5.6
551.3	5.74
551.643	5.72
551.987	5.61
552.33	5.87
552.674	5.76
553.017	5.7
553.361	5.63
553.704	5.77
554.048	5.68
554.391	5.75
554.734	5.8
555.077	5.61
555.42	5.62
555.764	5.72
556.107	5.72
556.45	5.67
556.793	5.66
557.135	5.68
557.478	5.53
557.821	5.76
558.164	5.88
558.507	5.91
558.849	5.47
559.192	5.71
559.534	5.85
559.877	5.69
560.219	5.69
560.562	5.73
560.904	5.63
561.246	5.85
561.589	5.6
561.931	5.55
562.273	5.5
562.615	5.44
562.957	5.74
563.299	5.8
563.641	5.77
563.983	5.82
564.325	5.68
564.667	5.71
565.008	5.54
565.35	5.57
565.692	5.58
566.033	5.71
566.375	5.66
566.716	5.61
567.058	5.5
567.399	5.69
567.741	5.82
568.082	5.51
568.423	5.56
568.764	5.79
569.105	5.41
569.447	5.63
569.788	5.51
570.129	5.64
570.47	5.61
570.811	5.72
571.151	5.67
571.492	5.54
571.833	5.36
572.174	5.55
572.514	5.62
572.855	5.59
573.195	5.51
573.536	5.55
573.876	5.44
574.217	5.49
574.557	5.49
574.898	5.68
575.238	5.55
575.578	5.46
575.918	5.55
576.258	5.44
576.598	5.51
576.938	5.65
577.278	5.47
577.618	5.48
577.958	5.61
578.298	5.57
578.638	5.5
578.977	5.53
579.317	5.54
579.657	5.65
579.996	5.53
580.336	5.69
580.675	5.8
581.014	5.49
581.354	5.5
581.693	5.7
582.032	5.67
582.372	5.72
582.711	5.63
583.05	5.28
583.389	5.74
583.728	5.24
584.067	5.51
584.406	5.47
584.745	5.29
585.083	5.62
585.422	5.84
585.761	5.43
586.1	5.62
586.438	5.38
586.777	5.46
587.115	5.76
587.454	5.15
587.792	5.62
588.13	5.56
588.469	5.38
588.807	5.6
589.145	5.64
589.483	5.66
589.821	5.32
590.159	5.63
590.497	5.72
590.835	5.58
591.173	5.48
591.511	5.29
591.849	5.73
592.187	5.48
592.524	5.55
592.862	5.61
593.2	5.51
593.537	5.5
593.875	5.4
594.212	5.51
594.55	5.77
594.887	5.37
595.224	5.54
595.561	5.6
595.899	5.7
596.236	5.72
596.573	5.43
596.91	5.41
597.247	5.3
597.584	5.46
597.921	5.51
598.258	5.55
598.594	5.4
598.931	5.24
599.268	5.2
599.604	5.47
599.941	5.39
600.277	5.37
600.614	5.35
600.95	5.62
601.287	5.14
601.623	5.38
601.959	5.47
602.296	5.5
602.632	5.27
602.968	5.18
603.304	5.44
603.64	5.45
603.976	5.54
604.312	5.41
604.648	5.3
604.984	5.46
605.319	5.3
605.655	5.23
605.991	5.49
606.326	5.47
606.662	5.32
606.998	5.19
607.333	5.26
607.668	5.27
608.004	5.33
608.339	5
608.674	5.07
609.01	5.22
609.345	5.16
609.68	5.6
610.015	5.09
610.35	5.24
610.685	5.4
611.02	5.07
611.355	5.47
611.689	5.3
612.024	5.37
612.359	5.1
612.694	5.2
613.028	5.15
613.363	5.2
613.697	5.15
614.032	5.29
614.366	5.19
614.7	5.41
615.035	5.49
615.369	5.31
615.703	5.15
616.037	5.25
616.371	5.71
616.705	5.45
617.039	5.06
617.373	5.26
617.707	5.3
618.041	5.48
618.375	5.28
618.709	5.19
619.042	5.69
619.376	5.2
619.71	5.35
620.043	5.13
620.377	5.03
620.71	5.08
621.043	5.4
621.377	5.25
621.71	5.2
622.043	5.16
622.376	5.42
622.709	5.14
623.043	5.05
623.376	5.29
623.709	5.54
624.041	5.17
624.374	5.31
624.707	5.66
625.04	5.45
625.373	4.76
625.705	5.49
626.038	5.19
626.37	4.94
626.703	5.33
627.035	5.37
627.368	5.07
627.7	5.48
628.032	5.2
628.365	5.26
628.697	5.26
629.029	5.19
629.361	5.21
629.693	5.4
630.025	5.15
630.357	5.09
630.689	5.22
631.021	5.31
631.353	5.09
631.684	5.06
632.016	5.21
632.348	5.22
632.679	5.32
633.011	5.4
633.342	5.35
633.674	5.51
634.005	5.16
634.336	5.12
634.668	5.26
634.999	5.35
635.33	5.42
635.661	5.24
635.992	5.03
636.323	5.03
636.654	5.1
636.985	4.88
637.316	4.67
637.647	5.22
637.977	4.67
638.308	5.43
638.639	5.4
638.969	5.25
639.3	5.38
639.63	5.44
639.961	4.71
640.291	4.88
640.622	5.31
640.952	4.99
641.282	5.47
641.612	5.14
641.943	5.53
642.273	5.32
642.603	4.91
642.933	4.98
643.263	4.48
643.592	5.12
643.922	5.33
644.252	5.24
644.582	5.44
644.911	5.39
645.241	5.55
645.571	5.2
645.9	5.49
646.23	5.44
646.559	5.21
646.888	5.34
647.218	5.51
647.547	4.71
647.876	5.02
648.205	4.76
648.534	5.31
648.863	5.51
649.192	5.03
649.521	5.18
649.85	5.34
650.179	5.04
650.508	4.96
650.837	5.06
651.165	5.18
651.494	5.11
651.822	4.91
652.151	4.99
652.479	5.09
652.808	5.24
653.136	5.34
653.465	4.98
653.793	5.53
654.121	5.3
654.449	4.8
654.777	5.07
655.105	5.37
655.433	5.24
655.761	5.08
656.089	5.19
656.417	5.04
656.745	5.36
657.073	5.33
657.4	6.47
657.728	5.36
658.056	5.31
658.383	5.6
658.711	5.08
659.038	4.8
659.365	5.59
659.693	4.8
660.02	5.47
660.347	5.17
660.674	4.81
661.001	4.89
661.329	5.11
661.656	5.12
661.982	4.84
662.309	5.41
662.636	5.25
662.963	5.44
663.29	5.42
663.616	5.16
663.943	5.26
664.27	5.17
664.596	5.23
664.923	5.19
665.249	4.67
665.576	5.06
665.902	5.35
666.228	5.11
666.554	4.81
666.881	5.61
667.207	5.43
667.533	5.04
667.859	5.51
668.185	4.68
668.511	5.21
668.837	4.82
669.162	5.52
669.488	5.23
669.814	4.93
670.139	4.84
670.465	5.41
670.791	5.11
671.116	4.96
671.442	5.26
671.767	4.87
672.092	5.44
672.418	5.94
672.743	5.6
673.068	5.38
673.393	4.45
673.718	5.7
674.043	5.83
674.368	5.3
674.693	4.6
675.018	4.67
675.343	5.17
675.667	5.16
675.992	4.9
676.317	5.98
676.641	5.03
676.966	5.63
677.29	4.95
677.615	5.06
677.939	5.93
678.264	5.23
678.588	5.43
678.912	4.96
679.236	5.6
679.56	4.96
679.885	5.56
680.209	5.7
680.532	5.01
680.856	4.84
681.18	5.24
681.504	5.21
681.828	5.35
682.152	4.91
682.475	5.8
682.799	5.29
683.122	5.26
683.446	5.07
683.769	4.96
684.093	5.54
684.416	5.33
684.739	5.3
685.062	5.54
685.386	5.09
685.709	5.4
686.032	4.91
686.355	5.35
686.678	5.66
687.001	5.25
687.324	6.02
687.646	4.99
687.969	5.76
688.292	5.09
688.614	5.73
688.937	5.14
689.26	4.78
689.582	5.6
689.904	4.99
690.227	5.32
690.549	6.34
690.871	5.81
691.194	5.42
691.516	5.34
691.838	5.68
692.16	4.94
692.482	5.65
692.804	4.72
693.126	5.12
