Data from 0150_chest_Reflection__2__83.txt Node

Date: Fri Sep 22 20:58:02 CDT 2023
User: ToomeyLab
Spectrometer: FLMS14357
Trigger mode: 0
Integration Time (sec): 1.000000E-2
Scans to average: 100
Electric dark correction enabled: true
Nonlinearity correction enabled: false
Boxcar width: 0
XAxis mode: Wavelengths
Number of Pixels in Spectrum: 2048
>>>>>Begin Spectral Data<<<<<
189.047	-53.72
189.435	-53.72
189.823	-53.72
190.211	-25.84
190.599	-367.01
190.987	22.11
191.375	65.45
191.763	152.33
192.151	51.68
192.538	-67.11
192.926	134.29
193.314	-319.87
193.702	51.58
194.089	129.38
194.477	115.94
194.864	366.56
195.252	57.69
195.639	50.38
196.027	-82.54
196.414	10.17
196.801	-14.33
197.189	34.8
197.576	74.31
197.963	-56.42
198.351	-5.22
198.738	25.98
199.125	44.78
199.512	-17.3
199.899	18.69
200.286	0.22
200.673	-16.85
201.06	34.53
201.447	34.12
201.833	11.36
202.22	46.54
202.607	32.66
202.994	32.53
203.38	-20.83
203.767	0.13
204.154	22.15
204.54	32.02
204.927	-1.44
205.313	18.46
205.699	43.2
206.086	38.1
206.472	40.83
206.858	40.38
207.245	-33.11
207.631	34.87
208.017	16.56
208.403	31.75
208.789	18.83
209.175	52.11
209.561	35.59
209.947	42.25
210.333	54.11
210.719	0.56
211.105	41.46
211.491	34.03
211.876	36.75
212.262	27.24
212.648	32.12
213.034	23.8
213.419	1.52
213.805	11.02
214.19	12.77
214.576	44.51
214.961	44.43
215.346	2.27
215.732	18.34
216.117	10.17
216.502	52.55
216.888	20.68
217.273	16.29
217.658	24.83
218.043	5.46
218.428	23.79
218.813	-22.99
219.198	20.37
219.583	25.62
219.968	15.05
220.353	26.15
220.738	12.33
221.122	23.98
221.507	14.01
221.892	9.37
222.276	18.43
222.661	-11.84
223.046	20.41
223.43	24.25
223.815	13.25
224.199	5.09
224.583	9.62
224.968	16.38
225.352	11.55
225.736	9.89
226.121	11.68
226.505	7.91
226.889	10.28
227.273	5.9
227.657	3.41
228.041	5.6
228.425	9.06
228.809	7.57
229.193	7.23
229.577	6.75
229.961	7.45
230.344	7.18
230.728	3.85
231.112	5.16
231.495	4.34
231.879	4.71
232.263	4.45
232.646	5.16
233.03	2.67
233.413	5.63
233.797	4.13
234.18	3.88
234.563	8.23
234.946	5.48
235.33	3.5
235.713	2.44
236.096	3.76
236.479	4.13
236.862	5.75
237.245	4.76
237.628	5.63
238.011	6.07
238.394	4.86
238.777	5.49
239.16	3.66
239.543	6.51
239.925	5.17
240.308	5.07
240.691	5.15
241.073	5.77
241.456	4.41
241.838	2.97
242.221	5.05
242.603	3.99
242.986	2.96
243.368	3.19
243.75	4.17
244.133	4.14
244.515	4.24
244.897	3.24
245.279	3.75
245.661	4.02
246.043	4.57
246.425	3.95
246.807	4.38
247.189	2.85
247.571	4.63
247.953	5.53
248.335	4.11
248.717	3.71
249.098	3.74
249.48	3.69
249.862	3.46
250.243	3.56
250.625	3.84
251.006	3.58
251.388	3.55
251.769	3.92
252.151	3.45
252.532	4.53
252.913	3.6
253.295	4.87
253.676	3.94
254.057	3.53
254.438	4.2
254.819	3.1
255.2	3.9
255.581	4.17
255.962	3.77
256.343	3.1
256.724	3.45
257.105	4.13
257.486	3.88
257.867	4.01
258.247	3.7
258.628	4.18
259.009	3.93
259.389	3.37
259.77	3.63
260.15	3.64
260.531	3.57
260.911	3.95
261.292	3.61
261.672	3.22
262.052	3.35
262.432	3.37
262.813	3.44
263.193	3.08
263.573	4
263.953	3.54
264.333	3.5
264.713	3.99
265.093	3.54
265.473	3.08
265.853	3.94
266.233	3.3
266.612	3.61
266.992	3.85
267.372	3.71
267.752	3.65
268.131	3.3
268.511	3.09
268.89	3.37
269.27	3.43
269.649	3.37
270.029	2.83
270.408	3.67
270.787	3.11
271.167	3.02
271.546	3.23
271.925	3.36
272.304	3.03
272.683	2.96
273.062	3.55
273.441	3.47
273.82	3.97
274.199	3.4
274.578	3.42
274.957	3.07
275.336	3
275.715	3.16
276.093	3.38
276.472	3.36
276.851	2.97
277.229	2.79
277.608	3.79
277.986	3.26
278.365	3.74
278.743	2.88
279.122	3.57
279.5	3.35
279.878	3.36
280.257	3.97
280.635	3.08
281.013	3.39
281.391	2.57
281.769	4.01
282.147	3.82
282.525	3.36
282.903	3.95
283.281	3.49
283.659	3.03
284.037	2.84
284.415	3.18
284.792	3.2
285.17	3.73
285.548	3.27
285.925	3.2
286.303	3.21
286.68	2.88
287.058	3.03
287.435	3.35
287.813	3.01
288.19	3.06
288.567	3.17
288.945	2.9
289.322	3.44
289.699	3.49
290.076	3.22
290.453	3.14
290.83	3.1
291.207	2.81
291.584	2.96
291.961	3.11
292.338	3.12
292.715	3.3
293.092	3.2
293.469	3.16
293.845	3.23
294.222	3.33
294.599	3.08
294.975	3.27
295.352	3.44
295.728	3.37
296.105	3.5
296.481	3.65
296.858	3.32
297.234	3.76
297.61	3.19
297.986	3.26
298.363	2.94
298.739	2.8
299.115	3.54
299.491	3.13
299.867	3.12
300.243	3.06
300.619	3.19
300.995	3.08
301.371	3.67
301.746	3.41
302.122	3.31
302.498	3.09
302.874	3.16
303.249	3.31
303.625	2.95
304	3.21
304.376	3.35
304.751	3.39
305.127	3.08
305.502	3.35
305.878	3.19
306.253	3.34
306.628	3.37
307.003	3.11
307.378	3.25
307.754	2.85
308.129	3.32
308.504	3.05
308.879	3.6
309.254	3.34
309.629	3.17
310.003	3.5
310.378	4.11
310.753	3.2
311.128	2.97
311.502	3.26
311.877	2.79
312.252	2.91
312.626	3.12
313.001	3.55
313.375	3.3
313.75	3.48
314.124	3.79
314.498	2.92
314.873	3.25
315.247	3.6
315.621	3.25
315.995	3.32
316.369	3.3
316.743	3.72
317.117	3.56
317.491	3.51
317.865	3.14
318.239	3.06
318.613	3.73
318.987	3.4
319.361	3.37
319.734	2.92
320.108	3.66
320.482	2.8
320.855	3.44
321.229	4.04
321.602	3.46
321.976	3.21
322.349	3.29
322.723	3.22
323.096	3.22
323.469	3.47
323.843	2.83
324.216	3.44
324.589	2.9
324.962	2.95
325.335	2.81
325.708	3.02
326.081	3.86
326.454	2.82
326.827	3
327.2	3.21
327.573	3.7
327.945	2.92
328.318	3.69
328.691	3.19
329.063	3.09
329.436	3.22
329.809	3.15
330.181	3.27
330.553	3.33
330.926	3.14
331.298	3.52
331.671	3.35
332.043	2.83
332.415	2.71
332.787	3.24
333.159	3.04
333.532	3.29
333.904	3.29
334.276	3.1
334.648	2.84
335.02	3.2
335.391	3.2
335.763	3.56
336.135	3.24
336.507	3.42
336.879	3.1
337.25	3.35
337.622	3.35
337.993	3.13
338.365	3.79
338.736	3.43
339.108	3.07
339.479	3.15
339.851	2.94
340.222	3.07
340.593	3.1
340.964	2.75
341.336	2.83
341.707	3.31
342.078	2.8
342.449	3.22
342.82	3.1
343.191	2.98
343.562	3.3
343.933	3.25
344.303	3.13
344.674	3.27
345.045	3.25
345.416	3.35
345.786	2.99
346.157	2.92
346.527	3.32
346.898	3.35
347.268	3.17
347.639	3.1
348.009	3.07
348.38	3.37
348.75	3.55
349.12	3.17
349.49	3.47
349.861	3.21
350.231	3.36
350.601	3.29
350.971	3.32
351.341	3.36
351.711	2.81
352.081	3.1
352.45	3.53
352.82	3.59
353.19	3.46
353.56	2.81
353.929	3.24
354.299	3.25
354.669	3.09
355.038	3.02
355.408	3.06
355.777	3.29
356.147	3.35
356.516	3.47
356.885	3.15
357.254	3.43
357.624	2.84
357.993	3.29
358.362	3.27
358.731	3.12
359.1	3.28
359.469	3.5
359.838	3.02
360.207	3.25
360.576	3.09
360.945	2.83
361.314	3.33
361.682	3.24
362.051	3.21
362.42	2.87
362.788	3.01
363.157	2.96
363.525	3.09
363.894	3.01
364.262	3.15
364.631	3.14
364.999	2.86
365.367	3.25
365.735	3.04
366.104	3.34
366.472	3.49
366.84	3
367.208	3.38
367.576	2.93
367.944	2.98
368.312	3.18
368.68	3.1
369.048	3.27
369.416	3.38
369.783	3.23
370.151	3.1
370.519	3.08
370.886	3.18
371.254	3.29
371.621	3.19
371.989	3.17
372.356	3.09
372.724	3.25
373.091	3.27
373.458	3.31
373.826	3.41
374.193	3.42
374.56	3.29
374.927	3.37
375.294	3.05
375.661	3.17
376.028	3.22
376.395	3.61
376.762	3.02
377.129	3.42
377.496	3.19
377.863	3.14
378.229	3.14
378.596	3.27
378.963	3.44
379.329	3.15
379.696	3.28
380.062	2.92
380.429	3.24
380.795	3.08
381.161	3.23
381.528	3.21
381.894	2.92
382.26	3.46
382.626	3.17
382.993	3.48
383.359	3.03
383.725	3.06
384.091	3.15
384.457	2.98
384.823	3.3
385.188	3.44
385.554	3.14
385.92	3.53
386.286	3.23
386.651	3.21
387.017	3.27
387.383	3.21
387.748	2.94
388.114	3.13
388.479	3.29
388.845	2.95
389.21	2.98
389.575	3.47
389.94	3.23
390.306	3.24
390.671	3.59
391.036	2.9
391.401	2.96
391.766	3.12
392.131	3.06
392.496	3.19
392.861	3.24
393.226	3.44
393.591	3.25
393.956	3.2
394.32	2.97
394.685	3.13
395.05	3.45
395.414	3.22
395.779	3.1
396.143	3.19
396.508	3.53
396.872	3.18
397.236	3.26
397.601	3.17
397.965	3.05
398.329	3.24
398.694	3.15
399.058	3.14
399.422	3.17
399.786	3.1
400.15	3.25
400.514	3.35
400.878	3.16
401.242	3.12
401.605	3.06
401.969	2.91
402.333	3.18
402.697	3.14
403.06	3.28
403.424	3.21
403.787	3.15
404.151	3.42
404.514	3.29
404.878	3.51
405.241	3.43
405.604	3.29
405.968	3.41
406.331	3.24
406.694	3.25
407.057	2.95
407.42	3.22
407.783	2.95
408.146	2.95
408.509	3.01
408.872	3.12
409.235	3.21
409.598	3.32
409.961	3.53
410.323	3.36
410.686	3.34
411.049	3.27
411.411	3.38
411.774	3.11
412.136	3.43
412.499	3.26
412.861	3.14
413.223	3.14
413.586	3.28
413.948	3.14
414.31	3.34
414.672	3.3
415.035	3.2
415.397	3.24
415.759	3.66
416.121	3.06
416.483	3.21
416.845	3.18
417.206	2.99
417.568	3.22
417.93	3.16
418.292	3.38
418.653	3.01
419.015	3.14
419.377	3.15
419.738	3.27
420.1	3.2
420.461	3.26
420.822	3.09
421.184	3.23
421.545	3.12
421.906	3.08
422.267	3.01
422.629	3.14
422.99	3.02
423.351	2.95
423.712	3.05
424.073	3.02
424.434	3.19
424.795	3.08
425.155	3.23
425.516	3.1
425.877	3.16
426.238	2.99
426.598	3.07
426.959	3.13
427.32	3.18
427.68	3.07
428.041	2.99
428.401	3.13
428.761	3.27
429.122	3.32
429.482	3.29
429.842	3.2
430.202	3.2
430.563	3.17
430.923	3.36
431.283	3.3
431.643	3.2
432.003	3.37
432.363	3.42
432.722	3.26
433.082	3.49
433.442	3.11
433.802	3.28
434.161	3.1
434.521	3.14
434.881	3.24
435.24	3.09
435.6	3.18
435.959	3.09
436.319	3.11
436.678	3.35
437.037	3.3
437.396	3.17
437.756	3.28
438.115	3.24
438.474	3.22
438.833	3.27
439.192	3.15
439.551	3.24
439.91	3.31
440.269	3.36
440.628	3.13
440.987	3.12
441.345	3.29
441.704	3.25
442.063	3.27
442.421	3.12
442.78	3.35
443.138	3.16
443.497	3.16
443.855	3.18
444.214	3.01
444.572	3.25
444.93	3.14
445.288	3.32
445.647	3.36
446.005	3.15
446.363	3.13
446.721	3.26
447.079	3.06
447.437	3.12
447.795	3.21
448.153	3.13
448.51	3.14
448.868	3.18
449.226	3.2
449.584	3.13
449.941	3.18
450.299	3.27
450.656	3.24
451.014	3.18
451.371	3.24
451.729	3.27
452.086	3.22
452.443	3.34
452.801	3.29
453.158	3.23
453.515	3.43
453.872	3.22
454.229	3.32
454.586	3.26
454.943	3.23
455.3	3.29
455.657	3.18
456.014	3.18
456.371	3.35
456.727	3.5
457.084	3.3
457.441	3.3
457.797	3.36
458.154	3.27
458.51	3.13
458.867	3.28
459.223	3.27
459.58	3.38
459.936	3.26
460.292	3.37
460.648	3.46
461.005	3.42
461.361	3.41
461.717	3.1
462.073	3.11
462.429	3.16
462.785	3.15
463.141	3.21
463.496	3.36
463.852	3.29
464.208	3.25
464.564	3.36
464.919	3.26
465.275	3.51
465.631	3.39
465.986	3.39
466.342	3.41
466.697	3.38
467.052	3.2
467.408	3.5
467.763	3.34
468.118	3.58
468.473	3.36
468.829	3.3
469.184	3.36
469.539	3.26
469.894	3.34
470.249	3.45
470.603	3.26
470.958	3.41
471.313	3.34
471.668	3.46
472.023	3.32
472.377	3.34
472.732	3.29
473.086	3.51
473.441	3.1
473.795	3.54
474.15	3.24
474.504	3.36
474.859	3.52
475.213	3.18
475.567	3.13
475.921	3.39
476.275	3.4
476.63	3.26
476.984	3.28
477.338	3.47
477.692	3.46
478.045	3.42
478.399	3.56
478.753	3.34
479.107	3.36
479.461	3.32
479.814	3.44
480.168	3.43
480.521	3.43
480.875	3.59
481.228	3.4
481.582	3.29
481.935	3.36
482.289	3.42
482.642	3.27
482.995	3.35
483.348	3.41
483.701	3.29
484.055	3.29
484.408	3.33
484.761	3.33
485.114	3.12
485.466	3.19
485.819	3.13
486.172	3.12
486.525	3.13
486.878	3.12
487.23	3.16
487.583	3.22
487.936	3.27
488.288	3.29
488.641	3.25
488.993	3.24
489.345	3.2
489.698	3.16
490.05	3.23
490.402	3.22
490.754	3.18
491.107	3.15
491.459	3.27
491.811	3.35
492.163	3.31
492.515	3.41
492.866	3.35
493.218	3.37
493.57	3.27
493.922	3.24
494.274	3.24
494.625	3.23
494.977	3.35
495.328	3.36
495.68	3.37
496.031	3.36
496.383	3.46
496.734	3.5
497.086	3.36
497.437	3.52
497.788	3.4
498.139	3.41
498.49	3.57
498.842	3.32
499.193	3.44
499.544	3.46
499.894	3.39
500.245	3.45
500.596	3.45
500.947	3.63
501.298	3.52
501.648	3.4
501.999	3.64
502.35	3.54
502.7	3.6
503.051	3.52
503.401	3.55
503.752	3.54
504.102	3.57
504.452	3.59
504.803	3.46
505.153	3.58
505.503	3.52
505.853	3.63
506.203	3.45
506.553	3.46
506.903	3.48
507.253	3.49
507.603	3.68
507.953	3.6
508.303	3.64
508.652	3.64
509.002	3.62
509.352	3.55
509.701	3.58
510.051	3.51
510.4	3.51
510.75	3.5
511.099	3.47
511.449	3.65
511.798	3.56
512.147	3.53
512.496	3.54
512.846	3.55
513.195	3.52
513.544	3.5
513.893	3.65
514.242	3.51
514.591	3.6
514.939	3.6
515.288	3.51
515.637	3.56
515.986	3.56
516.334	3.66
516.683	3.7
517.032	3.84
517.38	3.68
517.729	3.66
518.077	3.7
518.426	3.64
518.774	3.74
519.122	3.56
519.47	3.58
519.819	3.66
520.167	3.65
520.515	3.58
520.863	3.51
521.211	3.62
521.559	3.6
521.907	3.6
522.255	3.67
522.602	3.69
522.95	3.65
523.298	3.75
523.645	3.71
523.993	3.75
524.341	3.68
524.688	3.71
525.036	3.67
525.383	3.7
525.73	3.84
526.078	3.73
526.425	3.7
526.772	3.76
527.119	3.77
527.466	3.62
527.814	3.71
528.161	3.6
528.508	3.71
528.854	3.75
529.201	3.75
529.548	3.68
529.895	3.64
530.242	3.58
530.588	3.61
530.935	3.52
531.282	3.53
531.628	3.62
531.975	3.54
532.321	3.63
532.667	3.67
533.014	3.72
533.36	3.77
533.706	3.76
534.052	3.85
534.399	3.87
534.745	3.74
535.091	3.71
535.437	3.74
535.783	3.64
536.129	3.71
536.474	3.8
536.82	3.72
537.166	3.91
537.512	3.85
537.857	3.85
538.203	3.98
538.549	3.83
538.894	3.79
539.239	3.81
539.585	3.86
539.93	3.91
540.276	3.89
540.621	3.97
540.966	3.93
541.311	4.01
541.656	3.9
542.001	4.04
542.346	3.93
542.691	4.01
543.036	3.98
543.381	3.85
543.726	3.83
544.071	3.82
544.415	3.84
544.76	3.89
545.105	3.8
545.449	3.85
545.794	3.96
546.138	4.03
546.483	3.96
546.827	4.06
547.171	4.02
547.516	4.11
547.86	4.17
548.204	4.1
548.548	4.08
548.892	4.01
549.236	4.08
549.58	4.04
549.924	4.13
550.268	4.15
550.612	4.07
550.956	4.22
551.3	4.25
551.643	4.12
551.987	4.26
552.33	4.39
552.674	4.26
553.017	4.13
553.361	4.21
553.704	4.4
554.048	4.4
554.391	4.43
554.734	4.31
555.077	4.24
555.42	4.29
555.764	4.43
556.107	4.26
556.45	4.39
556.793	4.36
557.135	4.44
557.478	4.14
557.821	4.55
558.164	4.54
558.507	4.61
558.849	4.49
559.192	4.4
559.534	4.72
559.877	4.43
560.219	4.51
560.562	4.55
560.904	4.63
561.246	4.74
561.589	4.59
561.931	4.7
562.273	4.7
562.615	4.42
562.957	4.54
563.299	4.72
563.641	4.72
563.983	4.85
564.325	4.64
564.667	4.65
565.008	4.57
565.35	4.62
565.692	4.77
566.033	4.7
566.375	4.63
566.716	4.8
567.058	4.71
567.399	4.86
567.741	4.87
568.082	4.65
568.423	4.73
568.764	4.83
569.105	4.61
569.447	4.65
569.788	4.64
570.129	4.92
570.47	4.93
570.811	4.81
571.151	4.87
571.492	4.85
571.833	4.81
572.174	4.91
572.514	4.98
572.855	4.89
573.195	4.83
573.536	5.02
573.876	4.97
574.217	4.85
574.557	5.03
574.898	5.18
575.238	4.91
575.578	5.1
575.918	4.86
576.258	4.94
576.598	5.2
576.938	5.07
577.278	5.18
577.618	4.97
577.958	5.09
578.298	5.22
578.638	5.19
578.977	5.4
579.317	5.1
579.657	5.22
579.996	5.25
580.336	5.08
580.675	5.22
581.014	5.23
581.354	5.26
581.693	5.3
582.032	5.42
582.372	5.32
582.711	5.38
583.05	5.24
583.389	5.42
583.728	5.56
584.067	5.35
584.406	5.54
584.745	5.33
585.083	5.7
585.422	5.68
585.761	5.56
586.1	5.59
586.438	5.59
586.777	5.56
587.115	5.65
587.454	5.56
587.792	5.78
588.13	5.62
588.469	5.78
588.807	5.64
589.145	5.76
589.483	5.66
589.821	5.58
590.159	5.76
590.497	5.7
590.835	5.77
591.173	5.87
591.511	5.81
591.849	5.95
592.187	5.89
592.524	5.88
592.862	5.78
593.2	5.88
593.537	5.86
593.875	5.94
594.212	6.03
594.55	6.16
594.887	5.87
595.224	5.97
595.561	6.14
595.899	6.09
596.236	6.19
596.573	6.08
596.91	6.12
597.247	6.09
597.584	6.1
597.921	6.3
598.258	6.11
598.594	6.14
598.931	6.05
599.268	6.04
599.604	6.24
599.941	6.26
600.277	5.98
600.614	6.06
600.95	6.11
601.287	6.23
601.623	6.28
601.959	6.67
602.296	6.28
602.632	6.33
602.968	6.52
603.304	6.53
603.64	6.34
603.976	6.45
604.312	6.36
604.648	6.61
604.984	6.42
605.319	6.48
605.655	6.6
605.991	6.57
606.326	6.83
606.662	6.44
606.998	6.52
607.333	6.58
607.668	6.53
608.004	6.73
608.339	6.52
608.674	6.73
609.01	6.62
609.345	6.89
609.68	6.61
610.015	6.98
610.35	6.86
610.685	7.11
611.02	6.96
611.355	6.92
611.689	6.77
612.024	7.04
612.359	6.83
612.694	6.84
613.028	6.81
613.363	6.74
613.697	6.98
614.032	6.98
614.366	6.99
614.7	6.97
615.035	6.87
615.369	7.16
615.703	7.1
616.037	7.21
616.371	7.44
616.705	7.29
617.039	7.19
617.373	7.11
617.707	7.51
618.041	7.69
618.375	7.26
618.709	7.29
619.042	7.41
619.376	7.66
619.71	7.41
620.043	6.77
620.377	6.97
620.71	7.72
621.043	7.86
621.377	7.62
621.71	7.59
622.043	7.58
622.376	8.08
622.709	7.61
623.043	7.34
623.376	7.8
623.709	7.97
624.041	7.56
624.374	7.43
624.707	7.73
625.04	7.96
625.373	7.12
625.705	7.93
626.038	7.57
626.37	7.99
626.703	7.84
627.035	7.87
627.368	7.8
627.7	8.25
628.032	8.47
628.365	8.21
628.697	7.93
629.029	8.23
629.361	7.93
629.693	8.25
630.025	8.28
630.357	7.95
630.689	8.21
631.021	7.98
631.353	8.25
631.684	8.11
632.016	8.21
632.348	8.1
632.679	8.21
633.011	8.39
633.342	8.35
633.674	8.5
634.005	8.31
634.336	8.84
634.668	8.44
634.999	8.38
635.33	8.38
635.661	8.56
635.992	8.57
636.323	8.37
636.654	8.5
636.985	8.27
637.316	8.49
637.647	8.99
637.977	8.42
638.308	8.86
638.639	8.9
638.969	8.72
639.3	8.86
639.63	9.06
639.961	8.53
640.291	8.83
640.622	9.05
640.952	8.8
641.282	8.95
641.612	8.8
641.943	9.23
642.273	8.74
642.603	8.99
642.933	9.31
643.263	8.65
643.592	9.09
643.922	9.2
644.252	9.2
644.582	9.69
644.911	9.28
645.241	9.34
645.571	9.1
645.9	9.21
646.23	9.24
646.559	9.02
646.888	9.42
647.218	9.21
647.547	9.03
647.876	9.52
648.205	9.27
648.534	10.04
648.863	9.33
649.192	9.74
649.521	9.72
649.85	9.85
650.179	8.96
650.508	9.12
650.837	9.54
651.165	9.69
651.494	9.45
651.822	9.63
652.151	9.73
652.479	9.76
652.808	9.52
653.136	9.94
653.465	9.72
653.793	9.56
654.121	9.89
654.449	9.27
654.777	9.94
655.105	10.09
655.433	10.16
655.761	10.13
656.089	10.42
656.417	9.62
656.745	9.97
657.073	10.21
657.4	10.98
657.728	9.73
658.056	10.09
658.383	10.43
658.711	10.06
659.038	9.81
659.365	10.13
659.693	9.87
660.02	10.53
660.347	10.62
660.674	9.91
661.001	10.16
661.329	10.43
661.656	10.52
661.982	10.25
662.309	10.72
662.636	10.54
662.963	10.59
663.29	10.65
663.616	10.89
663.943	10.29
664.27	10.36
664.596	10.56
664.923	10.46
665.249	10.69
665.576	10.45
665.902	11.24
666.228	10.71
666.554	10.45
666.881	11.35
667.207	10.7
667.533	10.92
667.859	11.14
668.185	11.07
668.511	11.6
668.837	10.72
669.162	11.05
669.488	11.2
669.814	10.72
670.139	11.23
670.465	11.3
670.791	11.24
671.116	11.2
671.442	11.39
671.767	11.1
672.092	11.58
672.418	11.78
672.743	11.46
673.068	11.76
673.393	10.97
673.718	11.7
674.043	11.88
674.368	11.76
674.693	11.2
675.018	11.31
675.343	11.45
675.667	11.93
675.992	11.76
676.317	12.26
676.641	11.75
676.966	11.93
677.29	10.93
677.615	11.99
677.939	12.1
678.264	11.5
678.588	12.82
678.912	11.31
679.236	11.65
679.56	11.8
679.885	11.56
680.209	12.2
680.532	11.18
680.856	11.88
681.18	12.16
681.504	11.76
681.828	12.13
682.152	11.93
682.475	12.29
682.799	11.96
683.122	12.14
683.446	12.05
683.769	12.47
684.093	12.13
684.416	12.69
684.739	12.12
685.062	12.9
685.386	12.5
685.709	12.44
686.032	12.6
686.355	12.93
686.678	12.72
687.001	12.56
687.324	13.41
687.646	12.88
687.969	13.65
688.292	12.55
688.614	13.37
688.937	12.66
689.26	12.31
689.582	12.32
689.904	13.03
690.227	13.14
