Data from 0150_forehead_Reflection__3__94.txt Node

Date: Fri Sep 22 21:02:06 CDT 2023
User: ToomeyLab
Spectrometer: FLMS14357
Trigger mode: 0
Integration Time (sec): 1.000000E-2
Scans to average: 100
Electric dark correction enabled: true
Nonlinearity correction enabled: false
Boxcar width: 0
XAxis mode: Wavelengths
Number of Pixels in Spectrum: 2048
>>>>>Begin Spectral Data<<<<<
189.047	41.91
189.435	41.91
189.823	41.91
190.211	203.9
190.599	38.66
190.987	78.93
191.375	-12.86
191.763	202.52
192.151	134.47
192.538	-75.56
192.926	-6.02
193.314	-1230.77
193.702	96.1
194.089	88.38
194.477	91.32
194.864	323.56
195.252	35.37
195.639	1704.62
196.027	-70.49
196.414	89.81
196.801	87.44
197.189	71.79
197.576	47.41
197.963	-38.48
198.351	58.93
198.738	39
199.125	26.39
199.512	36.27
199.899	52.85
200.286	39.16
200.673	28.48
201.06	59.41
201.447	57.29
201.833	-32.99
202.22	43.39
202.607	47.41
202.994	74.82
203.38	33.82
203.767	26.82
204.154	56.24
204.54	34.18
204.927	15.02
205.313	74.73
205.699	51.58
206.086	50.71
206.472	67.2
206.858	41.2
207.245	45.3
207.631	31.45
208.017	44.84
208.403	44.32
208.789	41.84
209.175	50.86
209.561	33.42
209.947	48.81
210.333	63.01
210.719	70.23
211.105	58.02
211.491	61.13
211.876	59.52
212.262	39.46
212.648	39.82
213.034	36.24
213.419	31.09
213.805	22.01
214.19	33.94
214.576	51.75
214.961	54.98
215.346	19.07
215.732	43.57
216.117	23.82
216.502	31.98
216.888	41.01
217.273	35.48
217.658	27.08
218.043	39.18
218.428	34.28
218.813	9.72
219.198	22.64
219.583	23.03
219.968	29.05
220.353	35.67
220.738	26.89
221.122	24.27
221.507	23.43
221.892	4.05
222.276	11.99
222.661	4.95
223.046	25.69
223.43	31.99
223.815	20.64
224.199	7.35
224.583	17.43
224.968	12.3
225.352	11.64
225.736	16.08
226.121	17.25
226.505	12.75
226.889	15.44
227.273	12.84
227.657	12.15
228.041	10.02
228.425	9.85
228.809	7.53
229.193	5.75
229.577	8.53
229.961	7.04
230.344	8.45
230.728	5.16
231.112	5.72
231.495	4.93
231.879	4.86
232.263	4.61
232.646	5.29
233.03	4.26
233.413	5.34
233.797	5.18
234.18	4.14
234.563	8.77
234.946	5.57
235.33	5.27
235.713	4.9
236.096	5.3
236.479	4.34
236.862	6.74
237.245	5.05
237.628	6.66
238.011	8.3
238.394	5.71
238.777	8.68
239.16	5.87
239.543	7.76
239.925	7.01
240.308	6.66
240.691	5.94
241.073	6.22
241.456	6.87
241.838	5.11
242.221	4.06
242.603	5.66
242.986	4.92
243.368	4.41
243.75	4
244.133	5.89
244.515	4.34
244.897	4.4
245.279	4.23
245.661	4.76
246.043	4.57
246.425	5.34
246.807	6.12
247.189	5.11
247.571	5.08
247.953	5.1
248.335	4.31
248.717	4.4
249.098	4.59
249.48	4.08
249.862	4.17
250.243	4.29
250.625	4.59
251.006	4.3
251.388	4.42
251.769	5.36
252.151	4.49
252.532	5.27
252.913	5.34
253.295	6.21
253.676	5.62
254.057	5.2
254.438	5.03
254.819	4.18
255.2	5.15
255.581	4.88
255.962	6.11
256.343	5.13
256.724	4.61
257.105	5.22
257.486	5.11
257.867	4.73
258.247	6.08
258.628	5.95
259.009	5.98
259.389	4.61
259.77	4.93
260.15	5.47
260.531	4.78
260.911	4.28
261.292	4.26
261.672	3.93
262.052	4.15
262.432	3.98
262.813	4.5
263.193	4.09
263.573	5.02
263.953	4.68
264.333	4.73
264.713	4.58
265.093	5.1
265.473	4.49
265.853	4.35
266.233	5.12
266.612	4.96
266.992	4.22
267.372	5.07
267.752	5.34
268.131	4.72
268.511	4.04
268.89	5.16
269.27	4.46
269.649	4.18
270.029	4.24
270.408	4.54
270.787	4.22
271.167	4.54
271.546	3.98
271.925	4.95
272.304	4.12
272.683	4.15
273.062	5.07
273.441	4.5
273.82	4.71
274.199	4.56
274.578	4.43
274.957	4.3
275.336	4.78
275.715	4.36
276.093	3.78
276.472	4.79
276.851	4.62
277.229	4.01
277.608	4.85
277.986	4.49
278.365	5.16
278.743	4.85
279.122	4.43
279.5	5.13
279.878	4.35
280.257	5.38
280.635	4.62
281.013	4.7
281.391	4.4
281.769	4.57
282.147	5.05
282.525	4.42
282.903	4.92
283.281	5.29
283.659	4.65
284.037	4.37
284.415	4.26
284.792	4.46
285.17	4.41
285.548	5.03
285.925	4.63
286.303	4.68
286.68	4.09
287.058	4.5
287.435	4.29
287.813	4.24
288.19	4.08
288.567	4.32
288.945	4.51
289.322	4.49
289.699	4.75
290.076	4.94
290.453	4.46
290.83	4.15
291.207	4.49
291.584	4.21
291.961	4.33
292.338	4.86
292.715	5.11
293.092	4.76
293.469	5.26
293.845	5.13
294.222	5.4
294.599	5.49
294.975	5.76
295.352	5.36
295.728	5.33
296.105	5.4
296.481	4.99
296.858	4.91
297.234	4.76
297.61	5.14
297.986	5.03
298.363	5.2
298.739	5.33
299.115	5.37
299.491	5.46
299.867	5.59
300.243	5.21
300.619	5.45
300.995	5.33
301.371	5.84
301.746	5.63
302.122	5.69
302.498	5.54
302.874	5.6
303.249	5.82
303.625	5.5
304	6.53
304.376	6.09
304.751	6.03
305.127	6.38
305.502	6.51
305.878	6.17
306.253	6.23
306.628	5.93
307.003	6
307.378	6.12
307.754	6.15
308.129	5.89
308.504	6.47
308.879	6.58
309.254	6.96
309.629	6.85
310.003	6.8
310.378	6.99
310.753	6.84
311.128	7.3
311.502	7.06
311.877	6.53
312.252	6.19
312.626	6.66
313.001	7.13
313.375	7.05
313.75	7.1
314.124	7.21
314.498	6.88
314.873	7.03
315.247	7.36
315.621	7.62
315.995	7.56
316.369	7.29
316.743	7.94
317.117	8.01
317.491	8.07
317.865	7.98
318.239	7.78
318.613	7.91
318.987	7.84
319.361	7.59
319.734	7.76
320.108	8.64
320.482	7.8
320.855	8.29
321.229	8.69
321.602	8.49
321.976	8.09
322.349	8.14
322.723	8.56
323.096	8.85
323.469	8.5
323.843	8.27
324.216	8.3
324.589	8.09
324.962	8.05
325.335	8.42
325.708	8.64
326.081	8.91
326.454	8.43
326.827	8.72
327.2	8.52
327.573	9.56
327.945	9.37
328.318	8.85
328.691	9.48
329.063	8.76
329.436	9.11
329.809	9.14
330.181	9.14
330.553	9.28
330.926	9.53
331.298	9.62
331.671	9.68
332.043	8.89
332.415	9.42
332.787	9.81
333.159	9.67
333.532	9.78
333.904	9.86
334.276	9.39
334.648	8.94
335.02	9.81
335.391	9.82
335.763	10.27
336.135	10.53
336.507	10.25
336.879	10.05
337.25	10.13
337.622	10.59
337.993	10.46
338.365	10.6
338.736	10.11
339.108	10.46
339.479	10.56
339.851	10.11
340.222	10.41
340.593	10.48
340.964	10.03
341.336	10.57
341.707	10.69
342.078	10.8
342.449	10.86
342.82	10.38
343.191	10.75
343.562	10.79
343.933	11.31
344.303	10.63
344.674	11.26
345.045	10.88
345.416	11.37
345.786	11.2
346.157	10.9
346.527	10.78
346.898	11.09
347.268	11.07
347.639	11.15
348.009	11.5
348.38	11.34
348.75	11.74
349.12	11.12
349.49	11.86
349.861	11.44
350.231	11.77
350.601	11.38
350.971	12.21
351.341	11.7
351.711	11.45
352.081	11.75
352.45	12.02
352.82	12.21
353.19	12.12
353.56	12.4
353.929	12.2
354.299	12.08
354.669	12.07
355.038	12.02
355.408	12.11
355.777	12.61
356.147	12.04
356.516	12.72
356.885	12.46
357.254	12.88
357.624	12.5
357.993	12.58
358.362	12.71
358.731	12.15
359.1	12.48
359.469	12.91
359.838	12.43
360.207	12.53
360.576	12.95
360.945	12.81
361.314	12.58
361.682	13.2
362.051	13.07
362.42	12.83
362.788	13.15
363.157	13.15
363.525	12.95
363.894	12.86
364.262	13.16
364.631	13.04
364.999	13.03
365.367	13.33
365.735	13.29
366.104	13.2
366.472	13.4
366.84	13.55
367.208	14.11
367.576	13.95
367.944	14.01
368.312	13.71
368.68	14.01
369.048	14.13
369.416	14.1
369.783	14.06
370.151	14.2
370.519	14.29
370.886	14.44
371.254	14.49
371.621	13.97
371.989	14.44
372.356	14.5
372.724	14.39
373.091	14.72
373.458	14.88
373.826	14.65
374.193	14.75
374.56	14.63
374.927	14.81
375.294	14.69
375.661	14.67
376.028	14.98
376.395	15.3
376.762	14.94
377.129	15.45
377.496	15.28
377.863	15.56
378.229	15.08
378.596	15.28
378.963	15.55
379.329	15.4
379.696	15.51
380.062	15.22
380.429	15.63
380.795	15.42
381.161	15.54
381.528	15.49
381.894	15.37
382.26	15.6
382.626	15.78
382.993	16.15
383.359	15.57
383.725	16.21
384.091	16.12
384.457	16.17
384.823	15.74
385.188	16.31
385.554	16.48
385.92	16.69
386.286	16.2
386.651	16.36
387.017	16.5
387.383	16.32
387.748	16.75
388.114	16.54
388.479	16.87
388.845	16.37
389.21	16.56
389.575	16.94
389.94	16.61
390.306	16.94
390.671	17.1
391.036	16.77
391.401	17.15
391.766	17.13
392.131	17.32
392.496	17.37
392.861	17.12
393.226	17.37
393.591	17.5
393.956	17.63
394.32	17.23
394.685	17.72
395.05	17.74
395.414	17.74
395.779	17.73
396.143	17.76
396.508	17.62
396.872	18
397.236	17.77
397.601	17.73
397.965	18.22
398.329	18.04
398.694	18.24
399.058	18.46
399.422	18.45
399.786	18.34
400.15	18.44
400.514	18.65
400.878	18.42
401.242	18.63
401.605	18.53
401.969	18.44
402.333	18.64
402.697	18.63
403.06	18.85
403.424	18.77
403.787	18.92
404.151	19.26
404.514	18.94
404.878	19.32
405.241	19.23
405.604	19.03
405.968	19.2
406.331	19.07
406.694	19.16
407.057	19.19
407.42	19.48
407.783	19.36
408.146	19.3
408.509	19.4
408.872	19.25
409.235	19.73
409.598	19.8
409.961	20.08
410.323	19.93
410.686	20.08
411.049	20.24
411.411	20.18
411.774	19.91
412.136	20.11
412.499	20.2
412.861	20.31
413.223	20.42
413.586	20.32
413.948	20.61
414.31	20.57
414.672	20.52
415.035	20.64
415.397	20.73
415.759	21.25
416.121	20.85
416.483	20.69
416.845	20.88
417.206	20.69
417.568	20.9
417.93	20.92
418.292	21.15
418.653	21
419.015	21.07
419.377	20.81
419.738	21.02
420.1	21.08
420.461	21.09
420.822	21.03
421.184	21.15
421.545	21
421.906	21.11
422.267	20.99
422.629	21.19
422.99	21.16
423.351	21.12
423.712	21.13
424.073	21.26
424.434	21.43
424.795	21.47
425.155	21.44
425.516	21.7
425.877	21.53
426.238	21.51
426.598	21.54
426.959	21.63
427.32	21.75
427.68	21.79
428.041	21.88
428.401	22.1
428.761	22.27
429.122	22.27
429.482	22.33
429.842	22.44
430.202	22.52
430.563	23.03
430.923	23.05
431.283	22.99
431.643	22.94
432.003	23.05
432.363	22.84
432.722	23.3
433.082	23.29
433.442	23.16
433.802	23.18
434.161	23.23
434.521	23.15
434.881	23.2
435.24	23.25
435.6	23.35
435.959	23.28
436.319	23.36
436.678	23.64
437.037	23.85
437.396	23.67
437.756	23.75
438.115	24.02
438.474	23.99
438.833	24.13
439.192	23.94
439.551	24.05
439.91	24.24
440.269	24.3
440.628	23.99
440.987	24.07
441.345	24.18
441.704	24.35
442.063	24.21
442.421	24.03
442.78	24.23
443.138	24.27
443.497	24.18
443.855	24.43
444.214	24.43
444.572	24.64
444.93	24.71
445.288	24.68
445.647	25.04
446.005	24.75
446.363	24.87
446.721	25.06
447.079	24.84
447.437	24.82
447.795	24.92
448.153	24.92
448.51	24.93
448.868	24.86
449.226	24.93
449.584	25.16
449.941	25.11
450.299	25.3
450.656	25.5
451.014	25.54
451.371	25.61
451.729	25.77
452.086	25.87
452.443	26.09
452.801	26.14
453.158	25.92
453.515	26.13
453.872	26.26
454.229	26.36
454.586	26.28
454.943	26.37
455.3	26.36
455.657	26.43
456.014	26.51
456.371	26.49
456.727	26.9
457.084	26.75
457.441	26.81
457.797	26.76
458.154	26.85
458.51	27.11
458.867	27.18
459.223	27.2
459.58	27.09
459.936	27.15
460.292	27.24
460.648	27.3
461.005	27.29
461.361	27.21
461.717	26.73
462.073	26.88
462.429	26.95
462.785	26.92
463.141	27.3
463.496	27.47
463.852	27.53
464.208	27.87
464.564	27.92
464.919	27.71
465.275	28.19
465.631	28.08
465.986	28.23
466.342	28.03
466.697	28.36
467.052	28.29
467.408	28.28
467.763	28.48
468.118	28.49
468.473	28.34
468.829	28.66
469.184	28.63
469.539	28.56
469.894	28.6
470.249	28.63
470.603	28.78
470.958	28.7
471.313	28.94
471.668	29.23
472.023	29.15
472.377	29.13
472.732	29.16
473.086	29.44
473.441	29.07
473.795	29.48
474.15	29.45
474.504	29.38
474.859	29.87
475.213	29.32
475.567	29.55
475.921	29.65
476.275	29.9
476.63	29.7
476.984	29.76
477.338	29.81
477.692	30.11
478.045	30.17
478.399	30.05
478.753	30.09
479.107	30.05
479.461	30.1
479.814	29.89
480.168	30.34
480.521	30.19
480.875	30.34
481.228	30.27
481.582	30.22
481.935	30.38
482.289	30.45
482.642	30.33
482.995	30.67
483.348	30.53
483.701	30.54
484.055	30.53
484.408	30.35
484.761	30.28
485.114	30.19
485.466	29.83
485.819	29.38
486.172	29.53
486.525	29.78
486.878	29.85
487.23	30.04
487.583	30.12
487.936	30.38
488.288	30.58
488.641	30.68
488.993	30.44
489.345	30.46
489.698	30.32
490.05	30.4
490.402	30.41
490.754	30.47
491.107	30.83
491.459	31.01
491.811	31.15
492.163	31.22
492.515	31.43
492.866	31.54
493.218	31.45
493.57	31.23
493.922	31.02
494.274	31.07
494.625	31.21
494.977	31.49
495.328	31.68
495.68	31.92
496.031	32.2
496.383	32.4
496.734	32.72
497.086	32.73
497.437	32.94
497.788	32.89
498.139	32.9
498.49	33.05
498.842	32.77
499.193	32.75
499.544	32.74
499.894	32.92
500.245	33
500.596	33.12
500.947	33.12
501.298	33.26
501.648	33.32
501.999	33.4
502.35	33.42
502.7	33.66
503.051	33.9
503.401	33.75
503.752	33.78
504.102	33.93
504.452	33.83
504.803	34.03
505.153	33.93
505.503	33.94
505.853	34.11
506.203	34.12
506.553	34.13
506.903	34.22
507.253	34.33
507.603	34.32
507.953	34.63
508.303	34.57
508.652	34.61
509.002	34.82
509.352	34.78
509.701	34.86
510.051	34.74
510.4	34.71
510.75	34.75
511.099	34.65
511.449	34.77
511.798	34.77
512.147	34.78
512.496	34.88
512.846	34.88
513.195	35.06
513.544	35.09
513.893	35.15
514.242	35.01
514.591	35.16
514.939	35.1
515.288	35.21
515.637	35.39
515.986	35.36
516.334	35.56
516.683	35.52
517.032	35.69
517.38	35.84
517.729	36.13
518.077	36.07
518.426	35.93
518.774	35.99
519.122	36.16
519.47	35.8
519.819	35.92
520.167	35.95
520.515	35.69
520.863	35.5
521.211	35.68
521.559	35.83
521.907	35.92
522.255	36.03
522.602	36.2
522.95	36.43
523.298	36.51
523.645	36.63
523.993	36.74
524.341	36.57
524.688	36.82
525.036	36.95
525.383	37.13
525.73	37.06
526.078	37.03
526.425	37.24
526.772	37.07
527.119	37.05
527.466	36.85
527.814	36.75
528.161	36.66
528.508	36.81
528.854	36.83
529.201	36.96
529.548	36.95
529.895	36.82
530.242	36.51
530.588	36.32
530.935	36.26
531.282	36.56
531.628	36.7
531.975	36.69
532.321	36.82
532.667	37.06
533.014	37.24
533.36	37.36
533.706	37.65
534.052	37.66
534.399	37.73
534.745	37.68
535.091	37.46
535.437	37.29
535.783	37.15
536.129	37.54
536.474	37.63
536.82	37.68
537.166	38.04
537.512	38.08
537.857	38.39
538.203	38.43
538.549	38.18
538.894	38.06
539.239	38.34
539.585	38.34
539.93	38.52
540.276	38.8
540.621	38.9
540.966	39.07
541.311	39.2
541.656	39
542.001	39.24
542.346	39.09
542.691	38.96
543.036	38.69
543.381	38.56
543.726	38.37
544.071	38.51
544.415	38.6
544.76	38.76
545.105	38.84
545.449	38.97
545.794	39.32
546.138	39.32
546.483	39.4
546.827	39.65
547.171	39.74
547.516	39.87
547.86	40.09
548.204	40.07
548.548	40.16
548.892	39.95
549.236	40.04
549.58	40.07
549.924	40.18
550.268	40.53
550.612	40.87
550.956	40.8
551.3	41.08
551.643	40.94
551.987	41.15
552.33	41.2
552.674	41.24
553.017	41.45
553.361	41.43
553.704	41.53
554.048	41.7
554.391	41.62
554.734	41.77
555.077	41.22
555.42	41.5
555.764	41.83
556.107	41.75
556.45	41.87
556.793	41.7
557.135	41.72
557.478	41.9
557.821	42.13
558.164	42.13
558.507	42.39
558.849	42.41
559.192	42.56
559.534	42.58
559.877	42.59
560.219	42.67
560.562	42.8
560.904	42.86
561.246	42.79
561.589	42.86
561.931	42.91
562.273	42.67
562.615	42.78
562.957	43.08
563.299	42.97
563.641	43.31
563.983	43.15
564.325	43.28
564.667	43.07
565.008	43.18
565.35	43.44
565.692	43.2
566.033	43.51
566.375	43.54
566.716	43.54
567.058	43.53
567.399	43.73
567.741	43.44
568.082	43.61
568.423	43.33
568.764	43.6
569.105	43.33
569.447	43.54
569.788	43.96
570.129	43.89
570.47	43.85
570.811	43.86
571.151	44.09
571.492	44.08
571.833	43.82
572.174	44.27
572.514	44.22
572.855	44.25
573.195	44.21
573.536	44.4
573.876	44.15
574.217	44.24
574.557	44.39
574.898	44.09
575.238	44.3
575.578	44.39
575.918	44.45
576.258	44.76
576.598	44.76
576.938	44.96
577.278	44.94
577.618	44.67
577.958	44.77
578.298	45.22
578.638	45.16
578.977	45.31
579.317	45.09
579.657	45.59
579.996	45.47
580.336	45.64
580.675	45.54
581.014	45.44
581.354	45.66
581.693	45.85
582.032	45.81
582.372	45.82
582.711	46.06
583.05	46.34
583.389	46.37
583.728	46.06
584.067	46.2
584.406	46.22
584.745	46.11
585.083	46.62
585.422	46.65
585.761	46.49
586.1	46.51
586.438	46.55
586.777	46.63
587.115	46.65
587.454	46.61
587.792	47.06
588.13	46.88
588.469	46.75
588.807	47.23
589.145	47.2
589.483	47.17
589.821	47.13
590.159	47.45
590.497	47.57
590.835	47.24
591.173	47.2
591.511	47.32
591.849	47.45
592.187	47.37
592.524	47.33
592.862	47.16
593.2	47.58
593.537	47.43
593.875	47.52
594.212	47.39
594.55	47.81
594.887	47.75
595.224	47.97
595.561	47.86
595.899	48
596.236	48.01
596.573	47.99
596.91	48.02
597.247	47.57
597.584	47.99
597.921	48.15
598.258	47.91
598.594	48.23
598.931	47.9
599.268	47.94
599.604	47.6
599.941	47.82
600.277	47.99
600.614	47.9
600.95	48.47
601.287	48.57
601.623	48.88
601.959	48.73
602.296	48.62
602.632	48.55
602.968	48.71
603.304	48.92
603.64	49.13
603.976	49.01
604.312	49.19
604.648	49.16
604.984	48.89
605.319	49.04
605.655	48.8
605.991	48.91
606.326	49.06
606.662	48.72
606.998	49.06
607.333	49.06
607.668	48.69
608.004	49.05
608.339	49.03
608.674	49.27
609.01	49.39
609.345	49.85
609.68	49.73
610.015	49.89
610.35	50.02
610.685	49.73
611.02	49.85
611.355	50.03
611.689	49.84
612.024	49.83
612.359	49.87
612.694	49.96
613.028	49.78
613.363	49.84
613.697	50.09
614.032	50.46
614.366	50.4
614.7	50.75
615.035	50.53
615.369	50.87
615.703	50.31
616.037	50.58
616.371	51.54
616.705	51.05
617.039	50.88
617.373	51.16
617.707	50.9
618.041	51.01
618.375	51.42
618.709	51.4
619.042	51.11
619.376	51.12
619.71	51.64
620.043	51.46
620.377	51.18
620.71	51.66
621.043	51.7
621.377	51.74
621.71	51.4
622.043	51.24
622.376	51.6
622.709	51.56
623.043	51.45
623.376	52.01
623.709	52.31
624.041	51.85
624.374	52.01
624.707	52.37
625.04	52.38
625.373	52.02
625.705	52.44
626.038	52.03
626.37	52.22
626.703	51.77
627.035	52.38
627.368	52.53
627.7	52.31
628.032	52.07
628.365	52.15
628.697	52.61
629.029	51.96
629.361	52.47
629.693	52.17
630.025	52.59
630.357	52.26
630.689	52.39
631.021	52.59
631.353	52.66
631.684	52.7
632.016	52.61
632.348	53.18
632.679	52.86
633.011	53.19
633.342	53.43
633.674	53.39
634.005	53.27
634.336	53.27
634.668	53.4
634.999	53.95
635.33	53.27
635.661	53.58
635.992	53.44
636.323	53.12
636.654	53.65
636.985	53.21
637.316	53.72
637.647	53.23
637.977	53.55
638.308	53.76
638.639	53.7
638.969	53.57
639.3	53.64
639.63	53.85
639.961	53.3
640.291	54.16
640.622	54.21
640.952	54.19
641.282	53.95
641.612	54.48
641.943	54.31
642.273	54.02
642.603	53.95
642.933	54.26
643.263	54.75
643.592	54.73
643.922	54.57
644.252	54.45
644.582	54.61
644.911	54.74
645.241	54.67
645.571	55.35
645.9	54.56
646.23	55.52
646.559	54.69
646.888	55.34
647.218	55.02
647.547	55.14
647.876	55
648.205	55.22
648.534	55.35
648.863	55.6
649.192	55.23
649.521	55.46
649.85	56.08
650.179	55.26
650.508	55.39
650.837	55.73
651.165	55.47
651.494	55.84
651.822	55.79
652.151	55.49
652.479	55.6
652.808	55.51
653.136	56.12
653.465	56.33
653.793	55.52
654.121	55.7
654.449	55.68
654.777	55.8
655.105	56.61
655.433	55.93
655.761	55.73
656.089	56.08
656.417	56.14
656.745	56.07
657.073	56.17
657.4	56.14
657.728	55.9
658.056	56.07
658.383	56.71
658.711	56.45
659.038	55.83
659.365	56.49
659.693	56.28
660.02	56.57
660.347	57.07
660.674	56.36
661.001	56.52
661.329	56.21
661.656	56.03
661.982	55.9
662.309	56.69
662.636	56.54
662.963	56.32
663.29	56.74
663.616	56.76
663.943	56.69
664.27	57.23
664.596	57.26
664.923	57.05
665.249	57.02
665.576	57.3
665.902	57.11
666.228	56.58
666.554	56.11
666.881	57.43
667.207	57
667.533	57.61
667.859	56.9
668.185	57.54
668.511	57.87
668.837	57.06
669.162	56.93
669.488	57.71
669.814	57.75
670.139	57.82
670.465	57.87
