Data from 0150_crown_Reflection__4__90.txt Node

Date: Fri Sep 22 21:00:38 CDT 2023
User: ToomeyLab
Spectrometer: FLMS14357
Trigger mode: 0
Integration Time (sec): 1.000000E-2
Scans to average: 100
Electric dark correction enabled: true
Nonlinearity correction enabled: false
Boxcar width: 0
XAxis mode: Wavelengths
Number of Pixels in Spectrum: 2048
>>>>>Begin Spectral Data<<<<<
189.047	79.43
189.435	79.43
189.823	79.43
190.211	-101.95
190.599	34.94
190.987	59.33
191.375	50.87
191.763	48.87
192.151	124.43
192.538	-159.79
192.926	-33.56
193.314	-2507.69
193.702	54.65
194.089	109.45
194.477	-44.17
194.864	655.11
195.252	35.22
195.639	2052.31
196.027	19.96
196.414	3.44
196.801	62.31
197.189	92.14
197.576	52.64
197.963	-18.46
198.351	26.3
198.738	19.26
199.125	31.68
199.512	18.88
199.899	34.63
200.286	-5.09
200.673	-18.6
201.06	31.84
201.447	37.69
201.833	-32.48
202.22	51.83
202.607	40.27
202.994	32.15
203.38	5.98
203.767	11.37
204.154	48.82
204.54	45.65
204.927	9.13
205.313	19.43
205.699	32.99
206.086	53.54
206.472	54.61
206.858	18.13
207.245	42.01
207.631	39.21
208.017	-4.46
208.403	19.28
208.789	29.72
209.175	43.91
209.561	44.99
209.947	31.74
210.333	35.92
210.719	17.02
211.105	50.99
211.491	-15.23
211.876	29.93
212.262	6.12
212.648	20.75
213.034	33.2
213.419	18.68
213.805	10.72
214.19	19.83
214.576	14.26
214.961	0.54
215.346	13.1
215.732	28.01
216.117	-7.07
216.502	17.03
216.888	29.37
217.273	23.57
217.658	17.15
218.043	27.82
218.428	24.77
218.813	2.55
219.198	9.92
219.583	3.64
219.968	17.96
220.353	35.41
220.738	-0.94
221.122	9.62
221.507	6.3
221.892	12.71
222.276	26.49
222.661	-2.35
223.046	22.35
223.43	21.11
223.815	15.79
224.199	9.87
224.583	19.51
224.968	16.42
225.352	10.58
225.736	7.13
226.121	11.57
226.505	10.94
226.889	7.66
227.273	11.59
227.657	15.74
228.041	9.89
228.425	13.68
228.809	9.64
229.193	9.17
229.577	11.06
229.961	11.01
230.344	9.83
230.728	7.46
231.112	9.42
231.495	8.75
231.879	9.38
232.263	8.82
232.646	8.61
233.03	7.79
233.413	8.05
233.797	9.18
234.18	7.48
234.563	8.04
234.946	6.94
235.33	4.11
235.713	7.37
236.096	9.27
236.479	8.08
236.862	10.36
237.245	9.23
237.628	9.71
238.011	8.44
238.394	8.59
238.777	10.49
239.16	8.95
239.543	10.69
239.925	8.87
240.308	10.36
240.691	7.31
241.073	10.85
241.456	9.76
241.838	7.2
242.221	8.3
242.603	9.26
242.986	8.2
243.368	8.55
243.75	7.8
244.133	9.02
244.515	8.13
244.897	7.56
245.279	7.83
245.661	7.67
246.043	8.35
246.425	8.17
246.807	7.75
247.189	7.18
247.571	8.87
247.953	7.88
248.335	7.93
248.717	7.99
249.098	7.65
249.48	7.48
249.862	7.66
250.243	7.54
250.625	7.55
251.006	7.47
251.388	8.03
251.769	8.49
252.151	7.55
252.532	7.81
252.913	8.48
253.295	8.1
253.676	7.38
254.057	7.76
254.438	7.89
254.819	7
255.2	8.18
255.581	6.94
255.962	8.5
256.343	7.34
256.724	6.35
257.105	7.49
257.486	7.12
257.867	7.93
258.247	7.67
258.628	8.7
259.009	6.24
259.389	7.27
259.77	7.41
260.15	8.27
260.531	7.2
260.911	7.14
261.292	7.09
261.672	6.72
262.052	7.01
262.432	6.9
262.813	6.83
263.193	6.47
263.573	7.19
263.953	7.35
264.333	6.93
264.713	7.41
265.093	6.5
265.473	6.21
265.853	5.81
266.233	6.91
266.612	6.19
266.992	7.62
267.372	7.15
267.752	7.02
268.131	7.01
268.511	6.27
268.89	6.99
269.27	6.74
269.649	6.87
270.029	6.62
270.408	6.8
270.787	6.68
271.167	6.56
271.546	6.55
271.925	6.04
272.304	6.41
272.683	7.49
273.062	7.37
273.441	6.06
273.82	6.82
274.199	6.45
274.578	7.01
274.957	6.36
275.336	6.16
275.715	6.62
276.093	5.93
276.472	6.64
276.851	6.29
277.229	6.04
277.608	6.18
277.986	6.16
278.365	6.81
278.743	5.99
279.122	6.36
279.5	6.66
279.878	5.88
280.257	6.68
280.635	6.5
281.013	6.66
281.391	6.05
281.769	6.53
282.147	6.86
282.525	6.05
282.903	6.5
283.281	6.56
283.659	6.04
284.037	5.77
284.415	6.3
284.792	6.08
285.17	6.35
285.548	6.43
285.925	5.88
286.303	6.37
286.68	6.12
287.058	6.03
287.435	5.95
287.813	5.84
288.19	5.54
288.567	6.17
288.945	5.64
289.322	5.92
289.699	5.72
290.076	5.69
290.453	5.67
290.83	5.4
291.207	5.44
291.584	5.78
291.961	5.61
292.338	6.14
292.715	6.09
293.092	5.67
293.469	5.37
293.845	5.39
294.222	5.64
294.599	5.96
294.975	5.9
295.352	5.69
295.728	5.24
296.105	5.74
296.481	5.6
296.858	5.88
297.234	5.4
297.61	5.46
297.986	5.81
298.363	5.21
298.739	5.28
299.115	5.37
299.491	5.31
299.867	5.4
300.243	5.21
300.619	5.56
300.995	5.14
301.371	5.65
301.746	5.85
302.122	5.36
302.498	5.01
302.874	5.11
303.249	5.35
303.625	5.31
304	5.74
304.376	5.72
304.751	5.27
305.127	5.01
305.502	5.88
305.878	5.05
306.253	5.97
306.628	5.12
307.003	5.5
307.378	5.55
307.754	4.82
308.129	5.08
308.504	5.42
308.879	5.75
309.254	5.22
309.629	5.27
310.003	5.61
310.378	5.78
310.753	5.44
311.128	4.89
311.502	5.26
311.877	4.67
312.252	5.26
312.626	5.61
313.001	5.45
313.375	5.09
313.75	5.55
314.124	5.64
314.498	4.7
314.873	5.06
315.247	5.23
315.621	5.19
315.995	5.29
316.369	5.32
316.743	4.89
317.117	5.2
317.491	5.62
317.865	5.18
318.239	5.32
318.613	5.23
318.987	5.08
319.361	5.5
319.734	4.5
320.108	5.18
320.482	5.43
320.855	4.8
321.229	5.78
321.602	5.68
321.976	4.41
322.349	4.84
322.723	5.18
323.096	5.37
323.469	4.75
323.843	5.24
324.216	5.09
324.589	5.08
324.962	4.6
325.335	4.99
325.708	5.21
326.081	4.98
326.454	4.79
326.827	5.05
327.2	4.9
327.573	5.34
327.945	4.79
328.318	5.29
328.691	5.12
329.063	4.8
329.436	4.77
329.809	5.41
330.181	5.17
330.553	4.78
330.926	5.32
331.298	5.03
331.671	5.29
332.043	4.53
332.415	4.92
332.787	4.97
333.159	5.04
333.532	4.87
333.904	5.04
334.276	4.55
334.648	4.84
335.02	5.09
335.391	5.16
335.763	5.05
336.135	5.42
336.507	5.19
336.879	4.54
337.25	4.82
337.622	4.78
337.993	4.94
338.365	5.19
338.736	5
339.108	5.07
339.479	4.57
339.851	4.55
340.222	4.9
340.593	4.87
340.964	4.91
341.336	5.02
341.707	4.84
342.078	5.5
342.449	4.94
342.82	4.81
343.191	4.78
343.562	5.11
343.933	5.05
344.303	4.68
344.674	5.5
345.045	5.29
345.416	5.47
345.786	4.87
346.157	4.94
346.527	4.92
346.898	5.07
347.268	4.68
347.639	4.96
348.009	4.95
348.38	4.83
348.75	5.15
349.12	5.04
349.49	5.28
349.861	4.67
350.231	5
350.601	5.23
350.971	5.27
351.341	5.09
351.711	5.32
352.081	4.79
352.45	4.78
352.82	4.89
353.19	5.3
353.56	5.09
353.929	5.09
354.299	4.8
354.669	5.27
355.038	5.11
355.408	5.05
355.777	5.66
356.147	5.36
356.516	5.46
356.885	4.88
357.254	5.42
357.624	4.69
357.993	5.33
358.362	4.93
358.731	4.66
359.1	4.91
359.469	5.27
359.838	4.91
360.207	4.98
360.576	5.01
360.945	4.94
361.314	4.82
361.682	5.28
362.051	5.37
362.42	4.95
362.788	4.78
363.157	5.27
363.525	5.04
363.894	5.03
364.262	4.9
364.631	5
364.999	5.02
365.367	5.46
365.735	5.22
366.104	4.82
366.472	5.26
366.84	5.02
367.208	5.14
367.576	5.37
367.944	4.89
368.312	5.31
368.68	5.2
369.048	5.09
369.416	5.27
369.783	5.27
370.151	5.13
370.519	5.12
370.886	5.28
371.254	5.83
371.621	5.28
371.989	5.31
372.356	5.02
372.724	5.5
373.091	5.18
373.458	5.2
373.826	5.36
374.193	5.54
374.56	5.29
374.927	5.42
375.294	5.62
375.661	5.29
376.028	5.16
376.395	5.41
376.762	5.76
377.129	5.52
377.496	5.45
377.863	5.3
378.229	5.18
378.596	5.12
378.963	5.77
379.329	5.3
379.696	5.4
380.062	5.14
380.429	5.16
380.795	5.26
381.161	5.44
381.528	5.22
381.894	4.92
382.26	5.27
382.626	5.58
382.993	5.68
383.359	5.17
383.725	5.45
384.091	5.35
384.457	5.47
384.823	5.32
385.188	5.59
385.554	5.6
385.92	5.69
386.286	5.56
386.651	5.55
387.017	5.52
387.383	5.5
387.748	5.23
388.114	5.35
388.479	5.6
388.845	5.14
389.21	5.38
389.575	5.83
389.94	5.48
390.306	5.55
390.671	5.69
391.036	5.51
391.401	5.64
391.766	5.4
392.131	5.77
392.496	5.22
392.861	5.3
393.226	5.69
393.591	5.67
393.956	5.62
394.32	5.44
394.685	5.27
395.05	5.43
395.414	5.59
395.779	5.61
396.143	5.59
396.508	5.68
396.872	5.32
397.236	5.51
397.601	5.53
397.965	5.77
398.329	5.52
398.694	5.37
399.058	5.76
399.422	5.59
399.786	5.57
400.15	5.75
400.514	5.6
400.878	5.76
401.242	5.57
401.605	5.63
401.969	5.29
402.333	5.58
402.697	5.59
403.06	5.79
403.424	5.78
403.787	5.7
404.151	5.57
404.514	5.94
404.878	5.92
405.241	5.79
405.604	5.82
405.968	5.77
406.331	5.69
406.694	5.63
407.057	5.71
407.42	5.94
407.783	5.59
408.146	5.67
408.509	5.71
408.872	5.58
409.235	5.67
409.598	5.66
409.961	5.72
410.323	5.75
410.686	5.73
411.049	5.81
411.411	5.93
411.774	5.69
412.136	5.76
412.499	5.76
412.861	5.67
413.223	5.72
413.586	5.84
413.948	5.71
414.31	5.78
414.672	5.72
415.035	5.67
415.397	6.01
415.759	6.17
416.121	5.77
416.483	5.74
416.845	5.7
417.206	5.76
417.568	5.76
417.93	5.75
418.292	5.78
418.653	5.61
419.015	5.55
419.377	5.78
419.738	5.69
420.1	5.72
420.461	5.68
420.822	5.68
421.184	5.72
421.545	5.73
421.906	5.63
422.267	5.53
422.629	5.76
422.99	5.61
423.351	5.52
423.712	5.64
424.073	5.55
424.434	5.7
424.795	5.65
425.155	5.75
425.516	5.69
425.877	5.67
426.238	5.49
426.598	5.57
426.959	5.59
427.32	5.68
427.68	5.61
428.041	5.7
428.401	5.76
428.761	5.77
429.122	5.83
429.482	5.83
429.842	5.73
430.202	5.74
430.563	5.88
430.923	5.95
431.283	5.81
431.643	5.98
432.003	5.97
432.363	5.99
432.722	5.95
433.082	5.97
433.442	5.88
433.802	6.07
434.161	5.7
434.521	5.76
434.881	5.88
435.24	5.87
435.6	5.65
435.959	5.68
436.319	5.73
436.678	5.97
437.037	5.9
437.396	5.74
437.756	5.92
438.115	5.79
438.474	5.79
438.833	6.05
439.192	5.86
439.551	5.88
439.91	5.95
440.269	5.94
440.628	5.86
440.987	5.82
441.345	5.96
441.704	5.99
442.063	5.87
442.421	5.76
442.78	5.76
443.138	5.83
443.497	5.72
443.855	5.91
444.214	5.78
444.572	5.92
444.93	5.86
445.288	5.85
445.647	5.88
446.005	5.86
446.363	5.78
446.721	5.77
447.079	5.87
447.437	5.78
447.795	5.84
448.153	5.81
448.51	5.81
448.868	5.72
449.226	5.8
449.584	5.78
449.941	5.78
450.299	5.87
450.656	5.98
451.014	5.96
451.371	5.89
451.729	6.06
452.086	5.95
452.443	6.01
452.801	5.89
453.158	5.88
453.515	5.99
453.872	5.95
454.229	6.03
454.586	5.96
454.943	5.91
455.3	5.96
455.657	5.98
456.014	6
456.371	6.05
456.727	6.17
457.084	5.99
457.441	5.95
457.797	6.02
458.154	6.06
458.51	5.9
458.867	5.86
459.223	5.96
459.58	5.97
459.936	5.99
460.292	6
460.648	6.17
461.005	5.92
461.361	5.98
461.717	5.79
462.073	5.92
462.429	5.84
462.785	5.89
463.141	5.89
463.496	6.02
463.852	5.97
464.208	5.97
464.564	6.2
464.919	5.9
465.275	6.15
465.631	6.18
465.986	6.2
466.342	5.99
466.697	6.18
467.052	6.1
467.408	6.07
467.763	5.97
468.118	6.02
468.473	6.06
468.829	5.92
469.184	6.16
469.539	6.02
469.894	6.24
470.249	6.06
470.603	6.04
470.958	6.02
471.313	6.11
471.668	6.18
472.023	6.1
472.377	6.07
472.732	6.12
473.086	6.16
473.441	5.82
473.795	6.41
474.15	5.88
474.504	6.09
474.859	6.16
475.213	5.97
475.567	6
475.921	6.13
476.275	6.01
476.63	5.95
476.984	6.07
477.338	6.37
477.692	6.09
478.045	6.06
478.399	6.05
478.753	5.98
479.107	6.08
479.461	6.13
479.814	6.16
480.168	6.1
480.521	6
480.875	6.23
481.228	6.1
481.582	5.97
481.935	6.14
482.289	6.06
482.642	5.89
482.995	6.16
483.348	5.94
483.701	6.02
484.055	5.93
484.408	6.03
484.761	5.98
485.114	5.91
485.466	5.79
485.819	5.71
486.172	5.67
486.525	5.7
486.878	5.68
487.23	5.75
487.583	5.76
487.936	5.76
488.288	5.9
488.641	5.98
488.993	5.85
489.345	5.86
489.698	5.76
490.05	5.78
490.402	5.78
490.754	5.78
491.107	5.81
491.459	5.9
491.811	5.94
492.163	5.96
492.515	6.05
492.866	5.98
493.218	5.94
493.57	5.91
493.922	5.83
494.274	5.84
494.625	5.85
494.977	5.88
495.328	6
495.68	6.08
496.031	6.07
496.383	6.05
496.734	6.16
497.086	5.99
497.437	6.08
497.788	6.13
498.139	6.15
498.49	6.23
498.842	6
499.193	6.02
499.544	6.2
499.894	6.09
500.245	6.15
500.596	6.06
500.947	6.17
501.298	6.15
501.648	6.09
501.999	6.19
502.35	6.14
502.7	6.18
503.051	6.21
503.401	6.21
503.752	6.22
504.102	6.2
504.452	6.16
504.803	6.17
505.153	6.15
505.503	6.18
505.853	6.32
506.203	6.14
506.553	6.22
506.903	6.1
507.253	6.13
507.603	6.25
507.953	6.36
508.303	6.13
508.652	6.27
509.002	6.3
509.352	6.07
509.701	6.23
510.051	6.17
510.4	6.29
510.75	6.15
511.099	6.01
511.449	6.15
511.798	6.13
512.147	6.09
512.496	6.11
512.846	6.17
513.195	6.11
513.544	6.18
513.893	6.23
514.242	6.12
514.591	6.17
514.939	6.16
515.288	6.17
515.637	6.2
515.986	6.17
516.334	6.27
516.683	6.24
517.032	6.27
517.38	6.28
517.729	6.19
518.077	6.19
518.426	6.21
518.774	6.25
519.122	6.06
519.47	6.16
519.819	6.11
520.167	6.21
520.515	6.11
520.863	6.03
521.211	6.13
521.559	6.05
521.907	6.08
522.255	6.11
522.602	6.2
522.95	6.11
523.298	6.1
523.645	6.27
523.993	6.2
524.341	6.18
524.688	6.19
525.036	6.26
525.383	6.18
525.73	6.2
526.078	6.23
526.425	6.16
526.772	6.27
527.119	6.25
527.466	6.07
527.814	5.95
528.161	5.97
528.508	6.09
528.854	6.03
529.201	6.07
529.548	6.13
529.895	6.02
530.242	6.01
530.588	5.85
530.935	5.79
531.282	5.83
531.628	5.92
531.975	5.85
532.321	5.81
532.667	5.99
533.014	6.05
533.36	6.1
533.706	6.11
534.052	6.12
534.399	6.08
534.745	6.08
535.091	5.96
535.437	5.99
535.783	5.84
536.129	5.92
536.474	6
536.82	5.94
537.166	6.14
537.512	6.1
537.857	6.03
538.203	6.21
538.549	6
538.894	5.97
539.239	5.94
539.585	5.9
539.93	6.15
540.276	6.12
540.621	5.96
540.966	6.07
541.311	6.18
541.656	6.07
542.001	6.08
542.346	6.05
542.691	6.05
543.036	5.95
543.381	5.93
543.726	5.89
544.071	5.88
544.415	5.86
544.76	5.89
545.105	5.79
545.449	5.93
545.794	5.98
546.138	5.99
546.483	6
546.827	6.05
547.171	6.04
547.516	6.28
547.86	6.14
548.204	6.05
548.548	6.05
548.892	6.11
549.236	5.95
549.58	6.03
549.924	6.17
550.268	6.07
550.612	6.14
550.956	6.14
551.3	6.07
551.643	6.2
551.987	6.35
552.33	6.18
552.674	6.14
553.017	6.11
553.361	6.1
553.704	6.07
554.048	6.21
554.391	6.27
554.734	6.11
555.077	6.13
555.42	6.05
555.764	6.2
556.107	6.18
556.45	6.1
556.793	6.2
557.135	6.26
557.478	6.06
557.821	6.12
558.164	6.39
558.507	6.31
558.849	6.06
559.192	6.17
559.534	6.21
559.877	5.97
560.219	6.16
560.562	6.2
560.904	6.19
561.246	6.29
561.589	6.28
561.931	6.3
562.273	6.02
562.615	5.98
562.957	6.09
563.299	6.16
563.641	5.93
563.983	6.26
564.325	6.22
564.667	6.09
565.008	6.09
565.35	6.13
565.692	6.23
566.033	6.07
566.375	6.3
566.716	6.1
567.058	6.16
567.399	6.18
567.741	6.31
568.082	6.02
568.423	6
568.764	6.23
569.105	5.83
569.447	6.07
569.788	5.89
570.129	6.1
570.47	6.09
570.811	6
571.151	6.3
571.492	6.01
571.833	5.96
572.174	6.2
572.514	6.06
572.855	6.08
573.195	6.06
573.536	5.95
573.876	5.99
574.217	6.03
574.557	5.95
574.898	6
575.238	6.02
575.578	6.06
575.918	6.06
576.258	5.73
576.598	6.07
576.938	6.08
577.278	6.02
577.618	5.89
577.958	6.06
578.298	6.1
578.638	5.98
578.977	5.88
579.317	6.04
579.657	6.02
579.996	6.01
580.336	5.98
580.675	6.21
581.014	5.86
581.354	6.08
581.693	6
582.032	6.13
582.372	5.94
582.711	5.97
583.05	5.88
583.389	6.11
583.728	6.07
584.067	6.05
584.406	6.08
584.745	5.88
585.083	6.3
585.422	6.2
585.761	5.97
586.1	5.94
586.438	5.94
586.777	5.88
587.115	6.05
587.454	5.89
587.792	6.26
588.13	6.13
588.469	6.02
588.807	6.19
589.145	6.17
589.483	5.97
589.821	5.98
590.159	6.03
590.497	6.04
590.835	6.29
591.173	5.85
591.511	5.89
591.849	6.19
592.187	5.8
592.524	6.1
592.862	5.8
593.2	6.01
593.537	5.79
593.875	6.13
594.212	5.99
594.55	6.23
594.887	6.1
595.224	6.08
595.561	6.04
595.899	6.13
596.236	6.24
596.573	5.93
596.91	6
597.247	5.85
597.584	6.08
597.921	6.13
598.258	6.17
598.594	5.88
598.931	5.61
599.268	5.93
599.604	5.97
599.941	5.91
600.277	5.82
600.614	5.81
600.95	6.03
601.287	5.89
601.623	5.91
601.959	5.81
602.296	6.1
602.632	5.64
602.968	5.86
603.304	6.08
603.64	5.73
603.976	6.14
604.312	5.88
604.648	5.73
604.984	5.89
605.319	5.93
605.655	5.59
605.991	5.91
606.326	5.8
606.662	5.77
606.998	5.75
607.333	5.75
607.668	5.81
608.004	5.71
608.339	5.66
608.674	5.77
609.01	5.8
609.345	5.65
609.68	6.05
610.015	5.75
610.35	5.72
610.685	5.95
611.02	5.85
611.355	5.89
611.689	5.69
612.024	5.76
612.359	5.54
612.694	5.77
613.028	5.58
613.363	5.87
613.697	5.82
614.032	5.86
614.366	5.69
614.7	5.82
615.035	5.88
615.369	5.87
615.703	5.6
616.037	5.67
616.371	5.93
616.705	5.8
617.039	5.86
617.373	5.61
617.707	5.51
618.041	5.92
618.375	5.84
618.709	5.81
619.042	5.75
619.376	5.94
619.71	5.63
620.043	5.51
620.377	5.57
620.71	5.53
621.043	6.05
621.377	5.64
621.71	5.69
622.043	5.78
622.376	5.89
622.709	5.79
623.043	5.86
623.376	5.91
623.709	5.86
624.041	5.7
624.374	5.76
624.707	6.01
625.04	5.76
625.373	5.27
625.705	5.71
626.038	5.42
626.37	5.98
626.703	5.83
627.035	5.87
627.368	5.96
627.7	5.97
628.032	6
628.365	5.78
628.697	5.54
629.029	5.86
629.361	5.6
629.693	5.56
630.025	5.75
630.357	5.54
630.689	5.85
631.021	5.68
631.353	5.76
631.684	5.75
632.016	6.1
632.348	5.8
632.679	5.26
633.011	5.55
633.342	5.77
633.674	5.93
634.005	5.69
634.336	5.83
634.668	5.78
634.999	5.78
635.33	5.61
635.661	5.66
635.992	5.43
636.323	5.63
636.654	5.46
636.985	5.39
637.316	5.65
637.647	5.87
637.977	5.39
638.308	6.05
638.639	5.69
638.969	5.76
639.3	5.9
639.63	6.03
639.961	5.64
640.291	5.65
640.622	5.77
640.952	5.82
641.282	5.75
641.612	5.88
641.943	5.75
642.273	5.58
642.603	5.77
642.933	5.84
643.263	5.35
643.592	5.54
643.922	5.69
644.252	5.58
644.582	5.85
644.911	5.86
645.241	5.77
645.571	5.47
645.9	6.12
646.23	6.12
646.559	6.17
646.888	5.95
647.218	5.57
647.547	5.61
647.876	5.63
648.205	5.32
648.534	6.04
648.863	5.34
649.192	5.47
649.521	5.53
649.85	5.87
650.179	5.77
650.508	5.57
650.837	6.13
651.165	5.6
651.494	6
651.822	5.67
652.151	5.56
652.479	5.66
652.808	5.26
653.136	6.31
653.465	5.92
653.793	5.32
654.121	5.61
654.449	5.61
654.777	5.47
655.105	5.55
655.433	5.5
655.761	6.21
656.089	5.37
656.417	5.7
656.745	5.78
657.073	5.92
657.4	5.96
657.728	5.69
658.056	5.58
658.383	5.77
658.711	6.02
659.038	5.61
659.365	5.76
659.693	5.25
660.02	6.03
660.347	6.07
660.674	5.62
661.001	5.09
661.329	5.24
661.656	6.06
661.982	5.34
662.309	5.97
662.636	5.91
662.963	5.87
663.29	5.68
663.616	5.71
663.943	5.83
664.27	5.9
664.596	5.85
664.923	5.56
665.249	5.47
665.576	4.94
665.902	5.64
666.228	5.47
666.554	5.54
666.881	6.13
667.207	5.69
667.533	5.67
667.859	6.19
668.185	5.62
668.511	5.94
668.837	5.4
669.162	5.61
669.488	5.35
669.814	5.55
670.139	6.02
670.465	6.32
670.791	5.6
671.116	5.26
671.442	6.21
671.767	5
672.092	6.11
672.418	6.3
672.743	6.04
673.068	5.86
673.393	5.34
673.718	6.14
674.043	6.2
674.368	5.99
674.693	5.68
675.018	5.31
675.343	5.75
675.667	6.18
675.992	5.44
676.317	6.43
676.641	5.79
676.966	6.2
677.29	5.46
677.615	5.71
677.939	6.17
678.264	5.64
678.588	6.51
678.912	6.35
679.236	6.13
679.56	5.63
679.885	5.63
680.209	6.03
680.532	5.48
680.856	5.9
681.18	6.08
681.504	5.79
681.828	5.72
682.152	5.41
682.475	6.14
682.799	5.88
683.122	5.6
683.446	5.82
683.769	5.84
684.093	6.27
684.416	5.82
684.739	5.56
685.062	6.47
685.386	5.91
685.709	6.07
686.032	5.66
686.355	5.71
686.678	6.66
687.001	5.33
687.324	6.25
687.646	5.63
687.969	6.25
688.292	6.21
688.614	6.34
688.937	5.41
689.26	5.23
689.582	5.58
689.904	5.24
690.227	5.72
690.549	6.07
690.871	5.65
691.194	5.83
691.516	5.58
691.838	5.65
692.16	5.31
692.482	5.82
692.804	5.43
693.126	4.98
