Data from 0150_crown_Reflection__3__89.txt Node

Date: Fri Sep 22 21:00:29 CDT 2023
User: ToomeyLab
Spectrometer: FLMS14357
Trigger mode: 0
Integration Time (sec): 1.000000E-2
Scans to average: 100
Electric dark correction enabled: true
Nonlinearity correction enabled: false
Boxcar width: 0
XAxis mode: Wavelengths
Number of Pixels in Spectrum: 2048
>>>>>Begin Spectral Data<<<<<
189.047	-45.6
189.435	-45.6
189.823	-45.6
190.211	-136.91
190.599	-89.41
190.987	103.56
191.375	38.52
191.763	11.96
192.151	85.83
192.538	51.91
192.926	88.15
193.314	750
193.702	26.08
194.089	84.87
194.477	255.21
194.864	638
195.252	-13.27
195.639	725.38
196.027	335.56
196.414	41.18
196.801	46.04
197.189	107.15
197.576	104.27
197.963	-14
198.351	51.38
198.738	-2.43
199.125	-4.78
199.512	-15.22
199.899	46.09
200.286	11.56
200.673	13.17
201.06	-7.25
201.447	38.85
201.833	-48.21
202.22	15.96
202.607	31.66
202.994	41.49
203.38	28.06
203.767	24.87
204.154	40.26
204.54	21.42
204.927	20.27
205.313	35.87
205.699	58.13
206.086	35.74
206.472	51.06
206.858	23.02
207.245	-33.15
207.631	23.72
208.017	12.21
208.403	21.04
208.789	30.62
209.175	35.72
209.561	31.05
209.947	38.94
210.333	1.01
210.719	26.51
211.105	28.17
211.491	3.93
211.876	28.76
212.262	33.93
212.648	2.64
213.034	31.13
213.419	14.1
213.805	9.92
214.19	7.38
214.576	49.62
214.961	17.66
215.346	10.8
215.732	19.88
216.117	30.22
216.502	39.98
216.888	8.81
217.273	-7.67
217.658	12.88
218.043	20.19
218.428	26.56
218.813	7.36
219.198	40
219.583	24.42
219.968	13.18
220.353	24.77
220.738	22.98
221.122	10.34
221.507	-10.21
221.892	14.24
222.276	14.73
222.661	-11.29
223.046	16.69
223.43	25.1
223.815	7.28
224.199	0.42
224.583	14
224.968	14.77
225.352	6.47
225.736	8.94
226.121	7.64
226.505	16.82
226.889	4.61
227.273	12.51
227.657	8.04
228.041	12.14
228.425	10.08
228.809	5.81
229.193	7.57
229.577	10.36
229.961	9.14
230.344	7.64
230.728	7.43
231.112	7.71
231.495	7.03
231.879	7.01
232.263	6.08
232.646	6.96
233.03	6.68
233.413	7.96
233.797	7.88
234.18	6.2
234.563	8.03
234.946	7.99
235.33	3.51
235.713	4.52
236.096	6.56
236.479	5.93
236.862	7.3
237.245	5.68
237.628	8.34
238.011	5.73
238.394	7.01
238.777	8.27
239.16	8.12
239.543	10.26
239.925	8
240.308	6.87
240.691	7.66
241.073	7.55
241.456	7.37
241.838	5.71
242.221	5.33
242.603	7.04
242.986	7.01
243.368	6.37
243.75	7.34
244.133	6.68
244.515	6.53
244.897	6.28
245.279	6.03
245.661	6.31
246.043	6.58
246.425	5.35
246.807	5.64
247.189	4.64
247.571	6.27
247.953	6.58
248.335	6.28
248.717	6.18
249.098	6.25
249.48	5.94
249.862	6.01
250.243	6.07
250.625	6.38
251.006	5.67
251.388	5.91
251.769	5.68
252.151	6.15
252.532	6.13
252.913	6.47
253.295	6.7
253.676	6.03
254.057	6.34
254.438	6.35
254.819	5.59
255.2	5.8
255.581	6.16
255.962	7.2
256.343	6.47
256.724	5.12
257.105	6.83
257.486	6.42
257.867	6.45
258.247	6.53
258.628	7.39
259.009	5.71
259.389	6.28
259.77	6.15
260.15	6.53
260.531	5.44
260.911	5.58
261.292	5.66
261.672	5.51
262.052	5.43
262.432	5.7
262.813	5.66
263.193	5.45
263.573	6.45
263.953	5.78
264.333	6.2
264.713	6.05
265.093	5.82
265.473	5.51
265.853	5.67
266.233	6.7
266.612	5.58
266.992	6.2
267.372	6.05
267.752	5.89
268.131	5.09
268.511	5.28
268.89	5.66
269.27	5.67
269.649	5.2
270.029	5.56
270.408	5.67
270.787	5.44
271.167	5.69
271.546	5.32
271.925	6.06
272.304	5
272.683	4.87
273.062	5.71
273.441	5.55
273.82	5.6
274.199	5.33
274.578	4.97
274.957	5.34
275.336	5.78
275.715	5.17
276.093	4.81
276.472	4.59
276.851	5.27
277.229	4.93
277.608	5.64
277.986	5.13
278.365	5.44
278.743	5.12
279.122	5.39
279.5	5.55
279.878	5.3
280.257	5.53
280.635	4.51
281.013	5.11
281.391	5.33
281.769	5.51
282.147	5.18
282.525	5.25
282.903	5.28
283.281	5
283.659	5.08
284.037	4.93
284.415	5.42
284.792	5.07
285.17	4.82
285.548	5.5
285.925	5.2
286.303	5.15
286.68	4.64
287.058	4.76
287.435	4.81
287.813	4.97
288.19	3.96
288.567	4.78
288.945	4.6
289.322	4.96
289.699	4.72
290.076	4.27
290.453	4.77
290.83	4.44
291.207	4.61
291.584	4.85
291.961	4.32
292.338	4.73
292.715	4.8
293.092	4.58
293.469	4.28
293.845	4.83
294.222	4.88
294.599	4.6
294.975	4.71
295.352	4.71
295.728	4.21
296.105	4.65
296.481	4.62
296.858	4.42
297.234	4.39
297.61	4.51
297.986	4.32
298.363	4.23
298.739	4.55
299.115	4.43
299.491	4.46
299.867	4.45
300.243	4.41
300.619	4.46
300.995	4.23
301.371	4.59
301.746	4.75
302.122	4.41
302.498	3.97
302.874	4.27
303.249	4.66
303.625	3.92
304	4.31
304.376	4.5
304.751	4.47
305.127	4.65
305.502	4.52
305.878	4.39
306.253	4.4
306.628	4.1
307.003	4.76
307.378	3.8
307.754	4.37
308.129	4.31
308.504	4.14
308.879	4.25
309.254	4.26
309.629	4.09
310.003	4.62
310.378	4.65
310.753	4.15
311.128	3.92
311.502	4.14
311.877	3.58
312.252	3.92
312.626	4.23
313.001	3.95
313.375	4.08
313.75	4.37
314.124	4.45
314.498	3.81
314.873	4.33
315.247	4.19
315.621	4.49
315.995	4.18
316.369	3.8
316.743	4.07
317.117	4.18
317.491	4.65
317.865	3.71
318.239	3.91
318.613	4.31
318.987	3.95
319.361	4.07
319.734	3.98
320.108	4.52
320.482	3.96
320.855	3.75
321.229	4.28
321.602	4.06
321.976	3.97
322.349	3.78
322.723	4.38
323.096	4.52
323.469	4.35
323.843	4.1
324.216	4.05
324.589	4.08
324.962	4.2
325.335	3.81
325.708	4.34
326.081	4.69
326.454	3.58
326.827	4.22
327.2	4.17
327.573	4.38
327.945	4.16
328.318	4.14
328.691	3.98
329.063	4.35
329.436	3.83
329.809	4.19
330.181	4.4
330.553	4.15
330.926	4.45
331.298	4.21
331.671	4.22
332.043	3.35
332.415	4.02
332.787	4.47
333.159	4.09
333.532	3.67
333.904	3.84
334.276	3.39
334.648	3.64
335.02	3.83
335.391	4.19
335.763	3.86
336.135	4.03
336.507	3.87
336.879	3.66
337.25	4.02
337.622	3.93
337.993	4.03
338.365	4.96
338.736	4.35
339.108	4.15
339.479	4.25
339.851	4.03
340.222	4.02
340.593	3.82
340.964	4
341.336	3.83
341.707	4.08
342.078	4.09
342.449	4.4
342.82	4.03
343.191	3.58
343.562	3.8
343.933	4.02
344.303	3.87
344.674	4.08
345.045	4.34
345.416	4.14
345.786	3.87
346.157	3.87
346.527	3.86
346.898	3.67
347.268	4.13
347.639	3.95
348.009	3.88
348.38	4.03
348.75	4.04
349.12	3.83
349.49	4.49
349.861	3.95
350.231	3.84
350.601	3.9
350.971	4.28
351.341	3.97
351.711	4.17
352.081	3.73
352.45	4.16
352.82	4.6
353.19	4.24
353.56	4.04
353.929	4.26
354.299	4.43
354.669	4.35
355.038	3.95
355.408	4.37
355.777	4.48
356.147	4.14
356.516	3.99
356.885	3.83
357.254	4.25
357.624	4.02
357.993	4.27
358.362	4.13
358.731	4.03
359.1	4.17
359.469	4.11
359.838	3.99
360.207	3.78
360.576	4.34
360.945	3.99
361.314	4.4
361.682	4.1
362.051	4.35
362.42	4.13
362.788	3.86
363.157	4.2
363.525	4.07
363.894	4.09
364.262	4.07
364.631	4.19
364.999	4.2
365.367	4.35
365.735	4.28
366.104	4.23
366.472	4.38
366.84	4.04
367.208	4.52
367.576	4.52
367.944	4.25
368.312	4.28
368.68	4.24
369.048	4.4
369.416	4.3
369.783	4.29
370.151	4.06
370.519	4.24
370.886	4.45
371.254	4.56
371.621	4.34
371.989	4.4
372.356	4.29
372.724	4.28
373.091	4.47
373.458	3.98
373.826	4.64
374.193	4.62
374.56	4.27
374.927	4.3
375.294	4.4
375.661	4.34
376.028	4.42
376.395	4.49
376.762	4.66
377.129	4.12
377.496	4.54
377.863	4.41
378.229	4.38
378.596	4.02
378.963	4.69
379.329	4.3
379.696	4.49
380.062	4.11
380.429	4.64
380.795	4.69
381.161	4.1
381.528	4.25
381.894	4.27
382.26	4.25
382.626	4.68
382.993	4.44
383.359	4.32
383.725	4.41
384.091	4.54
384.457	4.25
384.823	4.34
385.188	4.56
385.554	4.54
385.92	4.74
386.286	4.38
386.651	4.51
387.017	4.51
387.383	4.38
387.748	4.53
388.114	4.33
388.479	4.6
388.845	4.51
389.21	4.45
389.575	4.64
389.94	4.36
390.306	4.51
390.671	4.92
391.036	4.33
391.401	4.74
391.766	4.6
392.131	4.3
392.496	4.36
392.861	4.47
393.226	4.37
393.591	4.53
393.956	4.47
394.32	4.39
394.685	4.44
395.05	4.8
395.414	4.84
395.779	4.47
396.143	4.62
396.508	4.58
396.872	4.47
397.236	4.51
397.601	4.53
397.965	5.01
398.329	4.81
398.694	4.47
399.058	4.75
399.422	4.41
399.786	4.7
400.15	4.65
400.514	4.65
400.878	4.7
401.242	4.58
401.605	4.53
401.969	4.3
402.333	4.71
402.697	4.54
403.06	4.75
403.424	4.57
403.787	4.6
404.151	4.74
404.514	4.94
404.878	4.92
405.241	4.7
405.604	4.43
405.968	4.81
406.331	4.74
406.694	4.76
407.057	4.45
407.42	4.83
407.783	4.7
408.146	4.74
408.509	4.66
408.872	4.77
409.235	4.68
409.598	4.78
409.961	4.88
410.323	4.63
410.686	4.69
411.049	5.11
411.411	4.75
411.774	4.59
412.136	4.82
412.499	4.53
412.861	4.8
413.223	4.83
413.586	4.68
413.948	4.85
414.31	4.78
414.672	4.87
415.035	4.73
415.397	4.82
415.759	4.99
416.121	4.82
416.483	4.74
416.845	4.68
417.206	4.75
417.568	4.92
417.93	4.79
418.292	4.77
418.653	4.58
419.015	4.63
419.377	4.52
419.738	4.76
420.1	4.65
420.461	4.75
420.822	4.6
421.184	4.82
421.545	4.66
421.906	4.73
422.267	4.68
422.629	4.69
422.99	4.71
423.351	4.59
423.712	4.62
424.073	4.62
424.434	4.77
424.795	4.71
425.155	4.76
425.516	4.71
425.877	4.69
426.238	4.58
426.598	4.63
426.959	4.66
427.32	4.66
427.68	4.75
428.041	4.66
428.401	4.8
428.761	4.88
429.122	4.78
429.482	4.86
429.842	4.84
430.202	4.77
430.563	4.87
430.923	4.86
431.283	4.97
431.643	4.92
432.003	4.86
432.363	4.93
432.722	4.92
433.082	4.85
433.442	4.86
433.802	4.97
434.161	4.85
434.521	4.82
434.881	4.76
435.24	4.78
435.6	4.82
435.959	4.68
436.319	4.81
436.678	4.96
437.037	5
437.396	4.75
437.756	4.93
438.115	4.77
438.474	4.8
438.833	4.88
439.192	4.91
439.551	4.89
439.91	4.93
440.269	4.9
440.628	4.9
440.987	4.9
441.345	5.05
441.704	4.9
442.063	4.72
442.421	4.79
442.78	4.85
443.138	4.87
443.497	4.84
443.855	4.84
444.214	4.75
444.572	4.99
444.93	5.02
445.288	5
445.647	4.95
446.005	4.88
446.363	4.86
446.721	4.97
447.079	4.84
447.437	4.87
447.795	4.91
448.153	4.82
448.51	4.86
448.868	4.82
449.226	4.76
449.584	4.86
449.941	4.82
450.299	4.97
450.656	4.91
451.014	4.9
451.371	4.99
451.729	4.94
452.086	4.86
452.443	5.06
452.801	5.02
453.158	4.87
453.515	5.03
453.872	4.98
454.229	5.02
454.586	5.08
454.943	4.97
455.3	4.94
455.657	4.93
456.014	4.99
456.371	5
456.727	5.27
457.084	5.14
457.441	4.98
457.797	4.91
458.154	5.04
458.51	5.04
458.867	5.09
459.223	5.1
459.58	5.12
459.936	5.08
460.292	5.1
460.648	5.14
461.005	4.98
461.361	4.97
461.717	4.82
462.073	4.87
462.429	4.75
462.785	4.94
463.141	4.94
463.496	4.95
463.852	4.98
464.208	5.02
464.564	5.12
464.919	4.85
465.275	5.1
465.631	5.31
465.986	5.28
466.342	5.09
466.697	5.07
467.052	5.07
467.408	5.21
467.763	5.11
468.118	5.29
468.473	5.04
468.829	5.12
469.184	5.06
469.539	5.13
469.894	5.07
470.249	5.19
470.603	5.18
470.958	5.11
471.313	5.22
471.668	5.22
472.023	5.02
472.377	5.17
472.732	5.03
473.086	5.15
473.441	5.03
473.795	5.24
474.15	5.04
474.504	5.02
474.859	5.37
475.213	4.92
475.567	4.98
475.921	5.11
476.275	5
476.63	5.03
476.984	4.93
477.338	5.17
477.692	5.07
478.045	5.28
478.399	5.26
478.753	5.16
479.107	5.13
479.461	5.05
479.814	5.2
480.168	5.12
480.521	5.21
480.875	5.2
481.228	5.15
481.582	4.95
481.935	5.1
482.289	5.01
482.642	5
482.995	5.12
483.348	5.18
483.701	5.1
484.055	5.02
484.408	5.04
484.761	5.1
485.114	4.96
485.466	4.89
485.819	4.81
486.172	4.73
486.525	4.79
486.878	4.8
487.23	4.86
487.583	4.91
487.936	4.97
488.288	5
488.641	4.99
488.993	4.84
489.345	4.87
489.698	4.84
490.05	4.87
490.402	4.88
490.754	4.86
491.107	4.9
491.459	5.01
491.811	5.02
492.163	5.03
492.515	5.01
492.866	5.01
493.218	5.11
493.57	5
493.922	4.89
494.274	4.87
494.625	4.93
494.977	4.99
495.328	5.16
495.68	5.13
496.031	5.03
496.383	5.16
496.734	5.16
497.086	5.23
497.437	5.15
497.788	5.14
498.139	5.12
498.49	5.18
498.842	4.98
499.193	4.98
499.544	5.17
499.894	5.08
500.245	5.21
500.596	5.1
500.947	5.14
501.298	5.2
501.648	5.11
501.999	5.23
502.35	5.23
502.7	5.32
503.051	5.26
503.401	5.23
503.752	5.26
504.102	5.26
504.452	4.98
504.803	5.08
505.153	5.14
505.503	5.27
505.853	5.29
506.203	5
506.553	5.21
506.903	5.09
507.253	5.15
507.603	5.29
507.953	5.26
508.303	5.25
508.652	5.12
509.002	5.2
509.352	5.19
509.701	5.25
510.051	5.16
510.4	5.16
510.75	5.15
511.099	5.1
511.449	5.2
511.798	5.1
512.147	5.19
512.496	5.16
512.846	5.21
513.195	5.23
513.544	5.22
513.893	5.18
514.242	5.12
514.591	5.28
514.939	5.29
515.288	5.05
515.637	5.17
515.986	5.16
516.334	5.2
516.683	5.2
517.032	5.16
517.38	5.17
517.729	5.09
518.077	5.34
518.426	5.27
518.774	5.25
519.122	5.16
519.47	5.21
519.819	5.24
520.167	5.16
520.515	5.06
520.863	4.98
521.211	5.09
521.559	5.13
521.907	5.14
522.255	5.12
522.602	5.08
522.95	5.1
523.298	5.17
523.645	5.24
523.993	5.17
524.341	5.06
524.688	5.25
525.036	5.21
525.383	5.15
525.73	5.35
526.078	5.28
526.425	5.19
526.772	5.25
527.119	5.14
527.466	5.01
527.814	5.04
528.161	4.96
528.508	5
528.854	5.11
529.201	5.12
529.548	5.17
529.895	5
530.242	4.94
530.588	4.86
530.935	4.77
531.282	4.82
531.628	4.91
531.975	4.9
532.321	4.92
532.667	4.98
533.014	5.03
533.36	5.04
533.706	5.09
534.052	5.14
534.399	5.1
534.745	5.02
535.091	4.94
535.437	4.9
535.783	4.86
536.129	4.9
536.474	4.99
536.82	4.94
537.166	5.12
537.512	5.07
537.857	5.02
538.203	5.09
538.549	5.04
538.894	4.94
539.239	4.95
539.585	5
539.93	5.16
540.276	5.17
540.621	5.19
540.966	5.16
541.311	5.14
541.656	5.06
542.001	5.15
542.346	5.03
542.691	5.16
543.036	5.02
543.381	4.89
543.726	4.83
544.071	4.89
544.415	4.86
544.76	4.86
545.105	4.88
545.449	4.91
545.794	5.04
546.138	5.03
546.483	5.02
546.827	4.93
547.171	4.97
547.516	5.06
547.86	5.15
548.204	5.06
548.548	5.08
548.892	5.04
549.236	4.99
549.58	5.06
549.924	5.11
550.268	5.1
550.612	5.2
550.956	5.11
551.3	5.18
551.643	5.08
551.987	5.16
552.33	5.27
552.674	5.17
553.017	4.85
553.361	5.11
553.704	5.18
554.048	5.22
554.391	5.17
554.734	5.14
555.077	5.05
555.42	5.05
555.764	5.05
556.107	4.92
556.45	4.93
556.793	5.04
557.135	5.15
557.478	4.99
557.821	5.08
558.164	5.12
558.507	5.25
558.849	5.05
559.192	5.09
559.534	5.26
559.877	5.17
560.219	5.2
560.562	5.23
560.904	5.11
561.246	5.34
561.589	5.15
561.931	5.18
562.273	4.99
562.615	5
562.957	5.07
563.299	5.09
563.641	5.09
563.983	5.21
564.325	5.01
564.667	5.1
565.008	5.15
565.35	5.02
565.692	5.19
566.033	5.11
566.375	5.01
566.716	5.19
567.058	5.17
567.399	5.16
567.741	5.27
568.082	4.88
568.423	5.02
568.764	5.24
569.105	5
569.447	5.04
569.788	4.87
570.129	5.09
570.47	5.01
570.811	4.92
571.151	5.16
571.492	4.99
571.833	4.92
572.174	4.95
572.514	5.02
572.855	4.95
573.195	4.65
573.536	5.11
573.876	4.91
574.217	4.93
574.557	4.93
574.898	5.08
575.238	4.92
575.578	5.06
575.918	4.91
576.258	4.94
576.598	4.91
576.938	5.13
577.278	5
577.618	4.83
577.958	5.02
578.298	5.14
578.638	4.81
578.977	5.02
579.317	5.02
579.657	5.18
579.996	5.03
580.336	5.12
580.675	4.99
581.014	4.87
581.354	4.81
581.693	5.12
582.032	5.11
582.372	5.06
582.711	5.08
583.05	5.03
583.389	4.89
583.728	4.97
584.067	4.92
584.406	5.01
584.745	4.81
585.083	5.32
585.422	5.12
585.761	5.03
586.1	5.06
586.438	5.15
586.777	4.84
587.115	5.01
587.454	4.93
587.792	5.16
588.13	5.08
588.469	4.76
588.807	5.02
589.145	4.89
589.483	4.83
589.821	5.17
590.159	4.72
590.497	4.99
590.835	4.91
591.173	4.98
591.511	4.85
591.849	4.99
592.187	4.91
592.524	5.04
592.862	5.05
593.2	4.98
593.537	4.91
593.875	4.88
594.212	4.94
594.55	5.12
594.887	4.78
595.224	4.89
595.561	5.08
595.899	4.98
596.236	5.03
596.573	5.02
596.91	4.94
597.247	4.73
597.584	4.91
597.921	5.12
598.258	4.99
598.594	5
598.931	4.75
599.268	4.84
599.604	4.96
599.941	4.91
600.277	4.67
600.614	4.81
600.95	4.97
601.287	4.65
601.623	4.96
601.959	4.73
602.296	5.11
602.632	4.61
602.968	4.73
603.304	4.84
603.64	4.6
603.976	4.82
604.312	4.75
604.648	4.82
604.984	4.84
605.319	4.73
605.655	4.72
605.991	4.9
606.326	5.04
606.662	4.66
606.998	4.81
607.333	4.87
607.668	4.9
608.004	4.8
608.339	4.72
608.674	4.78
609.01	4.74
609.345	4.99
609.68	4.89
610.015	4.96
610.35	4.82
610.685	4.99
611.02	4.77
611.355	4.97
611.689	4.71
612.024	4.84
612.359	4.66
612.694	4.61
613.028	4.77
613.363	4.8
613.697	4.74
614.032	4.7
614.366	4.72
614.7	4.85
615.035	4.85
615.369	4.69
615.703	4.62
616.037	4.95
616.371	4.93
616.705	4.86
617.039	5.12
617.373	4.53
617.707	4.73
618.041	4.67
618.375	4.91
618.709	4.7
619.042	4.91
619.376	4.79
619.71	4.96
620.043	4.68
620.377	4.48
620.71	4.84
621.043	5.1
621.377	4.56
621.71	4.8
622.043	4.9
622.376	4.89
622.709	4.9
623.043	4.62
623.376	5.06
623.709	5.01
624.041	4.44
624.374	5.14
624.707	5.13
625.04	5.25
625.373	4.5
625.705	4.81
626.038	4.71
626.37	4.79
626.703	4.97
627.035	4.62
627.368	4.82
627.7	4.98
628.032	4.76
628.365	4.79
628.697	4.87
629.029	4.78
629.361	4.81
629.693	4.62
630.025	4.65
630.357	4.71
630.689	4.76
631.021	4.79
631.353	4.65
631.684	4.69
632.016	4.89
632.348	4.91
632.679	4.52
633.011	4.58
633.342	4.88
633.674	5.05
634.005	4.45
634.336	4.9
634.668	4.86
634.999	4.63
635.33	4.85
635.661	4.59
635.992	4.7
636.323	4.45
636.654	4.62
636.985	4.57
637.316	4.68
637.647	5.02
637.977	4.48
638.308	4.94
638.639	4.63
638.969	4.58
639.3	4.88
639.63	5.1
639.961	4.61
640.291	4.56
640.622	5.08
640.952	4.81
641.282	4.89
641.612	4.51
641.943	4.94
642.273	4.66
642.603	4.36
642.933	4.77
643.263	4.06
643.592	4.92
643.922	4.57
644.252	4.57
644.582	5.04
644.911	5.2
645.241	4.82
645.571	4.61
645.9	4.94
646.23	4.96
646.559	4.88
646.888	5.07
647.218	4.65
647.547	4.55
647.876	4.7
648.205	4.81
648.534	5.01
648.863	5.21
649.192	4.27
649.521	4.57
649.85	5.21
650.179	4.79
650.508	4.16
650.837	4.7
651.165	5.02
651.494	4.74
651.822	4.72
652.151	4.4
652.479	4.55
652.808	4.45
653.136	4.64
653.465	4.64
653.793	4.34
654.121	4.83
654.449	4.68
654.777	5.06
655.105	5.13
655.433	4.94
655.761	5.1
656.089	4.15
656.417	4.69
656.745	4.97
657.073	4.63
657.4	5.3
657.728	4.88
658.056	4.55
658.383	5.36
658.711	4.56
659.038	4.73
659.365	4.75
659.693	4
660.02	4.78
660.347	5.35
660.674	4.71
661.001	4.37
661.329	4.32
661.656	4.57
661.982	4.59
662.309	4.91
662.636	4.65
662.963	4.72
663.29	5.14
663.616	4.69
663.943	4.93
664.27	4.62
664.596	4.39
664.923	4.59
665.249	4.8
665.576	4.33
665.902	4.56
666.228	4.8
666.554	4.73
666.881	5.06
667.207	4.7
667.533	4.66
667.859	4.97
668.185	4.86
668.511	4.91
668.837	4.41
669.162	4.62
669.488	4.89
669.814	4.4
670.139	5.03
670.465	5.02
670.791	4.89
671.116	4.28
671.442	5.34
671.767	4.55
672.092	5.2
672.418	5.34
672.743	5.07
673.068	4.85
673.393	4.57
673.718	4.71
674.043	5.19
674.368	4.91
674.693	4.44
675.018	4.47
675.343	4.78
675.667	4.84
675.992	5.08
676.317	5.29
676.641	4.53
676.966	4.45
677.29	4.48
677.615	4.95
677.939	5.4
678.264	4.78
678.588	5.78
678.912	4.72
679.236	4.91
679.56	5.27
679.885	5.05
680.209	5.5
680.532	4.53
680.856	4.68
681.18	4.91
681.504	4.98
681.828	4.97
682.152	4.33
682.475	5.34
682.799	4.84
683.122	4.65
683.446	4.79
683.769	5.02
684.093	4.99
684.416	4.92
684.739	5.01
685.062	5.64
685.386	4.65
685.709	4.47
686.032	4.96
686.355	5.01
686.678	4.9
687.001	4.79
687.324	4.79
687.646	4.87
687.969	5.54
688.292	5.21
688.614	5.25
688.937	5.36
689.26	4.7
689.582	5.25
689.904	5.3
690.227	5.45
690.549	5.46
690.871	5.18
691.194	5.25
691.516	4.82
691.838	4.8
692.16	4.78
692.482	5.42
692.804	4.93
693.126	4.28
693.448	5.81
693.769	4.77
