Data from 0150_forehead_Reflection__2__93.txt Node

Date: Fri Sep 22 21:01:57 CDT 2023
User: ToomeyLab
Spectrometer: FLMS14357
Trigger mode: 0
Integration Time (sec): 1.000000E-2
Scans to average: 100
Electric dark correction enabled: true
Nonlinearity correction enabled: false
Boxcar width: 0
XAxis mode: Wavelengths
Number of Pixels in Spectrum: 2048
>>>>>Begin Spectral Data<<<<<
189.047	122.12
189.435	122.12
189.823	122.12
190.211	-49.03
190.599	-203.72
190.987	130.47
191.375	0.73
191.763	221.66
192.151	102.13
192.538	-127.56
192.926	58.39
193.314	-1035.9
193.702	121.72
194.089	-20.12
194.477	131.02
194.864	506.67
195.252	57.45
195.639	830.77
196.027	252.23
196.414	-16.49
196.801	130.12
197.189	71.13
197.576	32.99
197.963	37.86
198.351	74.81
198.738	16.54
199.125	11.74
199.512	75.91
199.899	40.17
200.286	18.59
200.673	6.03
201.06	7.95
201.447	44.03
201.833	40.16
202.22	59.91
202.607	54.12
202.994	58.73
203.38	41.32
203.767	41.48
204.154	41.31
204.54	32.19
204.927	18.94
205.313	22.87
205.699	74.16
206.086	48.06
206.472	64.77
206.858	32.82
207.245	-0.42
207.631	44.39
208.017	31.98
208.403	40.7
208.789	36.14
209.175	51.52
209.561	57.18
209.947	52.77
210.333	52.61
210.719	30.17
211.105	62.55
211.491	22.78
211.876	44.38
212.262	35.43
212.648	34.89
213.034	39.32
213.419	32.52
213.805	7.21
214.19	23.13
214.576	50.58
214.961	67.04
215.346	27.32
215.732	60.79
216.117	13.51
216.502	41.96
216.888	25.61
217.273	61.79
217.658	35.11
218.043	29.01
218.428	28.12
218.813	12.15
219.198	9.3
219.583	4.86
219.968	21.63
220.353	33.16
220.738	25.62
221.122	22.16
221.507	16.68
221.892	15.52
222.276	27.5
222.661	-10.66
223.046	24.7
223.43	30.5
223.815	16.9
224.199	21.51
224.583	17.11
224.968	19.94
225.352	7.23
225.736	19.05
226.121	13.67
226.505	16.11
226.889	12.59
227.273	6.97
227.657	11.41
228.041	4.13
228.425	12.64
228.809	6.06
229.193	5.08
229.577	10.55
229.961	6.26
230.344	7.32
230.728	5.18
231.112	5.17
231.495	4.8
231.879	4.49
232.263	5.81
232.646	5.11
233.03	3.97
233.413	5.34
233.797	5.2
234.18	5.18
234.563	7.72
234.946	8.88
235.33	2.76
235.713	3.74
236.096	5.68
236.479	5.56
236.862	8.51
237.245	5.2
237.628	6.31
238.011	6.71
238.394	6.72
238.777	7.76
239.16	6.42
239.543	6.97
239.925	6.96
240.308	5.95
240.691	7.66
241.073	5.63
241.456	6.93
241.838	6.4
242.221	6.45
242.603	5.67
242.986	4.94
243.368	4.01
243.75	4.92
244.133	5.89
244.515	4.46
244.897	4.27
245.279	4.75
245.661	4.75
246.043	4.95
246.425	4.03
246.807	5.57
247.189	4.13
247.571	5.52
247.953	5.8
248.335	4.67
248.717	4.44
249.098	4.57
249.48	4.35
249.862	4.26
250.243	4.33
250.625	4.61
251.006	4.78
251.388	4.86
251.769	4.58
252.151	4.62
252.532	5.32
252.913	6.06
253.295	6.34
253.676	4.94
254.057	4.67
254.438	4.85
254.819	4.73
255.2	5.04
255.581	4.94
255.962	6.03
256.343	4.57
256.724	5.01
257.105	6.27
257.486	6
257.867	5.1
258.247	5.46
258.628	6.71
259.009	5.98
259.389	4.9
259.77	4.98
260.15	5.25
260.531	4.12
260.911	4.56
261.292	4.57
261.672	4.06
262.052	4.46
262.432	4.26
262.813	4.46
263.193	4.12
263.573	4.91
263.953	4.97
264.333	4.8
264.713	4.64
265.093	4.9
265.473	4.6
265.853	4.97
266.233	4.97
266.612	4.95
266.992	5.16
267.372	4.91
267.752	5.33
268.131	5.22
268.511	4.49
268.89	4.95
269.27	4.6
269.649	4.48
270.029	4.77
270.408	4.88
270.787	5.01
271.167	4.68
271.546	4.75
271.925	4.81
272.304	4.67
272.683	4.92
273.062	5.44
273.441	4.96
273.82	5.21
274.199	4.89
274.578	4.71
274.957	4.7
275.336	4.55
275.715	4.74
276.093	4.38
276.472	4.12
276.851	5.22
277.229	4.38
277.608	5.17
277.986	4.47
278.365	5.16
278.743	4.73
279.122	4.62
279.5	4.84
279.878	4.37
280.257	5.29
280.635	4.91
281.013	5.48
281.391	4.09
281.769	4.73
282.147	5.61
282.525	5.33
282.903	4.96
283.281	4.94
283.659	4.73
284.037	4.37
284.415	4.58
284.792	4.7
285.17	5.08
285.548	5.18
285.925	5.02
286.303	4.8
286.68	4.55
287.058	4.24
287.435	4.66
287.813	4.59
288.19	4.56
288.567	4.61
288.945	4.66
289.322	4.44
289.699	4.98
290.076	5.3
290.453	4.7
290.83	4.89
291.207	4.82
291.584	4.74
291.961	5.03
292.338	4.92
292.715	4.94
293.092	5
293.469	5.01
293.845	5.13
294.222	5.3
294.599	5.83
294.975	6.25
295.352	5.35
295.728	5.2
296.105	5.8
296.481	5.39
296.858	5.6
297.234	5.46
297.61	5.4
297.986	5.77
298.363	5.75
298.739	5.58
299.115	5.68
299.491	5.56
299.867	5.86
300.243	5.51
300.619	5.68
300.995	5.49
301.371	6.2
301.746	6.23
302.122	6.2
302.498	6.04
302.874	5.8
303.249	6.32
303.625	5.72
304	6.34
304.376	6.3
304.751	6.73
305.127	6.03
305.502	6.55
305.878	6.32
306.253	6.62
306.628	6.71
307.003	6.9
307.378	6.43
307.754	6.68
308.129	6.86
308.504	7.03
308.879	6.49
309.254	6.69
309.629	7.19
310.003	7.08
310.378	7.93
310.753	7.19
311.128	6.81
311.502	7.47
311.877	7.09
312.252	6.9
312.626	7.41
313.001	7.54
313.375	8.08
313.75	7.31
314.124	7.85
314.498	7.44
314.873	7.81
315.247	8.2
315.621	8.09
315.995	7.84
316.369	8.03
316.743	8.19
317.117	8.39
317.491	8.6
317.865	8.53
318.239	8.76
318.613	8.46
318.987	8.14
319.361	8.14
319.734	8.41
320.108	8.76
320.482	8.63
320.855	8.47
321.229	9.13
321.602	8.78
321.976	8.38
322.349	8.55
322.723	8.94
323.096	9.14
323.469	9.4
323.843	9.38
324.216	9.55
324.589	9.47
324.962	8.82
325.335	9.17
325.708	9.08
326.081	9.58
326.454	8.77
326.827	9.3
327.2	9.53
327.573	10.07
327.945	9.57
328.318	9.49
328.691	9.9
329.063	9.2
329.436	9.99
329.809	9.83
330.181	9.72
330.553	9.94
330.926	9.97
331.298	9.99
331.671	10.06
332.043	9.24
332.415	9.93
332.787	10.03
333.159	10.42
333.532	9.81
333.904	10.16
334.276	10.17
334.648	10
335.02	10.44
335.391	10.25
335.763	11.08
336.135	10.94
336.507	10.86
336.879	10.52
337.25	10.68
337.622	10.9
337.993	11.03
338.365	10.79
338.736	11.09
339.108	11.22
339.479	11.14
339.851	10.55
340.222	10.83
340.593	10.68
340.964	10.67
341.336	10.82
341.707	10.82
342.078	11.28
342.449	11.64
342.82	10.9
343.191	10.98
343.562	11.18
343.933	11.2
344.303	11.82
344.674	12.05
345.045	11.72
345.416	12
345.786	11.58
346.157	11.52
346.527	12.02
346.898	11.59
347.268	11.89
347.639	11.8
348.009	11.87
348.38	12.06
348.75	12.2
349.12	12.55
349.49	12.27
349.861	12.32
350.231	11.93
350.601	12.44
350.971	12.51
351.341	12.72
351.711	12.48
352.081	12.71
352.45	12.51
352.82	13.11
353.19	13.05
353.56	12.67
353.929	13.12
354.299	12.93
354.669	13.01
355.038	13.05
355.408	13.11
355.777	13.23
356.147	12.93
356.516	13.4
356.885	13.26
357.254	13.47
357.624	13.04
357.993	13.42
358.362	13.23
358.731	13.24
359.1	13.64
359.469	13.72
359.838	13.45
360.207	13.32
360.576	13.68
360.945	13.46
361.314	13.57
361.682	13.91
362.051	13.85
362.42	13.79
362.788	14.08
363.157	13.99
363.525	13.53
363.894	14.03
364.262	13.65
364.631	13.86
364.999	13.96
365.367	14.48
365.735	14.28
366.104	14.41
366.472	14.56
366.84	14.35
367.208	14.81
367.576	14.44
367.944	14.58
368.312	14.82
368.68	14.99
369.048	14.86
369.416	15.08
369.783	14.81
370.151	15.14
370.519	15.11
370.886	15.28
371.254	15.38
371.621	15.29
371.989	15.38
372.356	15.34
372.724	15.67
373.091	15.5
373.458	15.87
373.826	15.91
374.193	15.58
374.56	15.81
374.927	15.59
375.294	15.6
375.661	15.79
376.028	16.26
376.395	16.48
376.762	15.69
377.129	16.35
377.496	16.44
377.863	16.32
378.229	16.34
378.596	16.42
378.963	16.6
379.329	16.13
379.696	16.49
380.062	16.26
380.429	16.58
380.795	16.65
381.161	16.49
381.528	16.92
381.894	16.68
382.26	16.63
382.626	17.15
382.993	17.05
383.359	16.89
383.725	17.06
384.091	17.41
384.457	16.94
384.823	17.31
385.188	17.58
385.554	17.58
385.92	17.79
386.286	17.32
386.651	17.46
387.017	17.68
387.383	17.5
387.748	17.53
388.114	17.53
388.479	17.8
388.845	17.61
389.21	17.92
389.575	18.29
389.94	17.89
390.306	17.92
390.671	18.49
391.036	17.92
391.401	18.33
391.766	18.51
392.131	18.42
392.496	18.23
392.861	18.35
393.226	18.73
393.591	18.53
393.956	18.81
394.32	18.51
394.685	18.71
395.05	18.84
395.414	18.98
395.779	18.8
396.143	19.05
396.508	18.97
396.872	19.12
397.236	19.16
397.601	18.98
397.965	19.12
398.329	19.48
398.694	19.42
399.058	19.62
399.422	19.46
399.786	19.57
400.15	19.64
400.514	19.75
400.878	19.78
401.242	19.58
401.605	19.7
401.969	19.86
402.333	20.12
402.697	19.83
403.06	20.07
403.424	20.06
403.787	20.29
404.151	20.25
404.514	20.55
404.878	20.42
405.241	20.63
405.604	20.56
405.968	20.65
406.331	20.39
406.694	20.55
407.057	20.34
407.42	20.64
407.783	20.68
408.146	21.01
408.509	20.88
408.872	20.87
409.235	21.03
409.598	21.17
409.961	21.15
410.323	21.23
410.686	21.27
411.049	21.51
411.411	21.65
411.774	21.55
412.136	21.31
412.499	21.54
412.861	21.42
413.223	21.84
413.586	21.67
413.948	21.99
414.31	22
414.672	21.97
415.035	22
415.397	22.22
415.759	22.39
416.121	22.19
416.483	21.95
416.845	21.92
417.206	22.02
417.568	22.42
417.93	22.4
418.292	22.5
418.653	22.4
419.015	22.6
419.377	22.57
419.738	22.44
420.1	22.47
420.461	22.41
420.822	22.51
421.184	22.43
421.545	22.54
421.906	22.43
422.267	22.4
422.629	22.69
422.99	22.52
423.351	22.38
423.712	22.56
424.073	22.57
424.434	22.94
424.795	22.96
425.155	23.19
425.516	23.03
425.877	23.01
426.238	22.94
426.598	23.03
426.959	23.09
427.32	23.37
427.68	23.2
428.041	23.34
428.401	23.54
428.761	23.87
429.122	24
429.482	24.01
429.842	24.21
430.202	24.2
430.563	24.2
430.923	24.29
431.283	24.45
431.643	24.58
432.003	24.55
432.363	24.71
432.722	24.84
433.082	24.71
433.442	24.66
433.802	24.95
434.161	24.8
434.521	24.79
434.881	24.55
435.24	24.62
435.6	24.66
435.959	24.7
436.319	25.02
436.678	25.24
437.037	25.44
437.396	25.19
437.756	25.54
438.115	25.54
438.474	25.65
438.833	25.98
439.192	25.43
439.551	25.93
439.91	25.79
440.269	25.95
440.628	25.54
440.987	25.72
441.345	25.93
441.704	25.86
442.063	25.68
442.421	25.67
442.78	25.76
443.138	25.94
443.497	25.9
443.855	26.14
444.214	26.01
444.572	26.26
444.93	26.57
445.288	26.46
445.647	26.79
446.005	26.72
446.363	26.82
446.721	26.6
447.079	26.49
447.437	26.47
447.795	26.69
448.153	26.56
448.51	26.51
448.868	26.49
449.226	26.56
449.584	26.6
449.941	26.83
450.299	27.12
450.656	27.31
451.014	27.44
451.371	27.3
451.729	27.61
452.086	27.59
452.443	27.86
452.801	27.96
453.158	28
453.515	27.96
453.872	27.88
454.229	27.81
454.586	27.93
454.943	27.9
455.3	28.15
455.657	28.11
456.014	28.34
456.371	28.37
456.727	28.57
457.084	28.53
457.441	28.58
457.797	28.46
458.154	28.79
458.51	28.95
458.867	28.98
459.223	28.79
459.58	28.89
459.936	28.89
460.292	28.85
460.648	28.9
461.005	28.82
461.361	28.86
461.717	28.64
462.073	28.56
462.429	28.48
462.785	28.67
463.141	29.19
463.496	29.36
463.852	29.42
464.208	29.46
464.564	29.65
464.919	29.86
465.275	29.98
465.631	30.02
465.986	30.13
466.342	30.09
466.697	30.2
467.052	30.21
467.408	30.39
467.763	30.46
468.118	30.25
468.473	30.47
468.829	30.57
469.184	30.62
469.539	30.36
469.894	30.45
470.249	30.66
470.603	30.62
470.958	30.63
471.313	30.86
471.668	30.86
472.023	30.75
472.377	30.92
472.732	31.2
473.086	31.25
473.441	30.97
473.795	31.44
474.15	31.4
474.504	31.33
474.859	31.26
475.213	31.36
475.567	31.56
475.921	31.48
476.275	31.75
476.63	31.7
476.984	31.72
477.338	31.7
477.692	31.97
478.045	32.04
478.399	32.05
478.753	31.86
479.107	31.89
479.461	31.98
479.814	32.04
480.168	32.11
480.521	32.14
480.875	32.14
481.228	32.34
481.582	32.31
481.935	32.38
482.289	32.42
482.642	32.38
482.995	32.47
483.348	32.53
483.701	32.49
484.055	32.24
484.408	32.3
484.761	32.21
485.114	32.03
485.466	31.83
485.819	31.38
486.172	31.33
486.525	31.64
486.878	31.84
487.23	31.96
487.583	32.14
487.936	32.37
488.288	32.57
488.641	32.74
488.993	32.32
489.345	32.35
489.698	32.18
490.05	32.29
490.402	32.28
490.754	32.4
491.107	32.62
491.459	32.92
491.811	33.29
492.163	33.24
492.515	33.46
492.866	33.54
493.218	33.51
493.57	33.17
493.922	32.92
494.274	33
494.625	33.25
494.977	33.54
495.328	33.87
495.68	34.02
496.031	34.28
496.383	34.64
496.734	34.79
497.086	34.81
497.437	34.84
497.788	34.68
498.139	34.9
498.49	34.89
498.842	34.8
499.193	34.56
499.544	34.7
499.894	34.84
500.245	34.99
500.596	35.09
500.947	35.21
501.298	35.32
501.648	35.37
501.999	35.49
502.35	35.72
502.7	35.71
503.051	35.87
503.401	35.63
503.752	35.84
504.102	36.04
504.452	35.86
504.803	36.02
505.153	36.06
505.503	36.21
505.853	36.31
506.203	36.21
506.553	36.22
506.903	36.38
507.253	36.57
507.603	36.44
507.953	36.57
508.303	36.45
508.652	36.69
509.002	36.7
509.352	36.64
509.701	36.81
510.051	36.68
510.4	36.73
510.75	36.7
511.099	36.54
511.449	36.68
511.798	36.68
512.147	36.6
512.496	36.99
512.846	36.96
513.195	37.1
513.544	37.24
513.893	37.32
514.242	37.22
514.591	37.21
514.939	37.3
515.288	37.31
515.637	37.45
515.986	37.52
516.334	37.69
516.683	37.61
517.032	38.1
517.38	38.05
517.729	38.1
518.077	38.25
518.426	38.02
518.774	38.01
519.122	38.07
519.47	38.3
519.819	38.25
520.167	38
520.515	37.85
520.863	37.63
521.211	37.75
521.559	37.87
521.907	37.93
522.255	38.2
522.602	38.32
522.95	38.56
523.298	38.65
523.645	38.88
523.993	38.92
524.341	38.85
524.688	38.87
525.036	39.19
525.383	39.07
525.73	39.29
526.078	39.43
526.425	39.49
526.772	39.41
527.119	39.04
527.466	39.04
527.814	38.88
528.161	38.75
528.508	38.93
528.854	39.09
529.201	39.29
529.548	39.27
529.895	39.25
530.242	38.71
530.588	38.4
530.935	38.4
531.282	38.59
531.628	38.97
531.975	38.89
532.321	39.06
532.667	39.29
533.014	39.47
533.36	39.7
533.706	39.8
534.052	40.18
534.399	40.05
534.745	39.79
535.091	39.68
535.437	39.36
535.783	39.41
536.129	39.64
536.474	39.93
536.82	40.13
537.166	40.33
537.512	40.51
537.857	40.62
538.203	40.68
538.549	40.43
538.894	40.39
539.239	40.63
539.585	40.7
539.93	40.89
540.276	41.12
540.621	41.38
540.966	41.54
541.311	41.57
541.656	41.44
542.001	41.67
542.346	41.51
542.691	41.39
543.036	41.09
543.381	40.67
543.726	40.44
544.071	40.64
544.415	40.96
544.76	41.23
545.105	41.26
545.449	41.35
545.794	41.58
546.138	41.69
546.483	42.01
546.827	42.08
547.171	42.38
547.516	42.36
547.86	42.36
548.204	42.57
548.548	42.4
548.892	42.19
549.236	42.38
549.58	42.28
549.924	42.61
550.268	42.83
550.612	43.03
550.956	43.21
551.3	43.41
551.643	43.39
551.987	43.58
552.33	43.44
552.674	43.64
553.017	43.64
553.361	43.92
553.704	44.07
554.048	44.09
554.391	44.13
554.734	43.95
555.077	43.88
555.42	43.72
555.764	44.04
556.107	43.77
556.45	44.31
556.793	44.23
557.135	44.15
557.478	44.54
557.821	44.74
558.164	44.53
558.507	44.73
558.849	44.65
559.192	44.71
559.534	45
559.877	44.73
560.219	44.85
560.562	45.11
560.904	45.25
561.246	45.45
561.589	45.42
561.931	45.13
562.273	45.25
562.615	45.17
562.957	45.45
563.299	45.1
563.641	45.2
563.983	45.42
564.325	45.64
564.667	45.57
565.008	45.7
565.35	45.8
565.692	45.86
566.033	45.93
566.375	45.77
566.716	45.92
567.058	45.8
567.399	46.08
567.741	45.93
568.082	45.85
568.423	45.55
568.764	45.91
569.105	45.57
569.447	45.9
569.788	46.09
570.129	46.36
570.47	46.39
570.811	46.3
571.151	46.59
571.492	46.48
571.833	46.1
572.174	46.56
572.514	46.68
572.855	46.51
573.195	46.74
573.536	46.72
573.876	46.63
574.217	46.66
574.557	46.77
574.898	46.6
575.238	46.94
575.578	46.85
575.918	47.02
576.258	47.01
576.598	47.11
576.938	47.29
577.278	47.53
577.618	47.3
577.958	47.44
578.298	47.36
578.638	47.6
578.977	47.65
579.317	47.74
579.657	47.8
579.996	47.56
580.336	48.03
580.675	48.28
581.014	48.3
581.354	48.19
581.693	48.43
582.032	48.21
582.372	48.43
582.711	48.41
583.05	48.53
583.389	48.53
583.728	48.44
584.067	48.45
584.406	48.72
584.745	48.79
585.083	49.06
585.422	49.22
585.761	48.87
586.1	49.11
586.438	48.9
586.777	48.97
587.115	49.11
587.454	48.89
587.792	49.28
588.13	49.06
588.469	49.43
588.807	49.7
589.145	49.72
589.483	49.78
589.821	49.61
590.159	49.52
590.497	49.61
590.835	49.9
591.173	49.95
591.511	49.69
591.849	49.84
592.187	49.67
592.524	49.82
592.862	49.8
593.2	49.84
593.537	49.95
593.875	50.09
594.212	49.97
594.55	50.33
594.887	50.68
595.224	50.69
595.561	50.6
595.899	50.38
596.236	50.49
596.573	50.41
596.91	50.22
597.247	50.27
597.584	50.59
597.921	50.67
598.258	50.36
598.594	50.48
598.931	50.52
599.268	50.46
599.604	50.34
599.941	50.7
600.277	50.48
600.614	50.7
600.95	50.78
601.287	50.84
601.623	51.16
601.959	51.4
602.296	51.63
602.632	51.02
602.968	51.2
603.304	51.44
603.64	51.56
603.976	51.84
604.312	51.58
604.648	51.91
604.984	51.51
605.319	51.5
605.655	51.29
605.991	51.56
606.326	51.57
606.662	51.4
606.998	51.42
607.333	51.43
607.668	51.3
608.004	51.41
608.339	51.76
608.674	51.71
609.01	52.01
609.345	52.21
609.68	52.49
610.015	52.2
610.35	52.7
610.685	52.62
611.02	52.43
611.355	52.44
611.689	52.07
612.024	52.22
612.359	52.38
612.694	52.55
613.028	52.19
613.363	52.69
613.697	52.72
614.032	52.97
614.366	52.94
614.7	53.31
615.035	53.15
615.369	53.46
615.703	53.44
616.037	53.19
616.371	53.54
616.705	53.75
617.039	53.49
617.373	53.54
617.707	53.69
618.041	53.46
618.375	53.48
618.709	53.51
619.042	53.07
619.376	53.96
619.71	53.93
620.043	54.03
620.377	53.85
620.71	53.96
621.043	54.13
621.377	53.84
621.71	53.73
622.043	53.94
622.376	54.65
622.709	54.13
623.043	54.07
623.376	54.52
623.709	54.82
624.041	54.72
624.374	54.69
624.707	54.75
625.04	55.02
625.373	54.68
625.705	54.54
626.038	54.79
626.37	54.45
626.703	54.72
627.035	55.12
627.368	55.16
627.7	54.69
628.032	54.97
628.365	54.48
628.697	54.8
629.029	55.24
629.361	54.71
629.693	55.06
630.025	55.16
630.357	54.8
630.689	55.07
631.021	55.1
631.353	55.46
631.684	55.24
632.016	55.75
632.348	55.38
632.679	55.92
633.011	55.4
633.342	55.61
633.674	56
634.005	55.63
634.336	55.89
634.668	56.33
634.999	56.03
635.33	56.43
635.661	56.1
635.992	55.85
636.323	55.96
636.654	56.37
636.985	55.88
637.316	55.9
637.647	56.37
637.977	56.35
638.308	55.99
638.639	56.66
638.969	56.55
639.3	56.3
639.63	56.88
639.961	56.36
640.291	56.59
640.622	56.77
640.952	57.12
641.282	57.03
641.612	56.93
641.943	56.97
642.273	56.8
642.603	56.89
642.933	57.02
643.263	56.84
643.592	57.27
643.922	57.67
644.252	57.17
644.582	57.43
644.911	57.24
645.241	57.83
645.571	57.12
645.9	57.36
646.23	57.88
646.559	57.33
646.888	57.71
647.218	57.04
647.547	58.11
647.876	57.26
648.205	57.68
648.534	58.52
648.863	57.79
649.192	58.09
649.521	57.91
649.85	58.2
650.179	57.65
650.508	58.11
650.837	58.08
651.165	58.31
651.494	57.84
651.822	57.82
652.151	57.97
652.479	57.82
652.808	58.63
653.136	58.1
653.465	58.8
653.793	58.52
654.121	58.51
654.449	58.18
654.777	58.52
655.105	58.27
655.433	58.59
655.761	58.98
656.089	58.96
656.417	58.71
656.745	58.94
657.073	59.11
657.4	58.54
657.728	58.66
658.056	59.31
658.383	58.92
658.711	59.06
659.038	59.1
659.365	58.66
659.693	58.83
660.02	59.07
660.347	59.48
660.674	59.08
661.001	58.94
661.329	59.07
661.656	58.72
661.982	58.98
662.309	59.18
662.636	58.9
662.963	59.32
663.29	59.52
663.616	59.55
663.943	59.45
664.27	59.47
664.596	60.14
664.923	59.22
665.249	59.85
665.576	60.32
665.902	60.41
666.228	59.74
666.554	59.27
666.881	59.6
667.207	60.41
667.533	60.75
667.859	59.74
668.185	60.37
668.511	59.76
668.837	60.01
669.162	59.96
669.488	60.3
669.814	59.89
670.139	60.36
670.465	60.3
