Data from 0150_forehead_Reflection__1__92.txt Node

Date: Fri Sep 22 21:01:44 CDT 2023
User: ToomeyLab
Spectrometer: FLMS14357
Trigger mode: 0
Integration Time (sec): 1.000000E-2
Scans to average: 100
Electric dark correction enabled: true
Nonlinearity correction enabled: false
Boxcar width: 0
XAxis mode: Wavelengths
Number of Pixels in Spectrum: 2048
>>>>>Begin Spectral Data<<<<<
189.047	55.14
189.435	55.14
189.823	55.14
190.211	124.16
190.599	-590.99
190.987	69.56
191.375	17.1
191.763	305.86
192.151	102.62
192.538	-74.48
192.926	65.48
193.314	907.05
193.702	83.06
194.089	56.41
194.477	54.03
194.864	196.56
195.252	-34.33
195.639	883.46
196.027	-19.16
196.414	13.55
196.801	-103.57
197.189	-75.91
197.576	33.49
197.963	46.41
198.351	59.81
198.738	74.92
199.125	67.14
199.512	25
199.899	45.79
200.286	30.22
200.673	16.04
201.06	56.51
201.447	20.89
201.833	36.37
202.22	55.44
202.607	63.3
202.994	54.08
203.38	22.1
203.767	37.44
204.154	45.7
204.54	36.87
204.927	22.7
205.313	52.25
205.699	79.77
206.086	59.44
206.472	73.44
206.858	54.64
207.245	40.2
207.631	43.59
208.017	34.79
208.403	29.97
208.789	31.83
209.175	52.21
209.561	58.54
209.947	57.96
210.333	39.29
210.719	5.64
211.105	61.03
211.491	44.32
211.876	47.47
212.262	32
212.648	34.57
213.034	43.7
213.419	25.92
213.805	36.72
214.19	45.42
214.576	49.01
214.961	28.28
215.346	28.72
215.732	43.8
216.117	36.13
216.502	42.04
216.888	39.59
217.273	22.15
217.658	25.75
218.043	44.02
218.428	31.9
218.813	5.96
219.198	30.74
219.583	35.8
219.968	15.63
220.353	36.21
220.738	36.62
221.122	22.19
221.507	33.39
221.892	23.52
222.276	32.72
222.661	5.43
223.046	20.74
223.43	35.75
223.815	21.23
224.199	16.15
224.583	16.87
224.968	20.82
225.352	10.8
225.736	20.18
226.121	17.47
226.505	10.19
226.889	9.82
227.273	10.12
227.657	10.98
228.041	8.36
228.425	13.87
228.809	10.4
229.193	14.69
229.577	9.22
229.961	10.95
230.344	10.5
230.728	6.48
231.112	6.45
231.495	6.06
231.879	6.31
232.263	6.84
232.646	7.84
233.03	7.56
233.413	7.28
233.797	8.73
234.18	5.9
234.563	9.77
234.946	9.05
235.33	5.37
235.713	5.85
236.096	5.18
236.479	6.08
236.862	8.06
237.245	6.48
237.628	6.76
238.011	8.75
238.394	7.33
238.777	8.92
239.16	8.46
239.543	9.13
239.925	7.68
240.308	7.88
240.691	6.73
241.073	8.1
241.456	7.77
241.838	5.46
242.221	6.89
242.603	5.85
242.986	5.22
243.368	5.96
243.75	6.55
244.133	6.31
244.515	5.25
244.897	4.89
245.279	5.4
245.661	5.37
246.043	6.78
246.425	5.54
246.807	7.25
247.189	4.3
247.571	5.71
247.953	5.42
248.335	5.21
248.717	5.38
249.098	5.22
249.48	5
249.862	4.99
250.243	4.94
250.625	5.36
251.006	5.2
251.388	5.32
251.769	6.08
252.151	5.23
252.532	6.74
252.913	6.32
253.295	7.11
253.676	5.22
254.057	5.72
254.438	5.94
254.819	5.03
255.2	5.29
255.581	5.64
255.962	5.88
256.343	6.3
256.724	5.66
257.105	6.36
257.486	6.16
257.867	5.22
258.247	6.49
258.628	7.25
259.009	6.67
259.389	5.15
259.77	6.4
260.15	6.38
260.531	5.52
260.911	5.23
261.292	4.96
261.672	4.79
262.052	5.17
262.432	5.03
262.813	5.01
263.193	4.81
263.573	5.73
263.953	5.02
264.333	5.22
264.713	5.85
265.093	5.21
265.473	5.4
265.853	5.3
266.233	5.79
266.612	6.24
266.992	6.18
267.372	5.23
267.752	5.65
268.131	5.36
268.511	4.52
268.89	5.24
269.27	5.39
269.649	5.2
270.029	4.92
270.408	5.56
270.787	4.76
271.167	5.01
271.546	5.45
271.925	5.15
272.304	4.84
272.683	5.76
273.062	5.68
273.441	4.93
273.82	5.63
274.199	4.82
274.578	5.25
274.957	5.08
275.336	4.73
275.715	5.18
276.093	5.08
276.472	4.68
276.851	5.07
277.229	4.95
277.608	5.46
277.986	5.28
278.365	5.44
278.743	5.48
279.122	5.16
279.5	6
279.878	4.9
280.257	5.67
280.635	4.83
281.013	5.64
281.391	4.89
281.769	5.74
282.147	5.27
282.525	5.34
282.903	5.39
283.281	5.49
283.659	5.09
284.037	4.98
284.415	5.46
284.792	5.2
285.17	4.92
285.548	6
285.925	5.77
286.303	5.17
286.68	4.32
287.058	4.9
287.435	4.88
287.813	4.93
288.19	4.6
288.567	5.08
288.945	4.78
289.322	4.95
289.699	4.72
290.076	5.06
290.453	5.23
290.83	4.77
291.207	5.17
291.584	4.8
291.961	4.91
292.338	5.38
292.715	5.34
293.092	5.3
293.469	4.84
293.845	4.91
294.222	5.17
294.599	5.38
294.975	5.29
295.352	6.03
295.728	5.3
296.105	5.47
296.481	5.29
296.858	5.59
297.234	5.68
297.61	5.92
297.986	5.75
298.363	5.56
298.739	5.77
299.115	5.6
299.491	5.21
299.867	5.63
300.243	5.44
300.619	5.35
300.995	5.59
301.371	5.79
301.746	5.78
302.122	5.52
302.498	5.71
302.874	5.46
303.249	5.91
303.625	5.66
304	6.29
304.376	5.96
304.751	6.24
305.127	6.25
305.502	6.69
305.878	6.46
306.253	6.03
306.628	6.09
307.003	6.46
307.378	6.1
307.754	6.28
308.129	5.69
308.504	6.73
308.879	6.5
309.254	6.7
309.629	7.07
310.003	6.93
310.378	6.88
310.753	6.2
311.128	6.54
311.502	6.49
311.877	6.11
312.252	6.94
312.626	6.46
313.001	6.7
313.375	6.83
313.75	6.95
314.124	7.29
314.498	6.56
314.873	6.94
315.247	6.88
315.621	6.95
315.995	7.32
316.369	6.87
316.743	6.83
317.117	7.57
317.491	7.88
317.865	7.08
318.239	7.67
318.613	7.71
318.987	7.04
319.361	7.29
319.734	7.3
320.108	7.46
320.482	7.81
320.855	7.69
321.229	8.19
321.602	7.89
321.976	7.91
322.349	8.18
322.723	8.21
323.096	8.12
323.469	8.26
323.843	8.24
324.216	8.36
324.589	8.2
324.962	8.54
325.335	8.24
325.708	8.02
326.081	8.54
326.454	7.96
326.827	8.29
327.2	8.11
327.573	8.52
327.945	8.06
328.318	8.76
328.691	8.58
329.063	8.41
329.436	8.43
329.809	8.37
330.181	8.69
330.553	8.43
330.926	8.61
331.298	9.18
331.671	9.11
332.043	8.91
332.415	8.48
332.787	9.14
333.159	9.14
333.532	8.43
333.904	9.04
334.276	9
334.648	8.58
335.02	9
335.391	9.08
335.763	9.3
336.135	9.62
336.507	9.43
336.879	9.26
337.25	9.19
337.622	9.32
337.993	9.48
338.365	9.62
338.736	9.45
339.108	10.07
339.479	9.38
339.851	9.55
340.222	9.23
340.593	9.68
340.964	9.88
341.336	9.63
341.707	9.94
342.078	10.05
342.449	10.12
342.82	9.58
343.191	9.4
343.562	9.66
343.933	10.05
344.303	10.18
344.674	10.06
345.045	10.14
345.416	10.62
345.786	10.35
346.157	10.5
346.527	10.2
346.898	10.22
347.268	10.18
347.639	10.48
348.009	10.42
348.38	10.89
348.75	10.35
349.12	10.46
349.49	10.68
349.861	10.68
350.231	10.98
350.601	11.15
350.971	11.15
351.341	10.71
351.711	10.58
352.081	10.88
352.45	10.71
352.82	11
353.19	11.18
353.56	11.57
353.929	11.02
354.299	10.92
354.669	10.99
355.038	11.12
355.408	11.17
355.777	11.6
356.147	11.55
356.516	11.67
356.885	11.3
357.254	11.82
357.624	11.2
357.993	11.73
358.362	11.85
358.731	11.65
359.1	11.68
359.469	11.83
359.838	11.66
360.207	11.78
360.576	11.9
360.945	11.59
361.314	11.53
361.682	11.96
362.051	12.38
362.42	11.81
362.788	11.99
363.157	12.37
363.525	11.95
363.894	11.9
364.262	12.07
364.631	12.13
364.999	12.12
365.367	12.54
365.735	12.47
366.104	12.38
366.472	12.72
366.84	12.41
367.208	12.66
367.576	12.83
367.944	12.95
368.312	12.97
368.68	12.82
369.048	13.13
369.416	12.89
369.783	12.88
370.151	12.79
370.519	13.07
370.886	13.11
371.254	13.28
371.621	12.97
371.989	12.98
372.356	13.6
372.724	13.37
373.091	13.46
373.458	13.32
373.826	13.66
374.193	13.34
374.56	13.69
374.927	13.6
375.294	13.61
375.661	13.78
376.028	13.91
376.395	13.8
376.762	13.89
377.129	14
377.496	14.31
377.863	14.29
378.229	14.56
378.596	14.03
378.963	14.23
379.329	14.36
379.696	14.65
380.062	14.5
380.429	14.39
380.795	14.61
381.161	14.24
381.528	14.52
381.894	14.32
382.26	14.63
382.626	14.5
382.993	14.73
383.359	14.64
383.725	14.63
384.091	15
384.457	14.96
384.823	15.06
385.188	15.02
385.554	15.02
385.92	15.1
386.286	15.06
386.651	15.23
387.017	15.14
387.383	15.22
387.748	15.46
388.114	15.25
388.479	15.59
388.845	15.55
389.21	15.6
389.575	15.74
389.94	15.54
390.306	15.9
390.671	16.02
391.036	15.51
391.401	15.97
391.766	16.01
392.131	15.71
392.496	16.11
392.861	15.99
393.226	16.17
393.591	16.06
393.956	16.3
394.32	16.03
394.685	16.03
395.05	16.45
395.414	16.24
395.779	16.34
396.143	16.53
396.508	16.39
396.872	16.56
397.236	16.48
397.601	16.41
397.965	16.5
398.329	16.55
398.694	16.81
399.058	16.77
399.422	16.73
399.786	17.36
400.15	17.07
400.514	17.28
400.878	17.08
401.242	17.31
401.605	17.32
401.969	16.99
402.333	17.42
402.697	17.15
403.06	17.22
403.424	17.46
403.787	17.75
404.151	17.76
404.514	17.85
404.878	17.87
405.241	17.79
405.604	17.75
405.968	17.96
406.331	17.95
406.694	17.77
407.057	17.79
407.42	17.9
407.783	18.08
408.146	17.96
408.509	18.14
408.872	18.2
409.235	18.04
409.598	18.39
409.961	18.43
410.323	18.36
410.686	18.53
411.049	18.52
411.411	18.86
411.774	18.75
412.136	18.82
412.499	18.54
412.861	18.87
413.223	18.75
413.586	18.89
413.948	19.07
414.31	19.08
414.672	19.01
415.035	18.83
415.397	19.42
415.759	19.54
416.121	19.37
416.483	19.19
416.845	19.3
417.206	19.35
417.568	19.42
417.93	19.34
418.292	19.44
418.653	19.41
419.015	19.41
419.377	19.41
419.738	19.64
420.1	19.52
420.461	19.55
420.822	19.6
421.184	19.64
421.545	19.69
421.906	19.73
422.267	19.55
422.629	19.8
422.99	19.77
423.351	19.66
423.712	19.72
424.073	19.67
424.434	20.01
424.795	19.87
425.155	20.07
425.516	19.97
425.877	20.11
426.238	19.99
426.598	20.04
426.959	20.03
427.32	20.21
427.68	20.36
428.041	20.3
428.401	20.43
428.761	20.78
429.122	20.83
429.482	20.91
429.842	20.91
430.202	21.17
430.563	21.04
430.923	21.18
431.283	21.45
431.643	21.34
432.003	21.36
432.363	21.43
432.722	21.52
433.082	21.71
433.442	21.57
433.802	21.54
434.161	21.56
434.521	21.63
434.881	21.67
435.24	21.58
435.6	21.63
435.959	21.76
436.319	21.79
436.678	21.9
437.037	22.06
437.396	22.03
437.756	22.23
438.115	22.17
438.474	22.33
438.833	22.35
439.192	22.2
439.551	22.51
439.91	22.49
440.269	22.43
440.628	22.24
440.987	22.47
441.345	22.43
441.704	22.52
442.063	22.46
442.421	22.47
442.78	22.64
443.138	22.65
443.497	22.5
443.855	22.79
444.214	22.79
444.572	22.85
444.93	23.12
445.288	23.11
445.647	23.44
446.005	23.27
446.363	23.35
446.721	23.18
447.079	23.18
447.437	23.3
447.795	23.42
448.153	23.23
448.51	23.18
448.868	23.07
449.226	23.38
449.584	23.42
449.941	23.21
450.299	23.72
450.656	23.78
451.014	23.79
451.371	23.84
451.729	23.96
452.086	24.08
452.443	24.31
452.801	24.33
453.158	24.11
453.515	24.46
453.872	24.3
454.229	24.56
454.586	24.54
454.943	24.42
455.3	24.38
455.657	24.74
456.014	24.79
456.371	24.84
456.727	25.03
457.084	24.91
457.441	24.96
457.797	25.16
458.154	25.07
458.51	25.05
458.867	25.28
459.223	25.04
459.58	25.6
459.936	25.24
460.292	25.45
460.648	25.51
461.005	25.11
461.361	25.35
461.717	25.05
462.073	25
462.429	24.94
462.785	25.09
463.141	25.32
463.496	25.57
463.852	25.67
464.208	25.8
464.564	26.01
464.919	26.05
465.275	26.15
465.631	26.32
465.986	26.21
466.342	26.25
466.697	26.45
467.052	26.36
467.408	26.43
467.763	26.63
468.118	26.54
468.473	26.4
468.829	26.67
469.184	26.51
469.539	26.74
469.894	26.76
470.249	26.64
470.603	26.77
470.958	26.75
471.313	27.03
471.668	27.18
472.023	27.09
472.377	27.06
472.732	27.16
473.086	27.32
473.441	26.99
473.795	27.4
474.15	27.3
474.504	27.38
474.859	27.62
475.213	27.28
475.567	27.54
475.921	27.55
476.275	27.79
476.63	27.75
476.984	27.67
477.338	27.88
477.692	27.97
478.045	28.08
478.399	28.23
478.753	27.83
479.107	28.04
479.461	28.03
479.814	28.04
480.168	28.27
480.521	28.04
480.875	28.14
481.228	28.31
481.582	28.16
481.935	28.35
482.289	28.35
482.642	28.33
482.995	28.32
483.348	28.45
483.701	28.48
484.055	28.37
484.408	28.41
484.761	28.22
485.114	28.12
485.466	27.77
485.819	27.52
486.172	27.6
486.525	27.62
486.878	27.66
487.23	27.79
487.583	27.88
487.936	28.2
488.288	28.32
488.641	28.43
488.993	28.23
489.345	28.36
489.698	28.31
490.05	28.25
490.402	28.26
490.754	28.24
491.107	28.55
491.459	28.67
491.811	28.91
492.163	29.16
492.515	29.29
492.866	29.27
493.218	29.27
493.57	28.96
493.922	28.95
494.274	28.84
494.625	28.98
494.977	29.22
495.328	29.47
495.68	29.6
496.031	30.02
496.383	30.21
496.734	30.25
497.086	30.56
497.437	30.38
497.788	30.57
498.139	30.36
498.49	30.63
498.842	30.46
499.193	30.4
499.544	30.47
499.894	30.42
500.245	30.61
500.596	30.78
500.947	30.75
501.298	30.75
501.648	31.09
501.999	31.07
502.35	31.18
502.7	31.22
503.051	31.46
503.401	31.35
503.752	31.34
504.102	31.63
504.452	31.44
504.803	31.58
505.153	31.51
505.503	32
505.853	31.89
506.203	31.69
506.553	31.82
506.903	31.9
507.253	31.87
507.603	32.03
507.953	32.02
508.303	31.89
508.652	32.19
509.002	32.38
509.352	32.42
509.701	32.31
510.051	32.27
510.4	32.17
510.75	32.25
511.099	32.08
511.449	32.35
511.798	32.38
512.147	32.23
512.496	32.49
512.846	32.49
513.195	32.54
513.544	32.66
513.893	32.72
514.242	32.58
514.591	32.77
514.939	32.84
515.288	32.73
515.637	32.93
515.986	32.89
516.334	33.18
516.683	33.07
517.032	33.39
517.38	33.45
517.729	33.5
518.077	33.46
518.426	33.47
518.774	33.42
519.122	33.45
519.47	33.65
519.819	33.39
520.167	33.43
520.515	33.18
520.863	33.29
521.211	33.3
521.559	33.28
521.907	33.51
522.255	33.53
522.602	33.55
522.95	33.81
523.298	33.91
523.645	34.12
523.993	34.23
524.341	34.29
524.688	34.29
525.036	34.22
525.383	34.56
525.73	34.59
526.078	34.45
526.425	34.6
526.772	34.76
527.119	34.43
527.466	34.1
527.814	34.15
528.161	34.11
528.508	34.08
528.854	34.21
529.201	34.25
529.548	34.29
529.895	34.35
530.242	34.07
530.588	33.82
530.935	33.83
531.282	34
531.628	33.98
531.975	34.02
532.321	34.12
532.667	34.45
533.014	34.73
533.36	34.77
533.706	35.01
534.052	35.16
534.399	35.05
534.745	34.99
535.091	34.89
535.437	34.69
535.783	34.61
536.129	34.85
536.474	35.01
536.82	35.2
537.166	35.14
537.512	35.41
537.857	35.51
538.203	35.76
538.549	35.58
538.894	35.51
539.239	35.6
539.585	35.8
539.93	35.65
540.276	36.05
540.621	36.38
540.966	36.25
541.311	36.4
541.656	36.42
542.001	36.56
542.346	36.43
542.691	36.39
543.036	36.1
543.381	35.99
543.726	35.69
544.071	35.83
544.415	35.9
544.76	35.98
545.105	36.13
545.449	36.09
545.794	36.5
546.138	36.63
546.483	36.57
546.827	36.81
547.171	37.01
547.516	37.21
547.86	37.28
548.204	37.38
548.548	37.38
548.892	37.08
549.236	37.12
549.58	37.38
549.924	37.44
550.268	37.62
550.612	37.85
550.956	38.09
551.3	38.08
551.643	38.08
551.987	38.28
552.33	38
552.674	38.31
553.017	38.37
553.361	38.37
553.704	38.62
554.048	38.65
554.391	38.74
554.734	38.7
555.077	38.61
555.42	38.66
555.764	38.81
556.107	38.77
556.45	38.9
556.793	38.97
557.135	38.89
557.478	39.04
557.821	39.23
558.164	39.23
558.507	39.27
558.849	39.6
559.192	39.44
559.534	39.59
559.877	39.63
560.219	39.53
560.562	39.72
560.904	39.84
561.246	39.97
561.589	39.8
561.931	39.88
562.273	39.71
562.615	39.71
562.957	39.71
563.299	39.87
563.641	39.82
563.983	40.06
564.325	40
564.667	40.17
565.008	40.16
565.35	40.32
565.692	40.32
566.033	40.35
566.375	40.34
566.716	40.5
567.058	40.41
567.399	40.59
567.741	40.54
568.082	40.49
568.423	40.07
568.764	40.78
569.105	40.14
569.447	40.57
569.788	40.56
570.129	40.86
570.47	40.84
570.811	40.82
571.151	41.14
571.492	41.05
571.833	40.75
572.174	41.02
572.514	41.31
572.855	41.04
573.195	41.18
573.536	41.18
573.876	41.12
574.217	41.25
574.557	41.44
574.898	41.38
575.238	41.12
575.578	41.29
575.918	41.5
576.258	41.42
576.598	41.5
576.938	41.82
577.278	41.97
577.618	41.65
577.958	41.84
578.298	42.22
578.638	42.04
578.977	42.02
579.317	42.08
579.657	41.97
579.996	42.24
580.336	42.32
580.675	42.6
581.014	42.08
581.354	42.28
581.693	42.58
582.032	42.75
582.372	42.92
582.711	42.89
583.05	42.65
583.389	43.02
583.728	42.98
584.067	42.84
584.406	43.11
584.745	42.89
585.083	43.51
585.422	43.34
585.761	42.94
586.1	43.39
586.438	43.09
586.777	43.05
587.115	43.56
587.454	43.08
587.792	43.4
588.13	43.38
588.469	43.3
588.807	43.72
589.145	43.77
589.483	44
589.821	44.13
590.159	43.9
590.497	44.02
590.835	43.69
591.173	43.91
591.511	43.96
591.849	44.2
592.187	44.06
592.524	44.25
592.862	44.04
593.2	44.01
593.537	43.98
593.875	44
594.212	44.25
594.55	44.85
594.887	44.19
595.224	44.59
595.561	44.73
595.899	44.32
596.236	44.64
596.573	44.9
596.91	44.55
597.247	44.32
597.584	44.71
597.921	44.94
598.258	44.71
598.594	44.67
598.931	44.58
599.268	44.57
599.604	44.79
599.941	44.46
600.277	44.62
600.614	44.85
600.95	44.92
601.287	45.01
601.623	45.41
601.959	45.24
602.296	45.39
602.632	45.23
602.968	45.72
603.304	45.52
603.64	45.62
603.976	45.69
604.312	45.39
604.648	45.65
604.984	45.54
605.319	45.53
605.655	45.52
605.991	45.63
606.326	45.67
606.662	45.29
606.998	45.65
607.333	45.56
607.668	45.54
608.004	45.64
608.339	45.65
608.674	45.75
609.01	45.92
609.345	46.31
609.68	46.37
610.015	46.48
610.35	46.5
610.685	46.58
611.02	46.48
611.355	46.58
611.689	46.27
612.024	46.28
612.359	46.68
612.694	46.39
613.028	46.49
613.363	46.24
613.697	46.58
614.032	46.76
614.366	47.04
614.7	47.01
615.035	47.05
615.369	47.53
615.703	47.05
616.037	47.05
616.371	47.66
616.705	47.4
617.039	47.5
617.373	47.65
617.707	47.57
618.041	47.69
618.375	47.36
618.709	47.72
619.042	47.42
619.376	47.75
619.71	47.84
620.043	47.78
620.377	47.94
620.71	48.29
621.043	48.12
621.377	47.93
621.71	47.7
622.043	47.97
622.376	48.38
622.709	48.09
623.043	48.05
623.376	48.57
623.709	48.9
624.041	48.25
624.374	48.8
624.707	48.42
625.04	48.56
625.373	48.46
625.705	48.79
626.038	48.41
626.37	48.33
626.703	48.57
627.035	48.96
627.368	48.97
627.7	48.54
628.032	48.42
628.365	49.02
628.697	48.65
629.029	48.73
629.361	48.83
629.693	48.97
630.025	48.83
630.357	48.65
630.689	48.82
631.021	48.75
631.353	49.01
631.684	49.33
632.016	49.42
632.348	49.25
632.679	49.41
633.011	49.53
633.342	49.37
633.674	50.13
634.005	49.26
634.336	49.29
634.668	49.94
634.999	49.65
635.33	49.5
635.661	49.92
635.992	50.06
636.323	50.05
636.654	50
636.985	49.92
637.316	49.64
637.647	50.28
637.977	49.81
638.308	50.17
638.639	50.46
638.969	49.89
639.3	50.24
639.63	50.07
639.961	50.16
640.291	50.5
640.622	50.53
640.952	50.67
641.282	50.36
641.612	50.8
641.943	50.38
642.273	50.49
642.603	50.01
642.933	50.85
643.263	50.62
643.592	50.72
643.922	50.95
644.252	50.66
644.582	51.36
644.911	50.82
645.241	50.71
645.571	50.55
645.9	50.55
646.23	51.01
646.559	50.68
646.888	50.99
647.218	51.49
647.547	50.87
647.876	50.62
648.205	50.85
648.534	51.74
648.863	51.23
649.192	51.42
649.521	51.58
649.85	51.18
650.179	51.51
650.508	51.29
650.837	52.11
651.165	51.1
651.494	51.51
651.822	51.8
652.151	51.4
652.479	51.06
652.808	51.65
653.136	51.58
653.465	52.21
653.793	51.81
654.121	51.96
654.449	51.76
654.777	52
655.105	52.06
655.433	51.56
655.761	51.8
656.089	52.29
656.417	51.91
656.745	52.11
657.073	52.78
657.4	53.21
657.728	52.21
658.056	52.55
658.383	52.39
658.711	51.96
659.038	52.47
659.365	52.89
659.693	52.15
660.02	52.04
660.347	52.75
660.674	52.34
661.001	52.31
661.329	52.01
661.656	52.67
661.982	52.53
662.309	52.68
662.636	52.24
662.963	52.9
663.29	52.42
663.616	53.11
663.943	52.79
664.27	53.03
664.596	53.58
664.923	52.96
665.249	52.92
665.576	52.92
665.902	53.7
666.228	52.95
666.554	52.86
666.881	52.6
667.207	53.2
667.533	53.63
667.859	53.62
668.185	53.87
668.511	53.16
668.837	53.08
669.162	53.45
669.488	53.52
669.814	53.3
670.139	53.5
670.465	53.79
670.791	53.48
671.116	53.73
