Data from 0150_forehead_Reflection__0__91.txt Node

Date: Fri Sep 22 21:01:32 CDT 2023
User: ToomeyLab
Spectrometer: FLMS14357
Trigger mode: 0
Integration Time (sec): 1.000000E-2
Scans to average: 100
Electric dark correction enabled: true
Nonlinearity correction enabled: false
Boxcar width: 0
XAxis mode: Wavelengths
Number of Pixels in Spectrum: 2048
>>>>>Begin Spectral Data<<<<<
189.047	61.93
189.435	61.93
189.823	61.93
190.211	43.8
190.599	-355.86
190.987	-29.7
191.375	-19.21
191.763	164.92
192.151	21.21
192.538	36.53
192.926	66.42
193.314	1069.87
193.702	31.76
194.089	16.13
194.477	79.71
194.864	499
195.252	38.19
195.639	250.38
196.027	115.76
196.414	-33.59
196.801	48.67
197.189	-14.99
197.576	60.78
197.963	53.9
198.351	24.18
198.738	45.72
199.125	11.12
199.512	32
199.899	45.11
200.286	55.25
200.673	15.04
201.06	45.38
201.447	40.47
201.833	-1.48
202.22	29.33
202.607	51.27
202.994	64.2
203.38	32.77
203.767	41.66
204.154	55.43
204.54	24.42
204.927	22.04
205.313	71.22
205.699	61.43
206.086	59.6
206.472	50.91
206.858	31.21
207.245	40.64
207.631	47.99
208.017	63.47
208.403	28.42
208.789	25.18
209.175	49.17
209.561	49.45
209.947	35.04
210.333	44.92
210.719	46.25
211.105	78.23
211.491	16.34
211.876	37.05
212.262	48.13
212.648	44.42
213.034	61.06
213.419	30.91
213.805	26.23
214.19	32.68
214.576	39.41
214.961	58.01
215.346	35.41
215.732	34.42
216.117	30.52
216.502	37.5
216.888	45.09
217.273	36.95
217.658	18.71
218.043	38.51
218.428	30.24
218.813	8.32
219.198	36.99
219.583	41.1
219.968	24.77
220.353	51.47
220.738	54.81
221.122	33.25
221.507	37.34
221.892	27.69
222.276	20.01
222.661	-1.34
223.046	26.82
223.43	31.47
223.815	20.82
224.199	14.15
224.583	28.07
224.968	18.84
225.352	23.75
225.736	19.7
226.121	19.36
226.505	11.77
226.889	14.39
227.273	13.79
227.657	2.77
228.041	4.67
228.425	11.97
228.809	6.52
229.193	5.68
229.577	10.17
229.961	7.15
230.344	6.88
230.728	5.24
231.112	6.08
231.495	5.02
231.879	5.76
232.263	4.66
232.646	6.03
233.03	6.18
233.413	5.73
233.797	7.33
234.18	5.31
234.563	7.41
234.946	5.48
235.33	4.96
235.713	5.48
236.096	6.14
236.479	5.75
236.862	7.78
237.245	5.48
237.628	6.71
238.011	6.59
238.394	7.2
238.777	6.83
239.16	7.88
239.543	8.71
239.925	7.48
240.308	9.04
240.691	9.16
241.073	8.23
241.456	6.2
241.838	5.68
242.221	4.53
242.603	6.3
242.986	4.58
243.368	4.69
243.75	5.51
244.133	5.48
244.515	4.46
244.897	4.61
245.279	4.74
245.661	4.54
246.043	4.83
246.425	4.86
246.807	5.64
247.189	4.24
247.571	6.16
247.953	5.26
248.335	4.82
248.717	4.72
249.098	4.77
249.48	4.43
249.862	4.37
250.243	4.65
250.625	4.94
251.006	4.37
251.388	4.8
251.769	5.31
252.151	5.44
252.532	4.79
252.913	5.16
253.295	6.19
253.676	5.14
254.057	5.15
254.438	5.25
254.819	4.38
255.2	5.04
255.581	4.7
255.962	5.66
256.343	6.08
256.724	3.45
257.105	5.83
257.486	6.65
257.867	5.68
258.247	5.05
258.628	4.79
259.009	5
259.389	5.19
259.77	6.23
260.15	5.32
260.531	4.69
260.911	5.12
261.292	4.92
261.672	4.01
262.052	4.53
262.432	4.46
262.813	4.8
263.193	4.12
263.573	5
263.953	4.68
264.333	5.05
264.713	4.94
265.093	4.98
265.473	5
265.853	4.26
266.233	4.76
266.612	5.04
266.992	5.39
267.372	5.17
267.752	5.94
268.131	5.06
268.511	4.63
268.89	5.29
269.27	5.12
269.649	4.81
270.029	4.7
270.408	4.57
270.787	4.86
271.167	4.61
271.546	4.52
271.925	5.37
272.304	4.22
272.683	5.17
273.062	4.84
273.441	4.8
273.82	4.69
274.199	4.88
274.578	4.76
274.957	4.03
275.336	4.95
275.715	4.74
276.093	4.36
276.472	4.64
276.851	4.87
277.229	4.29
277.608	5.15
277.986	4.46
278.365	5.35
278.743	4.23
279.122	4.88
279.5	5.23
279.878	4.73
280.257	5.74
280.635	4.73
281.013	5.57
281.391	4.23
281.769	5.38
282.147	4.92
282.525	4.84
282.903	5.14
283.281	5.58
283.659	4.44
284.037	4.75
284.415	4.62
284.792	4.61
285.17	4.96
285.548	5.49
285.925	4.43
286.303	4.51
286.68	4.45
287.058	4.93
287.435	4.81
287.813	4.62
288.19	4.1
288.567	4.72
288.945	4.59
289.322	4.5
289.699	4.78
290.076	5.09
290.453	4.75
290.83	4.93
291.207	5.35
291.584	4.92
291.961	4.65
292.338	5.08
292.715	5.51
293.092	5.38
293.469	5.18
293.845	4.81
294.222	5.51
294.599	5.36
294.975	5.7
295.352	5.7
295.728	5.41
296.105	5.06
296.481	5.54
296.858	5.51
297.234	5.69
297.61	5.47
297.986	5.77
298.363	5.61
298.739	5.12
299.115	5.57
299.491	5.58
299.867	5.7
300.243	5.24
300.619	5.76
300.995	5.52
301.371	5.99
301.746	6.16
302.122	5.75
302.498	5.99
302.874	6.2
303.249	5.96
303.625	5.67
304	6.64
304.376	6.03
304.751	6.53
305.127	6.2
305.502	7.21
305.878	6.34
306.253	6.28
306.628	6.56
307.003	6.46
307.378	6.51
307.754	6.34
308.129	6.78
308.504	6.4
308.879	6.74
309.254	6.9
309.629	6.45
310.003	7.52
310.378	7.41
310.753	6.86
311.128	6.58
311.502	7.11
311.877	6.64
312.252	7.13
312.626	7.24
313.001	7.18
313.375	7.02
313.75	7.25
314.124	7.73
314.498	7.17
314.873	7.62
315.247	7.69
315.621	7.61
315.995	7.48
316.369	7.58
316.743	7.35
317.117	7.93
317.491	8.34
317.865	7.7
318.239	8.17
318.613	7.86
318.987	8.42
319.361	8.05
319.734	7.92
320.108	8.22
320.482	7.94
320.855	8.5
321.229	9.37
321.602	8.51
321.976	8.5
322.349	8.32
322.723	8.91
323.096	8.49
323.469	8.84
323.843	8.62
324.216	8.87
324.589	9.08
324.962	8.47
325.335	8.54
325.708	8.59
326.081	9.21
326.454	8.85
326.827	9.31
327.2	9.18
327.573	9.87
327.945	9.26
328.318	9.27
328.691	9.39
329.063	9.35
329.436	9.88
329.809	9.53
330.181	9.53
330.553	9.46
330.926	9.74
331.298	9.85
331.671	9.81
332.043	9.08
332.415	9.75
332.787	10.51
333.159	9.13
333.532	9.82
333.904	9.81
334.276	9.52
334.648	9.84
335.02	9.76
335.391	10.32
335.763	10.42
336.135	10.29
336.507	10.41
336.879	10.52
337.25	10.06
337.622	11.09
337.993	10.14
338.365	10.41
338.736	10.34
339.108	10.73
339.479	10.48
339.851	10.57
340.222	10.61
340.593	10.25
340.964	10.23
341.336	11.1
341.707	10.61
342.078	10.79
342.449	11.4
342.82	10.57
343.191	10.63
343.562	11.22
343.933	11.05
344.303	11.12
344.674	11.15
345.045	11.21
345.416	11.35
345.786	11.13
346.157	11.46
346.527	11.56
346.898	11.42
347.268	11.18
347.639	11.18
348.009	11.66
348.38	12.13
348.75	12.11
349.12	11.82
349.49	12.18
349.861	11.81
350.231	12.31
350.601	12.19
350.971	12.15
351.341	12.43
351.711	11.7
352.081	12.14
352.45	12.06
352.82	12.64
353.19	12.31
353.56	12.43
353.929	12.35
354.299	12.51
354.669	12.55
355.038	12.5
355.408	12.79
355.777	12.85
356.147	12.86
356.516	12.87
356.885	12.89
357.254	13.12
357.624	12.77
357.993	13.25
358.362	12.94
358.731	12.67
359.1	13.11
359.469	13.17
359.838	12.92
360.207	13.11
360.576	13.21
360.945	13.14
361.314	13.36
361.682	13.63
362.051	13.58
362.42	13.39
362.788	13.24
363.157	13.64
363.525	13.35
363.894	13.54
364.262	13.5
364.631	13.81
364.999	13.64
365.367	14.15
365.735	13.76
366.104	13.74
366.472	14.12
366.84	14.15
367.208	14.32
367.576	14.58
367.944	14.08
368.312	14.65
368.68	14.47
369.048	14.53
369.416	14.77
369.783	14.49
370.151	14.85
370.519	14.79
370.886	14.52
371.254	15.09
371.621	14.43
371.989	15.01
372.356	15.16
372.724	15.14
373.091	15.2
373.458	15.13
373.826	15.33
374.193	15.41
374.56	15.51
374.927	15.54
375.294	15.36
375.661	15.39
376.028	15.49
376.395	15.54
376.762	15.77
377.129	15.9
377.496	16.12
377.863	15.81
378.229	15.91
378.596	16.42
378.963	16.12
379.329	15.85
379.696	16.56
380.062	16.04
380.429	16.24
380.795	16.43
381.161	16.29
381.528	16.48
381.894	16.16
382.26	16.68
382.626	16.84
382.993	16.71
383.359	16.41
383.725	16.75
384.091	16.88
384.457	16.82
384.823	16.85
385.188	17.15
385.554	17.11
385.92	17.28
386.286	17.01
386.651	17.24
387.017	17.23
387.383	17.43
387.748	17.67
388.114	17.16
388.479	17.58
388.845	17.4
389.21	17.67
389.575	17.68
389.94	17.58
390.306	17.81
390.671	18.04
391.036	17.88
391.401	18.06
391.766	18.12
392.131	18.3
392.496	18.44
392.861	18.19
393.226	18.56
393.591	18.28
393.956	18.55
394.32	18.76
394.685	18.49
395.05	18.79
395.414	18.71
395.779	18.87
396.143	18.66
396.508	18.66
396.872	18.77
397.236	18.92
397.601	18.8
397.965	19.23
398.329	18.95
398.694	19.04
399.058	19.12
399.422	19.2
399.786	19.21
400.15	19.22
400.514	19.9
400.878	19.38
401.242	19.35
401.605	19.72
401.969	19.41
402.333	19.79
402.697	19.7
403.06	19.78
403.424	20.19
403.787	20.24
404.151	19.86
404.514	20.38
404.878	20.19
405.241	20.34
405.604	20.45
405.968	20.34
406.331	20.36
406.694	20.25
407.057	20.17
407.42	20.48
407.783	20.6
408.146	20.65
408.509	20.53
408.872	20.88
409.235	20.87
409.598	20.95
409.961	21.03
410.323	21.37
410.686	21.16
411.049	21.27
411.411	20.96
411.774	21.41
412.136	21.34
412.499	21.53
412.861	21.32
413.223	21.39
413.586	21.4
413.948	21.68
414.31	21.81
414.672	21.77
415.035	21.78
415.397	22.13
415.759	22.52
416.121	21.95
416.483	21.97
416.845	21.9
417.206	22.16
417.568	22.25
417.93	22.19
418.292	22.35
418.653	22.24
419.015	22.29
419.377	22.24
419.738	22.34
420.1	22.14
420.461	22.37
420.822	22.26
421.184	22.33
421.545	22.37
421.906	22.31
422.267	22.27
422.629	22.58
422.99	22.42
423.351	22.37
423.712	22.43
424.073	22.51
424.434	22.58
424.795	22.76
425.155	22.95
425.516	22.98
425.877	23.03
426.238	22.91
426.598	22.94
426.959	22.95
427.32	23.07
427.68	23.25
428.041	23.23
428.401	23.38
428.761	23.58
429.122	23.86
429.482	23.86
429.842	24.15
430.202	23.94
430.563	24.11
430.923	24.63
431.283	24.34
431.643	24.36
432.003	24.65
432.363	24.77
432.722	24.73
433.082	24.76
433.442	24.94
433.802	24.77
434.161	24.81
434.521	24.76
434.881	24.76
435.24	24.72
435.6	24.81
435.959	24.74
436.319	24.81
436.678	25.08
437.037	25.09
437.396	25.26
437.756	25.3
438.115	25.36
438.474	25.62
438.833	25.66
439.192	25.52
439.551	25.7
439.91	25.91
440.269	25.77
440.628	25.71
440.987	25.61
441.345	25.86
441.704	25.94
442.063	25.88
442.421	25.77
442.78	25.79
443.138	25.9
443.497	25.9
443.855	26
444.214	26.05
444.572	26.35
444.93	26.33
445.288	26.48
445.647	26.6
446.005	26.71
446.363	26.7
446.721	26.74
447.079	26.63
447.437	26.57
447.795	26.53
448.153	26.69
448.51	26.57
448.868	26.47
449.226	26.71
449.584	26.63
449.941	26.8
450.299	27.14
450.656	27.22
451.014	27.13
451.371	27.24
451.729	27.56
452.086	27.58
452.443	27.82
452.801	27.77
453.158	27.84
453.515	28.09
453.872	27.97
454.229	28.05
454.586	27.78
454.943	28.11
455.3	28.15
455.657	28.27
456.014	28.22
456.371	28.38
456.727	28.63
457.084	28.44
457.441	28.54
457.797	28.87
458.154	28.73
458.51	28.9
458.867	28.93
459.223	28.84
459.58	29.03
459.936	29.12
460.292	28.94
460.648	29.11
461.005	29.13
461.361	28.97
461.717	28.64
462.073	28.62
462.429	28.62
462.785	28.75
463.141	29.01
463.496	29.31
463.852	29.54
464.208	29.65
464.564	29.72
464.919	29.74
465.275	30.18
465.631	30.09
465.986	30.27
466.342	30.28
466.697	30.26
467.052	30.18
467.408	30.25
467.763	30.48
468.118	30.62
468.473	30.35
468.829	30.3
469.184	30.6
469.539	30.59
469.894	30.67
470.249	30.72
470.603	30.75
470.958	30.86
471.313	30.91
471.668	30.78
472.023	31.03
472.377	31.02
472.732	31.23
473.086	31.17
473.441	31.04
473.795	31.48
474.15	31.42
474.504	31.23
474.859	31.58
475.213	31.4
475.567	31.28
475.921	31.55
476.275	31.84
476.63	31.7
476.984	31.87
477.338	32.01
477.692	32.13
478.045	32.06
478.399	32.09
478.753	32.02
479.107	32.21
479.461	32.25
479.814	32.18
480.168	32.21
480.521	32.55
480.875	32.38
481.228	32.33
481.582	32.32
481.935	32.58
482.289	32.67
482.642	32.6
482.995	32.59
483.348	32.71
483.701	32.48
484.055	32.7
484.408	32.43
484.761	32.36
485.114	32.32
485.466	32
485.819	31.65
486.172	31.63
486.525	31.82
486.878	31.9
487.23	31.95
487.583	32.18
487.936	32.39
488.288	32.55
488.641	32.67
488.993	32.61
489.345	32.48
489.698	32.43
490.05	32.51
490.402	32.47
490.754	32.57
491.107	32.83
491.459	33.03
491.811	33.21
492.163	33.45
492.515	33.64
492.866	33.76
493.218	33.66
493.57	33.42
493.922	33.09
494.274	33.16
494.625	33.34
494.977	33.63
495.328	33.97
495.68	34.18
496.031	34.41
496.383	34.71
496.734	34.74
497.086	34.86
497.437	35.01
497.788	35.08
498.139	35.16
498.49	35.23
498.842	35.13
499.193	34.85
499.544	34.93
499.894	34.89
500.245	35.15
500.596	35.21
500.947	35.46
501.298	35.41
501.648	35.54
501.999	35.59
502.35	35.72
502.7	35.86
503.051	35.98
503.401	36.03
503.752	36.02
504.102	36.18
504.452	36.13
504.803	36.35
505.153	36.5
505.503	36.33
505.853	36.3
506.203	36.54
506.553	36.27
506.903	36.58
507.253	36.36
507.603	36.56
507.953	36.82
508.303	36.77
508.652	36.89
509.002	37.07
509.352	37.04
509.701	37.05
510.051	37.01
510.4	37
510.75	36.95
511.099	36.64
511.449	36.98
511.798	37.07
512.147	37.04
512.496	37.21
512.846	37.16
513.195	37.42
513.544	37.44
513.893	37.37
514.242	37.3
514.591	37.51
514.939	37.78
515.288	37.56
515.637	37.76
515.986	37.67
516.334	37.89
516.683	38.05
517.032	38.26
517.38	38.22
517.729	38.44
518.077	38.38
518.426	38.37
518.774	38.51
519.122	38.32
519.47	38.46
519.819	38.33
520.167	38.35
520.515	37.96
520.863	37.95
521.211	38.09
521.559	38.05
521.907	38.23
522.255	38.46
522.602	38.51
522.95	38.81
523.298	38.88
523.645	39.05
523.993	39.55
524.341	39.15
524.688	39.27
525.036	39.36
525.383	39.25
525.73	39.38
526.078	39.66
526.425	39.48
526.772	39.87
527.119	39.57
527.466	39.4
527.814	39.19
528.161	39.27
528.508	39.14
528.854	39.21
529.201	39.42
529.548	39.47
529.895	39.54
530.242	39.18
530.588	38.85
530.935	38.98
531.282	39.02
531.628	39.19
531.975	39.09
532.321	39.23
532.667	39.5
533.014	39.84
533.36	39.97
533.706	40.22
534.052	40.24
534.399	40.09
534.745	40.27
535.091	39.98
535.437	39.67
535.783	39.62
536.129	39.89
536.474	40.09
536.82	40.23
537.166	40.53
537.512	40.8
537.857	40.93
538.203	41.05
538.549	40.74
538.894	40.75
539.239	40.97
539.585	40.9
539.93	41.09
540.276	41.17
540.621	41.4
540.966	41.55
541.311	41.84
541.656	41.94
542.001	41.9
542.346	41.88
542.691	41.67
543.036	41.41
543.381	41.22
543.726	40.83
544.071	41.04
544.415	41.22
544.76	41.29
545.105	41.55
545.449	41.56
545.794	41.67
546.138	41.91
546.483	41.97
546.827	42.37
547.171	42.34
547.516	42.49
547.86	42.71
548.204	42.66
548.548	42.76
548.892	42.63
549.236	42.61
549.58	42.65
549.924	42.8
550.268	43.15
550.612	43.22
550.956	43.41
551.3	43.56
551.643	43.92
551.987	43.64
552.33	43.89
552.674	43.81
553.017	43.99
553.361	44.06
553.704	44.01
554.048	44.21
554.391	44.18
554.734	44.13
555.077	44.05
555.42	43.98
555.764	44.46
556.107	44.15
556.45	44.89
556.793	44.47
557.135	44.51
557.478	44.67
557.821	44.67
558.164	44.98
558.507	44.91
558.849	44.96
559.192	45.14
559.534	45.21
559.877	45.27
560.219	45.38
560.562	45.46
560.904	45.32
561.246	45.44
561.589	45.51
561.931	45.44
562.273	45.59
562.615	45.41
562.957	45.46
563.299	45.49
563.641	45.67
563.983	46.09
564.325	45.78
564.667	45.62
565.008	45.83
565.35	46.18
565.692	46.13
566.033	46.07
566.375	46.07
566.716	46.19
567.058	46.12
567.399	46.23
567.741	46.17
568.082	45.91
568.423	45.88
568.764	46.09
569.105	45.81
569.447	46.2
569.788	46.36
570.129	46.56
570.47	46.4
570.811	46.62
571.151	46.9
571.492	46.78
571.833	46.55
572.174	46.62
572.514	46.97
572.855	46.85
573.195	46.98
573.536	46.96
573.876	47.04
574.217	46.73
574.557	47.12
574.898	46.85
575.238	47.2
575.578	47.12
575.918	47.38
576.258	47.26
576.598	47.5
576.938	47.55
577.278	47.71
577.618	47.39
577.958	47.68
578.298	47.85
578.638	47.96
578.977	48.08
579.317	47.98
579.657	47.86
579.996	48.17
580.336	48.26
580.675	48.33
581.014	48.4
581.354	48.22
581.693	48.45
582.032	48.4
582.372	48.76
582.711	49.06
583.05	48.99
583.389	49.04
583.728	49.02
584.067	49.15
584.406	49.11
584.745	48.88
585.083	49.53
585.422	49.67
585.761	49.08
586.1	49.51
586.438	49.38
586.777	49.15
587.115	49.46
587.454	49.27
587.792	49.26
588.13	49.43
588.469	49.21
588.807	49.97
589.145	49.89
589.483	49.76
589.821	49.82
590.159	50.15
590.497	49.75
590.835	50.1
591.173	50.06
591.511	50.09
591.849	50.05
592.187	49.79
592.524	50.21
592.862	50.05
593.2	50.13
593.537	50.32
593.875	50.13
594.212	50.26
594.55	50.74
594.887	50.57
595.224	50.81
595.561	50.93
595.899	50.68
596.236	51.03
596.573	50.69
596.91	50.69
597.247	50.66
597.584	51.1
597.921	50.93
598.258	50.94
598.594	50.91
598.931	50.94
599.268	50.93
599.604	50.61
599.941	50.74
600.277	50.68
600.614	51
600.95	51.44
601.287	51.25
601.623	51.61
601.959	51.77
602.296	51.85
602.632	51.62
602.968	51.76
603.304	52.19
603.64	51.61
603.976	51.77
604.312	51.8
604.648	51.96
604.984	51.55
605.319	52.12
605.655	51.78
605.991	51.92
606.326	51.73
606.662	51.68
606.998	51.72
607.333	51.67
607.668	51.78
608.004	52
608.339	52.16
608.674	52.03
609.01	52.38
609.345	52.38
609.68	52.74
610.015	52.86
610.35	52.59
610.685	53.09
611.02	53.1
611.355	52.7
611.689	52.65
612.024	52.54
612.359	52.77
612.694	52.55
613.028	52.65
613.363	52.54
613.697	52.84
614.032	53.28
614.366	53.52
614.7	53.36
615.035	53.71
615.369	53.87
615.703	53.3
616.037	53.51
616.371	54.04
616.705	53.97
617.039	53.6
617.373	53.71
617.707	54.03
618.041	53.95
618.375	53.98
618.709	53.98
619.042	54
619.376	54.25
619.71	53.97
620.043	54.51
620.377	53.91
620.71	54.46
621.043	54.93
621.377	54.21
621.71	54.13
622.043	54.75
622.376	54.33
622.709	54.22
623.043	54.11
623.376	55.04
623.709	55.32
624.041	55.12
624.374	54.93
624.707	55.14
625.04	54.89
625.373	55.05
625.705	55.02
626.038	55.37
626.37	54.66
626.703	55.07
627.035	55.11
627.368	55.15
627.7	55.12
628.032	55.17
628.365	55.06
628.697	55.27
629.029	55.48
629.361	55.14
629.693	55.24
630.025	55.17
630.357	55.11
630.689	55.56
631.021	55.24
631.353	55.57
631.684	55.9
632.016	55.64
632.348	55.91
632.679	55.77
633.011	56.34
633.342	56.31
633.674	56.62
634.005	56.3
634.336	56.11
634.668	56.85
634.999	55.8
635.33	56.51
635.661	56.38
635.992	56.57
636.323	56.38
636.654	56.48
636.985	56.25
637.316	56.15
637.647	56.59
637.977	56.44
638.308	56.55
638.639	56.84
638.969	56.91
639.3	56.54
639.63	57.02
639.961	56.96
640.291	56.75
640.622	57.09
640.952	57.52
641.282	57.3
641.612	57.4
641.943	57.58
642.273	57.26
642.603	57.29
642.933	57.08
643.263	57.21
643.592	57.89
643.922	57.78
644.252	57.2
644.582	57.67
644.911	57.32
645.241	58.01
645.571	57.68
645.9	57.73
646.23	57.8
646.559	57.85
646.888	57.84
647.218	58.08
647.547	57.9
647.876	57.94
648.205	57.81
648.534	58.55
648.863	58.08
649.192	57.92
649.521	58.07
649.85	58.42
650.179	57.93
650.508	57.99
650.837	58.31
651.165	58.31
651.494	58.16
651.822	58.98
652.151	58.62
652.479	57.89
652.808	58.42
653.136	58.65
653.465	58.75
653.793	58.94
654.121	58.13
654.449	58.39
654.777	58.38
655.105	58.81
655.433	58.64
655.761	58.36
656.089	58.66
656.417	58.71
656.745	59.22
657.073	59.3
657.4	59.66
657.728	59.28
658.056	59.87
658.383	59.65
658.711	59.27
659.038	59.05
659.365	59.84
659.693	58.49
660.02	58.91
660.347	59.79
660.674	59.11
661.001	59.28
661.329	59.53
661.656	59.47
661.982	59.44
662.309	59.45
662.636	59.82
662.963	59.79
663.29	59.05
663.616	59.65
663.943	59.5
664.27	60.65
664.596	60.38
664.923	59.39
665.249	60.55
665.576	60.21
665.902	59.8
666.228	59.42
666.554	59.03
666.881	60.92
667.207	60.34
667.533	60.04
667.859	60.43
668.185	61.25
668.511	60.42
668.837	60.28
669.162	60.4
669.488	60.39
