Data from 0150_chest_Reflection__0__81.txt Node

Date: Fri Sep 22 20:57:40 CDT 2023
User: ToomeyLab
Spectrometer: FLMS14357
Trigger mode: 0
Integration Time (sec): 1.000000E-2
Scans to average: 100
Electric dark correction enabled: true
Nonlinearity correction enabled: false
Boxcar width: 0
XAxis mode: Wavelengths
Number of Pixels in Spectrum: 2048
>>>>>Begin Spectral Data<<<<<
189.047	33.47
189.435	33.47
189.823	33.47
190.211	-17.48
190.599	-95.63
190.987	150.7
191.375	-23.26
191.763	-128.27
192.151	90.32
192.538	-41.81
192.926	114.88
193.314	-2099.36
193.702	44.57
194.089	101.24
194.477	109.49
194.864	552.33
195.252	63.59
195.639	1161.15
196.027	118.31
196.414	-66.12
196.801	163.64
197.189	-23.59
197.576	88.04
197.963	-28.34
198.351	38.3
198.738	0.08
199.125	21.12
199.512	0.58
199.899	40.43
200.286	33.29
200.673	3.99
201.06	21.66
201.447	31.25
201.833	-6.07
202.22	41.05
202.607	15.13
202.994	56.84
203.38	12.57
203.767	3.84
204.154	37.73
204.54	35.84
204.927	2.88
205.313	6.69
205.699	56.14
206.086	29.45
206.472	28.79
206.858	34.97
207.245	18.83
207.631	39.57
208.017	22.03
208.403	24.97
208.789	26.81
209.175	38.76
209.561	21.8
209.947	51.9
210.333	40.47
210.719	-3.9
211.105	44.38
211.491	5.79
211.876	28.08
212.262	9.17
212.648	6.59
213.034	15.65
213.419	-0.78
213.805	15.16
214.19	20.72
214.576	26.95
214.961	1.3
215.346	20.39
215.732	6.05
216.117	-22.83
216.502	36.73
216.888	42.61
217.273	7.3
217.658	14.65
218.043	38.08
218.428	19.32
218.813	-22.63
219.198	20.93
219.583	28.3
219.968	-1.74
220.353	8.84
220.738	22.14
221.122	17.82
221.507	7.79
221.892	-3.16
222.276	5.07
222.661	-9.05
223.046	27.77
223.43	21
223.815	0.29
224.199	8.72
224.583	12.77
224.968	6.37
225.352	10.33
225.736	4.05
226.121	3.18
226.505	10.17
226.889	11.34
227.273	11.45
227.657	9.26
228.041	6.92
228.425	9.24
228.809	6.07
229.193	5.52
229.577	6.26
229.961	6.8
230.344	7.29
230.728	4.84
231.112	5.62
231.495	4.86
231.879	5.39
232.263	5.25
232.646	5.19
233.03	5.48
233.413	5.99
233.797	4.84
234.18	6.25
234.563	7.97
234.946	6.62
235.33	2.35
235.713	3.74
236.096	4.42
236.479	3.9
236.862	6.84
237.245	5.81
237.628	5.01
238.011	3.89
238.394	6.51
238.777	6.93
239.16	5.38
239.543	5.95
239.925	7.68
240.308	7.35
240.691	5.86
241.073	5.53
241.456	4.7
241.838	4.15
242.221	5.79
242.603	5.42
242.986	4.36
243.368	4.43
243.75	5.26
244.133	4.69
244.515	4.46
244.897	4.35
245.279	4.58
245.661	4.18
246.043	4.4
246.425	4.32
246.807	5.51
247.189	4.44
247.571	4.36
247.953	5.01
248.335	4.83
248.717	4.65
249.098	4.41
249.48	4.4
249.862	4.42
250.243	4.47
250.625	4.53
251.006	4.04
251.388	4.77
251.769	4.77
252.151	5.15
252.532	4.56
252.913	4.61
253.295	5.97
253.676	4.76
254.057	4.87
254.438	4.92
254.819	4.12
255.2	4.01
255.581	3.85
255.962	5.3
256.343	4.4
256.724	4.25
257.105	4.66
257.486	4.69
257.867	4.81
258.247	5.65
258.628	5.16
259.009	5.01
259.389	4.49
259.77	4.34
260.15	4.69
260.531	3.97
260.911	3.81
261.292	4.18
261.672	3.84
262.052	4.24
262.432	4.21
262.813	4.42
263.193	3.83
263.573	5.23
263.953	4.78
264.333	4.33
264.713	4.16
265.093	4.03
265.473	3.65
265.853	3.68
266.233	4.13
266.612	3.82
266.992	4.04
267.372	4.68
267.752	5.15
268.131	3.87
268.511	4.03
268.89	4.54
269.27	4.03
269.649	4.24
270.029	4.48
270.408	4.17
270.787	4.47
271.167	3.82
271.546	4.05
271.925	4.59
272.304	3.77
272.683	4.45
273.062	4.54
273.441	3.73
273.82	4.35
274.199	4.33
274.578	4.34
274.957	3.96
275.336	4.06
275.715	3.95
276.093	4.02
276.472	3.98
276.851	4
277.229	3.3
277.608	4.62
277.986	4.15
278.365	4.21
278.743	4.18
279.122	3.98
279.5	4.5
279.878	4.26
280.257	4.67
280.635	4.13
281.013	4.01
281.391	3.49
281.769	4.36
282.147	4.09
282.525	4.14
282.903	4.14
283.281	4.02
283.659	3.97
284.037	3.92
284.415	4.4
284.792	4.14
285.17	4
285.548	4.35
285.925	3.92
286.303	4.3
286.68	3.56
287.058	3.93
287.435	4.21
287.813	4.08
288.19	3.72
288.567	4.06
288.945	3.64
289.322	3.88
289.699	4.08
290.076	4.1
290.453	4.17
290.83	3.94
291.207	3.35
291.584	3.27
291.961	3.68
292.338	4.11
292.715	4.1
293.092	3.95
293.469	3.88
293.845	3.9
294.222	3.9
294.599	4.09
294.975	4.05
295.352	3.93
295.728	4.36
296.105	3.96
296.481	4.25
296.858	4.07
297.234	3.83
297.61	3.83
297.986	4.61
298.363	4.1
298.739	3.91
299.115	3.98
299.491	3.97
299.867	4.1
300.243	3.64
300.619	3.65
300.995	3.49
301.371	4.01
301.746	4.3
302.122	4.02
302.498	3.96
302.874	4.1
303.249	3.78
303.625	3.84
304	4.14
304.376	4.43
304.751	4.08
305.127	3.83
305.502	4.3
305.878	4.19
306.253	4.53
306.628	3.73
307.003	4.29
307.378	4.04
307.754	4.23
308.129	4.43
308.504	3.96
308.879	3.89
309.254	3.96
309.629	3.64
310.003	4.68
310.378	4.64
310.753	4.19
311.128	3.55
311.502	4.03
311.877	4.02
312.252	3.95
312.626	4.05
313.001	4.04
313.375	4.26
313.75	4.28
314.124	4.54
314.498	3.79
314.873	4.16
315.247	4.28
315.621	3.89
315.995	4.13
316.369	3.96
316.743	4.06
317.117	4.19
317.491	4.52
317.865	3.64
318.239	4.23
318.613	4.25
318.987	4.26
319.361	3.99
319.734	4.1
320.108	4.72
320.482	4.36
320.855	3.99
321.229	4.45
321.602	4.49
321.976	3.92
322.349	4.36
322.723	4.37
323.096	4.53
323.469	4.3
323.843	3.96
324.216	3.76
324.589	3.64
324.962	3.48
325.335	4.08
325.708	4.56
326.081	4.56
326.454	3.86
326.827	4.33
327.2	3.95
327.573	4.42
327.945	4.4
328.318	4.36
328.691	4.47
329.063	4.15
329.436	3.78
329.809	4.36
330.181	4.16
330.553	3.95
330.926	3.93
331.298	4.44
331.671	4.51
332.043	3.55
332.415	4.24
332.787	4.61
333.159	4.19
333.532	4.1
333.904	3.89
334.276	4.15
334.648	3.61
335.02	3.99
335.391	4.25
335.763	4.61
336.135	4.32
336.507	4.22
336.879	4
337.25	4.24
337.622	3.97
337.993	3.42
338.365	4.21
338.736	4.55
339.108	4.34
339.479	4.44
339.851	3.95
340.222	3.83
340.593	4.13
340.964	3.66
341.336	4.26
341.707	3.92
342.078	4.12
342.449	4.01
342.82	4.05
343.191	3.93
343.562	3.73
343.933	4.32
344.303	4.31
344.674	4.54
345.045	4.21
345.416	4.36
345.786	4.03
346.157	4.36
346.527	4.07
346.898	4.07
347.268	3.81
347.639	4.17
348.009	3.79
348.38	4.09
348.75	3.96
349.12	3.87
349.49	4.38
349.861	3.86
350.231	4.18
350.601	4.04
350.971	4.3
351.341	4.37
351.711	4.29
352.081	4.14
352.45	4.04
352.82	4.11
353.19	4.19
353.56	4.28
353.929	4.3
354.299	4.22
354.669	4.02
355.038	3.83
355.408	4.03
355.777	4.35
356.147	4.29
356.516	4.49
356.885	4.07
357.254	4.52
357.624	3.59
357.993	3.94
358.362	4.3
358.731	4.12
359.1	3.87
359.469	3.85
359.838	3.83
360.207	3.83
360.576	4.35
360.945	4.03
361.314	4.36
361.682	4.3
362.051	3.99
362.42	3.95
362.788	4.13
363.157	4.17
363.525	3.89
363.894	4.03
364.262	4.04
364.631	4.1
364.999	3.85
365.367	4.2
365.735	3.87
366.104	3.86
366.472	4.34
366.84	3.9
367.208	4.22
367.576	4.36
367.944	4.17
368.312	4.4
368.68	3.8
369.048	4.22
369.416	3.93
369.783	3.91
370.151	4.1
370.519	4.28
370.886	4.15
371.254	4.42
371.621	4.04
371.989	4.06
372.356	3.94
372.724	4.24
373.091	4.25
373.458	4.12
373.826	4.21
374.193	4.35
374.56	4.24
374.927	4.2
375.294	3.91
375.661	4.23
376.028	3.87
376.395	3.99
376.762	3.89
377.129	4.1
377.496	4.14
377.863	4.32
378.229	4.48
378.596	4.13
378.963	4.53
379.329	4.14
379.696	4.2
380.062	3.84
380.429	3.95
380.795	4.13
381.161	4.15
381.528	4.19
381.894	3.73
382.26	4
382.626	4.13
382.993	4.28
383.359	3.89
383.725	4.07
384.091	4.31
384.457	4.19
384.823	4.05
385.188	4.15
385.554	4.21
385.92	4.16
386.286	4.11
386.651	4.36
387.017	4.31
387.383	4.23
387.748	4.02
388.114	4.07
388.479	4.29
388.845	3.87
389.21	4.21
389.575	4.16
389.94	4.12
390.306	4.33
390.671	4.43
391.036	3.86
391.401	4.14
391.766	3.98
392.131	4.04
392.496	4.32
392.861	4.1
393.226	4.49
393.591	4.21
393.956	4.27
394.32	4.17
394.685	3.99
395.05	4.22
395.414	4.31
395.779	4.21
396.143	4.14
396.508	4.34
396.872	4.09
397.236	4.17
397.601	3.93
397.965	4.5
398.329	4.17
398.694	4.27
399.058	4.17
399.422	4.01
399.786	4.16
400.15	4.38
400.514	4.36
400.878	4.13
401.242	4.43
401.605	4.1
401.969	3.69
402.333	4.29
402.697	4.09
403.06	4.17
403.424	4.05
403.787	4.19
404.151	4.41
404.514	4.42
404.878	4.28
405.241	4.27
405.604	4.22
405.968	4.21
406.331	4.14
406.694	4.31
407.057	4.09
407.42	4.26
407.783	4.31
408.146	4.08
408.509	4.07
408.872	4.08
409.235	4.25
409.598	4.24
409.961	4.37
410.323	4.08
410.686	4.1
411.049	4.29
411.411	4.32
411.774	4.13
412.136	4.24
412.499	4.14
412.861	4.28
413.223	4.25
413.586	4.03
413.948	4.17
414.31	4.14
414.672	4.12
415.035	4.21
415.397	4.31
415.759	4.53
416.121	4.22
416.483	4.16
416.845	4.07
417.206	4.04
417.568	4.17
417.93	4.16
418.292	4.22
418.653	4.07
419.015	4.16
419.377	4.16
419.738	4.06
420.1	3.97
420.461	4.16
420.822	4.08
421.184	4.05
421.545	4.02
421.906	4.02
422.267	4.08
422.629	4.19
422.99	3.92
423.351	3.95
423.712	4.09
424.073	4.02
424.434	4.13
424.795	4.1
425.155	4.17
425.516	4.1
425.877	4.01
426.238	4.01
426.598	4.05
426.959	4.05
427.32	4.15
427.68	4.05
428.041	4.17
428.401	4.26
428.761	4.12
429.122	4.14
429.482	4.2
429.842	4.19
430.202	4.07
430.563	4.21
430.923	4.26
431.283	4.35
431.643	4.43
432.003	4.23
432.363	4.2
432.722	4.35
433.082	4.34
433.442	4.29
433.802	4.22
434.161	4.21
434.521	4.17
434.881	4.15
435.24	4.05
435.6	3.99
435.959	3.96
436.319	4.17
436.678	4.3
437.037	4.25
437.396	4.27
437.756	4.14
438.115	4.33
438.474	4.17
438.833	4.28
439.192	4.1
439.551	4.11
439.91	4.3
440.269	4.27
440.628	4.14
440.987	4.19
441.345	4.34
441.704	4.24
442.063	4.2
442.421	4.15
442.78	4.21
443.138	4.24
443.497	4.23
443.855	4.18
444.214	4.02
444.572	4.32
444.93	4.3
445.288	4.21
445.647	4.41
446.005	4.3
446.363	4.11
446.721	4.37
447.079	4.05
447.437	4.22
447.795	4.25
448.153	4.02
448.51	4.16
448.868	4.18
449.226	4.17
449.584	4.05
449.941	4.07
450.299	4.23
450.656	4.2
451.014	4.29
451.371	4.2
451.729	4.31
452.086	4.11
452.443	4.39
452.801	4.43
453.158	4.22
453.515	4.35
453.872	4.42
454.229	4.35
454.586	4.4
454.943	4.12
455.3	4.27
455.657	4.21
456.014	4.38
456.371	4.47
456.727	4.51
457.084	4.29
457.441	4.26
457.797	4.31
458.154	4.37
458.51	4.33
458.867	4.27
459.223	4.32
459.58	4.41
459.936	4.41
460.292	4.37
460.648	4.39
461.005	4.34
461.361	4.35
461.717	4.09
462.073	4.27
462.429	4.16
462.785	4.28
463.141	4.26
463.496	4.31
463.852	4.36
464.208	4.41
464.564	4.43
464.919	4.45
465.275	4.47
465.631	4.46
465.986	4.53
466.342	4.39
466.697	4.51
467.052	4.37
467.408	4.52
467.763	4.47
468.118	4.51
468.473	4.39
468.829	4.32
469.184	4.25
469.539	4.3
469.894	4.35
470.249	4.44
470.603	4.25
470.958	4.41
471.313	4.53
471.668	4.26
472.023	4.39
472.377	4.48
472.732	4.43
473.086	4.68
473.441	4.37
473.795	4.62
474.15	4.44
474.504	4.28
474.859	4.53
475.213	4.26
475.567	4.24
475.921	4.39
476.275	4.39
476.63	4.38
476.984	4.32
477.338	4.57
477.692	4.34
478.045	4.48
478.399	4.53
478.753	4.34
479.107	4.35
479.461	4.38
479.814	4.38
480.168	4.48
480.521	4.4
480.875	4.46
481.228	4.38
481.582	4.41
481.935	4.48
482.289	4.31
482.642	4.34
482.995	4.4
483.348	4.38
483.701	4.38
484.055	4.37
484.408	4.39
484.761	4.35
485.114	4.23
485.466	4.18
485.819	4.12
486.172	4.11
486.525	4.13
486.878	4.15
487.23	4.19
487.583	4.26
487.936	4.26
488.288	4.36
488.641	4.29
488.993	4.27
489.345	4.23
489.698	4.19
490.05	4.21
490.402	4.26
490.754	4.22
491.107	4.25
491.459	4.31
491.811	4.36
492.163	4.42
492.515	4.34
492.866	4.43
493.218	4.34
493.57	4.35
493.922	4.21
494.274	4.26
494.625	4.34
494.977	4.43
495.328	4.49
495.68	4.5
496.031	4.5
496.383	4.48
496.734	4.51
497.086	4.55
497.437	4.52
497.788	4.5
498.139	4.53
498.49	4.72
498.842	4.45
499.193	4.49
499.544	4.59
499.894	4.39
500.245	4.56
500.596	4.58
500.947	4.6
501.298	4.57
501.648	4.59
501.999	4.65
502.35	4.55
502.7	4.73
503.051	4.69
503.401	4.67
503.752	4.67
504.102	4.59
504.452	4.66
504.803	4.65
505.153	4.69
505.503	4.6
505.853	4.75
506.203	4.63
506.553	4.74
506.903	4.65
507.253	4.67
507.603	4.73
507.953	4.82
508.303	4.8
508.652	4.69
509.002	4.76
509.352	4.68
509.701	4.74
510.051	4.75
510.4	4.76
510.75	4.73
511.099	4.54
511.449	4.73
511.798	4.74
512.147	4.69
512.496	4.74
512.846	4.69
513.195	4.7
513.544	4.79
513.893	4.82
514.242	4.66
514.591	4.79
514.939	4.71
515.288	4.68
515.637	4.77
515.986	4.7
516.334	4.76
516.683	4.8
517.032	4.92
517.38	4.8
517.729	4.85
518.077	4.92
518.426	4.83
518.774	4.83
519.122	4.8
519.47	4.79
519.819	4.75
520.167	4.81
520.515	4.76
520.863	4.6
521.211	4.75
521.559	4.83
521.907	4.82
522.255	4.83
522.602	4.8
522.95	4.88
523.298	4.86
523.645	4.91
523.993	4.81
524.341	4.87
524.688	4.97
525.036	4.86
525.383	4.83
525.73	5.01
526.078	4.99
526.425	4.92
526.772	5.01
527.119	4.92
527.466	4.75
527.814	4.83
528.161	4.79
528.508	4.88
528.854	4.87
529.201	4.9
529.548	4.93
529.895	4.84
530.242	4.78
530.588	4.7
530.935	4.68
531.282	4.72
531.628	4.78
531.975	4.79
532.321	4.84
532.667	4.89
533.014	4.94
533.36	4.9
533.706	5.07
534.052	5.02
534.399	5
534.745	5.02
535.091	4.92
535.437	4.91
535.783	4.82
536.129	4.9
536.474	4.95
536.82	4.9
537.166	5.08
537.512	5.1
537.857	5.07
538.203	5.2
538.549	5.05
538.894	5.01
539.239	5.06
539.585	5.06
539.93	5.15
540.276	5.2
540.621	5.2
540.966	5.19
541.311	5.31
541.656	5.23
542.001	5.27
542.346	5.26
542.691	5.29
543.036	5.19
543.381	5.13
543.726	5.07
544.071	5.06
544.415	5.11
544.76	5.1
545.105	5.09
545.449	5.2
545.794	5.15
546.138	5.31
546.483	5.21
546.827	5.25
547.171	5.34
547.516	5.38
547.86	5.49
548.204	5.28
548.548	5.35
548.892	5.43
549.236	5.39
549.58	5.42
549.924	5.41
550.268	5.59
550.612	5.49
550.956	5.57
551.3	5.68
551.643	5.7
551.987	5.59
552.33	5.74
552.674	5.56
553.017	5.65
553.361	5.7
553.704	5.74
554.048	5.84
554.391	5.83
554.734	5.81
555.077	5.69
555.42	5.71
555.764	5.68
556.107	5.68
556.45	5.77
556.793	5.6
557.135	5.83
557.478	5.72
557.821	5.8
558.164	5.89
558.507	5.96
558.849	6.09
559.192	5.97
559.534	5.92
559.877	6.1
560.219	5.97
560.562	6.11
560.904	6.09
561.246	6.07
561.589	6.07
561.931	5.93
562.273	5.83
562.615	6.01
562.957	5.85
563.299	6.05
563.641	6.06
563.983	6.11
564.325	6.09
564.667	6.05
565.008	6.2
565.35	6.2
565.692	6.17
566.033	6.03
566.375	6.21
566.716	6.21
567.058	6.32
567.399	6.23
567.741	6.44
568.082	6.08
568.423	6.23
568.764	6.26
569.105	6.03
569.447	6.26
569.788	6.14
570.129	6.27
570.47	6.42
570.811	6.34
571.151	6.38
571.492	6.39
571.833	6.15
572.174	6.57
572.514	6.43
572.855	6.45
573.195	6.44
573.536	6.45
573.876	6.46
574.217	6.42
574.557	6.44
574.898	6.42
575.238	6.56
575.578	6.64
575.918	6.76
576.258	6.52
576.598	6.76
576.938	6.69
577.278	6.71
577.618	6.66
577.958	6.66
578.298	6.85
578.638	6.67
578.977	6.78
579.317	6.71
579.657	6.74
579.996	6.79
580.336	6.9
580.675	7.03
581.014	6.69
581.354	6.72
581.693	6.98
582.032	7.08
582.372	7.07
582.711	6.85
583.05	7.16
583.389	7.23
583.728	7.17
584.067	7.11
584.406	7.19
584.745	6.96
585.083	7.53
585.422	7.47
585.761	7.12
586.1	7.25
586.438	7.17
586.777	7.28
587.115	7.29
587.454	7.29
587.792	7.51
588.13	7.39
588.469	7.36
588.807	7.39
589.145	7.54
589.483	7.47
589.821	7.41
590.159	7.41
590.497	7.52
590.835	7.67
591.173	7.35
591.511	7.62
591.849	7.73
592.187	7.58
592.524	7.68
592.862	7.73
593.2	7.75
593.537	7.3
593.875	7.77
594.212	7.82
594.55	7.98
594.887	7.42
595.224	7.89
595.561	7.91
595.899	7.85
596.236	8.04
596.573	8.14
596.91	8.05
597.247	7.95
597.584	8.04
597.921	8.12
598.258	8.2
598.594	8.09
598.931	7.88
599.268	7.88
599.604	8.07
599.941	7.99
600.277	7.87
600.614	7.98
600.95	8.24
601.287	8.03
601.623	8.21
601.959	8.45
602.296	8.38
602.632	8.08
602.968	8.29
603.304	8.24
603.64	8.26
603.976	8.31
604.312	8.55
604.648	8.39
604.984	8.43
605.319	8.59
605.655	8.27
605.991	8.5
606.326	8.58
606.662	8.36
606.998	8.58
607.333	8.57
607.668	8.51
608.004	8.67
608.339	8.56
608.674	8.82
609.01	8.87
609.345	8.73
609.68	8.94
610.015	8.88
610.35	9.07
610.685	9.02
611.02	8.91
611.355	9.01
611.689	8.95
612.024	8.93
612.359	8.99
612.694	8.95
613.028	8.81
613.363	8.86
613.697	8.85
614.032	9.26
614.366	9.24
614.7	9.16
615.035	9.23
615.369	9.11
615.703	8.97
616.037	9.51
616.371	9.61
616.705	9.73
617.039	9.44
617.373	9.4
617.707	9.31
618.041	9.5
618.375	9.48
618.709	9.64
619.042	9.67
619.376	9.45
619.71	9.93
620.043	9.51
620.377	9.24
620.71	9.73
621.043	9.79
621.377	9.55
621.71	9.41
622.043	9.79
622.376	9.94
622.709	9.85
623.043	9.8
623.376	9.76
623.709	10.41
624.041	10.02
624.374	10.32
624.707	10.21
625.04	10.19
625.373	9.69
625.705	9.95
626.038	9.77
626.37	10.37
626.703	10.28
627.035	10.16
627.368	10.42
627.7	10.71
628.032	10.56
628.365	10.34
628.697	10.17
629.029	10.24
629.361	10.19
629.693	10.48
630.025	10.41
630.357	10.29
630.689	10.55
631.021	10.42
631.353	10.55
631.684	10.56
632.016	10.81
632.348	10.61
632.679	10.4
633.011	10.64
633.342	11.17
633.674	10.92
634.005	10.58
634.336	10.73
634.668	11.11
634.999	10.97
635.33	11.5
635.661	10.96
635.992	10.95
636.323	10.92
636.654	11.13
636.985	11.05
637.316	11.15
637.647	11.04
637.977	10.83
638.308	11.33
638.639	11.42
638.969	11.31
639.3	11.43
639.63	11.65
639.961	11.14
640.291	11.35
640.622	11.72
640.952	11.4
641.282	11.46
641.612	11.72
641.943	11.89
642.273	11.61
642.603	11.54
642.933	11.4
643.263	11.35
643.592	11.7
643.922	11.86
644.252	11.54
644.582	12.14
644.911	11.77
645.241	11.85
645.571	11.83
645.9	12.18
646.23	12.55
646.559	12
646.888	11.82
647.218	12.04
647.547	12.2
647.876	12.5
648.205	12.07
648.534	12.03
648.863	12.2
649.192	11.94
649.521	12.16
649.85	12.59
650.179	12.2
650.508	12.24
650.837	12.73
651.165	12.12
651.494	12.2
651.822	12.4
652.151	12.23
652.479	12.91
652.808	12.34
653.136	12.86
653.465	12.64
653.793	12.38
654.121	13.19
654.449	12.98
654.777	13
655.105	13.01
655.433	12.9
655.761	12.71
656.089	13.09
656.417	13.28
656.745	12.73
657.073	13.45
657.4	13.39
657.728	13.07
658.056	13.19
658.383	13.65
658.711	13.11
659.038	13.11
659.365	13.45
659.693	13.18
660.02	13.27
660.347	13.74
660.674	13.2
661.001	13.32
661.329	13.49
661.656	13.63
661.982	13.13
662.309	13.77
662.636	13.55
662.963	13.48
663.29	13.86
663.616	13.82
663.943	14.03
664.27	14.07
664.596	13.59
664.923	13.94
665.249	14.14
665.576	13.41
665.902	14.08
666.228	13.5
666.554	13.87
666.881	14.45
667.207	14.35
667.533	14.06
667.859	14.28
668.185	14.01
668.511	14.94
668.837	13.92
669.162	14.33
669.488	14.18
669.814	14.5
670.139	14.75
670.465	14.88
670.791	14.38
671.116	14.46
671.442	14.98
671.767	14.15
672.092	14.7
672.418	14.98
672.743	14.65
673.068	14.83
673.393	14.32
673.718	14.83
674.043	14.73
674.368	15.28
674.693	14.66
675.018	14.73
675.343	15.23
675.667	14.92
675.992	15.45
676.317	15.29
676.641	14.72
676.966	15.76
677.29	14.67
677.615	15.04
677.939	15.65
678.264	15.34
678.588	15.7
678.912	15.94
679.236	16.04
679.56	15.18
679.885	15.66
680.209	16.5
680.532	14.75
680.856	15.17
681.18	15.7
681.504	15.82
681.828	15.73
682.152	15.43
682.475	15.96
682.799	16.08
683.122	15.53
683.446	15.72
683.769	15.29
684.093	16.23
684.416	16
684.739	16.1
685.062	16.63
685.386	16.02
685.709	15.93
686.032	16.29
686.355	16.34
686.678	16.54
687.001	15.81
687.324	16.23
687.646	16.93
687.969	17.19
688.292	16.19
