Data from 0150_forehead_Reflection__4__95.txt Node

Date: Fri Sep 22 21:02:21 CDT 2023
User: ToomeyLab
Spectrometer: FLMS14357
Trigger mode: 0
Integration Time (sec): 1.000000E-2
Scans to average: 100
Electric dark correction enabled: true
Nonlinearity correction enabled: false
Boxcar width: 0
XAxis mode: Wavelengths
Number of Pixels in Spectrum: 2048
>>>>>Begin Spectral Data<<<<<
189.047	-110.48
189.435	-110.48
189.823	-110.48
190.211	269.08
190.599	-442.38
190.987	151.68
191.375	-50.87
191.763	436.78
192.151	69.96
192.538	-28.77
192.926	90.44
193.314	2076.92
193.702	-50.25
194.089	86.34
194.477	-16.38
194.864	-63.11
195.252	62.13
195.639	-9.23
196.027	87.05
196.414	79.5
196.801	-56.11
197.189	5.79
197.576	84.05
197.963	30.57
198.351	48.37
198.738	20.34
199.125	24.93
199.512	46.31
199.899	21.74
200.286	41.09
200.673	13.01
201.06	40.26
201.447	36.41
201.833	-29.62
202.22	37.25
202.607	37.55
202.994	33.93
203.38	50.91
203.767	43.79
204.154	56.8
204.54	31.48
204.927	36.7
205.313	28.1
205.699	49.43
206.086	55.51
206.472	73.3
206.858	32.7
207.245	7.76
207.631	50.69
208.017	28.72
208.403	45.18
208.789	20.48
209.175	49.3
209.561	41.03
209.947	43.37
210.333	44.99
210.719	28.4
211.105	41.48
211.491	9.51
211.876	51.72
212.262	46.84
212.648	29.64
213.034	20.61
213.419	24.56
213.805	20.27
214.19	16.84
214.576	50.1
214.961	47.6
215.346	13.4
215.732	29.45
216.117	28.47
216.502	35.79
216.888	47.09
217.273	35.78
217.658	31.1
218.043	37.78
218.428	27.61
218.813	13.33
219.198	34.25
219.583	19.53
219.968	16.03
220.353	32.52
220.738	29.86
221.122	5.23
221.507	7.92
221.892	14.22
222.276	20.94
222.661	-5.67
223.046	23.14
223.43	21.51
223.815	11.3
224.199	10.95
224.583	17.45
224.968	11.28
225.352	13.75
225.736	12.5
226.121	13.01
226.505	18.12
226.889	12.87
227.273	11.12
227.657	7.74
228.041	8.41
228.425	14.87
228.809	8.18
229.193	9.54
229.577	7.21
229.961	6.94
230.344	7.03
230.728	4.45
231.112	5.13
231.495	5.1
231.879	5.08
232.263	5.35
232.646	4.47
233.03	3.74
233.413	5.84
233.797	5.03
234.18	6.91
234.563	7.91
234.946	9.25
235.33	4.69
235.713	3.58
236.096	5.29
236.479	5.05
236.862	7.17
237.245	5.62
237.628	5.28
238.011	6.47
238.394	5.97
238.777	5.94
239.16	6.03
239.543	7.87
239.925	5.9
240.308	4.8
240.691	6.15
241.073	6.14
241.456	5.29
241.838	5.57
242.221	4.92
242.603	3.94
242.986	5.21
243.368	4.61
243.75	4.97
244.133	5.02
244.515	4.56
244.897	4
245.279	4.42
245.661	4.1
246.043	4.4
246.425	4.92
246.807	5.82
247.189	3.61
247.571	4.48
247.953	4.33
248.335	4.01
248.717	4.97
249.098	4.5
249.48	4.18
249.862	4.15
250.243	4.31
250.625	4.73
251.006	3.98
251.388	4.41
251.769	5.14
252.151	4.78
252.532	4.55
252.913	4.43
253.295	5.32
253.676	4.61
254.057	4.74
254.438	4.91
254.819	4.09
255.2	4.55
255.581	4.4
255.962	6.16
256.343	4.09
256.724	5.36
257.105	4.99
257.486	4.34
257.867	5.07
258.247	4.95
258.628	5.1
259.009	4.44
259.389	3.95
259.77	4.69
260.15	4.89
260.531	4.5
260.911	4.86
261.292	4.38
261.672	3.83
262.052	4.09
262.432	4.32
262.813	4.38
263.193	4.2
263.573	4.93
263.953	4.04
264.333	4.73
264.713	4.42
265.093	4.76
265.473	4.55
265.853	4.91
266.233	4.08
266.612	4.52
266.992	5.38
267.372	4.74
267.752	6.07
268.131	4.66
268.511	4.5
268.89	4.53
269.27	4.08
269.649	4.57
270.029	4.1
270.408	4.52
270.787	5.08
271.167	5.03
271.546	3.95
271.925	4.38
272.304	4.1
272.683	5.03
273.062	4.7
273.441	4.26
273.82	4.35
274.199	4.56
274.578	4.87
274.957	4.35
275.336	4.26
275.715	3.98
276.093	4.28
276.472	4.09
276.851	4.55
277.229	4.03
277.608	4.58
277.986	4.47
278.365	4.62
278.743	4.54
279.122	4.35
279.5	4.81
279.878	4.62
280.257	4.53
280.635	4.44
281.013	4.65
281.391	4.18
281.769	4.52
282.147	5.08
282.525	4.59
282.903	4.3
283.281	4.57
283.659	4.44
284.037	4.25
284.415	4.27
284.792	4.25
285.17	4.52
285.548	4.77
285.925	4.78
286.303	4.44
286.68	4.51
287.058	4.18
287.435	4.41
287.813	4.12
288.19	3.93
288.567	4.59
288.945	4.21
289.322	4.65
289.699	4.5
290.076	4.71
290.453	4.33
290.83	4.48
291.207	4.95
291.584	4.43
291.961	4.63
292.338	4.65
292.715	4.86
293.092	4.61
293.469	4.46
293.845	4.79
294.222	5.35
294.599	5.26
294.975	5.42
295.352	5.26
295.728	5.05
296.105	5.24
296.481	5.06
296.858	5.21
297.234	5.27
297.61	5.08
297.986	5.09
298.363	5.04
298.739	5.15
299.115	5.51
299.491	5.23
299.867	5.29
300.243	5.14
300.619	5.6
300.995	5.46
301.371	5.94
301.746	5.38
302.122	5.51
302.498	5.49
302.874	5.32
303.249	5.71
303.625	5.63
304	5.96
304.376	5.67
304.751	5.8
305.127	6.23
305.502	6.01
305.878	6.21
306.253	6.02
306.628	6.22
307.003	6.3
307.378	5.98
307.754	6.09
308.129	6.38
308.504	6.2
308.879	6.73
309.254	6.6
309.629	7.06
310.003	6.94
310.378	7.22
310.753	7.23
311.128	6.49
311.502	6.57
311.877	6.65
312.252	6.74
312.626	6.54
313.001	7.08
313.375	6.81
313.75	7.19
314.124	7.09
314.498	6.51
314.873	7.03
315.247	7.55
315.621	7.45
315.995	7.28
316.369	7.27
316.743	7.38
317.117	7.41
317.491	7.87
317.865	7.32
318.239	7.21
318.613	8.01
318.987	7.51
319.361	7.72
319.734	7.89
320.108	8.52
320.482	7.54
320.855	7.74
321.229	8.6
321.602	7.93
321.976	8.13
322.349	7.7
322.723	8.02
323.096	8.04
323.469	8.32
323.843	8.29
324.216	8.25
324.589	8.32
324.962	7.62
325.335	8.63
325.708	8.56
326.081	8.89
326.454	8.08
326.827	8.82
327.2	8.74
327.573	9.08
327.945	8.97
328.318	9.23
328.691	9.26
329.063	8.69
329.436	9.14
329.809	9.25
330.181	9.6
330.553	9.18
330.926	8.85
331.298	9.26
331.671	9.37
332.043	9.09
332.415	9.27
332.787	9.53
333.159	9.73
333.532	9.69
333.904	9.4
334.276	9.32
334.648	9.25
335.02	9.46
335.391	9.94
335.763	10
336.135	10.18
336.507	9.81
336.879	9.52
337.25	10.36
337.622	10.21
337.993	10.01
338.365	10.4
338.736	10.54
339.108	10.61
339.479	10.47
339.851	9.95
340.222	10.25
340.593	10.38
340.964	9.92
341.336	10.15
341.707	10.34
342.078	10.89
342.449	10.86
342.82	10.76
343.191	10.11
343.562	10.92
343.933	10.76
344.303	10.73
344.674	11.3
345.045	11.03
345.416	11.41
345.786	11.1
346.157	10.72
346.527	10.85
346.898	10.85
347.268	10.75
347.639	10.81
348.009	11.34
348.38	11.49
348.75	11.56
349.12	11.56
349.49	11.48
349.861	11.46
350.231	11.6
350.601	11.85
350.971	11.76
351.341	11.51
351.711	11.61
352.081	11.3
352.45	11.79
352.82	12.28
353.19	11.77
353.56	12.05
353.929	12.35
354.299	12.08
354.669	11.95
355.038	12.22
355.408	11.71
355.777	12.76
356.147	12.2
356.516	12.68
356.885	12.25
357.254	12.73
357.624	12.17
357.993	12.32
358.362	12.65
358.731	12.36
359.1	12.42
359.469	12.67
359.838	12.44
360.207	12.62
360.576	12.67
360.945	12.78
361.314	12.87
361.682	13.24
362.051	13.06
362.42	12.98
362.788	12.87
363.157	13.37
363.525	13.17
363.894	12.98
364.262	13.12
364.631	13.21
364.999	12.91
365.367	13.58
365.735	13.28
366.104	13.49
366.472	13.78
366.84	13.6
367.208	13.76
367.576	13.91
367.944	13.79
368.312	14.23
368.68	13.82
369.048	14.13
369.416	14.09
369.783	14.11
370.151	14.16
370.519	14.28
370.886	14.18
371.254	14.16
371.621	14.5
371.989	14.66
372.356	14.15
372.724	14.95
373.091	14.52
373.458	14.48
373.826	14.83
374.193	14.99
374.56	14.52
374.927	14.89
375.294	14.68
375.661	14.97
376.028	15.04
376.395	15.43
376.762	15.12
377.129	15.29
377.496	15.37
377.863	15.21
378.229	15.28
378.596	15.33
378.963	15.6
379.329	15.38
379.696	15.75
380.062	15.27
380.429	15.54
380.795	15.98
381.161	15.5
381.528	15.73
381.894	15.43
382.26	15.8
382.626	16.04
382.993	15.93
383.359	15.75
383.725	15.64
384.091	16.13
384.457	16.22
384.823	16.28
385.188	16.26
385.554	16.39
385.92	16.56
386.286	16.34
386.651	16.34
387.017	16.21
387.383	16.47
387.748	16.54
388.114	16.22
388.479	16.7
388.845	16.42
389.21	16.69
389.575	17.07
389.94	16.59
390.306	17.04
390.671	17.17
391.036	16.72
391.401	17.21
391.766	17.42
392.131	17.27
392.496	17.5
392.861	17.4
393.226	17.61
393.591	17.49
393.956	17.73
394.32	17.43
394.685	17.62
395.05	17.86
395.414	17.76
395.779	17.92
396.143	17.85
396.508	17.81
396.872	17.93
397.236	18.1
397.601	18.24
397.965	18.18
398.329	18.35
398.694	18.12
399.058	18.34
399.422	18.59
399.786	18.48
400.15	18.7
400.514	18.75
400.878	18.59
401.242	18.67
401.605	18.53
401.969	18.48
402.333	18.92
402.697	18.64
403.06	18.9
403.424	18.9
403.787	19.01
404.151	19.17
404.514	19.22
404.878	19.45
405.241	19.26
405.604	19.36
405.968	19.44
406.331	19.22
406.694	19.62
407.057	19.32
407.42	19.3
407.783	19.7
408.146	19.71
408.509	19.62
408.872	19.64
409.235	19.81
409.598	19.73
409.961	20.19
410.323	20.35
410.686	19.85
411.049	20.02
411.411	20.34
411.774	20.22
412.136	20.05
412.499	20.17
412.861	20.21
413.223	20.45
413.586	20.45
413.948	20.33
414.31	20.58
414.672	20.77
415.035	20.64
415.397	20.89
415.759	21.22
416.121	20.92
416.483	20.66
416.845	21.13
417.206	21
417.568	21.06
417.93	20.93
418.292	21.07
418.653	21
419.015	21.11
419.377	21.01
419.738	21.13
420.1	21.21
420.461	21.34
420.822	21.22
421.184	21.42
421.545	21.36
421.906	21.27
422.267	21.31
422.629	21.43
422.99	21.42
423.351	21.26
423.712	21.24
424.073	21.38
424.434	21.74
424.795	21.66
425.155	21.87
425.516	21.72
425.877	21.82
426.238	21.68
426.598	21.74
426.959	21.84
427.32	21.98
427.68	22.15
428.041	22.1
428.401	22.26
428.761	22.48
429.122	22.69
429.482	22.7
429.842	22.76
430.202	22.92
430.563	23.15
430.923	23.13
431.283	23.23
431.643	23.24
432.003	23.13
432.363	23.51
432.722	23.31
433.082	23.2
433.442	23.5
433.802	23.7
434.161	23.39
434.521	23.53
434.881	23.45
435.24	23.54
435.6	23.47
435.959	23.53
436.319	23.62
436.678	23.66
437.037	23.67
437.396	23.6
437.756	23.94
438.115	24.05
438.474	24.23
438.833	24.33
439.192	24.24
439.551	24.39
439.91	24.58
440.269	24.23
440.628	24.04
440.987	24.48
441.345	24.5
441.704	24.47
442.063	24.42
442.421	24.33
442.78	24.46
443.138	24.38
443.497	24.61
443.855	24.57
444.214	24.63
444.572	25.05
444.93	25.06
445.288	25.08
445.647	25.21
446.005	25.16
446.363	25.16
446.721	25.3
447.079	25
447.437	25.01
447.795	25.25
448.153	25.23
448.51	25.17
448.868	25
449.226	25.08
449.584	25.27
449.941	25.37
450.299	25.59
450.656	25.83
451.014	25.77
451.371	25.84
451.729	26.13
452.086	26.13
452.443	26.31
452.801	26.18
453.158	26.16
453.515	26.6
453.872	26.53
454.229	26.57
454.586	26.41
454.943	26.39
455.3	26.66
455.657	26.63
456.014	26.74
456.371	26.9
456.727	27.14
457.084	27.04
457.441	26.98
457.797	27.07
458.154	27.07
458.51	27.11
458.867	27.31
459.223	27.26
459.58	27.58
459.936	27.32
460.292	27.34
460.648	27.37
461.005	27.51
461.361	27.35
461.717	27.21
462.073	27.03
462.429	27.12
462.785	27.19
463.141	27.49
463.496	27.72
463.852	27.8
464.208	28.07
464.564	28.09
464.919	28.11
465.275	28.47
465.631	28.23
465.986	28.45
466.342	28.46
466.697	28.73
467.052	28.37
467.408	28.69
467.763	28.76
468.118	28.86
468.473	28.73
468.829	28.7
469.184	28.8
469.539	28.79
469.894	28.74
470.249	28.97
470.603	28.99
470.958	28.98
471.313	29.02
471.668	29.16
472.023	29.11
472.377	29.17
472.732	29.28
473.086	29.33
473.441	29.31
473.795	29.44
474.15	29.4
474.504	29.63
474.859	29.52
475.213	29.45
475.567	29.68
475.921	29.82
476.275	29.86
476.63	29.71
476.984	30.14
477.338	30.08
477.692	30.04
478.045	30.07
478.399	30.38
478.753	30.17
479.107	30.17
479.461	30.04
479.814	30.23
480.168	30.4
480.521	30.27
480.875	30.47
481.228	30.48
481.582	30.23
481.935	30.76
482.289	30.59
482.642	30.63
482.995	30.69
483.348	30.71
483.701	30.6
484.055	30.62
484.408	30.61
484.761	30.28
485.114	30.45
485.466	30
485.819	29.74
486.172	29.67
486.525	29.89
486.878	30.04
487.23	30.09
487.583	30.34
487.936	30.6
488.288	30.65
488.641	30.82
488.993	30.7
489.345	30.66
489.698	30.51
490.05	30.63
490.402	30.57
490.754	30.57
491.107	30.8
491.459	31.15
491.811	31.4
492.163	31.48
492.515	31.58
492.866	31.65
493.218	31.6
493.57	31.43
493.922	31.21
494.274	31.2
494.625	31.48
494.977	31.67
495.328	31.99
495.68	32.16
496.031	32.41
496.383	32.72
496.734	32.66
497.086	32.85
497.437	32.9
497.788	32.83
498.139	33.02
498.49	32.97
498.842	32.8
499.193	32.73
499.544	32.87
499.894	32.75
500.245	33.19
500.596	32.98
500.947	33.39
501.298	33.44
501.648	33.43
501.999	33.36
502.35	33.46
502.7	33.76
503.051	33.82
503.401	33.62
503.752	33.93
504.102	34.05
504.452	34.17
504.803	33.81
505.153	34
505.503	33.89
505.853	34.31
506.203	34.18
506.553	34.23
506.903	34.27
507.253	34.23
507.603	34.29
507.953	34.47
508.303	34.57
508.652	34.63
509.002	34.79
509.352	34.52
509.701	34.81
510.051	34.79
510.4	34.71
510.75	34.54
511.099	34.53
511.449	34.6
511.798	34.59
512.147	34.56
512.496	34.93
512.846	34.97
513.195	34.92
513.544	35.11
513.893	35.02
514.242	35.23
514.591	35.16
514.939	35.17
515.288	35.44
515.637	35.48
515.986	35.39
516.334	35.57
516.683	35.7
517.032	35.88
517.38	35.83
517.729	35.81
518.077	36.01
518.426	35.89
518.774	35.86
519.122	35.99
519.47	36
519.819	35.79
520.167	35.82
520.515	35.61
520.863	35.47
521.211	35.71
521.559	35.83
521.907	35.77
522.255	36.07
522.602	36.2
522.95	36.24
523.298	36.54
523.645	36.69
523.993	36.65
524.341	36.71
524.688	36.76
525.036	36.91
525.383	36.84
525.73	37.04
526.078	36.92
526.425	36.98
526.772	37.14
527.119	36.86
527.466	36.74
527.814	36.57
528.161	36.64
528.508	36.72
528.854	36.8
529.201	36.9
529.548	36.91
529.895	36.81
530.242	36.6
530.588	36.42
530.935	36.36
531.282	36.5
531.628	36.59
531.975	36.64
532.321	36.7
532.667	37.05
533.014	37.17
533.36	37.45
533.706	37.66
534.052	37.58
534.399	37.6
534.745	37.62
535.091	37.42
535.437	37.24
535.783	37.21
536.129	37.34
536.474	37.56
536.82	37.77
537.166	38.07
537.512	38.25
537.857	38.1
538.203	38.22
538.549	38.05
538.894	38.06
539.239	38.28
539.585	38.34
539.93	38.43
540.276	38.51
540.621	38.76
540.966	39.03
541.311	39.16
541.656	39.02
542.001	39.34
542.346	39.13
542.691	39.03
543.036	38.79
543.381	38.58
543.726	38.27
544.071	38.36
544.415	38.59
544.76	38.72
545.105	38.82
545.449	38.94
545.794	39.11
546.138	39.3
546.483	39.44
546.827	39.67
547.171	39.7
547.516	39.84
547.86	39.94
548.204	39.99
548.548	39.84
548.892	39.87
549.236	39.73
549.58	40.02
549.924	40.29
550.268	40.3
550.612	40.55
550.956	40.64
551.3	40.75
551.643	40.76
551.987	41.04
552.33	40.72
552.674	41.01
553.017	41.05
553.361	41.15
553.704	41.23
554.048	41.25
554.391	41.33
554.734	41.22
555.077	41.35
555.42	41.24
555.764	41.23
556.107	41.56
556.45	41.47
556.793	41.66
557.135	41.55
557.478	41.66
557.821	41.96
558.164	41.94
558.507	41.98
558.849	42.08
559.192	41.89
559.534	42.24
559.877	42.2
560.219	42.17
560.562	42.28
560.904	42.49
561.246	42.26
561.589	42.34
561.931	42.29
562.273	42.39
562.615	42.31
562.957	42.6
563.299	42.48
563.641	42.65
563.983	42.64
564.325	42.8
564.667	42.88
565.008	42.86
565.35	42.84
565.692	42.99
566.033	43.21
566.375	43.02
566.716	43.14
567.058	42.86
567.399	43.09
567.741	43.05
568.082	43.08
568.423	43.03
568.764	43.15
569.105	43.12
569.447	43.03
569.788	43.37
570.129	43.47
570.47	43.54
570.811	43.4
571.151	43.61
571.492	43.8
571.833	43.43
572.174	43.92
572.514	43.67
572.855	43.9
573.195	43.87
573.536	44
573.876	43.78
574.217	43.84
574.557	43.98
574.898	43.86
575.238	43.98
575.578	44.11
575.918	44.3
576.258	43.97
576.598	44.44
576.938	44.37
577.278	44.37
577.618	44.38
577.958	44.44
578.298	44.75
578.638	44.94
578.977	44.91
579.317	44.66
579.657	44.92
579.996	44.95
580.336	44.98
580.675	45.14
581.014	44.95
581.354	44.98
581.693	45.56
582.032	45.14
582.372	45.27
582.711	45.47
583.05	45.24
583.389	45.51
583.728	45.88
584.067	45.64
584.406	45.92
584.745	45.84
585.083	45.91
585.422	45.86
585.761	45.69
586.1	45.76
586.438	45.99
586.777	46.15
587.115	46.39
587.454	45.45
587.792	46.4
588.13	46.32
588.469	46.09
588.807	46.07
589.145	46.29
589.483	46.64
589.821	46.48
590.159	46.4
590.497	46.78
590.835	46.64
591.173	46.59
591.511	46.65
591.849	46.58
592.187	46.6
592.524	46.94
592.862	46.75
593.2	46.72
593.537	46.51
593.875	47.07
594.212	46.72
594.55	47.26
594.887	46.99
595.224	47.18
595.561	47.42
595.899	47.3
596.236	47.25
596.573	47.37
596.91	47.38
597.247	47.28
597.584	47.23
597.921	47.62
598.258	47.78
598.594	47.2
598.931	47.46
599.268	47.48
599.604	47.55
599.941	47.57
600.277	47.61
600.614	47.69
600.95	47.48
601.287	47.8
601.623	48.34
601.959	47.98
602.296	47.88
602.632	48.03
602.968	48.42
603.304	48.28
603.64	48.41
603.976	48.69
604.312	48.73
604.648	48.48
604.984	48.28
605.319	48.53
605.655	48.18
605.991	48.34
606.326	48.3
606.662	48.12
606.998	48.34
607.333	48.45
607.668	48.35
608.004	48.55
608.339	48.51
608.674	48.71
609.01	49.02
609.345	49.15
609.68	49.08
610.015	49.32
610.35	49.42
610.685	48.98
611.02	49.29
611.355	48.99
611.689	49.16
612.024	48.89
612.359	49.4
612.694	49.27
613.028	49.36
613.363	49.13
613.697	49.47
614.032	49.44
614.366	49.59
614.7	50.01
615.035	49.96
615.369	50.23
615.703	49.83
616.037	49.75
616.371	50.45
616.705	50.08
617.039	50.27
617.373	50.47
617.707	50.32
618.041	50.52
618.375	50.5
618.709	50.21
619.042	49.76
619.376	50.2
619.71	51.15
620.043	50.43
620.377	50.66
620.71	50.42
621.043	50.69
621.377	50.42
621.71	50.44
622.043	50.66
622.376	50.81
622.709	50.92
623.043	50.57
623.376	50.77
623.709	51.62
624.041	51.14
624.374	51.42
624.707	51.33
625.04	50.71
625.373	50.94
625.705	51.58
626.038	51.03
626.37	51.09
626.703	51.5
627.035	51.26
627.368	51.58
627.7	51.18
628.032	51.32
628.365	51.57
628.697	51.25
629.029	51.62
629.361	51.68
629.693	51.34
630.025	51.39
630.357	51.83
630.689	51.45
631.021	51.98
631.353	52.11
631.684	51.72
632.016	51.66
632.348	51.51
632.679	52.17
633.011	52.3
633.342	52.29
633.674	52.72
634.005	52.11
634.336	52.68
634.668	52.74
634.999	52.49
635.33	52.1
635.661	52.3
635.992	52.23
636.323	52.37
636.654	52.72
636.985	52.87
637.316	52.61
637.647	52.72
637.977	52.73
638.308	52.82
638.639	52.56
638.969	52.72
639.3	52.79
639.63	53.04
639.961	52.92
640.291	52.77
640.622	53.42
640.952	53.32
641.282	53.31
641.612	53.63
641.943	53.29
642.273	53.75
642.603	53.5
642.933	53.11
643.263	53.14
643.592	53.47
643.922	53.83
644.252	53.44
644.582	53.48
644.911	53.87
645.241	53.95
645.571	53.79
645.9	53.55
646.23	54.16
646.559	53.24
646.888	53.76
647.218	53.43
647.547	53.82
647.876	53.63
648.205	54.03
648.534	54.8
648.863	54.18
649.192	53.63
649.521	53.97
649.85	54.43
650.179	54.01
650.508	54.32
650.837	54.23
651.165	54.31
651.494	54.46
651.822	54.63
652.151	53.74
652.479	54.06
652.808	54.19
653.136	54.47
653.465	54.44
653.793	54.34
654.121	54.66
654.449	54.78
654.777	54.55
655.105	55.4
655.433	54.92
655.761	54.57
656.089	55.13
656.417	55.02
656.745	54.98
657.073	55.34
657.4	55.06
657.728	54.54
658.056	55.08
658.383	55.33
658.711	54.91
659.038	55.45
659.365	55.42
659.693	55.27
660.02	54.93
660.347	55.49
660.674	55.25
661.001	55.14
661.329	55.29
661.656	55.28
661.982	55.18
662.309	55.26
662.636	55.33
662.963	55.32
663.29	55.41
663.616	55.51
663.943	55.46
664.27	56.02
664.596	56.4
664.923	55.65
665.249	55.8
665.576	55.61
665.902	56.12
666.228	55.71
666.554	55.42
666.881	55.92
667.207	56.38
667.533	55.69
667.859	56.32
668.185	57
668.511	56.14
668.837	55.92
669.162	55.42
669.488	56.17
669.814	55.47
670.139	56.89
