Data from 0190_chest_Reflection__5__131.txt Node

Date: Fri Sep 22 21:21:52 CDT 2023
User: ToomeyLab
Spectrometer: FLMS14357
Trigger mode: 0
Integration Time (sec): 1.000000E-2
Scans to average: 100
Electric dark correction enabled: true
Nonlinearity correction enabled: false
Boxcar width: 0
XAxis mode: Wavelengths
Number of Pixels in Spectrum: 2048
>>>>>Begin Spectral Data<<<<<
189.047	-68.23
189.435	-68.23
189.823	-68.23
190.211	-453.53
190.599	-37.43
190.987	43.94
191.375	32.43
191.763	34.9
192.151	74.13
192.538	-15.81
192.926	18.34
193.314	-170.62
193.702	204.17
194.089	-668.65
194.477	-85.44
194.864	93.45
195.252	18.73
195.639	-128.66
196.027	-23.67
196.414	-175.98
196.801	-153.64
197.189	-225.83
197.576	98.07
197.963	3872.5
198.351	-6.4
198.738	-3.09
199.125	43.46
199.512	-7.55
199.899	47.93
200.286	11.36
200.673	36.59
201.06	18.54
201.447	30.64
201.833	7.56
202.22	63.62
202.607	49.11
202.994	43.83
203.38	29.79
203.767	46.28
204.154	44.53
204.54	66.76
204.927	21.68
205.313	4.8
205.699	43.47
206.086	46.04
206.472	60.28
206.858	28.7
207.245	36.94
207.631	44.43
208.017	33.38
208.403	27.04
208.789	20.89
209.175	54.51
209.561	44
209.947	23.36
210.333	37.05
210.719	2.2
211.105	43.47
211.491	45.51
211.876	58.76
212.262	36.89
212.648	20.84
213.034	46.76
213.419	22.67
213.805	21.76
214.19	38.25
214.576	60.29
214.961	35.14
215.346	2.13
215.732	19.66
216.117	25.31
216.502	41.62
216.888	28.31
217.273	26.4
217.658	13.06
218.043	16.1
218.428	40.51
218.813	-12.65
219.198	20.71
219.583	25.24
219.968	23.29
220.353	45.64
220.738	12.75
221.122	22.02
221.507	13.66
221.892	10.23
222.276	16.76
222.661	-1.96
223.046	21.59
223.43	25.72
223.815	0.15
224.199	7.67
224.583	16.43
224.968	18.32
225.352	2.2
225.736	13.12
226.121	10.9
226.505	6.51
226.889	10.1
227.273	12.3
227.657	8.44
228.041	15.72
228.425	11.73
228.809	8.38
229.193	8.87
229.577	7.87
229.961	7.64
230.344	9.21
230.728	7.01
231.112	7.67
231.495	6.94
231.879	7.28
232.263	6.35
232.646	7.15
233.03	7.52
233.413	7.08
233.797	9.23
234.18	5.67
234.563	8.72
234.946	8.43
235.33	5.7
235.713	6.04
236.096	6.31
236.479	5.72
236.862	8.83
237.245	6.91
237.628	7.52
238.011	8.07
238.394	9.13
238.777	8.29
239.16	7.64
239.543	8
239.925	7.04
240.308	7.88
240.691	7.09
241.073	8.28
241.456	7.46
241.838	6.33
242.221	6.86
242.603	7.17
242.986	6.26
243.368	6.02
243.75	7.12
244.133	7.37
244.515	6.57
244.897	6.24
245.279	6.38
245.661	6.39
246.043	6.57
246.425	5.9
246.807	7.55
247.189	5.08
247.571	7.27
247.953	6.33
248.335	6.72
248.717	6.76
249.098	5.91
249.48	5.86
249.862	5.96
250.243	6.16
250.625	6.15
251.006	5.77
251.388	5.95
251.769	6.3
252.151	6.29
252.532	5.17
252.913	6.61
253.295	6.98
253.676	6.1
254.057	6.41
254.438	6.01
254.819	5.72
255.2	5.59
255.581	5.87
255.962	6.2
256.343	6.09
256.724	4.67
257.105	6.78
257.486	6.1
257.867	7.25
258.247	5.78
258.628	6.88
259.009	5.65
259.389	5.56
259.77	6.2
260.15	6.13
260.531	5.76
260.911	5.62
261.292	5.62
261.672	5.25
262.052	5.52
262.432	5.48
262.813	5.64
263.193	5.27
263.573	6.02
263.953	5.53
264.333	5.94
264.713	5.44
265.093	5.94
265.473	5.22
265.853	4.98
266.233	5.3
266.612	5.9
266.992	6.77
267.372	5.7
267.752	6.27
268.131	5.33
268.511	5.31
268.89	5.78
269.27	5.03
269.649	5.67
270.029	5.06
270.408	5.34
270.787	5.98
271.167	5.4
271.546	4.91
271.925	5.31
272.304	4.73
272.683	5.75
273.062	5.66
273.441	5.26
273.82	5.64
274.199	5.68
274.578	5.53
274.957	5.59
275.336	5.41
275.715	5.39
276.093	5.2
276.472	5.22
276.851	5.45
277.229	4.99
277.608	5.74
277.986	5.68
278.365	5.19
278.743	5.52
279.122	5.49
279.5	5.54
279.878	5.35
280.257	5.17
280.635	5.38
281.013	5.45
281.391	4.74
281.769	5.56
282.147	5.12
282.525	5.13
282.903	5.34
283.281	5.24
283.659	5.43
284.037	5.27
284.415	5.27
284.792	5.3
285.17	5.17
285.548	5.42
285.925	4.85
286.303	5.45
286.68	4.58
287.058	4.93
287.435	5.1
287.813	4.98
288.19	4.83
288.567	5.1
288.945	4.99
289.322	5.41
289.699	5.48
290.076	5.1
290.453	5.11
290.83	4.97
291.207	5.16
291.584	4.76
291.961	4.98
292.338	4.78
292.715	5.18
293.092	4.91
293.469	4.89
293.845	4.6
294.222	5.22
294.599	5.03
294.975	4.59
295.352	5.51
295.728	4.95
296.105	5.57
296.481	5.04
296.858	5.42
297.234	5.16
297.61	5.03
297.986	5.16
298.363	4.7
298.739	5.05
299.115	5.53
299.491	5.07
299.867	4.87
300.243	4.97
300.619	4.99
300.995	4.79
301.371	4.84
301.746	5.35
302.122	4.83
302.498	5.04
302.874	5.03
303.249	5.12
303.625	4.76
304	5.65
304.376	5.01
304.751	5.42
305.127	4.7
305.502	5.07
305.878	5.2
306.253	5.32
306.628	4.96
307.003	5.1
307.378	4.72
307.754	5.06
308.129	4.91
308.504	5.02
308.879	4.73
309.254	5.16
309.629	5.12
310.003	5.67
310.378	5.31
310.753	5.47
311.128	5.44
311.502	5.29
311.877	4.96
312.252	5.18
312.626	5.22
313.001	5.17
313.375	5.08
313.75	5.32
314.124	5.43
314.498	4.77
314.873	5.12
315.247	5.63
315.621	4.91
315.995	5.4
316.369	4.96
316.743	5.63
317.117	5.73
317.491	5.13
317.865	5.12
318.239	4.76
318.613	4.83
318.987	5.39
319.361	4.89
319.734	5.37
320.108	5.45
320.482	4.84
320.855	5.06
321.229	6
321.602	6.13
321.976	4.89
322.349	4.99
322.723	5.07
323.096	5.24
323.469	4.99
323.843	5.19
324.216	5.02
324.589	4.89
324.962	4.54
325.335	5.47
325.708	5.05
326.081	4.97
326.454	4.98
326.827	4.99
327.2	4.99
327.573	5.67
327.945	5.11
328.318	5.06
328.691	5.2
329.063	4.94
329.436	4.79
329.809	5.25
330.181	5.23
330.553	4.56
330.926	4.95
331.298	5.36
331.671	5.03
332.043	4.46
332.415	4.98
332.787	5.41
333.159	5.19
333.532	4.97
333.904	5.55
334.276	5.18
334.648	4.66
335.02	4.87
335.391	5.69
335.763	5.14
336.135	5.44
336.507	5.07
336.879	4.73
337.25	5.32
337.622	5.44
337.993	5.24
338.365	5.4
338.736	5.54
339.108	5.43
339.479	5
339.851	4.65
340.222	4.87
340.593	4.86
340.964	4.75
341.336	5.22
341.707	5.12
342.078	5.13
342.449	5.18
342.82	4.26
343.191	4.86
343.562	5.01
343.933	5.11
344.303	4.82
344.674	5.36
345.045	4.68
345.416	5.44
345.786	4.86
346.157	4.9
346.527	4.96
346.898	4.82
347.268	5
347.639	5.53
348.009	4.92
348.38	5.03
348.75	5.22
349.12	5
349.49	5.49
349.861	4.95
350.231	5.18
350.601	5.15
350.971	4.94
351.341	4.98
351.711	5.01
352.081	5.44
352.45	5.13
352.82	5.58
353.19	4.86
353.56	5.07
353.929	5.43
354.299	4.95
354.669	5.34
355.038	5.24
355.408	5.09
355.777	5.43
356.147	5.37
356.516	5.43
356.885	4.98
357.254	5.55
357.624	4.5
357.993	5.05
358.362	5.41
358.731	5.09
359.1	5.1
359.469	4.82
359.838	4.68
360.207	4.92
360.576	4.98
360.945	5.03
361.314	5.25
361.682	5
362.051	5.37
362.42	4.94
362.788	5.08
363.157	5.07
363.525	4.91
363.894	4.99
364.262	4.84
364.631	4.87
364.999	4.72
365.367	5.2
365.735	5.07
366.104	5.02
366.472	5.29
366.84	4.84
367.208	5.11
367.576	5.18
367.944	4.81
368.312	5.08
368.68	4.95
369.048	5.16
369.416	4.67
369.783	4.91
370.151	4.87
370.519	5.19
370.886	5.11
371.254	5.37
371.621	4.86
371.989	4.81
372.356	5.04
372.724	5.24
373.091	5.05
373.458	5.28
373.826	5.27
374.193	5.38
374.56	4.87
374.927	5.03
375.294	5.07
375.661	4.87
376.028	5.63
376.395	4.92
376.762	4.79
377.129	5.23
377.496	5.41
377.863	5.24
378.229	5.06
378.596	4.99
378.963	5.32
379.329	5.02
379.696	5.4
380.062	5.01
380.429	4.95
380.795	5.18
381.161	5.21
381.528	5.07
381.894	4.77
382.26	5.04
382.626	5.34
382.993	5.26
383.359	4.87
383.725	5.33
384.091	5.16
384.457	5.03
384.823	4.9
385.188	5.34
385.554	5
385.92	5.35
386.286	4.96
386.651	5.04
387.017	5.14
387.383	5.25
387.748	4.87
388.114	5.05
388.479	5.08
388.845	4.63
389.21	4.88
389.575	5.24
389.94	5.13
390.306	5.19
390.671	5.45
391.036	4.75
391.401	5.04
391.766	5.04
392.131	4.95
392.496	5.2
392.861	4.98
393.226	5.03
393.591	5.22
393.956	5.12
394.32	5.07
394.685	4.79
395.05	5.12
395.414	5.2
395.779	5.09
396.143	5.27
396.508	5.12
396.872	4.94
397.236	5.19
397.601	5.09
397.965	5.25
398.329	5.34
398.694	5.03
399.058	5.09
399.422	5.14
399.786	5.34
400.15	5.27
400.514	5.27
400.878	5.14
401.242	5.02
401.605	5.24
401.969	4.88
402.333	5.16
402.697	4.99
403.06	5.18
403.424	5.09
403.787	5.13
404.151	5.13
404.514	5.19
404.878	5.1
405.241	5.39
405.604	5.2
405.968	5.26
406.331	5.26
406.694	5.25
407.057	4.96
407.42	5.23
407.783	5.13
408.146	5.02
408.509	5.25
408.872	5
409.235	5.16
409.598	5.14
409.961	5.26
410.323	5.24
410.686	5.29
411.049	5.47
411.411	5.25
411.774	5.12
412.136	5.09
412.499	5.16
412.861	5.28
413.223	5.09
413.586	5.18
413.948	5.2
414.31	5.28
414.672	5.18
415.035	5.05
415.397	5.33
415.759	5.47
416.121	5.17
416.483	5.01
416.845	5.25
417.206	5.23
417.568	5.05
417.93	5.05
418.292	5
418.653	5.03
419.015	5.07
419.377	5.15
419.738	5.35
420.1	5.07
420.461	5.07
420.822	5.15
421.184	5.09
421.545	5.03
421.906	5.03
422.267	4.94
422.629	5.13
422.99	4.98
423.351	4.91
423.712	4.98
424.073	4.98
424.434	5.05
424.795	5.03
425.155	5.21
425.516	5.05
425.877	5.06
426.238	4.89
426.598	5.01
426.959	5.1
427.32	5.04
427.68	5
428.041	4.98
428.401	5.2
428.761	5.13
429.122	5.11
429.482	5.14
429.842	5.04
430.202	5.08
430.563	5.24
430.923	5.22
431.283	5.12
431.643	5.16
432.003	5.22
432.363	5.24
432.722	5.11
433.082	5.21
433.442	5.03
433.802	5.33
434.161	5.18
434.521	5.11
434.881	5.23
435.24	5.08
435.6	5.15
435.959	5.02
436.319	5.06
436.678	5.29
437.037	5.14
437.396	5.16
437.756	5.25
438.115	5.17
438.474	5.16
438.833	5.31
439.192	5.2
439.551	5.15
439.91	5.3
440.269	5.23
440.628	5
440.987	5.25
441.345	5.19
441.704	5.22
442.063	5.15
442.421	5.2
442.78	5.19
443.138	5.16
443.497	5.2
443.855	5.21
444.214	5.03
444.572	5.28
444.93	5.18
445.288	5.21
445.647	5.18
446.005	5.24
446.363	5.12
446.721	5.26
447.079	5.1
447.437	5.2
447.795	5.15
448.153	5.12
448.51	5.09
448.868	5.05
449.226	5.13
449.584	5.06
449.941	5.13
450.299	5.16
450.656	5.15
451.014	5.27
451.371	5.18
451.729	5.24
452.086	5.22
452.443	5.25
452.801	5.33
453.158	5.27
453.515	5.36
453.872	5.43
454.229	5.27
454.586	5.28
454.943	5.22
455.3	5.34
455.657	5.05
456.014	5.22
456.371	5.35
456.727	5.45
457.084	5.22
457.441	5.19
457.797	5.28
458.154	5.18
458.51	5.2
458.867	5.38
459.223	5.31
459.58	5.45
459.936	5.38
460.292	5.43
460.648	5.35
461.005	5.28
461.361	5.37
461.717	5.09
462.073	5.26
462.429	5.12
462.785	5.09
463.141	5.26
463.496	5.35
463.852	5.22
464.208	5.28
464.564	5.34
464.919	5.31
465.275	5.49
465.631	5.45
465.986	5.29
466.342	5.26
466.697	5.31
467.052	5.24
467.408	5.33
467.763	5.24
468.118	5.33
468.473	5.38
468.829	5.22
469.184	5.21
469.539	5.3
469.894	5.33
470.249	5.18
470.603	5.37
470.958	5.41
471.313	5.37
471.668	5.36
472.023	5.37
472.377	5.34
472.732	5.25
473.086	5.5
473.441	5.28
473.795	5.38
474.15	5.33
474.504	5.29
474.859	5.62
475.213	5.17
475.567	5.26
475.921	5.18
476.275	5.4
476.63	5.23
476.984	5.39
477.338	5.38
477.692	5.25
478.045	5.63
478.399	5.57
478.753	5.41
479.107	5.49
479.461	5.38
479.814	5.39
480.168	5.41
480.521	5.42
480.875	5.5
481.228	5.31
481.582	5.26
481.935	5.49
482.289	5.23
482.642	5.18
482.995	5.34
483.348	5.35
483.701	5.38
484.055	5.27
484.408	5.28
484.761	5.36
485.114	5.12
485.466	5.12
485.819	5.08
486.172	5.04
486.525	5.04
486.878	5.06
487.23	5.1
487.583	5.15
487.936	5.18
488.288	5.21
488.641	5.25
488.993	5.21
489.345	5.13
489.698	5.13
490.05	5.1
490.402	5.14
490.754	5.11
491.107	5.19
491.459	5.26
491.811	5.3
492.163	5.33
492.515	5.29
492.866	5.35
493.218	5.35
493.57	5.29
493.922	5.11
494.274	5.17
494.625	5.17
494.977	5.25
495.328	5.33
495.68	5.42
496.031	5.36
496.383	5.47
496.734	5.43
497.086	5.42
497.437	5.45
497.788	5.6
498.139	5.56
498.49	5.63
498.842	5.35
499.193	5.35
499.544	5.57
499.894	5.45
500.245	5.42
500.596	5.45
500.947	5.59
501.298	5.56
501.648	5.45
501.999	5.58
502.35	5.54
502.7	5.72
503.051	5.61
503.401	5.57
503.752	5.57
504.102	5.48
504.452	5.6
504.803	5.64
505.153	5.66
505.503	5.57
505.853	5.78
506.203	5.73
506.553	5.67
506.903	5.53
507.253	5.48
507.603	5.77
507.953	5.68
508.303	5.61
508.652	5.54
509.002	5.64
509.352	5.64
509.701	5.69
510.051	5.62
510.4	5.65
510.75	5.49
511.099	5.39
511.449	5.64
511.798	5.59
512.147	5.62
512.496	5.58
512.846	5.57
513.195	5.62
513.544	5.63
513.893	5.62
514.242	5.56
514.591	5.73
514.939	5.7
515.288	5.53
515.637	5.56
515.986	5.59
516.334	5.61
516.683	5.71
517.032	5.8
517.38	5.79
517.729	5.63
518.077	5.77
518.426	5.78
518.774	5.66
519.122	5.65
519.47	5.68
519.819	5.72
520.167	5.71
520.515	5.66
520.863	5.62
521.211	5.71
521.559	5.71
521.907	5.8
522.255	5.7
522.602	5.8
522.95	5.7
523.298	5.87
523.645	5.84
523.993	5.76
524.341	5.78
524.688	5.8
525.036	5.88
525.383	5.87
525.73	5.9
526.078	5.85
526.425	5.82
526.772	6.01
527.119	5.9
527.466	5.78
527.814	5.75
528.161	5.72
528.508	5.76
528.854	5.86
529.201	5.9
529.548	5.87
529.895	5.78
530.242	5.73
530.588	5.69
530.935	5.63
531.282	5.64
531.628	5.72
531.975	5.76
532.321	5.79
532.667	5.83
533.014	5.91
533.36	5.94
533.706	5.93
534.052	6.01
534.399	6.01
534.745	5.98
535.091	5.86
535.437	5.89
535.783	5.81
536.129	5.89
536.474	5.9
536.82	5.91
537.166	5.97
537.512	6.08
537.857	6.03
538.203	6.25
538.549	6.08
538.894	6.1
539.239	6.07
539.585	6.1
539.93	6.24
540.276	6.15
540.621	6.24
540.966	6.18
541.311	6.17
541.656	6.27
542.001	6.31
542.346	6.32
542.691	6.35
543.036	6.2
543.381	6.15
543.726	5.99
544.071	6.03
544.415	6.11
544.76	6.15
545.105	6.18
545.449	6.17
545.794	6.26
546.138	6.29
546.483	6.39
546.827	6.39
547.171	6.4
547.516	6.33
547.86	6.47
548.204	6.47
548.548	6.51
548.892	6.48
549.236	6.46
549.58	6.48
549.924	6.51
550.268	6.62
550.612	6.51
550.956	6.64
551.3	6.76
551.643	6.75
551.987	6.58
552.33	6.78
552.674	6.6
553.017	6.75
553.361	6.69
553.704	6.83
554.048	6.89
554.391	6.85
554.734	6.94
555.077	6.72
555.42	6.73
555.764	6.8
556.107	6.78
556.45	6.84
556.793	7.01
557.135	7.01
557.478	6.75
557.821	6.94
558.164	7.16
558.507	7.09
558.849	6.69
559.192	7.03
559.534	6.89
559.877	7.07
560.219	6.95
560.562	7.01
560.904	7.08
561.246	7.46
561.589	7.13
561.931	6.91
562.273	6.91
562.615	7.1
562.957	7.04
563.299	7.1
563.641	7.2
563.983	7.28
564.325	7.36
564.667	7.45
565.008	7.27
565.35	7.39
565.692	7.44
566.033	7.27
566.375	7.37
566.716	7.24
567.058	7.29
567.399	7.5
567.741	7.58
568.082	7.4
568.423	7.5
568.764	7.61
569.105	7.33
569.447	7.53
569.788	7.37
570.129	7.58
570.47	7.75
570.811	7.51
571.151	7.51
571.492	7.45
571.833	7.64
572.174	7.47
572.514	7.76
572.855	7.63
573.195	7.58
573.536	7.68
573.876	7.63
574.217	7.8
574.557	7.67
574.898	7.75
575.238	7.74
575.578	7.8
575.918	7.81
576.258	7.81
576.598	7.83
576.938	7.83
577.278	7.99
577.618	7.89
577.958	7.99
578.298	8.26
578.638	8.03
578.977	8.02
579.317	7.97
579.657	8.3
579.996	8.06
580.336	8.27
580.675	8.39
581.014	8.01
581.354	8.1
581.693	8.3
582.032	8.44
582.372	8.32
582.711	8.46
583.05	8.58
583.389	8.31
583.728	8.34
584.067	8.5
584.406	8.56
584.745	8.25
585.083	8.76
585.422	8.77
585.761	8.77
586.1	8.81
586.438	8.58
586.777	8.5
587.115	8.83
587.454	8.4
587.792	8.76
588.13	8.54
588.469	8.86
588.807	8.82
589.145	8.85
589.483	8.89
589.821	8.73
590.159	8.98
590.497	9.2
590.835	9.11
591.173	8.91
591.511	9.14
591.849	9.06
592.187	9.15
592.524	9.16
592.862	9.14
593.2	9
593.537	9.3
593.875	9.17
594.212	9.32
594.55	9.27
594.887	9.06
595.224	9.36
595.561	9.38
595.899	9.53
596.236	9.65
596.573	9.57
596.91	9.58
597.247	9.33
597.584	9.7
597.921	9.6
598.258	9.59
598.594	9.56
598.931	9.5
599.268	9.62
599.604	9.79
599.941	9.48
600.277	9.6
600.614	9.69
600.95	9.77
601.287	9.51
601.623	9.9
601.959	9.99
602.296	9.9
602.632	9.99
602.968	10
603.304	10.19
603.64	10.01
603.976	10.17
604.312	9.87
604.648	10.22
604.984	9.99
605.319	10.16
605.655	10.23
605.991	10.28
606.326	10.13
606.662	10.14
606.998	10.19
607.333	10.2
607.668	10.29
608.004	10.28
608.339	10.18
608.674	10.45
609.01	10.38
609.345	10.51
609.68	10.41
610.015	10.43
610.35	10.59
610.685	10.8
611.02	10.83
611.355	10.92
611.689	10.73
612.024	10.58
612.359	10.7
612.694	10.73
613.028	10.59
613.363	10.79
613.697	10.96
614.032	11.05
614.366	10.76
614.7	10.99
615.035	11.14
615.369	11.11
615.703	11.04
616.037	11.12
616.371	11.32
616.705	11.1
617.039	11.36
617.373	11.12
617.707	11.04
618.041	11.33
618.375	11.41
618.709	11.4
619.042	11.56
619.376	11.84
619.71	11.89
620.043	11.3
620.377	11.38
620.71	11.68
621.043	11.9
621.377	11.73
621.71	11.8
622.043	11.97
622.376	12.03
622.709	12.02
623.043	11.7
623.376	12
623.709	11.97
624.041	11.89
624.374	11.93
624.707	12.05
625.04	12.29
625.373	11.68
625.705	11.88
626.038	12.35
626.37	12.42
626.703	12.26
627.035	12.16
627.368	12.32
627.7	12.32
628.032	12.5
628.365	12.51
628.697	12.34
629.029	12.22
629.361	12.4
629.693	12.45
630.025	12.57
630.357	12.35
630.689	12.54
631.021	12.45
631.353	12.63
631.684	12.61
632.016	12.71
632.348	12.56
632.679	12.42
633.011	12.82
633.342	13.05
633.674	13.06
634.005	12.86
634.336	12.7
634.668	13.36
634.999	13.13
635.33	13.24
635.661	13.34
635.992	13.12
636.323	13.16
636.654	12.91
636.985	13.14
637.316	13.24
637.647	13.3
637.977	13.14
638.308	13.52
638.639	13.37
638.969	13.15
639.3	13.39
639.63	13.93
639.961	13.5
640.291	13.45
640.622	13.52
640.952	13.71
641.282	13.81
641.612	13.98
641.943	13.85
642.273	13.92
642.603	14.23
642.933	13.74
643.263	13.47
643.592	13.8
643.922	14.09
644.252	14.14
644.582	14.19
644.911	13.83
645.241	14.92
645.571	13.91
645.9	14.26
646.23	14.44
646.559	14.25
646.888	14.7
647.218	14.11
647.547	14.04
647.876	14.65
648.205	14.52
648.534	14.43
648.863	14.62
649.192	14.29
649.521	14.25
649.85	14.89
650.179	14.63
650.508	14.65
650.837	14.76
651.165	15.04
651.494	14.51
651.822	14.53
652.151	14.91
652.479	15.26
652.808	14.94
653.136	15.34
653.465	15.22
653.793	14.84
654.121	15.58
654.449	15.42
654.777	15.03
655.105	15.28
655.433	15.67
655.761	15.25
656.089	15.21
656.417	15.01
656.745	15.18
657.073	15.35
657.4	15.93
657.728	16.27
658.056	15.83
658.383	15.62
658.711	15.69
659.038	15.58
659.365	15.68
659.693	15.91
660.02	16.32
660.347	16.16
660.674	15.87
661.001	15.49
661.329	16.04
661.656	15.97
661.982	15.93
662.309	16.27
662.636	16.05
662.963	16.34
663.29	16.7
663.616	16.3
663.943	16.31
664.27	16.12
664.596	16.4
664.923	16.23
665.249	16.29
665.576	16.09
665.902	16.39
666.228	16.57
666.554	16.36
666.881	17.17
667.207	17.12
667.533	16.52
667.859	16.86
668.185	16.78
668.511	17.23
668.837	16.49
669.162	16.92
669.488	17.23
669.814	16.76
670.139	16.94
670.465	17.36
670.791	16.68
671.116	17.05
671.442	17.49
671.767	16.25
672.092	17.47
672.418	17.67
672.743	17.34
673.068	17.41
673.393	17.21
673.718	17.98
674.043	17.6
674.368	17.08
674.693	17.44
675.018	17.58
675.343	17.97
675.667	17.61
675.992	17.58
676.317	18.11
676.641	17.83
676.966	17.85
677.29	17.61
677.615	18.06
677.939	17.95
678.264	18.12
678.588	18.4
678.912	18.12
679.236	18.91
679.56	18.26
679.885	18.12
680.209	18.68
680.532	18.3
680.856	18.58
681.18	18.25
681.504	18.87
681.828	18.22
682.152	18.11
682.475	19.13
682.799	18.92
683.122	18.68
683.446	18.49
683.769	19.09
684.093	19.18
684.416	18.68
684.739	18.66
685.062	19
685.386	19.08
685.709	18.71
686.032	18.8
686.355	18.5
686.678	19.03
687.001	19.17
