Data from 0190_crown_Reflection__4__136.txt Node

Date: Fri Sep 22 21:23:35 CDT 2023
User: ToomeyLab
Spectrometer: FLMS14357
Trigger mode: 0
Integration Time (sec): 1.000000E-2
Scans to average: 100
Electric dark correction enabled: true
Nonlinearity correction enabled: false
Boxcar width: 0
XAxis mode: Wavelengths
Number of Pixels in Spectrum: 2048
>>>>>Begin Spectral Data<<<<<
189.047	-93.75
189.435	-93.75
189.823	-93.75
190.211	-709.78
190.599	54.36
190.987	32.04
191.375	132.52
191.763	30.65
192.151	3.18
192.538	-35.26
192.926	83.62
193.314	202.5
193.702	2296.67
194.089	-206.92
194.477	-145.29
194.864	96.84
195.252	109.8
195.639	-306.57
196.027	121.51
196.414	122.66
196.801	-31.01
197.189	-25.56
197.576	79.62
197.963	3430
198.351	64.47
198.738	6.78
199.125	-8.03
199.512	12.41
199.899	64.28
200.286	36.27
200.673	22.05
201.06	28.94
201.447	42.28
201.833	-15.08
202.22	25.53
202.607	51.25
202.994	43.03
203.38	18.77
203.767	20.8
204.154	20.8
204.54	41.11
204.927	23.38
205.313	47.93
205.699	48.13
206.086	26.27
206.472	53.72
206.858	22.5
207.245	9.46
207.631	49.29
208.017	71.15
208.403	25.84
208.789	27.57
209.175	44.14
209.561	54.18
209.947	62.63
210.333	33.97
210.719	37.33
211.105	26.94
211.491	11.56
211.876	30.17
212.262	36.23
212.648	10.25
213.034	18.49
213.419	2.36
213.805	26.53
214.19	25.26
214.576	16.63
214.961	15.64
215.346	13.68
215.732	22.71
216.117	-1.07
216.502	46.06
216.888	28.74
217.273	25.37
217.658	13.25
218.043	35.45
218.428	30.82
218.813	-8.04
219.198	10.73
219.583	35.04
219.968	-0.47
220.353	26.23
220.738	22.99
221.122	18.29
221.507	28.45
221.892	9.57
222.276	-0.93
222.661	-11.94
223.046	28.98
223.43	23.36
223.815	22.06
224.199	3.87
224.583	17.19
224.968	5.31
225.352	3.84
225.736	8.22
226.121	6.87
226.505	8.34
226.889	7.08
227.273	10.45
227.657	10.91
228.041	8.86
228.425	8.7
228.809	5.49
229.193	5.25
229.577	9.08
229.961	7.43
230.344	5.68
230.728	3.15
231.112	5.38
231.495	4.7
231.879	5.66
232.263	4.55
232.646	5.21
233.03	4.76
233.413	5.44
233.797	6.18
234.18	5.53
234.563	7.65
234.946	8.79
235.33	2.57
235.713	4.3
236.096	3.33
236.479	5.85
236.862	7.2
237.245	5.38
237.628	6.82
238.011	5.72
238.394	5.28
238.777	7.78
239.16	7.51
239.543	7.87
239.925	7.83
240.308	5.86
240.691	5.65
241.073	5.43
241.456	4.38
241.838	5.33
242.221	5.75
242.603	5.37
242.986	4.78
243.368	4.69
243.75	5.17
244.133	5.25
244.515	4.6
244.897	4.73
245.279	4.84
245.661	4.66
246.043	5.02
246.425	4.44
246.807	5
247.189	4.21
247.571	5.28
247.953	4.77
248.335	5.1
248.717	4.98
249.098	4.53
249.48	4.28
249.862	4.44
250.243	4.6
250.625	4.66
251.006	4.42
251.388	4.82
251.769	4.82
252.151	4.11
252.532	4.85
252.913	5.96
253.295	5.43
253.676	4.71
254.057	4.59
254.438	4.97
254.819	4.25
255.2	4.44
255.581	4.2
255.962	4.76
256.343	3.99
256.724	4.12
257.105	4.58
257.486	5.79
257.867	4.35
258.247	5.21
258.628	5.21
259.009	3.76
259.389	4.16
259.77	4.64
260.15	5.26
260.531	4.11
260.911	4.35
261.292	4.34
261.672	3.99
262.052	3.96
262.432	3.99
262.813	4.01
263.193	3.9
263.573	4.7
263.953	3.98
264.333	4.31
264.713	3.98
265.093	3.87
265.473	4.06
265.853	3.84
266.233	4.53
266.612	3.9
266.992	4.7
267.372	4.33
267.752	5.27
268.131	4
268.511	3.85
268.89	4.55
269.27	3.98
269.649	3.99
270.029	4.27
270.408	3.94
270.787	3.97
271.167	4.46
271.546	3.97
271.925	3.74
272.304	3.24
272.683	3.9
273.062	4.43
273.441	3.34
273.82	4.21
274.199	4.39
274.578	4.31
274.957	3.56
275.336	3.73
275.715	3.91
276.093	3.73
276.472	4.09
276.851	4.41
277.229	3.39
277.608	4.39
277.986	3.58
278.365	4.16
278.743	4.12
279.122	4.03
279.5	4.05
279.878	3.66
280.257	4.44
280.635	3.55
281.013	4.1
281.391	3.59
281.769	4.08
282.147	3.69
282.525	3.66
282.903	3.89
283.281	3.7
283.659	4.01
284.037	3.62
284.415	3.91
284.792	3.49
285.17	3.89
285.548	4.2
285.925	3.35
286.303	3.64
286.68	3.25
287.058	3.38
287.435	3.66
287.813	3.61
288.19	3.24
288.567	3.47
288.945	3.64
289.322	3.55
289.699	3.47
290.076	3.79
290.453	3.22
290.83	3.56
291.207	3.32
291.584	3.44
291.961	3
292.338	3.48
292.715	3.34
293.092	3.78
293.469	3.67
293.845	3.22
294.222	4.13
294.599	3.43
294.975	3.73
295.352	4.17
295.728	3.5
296.105	3.3
296.481	3.17
296.858	3.46
297.234	3.99
297.61	3.61
297.986	3.57
298.363	2.98
298.739	3.61
299.115	3.6
299.491	3.34
299.867	3.43
300.243	3.38
300.619	3.33
300.995	3.62
301.371	3.52
301.746	3.53
302.122	3.24
302.498	3.27
302.874	3.32
303.249	3.13
303.625	3.12
304	3.55
304.376	3.52
304.751	3.76
305.127	3.46
305.502	3.5
305.878	3.21
306.253	3.57
306.628	3.46
307.003	3.5
307.378	3.24
307.754	3.23
308.129	3.51
308.504	3.29
308.879	3.59
309.254	3.56
309.629	3.81
310.003	3.99
310.378	3.4
310.753	3.45
311.128	3.78
311.502	3.7
311.877	2.94
312.252	3.3
312.626	3.39
313.001	3.57
313.375	3.82
313.75	3.67
314.124	3.92
314.498	3.23
314.873	3.49
315.247	3.77
315.621	3.32
315.995	3.58
316.369	3.64
316.743	3.64
317.117	3.77
317.491	3.72
317.865	3.23
318.239	3.26
318.613	3.51
318.987	3.54
319.361	3.33
319.734	3.12
320.108	4.11
320.482	3.1
320.855	3.26
321.229	3.72
321.602	3.27
321.976	3.45
322.349	3.51
322.723	3.63
323.096	3.76
323.469	3.59
323.843	2.68
324.216	3.5
324.589	3.44
324.962	2.9
325.335	2.98
325.708	3.43
326.081	3.48
326.454	3.24
326.827	3.19
327.2	3.51
327.573	3.92
327.945	3.42
328.318	3.62
328.691	3.81
329.063	3.2
329.436	3.42
329.809	3.48
330.181	3.5
330.553	3.61
330.926	3.32
331.298	3.61
331.671	3.48
332.043	2.72
332.415	3.44
332.787	3.97
333.159	2.92
333.532	3.39
333.904	3.36
334.276	2.83
334.648	2.85
335.02	3.56
335.391	3.74
335.763	3.5
336.135	3.35
336.507	3.51
336.879	3.55
337.25	3.89
337.622	3.89
337.993	3.43
338.365	4.26
338.736	3.51
339.108	3.91
339.479	3.55
339.851	3.63
340.222	3.08
340.593	3.35
340.964	2.9
341.336	3.34
341.707	3.5
342.078	3.28
342.449	3.56
342.82	3.21
343.191	3.3
343.562	3.27
343.933	3.59
344.303	3.65
344.674	3.84
345.045	3.36
345.416	4.12
345.786	3.07
346.157	3.15
346.527	3.12
346.898	3.51
347.268	3.38
347.639	3.49
348.009	3.53
348.38	3.3
348.75	3.96
349.12	3.38
349.49	3.86
349.861	3.42
350.231	3.6
350.601	3.94
350.971	3.76
351.341	3.09
351.711	3.52
352.081	3.34
352.45	3.75
352.82	3.57
353.19	3.27
353.56	2.89
353.929	3.5
354.299	3.75
354.669	3.19
355.038	2.91
355.408	3.6
355.777	3.64
356.147	3.32
356.516	3.6
356.885	3.84
357.254	3.9
357.624	3.54
357.993	3.52
358.362	3.72
358.731	3.57
359.1	3.7
359.469	3.51
359.838	3.4
360.207	3.21
360.576	3.75
360.945	3.69
361.314	3.93
361.682	3.83
362.051	3.81
362.42	3.42
362.788	3.2
363.157	3.65
363.525	3.39
363.894	3.27
364.262	3.38
364.631	3.39
364.999	3.44
365.367	3.76
365.735	3.59
366.104	3.37
366.472	3.96
366.84	3.57
367.208	4.04
367.576	4.03
367.944	3.52
368.312	4.06
368.68	3.69
369.048	4.11
369.416	3.79
369.783	3.25
370.151	3.56
370.519	3.68
370.886	3.61
371.254	3.88
371.621	3.99
371.989	3.87
372.356	3.26
372.724	3.92
373.091	3.74
373.458	3.85
373.826	3.85
374.193	3.88
374.56	3.85
374.927	3.73
375.294	3.62
375.661	3.68
376.028	3.93
376.395	4
376.762	3.87
377.129	3.7
377.496	4.12
377.863	3.91
378.229	3.49
378.596	3.56
378.963	4.05
379.329	3.89
379.696	3.87
380.062	3.61
380.429	3.77
380.795	3.68
381.161	3.67
381.528	3.68
381.894	2.98
382.26	3.65
382.626	4.03
382.993	3.78
383.359	3.44
383.725	3.57
384.091	3.95
384.457	3.79
384.823	3.97
385.188	3.7
385.554	3.81
385.92	4.03
386.286	4
386.651	3.81
387.017	3.85
387.383	3.88
387.748	3.73
388.114	3.61
388.479	3.78
388.845	3.47
389.21	3.55
389.575	4.03
389.94	3.63
390.306	4.03
390.671	4.13
391.036	3.33
391.401	3.38
391.766	3.78
392.131	3.5
392.496	3.98
392.861	3.58
393.226	3.9
393.591	3.73
393.956	3.76
394.32	3.84
394.685	3.76
395.05	4.08
395.414	4.02
395.779	3.86
396.143	3.69
396.508	3.82
396.872	3.87
397.236	4.02
397.601	3.55
397.965	4.02
398.329	3.86
398.694	3.58
399.058	3.84
399.422	3.72
399.786	3.89
400.15	3.82
400.514	3.84
400.878	3.91
401.242	3.9
401.605	3.93
401.969	3.52
402.333	4.03
402.697	3.65
403.06	3.93
403.424	3.85
403.787	4.05
404.151	3.96
404.514	3.68
404.878	3.88
405.241	4.07
405.604	4.14
405.968	3.89
406.331	3.98
406.694	3.83
407.057	3.67
407.42	3.91
407.783	4.04
408.146	4.02
408.509	3.84
408.872	3.88
409.235	3.82
409.598	3.78
409.961	4.23
410.323	3.99
410.686	4.06
411.049	4.08
411.411	4.14
411.774	3.94
412.136	3.92
412.499	3.95
412.861	3.88
413.223	3.97
413.586	3.68
413.948	3.84
414.31	3.81
414.672	3.89
415.035	3.96
415.397	4.4
415.759	4.1
416.121	3.99
416.483	4.12
416.845	3.79
417.206	3.84
417.568	4
417.93	3.67
418.292	3.78
418.653	3.81
419.015	3.95
419.377	3.79
419.738	3.95
420.1	3.84
420.461	4.01
420.822	3.9
421.184	4.02
421.545	3.87
421.906	3.81
422.267	3.79
422.629	3.78
422.99	3.74
423.351	3.83
423.712	3.83
424.073	3.75
424.434	3.84
424.795	3.87
425.155	3.83
425.516	3.73
425.877	3.9
426.238	3.67
426.598	3.74
426.959	3.82
427.32	3.88
427.68	3.84
428.041	3.8
428.401	3.78
428.761	3.95
429.122	3.97
429.482	3.84
429.842	3.8
430.202	3.77
430.563	3.93
430.923	3.97
431.283	4.08
431.643	3.87
432.003	4.14
432.363	3.93
432.722	3.93
433.082	4.15
433.442	3.84
433.802	4.04
434.161	3.98
434.521	4.09
434.881	4.03
435.24	3.82
435.6	3.78
435.959	3.89
436.319	3.88
436.678	3.88
437.037	4.15
437.396	4.02
437.756	3.75
438.115	4.11
438.474	4.09
438.833	3.99
439.192	3.86
439.551	3.93
439.91	4.05
440.269	4.12
440.628	3.84
440.987	3.84
441.345	3.9
441.704	3.9
442.063	3.81
442.421	3.9
442.78	3.88
443.138	3.84
443.497	3.97
443.855	3.91
444.214	3.64
444.572	4.02
444.93	3.94
445.288	3.91
445.647	4.04
446.005	3.94
446.363	3.77
446.721	4.05
447.079	3.71
447.437	3.95
447.795	3.97
448.153	3.79
448.51	3.88
448.868	3.76
449.226	3.92
449.584	3.83
449.941	3.8
450.299	3.89
450.656	3.83
451.014	3.93
451.371	3.83
451.729	3.87
452.086	3.84
452.443	4.01
452.801	3.89
453.158	3.99
453.515	4.22
453.872	3.85
454.229	4
454.586	3.97
454.943	3.98
455.3	3.95
455.657	3.89
456.014	3.99
456.371	4.02
456.727	4.17
457.084	3.88
457.441	3.8
457.797	3.92
458.154	4.05
458.51	3.82
458.867	3.9
459.223	4.08
459.58	4.11
459.936	3.98
460.292	3.92
460.648	4.16
461.005	4.03
461.361	3.92
461.717	3.72
462.073	3.82
462.429	3.76
462.785	3.9
463.141	4
463.496	3.97
463.852	3.92
464.208	3.86
464.564	4.06
464.919	3.92
465.275	4.11
465.631	4.11
465.986	4.11
466.342	4.09
466.697	4.15
467.052	3.96
467.408	4.15
467.763	3.87
468.118	4.17
468.473	4.03
468.829	3.93
469.184	4.05
469.539	3.98
469.894	4.07
470.249	4.14
470.603	3.91
470.958	4.14
471.313	3.97
471.668	4.03
472.023	4.1
472.377	3.99
472.732	4
473.086	4.21
473.441	3.77
473.795	4.19
474.15	3.82
474.504	3.87
474.859	4.19
475.213	3.85
475.567	3.93
475.921	4
476.275	3.97
476.63	3.92
476.984	3.89
477.338	4.11
477.692	3.89
478.045	4.18
478.399	3.96
478.753	4.01
479.107	3.94
479.461	4
479.814	4.09
480.168	3.93
480.521	3.91
480.875	3.94
481.228	4.01
481.582	3.91
481.935	4.05
482.289	3.83
482.642	3.81
482.995	3.9
483.348	3.83
483.701	3.93
484.055	3.92
484.408	3.83
484.761	3.9
485.114	3.71
485.466	3.76
485.819	3.63
486.172	3.62
486.525	3.64
486.878	3.66
487.23	3.78
487.583	3.81
487.936	3.8
488.288	3.86
488.641	3.89
488.993	3.75
489.345	3.79
489.698	3.73
490.05	3.69
490.402	3.74
490.754	3.72
491.107	3.75
491.459	3.77
491.811	3.76
492.163	3.88
492.515	3.89
492.866	3.85
493.218	3.82
493.57	3.82
493.922	3.68
494.274	3.77
494.625	3.78
494.977	3.86
495.328	3.92
495.68	3.95
496.031	3.88
496.383	3.93
496.734	3.98
497.086	3.9
497.437	3.97
497.788	3.96
498.139	4.01
498.49	4
498.842	3.87
499.193	3.94
499.544	3.93
499.894	3.94
500.245	3.94
500.596	3.88
500.947	3.98
501.298	4
501.648	4
501.999	4.02
502.35	3.97
502.7	4.08
503.051	4.11
503.401	3.98
503.752	3.94
504.102	4.05
504.452	4.03
504.803	3.91
505.153	3.89
505.503	4.03
505.853	4
506.203	3.89
506.553	4.09
506.903	4.06
507.253	3.81
507.603	4.04
507.953	4.01
508.303	4.02
508.652	3.98
509.002	4.07
509.352	4.07
509.701	3.99
510.051	3.91
510.4	3.97
510.75	3.9
511.099	3.9
511.449	3.97
511.798	3.92
512.147	3.89
512.496	3.9
512.846	3.91
513.195	3.96
513.544	3.94
513.893	3.95
514.242	3.89
514.591	3.87
514.939	3.94
515.288	3.88
515.637	3.94
515.986	3.85
516.334	4
516.683	4.02
517.032	4.05
517.38	4.06
517.729	4
518.077	4
518.426	3.91
518.774	4.02
519.122	3.93
519.47	3.9
519.819	3.95
520.167	3.96
520.515	3.87
520.863	3.82
521.211	3.82
521.559	3.96
521.907	3.97
522.255	3.93
522.602	3.98
522.95	3.86
523.298	4
523.645	3.92
523.993	3.93
524.341	3.77
524.688	4.02
525.036	3.96
525.383	3.93
525.73	3.96
526.078	3.96
526.425	3.88
526.772	4.02
527.119	3.86
527.466	3.84
527.814	3.77
528.161	3.75
528.508	3.8
528.854	3.86
529.201	3.91
529.548	3.81
529.895	3.85
530.242	3.77
530.588	3.65
530.935	3.58
531.282	3.64
531.628	3.71
531.975	3.73
532.321	3.8
532.667	3.82
533.014	3.87
533.36	3.84
533.706	3.84
534.052	4
534.399	3.94
534.745	3.85
535.091	3.71
535.437	3.68
535.783	3.65
536.129	3.74
536.474	3.87
536.82	3.75
537.166	3.92
537.512	3.92
537.857	3.85
538.203	3.94
538.549	3.86
538.894	3.8
539.239	3.81
539.585	3.81
539.93	3.93
540.276	3.94
540.621	3.83
540.966	3.91
541.311	3.99
541.656	3.84
542.001	3.79
542.346	3.91
542.691	3.83
543.036	3.8
543.381	3.8
543.726	3.72
544.071	3.7
544.415	3.77
544.76	3.7
545.105	3.7
545.449	3.76
545.794	3.78
546.138	3.87
546.483	3.85
546.827	3.9
547.171	3.87
547.516	3.95
547.86	3.94
548.204	3.89
548.548	3.85
548.892	3.81
549.236	3.84
549.58	3.83
549.924	3.93
550.268	3.94
550.612	3.88
550.956	3.95
551.3	3.98
551.643	3.95
551.987	4.04
552.33	3.96
552.674	3.93
553.017	3.93
553.361	3.88
553.704	3.94
554.048	3.99
554.391	3.98
554.734	3.95
555.077	3.96
555.42	3.85
555.764	4.03
556.107	3.71
556.45	3.83
556.793	3.86
557.135	3.89
557.478	3.72
557.821	3.92
558.164	3.97
558.507	4.17
558.849	3.86
559.192	4.1
559.534	4.12
559.877	4.12
560.219	3.93
560.562	4.06
560.904	4.16
561.246	3.97
561.589	4.07
561.931	3.83
562.273	3.84
562.615	3.77
562.957	4.01
563.299	3.99
563.641	4
563.983	3.94
564.325	3.88
564.667	3.97
565.008	3.84
565.35	3.93
565.692	4.03
566.033	3.97
566.375	3.86
566.716	4.04
567.058	3.95
567.399	3.88
567.741	4.04
568.082	3.85
568.423	4
568.764	4.14
569.105	3.75
569.447	3.9
569.788	3.73
570.129	3.85
570.47	3.91
570.811	4.02
571.151	4.03
571.492	3.88
571.833	3.8
572.174	3.93
572.514	3.92
572.855	3.83
573.195	3.84
573.536	3.99
573.876	3.91
574.217	3.94
574.557	3.92
574.898	4
575.238	3.82
575.578	3.88
575.918	3.88
576.258	3.73
576.598	3.84
576.938	3.86
577.278	3.88
577.618	3.89
577.958	4.01
578.298	4.1
578.638	3.85
578.977	3.97
579.317	3.94
579.657	4.06
579.996	3.93
580.336	3.95
580.675	4.04
581.014	3.91
581.354	3.81
581.693	4.03
582.032	3.89
582.372	4.19
582.711	4.09
583.05	3.91
583.389	3.87
583.728	3.62
584.067	3.83
584.406	4.1
584.745	3.71
585.083	4.19
585.422	4
585.761	3.89
586.1	4.04
586.438	3.87
586.777	3.97
587.115	4.1
587.454	3.89
587.792	4
588.13	3.91
588.469	3.9
588.807	4.16
589.145	3.93
589.483	4
589.821	4.01
590.159	3.98
590.497	4.09
590.835	3.83
591.173	3.82
591.511	4.13
591.849	3.99
592.187	3.8
592.524	4.13
592.862	3.97
593.2	3.81
593.537	3.9
593.875	3.88
594.212	3.95
594.55	4.01
594.887	3.9
595.224	4.02
595.561	4.22
595.899	4.07
596.236	4.35
596.573	4.21
596.91	3.98
597.247	3.8
597.584	4.1
597.921	4.11
598.258	4.13
598.594	3.88
598.931	3.78
599.268	3.68
599.604	4
599.941	3.94
600.277	3.78
600.614	3.69
600.95	3.99
601.287	3.98
601.623	4.05
601.959	4.16
602.296	4.24
602.632	3.85
602.968	4.14
603.304	4
603.64	3.9
603.976	4
604.312	3.95
604.648	4.05
604.984	3.99
605.319	3.73
605.655	3.85
605.991	3.85
606.326	3.85
606.662	3.85
606.998	3.76
607.333	3.93
607.668	3.84
608.004	3.92
608.339	3.82
608.674	3.94
609.01	3.99
609.345	3.84
609.68	4.16
610.015	4.05
610.35	3.78
610.685	4.17
611.02	3.91
611.355	3.99
611.689	3.79
612.024	3.86
612.359	4.07
612.694	3.68
613.028	3.88
613.363	3.71
613.697	3.98
614.032	3.87
614.366	3.85
614.7	3.83
615.035	3.63
615.369	3.77
615.703	3.87
616.037	3.77
616.371	4.33
616.705	4.36
617.039	4
617.373	3.78
617.707	3.69
618.041	4.09
618.375	3.84
618.709	3.83
619.042	4.19
619.376	4.14
619.71	3.92
620.043	3.66
620.377	3.38
620.71	3.83
621.043	4.24
621.377	3.88
621.71	3.96
622.043	4.15
622.376	3.96
622.709	3.82
623.043	3.99
623.376	4.22
623.709	4.12
624.041	3.76
624.374	4.02
624.707	4.28
625.04	4.23
625.373	3.49
625.705	4.27
626.038	3.83
626.37	4.17
626.703	3.8
627.035	3.99
627.368	4.1
627.7	4.35
628.032	3.97
628.365	4.09
628.697	3.84
629.029	3.84
629.361	4.13
629.693	3.87
630.025	3.89
630.357	3.94
630.689	3.9
631.021	3.66
631.353	3.69
631.684	3.88
632.016	4.25
632.348	3.86
632.679	4.03
633.011	3.8
633.342	4.01
633.674	4.14
634.005	3.75
634.336	3.9
634.668	4.31
634.999	4.01
635.33	4.17
635.661	4.01
635.992	3.94
636.323	3.77
636.654	3.66
636.985	3.78
637.316	3.79
637.647	3.77
637.977	3.73
638.308	4.1
638.639	4.04
638.969	3.98
639.3	3.92
639.63	4.49
639.961	3.84
640.291	3.83
640.622	4.34
640.952	3.56
641.282	4.09
641.612	3.65
641.943	3.87
642.273	4.23
642.603	3.84
642.933	3.85
643.263	3.48
643.592	3.98
643.922	4.24
644.252	3.85
644.582	4.44
644.911	3.95
645.241	4.4
645.571	3.93
645.9	4.36
646.23	4.35
646.559	4.32
646.888	4.37
647.218	3.94
647.547	3.64
647.876	4.04
648.205	4.08
648.534	4.42
648.863	3.91
649.192	3.45
649.521	4.18
649.85	4.26
650.179	4.1
650.508	3.7
650.837	4.13
651.165	4.1
651.494	3.98
651.822	4
652.151	3.8
652.479	4.01
652.808	4.19
653.136	4.55
653.465	4.15
653.793	4.05
654.121	4.58
654.449	3.43
654.777	3.93
655.105	4.37
655.433	4.26
655.761	4.39
656.089	3.9
656.417	3.8
656.745	4.15
657.073	3.9
657.4	4.62
657.728	3.64
658.056	4.05
658.383	4.67
658.711	3.94
659.038	3.77
659.365	3.85
659.693	3.47
660.02	4.49
660.347	4.56
660.674	3.7
661.001	3.93
661.329	3.82
661.656	3.99
661.982	4.01
662.309	4.38
662.636	4.53
662.963	4.2
663.29	4.11
663.616	3.86
663.943	4.23
664.27	4.26
664.596	3.72
664.923	3.52
665.249	4.36
665.576	3.77
665.902	4.52
666.228	4.19
666.554	3.5
666.881	4.25
667.207	3.48
667.533	4.05
667.859	4.77
668.185	3.91
668.511	4.62
668.837	3.75
669.162	3.92
669.488	3.83
669.814	4.21
670.139	3.97
670.465	4.44
670.791	4.27
671.116	4.17
671.442	4.75
671.767	3.55
672.092	4.68
672.418	4.45
672.743	4.04
673.068	4.34
673.393	3.77
673.718	4.49
674.043	4.82
674.368	4.75
674.693	4.17
675.018	3.84
675.343	4.45
675.667	4.29
675.992	4.23
676.317	3.94
676.641	4.5
676.966	3.91
677.29	4.49
677.615	4.24
677.939	4.34
678.264	4.13
678.588	4.65
678.912	4.29
679.236	4.45
679.56	4.3
679.885	3.81
680.209	4.88
680.532	3.91
680.856	4.64
681.18	4.04
681.504	4.52
681.828	4.27
682.152	4.39
682.475	4.77
682.799	4.07
683.122	4.31
683.446	3.7
683.769	4.22
684.093	4.7
684.416	4.83
684.739	4.26
685.062	4.33
685.386	4.56
685.709	4.11
686.032	4.29
686.355	4.5
686.678	4.27
687.001	4
687.324	4.61
687.646	4.18
687.969	4.88
688.292	4.36
688.614	5.29
688.937	3.91
689.26	4.49
689.582	4.98
689.904	4.8
690.227	5.25
690.549	4.95
690.871	4.44
691.194	4.58
691.516	4.47
691.838	4.25
692.16	3.8
692.482	4.46
692.804	3.74
693.126	4.18
693.448	4.64
693.769	4.44
694.091	5
