Data from 0190_chest_Reflection__0__126.txt Node

Date: Fri Sep 22 21:20:55 CDT 2023
User: ToomeyLab
Spectrometer: FLMS14357
Trigger mode: 0
Integration Time (sec): 1.000000E-2
Scans to average: 100
Electric dark correction enabled: true
Nonlinearity correction enabled: false
Boxcar width: 0
XAxis mode: Wavelengths
Number of Pixels in Spectrum: 2048
>>>>>Begin Spectral Data<<<<<
189.047	324.22
189.435	324.22
189.823	324.22
190.211	-14.81
190.599	-14.06
190.987	154
191.375	74.96
191.763	65.3
192.151	109.34
192.538	30.9
192.926	160.45
193.314	-75.31
193.702	3365.42
194.089	-335.1
194.477	-97.43
194.864	104.16
195.252	72.98
195.639	-166.86
196.027	127.27
196.414	39.36
196.801	-174.92
197.189	-246.25
197.576	151.69
197.963	-2503.75
198.351	52.67
198.738	22.96
199.125	38.5
199.512	37.44
199.899	68.35
200.286	36.68
200.673	27.36
201.06	34.15
201.447	38.9
201.833	19.78
202.22	59.94
202.607	21.5
202.994	41.11
203.38	58.02
203.767	25.05
204.154	31.53
204.54	67.98
204.927	16.99
205.313	56.03
205.699	45.56
206.086	54.85
206.472	61.14
206.858	8.82
207.245	28.65
207.631	33.66
208.017	40.59
208.403	-16.18
208.789	22.96
209.175	58.13
209.561	49.28
209.947	65.54
210.333	29.61
210.719	13.33
211.105	23.21
211.491	13.31
211.876	44.89
212.262	64.32
212.648	31.58
213.034	43.95
213.419	19.56
213.805	30.63
214.19	5.02
214.576	36.47
214.961	15.11
215.346	-6.71
215.732	28.57
216.117	25.89
216.502	41.43
216.888	28.4
217.273	9
217.658	13.04
218.043	27.35
218.428	27.68
218.813	11.11
219.198	9.59
219.583	39.43
219.968	22.42
220.353	25.79
220.738	-0.06
221.122	16.23
221.507	-5.27
221.892	-1.21
222.276	19.97
222.661	7.45
223.046	18.89
223.43	33
223.815	5.7
224.199	-4.2
224.583	22.88
224.968	15.59
225.352	16.76
225.736	7.78
226.121	12.41
226.505	8.67
226.889	8.04
227.273	14.65
227.657	10.49
228.041	14.76
228.425	10.39
228.809	3.24
229.193	7.31
229.577	7.58
229.961	4.48
230.344	5.91
230.728	3.54
231.112	5.02
231.495	4.36
231.879	4.85
232.263	3.16
232.646	4.61
233.03	4.45
233.413	5.04
233.797	4.23
234.18	3.94
234.563	7.06
234.946	7.39
235.33	3.99
235.713	3.17
236.096	2.82
236.479	3.95
236.862	6.19
237.245	4.85
237.628	4.99
238.011	6.79
238.394	6.07
238.777	6.56
239.16	4.81
239.543	6.81
239.925	8.22
240.308	6.08
240.691	4.47
241.073	7.16
241.456	3.67
241.838	4.55
242.221	5.24
242.603	4.45
242.986	5.76
243.368	4.91
243.75	5.16
244.133	4.83
244.515	4.2
244.897	4.25
245.279	4.44
245.661	4.7
246.043	4.62
246.425	3.75
246.807	5.09
247.189	3.61
247.571	4.68
247.953	5.01
248.335	4.6
248.717	4.68
249.098	4.63
249.48	4.63
249.862	4.52
250.243	4.62
250.625	4.66
251.006	4.1
251.388	4.83
251.769	4.43
252.151	3.95
252.532	4.01
252.913	6.06
253.295	5.36
253.676	4.83
254.057	4.84
254.438	5.41
254.819	4.16
255.2	5.07
255.581	4.18
255.962	5.74
256.343	4.24
256.724	3.92
257.105	4.76
257.486	4.25
257.867	3.99
258.247	5.37
258.628	5.47
259.009	3.93
259.389	4.62
259.77	5.14
260.15	4.18
260.531	4.06
260.911	4.7
261.292	4.18
261.672	3.96
262.052	4.24
262.432	4.37
262.813	4.39
263.193	3.98
263.573	5.57
263.953	4.19
264.333	5.02
264.713	4.62
265.093	4.29
265.473	4
265.853	3.8
266.233	3.72
266.612	4.56
266.992	5.23
267.372	4.51
267.752	4.95
268.131	4.3
268.511	3.85
268.89	4.74
269.27	4.1
269.649	3.98
270.029	4.48
270.408	3.77
270.787	3.84
271.167	4.54
271.546	4.31
271.925	4.61
272.304	4.27
272.683	4.42
273.062	4.75
273.441	4.24
273.82	4.66
274.199	4.69
274.578	4.41
274.957	3.92
275.336	4.06
275.715	4
276.093	4.21
276.472	3.81
276.851	4.22
277.229	3.19
277.608	4.59
277.986	3.9
278.365	4.36
278.743	4.28
279.122	4.42
279.5	4.49
279.878	4.37
280.257	4.8
280.635	4.07
281.013	4.9
281.391	4.36
281.769	4.4
282.147	4.56
282.525	3.92
282.903	4.22
283.281	4.22
283.659	4.26
284.037	4.19
284.415	4.24
284.792	4.01
285.17	4.49
285.548	4.32
285.925	4.52
286.303	4.22
286.68	4.39
287.058	4.05
287.435	4.36
287.813	4.33
288.19	3.89
288.567	4.49
288.945	4.14
289.322	4.47
289.699	4.58
290.076	4.39
290.453	4.5
290.83	4
291.207	4.23
291.584	4.16
291.961	4.39
292.338	4.27
292.715	4.35
293.092	4.31
293.469	4.36
293.845	4.78
294.222	4.63
294.599	4.8
294.975	4.93
295.352	4.85
295.728	4.96
296.105	4.72
296.481	4.54
296.858	4.62
297.234	4.41
297.61	4.49
297.986	4.56
298.363	4.72
298.739	4.93
299.115	4.61
299.491	4.32
299.867	4.87
300.243	4.6
300.619	4.43
300.995	4.59
301.371	4.93
301.746	5.35
302.122	4.82
302.498	4.41
302.874	4.2
303.249	4.6
303.625	4.26
304	4.81
304.376	4.97
304.751	5.07
305.127	5.06
305.502	5.73
305.878	5.26
306.253	5.27
306.628	4.96
307.003	5.38
307.378	4.75
307.754	5.07
308.129	5.03
308.504	5.55
308.879	4.84
309.254	4.89
309.629	5.1
310.003	5.21
310.378	5.28
310.753	5.15
311.128	4.95
311.502	4.88
311.877	4.85
312.252	5
312.626	4.68
313.001	5.57
313.375	5.19
313.75	5.54
314.124	5.75
314.498	4.75
314.873	5.21
315.247	5.59
315.621	5.37
315.995	5.34
316.369	4.85
316.743	5
317.117	5.57
317.491	4.99
317.865	4.75
318.239	5.23
318.613	5.49
318.987	5.24
319.361	5.04
319.734	5.15
320.108	5.52
320.482	4.93
320.855	5.42
321.229	5.95
321.602	5.6
321.976	5.45
322.349	5.5
322.723	6.2
323.096	6.09
323.469	6.01
323.843	5.22
324.216	6.28
324.589	5.74
324.962	5.1
325.335	5.37
325.708	5.51
326.081	5.85
326.454	4.93
326.827	5.55
327.2	5.52
327.573	5.92
327.945	5.14
328.318	5.48
328.691	5.34
329.063	5.16
329.436	5.46
329.809	5.23
330.181	5.34
330.553	5.46
330.926	5.59
331.298	5.65
331.671	6.27
332.043	4.42
332.415	5.48
332.787	6.02
333.159	5.45
333.532	5.69
333.904	5.23
334.276	5.5
334.648	5.31
335.02	5.55
335.391	5.72
335.763	5.81
336.135	5.51
336.507	5.66
336.879	5.19
337.25	6.14
337.622	5.93
337.993	5.48
338.365	5.85
338.736	5.72
339.108	5.67
339.479	5.29
339.851	5.66
340.222	5.17
340.593	5.06
340.964	5.38
341.336	5.26
341.707	5.43
342.078	5.81
342.449	5.49
342.82	5.69
343.191	5.33
343.562	5.5
343.933	5.62
344.303	5.48
344.674	5.91
345.045	5.55
345.416	5.88
345.786	5.62
346.157	5.67
346.527	5.74
346.898	5.32
347.268	5.37
347.639	5.19
348.009	5.33
348.38	5.68
348.75	5.91
349.12	5.48
349.49	5.5
349.861	5.41
350.231	5.07
350.601	5.45
350.971	6.33
351.341	5.37
351.711	5.52
352.081	5.38
352.45	5.15
352.82	5.52
353.19	5.66
353.56	5.31
353.929	5.55
354.299	5.9
354.669	5.19
355.038	5.45
355.408	5.4
355.777	5.96
356.147	5.57
356.516	5.79
356.885	5.3
357.254	5.92
357.624	5.28
357.993	5.41
358.362	5.69
358.731	5.24
359.1	5.46
359.469	6.01
359.838	4.98
360.207	5.36
360.576	5.42
360.945	5.62
361.314	5.91
361.682	5.81
362.051	5.89
362.42	5.63
362.788	5.47
363.157	5.54
363.525	5.47
363.894	5.48
364.262	5.63
364.631	5.57
364.999	5.48
365.367	5.78
365.735	5.62
366.104	5.71
366.472	5.85
366.84	5.35
367.208	5.84
367.576	5.94
367.944	5.62
368.312	6.06
368.68	5.56
369.048	5.96
369.416	5.89
369.783	5.53
370.151	5.67
370.519	5.49
370.886	5.66
371.254	5.76
371.621	5.87
371.989	6.08
372.356	5.64
372.724	5.91
373.091	5.71
373.458	5.86
373.826	6.08
374.193	6
374.56	5.87
374.927	5.72
375.294	5.65
375.661	5.67
376.028	5.85
376.395	6.1
376.762	5.69
377.129	5.56
377.496	5.99
377.863	5.85
378.229	5.75
378.596	5.81
378.963	5.78
379.329	5.82
379.696	5.9
380.062	5.55
380.429	5.78
380.795	6
381.161	5.86
381.528	5.85
381.894	5.67
382.26	5.78
382.626	5.57
382.993	5.74
383.359	5.45
383.725	5.88
384.091	5.94
384.457	5.63
384.823	5.93
385.188	6.05
385.554	5.77
385.92	6.08
386.286	6
386.651	5.79
387.017	6
387.383	5.57
387.748	5.73
388.114	5.78
388.479	5.88
388.845	5.55
389.21	5.96
389.575	6.23
389.94	5.98
390.306	5.76
390.671	6.21
391.036	5.62
391.401	5.92
391.766	5.91
392.131	5.86
392.496	5.83
392.861	5.72
393.226	6.06
393.591	5.98
393.956	5.68
394.32	5.74
394.685	6.07
395.05	6.2
395.414	5.88
395.779	5.83
396.143	5.91
396.508	5.82
396.872	6.01
397.236	5.96
397.601	5.89
397.965	6.01
398.329	5.97
398.694	6.06
399.058	5.96
399.422	5.93
399.786	5.87
400.15	6.02
400.514	6.01
400.878	5.97
401.242	6.09
401.605	5.78
401.969	5.61
402.333	6.16
402.697	5.86
403.06	5.9
403.424	5.93
403.787	6.02
404.151	6.13
404.514	6.18
404.878	6.13
405.241	6.17
405.604	6.01
405.968	6.17
406.331	6.18
406.694	6.12
407.057	5.94
407.42	6.01
407.783	5.88
408.146	5.91
408.509	5.9
408.872	5.81
409.235	6.07
409.598	6.06
409.961	6.13
410.323	6.02
410.686	6.04
411.049	6.22
411.411	6.38
411.774	5.95
412.136	6.11
412.499	5.95
412.861	6.22
413.223	6.21
413.586	6.03
413.948	6.12
414.31	6.04
414.672	6.08
415.035	6.02
415.397	6.22
415.759	6.25
416.121	6.23
416.483	6.08
416.845	5.91
417.206	6.09
417.568	6.09
417.93	6.03
418.292	6.05
418.653	6.04
419.015	6.31
419.377	6.01
419.738	6.09
420.1	6
420.461	6.02
420.822	6.09
421.184	6.08
421.545	6.15
421.906	6.07
422.267	5.98
422.629	6.16
422.99	5.89
423.351	5.93
423.712	5.87
424.073	5.99
424.434	6.09
424.795	6.02
425.155	6
425.516	5.96
425.877	5.97
426.238	5.93
426.598	5.92
426.959	5.96
427.32	5.97
427.68	5.91
428.041	5.93
428.401	6.02
428.761	6.15
429.122	6.07
429.482	6.19
429.842	6.12
430.202	6.22
430.563	6.5
430.923	6.43
431.283	6.27
431.643	6.32
432.003	6.52
432.363	6.44
432.722	6.27
433.082	6.24
433.442	6.19
433.802	6.5
434.161	6.28
434.521	6.25
434.881	6.44
435.24	6.35
435.6	6.15
435.959	6.19
436.319	6.21
436.678	6.28
437.037	6.32
437.396	6.29
437.756	6.3
438.115	6.16
438.474	6.2
438.833	6.26
439.192	6.3
439.551	6.28
439.91	6.39
440.269	6.37
440.628	6.11
440.987	6.26
441.345	6.36
441.704	6.28
442.063	6.31
442.421	6.36
442.78	6.37
443.138	6.26
443.497	6.23
443.855	6.25
444.214	6.16
444.572	6.32
444.93	6.39
445.288	6.45
445.647	6.54
446.005	6.4
446.363	6.34
446.721	6.47
447.079	6.28
447.437	6.45
447.795	6.54
448.153	6.26
448.51	6.26
448.868	6.18
449.226	6.29
449.584	6.25
449.941	6.4
450.299	6.35
450.656	6.4
451.014	6.42
451.371	6.41
451.729	6.48
452.086	6.34
452.443	6.55
452.801	6.44
453.158	6.46
453.515	6.59
453.872	6.43
454.229	6.59
454.586	6.61
454.943	6.6
455.3	6.44
455.657	6.53
456.014	6.41
456.371	6.66
456.727	6.83
457.084	6.69
457.441	6.49
457.797	6.75
458.154	6.58
458.51	6.49
458.867	6.57
459.223	6.8
459.58	6.68
459.936	6.66
460.292	6.6
460.648	6.86
461.005	6.73
461.361	6.63
461.717	6.38
462.073	6.64
462.429	6.36
462.785	6.57
463.141	6.6
463.496	6.68
463.852	6.62
464.208	6.62
464.564	6.68
464.919	6.66
465.275	7.08
465.631	6.84
465.986	6.92
466.342	6.83
466.697	6.74
467.052	6.69
467.408	6.8
467.763	6.76
468.118	6.84
468.473	6.77
468.829	6.78
469.184	6.8
469.539	6.83
469.894	6.8
470.249	6.84
470.603	6.84
470.958	7.08
471.313	6.93
471.668	7.02
472.023	6.79
472.377	6.84
472.732	6.81
473.086	7.1
473.441	6.8
473.795	7.05
474.15	6.78
474.504	6.93
474.859	7.08
475.213	6.86
475.567	6.7
475.921	6.81
476.275	7.16
476.63	6.89
476.984	6.78
477.338	6.94
477.692	6.98
478.045	7.04
478.399	7.04
478.753	6.88
479.107	6.97
479.461	6.87
479.814	7.06
480.168	6.93
480.521	7.05
480.875	7.06
481.228	6.91
481.582	6.81
481.935	6.86
482.289	6.92
482.642	6.87
482.995	6.85
483.348	7.05
483.701	6.94
484.055	6.86
484.408	6.95
484.761	6.94
485.114	6.72
485.466	6.62
485.819	6.63
486.172	6.56
486.525	6.55
486.878	6.6
487.23	6.62
487.583	6.75
487.936	6.84
488.288	6.86
488.641	6.9
488.993	6.81
489.345	6.75
489.698	6.67
490.05	6.74
490.402	6.75
490.754	6.74
491.107	6.8
491.459	6.87
491.811	6.9
492.163	6.98
492.515	7.11
492.866	6.99
493.218	6.96
493.57	6.88
493.922	6.8
494.274	6.88
494.625	6.87
494.977	7.07
495.328	7.19
495.68	7.2
496.031	7.11
496.383	7.22
496.734	7.32
497.086	7.29
497.437	7.38
497.788	7.28
498.139	7.45
498.49	7.43
498.842	7.19
499.193	7.24
499.544	7.32
499.894	7.32
500.245	7.44
500.596	7.27
500.947	7.42
501.298	7.48
501.648	7.45
501.999	7.41
502.35	7.41
502.7	7.55
503.051	7.43
503.401	7.44
503.752	7.47
504.102	7.48
504.452	7.46
504.803	7.52
505.153	7.51
505.503	7.63
505.853	7.73
506.203	7.48
506.553	7.59
506.903	7.52
507.253	7.54
507.603	7.56
507.953	7.65
508.303	7.64
508.652	7.63
509.002	7.73
509.352	7.69
509.701	7.61
510.051	7.62
510.4	7.68
510.75	7.59
511.099	7.61
511.449	7.7
511.798	7.64
512.147	7.62
512.496	7.73
512.846	7.73
513.195	7.69
513.544	7.74
513.893	7.77
514.242	7.65
514.591	7.8
514.939	7.76
515.288	7.75
515.637	7.86
515.986	7.73
516.334	7.87
516.683	7.95
517.032	7.94
517.38	8
517.729	7.92
518.077	7.96
518.426	8.02
518.774	7.99
519.122	8.01
519.47	7.85
519.819	7.95
520.167	7.92
520.515	7.88
520.863	7.79
521.211	7.91
521.559	8.04
521.907	7.95
522.255	7.92
522.602	7.99
522.95	8.03
523.298	8.14
523.645	8.23
523.993	8.05
524.341	8.12
524.688	8.25
525.036	8.21
525.383	8.24
525.73	8.23
526.078	8.31
526.425	8.21
526.772	8.3
527.119	8.15
527.466	8.2
527.814	8.09
528.161	8.13
528.508	8.11
528.854	8.17
529.201	8.23
529.548	8.23
529.895	8.2
530.242	8.1
530.588	8.02
530.935	7.91
531.282	7.91
531.628	8.06
531.975	8.02
532.321	8.09
532.667	8.18
533.014	8.3
533.36	8.36
533.706	8.47
534.052	8.55
534.399	8.49
534.745	8.45
535.091	8.34
535.437	8.31
535.783	8.28
536.129	8.33
536.474	8.43
536.82	8.42
537.166	8.6
537.512	8.61
537.857	8.56
538.203	8.77
538.549	8.6
538.894	8.63
539.239	8.65
539.585	8.63
539.93	8.85
540.276	8.7
540.621	8.76
540.966	8.87
541.311	8.96
541.656	8.95
542.001	8.9
542.346	8.93
542.691	9.02
543.036	8.82
543.381	8.75
543.726	8.66
544.071	8.69
544.415	8.72
544.76	8.79
545.105	8.78
545.449	8.83
545.794	8.97
546.138	9.11
546.483	9.04
546.827	9.02
547.171	9.25
547.516	9.24
547.86	9.33
548.204	9.27
548.548	9.4
548.892	9.34
549.236	9.3
549.58	9.22
549.924	9.46
550.268	9.48
550.612	9.44
550.956	9.57
551.3	9.68
551.643	9.59
551.987	9.73
552.33	9.87
552.674	9.67
553.017	9.56
553.361	9.72
553.704	10.02
554.048	9.81
554.391	9.84
554.734	9.89
555.077	9.84
555.42	9.89
555.764	9.88
556.107	9.94
556.45	9.87
556.793	9.92
557.135	10.13
557.478	9.94
557.821	10.1
558.164	10.18
558.507	10.17
558.849	10.09
559.192	10.32
559.534	10.52
559.877	10.21
560.219	10.28
560.562	10.28
560.904	10.48
561.246	10.47
561.589	10.6
561.931	10.34
562.273	10.22
562.615	10.33
562.957	10.46
563.299	10.57
563.641	10.48
563.983	10.59
564.325	10.7
564.667	10.58
565.008	10.61
565.35	10.77
565.692	10.58
566.033	10.57
566.375	10.82
566.716	10.94
567.058	10.83
567.399	10.74
567.741	10.91
568.082	10.59
568.423	10.7
568.764	10.99
569.105	10.7
569.447	10.75
569.788	10.83
570.129	11.08
570.47	11.03
570.811	10.95
571.151	11.23
571.492	11.23
571.833	11.11
572.174	11.25
572.514	11.17
572.855	11.28
573.195	11.04
573.536	11.4
573.876	11.21
574.217	11.16
574.557	11.18
574.898	11.36
575.238	11.18
575.578	11.38
575.918	11.21
576.258	11.23
576.598	11.34
576.938	11.61
577.278	11.74
577.618	11.55
577.958	11.65
578.298	11.67
578.638	11.6
578.977	11.7
579.317	11.79
579.657	11.89
579.996	11.9
580.336	12
580.675	11.94
581.014	11.83
581.354	11.89
581.693	11.99
582.032	11.77
582.372	12.09
582.711	12.16
583.05	12.19
583.389	12.04
583.728	12.08
584.067	12.47
584.406	12.49
584.745	12.37
585.083	12.69
585.422	12.71
585.761	12.38
586.1	12.64
586.438	12.51
586.777	12.31
587.115	12.61
587.454	12.34
587.792	12.84
588.13	12.85
588.469	12.8
588.807	13
589.145	12.92
589.483	12.86
589.821	12.76
590.159	12.94
590.497	13.16
590.835	13.24
591.173	12.89
591.511	13.11
591.849	13.39
592.187	12.93
592.524	13.24
592.862	13.22
593.2	13
593.537	13.32
593.875	13.23
594.212	13.34
594.55	13.58
594.887	13.34
595.224	13.54
595.561	13.79
595.899	13.81
596.236	13.85
596.573	13.6
596.91	13.77
597.247	13.48
597.584	13.79
597.921	13.9
598.258	13.85
598.594	13.73
598.931	13.78
599.268	13.65
599.604	13.91
599.941	13.82
600.277	13.78
600.614	13.79
600.95	14.02
601.287	13.76
601.623	14.02
601.959	14.13
602.296	14.26
602.632	14.19
602.968	14.19
603.304	14.17
603.64	14.53
603.976	14.44
604.312	14.15
604.648	14.46
604.984	14.63
605.319	14.29
605.655	14.48
605.991	14.71
606.326	14.56
606.662	14.38
606.998	14.55
607.333	14.59
607.668	14.53
608.004	14.73
608.339	14.78
608.674	14.85
609.01	14.74
609.345	15.15
609.68	14.98
610.015	14.99
610.35	15.1
610.685	15.1
611.02	15.35
611.355	15.18
611.689	15.1
612.024	15.15
612.359	14.99
612.694	15.32
613.028	15.19
613.363	15.38
613.697	15.5
614.032	15.33
614.366	15.23
614.7	15.53
615.035	15.6
615.369	15.48
615.703	15.55
616.037	15.55
616.371	15.77
616.705	16.07
617.039	15.85
617.373	15.79
617.707	15.92
618.041	16
618.375	15.91
618.709	15.69
619.042	16.23
619.376	16.22
619.71	16.11
620.043	15.82
620.377	15.95
620.71	16.58
621.043	16.37
621.377	16.47
621.71	15.88
622.043	16.28
622.376	16.62
622.709	16.44
623.043	16.75
623.376	16.56
623.709	16.84
624.041	16.6
624.374	16.7
624.707	16.94
625.04	17.03
625.373	16.87
625.705	16.72
626.038	16.68
626.37	17.08
626.703	17.14
627.035	16.7
627.368	17.11
627.7	17.16
628.032	17.1
628.365	17.11
628.697	17.09
629.029	17.45
629.361	17.11
629.693	17.46
630.025	17.14
630.357	17.51
630.689	17.17
631.021	17.53
631.353	17.73
631.684	17.59
632.016	17.91
632.348	17.65
632.679	17.46
633.011	17.54
633.342	17.86
633.674	17.74
634.005	17.41
634.336	18.07
634.668	18
634.999	17.82
635.33	17.95
635.661	18.05
635.992	18.13
636.323	18.01
636.654	18.05
636.985	18.14
637.316	17.95
637.647	18.27
637.977	17.78
638.308	18.58
638.639	18.1
638.969	18.35
639.3	18.16
639.63	18.62
639.961	18.39
640.291	18.46
640.622	19.08
640.952	19.11
641.282	18.76
641.612	18.59
641.943	18.82
642.273	18.68
642.603	18.84
642.933	18.69
643.263	18.73
643.592	18.86
643.922	19.19
644.252	18.62
644.582	19.43
644.911	19.42
645.241	19.53
645.571	19.34
645.9	19.66
646.23	20.12
646.559	19.64
646.888	19.49
647.218	19.64
647.547	19.05
647.876	19.37
648.205	19.35
648.534	20.31
648.863	19.29
649.192	19.44
649.521	19.68
649.85	20.05
650.179	20.16
650.508	19.8
650.837	20.57
651.165	20.13
651.494	19.84
651.822	20.06
652.151	20.06
652.479	20.56
652.808	20.17
653.136	20.52
653.465	20.26
653.793	19.91
654.121	21.09
654.449	20.25
654.777	20.52
655.105	20.75
655.433	20.52
655.761	21.09
656.089	20.58
656.417	20.98
656.745	20.61
657.073	20.82
657.4	21.04
657.728	20.73
658.056	20.65
658.383	21.04
658.711	21.18
659.038	20.78
659.365	21.12
659.693	21.05
660.02	21.42
660.347	20.72
660.674	20.79
661.001	21.15
661.329	21.37
661.656	20.94
661.982	20.59
662.309	21.42
662.636	21.12
662.963	20.95
663.29	21.54
663.616	22.04
663.943	21.35
664.27	21.41
664.596	21.33
664.923	21.17
665.249	21.74
665.576	21.28
665.902	21.61
666.228	21.89
666.554	21.76
666.881	22.17
667.207	21.65
667.533	21.77
667.859	22.42
668.185	22.55
668.511	22.4
668.837	22.71
669.162	22.51
669.488	21.77
669.814	21.82
670.139	21.69
670.465	22.76
670.791	22.39
671.116	22.43
671.442	22.57
671.767	22.22
672.092	23.21
672.418	22.89
672.743	22.25
673.068	23.02
673.393	22.04
673.718	23.2
674.043	23.07
674.368	22.98
674.693	22.5
675.018	23.21
675.343	23.22
675.667	23.05
675.992	23.71
676.317	23.5
676.641	24.18
676.966	23.57
677.29	22.73
677.615	23.71
677.939	23.73
678.264	23.36
678.588	24.49
678.912	23.4
679.236	23.4
679.56	23.01
679.885	23.58
680.209	24.46
680.532	23.79
680.856	23.77
681.18	23.95
681.504	23.87
681.828	23.98
682.152	23.94
682.475	24.56
682.799	23.87
683.122	24.18
683.446	23.64
683.769	23.95
