Data from 0190_crown_Reflection__3__135.txt Node

Date: Fri Sep 22 21:23:25 CDT 2023
User: ToomeyLab
Spectrometer: FLMS14357
Trigger mode: 0
Integration Time (sec): 1.000000E-2
Scans to average: 100
Electric dark correction enabled: true
Nonlinearity correction enabled: false
Boxcar width: 0
XAxis mode: Wavelengths
Number of Pixels in Spectrum: 2048
>>>>>Begin Spectral Data<<<<<
189.047	-680.73
189.435	-680.73
189.823	-680.73
190.211	37.77
190.599	-138.01
190.987	-55.46
191.375	65.3
191.763	3.72
192.151	30.19
192.538	-78.5
192.926	107.51
193.314	-497.29
193.702	1910.83
194.089	-647.12
194.477	-73.68
194.864	75.98
195.252	72.42
195.639	-71.09
196.027	146.72
196.414	439.65
196.801	46.36
197.189	227.5
197.576	150.98
197.963	-307.5
198.351	45.82
198.738	20.04
199.125	32.49
199.512	9.23
199.899	61.71
200.286	21.12
200.673	26.43
201.06	13.06
201.447	35.01
201.833	8.48
202.22	37.25
202.607	84.57
202.994	51.65
203.38	54.32
203.767	30.52
204.154	34.61
204.54	34.09
204.927	5.88
205.313	43.31
205.699	48.42
206.086	30.86
206.472	32.41
206.858	39.84
207.245	-0.58
207.631	25.97
208.017	23.88
208.403	28.06
208.789	6.35
209.175	40.65
209.561	30.55
209.947	53.49
210.333	68.08
210.719	17.92
211.105	33.8
211.491	18.15
211.876	27.67
212.262	40.48
212.648	17.83
213.034	18.33
213.419	16.69
213.805	7.59
214.19	-8.91
214.576	59.55
214.961	13.54
215.346	22.93
215.732	5.26
216.117	4.13
216.502	34.91
216.888	41.2
217.273	27.37
217.658	16
218.043	11.78
218.428	42.7
218.813	-13.06
219.198	-0.53
219.583	26.98
219.968	-6.58
220.353	39.32
220.738	-7.56
221.122	23.92
221.507	8.53
221.892	10.84
222.276	7.18
222.661	-20.6
223.046	4.13
223.43	20.95
223.815	-5.76
224.199	-5.06
224.583	13.87
224.968	9.91
225.352	3.22
225.736	18.06
226.121	9.54
226.505	3.16
226.889	6.07
227.273	7.29
227.657	6.11
228.041	6.15
228.425	7.54
228.809	4.71
229.193	2.58
229.577	5.17
229.961	4.06
230.344	4.91
230.728	2.28
231.112	3.5
231.495	2.66
231.879	2.85
232.263	1.93
232.646	2.69
233.03	2.68
233.413	2.92
233.797	4.78
234.18	3.3
234.563	4.23
234.946	4.51
235.33	0.8
235.713	1.88
236.096	2.5
236.479	2.58
236.862	4.71
237.245	2.78
237.628	4.44
238.011	4.56
238.394	4.24
238.777	3.96
239.16	4.26
239.543	4.88
239.925	2.94
240.308	4.46
240.691	3.57
241.073	3.57
241.456	4.42
241.838	3.78
242.221	3.64
242.603	2.58
242.986	2.36
243.368	2.52
243.75	3.86
244.133	3.64
244.515	3.08
244.897	2.78
245.279	2.52
245.661	2.65
246.043	2.61
246.425	2.27
246.807	2.38
247.189	1.78
247.571	3.18
247.953	3.86
248.335	3.23
248.717	2.63
249.098	2.76
249.48	2.61
249.862	2.45
250.243	2.43
250.625	2.79
251.006	2.46
251.388	3.12
251.769	2.86
252.151	2.57
252.532	2.61
252.913	3.98
253.295	3.41
253.676	2.88
254.057	2.74
254.438	3.21
254.819	2.05
255.2	2.71
255.581	3.17
255.962	2.89
256.343	2.14
256.724	2.56
257.105	1.86
257.486	1.75
257.867	2.8
258.247	3
258.628	3.26
259.009	3.33
259.389	2.94
259.77	2.47
260.15	3.32
260.531	2.07
260.911	2.37
261.292	2.65
261.672	2.31
262.052	2.41
262.432	2.29
262.813	2.37
263.193	1.94
263.573	3.23
263.953	2.45
264.333	2.46
264.713	2.83
265.093	2.85
265.473	2.3
265.853	1.8
266.233	2.42
266.612	2.38
266.992	3.28
267.372	3.73
267.752	3.11
268.131	2.39
268.511	2.12
268.89	3.01
269.27	2.56
269.649	2.21
270.029	2.86
270.408	3
270.787	2.78
271.167	2.16
271.546	2.12
271.925	2.73
272.304	2.05
272.683	2.95
273.062	3.04
273.441	2.41
273.82	2.79
274.199	2.75
274.578	2.95
274.957	1.95
275.336	2.72
275.715	1.84
276.093	2.29
276.472	2.06
276.851	2.5
277.229	2.06
277.608	3.22
277.986	1.54
278.365	2.87
278.743	2.21
279.122	2.68
279.5	3.04
279.878	2.61
280.257	3.02
280.635	1.93
281.013	2.49
281.391	2.56
281.769	2.1
282.147	2.63
282.525	3.08
282.903	2.44
283.281	2.4
283.659	2.2
284.037	2.41
284.415	2.55
284.792	2.16
285.17	2.55
285.548	2.63
285.925	2.23
286.303	2.54
286.68	2.27
287.058	2.42
287.435	2.09
287.813	2.34
288.19	1.84
288.567	2.38
288.945	2.38
289.322	2.34
289.699	2.23
290.076	2.69
290.453	1.92
290.83	2.28
291.207	2.32
291.584	2.12
291.961	1.46
292.338	2.4
292.715	2.59
293.092	2.4
293.469	2.25
293.845	2.08
294.222	2.82
294.599	2.47
294.975	2.37
295.352	2.86
295.728	2.56
296.105	2.3
296.481	2.78
296.858	2.47
297.234	2.55
297.61	2.35
297.986	2.64
298.363	2.52
298.739	2.76
299.115	2.69
299.491	2.19
299.867	2.33
300.243	2.08
300.619	2.55
300.995	1.91
301.371	2.74
301.746	2.78
302.122	2.48
302.498	2.23
302.874	2.07
303.249	2.2
303.625	2.26
304	2.34
304.376	2.86
304.751	2.29
305.127	2.52
305.502	2.6
305.878	2.17
306.253	2.49
306.628	2.28
307.003	2.31
307.378	2.16
307.754	2.35
308.129	2.23
308.504	2.48
308.879	2.84
309.254	2.78
309.629	2.15
310.003	2.58
310.378	2.99
310.753	2.22
311.128	2.22
311.502	2.17
311.877	2.07
312.252	2.16
312.626	2.27
313.001	2.51
313.375	2.57
313.75	2.45
314.124	2.54
314.498	2.26
314.873	2.47
315.247	2.19
315.621	2.33
315.995	2.18
316.369	2.66
316.743	2.79
317.117	3.03
317.491	2.9
317.865	2.3
318.239	2.58
318.613	2.96
318.987	2.3
319.361	2.1
319.734	2.69
320.108	2.77
320.482	2.21
320.855	2.12
321.229	3.16
321.602	2.69
321.976	2.22
322.349	2.29
322.723	2.44
323.096	2.6
323.469	2.82
323.843	2.61
324.216	2.89
324.589	2.51
324.962	2.2
325.335	2.39
325.708	2.72
326.081	3.02
326.454	1.72
326.827	2.28
327.2	2.61
327.573	2.9
327.945	2.92
328.318	2.24
328.691	2.43
329.063	2.32
329.436	2.8
329.809	2.54
330.181	2.73
330.553	2.38
330.926	2.65
331.298	2.45
331.671	3.39
332.043	1.83
332.415	2.63
332.787	2.79
333.159	2.49
333.532	2.79
333.904	2.6
334.276	2.53
334.648	1.29
335.02	2.71
335.391	2.79
335.763	2.63
336.135	2.29
336.507	2.44
336.879	2.56
337.25	2.29
337.622	2.78
337.993	2.47
338.365	2.6
338.736	2.99
339.108	2.61
339.479	2.46
339.851	2.26
340.222	2.36
340.593	2.11
340.964	2.11
341.336	2.56
341.707	2.27
342.078	2.34
342.449	2.43
342.82	2.19
343.191	2.16
343.562	2.78
343.933	2.64
344.303	2.53
344.674	2.35
345.045	2.76
345.416	2.39
345.786	2.21
346.157	2.66
346.527	2.18
346.898	2.11
347.268	1.95
347.639	2.58
348.009	2.82
348.38	2.45
348.75	2.48
349.12	2.24
349.49	2.74
349.861	2.66
350.231	2.48
350.601	2.44
350.971	2.8
351.341	2.14
351.711	2.61
352.081	2.34
352.45	2.11
352.82	2.83
353.19	2.63
353.56	2.49
353.929	2.6
354.299	2.75
354.669	2.25
355.038	2.35
355.408	2.43
355.777	2.66
356.147	2.76
356.516	2.6
356.885	2.36
357.254	2.71
357.624	2.38
357.993	2.63
358.362	2.19
358.731	2.45
359.1	2.41
359.469	2.61
359.838	2.04
360.207	2.41
360.576	2.54
360.945	2.39
361.314	2.69
361.682	2.39
362.051	2.53
362.42	2.24
362.788	2.43
363.157	2.46
363.525	2.38
363.894	2.21
364.262	2.33
364.631	2.18
364.999	2.24
365.367	2.82
365.735	2.35
366.104	2.56
366.472	2.8
366.84	2.41
367.208	2.67
367.576	2.79
367.944	2.55
368.312	2.51
368.68	2.49
369.048	2.61
369.416	2.54
369.783	2.35
370.151	2.6
370.519	2.44
370.886	2.73
371.254	2.53
371.621	2.36
371.989	2.52
372.356	2.28
372.724	2.89
373.091	2.41
373.458	2.43
373.826	2.58
374.193	2.71
374.56	2.53
374.927	2.42
375.294	2.6
375.661	2.55
376.028	2.73
376.395	2.73
376.762	2.25
377.129	2.84
377.496	2.83
377.863	2.75
378.229	2.57
378.596	2.25
378.963	2.97
379.329	2.48
379.696	2.63
380.062	2.46
380.429	2.48
380.795	2.67
381.161	2.64
381.528	2.5
381.894	2.33
382.26	2.43
382.626	2.39
382.993	2.66
383.359	2.26
383.725	2.6
384.091	2.64
384.457	2.47
384.823	2.51
385.188	2.48
385.554	2.51
385.92	2.89
386.286	2.62
386.651	2.56
387.017	2.72
387.383	2.22
387.748	2.32
388.114	2.37
388.479	2.53
388.845	2.32
389.21	2.2
389.575	2.67
389.94	2.49
390.306	2.53
390.671	2.6
391.036	2.34
391.401	2.55
391.766	2.46
392.131	2.41
392.496	2.73
392.861	2.55
393.226	2.96
393.591	2.63
393.956	2.59
394.32	2.81
394.685	2.48
395.05	2.74
395.414	2.69
395.779	2.46
396.143	2.74
396.508	2.61
396.872	2.37
397.236	2.6
397.601	2.24
397.965	2.64
398.329	2.56
398.694	2.51
399.058	2.66
399.422	2.45
399.786	2.54
400.15	2.91
400.514	2.66
400.878	2.64
401.242	2.69
401.605	2.41
401.969	2.44
402.333	2.57
402.697	2.7
403.06	2.32
403.424	2.62
403.787	2.55
404.151	2.62
404.514	2.58
404.878	2.92
405.241	2.94
405.604	2.68
405.968	2.6
406.331	2.6
406.694	2.59
407.057	2.37
407.42	2.68
407.783	2.5
408.146	2.47
408.509	2.48
408.872	2.67
409.235	2.69
409.598	2.58
409.961	2.61
410.323	2.77
410.686	2.67
411.049	2.71
411.411	2.84
411.774	2.42
412.136	2.49
412.499	2.81
412.861	2.58
413.223	2.62
413.586	2.68
413.948	2.55
414.31	2.57
414.672	2.63
415.035	2.42
415.397	2.71
415.759	2.99
416.121	2.53
416.483	2.6
416.845	2.38
417.206	2.4
417.568	2.39
417.93	2.69
418.292	2.55
418.653	2.46
419.015	2.59
419.377	2.55
419.738	2.64
420.1	2.52
420.461	2.47
420.822	2.49
421.184	2.51
421.545	2.45
421.906	2.56
422.267	2.44
422.629	2.47
422.99	2.52
423.351	2.42
423.712	2.44
424.073	2.5
424.434	2.5
424.795	2.47
425.155	2.58
425.516	2.44
425.877	2.49
426.238	2.35
426.598	2.41
426.959	2.44
427.32	2.47
427.68	2.47
428.041	2.38
428.401	2.69
428.761	2.62
429.122	2.6
429.482	2.53
429.842	2.61
430.202	2.55
430.563	2.7
430.923	2.66
431.283	2.84
431.643	2.66
432.003	2.74
432.363	2.72
432.722	2.65
433.082	2.82
433.442	2.65
433.802	2.75
434.161	2.46
434.521	2.52
434.881	2.63
435.24	2.51
435.6	2.54
435.959	2.43
436.319	2.42
436.678	2.68
437.037	2.56
437.396	2.54
437.756	2.52
438.115	2.68
438.474	2.57
438.833	2.64
439.192	2.68
439.551	2.62
439.91	2.7
440.269	2.71
440.628	2.49
440.987	2.51
441.345	2.71
441.704	2.63
442.063	2.51
442.421	2.48
442.78	2.62
443.138	2.63
443.497	2.58
443.855	2.58
444.214	2.49
444.572	2.68
444.93	2.7
445.288	2.68
445.647	2.61
446.005	2.49
446.363	2.44
446.721	2.62
447.079	2.42
447.437	2.72
447.795	2.63
448.153	2.56
448.51	2.59
448.868	2.55
449.226	2.49
449.584	2.56
449.941	2.54
450.299	2.62
450.656	2.63
451.014	2.7
451.371	2.6
451.729	2.66
452.086	2.59
452.443	2.71
452.801	2.8
453.158	2.5
453.515	2.78
453.872	2.58
454.229	2.71
454.586	2.65
454.943	2.67
455.3	2.72
455.657	2.69
456.014	2.7
456.371	2.81
456.727	2.93
457.084	2.7
457.441	2.5
457.797	2.69
458.154	2.64
458.51	2.49
458.867	2.75
459.223	2.51
459.58	2.82
459.936	2.78
460.292	2.56
460.648	2.71
461.005	2.68
461.361	2.74
461.717	2.42
462.073	2.61
462.429	2.48
462.785	2.56
463.141	2.6
463.496	2.78
463.852	2.66
464.208	2.64
464.564	2.84
464.919	2.71
465.275	2.82
465.631	2.61
465.986	2.62
466.342	2.67
466.697	2.74
467.052	2.65
467.408	2.84
467.763	2.63
468.118	2.86
468.473	2.65
468.829	2.77
469.184	2.72
469.539	2.59
469.894	2.61
470.249	2.75
470.603	2.72
470.958	2.74
471.313	2.69
471.668	2.82
472.023	2.87
472.377	2.76
472.732	2.68
473.086	2.88
473.441	2.61
473.795	2.91
474.15	2.56
474.504	2.73
474.859	2.75
475.213	2.39
475.567	2.65
475.921	2.71
476.275	2.7
476.63	2.84
476.984	2.49
477.338	2.72
477.692	2.88
478.045	2.75
478.399	2.84
478.753	2.66
479.107	2.74
479.461	2.54
479.814	2.68
480.168	2.68
480.521	2.8
480.875	2.85
481.228	2.73
481.582	2.65
481.935	2.7
482.289	2.73
482.642	2.55
482.995	2.7
483.348	2.75
483.701	2.64
484.055	2.56
484.408	2.73
484.761	2.6
485.114	2.48
485.466	2.5
485.819	2.45
486.172	2.43
486.525	2.44
486.878	2.49
487.23	2.55
487.583	2.64
487.936	2.63
488.288	2.59
488.641	2.63
488.993	2.57
489.345	2.55
489.698	2.48
490.05	2.56
490.402	2.55
490.754	2.53
491.107	2.59
491.459	2.67
491.811	2.58
492.163	2.67
492.515	2.67
492.866	2.63
493.218	2.58
493.57	2.59
493.922	2.51
494.274	2.55
494.625	2.66
494.977	2.72
495.328	2.78
495.68	2.72
496.031	2.78
496.383	2.74
496.734	2.75
497.086	2.62
497.437	2.74
497.788	2.74
498.139	2.83
498.49	2.9
498.842	2.68
499.193	2.66
499.544	2.75
499.894	2.64
500.245	2.8
500.596	2.82
500.947	2.75
501.298	2.71
501.648	2.8
501.999	2.79
502.35	2.76
502.7	2.82
503.051	2.85
503.401	2.88
503.752	2.68
504.102	2.72
504.452	2.76
504.803	2.79
505.153	2.78
505.503	2.71
505.853	2.95
506.203	2.87
506.553	2.94
506.903	2.76
507.253	2.69
507.603	2.74
507.953	2.77
508.303	2.89
508.652	2.81
509.002	2.79
509.352	2.74
509.701	2.8
510.051	2.74
510.4	2.91
510.75	2.78
511.099	2.71
511.449	2.85
511.798	2.74
512.147	2.71
512.496	2.78
512.846	2.81
513.195	2.82
513.544	2.74
513.893	2.84
514.242	2.76
514.591	2.82
514.939	2.85
515.288	2.76
515.637	2.84
515.986	2.72
516.334	2.85
516.683	2.84
517.032	3.06
517.38	2.83
517.729	2.83
518.077	2.88
518.426	2.95
518.774	2.87
519.122	2.86
519.47	2.87
519.819	2.88
520.167	2.82
520.515	2.77
520.863	2.69
521.211	2.81
521.559	2.74
521.907	2.85
522.255	2.81
522.602	2.83
522.95	2.85
523.298	2.93
523.645	2.87
523.993	2.8
524.341	2.82
524.688	2.91
525.036	2.89
525.383	2.82
525.73	2.97
526.078	2.76
526.425	2.85
526.772	2.91
527.119	2.73
527.466	2.64
527.814	2.7
528.161	2.68
528.508	2.75
528.854	2.85
529.201	2.84
529.548	2.83
529.895	2.7
530.242	2.7
530.588	2.62
530.935	2.55
531.282	2.59
531.628	2.71
531.975	2.71
532.321	2.74
532.667	2.78
533.014	2.76
533.36	2.88
533.706	2.83
534.052	2.89
534.399	2.9
534.745	2.76
535.091	2.69
535.437	2.73
535.783	2.59
536.129	2.81
536.474	2.78
536.82	2.74
537.166	2.94
537.512	2.92
537.857	2.86
538.203	2.86
538.549	2.79
538.894	2.7
539.239	2.76
539.585	2.75
539.93	2.88
540.276	2.85
540.621	2.9
540.966	2.84
541.311	2.94
541.656	2.79
542.001	2.81
542.346	2.87
542.691	2.95
543.036	2.77
543.381	2.71
543.726	2.71
544.071	2.74
544.415	2.81
544.76	2.75
545.105	2.73
545.449	2.77
545.794	2.8
546.138	2.84
546.483	2.91
546.827	2.89
547.171	2.96
547.516	2.88
547.86	2.88
548.204	2.97
548.548	2.94
548.892	2.91
549.236	2.85
549.58	2.67
549.924	2.9
550.268	2.93
550.612	2.98
550.956	2.9
551.3	3.11
551.643	3.01
551.987	3.02
552.33	3.07
552.674	2.98
553.017	2.82
553.361	2.83
553.704	3.01
554.048	2.96
554.391	2.87
554.734	3.03
555.077	2.92
555.42	2.91
555.764	2.83
556.107	3.08
556.45	2.97
556.793	2.89
557.135	3
557.478	2.93
557.821	3.05
558.164	2.92
558.507	3.05
558.849	2.93
559.192	3.08
559.534	3.22
559.877	3.03
560.219	3.01
560.562	2.89
560.904	3.08
561.246	3.17
561.589	3.15
561.931	2.84
562.273	2.88
562.615	2.97
562.957	2.98
563.299	3.1
563.641	3.17
563.983	3.13
564.325	3.05
564.667	3.12
565.008	2.94
565.35	2.91
565.692	3.19
566.033	3.03
566.375	2.99
566.716	2.95
567.058	3.12
567.399	3.09
567.741	3.17
568.082	3.02
568.423	3.07
568.764	3.21
569.105	2.73
569.447	3.07
569.788	2.85
570.129	3.06
570.47	3.18
570.811	3.05
571.151	3.13
571.492	2.99
571.833	2.98
572.174	3.16
572.514	3.04
572.855	3
573.195	2.93
573.536	3
573.876	3
574.217	2.96
574.557	2.9
574.898	3.24
575.238	3
575.578	3.18
575.918	3.1
576.258	2.95
576.598	3.06
576.938	3.14
577.278	2.94
577.618	2.86
577.958	3.06
578.298	3.16
578.638	2.91
578.977	3.08
579.317	2.95
579.657	2.95
579.996	3.05
580.336	3.27
580.675	3.03
581.014	2.84
581.354	2.86
581.693	3.33
582.032	3.16
582.372	3.12
582.711	3.32
583.05	3.05
583.389	2.92
583.728	3.13
584.067	3.22
584.406	3.08
584.745	3.04
585.083	3.55
585.422	3.21
585.761	2.8
586.1	3.15
586.438	3.01
586.777	3.03
587.115	3.38
587.454	3.07
587.792	3.42
588.13	3.2
588.469	3
588.807	3.29
589.145	3.19
589.483	3.28
589.821	3.3
590.159	3.01
590.497	3.47
590.835	3.28
591.173	3.16
591.511	3
591.849	3.29
592.187	3.15
592.524	3.19
592.862	3.19
593.2	3.12
593.537	3.17
593.875	3.09
594.212	3.33
594.55	3.27
594.887	3.24
595.224	3.14
595.561	3.33
595.899	3.36
596.236	3.44
596.573	3.4
596.91	3.23
597.247	3.27
597.584	3.27
597.921	3.32
598.258	3.43
598.594	3.21
598.931	3.25
599.268	3.07
599.604	3.25
599.941	3.11
600.277	3.16
600.614	3.09
600.95	3.31
601.287	3.2
601.623	3.23
601.959	3.06
602.296	3.25
602.632	3
602.968	3.12
603.304	3.31
603.64	3.3
603.976	3.26
604.312	3.18
604.648	3.28
604.984	3.33
605.319	3.13
605.655	3.11
605.991	3.12
606.326	3.2
606.662	3.09
606.998	3.07
607.333	3.32
607.668	3.15
608.004	3.24
608.339	3.12
608.674	3.24
609.01	3.12
609.345	3.26
609.68	3.37
610.015	2.93
610.35	3.06
610.685	3.39
611.02	3.15
611.355	3.34
611.689	3.24
612.024	3.32
612.359	3.14
612.694	3.38
613.028	3.25
613.363	3.11
613.697	3.3
614.032	3.19
614.366	3.24
614.7	3.36
615.035	3.6
615.369	3.05
615.703	3.24
616.037	3.34
616.371	3.5
616.705	3.38
617.039	3.26
617.373	3.04
617.707	3.39
618.041	3.5
618.375	3.29
618.709	3.37
619.042	3.46
619.376	3.28
619.71	3.23
620.043	3.09
620.377	3.09
620.71	3.5
621.043	3.52
621.377	3.17
621.71	3.37
622.043	3.41
622.376	3.9
622.709	3.47
623.043	3.46
623.376	3.66
623.709	3.14
624.041	3.54
624.374	3.57
624.707	3.47
625.04	3.35
625.373	3.09
625.705	3.43
626.038	3.33
626.37	3.78
626.703	3.28
627.035	3.18
627.368	3.49
627.7	3.74
628.032	3.41
628.365	3.42
628.697	3.48
629.029	3.4
629.361	3.27
629.693	3.27
630.025	3.46
630.357	3.03
630.689	3.54
631.021	3.41
631.353	3.41
631.684	3.18
632.016	3.55
632.348	3.49
632.679	2.83
633.011	3.21
633.342	3.57
633.674	3.59
634.005	3.12
634.336	3.89
634.668	3.39
634.999	3.28
635.33	3.74
635.661	3.2
635.992	3.58
636.323	3.22
636.654	3.48
636.985	3.26
637.316	3.26
637.647	3.49
637.977	3.24
638.308	3.81
638.639	3.24
638.969	3.88
639.3	3.49
639.63	3.43
639.961	3.24
640.291	3.27
640.622	3.67
640.952	3.26
641.282	3.52
641.612	3.48
641.943	3.45
642.273	3.91
642.603	3.2
642.933	3.54
643.263	3.04
643.592	3.23
643.922	3.5
644.252	3.34
644.582	3.57
644.911	3.71
645.241	4.03
645.571	3.14
645.9	3.86
646.23	3.86
646.559	3.5
646.888	3.78
647.218	3.39
647.547	3.37
647.876	3.67
648.205	3.47
648.534	4.13
648.863	3.82
649.192	3.24
649.521	3.96
649.85	3.43
650.179	3.76
650.508	3.68
650.837	3.73
651.165	3.68
651.494	3.57
651.822	3.49
652.151	3
652.479	3.54
652.808	3.54
653.136	3.9
653.465	3.94
653.793	3.25
654.121	4.07
654.449	3.19
654.777	3.71
655.105	3.63
655.433	3.86
655.761	4.27
656.089	3.37
656.417	3.42
656.745	3.38
657.073	4.08
657.4	4.23
657.728	3.77
658.056	3.77
658.383	3.93
658.711	3.42
659.038	3.58
659.365	3.63
659.693	3.71
660.02	3.98
660.347	3.93
660.674	3.43
661.001	3.83
661.329	3.45
661.656	3.73
661.982	3.39
662.309	3.87
662.636	3.89
662.963	3.65
663.29	3.85
663.616	3.4
663.943	3.82
664.27	3.92
664.596	3.42
664.923	3.45
665.249	3.73
665.576	3.02
665.902	3.56
666.228	3.47
666.554	3.01
666.881	3.97
667.207	3.74
667.533	3.79
667.859	3.83
668.185	3.81
668.511	3.84
668.837	3.45
669.162	3.4
669.488	3.3
669.814	3.59
670.139	3.84
670.465	4.37
670.791	4.29
671.116	3.31
671.442	4.27
671.767	3.47
672.092	4
672.418	4.53
672.743	3.79
673.068	4.04
673.393	3.83
673.718	4.26
674.043	4.57
674.368	3.71
674.693	3.47
675.018	3.77
675.343	4.45
675.667	4.14
675.992	4.08
676.317	4.75
676.641	4.39
676.966	4.41
677.29	3.29
677.615	3.46
677.939	4.24
678.264	3.98
678.588	3.92
678.912	4.75
679.236	3.84
679.56	4.37
679.885	4.05
680.209	4.42
680.532	3.44
680.856	3.67
681.18	3.92
681.504	4.18
681.828	4.38
682.152	4.06
682.475	4.46
682.799	3.65
683.122	3.78
683.446	3.8
683.769	4.04
684.093	4.44
684.416	4.1
684.739	4.16
685.062	4.05
685.386	3.5
685.709	3.96
686.032	3.41
686.355	3.92
686.678	4.33
687.001	4.03
687.324	4.48
687.646	4.26
687.969	4.65
688.292	4.08
688.614	4.85
688.937	4.32
689.26	4.12
689.582	4.7
689.904	3.85
690.227	4.81
690.549	4.34
690.871	3.9
691.194	3.79
691.516	4.02
691.838	4.14
692.16	3.61
692.482	4.17
692.804	3.31
