Data from 0190_forehead_Reflection__1__138.txt Node

Date: Fri Sep 22 21:24:20 CDT 2023
User: ToomeyLab
Spectrometer: FLMS14357
Trigger mode: 0
Integration Time (sec): 1.000000E-2
Scans to average: 100
Electric dark correction enabled: true
Nonlinearity correction enabled: false
Boxcar width: 0
XAxis mode: Wavelengths
Number of Pixels in Spectrum: 2048
>>>>>Begin Spectral Data<<<<<
189.047	-1419.01
189.435	-1419.01
189.823	-1419.01
190.211	-16.17
190.599	152.58
190.987	-18.82
191.375	119.97
191.763	88.02
192.151	28.62
192.538	-61.4
192.926	89.62
193.314	-150.94
193.702	129.58
194.089	-388.37
194.477	-232.28
194.864	-42.91
195.252	65.51
195.639	95.39
196.027	-165.12
196.414	-346
196.801	-1.98
197.189	36.81
197.576	-6.95
197.963	948.75
198.351	61.25
198.738	12
199.125	-8.02
199.512	25.46
199.899	72.84
200.286	38.63
200.673	25.76
201.06	15.02
201.447	71.03
201.833	-26.1
202.22	35.76
202.607	46.14
202.994	60.66
203.38	84.83
203.767	26.83
204.154	45.29
204.54	46.75
204.927	10.69
205.313	47.19
205.699	39.67
206.086	23.05
206.472	47.95
206.858	30.27
207.245	52.24
207.631	31.76
208.017	16.41
208.403	12.44
208.789	35.99
209.175	37.03
209.561	39.76
209.947	37.48
210.333	34.08
210.719	18.45
211.105	38.16
211.491	19.64
211.876	21.68
212.262	42.15
212.648	21.33
213.034	13.75
213.419	25.43
213.805	18.16
214.19	10.26
214.576	28.33
214.961	29.99
215.346	35.28
215.732	32.08
216.117	19.35
216.502	48.34
216.888	57.33
217.273	14.9
217.658	26.54
218.043	34.53
218.428	45.76
218.813	-25.46
219.198	18.84
219.583	21.71
219.968	9.58
220.353	35.05
220.738	9.25
221.122	17.77
221.507	25.85
221.892	2.86
222.276	2.85
222.661	-7.54
223.046	19.28
223.43	20.55
223.815	1.24
224.199	-5.37
224.583	3.01
224.968	13.95
225.352	2.1
225.736	15.3
226.121	10.91
226.505	11.36
226.889	6.24
227.273	-0.51
227.657	5.87
228.041	5.13
228.425	8.61
228.809	5.36
229.193	7.01
229.577	6.24
229.961	3.95
230.344	4.25
230.728	2.81
231.112	4.12
231.495	2.08
231.879	3.29
232.263	2.39
232.646	3.58
233.03	3.38
233.413	3.22
233.797	4.09
234.18	3.09
234.563	4.97
234.946	7.9
235.33	1.55
235.713	2.82
236.096	2.33
236.479	2.34
236.862	4.74
237.245	2.56
237.628	5.75
238.011	3.48
238.394	3.77
238.777	5.74
239.16	4.97
239.543	4.6
239.925	6.26
240.308	4.7
240.691	4.56
241.073	4.94
241.456	4.02
241.838	2.39
242.221	4.17
242.603	3.53
242.986	2.46
243.368	3.56
243.75	3.16
244.133	3.53
244.515	2.99
244.897	2.62
245.279	2.58
245.661	3.17
246.043	1.95
246.425	3.03
246.807	3.11
247.189	2.13
247.571	3.46
247.953	3.44
248.335	3.23
248.717	3.07
249.098	2.87
249.48	2.85
249.862	2.7
250.243	2.72
250.625	2.88
251.006	2.58
251.388	3.37
251.769	3.26
252.151	3.09
252.532	3.44
252.913	4.42
253.295	4.11
253.676	3.21
254.057	2.88
254.438	3.55
254.819	2.83
255.2	2.99
255.581	2.99
255.962	3.05
256.343	2.23
256.724	3.51
257.105	4.4
257.486	3.9
257.867	3.57
258.247	3.53
258.628	3.5
259.009	3.49
259.389	3.78
259.77	3.35
260.15	3.88
260.531	2.77
260.911	3.04
261.292	3.23
261.672	2.68
262.052	2.69
262.432	2.83
262.813	2.99
263.193	2.51
263.573	3.54
263.953	3.27
264.333	2.78
264.713	3.26
265.093	2.75
265.473	3.04
265.853	2.95
266.233	2.75
266.612	3.42
266.992	3.98
267.372	3.78
267.752	3.69
268.131	3.03
268.511	2.85
268.89	3.29
269.27	2.97
269.649	3.12
270.029	3.19
270.408	3.46
270.787	2.89
271.167	3.22
271.546	2.85
271.925	3.37
272.304	2.81
272.683	3.33
273.062	3.02
273.441	3.22
273.82	3.27
274.199	3.1
274.578	3.03
274.957	3.02
275.336	2.8
275.715	2.94
276.093	2.93
276.472	3.22
276.851	3.39
277.229	2.28
277.608	2.79
277.986	2.57
278.365	3.06
278.743	3.16
279.122	3.12
279.5	3.89
279.878	3.56
280.257	4.24
280.635	3.26
281.013	3.81
281.391	3.06
281.769	3.6
282.147	3.01
282.525	2.87
282.903	3.35
283.281	2.93
283.659	3.2
284.037	2.9
284.415	3.84
284.792	3.2
285.17	3.35
285.548	3.32
285.925	3.26
286.303	2.91
286.68	2.9
287.058	3.1
287.435	2.93
287.813	3.04
288.19	2.89
288.567	3.25
288.945	3.04
289.322	2.83
289.699	3.54
290.076	3.41
290.453	2.95
290.83	2.88
291.207	3.34
291.584	3.03
291.961	2.91
292.338	3.25
292.715	3.53
293.092	3.2
293.469	3.57
293.845	3.6
294.222	3.8
294.599	3.69
294.975	3.69
295.352	3.91
295.728	3.74
296.105	3.66
296.481	3.78
296.858	3.85
297.234	3.84
297.61	4
297.986	4.12
298.363	3.95
298.739	3.85
299.115	4.06
299.491	3.9
299.867	3.92
300.243	3.98
300.619	3.78
300.995	3.92
301.371	4.3
301.746	4.34
302.122	4.37
302.498	3.95
302.874	3.83
303.249	4.28
303.625	3.97
304	4.4
304.376	4.56
304.751	4.79
305.127	4.88
305.502	4.67
305.878	4.2
306.253	4.56
306.628	4.39
307.003	4.82
307.378	4.81
307.754	4.72
308.129	4.68
308.504	5.08
308.879	5.2
309.254	5.1
309.629	5.34
310.003	5.23
310.378	5.34
310.753	5.56
311.128	4.65
311.502	5.31
311.877	4.93
312.252	5.32
312.626	5.44
313.001	5.48
313.375	5.79
313.75	5.62
314.124	5.71
314.498	5.2
314.873	5.67
315.247	6.22
315.621	6
315.995	6.11
316.369	5.93
316.743	6.06
317.117	6.3
317.491	6.66
317.865	5.9
318.239	6.1
318.613	6.75
318.987	6.44
319.361	6.38
319.734	6.4
320.108	6.87
320.482	6.31
320.855	6.37
321.229	6.8
321.602	6.61
321.976	6.62
322.349	6.77
322.723	6.91
323.096	7.09
323.469	6.91
323.843	6.73
324.216	7.56
324.589	7.78
324.962	7.2
325.335	6.93
325.708	7.21
326.081	7.78
326.454	6.76
326.827	7.44
327.2	7.66
327.573	8.03
327.945	7.56
328.318	7.74
328.691	7.96
329.063	7.64
329.436	7.97
329.809	7.85
330.181	7.87
330.553	7.53
330.926	7.78
331.298	7.94
331.671	8.07
332.043	7.58
332.415	8.43
332.787	8.42
333.159	7.65
333.532	7.58
333.904	7.92
334.276	8.11
334.648	7.82
335.02	8.16
335.391	8.48
335.763	8.62
336.135	8.48
336.507	8.8
336.879	8.17
337.25	8.57
337.622	8.7
337.993	8.63
338.365	9.19
338.736	8.75
339.108	8.58
339.479	9.05
339.851	8.95
340.222	8.91
340.593	8.83
340.964	8.68
341.336	8.7
341.707	9.13
342.078	8.94
342.449	9.14
342.82	8.88
343.191	8.75
343.562	9.21
343.933	9.39
344.303	9.25
344.674	9.53
345.045	9.98
345.416	9.69
345.786	9.06
346.157	9.28
346.527	9.44
346.898	9.41
347.268	9.36
347.639	9.73
348.009	9.66
348.38	9.61
348.75	10.33
349.12	9.39
349.49	10.41
349.861	9.93
350.231	9.92
350.601	10.16
350.971	10.11
351.341	9.85
351.711	10.11
352.081	9.93
352.45	10.13
352.82	10.73
353.19	10.46
353.56	9.99
353.929	10.72
354.299	10.34
354.669	10.59
355.038	10.78
355.408	10.47
355.777	10.91
356.147	10.91
356.516	11.08
356.885	10.6
357.254	11.03
357.624	10.5
357.993	10.81
358.362	11.04
358.731	10.96
359.1	10.64
359.469	11.02
359.838	10.65
360.207	10.75
360.576	11.01
360.945	11.04
361.314	11.56
361.682	11.64
362.051	11.61
362.42	11.05
362.788	11.43
363.157	11.68
363.525	11.45
363.894	11.39
364.262	11.1
364.631	11.36
364.999	11.42
365.367	11.58
365.735	11.68
366.104	11.54
366.472	11.83
366.84	11.56
367.208	12.07
367.576	12.19
367.944	11.84
368.312	11.83
368.68	12
369.048	12.35
369.416	12.19
369.783	12.05
370.151	12.15
370.519	12.6
370.886	12.38
371.254	12.56
371.621	12.22
371.989	12.43
372.356	12.84
372.724	12.63
373.091	12.36
373.458	12.25
373.826	12.9
374.193	12.73
374.56	12.53
374.927	12.82
375.294	12.51
375.661	12.86
376.028	13.03
376.395	13.56
376.762	13.09
377.129	12.97
377.496	13.45
377.863	13.29
378.229	13.17
378.596	13.26
378.963	13.65
379.329	13.18
379.696	13.67
380.062	13.28
380.429	13.56
380.795	13.38
381.161	13.58
381.528	13.79
381.894	13.56
382.26	13.75
382.626	13.93
382.993	13.87
383.359	13.44
383.725	13.55
384.091	13.84
384.457	14.22
384.823	13.9
385.188	14.1
385.554	14.12
385.92	14.3
386.286	14.15
386.651	14.11
387.017	14.38
387.383	14.06
387.748	14.22
388.114	14.32
388.479	14.61
388.845	14.42
389.21	14.41
389.575	14.57
389.94	14.82
390.306	14.63
390.671	15.14
391.036	14.85
391.401	14.88
391.766	14.76
392.131	14.75
392.496	14.93
392.861	15.26
393.226	15.35
393.591	15.3
393.956	15.28
394.32	15.15
394.685	15.08
395.05	15.38
395.414	15.74
395.779	15.28
396.143	15.5
396.508	15.45
396.872	15.39
397.236	15.61
397.601	15.5
397.965	15.62
398.329	15.73
398.694	15.75
399.058	15.72
399.422	15.77
399.786	15.96
400.15	16.3
400.514	16.31
400.878	16.2
401.242	16.36
401.605	16.06
401.969	15.97
402.333	16.16
402.697	16.21
403.06	16.39
403.424	16.36
403.787	16.82
404.151	16.51
404.514	16.94
404.878	16.68
405.241	16.76
405.604	16.6
405.968	16.87
406.331	16.82
406.694	16.49
407.057	16.45
407.42	16.96
407.783	16.93
408.146	16.78
408.509	16.79
408.872	16.95
409.235	17.16
409.598	16.96
409.961	17.23
410.323	17.3
410.686	17.22
411.049	17.43
411.411	17.51
411.774	17.22
412.136	17.41
412.499	17.08
412.861	17.63
413.223	17.7
413.586	17.43
413.948	17.57
414.31	17.68
414.672	17.66
415.035	17.67
415.397	18.05
415.759	17.99
416.121	18.04
416.483	17.92
416.845	18.07
417.206	17.97
417.568	18.14
417.93	18.15
418.292	18.2
418.653	17.92
419.015	17.99
419.377	18.07
419.738	18.13
420.1	18.01
420.461	18.23
420.822	18.12
421.184	18.23
421.545	18.21
421.906	18.13
422.267	18.23
422.629	18.3
422.99	18.15
423.351	18.14
423.712	18.18
424.073	18.22
424.434	18.22
424.795	18.46
425.155	18.61
425.516	18.46
425.877	18.56
426.238	18.4
426.598	18.46
426.959	18.55
427.32	18.71
427.68	18.76
428.041	18.81
428.401	19.15
428.761	19.17
429.122	19.16
429.482	19.16
429.842	19.15
430.202	19.27
430.563	19.48
430.923	19.45
431.283	19.46
431.643	19.65
432.003	19.7
432.363	19.71
432.722	19.47
433.082	19.99
433.442	19.75
433.802	19.77
434.161	19.87
434.521	19.84
434.881	19.92
435.24	19.97
435.6	19.9
435.959	19.92
436.319	20
436.678	20.01
437.037	20.15
437.396	20.3
437.756	20.28
438.115	20.16
438.474	20.25
438.833	20.48
439.192	20.31
439.551	20.39
439.91	20.54
440.269	20.63
440.628	20.54
440.987	20.55
441.345	20.51
441.704	20.85
442.063	20.43
442.421	20.61
442.78	20.51
443.138	20.61
443.497	20.64
443.855	20.87
444.214	20.65
444.572	20.99
444.93	20.94
445.288	20.96
445.647	21.08
446.005	21.14
446.363	21.03
446.721	21.04
447.079	21.03
447.437	21.1
447.795	21.23
448.153	21.16
448.51	21.11
448.868	21.01
449.226	21.07
449.584	21.1
449.941	21.09
450.299	21.22
450.656	21.41
451.014	21.49
451.371	21.51
451.729	21.56
452.086	21.67
452.443	21.82
452.801	21.92
453.158	21.95
453.515	22.2
453.872	21.89
454.229	22.17
454.586	22.09
454.943	22
455.3	22.03
455.657	22.18
456.014	22.16
456.371	22.3
456.727	22.58
457.084	22.53
457.441	22.38
457.797	22.73
458.154	22.66
458.51	22.51
458.867	22.56
459.223	22.85
459.58	22.73
459.936	22.76
460.292	22.88
460.648	22.93
461.005	22.62
461.361	22.75
461.717	22.58
462.073	22.36
462.429	22.35
462.785	22.45
463.141	22.72
463.496	22.79
463.852	22.96
464.208	22.89
464.564	23.24
464.919	23.04
465.275	23.4
465.631	23.21
465.986	23.56
466.342	23.41
466.697	23.5
467.052	23.56
467.408	23.67
467.763	23.47
468.118	23.7
468.473	23.81
468.829	23.63
469.184	23.58
469.539	23.68
469.894	23.85
470.249	23.93
470.603	23.73
470.958	24.05
471.313	23.81
471.668	24
472.023	23.98
472.377	24.17
472.732	24.23
473.086	24.39
473.441	23.96
473.795	24.28
474.15	24.18
474.504	24.33
474.859	24.21
475.213	24.04
475.567	24.23
475.921	24.33
476.275	24.36
476.63	24.3
476.984	24.27
477.338	24.72
477.692	24.45
478.045	24.71
478.399	24.75
478.753	24.76
479.107	24.9
479.461	24.8
479.814	24.64
480.168	24.86
480.521	24.78
480.875	24.82
481.228	24.8
481.582	24.8
481.935	24.94
482.289	24.63
482.642	24.77
482.995	24.94
483.348	24.84
483.701	24.73
484.055	24.77
484.408	24.77
484.761	24.59
485.114	24.51
485.466	24.32
485.819	24.05
486.172	24.02
486.525	23.96
486.878	24.09
487.23	24.21
487.583	24.39
487.936	24.46
488.288	24.7
488.641	24.82
488.993	24.7
489.345	24.57
489.698	24.62
490.05	24.51
490.402	24.63
490.754	24.58
491.107	24.69
491.459	24.92
491.811	25.07
492.163	25.24
492.515	25.38
492.866	25.41
493.218	25.39
493.57	25.08
493.922	24.96
494.274	25.02
494.625	25.04
494.977	25.23
495.328	25.57
495.68	25.69
496.031	25.93
496.383	26.1
496.734	26.18
497.086	26.01
497.437	26.2
497.788	26.31
498.139	26.52
498.49	26.31
498.842	26.27
499.193	26.19
499.544	26.38
499.894	26.29
500.245	26.36
500.596	26.33
500.947	26.32
501.298	26.43
501.648	26.52
501.999	26.59
502.35	26.71
502.7	26.79
503.051	26.73
503.401	26.96
503.752	26.83
504.102	27.06
504.452	27.09
504.803	27.1
505.153	27.12
505.503	26.99
505.853	27.21
506.203	26.95
506.553	27.15
506.903	27.18
507.253	27.26
507.603	27.33
507.953	27.39
508.303	27.39
508.652	27.47
509.002	27.37
509.352	27.48
509.701	27.42
510.051	27.3
510.4	27.38
510.75	27.31
511.099	27.41
511.449	27.45
511.798	27.48
512.147	27.52
512.496	27.58
512.846	27.52
513.195	27.46
513.544	27.66
513.893	27.72
514.242	27.57
514.591	27.52
514.939	27.83
515.288	27.72
515.637	27.83
515.986	27.76
516.334	28.01
516.683	28.07
517.032	28.12
517.38	28.08
517.729	28.04
518.077	28.24
518.426	28.22
518.774	28.14
519.122	28.25
519.47	28.21
519.819	28.07
520.167	28.22
520.515	27.86
520.863	27.8
521.211	27.96
521.559	27.97
521.907	27.91
522.255	28.09
522.602	28.19
522.95	28.37
523.298	28.63
523.645	28.51
523.993	28.38
524.341	28.45
524.688	28.76
525.036	28.88
525.383	28.76
525.73	28.92
526.078	28.8
526.425	28.64
526.772	28.73
527.119	28.7
527.466	28.57
527.814	28.38
528.161	28.41
528.508	28.51
528.854	28.37
529.201	28.46
529.548	28.41
529.895	28.43
530.242	28.39
530.588	28.08
530.935	27.94
531.282	27.98
531.628	28.08
531.975	28.12
532.321	28.24
532.667	28.5
533.014	28.63
533.36	28.8
533.706	28.83
534.052	29.01
534.399	29.08
534.745	28.98
535.091	28.95
535.437	28.69
535.783	28.59
536.129	28.73
536.474	28.81
536.82	29.01
537.166	29.19
537.512	29.2
537.857	29.43
538.203	29.53
538.549	29.27
538.894	29.37
539.239	29.26
539.585	29.28
539.93	29.48
540.276	29.48
540.621	29.74
540.966	29.93
541.311	29.94
541.656	29.94
542.001	29.91
542.346	29.92
542.691	29.98
543.036	29.74
543.381	29.44
543.726	29.14
544.071	29.22
544.415	29.26
544.76	29.38
545.105	29.37
545.449	29.59
545.794	29.73
546.138	29.75
546.483	29.9
546.827	30.08
547.171	30.18
547.516	30.23
547.86	30.28
548.204	30.4
548.548	30.43
548.892	30.29
549.236	30.2
549.58	30.21
549.924	30.55
550.268	30.84
550.612	30.73
550.956	30.63
551.3	30.77
551.643	30.75
551.987	31.1
552.33	31.16
552.674	31.11
553.017	31.09
553.361	31.19
553.704	31.4
554.048	31.31
554.391	31.19
554.734	31.44
555.077	31.18
555.42	31.23
555.764	31.36
556.107	31.29
556.45	31.19
556.793	31.25
557.135	31.47
557.478	31.41
557.821	31.7
558.164	31.8
558.507	31.74
558.849	31.6
559.192	31.75
559.534	31.85
559.877	31.87
560.219	31.68
560.562	31.93
560.904	31.99
561.246	32.07
561.589	32.07
561.931	32.02
562.273	31.92
562.615	32.07
562.957	32.14
563.299	32.22
563.641	31.95
563.983	32.17
564.325	31.92
564.667	32.28
565.008	32.14
565.35	32.19
565.692	32.07
566.033	32.06
566.375	32.38
566.716	32.39
567.058	32.29
567.399	32.36
567.741	32.54
568.082	32.15
568.423	32.1
568.764	32.56
569.105	31.97
569.447	32.26
569.788	32.28
570.129	32.31
570.47	32.59
570.811	32.52
571.151	32.67
571.492	32.4
571.833	32.61
572.174	32.66
572.514	32.83
572.855	32.72
573.195	32.57
573.536	32.73
573.876	32.43
574.217	32.47
574.557	32.41
574.898	32.59
575.238	32.5
575.578	32.57
575.918	32.72
576.258	32.61
576.598	32.9
576.938	32.81
577.278	32.68
577.618	32.83
577.958	32.97
578.298	33.1
578.638	33.01
578.977	32.88
579.317	33.12
579.657	32.9
579.996	33.22
580.336	33.38
580.675	33.33
581.014	33.31
581.354	33.43
581.693	33.55
582.032	33.65
582.372	33.51
582.711	33.88
583.05	33.75
583.389	33.72
583.728	33.62
584.067	33.74
584.406	34.04
584.745	33.86
585.083	33.89
585.422	33.83
585.761	34.07
586.1	33.92
586.438	34
586.777	34.15
587.115	33.96
587.454	33.56
587.792	34.47
588.13	34.31
588.469	33.84
588.807	34.52
589.145	34.05
589.483	34.2
589.821	33.98
590.159	34.26
590.497	34.56
590.835	34.19
591.173	34.07
591.511	34.61
591.849	34.47
592.187	34.28
592.524	34.18
592.862	34.34
593.2	34.35
593.537	34.26
593.875	34.25
594.212	34.39
594.55	34.73
594.887	34.73
595.224	34.68
595.561	34.44
595.899	34.6
596.236	34.88
596.573	34.53
596.91	34.69
597.247	34.44
597.584	34.92
597.921	34.73
598.258	34.64
598.594	34.65
598.931	34.39
599.268	34.5
599.604	34.29
599.941	34.36
600.277	34.5
600.614	34.4
600.95	34.5
601.287	34.87
601.623	34.81
601.959	34.78
602.296	34.98
602.632	34.92
602.968	35.07
603.304	35.04
603.64	35.16
603.976	35.14
604.312	35.07
604.648	35.27
604.984	35.27
605.319	35.36
605.655	35.21
605.991	35.24
606.326	35.07
606.662	34.93
606.998	34.83
607.333	35
607.668	35.11
608.004	35.03
608.339	34.9
608.674	35.19
609.01	35.46
609.345	35.38
609.68	35.4
610.015	35.36
610.35	35.47
610.685	35.63
611.02	35.67
611.355	35.33
611.689	35.38
612.024	35.62
612.359	35.22
612.694	35.52
613.028	35.28
613.363	35.36
613.697	35.75
614.032	35.37
614.366	35.5
614.7	35.81
615.035	35.69
615.369	35.61
615.703	35.51
616.037	35.78
616.371	36.03
616.705	36.02
617.039	35.64
617.373	36
617.707	36.01
618.041	36.11
618.375	36.04
618.709	36.33
619.042	36.12
619.376	36.22
619.71	36.17
620.043	36.11
620.377	36.19
620.71	36.29
621.043	36.87
621.377	36.24
621.71	36.3
622.043	36.08
622.376	36.71
622.709	36.24
623.043	36.5
623.376	36.3
623.709	36.48
624.041	36.41
624.374	36.57
624.707	36.91
625.04	36.86
625.373	36.19
625.705	36.82
626.038	36.7
626.37	36.51
626.703	36.6
627.035	36.64
627.368	36.62
627.7	36.79
628.032	36.54
628.365	36.93
628.697	36.54
629.029	36.72
629.361	36.63
629.693	36.87
630.025	36.72
630.357	36.73
630.689	36.57
631.021	36.84
631.353	36.63
631.684	36.35
632.016	36.76
632.348	36.41
632.679	36.69
633.011	37.38
633.342	36.86
633.674	37.6
634.005	36.41
634.336	37.36
634.668	37.09
634.999	37.2
635.33	37.47
635.661	37.06
635.992	37.24
636.323	37.08
636.654	37.28
636.985	36.87
637.316	37.47
637.647	37.15
637.977	36.97
638.308	37.7
638.639	37.24
638.969	37.7
639.3	37.58
639.63	37.57
639.961	37.99
640.291	37.55
640.622	37.24
640.952	38.24
641.282	37.41
641.612	37.41
641.943	37.59
642.273	37.82
642.603	37.75
642.933	37.78
643.263	37.43
643.592	37.33
643.922	37.92
644.252	38.11
644.582	38.11
644.911	37.45
645.241	38.05
645.571	37.73
645.9	37.71
646.23	38.36
646.559	38.1
646.888	38.08
647.218	38.55
647.547	37.86
647.876	37.74
648.205	37.71
648.534	38.06
648.863	37.79
649.192	38.04
649.521	38.46
649.85	38.25
650.179	38.31
650.508	38.2
650.837	38.17
651.165	38.42
651.494	38.11
651.822	38.27
652.151	38.88
652.479	38.02
652.808	38.19
653.136	38.71
653.465	38.67
653.793	38.25
654.121	39.03
654.449	37.82
654.777	38.63
655.105	38.69
655.433	38.89
655.761	38.71
656.089	38.23
656.417	38.23
656.745	38.56
657.073	38.64
657.4	39.06
657.728	39.44
658.056	38.55
658.383	39.01
658.711	39.12
659.038	38.28
659.365	38.72
659.693	38.15
660.02	38.2
660.347	39.26
660.674	37.91
661.001	38.46
661.329	38.8
661.656	38.56
661.982	38.56
662.309	38.96
662.636	39.18
662.963	39.29
663.29	39.03
663.616	39.12
663.943	38.92
664.27	39.24
664.596	38.84
664.923	39
665.249	39.3
665.576	39.5
665.902	39.02
666.228	38.57
666.554	38.95
666.881	39.55
667.207	39.16
667.533	39.23
667.859	39.3
668.185	39.05
668.511	39.71
668.837	39.33
669.162	39.37
669.488	39.6
669.814	39.49
670.139	39.13
670.465	38.88
670.791	38.83
671.116	39.99
