Data from 0190_forehead_Reflection__3__140.txt Node

Date: Fri Sep 22 21:24:42 CDT 2023
User: ToomeyLab
Spectrometer: FLMS14357
Trigger mode: 0
Integration Time (sec): 1.000000E-2
Scans to average: 100
Electric dark correction enabled: true
Nonlinearity correction enabled: false
Boxcar width: 0
XAxis mode: Wavelengths
Number of Pixels in Spectrum: 2048
>>>>>Begin Spectral Data<<<<<
189.047	-887.24
189.435	-887.24
189.823	-887.24
190.211	-245.79
190.599	126.2
190.987	55.65
191.375	-29.41
191.763	6.43
192.151	77.9
192.538	28.75
192.926	136.73
193.314	-256.56
193.702	1073.75
194.089	-427.79
194.477	-29.49
194.864	-22.33
195.252	45.05
195.639	-293.88
196.027	-17.28
196.414	165.53
196.801	120.33
197.189	37.64
197.576	77.71
197.963	-2778.75
198.351	90.47
198.738	19.8
199.125	44.66
199.512	40.58
199.899	56.44
200.286	20.62
200.673	43.54
201.06	42.23
201.447	60.55
201.833	7.65
202.22	94.35
202.607	57.3
202.994	45.14
203.38	55.51
203.767	52.37
204.154	52.52
204.54	95.11
204.927	54.91
205.313	103.25
205.699	44.86
206.086	49.07
206.472	93.82
206.858	67.61
207.245	70.1
207.631	36.56
208.017	38.01
208.403	60.89
208.789	36.02
209.175	60.48
209.561	25.29
209.947	74.23
210.333	96.69
210.719	29.65
211.105	67.48
211.491	68.99
211.876	52.88
212.262	43.25
212.648	23.57
213.034	33.38
213.419	20.32
213.805	82.41
214.19	56.39
214.576	51.96
214.961	36.11
215.346	25.96
215.732	57.23
216.117	52.34
216.502	52.16
216.888	49.06
217.273	31.79
217.658	27.38
218.043	16.71
218.428	35.45
218.813	21.48
219.198	22.36
219.583	44.63
219.968	28.84
220.353	41.39
220.738	14.08
221.122	47.53
221.507	22.51
221.892	27.3
222.276	24.24
222.661	-4.11
223.046	33.8
223.43	37.76
223.815	25.83
224.199	10.08
224.583	26.29
224.968	13.4
225.352	12.49
225.736	23.68
226.121	26.51
226.505	16.14
226.889	16.66
227.273	12.47
227.657	15.09
228.041	12.4
228.425	15.6
228.809	9.67
229.193	13.41
229.577	11.87
229.961	9.04
230.344	8.4
230.728	5.4
231.112	6.4
231.495	6.55
231.879	6.21
232.263	6.57
232.646	6.06
233.03	6.1
233.413	7.6
233.797	6.13
234.18	6.12
234.563	9.41
234.946	9.25
235.33	7.1
235.713	7.13
236.096	7.06
236.479	6.55
236.862	8.92
237.245	8.27
237.628	8.15
238.011	8.22
238.394	8.26
238.777	8.12
239.16	8.21
239.543	9.55
239.925	8.9
240.308	9.48
240.691	8.22
241.073	8.97
241.456	8.43
241.838	6.24
242.221	7.44
242.603	7.54
242.986	6.17
243.368	5.86
243.75	6.39
244.133	7.45
244.515	6.56
244.897	5.76
245.279	6.31
245.661	6.5
246.043	6.77
246.425	7.32
246.807	7.63
247.189	7.31
247.571	6.59
247.953	7.09
248.335	6.92
248.717	6.58
249.098	6.15
249.48	5.87
249.862	5.95
250.243	6.23
250.625	6.32
251.006	5.82
251.388	6.73
251.769	6.99
252.151	6.64
252.532	7.18
252.913	7.47
253.295	7.74
253.676	7.02
254.057	6.85
254.438	7
254.819	6.34
255.2	6.92
255.581	6.94
255.962	7.33
256.343	7.24
256.724	5.62
257.105	7.47
257.486	7.01
257.867	7.42
258.247	7.38
258.628	7.48
259.009	8.29
259.389	5.72
259.77	7.69
260.15	6.87
260.531	6.41
260.911	6.97
261.292	6.33
261.672	5.94
262.052	6.03
262.432	6.14
262.813	6.3
263.193	5.98
263.573	6.8
263.953	6.69
264.333	5.97
264.713	6.39
265.093	6.52
265.473	6.08
265.853	6.44
266.233	7.23
266.612	5.83
266.992	6.71
267.372	6.61
267.752	7.36
268.131	6.72
268.511	6.03
268.89	6.68
269.27	6.4
269.649	6.67
270.029	6.02
270.408	6.4
270.787	6.5
271.167	7
271.546	5.99
271.925	6.12
272.304	5.76
272.683	6.47
273.062	6.39
273.441	6.27
273.82	6.53
274.199	6.24
274.578	6.37
274.957	6.02
275.336	5.72
275.715	6.01
276.093	5.65
276.472	6.12
276.851	6.11
277.229	6.1
277.608	6.19
277.986	5.95
278.365	6.23
278.743	6.17
279.122	5.76
279.5	6.46
279.878	6.26
280.257	7.01
280.635	6.38
281.013	6.36
281.391	6.35
281.769	5.91
282.147	6.38
282.525	6.24
282.903	6.81
283.281	6.64
283.659	6.53
284.037	5.83
284.415	6.14
284.792	5.74
285.17	5.89
285.548	6.8
285.925	6.27
286.303	6.19
286.68	6
287.058	6.19
287.435	6.17
287.813	6.09
288.19	5.94
288.567	6.14
288.945	6
289.322	6.1
289.699	6.29
290.076	6.65
290.453	6.2
290.83	6.63
291.207	6.17
291.584	6.3
291.961	6.44
292.338	6.79
292.715	6.92
293.092	6.83
293.469	6.75
293.845	6.53
294.222	7.02
294.599	7.34
294.975	7.26
295.352	7.75
295.728	6.95
296.105	6.99
296.481	7.08
296.858	7.57
297.234	7.46
297.61	7.83
297.986	7.44
298.363	7.26
298.739	7
299.115	7.77
299.491	7.54
299.867	7.53
300.243	7.42
300.619	7.86
300.995	7.5
301.371	7.75
301.746	8.08
302.122	8.31
302.498	7.94
302.874	8.22
303.249	7.94
303.625	7.96
304	8.73
304.376	8.61
304.751	9.3
305.127	8.69
305.502	8.81
305.878	8.84
306.253	8.7
306.628	8.95
307.003	9.18
307.378	9.37
307.754	8.74
308.129	9.22
308.504	9.27
308.879	9.76
309.254	9.78
309.629	9.7
310.003	9.32
310.378	9.7
310.753	9.66
311.128	9.6
311.502	10.4
311.877	9.86
312.252	10.21
312.626	10.37
313.001	10.53
313.375	10.61
313.75	10.74
314.124	10.63
314.498	10.3
314.873	10.71
315.247	11.36
315.621	11.25
315.995	11.14
316.369	11.65
316.743	11
317.117	11.71
317.491	11.56
317.865	11.71
318.239	11.79
318.613	12.3
318.987	11.92
319.361	12.04
319.734	11.82
320.108	12.15
320.482	11.87
320.855	11.9
321.229	13.09
321.602	13.02
321.976	12.45
322.349	12.85
322.723	12.9
323.096	12.81
323.469	13.22
323.843	12.99
324.216	13.29
324.589	13.36
324.962	12.98
325.335	13.3
325.708	13.59
326.081	13.87
326.454	13.09
326.827	14.01
327.2	14.2
327.573	14.25
327.945	13.97
328.318	13.96
328.691	14.23
329.063	13.92
329.436	14.17
329.809	14.26
330.181	14.79
330.553	14.17
330.926	14.42
331.298	14.57
331.671	15.02
332.043	14.25
332.415	15.18
332.787	15.23
333.159	14.9
333.532	14.66
333.904	15.42
334.276	14.65
334.648	15.22
335.02	15.07
335.391	16.02
335.763	15.4
336.135	15.16
336.507	15.82
336.879	15.52
337.25	15.75
337.622	15.46
337.993	15.74
338.365	16.14
338.736	16.22
339.108	15.99
339.479	15.53
339.851	15.64
340.222	16.55
340.593	16.19
340.964	15.92
341.336	16.28
341.707	16.52
342.078	16.36
342.449	16.98
342.82	15.9
343.191	16.18
343.562	16.67
343.933	16.95
344.303	16.7
344.674	16.79
345.045	16.9
345.416	17.9
345.786	17.17
346.157	17.25
346.527	17.55
346.898	17.42
347.268	17.61
347.639	17.53
348.009	17.98
348.38	17.98
348.75	18.39
349.12	17.73
349.49	18.19
349.861	17.68
350.231	18.44
350.601	18.21
350.971	18.12
351.341	18.28
351.711	18.6
352.081	18.12
352.45	18.27
352.82	18.65
353.19	18.73
353.56	18.49
353.929	19.2
354.299	19
354.669	18.93
355.038	19.06
355.408	19.74
355.777	19.27
356.147	19.2
356.516	19.76
356.885	19.23
357.254	19.62
357.624	19.29
357.993	19.45
358.362	19.44
358.731	19.64
359.1	19.64
359.469	19.64
359.838	19.76
360.207	19.82
360.576	19.91
360.945	19.87
361.314	20.25
361.682	20.23
362.051	20.48
362.42	20.51
362.788	20.44
363.157	20.82
363.525	20.45
363.894	20.54
364.262	20.3
364.631	20.29
364.999	20.66
365.367	20.95
365.735	20.94
366.104	20.85
366.472	21.45
366.84	20.97
367.208	21.48
367.576	21.28
367.944	21.6
368.312	21.31
368.68	21.58
369.048	21.55
369.416	21.89
369.783	21.74
370.151	21.31
370.519	21.82
370.886	22.23
371.254	22.57
371.621	21.93
371.989	22.28
372.356	22.08
372.724	22.4
373.091	22.67
373.458	22.24
373.826	22.36
374.193	22.49
374.56	22.24
374.927	22.66
375.294	22.57
375.661	22.71
376.028	22.75
376.395	23.11
376.762	23.12
377.129	23.76
377.496	23.62
377.863	23.53
378.229	23.4
378.596	23.55
378.963	23.82
379.329	23.38
379.696	23.58
380.062	23.54
380.429	23.77
380.795	23.95
381.161	23.56
381.528	23.93
381.894	23.95
382.26	23.96
382.626	24.32
382.993	24.44
383.359	24.27
383.725	24.23
384.091	24.68
384.457	24.26
384.823	24.82
385.188	24.58
385.554	25.17
385.92	24.85
386.286	24.88
386.651	24.66
387.017	25.06
387.383	24.89
387.748	24.91
388.114	24.94
388.479	25.57
388.845	25.33
389.21	25.19
389.575	25.85
389.94	25.87
390.306	25.69
390.671	26
391.036	25.57
391.401	25.88
391.766	26.07
392.131	25.74
392.496	25.86
392.861	25.96
393.226	26.18
393.591	26.36
393.956	26.31
394.32	26.26
394.685	26.65
395.05	26.17
395.414	26.61
395.779	26.58
396.143	26.83
396.508	26.81
396.872	26.57
397.236	26.84
397.601	26.85
397.965	27.15
398.329	27.07
398.694	26.96
399.058	27.2
399.422	27.61
399.786	27.49
400.15	27.46
400.514	27.61
400.878	27.39
401.242	27.62
401.605	27.61
401.969	27.7
402.333	27.9
402.697	27.85
403.06	28.13
403.424	28.02
403.787	28.26
404.151	27.83
404.514	28.29
404.878	28.23
405.241	28.3
405.604	28.36
405.968	28.78
406.331	28.21
406.694	28.77
407.057	28.28
407.42	28.78
407.783	28.73
408.146	28.75
408.509	28.78
408.872	28.76
409.235	29
409.598	29.25
409.961	29.25
410.323	29.21
410.686	29.32
411.049	29.46
411.411	29.47
411.774	29.48
412.136	29.78
412.499	29.24
412.861	29.82
413.223	29.79
413.586	29.71
413.948	29.78
414.31	30
414.672	30.11
415.035	30.04
415.397	30.3
415.759	30.43
416.121	30.34
416.483	30.14
416.845	30.43
417.206	30.38
417.568	30.24
417.93	30.51
418.292	30.41
418.653	30.27
419.015	30.51
419.377	30.24
419.738	30.46
420.1	30.31
420.461	30.65
420.822	30.67
421.184	30.55
421.545	30.63
421.906	30.53
422.267	30.65
422.629	30.65
422.99	30.69
423.351	30.77
423.712	30.54
424.073	30.67
424.434	31.04
424.795	30.86
425.155	31.08
425.516	31.2
425.877	31.29
426.238	31.07
426.598	31.13
426.959	31.2
427.32	31.29
427.68	31.43
428.041	31.47
428.401	31.76
428.761	31.7
429.122	31.79
429.482	32.14
429.842	32.22
430.202	32.18
430.563	32.46
430.923	32.45
431.283	32.46
431.643	32.54
432.003	32.79
432.363	32.93
432.722	32.49
433.082	33.01
433.442	32.83
433.802	32.96
434.161	33.09
434.521	32.87
434.881	32.97
435.24	33.11
435.6	32.79
435.959	32.99
436.319	33.03
436.678	33.28
437.037	33.48
437.396	33.3
437.756	33.56
438.115	33.53
438.474	33.36
438.833	33.56
439.192	33.87
439.551	33.63
439.91	34.01
440.269	33.84
440.628	33.78
440.987	33.92
441.345	33.84
441.704	33.82
442.063	33.81
442.421	33.91
442.78	33.98
443.138	33.9
443.497	33.99
443.855	33.99
444.214	34.12
444.572	34.34
444.93	34.46
445.288	34.51
445.647	34.68
446.005	34.55
446.363	34.27
446.721	34.7
447.079	34.71
447.437	34.76
447.795	34.69
448.153	34.67
448.51	34.61
448.868	34.58
449.226	34.51
449.584	34.62
449.941	34.71
450.299	34.93
450.656	35.07
451.014	35.27
451.371	35.2
451.729	35.37
452.086	35.46
452.443	35.66
452.801	35.49
453.158	35.8
453.515	36.08
453.872	35.96
454.229	35.92
454.586	35.95
454.943	35.87
455.3	36.09
455.657	36.15
456.014	36.19
456.371	36.26
456.727	36.26
457.084	36.39
457.441	36.6
457.797	36.5
458.154	36.74
458.51	36.71
458.867	36.47
459.223	36.87
459.58	36.68
459.936	36.72
460.292	36.92
460.648	37
461.005	36.88
461.361	36.86
461.717	36.78
462.073	36.6
462.429	36.27
462.785	36.57
463.141	36.66
463.496	36.92
463.852	37.12
464.208	37.25
464.564	37.35
464.919	37.37
465.275	37.86
465.631	37.53
465.986	37.74
466.342	37.65
466.697	38.06
467.052	37.87
467.408	38.02
467.763	37.93
468.118	38.09
468.473	37.83
468.829	38.11
469.184	37.99
469.539	38.2
469.894	38.45
470.249	38.41
470.603	38.41
470.958	38.56
471.313	38.35
471.668	38.45
472.023	38.58
472.377	38.67
472.732	38.45
473.086	38.78
473.441	38.76
473.795	39.06
474.15	38.93
474.504	38.99
474.859	38.99
475.213	38.74
475.567	38.75
475.921	38.92
476.275	38.96
476.63	39.1
476.984	39.3
477.338	39.5
477.692	39.39
478.045	39.75
478.399	39.42
478.753	39.67
479.107	39.59
479.461	39.66
479.814	39.28
480.168	39.72
480.521	39.78
480.875	39.52
481.228	39.65
481.582	39.75
481.935	39.69
482.289	39.8
482.642	39.78
482.995	39.77
483.348	39.84
483.701	39.65
484.055	39.66
484.408	39.73
484.761	39.47
485.114	39.56
485.466	39.35
485.819	38.94
486.172	39.13
486.525	39.03
486.878	39.1
487.23	38.97
487.583	38.97
487.936	39.36
488.288	39.57
488.641	39.89
488.993	39.62
489.345	39.53
489.698	39.53
490.05	39.51
490.402	39.43
490.754	39.5
491.107	39.6
491.459	39.82
491.811	40.05
492.163	40.23
492.515	40.38
492.866	40.62
493.218	40.53
493.57	40.21
493.922	40.08
494.274	40.05
494.625	40.03
494.977	40.04
495.328	40.52
495.68	40.83
496.031	41.06
496.383	41.24
496.734	41.41
497.086	41.3
497.437	41.55
497.788	41.61
498.139	41.94
498.49	41.55
498.842	41.61
499.193	41.42
499.544	41.52
499.894	41.32
500.245	41.43
500.596	41.47
500.947	42
501.298	41.83
501.648	41.83
501.999	42.1
502.35	42.05
502.7	42.44
503.051	42.19
503.401	42.32
503.752	42.32
504.102	42.34
504.452	42.6
504.803	42.56
505.153	42.64
505.503	42.33
505.853	42.81
506.203	42.6
506.553	42.53
506.903	42.7
507.253	42.61
507.603	42.93
507.953	42.88
508.303	43.05
508.652	42.89
509.002	43.16
509.352	43.14
509.701	42.96
510.051	43.09
510.4	43.4
510.75	43.14
511.099	43.1
511.449	43.15
511.798	43.12
512.147	43.09
512.496	43.25
512.846	43.14
513.195	43.22
513.544	43.38
513.893	43.54
514.242	43.16
514.591	43.3
514.939	43.57
515.288	43.39
515.637	43.55
515.986	43.46
516.334	43.65
516.683	43.73
517.032	43.87
517.38	43.97
517.729	43.76
518.077	44.15
518.426	44.02
518.774	44.02
519.122	44.08
519.47	44.23
519.819	44.11
520.167	44.09
520.515	43.67
520.863	43.7
521.211	43.78
521.559	43.69
521.907	43.78
522.255	43.99
522.602	43.98
522.95	44.47
523.298	44.38
523.645	44.42
523.993	44.38
524.341	44.59
524.688	44.82
525.036	44.67
525.383	44.69
525.73	44.72
526.078	44.88
526.425	45.06
526.772	44.88
527.119	44.76
527.466	44.72
527.814	44.36
528.161	44.39
528.508	44.51
528.854	44.32
529.201	44.55
529.548	44.38
529.895	44.52
530.242	44.35
530.588	44.19
530.935	44.26
531.282	44.29
531.628	44.22
531.975	43.96
532.321	44.04
532.667	44.3
533.014	44.61
533.36	44.86
533.706	45.05
534.052	45.18
534.399	45.13
534.745	45.03
535.091	44.86
535.437	44.97
535.783	44.86
536.129	44.8
536.474	44.91
536.82	44.98
537.166	45.23
537.512	45.4
537.857	45.52
538.203	45.88
538.549	45.53
538.894	45.56
539.239	45.57
539.585	45.54
539.93	45.56
540.276	45.63
540.621	45.96
540.966	46.08
541.311	46.08
541.656	46.18
542.001	46.23
542.346	46.24
542.691	46.36
543.036	45.92
543.381	45.65
543.726	45.51
544.071	45.51
544.415	45.45
544.76	45.56
545.105	45.57
545.449	45.75
545.794	46.08
546.138	46.23
546.483	46.29
546.827	46.22
547.171	46.39
547.516	46.4
547.86	46.79
548.204	46.79
548.548	46.86
548.892	46.63
549.236	46.62
549.58	46.7
549.924	47.02
550.268	47.04
550.612	46.89
550.956	46.96
551.3	47.17
551.643	47.45
551.987	47.71
552.33	47.5
552.674	47.8
553.017	47.67
553.361	47.52
553.704	47.92
554.048	47.61
554.391	47.82
554.734	47.75
555.077	47.93
555.42	47.84
555.764	47.7
556.107	47.67
556.45	47.76
556.793	47.95
557.135	47.84
557.478	47.93
557.821	48.11
558.164	48.19
558.507	48.63
558.849	48.26
559.192	48.4
559.534	48.58
559.877	48.67
560.219	48.61
560.562	48.33
560.904	48.65
561.246	48.65
561.589	48.83
561.931	48.62
562.273	48.92
562.615	48.78
562.957	48.81
563.299	48.57
563.641	48.94
563.983	48.83
564.325	48.83
564.667	49.05
565.008	48.8
565.35	48.84
565.692	48.99
566.033	48.88
566.375	48.96
566.716	49.24
567.058	49.05
567.399	48.88
567.741	49.21
568.082	49.08
568.423	49.06
568.764	49.33
569.105	48.76
569.447	48.82
569.788	48.98
570.129	49.08
570.47	48.99
570.811	49.21
571.151	49.49
571.492	49.23
571.833	49.63
572.174	49.46
572.514	49.43
572.855	49.46
573.195	49.43
573.536	49.61
573.876	49.67
574.217	49.45
574.557	49.36
574.898	49.63
575.238	49.38
575.578	49.28
575.918	49.37
576.258	49.6
576.598	49.8
576.938	49.8
577.278	49.96
577.618	49.92
577.958	49.92
578.298	50.13
578.638	49.8
578.977	49.94
579.317	50.17
579.657	49.98
579.996	50.14
580.336	50.33
580.675	50.44
581.014	50.57
581.354	50.51
581.693	50.43
582.032	50.36
582.372	50.46
582.711	50.8
583.05	50.71
583.389	50.55
583.728	50.8
584.067	50.82
584.406	51.19
584.745	50.68
585.083	51.13
585.422	50.9
585.761	50.89
586.1	50.98
586.438	51.02
586.777	50.97
587.115	51.08
587.454	50.82
587.792	51.12
588.13	51.2
588.469	51.19
588.807	51.5
589.145	51.44
589.483	51.19
589.821	50.84
590.159	51.21
590.497	51.47
590.835	51.81
591.173	51.22
591.511	51.34
591.849	51.42
592.187	51.16
592.524	51.49
592.862	51.4
593.2	51.11
593.537	51.49
593.875	51.49
594.212	51.67
594.55	51.79
594.887	51.59
595.224	51.39
595.561	51.84
595.899	51.8
596.236	52.04
596.573	51.91
596.91	51.69
597.247	51.62
597.584	51.88
597.921	51.78
598.258	52.1
598.594	51.62
598.931	51.57
599.268	51.71
599.604	51.5
599.941	51.38
600.277	51.73
600.614	51.73
600.95	51.52
601.287	51.76
601.623	51.93
601.959	52.43
602.296	52.37
602.632	52.14
602.968	52.4
603.304	51.9
603.64	52.44
603.976	52.29
604.312	52.38
604.648	52.4
604.984	52.12
605.319	52.29
605.655	52.49
605.991	52.52
606.326	52.49
606.662	52.63
606.998	52.06
607.333	52.04
607.668	51.97
608.004	52.44
608.339	52.53
608.674	51.94
609.01	52.44
609.345	52.85
609.68	52.66
610.015	52.75
610.35	52.71
610.685	53.05
611.02	53.31
611.355	53.14
611.689	52.71
612.024	52.83
612.359	52.53
612.694	52.95
613.028	52.9
613.363	52.78
613.697	52.84
614.032	52.96
614.366	52.98
614.7	53.39
615.035	52.66
615.369	52.86
615.703	52.8
616.037	53.46
616.371	53.58
616.705	53.43
617.039	53.64
617.373	53.12
617.707	53.4
618.041	53.37
618.375	54.17
618.709	53.75
619.042	53.68
619.376	53.49
619.71	53.43
620.043	53.7
620.377	53.44
620.71	53.63
621.043	54.06
621.377	53.64
621.71	53.88
622.043	53.86
622.376	53.91
622.709	53.85
623.043	54.14
623.376	54.14
623.709	53.6
624.041	54.06
624.374	53.81
624.707	54.1
625.04	54.39
625.373	53.66
625.705	53.77
626.038	54.7
626.37	53.97
626.703	54.3
627.035	54.5
627.368	53.9
627.7	54.25
628.032	54.44
628.365	54.88
628.697	54.06
629.029	54.13
629.361	53.87
629.693	54.17
630.025	54.38
630.357	54.57
630.689	54.26
631.021	54.24
631.353	54.37
631.684	54.21
632.016	54.83
632.348	54.26
632.679	54.45
633.011	54.97
633.342	54.36
633.674	54.54
634.005	54.5
634.336	54.84
634.668	54.76
634.999	54.72
635.33	54.72
635.661	54.39
635.992	55.08
636.323	54.44
636.654	55.03
636.985	54.67
637.316	54.8
637.647	54.67
637.977	54.84
638.308	54.87
638.639	54.55
638.969	55.12
639.3	54.84
639.63	54.96
639.961	55.42
640.291	54.76
640.622	54.81
640.952	55.5
641.282	54.89
641.612	55.26
641.943	54.83
642.273	55.12
642.603	55.66
642.933	54.95
643.263	55.08
643.592	55.34
643.922	55.29
644.252	55.47
644.582	55.68
644.911	54.98
645.241	55.54
645.571	55.19
645.9	55.64
646.23	55.84
646.559	54.99
646.888	56.22
647.218	55.75
647.547	55.83
647.876	55.66
648.205	55.26
648.534	56.06
648.863	55.88
649.192	55.43
649.521	55.44
649.85	55.55
650.179	55.78
650.508	55.91
650.837	56.11
651.165	56.46
651.494	55.58
651.822	56.1
652.151	56.27
652.479	55.81
652.808	55.48
653.136	56.53
653.465	56.04
653.793	56.04
654.121	56.58
654.449	56.49
654.777	55.96
655.105	56.61
655.433	55.69
655.761	56.13
656.089	55.96
656.417	56
656.745	56.67
657.073	55.98
657.4	56.23
657.728	56.54
658.056	56.61
658.383	56.43
658.711	56.57
659.038	55.77
659.365	56.09
659.693	55.78
660.02	56.6
660.347	56.77
660.674	56.31
661.001	56.67
661.329	56.39
661.656	56.67
661.982	56.71
662.309	56.77
662.636	56.86
662.963	56.34
663.29	56.55
663.616	57.04
663.943	56.54
664.27	56.86
664.596	56.49
664.923	56.45
665.249	56.62
665.576	56.37
665.902	56.32
666.228	56.5
666.554	56.25
666.881	56.2
667.207	56.54
667.533	56.82
667.859	56.63
668.185	57.07
668.511	57.56
668.837	56.78
