Data from 0190_chest_Reflection__3__129.txt Node

Date: Fri Sep 22 21:21:29 CDT 2023
User: ToomeyLab
Spectrometer: FLMS14357
Trigger mode: 0
Integration Time (sec): 1.000000E-2
Scans to average: 100
Electric dark correction enabled: true
Nonlinearity correction enabled: false
Boxcar width: 0
XAxis mode: Wavelengths
Number of Pixels in Spectrum: 2048
>>>>>Begin Spectral Data<<<<<
189.047	-140.62
189.435	-140.62
189.823	-140.62
190.211	349.46
190.599	172.24
190.987	92.66
191.375	47.38
191.763	74.82
192.151	109.17
192.538	91.51
192.926	151.21
193.314	-84.58
193.702	-245
194.089	-420.38
194.477	11.47
194.864	92.47
195.252	8.97
195.639	-166.41
196.027	97.35
196.414	-469.14
196.801	106.65
197.189	363.89
197.576	97.15
197.963	3105
198.351	54.4
198.738	24.53
199.125	68.8
199.512	-4.34
199.899	45.19
200.286	20.49
200.673	62.19
201.06	27.71
201.447	45.37
201.833	-0.5
202.22	56.36
202.607	28.68
202.994	45.57
203.38	29.46
203.767	35.89
204.154	39.43
204.54	21.87
204.927	13.05
205.313	39.22
205.699	57.96
206.086	29.12
206.472	45.35
206.858	32.36
207.245	52.9
207.631	23.79
208.017	12.42
208.403	42.43
208.789	33.64
209.175	40.38
209.561	31.9
209.947	50.99
210.333	47.6
210.719	-15.11
211.105	24.93
211.491	25.57
211.876	37.32
212.262	39.16
212.648	20.39
213.034	28.34
213.419	15.52
213.805	35.13
214.19	3.54
214.576	20.7
214.961	20.5
215.346	38.35
215.732	31.96
216.117	42.25
216.502	36.27
216.888	47.69
217.273	25.69
217.658	18.53
218.043	11.46
218.428	24.26
218.813	33.07
219.198	11.23
219.583	24.69
219.968	10.79
220.353	38.97
220.738	16.37
221.122	16.66
221.507	28.24
221.892	25.68
222.276	6.3
222.661	-21.42
223.046	25.83
223.43	28.67
223.815	22.3
224.199	7.13
224.583	15.29
224.968	11.35
225.352	0.21
225.736	14.17
226.121	3.21
226.505	12.02
226.889	14.2
227.273	8.76
227.657	10.15
228.041	5.86
228.425	5.29
228.809	5.61
229.193	2.6
229.577	5.53
229.961	5.61
230.344	4.98
230.728	2.38
231.112	4.29
231.495	2.87
231.879	3.59
232.263	2.1
232.646	4.43
233.03	3.51
233.413	3.24
233.797	4.06
234.18	3.53
234.563	5.92
234.946	5.56
235.33	2.74
235.713	4.69
236.096	3.95
236.479	4.24
236.862	5.1
237.245	2.38
237.628	6.1
238.011	4.35
238.394	5.51
238.777	4.62
239.16	4.07
239.543	5.93
239.925	6.08
240.308	2.61
240.691	2.12
241.073	4.5
241.456	4.9
241.838	2.36
242.221	4.33
242.603	3.49
242.986	3.25
243.368	3.31
243.75	3.72
244.133	4.04
244.515	4.13
244.897	3.03
245.279	3.38
245.661	3.44
246.043	4.23
246.425	2.7
246.807	4.27
247.189	2.13
247.571	3.56
247.953	3.51
248.335	3.15
248.717	3.4
249.098	3.4
249.48	2.98
249.862	3.22
250.243	3.08
250.625	2.96
251.006	3.28
251.388	3.79
251.769	4.47
252.151	3.23
252.532	3.9
252.913	5.08
253.295	5.12
253.676	3.92
254.057	3.77
254.438	3.36
254.819	3.5
255.2	3.66
255.581	3.54
255.962	5.12
256.343	4.11
256.724	2.48
257.105	3.76
257.486	3.29
257.867	4.52
258.247	4.03
258.628	4.06
259.009	3.16
259.389	3.56
259.77	4.06
260.15	3.58
260.531	3.25
260.911	2.94
261.292	3.41
261.672	2.93
262.052	3.05
262.432	3.25
262.813	3.21
263.193	3.23
263.573	3.76
263.953	3.15
264.333	3.11
264.713	3.19
265.093	3.33
265.473	2.87
265.853	2.88
266.233	4.47
266.612	4.13
266.992	3.57
267.372	3.26
267.752	3.9
268.131	2.74
268.511	3.32
268.89	3.57
269.27	2.97
269.649	3.28
270.029	3.38
270.408	3.25
270.787	2.95
271.167	3.44
271.546	3.07
271.925	3.49
272.304	3.09
272.683	3.21
273.062	3.61
273.441	3.07
273.82	3.6
274.199	3
274.578	3.8
274.957	3.09
275.336	2.69
275.715	2.95
276.093	3.24
276.472	3.38
276.851	3.41
277.229	2.4
277.608	3.13
277.986	2.88
278.365	3.45
278.743	3.22
279.122	3.52
279.5	3.79
279.878	2.95
280.257	3.64
280.635	4.26
281.013	3.89
281.391	2.41
281.769	3.13
282.147	3.29
282.525	3.57
282.903	3.45
283.281	3.04
283.659	3.06
284.037	2.86
284.415	3.54
284.792	3.1
285.17	2.82
285.548	3.91
285.925	3.14
286.303	3.23
286.68	3.24
287.058	2.81
287.435	2.92
287.813	2.9
288.19	2.69
288.567	3.37
288.945	2.76
289.322	3.65
289.699	3.33
290.076	3.4
290.453	2.52
290.83	2.98
291.207	2.99
291.584	3.05
291.961	2.53
292.338	3.34
292.715	3.14
293.092	3.19
293.469	2.73
293.845	2.95
294.222	3.3
294.599	3.54
294.975	3.61
295.352	3.27
295.728	3.05
296.105	3.76
296.481	3.52
296.858	3.77
297.234	3.78
297.61	3.7
297.986	3.43
298.363	2.99
298.739	3.33
299.115	3.63
299.491	3.41
299.867	3.41
300.243	3.46
300.619	3.64
300.995	3.25
301.371	3.59
301.746	4.24
302.122	3.21
302.498	3.74
302.874	3.32
303.249	3.09
303.625	3.31
304	3.8
304.376	3.57
304.751	3.74
305.127	3.58
305.502	3.56
305.878	3.12
306.253	3.69
306.628	3.59
307.003	4.13
307.378	3.55
307.754	3.2
308.129	3.47
308.504	3.56
308.879	3.29
309.254	3.51
309.629	3.54
310.003	3.9
310.378	4.06
310.753	3.69
311.128	3.68
311.502	4
311.877	3.38
312.252	3.25
312.626	3.75
313.001	3.65
313.375	3.94
313.75	3.73
314.124	4.1
314.498	3.56
314.873	3.63
315.247	3.81
315.621	3.96
315.995	3.99
316.369	3.86
316.743	4.22
317.117	4.46
317.491	4.04
317.865	3.53
318.239	3.92
318.613	4.31
318.987	4.21
319.361	3.57
319.734	3.72
320.108	4.16
320.482	3.63
320.855	3.81
321.229	4.19
321.602	3.66
321.976	3.61
322.349	3.91
322.723	3.83
323.096	3.85
323.469	4.11
323.843	4.15
324.216	4.27
324.589	3.98
324.962	3.66
325.335	4.35
325.708	3.73
326.081	4.22
326.454	3.44
326.827	4.19
327.2	4.04
327.573	4.06
327.945	4.07
328.318	4.46
328.691	4.11
329.063	3.77
329.436	3.98
329.809	4.07
330.181	4.28
330.553	3.77
330.926	3.88
331.298	4.22
331.671	3.68
332.043	3.19
332.415	3.92
332.787	4.33
333.159	3.79
333.532	3.33
333.904	4.28
334.276	3.19
334.648	3.39
335.02	3.68
335.391	3.95
335.763	4.26
336.135	3.94
336.507	4.12
336.879	3.94
337.25	3.88
337.622	3.93
337.993	4.11
338.365	4.32
338.736	4.13
339.108	4.19
339.479	4.1
339.851	3.5
340.222	3.87
340.593	4.15
340.964	3.61
341.336	3.73
341.707	3.94
342.078	4.04
342.449	4.19
342.82	3.72
343.191	3.44
343.562	3.9
343.933	3.98
344.303	4.16
344.674	3.93
345.045	4.03
345.416	4.27
345.786	3.69
346.157	3.84
346.527	3.65
346.898	3.75
347.268	4.26
347.639	3.62
348.009	4.01
348.38	3.83
348.75	3.85
349.12	3.45
349.49	4.14
349.861	3.9
350.231	4.1
350.601	4.23
350.971	4.02
351.341	3.66
351.711	3.89
352.081	3.9
352.45	3.79
352.82	3.89
353.19	4.16
353.56	3.58
353.929	4.3
354.299	4.21
354.669	3.85
355.038	3.92
355.408	3.9
355.777	4.11
356.147	3.9
356.516	4.51
356.885	3.91
357.254	4.18
357.624	3.9
357.993	3.76
358.362	4.05
358.731	3.83
359.1	4.05
359.469	3.92
359.838	3.69
360.207	3.76
360.576	4.09
360.945	3.75
361.314	4.02
361.682	4.22
362.051	3.98
362.42	3.86
362.788	3.69
363.157	4.25
363.525	4.15
363.894	3.7
364.262	3.82
364.631	3.81
364.999	3.7
365.367	4.08
365.735	3.93
366.104	3.89
366.472	4.22
366.84	3.75
367.208	4.07
367.576	3.88
367.944	3.78
368.312	4.02
368.68	3.83
369.048	3.91
369.416	3.61
369.783	3.61
370.151	3.64
370.519	4.28
370.886	4.3
371.254	4.11
371.621	3.52
371.989	4.08
372.356	3.84
372.724	4.27
373.091	4.42
373.458	4.07
373.826	4.17
374.193	3.98
374.56	4.19
374.927	3.94
375.294	3.69
375.661	3.93
376.028	4.13
376.395	3.89
376.762	3.74
377.129	4.23
377.496	4.28
377.863	3.99
378.229	4.37
378.596	4.04
378.963	4.39
379.329	4.06
379.696	4.27
380.062	3.74
380.429	4.16
380.795	4.11
381.161	3.72
381.528	3.96
381.894	3.72
382.26	3.94
382.626	4.08
382.993	4.2
383.359	3.61
383.725	3.89
384.091	4.26
384.457	4.11
384.823	3.76
385.188	3.92
385.554	4.28
385.92	4.28
386.286	4.12
386.651	4.01
387.017	3.91
387.383	4.11
387.748	4.04
388.114	4.01
388.479	4.36
388.845	3.73
389.21	3.93
389.575	4.28
389.94	3.91
390.306	4.19
390.671	4.42
391.036	3.9
391.401	4.04
391.766	3.97
392.131	3.87
392.496	4.1
392.861	4.02
393.226	4.23
393.591	4.42
393.956	4.06
394.32	4.12
394.685	3.96
395.05	4.32
395.414	4.11
395.779	4.13
396.143	4.07
396.508	4.15
396.872	4.22
397.236	4.16
397.601	3.92
397.965	4.13
398.329	4.17
398.694	4
399.058	3.9
399.422	3.94
399.786	4.23
400.15	4.16
400.514	4.18
400.878	4.04
401.242	4.35
401.605	3.99
401.969	3.8
402.333	4.14
402.697	4.03
403.06	4.12
403.424	4.03
403.787	4.23
404.151	4.1
404.514	4.22
404.878	4.31
405.241	4.28
405.604	4.26
405.968	4.23
406.331	4.08
406.694	4.26
407.057	3.99
407.42	4.28
407.783	4.14
408.146	4.27
408.509	4.2
408.872	4.2
409.235	4.16
409.598	4.22
409.961	4.41
410.323	4.19
410.686	4.27
411.049	4.29
411.411	4.31
411.774	4.09
412.136	4.02
412.499	3.91
412.861	4.12
413.223	4.3
413.586	4.24
413.948	4.19
414.31	4.14
414.672	4.32
415.035	4.16
415.397	4.47
415.759	4.56
416.121	4.11
416.483	4.37
416.845	4.04
417.206	4.19
417.568	4.32
417.93	4.01
418.292	4.23
418.653	4.05
419.015	4.22
419.377	4.09
419.738	4.25
420.1	3.92
420.461	4.18
420.822	4.01
421.184	4.19
421.545	4.18
421.906	4.21
422.267	4.05
422.629	4.18
422.99	4.06
423.351	3.99
423.712	3.97
424.073	4.01
424.434	4.17
424.795	4.13
425.155	4.17
425.516	4.04
425.877	4.13
426.238	4.08
426.598	4.03
426.959	4.06
427.32	4.11
427.68	4.08
428.041	4.1
428.401	4.2
428.761	4.27
429.122	4.26
429.482	4.17
429.842	4.12
430.202	4.14
430.563	4.31
430.923	4.25
431.283	4.44
431.643	4.44
432.003	4.29
432.363	4.55
432.722	4.51
433.082	4.18
433.442	4.33
433.802	4.55
434.161	4.41
434.521	4.08
434.881	4.26
435.24	4.23
435.6	4.18
435.959	4.11
436.319	4.2
436.678	4.41
437.037	4.36
437.396	4.21
437.756	4.25
438.115	4.35
438.474	4.23
438.833	4.4
439.192	4.3
439.551	4.23
439.91	4.42
440.269	4.3
440.628	4.1
440.987	4.22
441.345	4.27
441.704	4.36
442.063	4.18
442.421	4.2
442.78	4.32
443.138	4.32
443.497	4.22
443.855	4.25
444.214	4.18
444.572	4.4
444.93	4.46
445.288	4.29
445.647	4.42
446.005	4.29
446.363	4.26
446.721	4.38
447.079	4.23
447.437	4.33
447.795	4.36
448.153	4.2
448.51	4.23
448.868	4.18
449.226	4.34
449.584	4.33
449.941	4.26
450.299	4.26
450.656	4.45
451.014	4.42
451.371	4.29
451.729	4.36
452.086	4.3
452.443	4.44
452.801	4.28
453.158	4.38
453.515	4.5
453.872	4.41
454.229	4.47
454.586	4.51
454.943	4.35
455.3	4.49
455.657	4.33
456.014	4.39
456.371	4.55
456.727	4.52
457.084	4.53
457.441	4.35
457.797	4.59
458.154	4.42
458.51	4.41
458.867	4.36
459.223	4.58
459.58	4.52
459.936	4.47
460.292	4.62
460.648	4.73
461.005	4.51
461.361	4.47
461.717	4.26
462.073	4.25
462.429	4.27
462.785	4.36
463.141	4.44
463.496	4.56
463.852	4.49
464.208	4.59
464.564	4.68
464.919	4.52
465.275	4.78
465.631	4.79
465.986	4.48
466.342	4.46
466.697	4.62
467.052	4.57
467.408	4.6
467.763	4.58
468.118	4.82
468.473	4.75
468.829	4.59
469.184	4.5
469.539	4.42
469.894	4.6
470.249	4.7
470.603	4.73
470.958	4.7
471.313	4.64
471.668	4.86
472.023	4.63
472.377	4.59
472.732	4.52
473.086	4.7
473.441	4.46
473.795	4.87
474.15	4.54
474.504	4.59
474.859	4.77
475.213	4.49
475.567	4.56
475.921	4.6
476.275	4.74
476.63	4.61
476.984	4.62
477.338	4.81
477.692	4.64
478.045	4.97
478.399	4.79
478.753	4.69
479.107	4.78
479.461	4.49
479.814	4.68
480.168	4.64
480.521	4.67
480.875	4.9
481.228	4.74
481.582	4.63
481.935	4.8
482.289	4.68
482.642	4.67
482.995	4.65
483.348	4.78
483.701	4.66
484.055	4.71
484.408	4.7
484.761	4.7
485.114	4.49
485.466	4.5
485.819	4.42
486.172	4.39
486.525	4.41
486.878	4.45
487.23	4.5
487.583	4.56
487.936	4.6
488.288	4.67
488.641	4.6
488.993	4.53
489.345	4.55
489.698	4.54
490.05	4.49
490.402	4.55
490.754	4.52
491.107	4.6
491.459	4.75
491.811	4.73
492.163	4.72
492.515	4.8
492.866	4.72
493.218	4.74
493.57	4.69
493.922	4.61
494.274	4.59
494.625	4.64
494.977	4.75
495.328	4.8
495.68	4.92
496.031	4.79
496.383	4.86
496.734	4.92
497.086	4.84
497.437	4.95
497.788	4.96
498.139	4.95
498.49	5.05
498.842	4.89
499.193	4.89
499.544	4.93
499.894	4.94
500.245	4.92
500.596	4.98
500.947	4.97
501.298	5
501.648	5.02
501.999	5.03
502.35	5.02
502.7	5.02
503.051	5.11
503.401	5.2
503.752	5.05
504.102	5.08
504.452	5.11
504.803	5.17
505.153	5.04
505.503	5.03
505.853	5.2
506.203	5.02
506.553	5.16
506.903	5.08
507.253	5.08
507.603	5.2
507.953	5.31
508.303	5.09
508.652	5.18
509.002	5.27
509.352	5.16
509.701	5.19
510.051	5.16
510.4	5.35
510.75	5.15
511.099	5.04
511.449	5.22
511.798	5.14
512.147	5.17
512.496	5.15
512.846	5.26
513.195	5.31
513.544	5.26
513.893	5.3
514.242	5.26
514.591	5.27
514.939	5.32
515.288	5.25
515.637	5.3
515.986	5.25
516.334	5.33
516.683	5.29
517.032	5.54
517.38	5.41
517.729	5.47
518.077	5.38
518.426	5.55
518.774	5.38
519.122	5.31
519.47	5.39
519.819	5.42
520.167	5.5
520.515	5.31
520.863	5.28
521.211	5.37
521.559	5.38
521.907	5.39
522.255	5.52
522.602	5.44
522.95	5.45
523.298	5.55
523.645	5.56
523.993	5.56
524.341	5.53
524.688	5.52
525.036	5.46
525.383	5.51
525.73	5.7
526.078	5.54
526.425	5.6
526.772	5.61
527.119	5.55
527.466	5.44
527.814	5.43
528.161	5.44
528.508	5.49
528.854	5.5
529.201	5.57
529.548	5.55
529.895	5.56
530.242	5.44
530.588	5.37
530.935	5.32
531.282	5.37
531.628	5.46
531.975	5.47
532.321	5.5
532.667	5.61
533.014	5.62
533.36	5.75
533.706	5.74
534.052	5.83
534.399	5.77
534.745	5.79
535.091	5.66
535.437	5.64
535.783	5.59
536.129	5.7
536.474	5.76
536.82	5.7
537.166	5.91
537.512	5.88
537.857	5.82
538.203	5.98
538.549	5.9
538.894	5.74
539.239	5.89
539.585	5.89
539.93	6.01
540.276	5.99
540.621	5.98
540.966	5.95
541.311	6.06
541.656	5.91
542.001	6.1
542.346	6.15
542.691	6.07
543.036	6.07
543.381	5.95
543.726	5.9
544.071	5.97
544.415	5.92
544.76	6.06
545.105	5.92
545.449	6.07
545.794	6.13
546.138	6.22
546.483	6.17
546.827	6.29
547.171	6.29
547.516	6.28
547.86	6.34
548.204	6.36
548.548	6.45
548.892	6.42
549.236	6.36
549.58	6.43
549.924	6.48
550.268	6.68
550.612	6.54
550.956	6.47
551.3	6.58
551.643	6.66
551.987	6.53
552.33	6.79
552.674	6.69
553.017	6.51
553.361	6.71
553.704	6.86
554.048	6.9
554.391	6.83
554.734	6.87
555.077	6.76
555.42	6.88
555.764	6.9
556.107	6.91
556.45	6.92
556.793	6.83
557.135	6.91
557.478	6.81
557.821	7.1
558.164	7.16
558.507	7.12
558.849	7
559.192	7.22
559.534	7.2
559.877	7.12
560.219	7.1
560.562	7.13
560.904	7.28
561.246	7.49
561.589	7.33
561.931	7.37
562.273	7.19
562.615	7.27
562.957	7.2
563.299	7.45
563.641	7.33
563.983	7.47
564.325	7.58
564.667	7.46
565.008	7.38
565.35	7.51
565.692	7.53
566.033	7.64
566.375	7.49
566.716	7.73
567.058	7.54
567.399	7.6
567.741	7.64
568.082	7.46
568.423	7.62
568.764	7.77
569.105	7.52
569.447	7.56
569.788	7.64
570.129	7.69
570.47	7.83
570.811	7.71
571.151	7.76
571.492	7.69
571.833	7.8
572.174	7.83
572.514	7.91
572.855	7.77
573.195	7.81
573.536	7.92
573.876	8
574.217	8.03
574.557	7.83
574.898	8.11
575.238	8.03
575.578	8
575.918	8.04
576.258	8.03
576.598	8.28
576.938	8.3
577.278	8.37
577.618	8.22
577.958	8.29
578.298	8.32
578.638	8.3
578.977	8.36
579.317	8.39
579.657	8.42
579.996	8.38
580.336	8.59
580.675	8.75
581.014	8.47
581.354	8.4
581.693	8.85
582.032	8.51
582.372	8.58
582.711	8.75
583.05	8.67
583.389	8.69
583.728	8.67
584.067	8.78
584.406	8.94
584.745	8.81
585.083	9.21
585.422	9.12
585.761	8.86
586.1	9.04
586.438	9.36
586.777	9.01
587.115	9.14
587.454	8.68
587.792	9.33
588.13	9.08
588.469	8.99
588.807	9.49
589.145	9.39
589.483	9.34
589.821	9.2
590.159	9.48
590.497	9.34
590.835	9.55
591.173	9.44
591.511	9.46
591.849	9.7
592.187	9.42
592.524	9.66
592.862	9.55
593.2	9.6
593.537	9.74
593.875	9.65
594.212	9.76
594.55	10.07
594.887	9.86
595.224	9.68
595.561	9.95
595.899	10.06
596.236	10.13
596.573	10.13
596.91	9.97
597.247	9.86
597.584	10.02
597.921	10.18
598.258	10.17
598.594	10.19
598.931	9.98
599.268	9.99
599.604	10.24
599.941	10.27
600.277	10.09
600.614	10.26
600.95	10.35
601.287	10.41
601.623	10.42
601.959	10.49
602.296	10.62
602.632	10.34
602.968	10.66
603.304	10.61
603.64	10.81
603.976	10.5
604.312	10.6
604.648	10.66
604.984	10.74
605.319	10.68
605.655	10.51
605.991	10.61
606.326	10.86
606.662	10.47
606.998	10.62
607.333	10.78
607.668	10.66
608.004	10.84
608.339	10.82
608.674	10.9
609.01	10.99
609.345	10.91
609.68	11.21
610.015	11.13
610.35	11.08
610.685	11.26
611.02	11.3
611.355	11.34
611.689	11.09
612.024	11.26
612.359	11.17
612.694	11.38
613.028	11.09
613.363	11.34
613.697	11.33
614.032	11.5
614.366	11.41
614.7	11.62
615.035	11.77
615.369	11.66
615.703	11.56
616.037	11.64
616.371	12.03
616.705	11.92
617.039	11.92
617.373	11.9
617.707	12.04
618.041	12.13
618.375	11.92
618.709	12.09
619.042	12.14
619.376	12.42
619.71	12.4
620.043	11.89
620.377	11.82
620.71	12.29
621.043	12.53
621.377	12.35
621.71	12.25
622.043	12.66
622.376	12.9
622.709	12.48
623.043	12.57
623.376	12.68
623.709	12.68
624.041	12.53
624.374	12.36
624.707	12.75
625.04	12.58
625.373	12.68
625.705	12.58
626.038	12.69
626.37	13.05
626.703	13.07
627.035	12.98
627.368	13.23
627.7	12.96
628.032	13.27
628.365	13.33
628.697	13.07
629.029	13.08
629.361	13.15
629.693	13.16
630.025	13.26
630.357	13.31
630.689	13.53
631.021	13.55
631.353	13.24
631.684	13.72
632.016	13.7
632.348	13.7
632.679	13.07
633.011	13.78
633.342	13.45
633.674	14.21
634.005	13.25
634.336	13.87
634.668	13.91
634.999	14.03
635.33	14.01
635.661	13.7
635.992	14.1
636.323	13.7
636.654	14
636.985	13.56
637.316	14.01
637.647	14.17
637.977	13.68
638.308	14.41
638.639	14.12
638.969	14.55
639.3	14.31
639.63	14.56
639.961	14.24
640.291	14.53
640.622	14.8
640.952	14.78
641.282	14.47
641.612	14.16
641.943	14.57
642.273	14.61
642.603	14.92
642.933	14.6
643.263	14.19
643.592	14.55
643.922	14.76
644.252	15
644.582	15.67
644.911	15.12
645.241	15.29
645.571	14.6
645.9	15.01
646.23	15.8
646.559	15.29
646.888	15.14
647.218	15.56
647.547	14.85
647.876	15.51
648.205	15.01
648.534	15.52
648.863	15.44
649.192	15.44
649.521	15.62
649.85	15.8
650.179	15.56
650.508	15.42
650.837	15.58
651.165	15.96
651.494	15.89
651.822	15.79
652.151	15.99
652.479	16.06
652.808	15.78
653.136	16.01
653.465	16.2
653.793	15.98
654.121	16.28
654.449	16.01
654.777	16.11
655.105	16.4
655.433	16.41
655.761	16.79
656.089	16.5
656.417	16.03
656.745	16.43
657.073	16.4
657.4	17.32
657.728	16.71
658.056	16.49
658.383	16.95
658.711	16.87
659.038	16.14
659.365	16.4
659.693	16.24
660.02	16.55
660.347	16.97
660.674	16.29
661.001	16.65
661.329	16.76
661.656	16.51
661.982	17.1
662.309	17.34
662.636	17.21
662.963	17.28
663.29	17.32
663.616	17.15
663.943	17.52
664.27	17.15
664.596	17.53
664.923	16.9
665.249	17.66
665.576	16.89
665.902	17.18
666.228	17.55
666.554	17.17
666.881	17.59
667.207	17.83
667.533	17.44
667.859	17.31
668.185	17.73
668.511	18.63
668.837	17.82
669.162	17.92
669.488	17.63
669.814	17.89
670.139	18.28
670.465	18.62
670.791	18.03
671.116	18.28
671.442	17.91
671.767	17.36
672.092	18.55
672.418	19.12
672.743	18.16
673.068	18.29
673.393	17.5
673.718	18.08
674.043	18.79
674.368	18.69
674.693	18.21
675.018	18.49
675.343	18.53
675.667	18.82
675.992	19.09
676.317	18.97
676.641	18.46
676.966	19.54
677.29	18.47
677.615	19.34
677.939	18.82
678.264	19.08
678.588	19.68
678.912	19.2
679.236	19.67
679.56	19.4
679.885	19.66
680.209	19.89
680.532	19.11
680.856	19.26
681.18	19.52
681.504	19.45
681.828	19.25
682.152	19.5
682.475	20.19
682.799	19.1
683.122	19.68
683.446	19.42
683.769	19.75
684.093	20.34
684.416	19.89
684.739	20.04
685.062	20.48
685.386	19.55
685.709	19.9
686.032	20.12
686.355	20.5
686.678	20.46
