Data from 0190_crown_Reflection__0__132.txt Node

Date: Fri Sep 22 21:22:52 CDT 2023
User: ToomeyLab
Spectrometer: FLMS14357
Trigger mode: 0
Integration Time (sec): 1.000000E-2
Scans to average: 100
Electric dark correction enabled: true
Nonlinearity correction enabled: false
Boxcar width: 0
XAxis mode: Wavelengths
Number of Pixels in Spectrum: 2048
>>>>>Begin Spectral Data<<<<<
189.047	145.57
189.435	145.57
189.823	145.57
190.211	134.92
190.599	27.29
190.987	86.26
191.375	59.48
191.763	133
192.151	10.28
192.538	-42.19
192.926	-15.94
193.314	33.23
193.702	1046.25
194.089	-744.52
194.477	-108.16
194.864	118.24
195.252	8.13
195.639	-207.13
196.027	112.81
196.414	-138.96
196.801	89.79
197.189	-142.08
197.576	113.69
197.963	1458.75
198.351	-17.4
198.738	11.48
199.125	60.58
199.512	34.13
199.899	57.23
200.286	41.94
200.673	21.99
201.06	13.71
201.447	24.84
201.833	14.4
202.22	44.22
202.607	35.71
202.994	61.88
203.38	7.07
203.767	16.69
204.154	32.02
204.54	33.8
204.927	-10.48
205.313	34.97
205.699	49.59
206.086	31.6
206.472	58.12
206.858	25.57
207.245	0.96
207.631	23.1
208.017	34.95
208.403	32.97
208.789	20.24
209.175	19.65
209.561	28.37
209.947	57.92
210.333	39.59
210.719	-1.51
211.105	42.54
211.491	30.71
211.876	37.75
212.262	14.36
212.648	11.16
213.034	25.06
213.419	-5.13
213.805	15.62
214.19	-21.17
214.576	47.51
214.961	4.51
215.346	-5.24
215.732	21.84
216.117	5.13
216.502	31.1
216.888	35.77
217.273	4.09
217.658	20.52
218.043	35.77
218.428	49.4
218.813	-29.59
219.198	8.04
219.583	15.22
219.968	22.67
220.353	22.08
220.738	8.87
221.122	10.18
221.507	-1.99
221.892	1.95
222.276	8.23
222.661	-18.07
223.046	16.88
223.43	20.65
223.815	10.93
224.199	-0.67
224.583	11.98
224.968	16.51
225.352	6.2
225.736	15.11
226.121	5.78
226.505	9.24
226.889	16.84
227.273	6.33
227.657	8.06
228.041	9.93
228.425	8.83
228.809	1.88
229.193	4.9
229.577	5.52
229.961	6.2
230.344	6.09
230.728	1.99
231.112	3.23
231.495	3.1
231.879	3.39
232.263	2.6
232.646	3.15
233.03	3.22
233.413	3.62
233.797	3.88
234.18	4.31
234.563	5.33
234.946	3.56
235.33	1.36
235.713	3.52
236.096	3.42
236.479	2.83
236.862	5.37
237.245	5.96
237.628	5.03
238.011	4.37
238.394	3.43
238.777	4.68
239.16	3.57
239.543	5.53
239.925	5.52
240.308	6.54
240.691	3.46
241.073	4.13
241.456	3
241.838	2.52
242.221	3.91
242.603	2.77
242.986	3.31
243.368	2.78
243.75	2.96
244.133	3.08
244.515	2.49
244.897	2.55
245.279	2.75
245.661	2.75
246.043	2.89
246.425	2.73
246.807	4
247.189	1.15
247.571	4.23
247.953	3.23
248.335	2.51
248.717	3.14
249.098	2.83
249.48	2.44
249.862	2.49
250.243	2.38
250.625	2.55
251.006	2.02
251.388	2.98
251.769	2.69
252.151	2.3
252.532	2.99
252.913	2.93
253.295	3.87
253.676	3.1
254.057	2.59
254.438	2.96
254.819	1.99
255.2	2.92
255.581	1.92
255.962	2.39
256.343	2.79
256.724	1.22
257.105	2.75
257.486	2.49
257.867	4.08
258.247	2.87
258.628	3.26
259.009	3.17
259.389	3.02
259.77	2.79
260.15	2.86
260.531	2.21
260.911	2.48
261.292	2
261.672	2
262.052	2.39
262.432	2.43
262.813	2.56
263.193	2.05
263.573	3.06
263.953	2.48
264.333	2.52
264.713	2.93
265.093	2.29
265.473	2.89
265.853	2.56
266.233	1.89
266.612	2.79
266.992	2.28
267.372	3.01
267.752	3.65
268.131	2.26
268.511	1.83
268.89	2.48
269.27	2.23
269.649	2.89
270.029	2.62
270.408	2.46
270.787	2.28
271.167	2.46
271.546	2.15
271.925	2.79
272.304	2.65
272.683	2.82
273.062	2.55
273.441	2.64
273.82	2.69
274.199	2.31
274.578	2.5
274.957	1.68
275.336	2.22
275.715	2.13
276.093	2.19
276.472	2.53
276.851	2.29
277.229	1.68
277.608	2.64
277.986	2.54
278.365	2.45
278.743	2.22
279.122	2.48
279.5	2.6
279.878	2.19
280.257	2.79
280.635	2.41
281.013	2.71
281.391	2.56
281.769	3.06
282.147	2.36
282.525	2.7
282.903	2.35
283.281	2.74
283.659	2.27
284.037	2.08
284.415	2.61
284.792	2.47
285.17	2.92
285.548	2.85
285.925	2.63
286.303	2.59
286.68	2.08
287.058	1.93
287.435	2.29
287.813	2.44
288.19	1.68
288.567	2.18
288.945	2.41
289.322	2.46
289.699	2.33
290.076	2.75
290.453	1.92
290.83	2.02
291.207	2.14
291.584	1.85
291.961	1.94
292.338	2.54
292.715	2.54
293.092	2.07
293.469	2.22
293.845	2.26
294.222	2.18
294.599	2.18
294.975	2.37
295.352	2.35
295.728	2.12
296.105	2.05
296.481	2.15
296.858	2.37
297.234	2
297.61	1.84
297.986	2.51
298.363	1.79
298.739	2.16
299.115	2.07
299.491	2.29
299.867	2.22
300.243	2.15
300.619	2.19
300.995	1.89
301.371	2.33
301.746	2.4
302.122	2.23
302.498	2.25
302.874	2.01
303.249	2.02
303.625	1.77
304	2.39
304.376	2.21
304.751	2.21
305.127	2.19
305.502	2.72
305.878	1.57
306.253	2.01
306.628	2.06
307.003	2.38
307.378	2.27
307.754	2.1
308.129	1.97
308.504	2.33
308.879	1.88
309.254	3.03
309.629	2.37
310.003	2.47
310.378	3.02
310.753	2.4
311.128	2.4
311.502	2.67
311.877	1.88
312.252	2.15
312.626	2.37
313.001	2.3
313.375	2.43
313.75	2.39
314.124	2.7
314.498	2.06
314.873	2.33
315.247	2.73
315.621	2.03
315.995	2.05
316.369	2.45
316.743	2.28
317.117	2.44
317.491	2.84
317.865	2.38
318.239	2
318.613	2.37
318.987	2.38
319.361	2.07
319.734	1.87
320.108	2.32
320.482	1.89
320.855	1.94
321.229	2.97
321.602	2.9
321.976	2.62
322.349	2.26
322.723	2.1
323.096	2.75
323.469	2.46
323.843	1.71
324.216	2.7
324.589	2.52
324.962	1.82
325.335	2.37
325.708	2.55
326.081	2.68
326.454	1.8
326.827	2.43
327.2	2.16
327.573	2.69
327.945	2.11
328.318	2.49
328.691	2.51
329.063	2.13
329.436	2.38
329.809	2.52
330.181	2.2
330.553	1.97
330.926	2.21
331.298	2.41
331.671	2.59
332.043	1.67
332.415	1.76
332.787	2.36
333.159	2.44
333.532	2.04
333.904	2.34
334.276	2.27
334.648	1.74
335.02	2.16
335.391	2.2
335.763	2.44
336.135	2.38
336.507	2.88
336.879	1.45
337.25	2.49
337.622	2.45
337.993	2.75
338.365	2.19
338.736	2.41
339.108	2.84
339.479	2.43
339.851	2
340.222	2.52
340.593	1.84
340.964	1.78
341.336	2.41
341.707	2.16
342.078	2.43
342.449	2.37
342.82	1.91
343.191	1.85
343.562	2.1
343.933	2.22
344.303	2.01
344.674	2.37
345.045	1.99
345.416	2.52
345.786	2.18
346.157	2.52
346.527	2.36
346.898	2.56
347.268	2.02
347.639	2.35
348.009	2.2
348.38	2.6
348.75	2.54
349.12	2.37
349.49	2.86
349.861	2.45
350.231	2.23
350.601	2.34
350.971	2.55
351.341	2
351.711	2.41
352.081	2.03
352.45	2.19
352.82	2.41
353.19	2.66
353.56	2.09
353.929	2.09
354.299	2.47
354.669	2.37
355.038	1.96
355.408	2.09
355.777	2.73
356.147	2.51
356.516	2.42
356.885	2.39
357.254	2.76
357.624	2.3
357.993	2.04
358.362	2.36
358.731	2.33
359.1	2.15
359.469	2.26
359.838	2.11
360.207	2.27
360.576	2.35
360.945	2.21
361.314	2.7
361.682	2.57
362.051	2.56
362.42	2.15
362.788	2.06
363.157	2.3
363.525	2.23
363.894	2.38
364.262	2.23
364.631	2.35
364.999	2.19
365.367	2.32
365.735	2.24
366.104	2.3
366.472	2.39
366.84	2.38
367.208	2.45
367.576	2.52
367.944	2.28
368.312	2.58
368.68	2.46
369.048	2.58
369.416	2.63
369.783	2.25
370.151	2.22
370.519	2.47
370.886	2.49
371.254	2.67
371.621	2.09
371.989	2.59
372.356	2.44
372.724	2.61
373.091	2.48
373.458	2.43
373.826	2.41
374.193	2.68
374.56	2.66
374.927	2.51
375.294	2.16
375.661	2.5
376.028	2.37
376.395	2.84
376.762	2.2
377.129	2.72
377.496	2.64
377.863	2.45
378.229	2.32
378.596	2.26
378.963	2.8
379.329	2.64
379.696	2.48
380.062	2.31
380.429	2.67
380.795	2.36
381.161	2.4
381.528	2.18
381.894	1.79
382.26	2.22
382.626	2.51
382.993	2.47
383.359	2.13
383.725	2.2
384.091	2.24
384.457	2.21
384.823	2.35
385.188	2.32
385.554	2.3
385.92	2.69
386.286	2.42
386.651	2.41
387.017	2.64
387.383	2.44
387.748	2.32
388.114	2.54
388.479	2.51
388.845	2.17
389.21	2.15
389.575	2.58
389.94	2.15
390.306	2.66
390.671	2.78
391.036	2.16
391.401	2.45
391.766	2.42
392.131	2.25
392.496	2.54
392.861	2.21
393.226	2.66
393.591	2.63
393.956	2.44
394.32	2.31
394.685	2.42
395.05	2.45
395.414	2.49
395.779	2.44
396.143	2.57
396.508	2.36
396.872	2.53
397.236	2.34
397.601	2.34
397.965	2.33
398.329	2.16
398.694	2.43
399.058	2.41
399.422	2.46
399.786	2.52
400.15	2.49
400.514	2.61
400.878	2.69
401.242	2.63
401.605	2.36
401.969	2.23
402.333	2.53
402.697	2.39
403.06	2.33
403.424	2.53
403.787	2.71
404.151	2.64
404.514	2.28
404.878	2.54
405.241	2.59
405.604	2.45
405.968	2.68
406.331	2.44
406.694	2.55
407.057	2.42
407.42	2.51
407.783	2.4
408.146	2.4
408.509	2.31
408.872	2.26
409.235	2.44
409.598	2.43
409.961	2.51
410.323	2.31
410.686	2.58
411.049	2.66
411.411	2.39
411.774	2.35
412.136	2.54
412.499	2.08
412.861	2.62
413.223	2.38
413.586	2.41
413.948	2.49
414.31	2.41
414.672	2.11
415.035	2.39
415.397	2.81
415.759	2.84
416.121	2.51
416.483	2.38
416.845	2.38
417.206	2.29
417.568	2.26
417.93	2.39
418.292	2.5
418.653	2.52
419.015	2.41
419.377	2.31
419.738	2.36
420.1	2.31
420.461	2.29
420.822	2.44
421.184	2.32
421.545	2.35
421.906	2.36
422.267	2.32
422.629	2.34
422.99	2.31
423.351	2.26
423.712	2.32
424.073	2.35
424.434	2.36
424.795	2.31
425.155	2.47
425.516	2.35
425.877	2.29
426.238	2.16
426.598	2.31
426.959	2.29
427.32	2.43
427.68	2.36
428.041	2.3
428.401	2.52
428.761	2.56
429.122	2.39
429.482	2.42
429.842	2.34
430.202	2.34
430.563	2.44
430.923	2.46
431.283	2.56
431.643	2.46
432.003	2.61
432.363	2.54
432.722	2.39
433.082	2.4
433.442	2.31
433.802	2.54
434.161	2.36
434.521	2.48
434.881	2.4
435.24	2.39
435.6	2.37
435.959	2.31
436.319	2.38
436.678	2.56
437.037	2.56
437.396	2.33
437.756	2.4
438.115	2.51
438.474	2.4
438.833	2.49
439.192	2.28
439.551	2.45
439.91	2.45
440.269	2.55
440.628	2.28
440.987	2.39
441.345	2.47
441.704	2.49
442.063	2.29
442.421	2.34
442.78	2.41
443.138	2.3
443.497	2.3
443.855	2.42
444.214	2.29
444.572	2.54
444.93	2.48
445.288	2.49
445.647	2.5
446.005	2.38
446.363	2.28
446.721	2.46
447.079	2.25
447.437	2.31
447.795	2.41
448.153	2.31
448.51	2.33
448.868	2.27
449.226	2.36
449.584	2.36
449.941	2.29
450.299	2.41
450.656	2.38
451.014	2.39
451.371	2.45
451.729	2.52
452.086	2.36
452.443	2.54
452.801	2.6
453.158	2.49
453.515	2.63
453.872	2.29
454.229	2.53
454.586	2.38
454.943	2.33
455.3	2.37
455.657	2.34
456.014	2.44
456.371	2.42
456.727	2.53
457.084	2.41
457.441	2.36
457.797	2.47
458.154	2.62
458.51	2.39
458.867	2.37
459.223	2.35
459.58	2.5
459.936	2.42
460.292	2.51
460.648	2.48
461.005	2.36
461.361	2.39
461.717	2.25
462.073	2.39
462.429	2.12
462.785	2.36
463.141	2.34
463.496	2.43
463.852	2.48
464.208	2.29
464.564	2.4
464.919	2.36
465.275	2.52
465.631	2.49
465.986	2.54
466.342	2.41
466.697	2.59
467.052	2.39
467.408	2.51
467.763	2.45
468.118	2.69
468.473	2.41
468.829	2.26
469.184	2.33
469.539	2.46
469.894	2.49
470.249	2.48
470.603	2.37
470.958	2.43
471.313	2.51
471.668	2.4
472.023	2.45
472.377	2.48
472.732	2.45
473.086	2.62
473.441	2.32
473.795	2.69
474.15	2.38
474.504	2.34
474.859	2.64
475.213	2.18
475.567	2.46
475.921	2.48
476.275	2.49
476.63	2.32
476.984	2.33
477.338	2.45
477.692	2.44
478.045	2.59
478.399	2.59
478.753	2.41
479.107	2.43
479.461	2.49
479.814	2.44
480.168	2.46
480.521	2.53
480.875	2.54
481.228	2.3
481.582	2.28
481.935	2.41
482.289	2.46
482.642	2.32
482.995	2.4
483.348	2.47
483.701	2.33
484.055	2.36
484.408	2.48
484.761	2.38
485.114	2.26
485.466	2.26
485.819	2.19
486.172	2.16
486.525	2.17
486.878	2.19
487.23	2.3
487.583	2.34
487.936	2.33
488.288	2.34
488.641	2.25
488.993	2.23
489.345	2.23
489.698	2.2
490.05	2.23
490.402	2.26
490.754	2.21
491.107	2.26
491.459	2.3
491.811	2.33
492.163	2.37
492.515	2.35
492.866	2.43
493.218	2.3
493.57	2.32
493.922	2.2
494.274	2.24
494.625	2.25
494.977	2.39
495.328	2.47
495.68	2.42
496.031	2.34
496.383	2.4
496.734	2.42
497.086	2.4
497.437	2.5
497.788	2.48
498.139	2.45
498.49	2.52
498.842	2.3
499.193	2.38
499.544	2.48
499.894	2.36
500.245	2.37
500.596	2.33
500.947	2.48
501.298	2.38
501.648	2.38
501.999	2.4
502.35	2.41
502.7	2.47
503.051	2.52
503.401	2.45
503.752	2.4
504.102	2.33
504.452	2.38
504.803	2.34
505.153	2.4
505.503	2.39
505.853	2.51
506.203	2.31
506.553	2.47
506.903	2.39
507.253	2.26
507.603	2.44
507.953	2.52
508.303	2.52
508.652	2.34
509.002	2.5
509.352	2.33
509.701	2.45
510.051	2.42
510.4	2.47
510.75	2.37
511.099	2.29
511.449	2.44
511.798	2.49
512.147	2.31
512.496	2.35
512.846	2.47
513.195	2.4
513.544	2.45
513.893	2.54
514.242	2.28
514.591	2.49
514.939	2.51
515.288	2.32
515.637	2.34
515.986	2.3
516.334	2.49
516.683	2.42
517.032	2.52
517.38	2.56
517.729	2.35
518.077	2.42
518.426	2.33
518.774	2.45
519.122	2.35
519.47	2.41
519.819	2.35
520.167	2.43
520.515	2.38
520.863	2.34
521.211	2.37
521.559	2.42
521.907	2.5
522.255	2.38
522.602	2.35
522.95	2.42
523.298	2.44
523.645	2.46
523.993	2.42
524.341	2.32
524.688	2.42
525.036	2.4
525.383	2.31
525.73	2.53
526.078	2.39
526.425	2.43
526.772	2.54
527.119	2.38
527.466	2.24
527.814	2.21
528.161	2.24
528.508	2.39
528.854	2.38
529.201	2.45
529.548	2.36
529.895	2.29
530.242	2.28
530.588	2.22
530.935	2.13
531.282	2.18
531.628	2.26
531.975	2.26
532.321	2.31
532.667	2.37
533.014	2.33
533.36	2.33
533.706	2.3
534.052	2.44
534.399	2.4
534.745	2.32
535.091	2.25
535.437	2.27
535.783	2.22
536.129	2.28
536.474	2.32
536.82	2.34
537.166	2.46
537.512	2.32
537.857	2.42
538.203	2.42
538.549	2.28
538.894	2.24
539.239	2.33
539.585	2.33
539.93	2.47
540.276	2.38
540.621	2.41
540.966	2.4
541.311	2.4
541.656	2.35
542.001	2.4
542.346	2.45
542.691	2.37
543.036	2.38
543.381	2.22
543.726	2.23
544.071	2.3
544.415	2.29
544.76	2.23
545.105	2.24
545.449	2.32
545.794	2.33
546.138	2.31
546.483	2.42
546.827	2.32
547.171	2.35
547.516	2.38
547.86	2.41
548.204	2.38
548.548	2.38
548.892	2.42
549.236	2.29
549.58	2.27
549.924	2.45
550.268	2.53
550.612	2.32
550.956	2.36
551.3	2.46
551.643	2.58
551.987	2.58
552.33	2.43
552.674	2.42
553.017	2.37
553.361	2.22
553.704	2.48
554.048	2.48
554.391	2.54
554.734	2.55
555.077	2.44
555.42	2.36
555.764	2.31
556.107	2.5
556.45	2.42
556.793	2.27
557.135	2.52
557.478	2.2
557.821	2.42
558.164	2.45
558.507	2.51
558.849	2.34
559.192	2.57
559.534	2.49
559.877	2.49
560.219	2.39
560.562	2.59
560.904	2.42
561.246	2.64
561.589	2.36
561.931	2.3
562.273	2.24
562.615	2.33
562.957	2.42
563.299	2.59
563.641	2.36
563.983	2.48
564.325	2.5
564.667	2.43
565.008	2.49
565.35	2.45
565.692	2.57
566.033	2.49
566.375	2.5
566.716	2.5
567.058	2.44
567.399	2.45
567.741	2.68
568.082	2.32
568.423	2.48
568.764	2.62
569.105	2.39
569.447	2.38
569.788	2.39
570.129	2.48
570.47	2.58
570.811	2.44
571.151	2.47
571.492	2.31
571.833	2.21
572.174	2.44
572.514	2.4
572.855	2.32
573.195	2.47
573.536	2.6
573.876	2.32
574.217	2.39
574.557	2.4
574.898	2.39
575.238	2.31
575.578	2.36
575.918	2.38
576.258	2.17
576.598	2.6
576.938	2.53
577.278	2.52
577.618	2.27
577.958	2.45
578.298	2.5
578.638	2.26
578.977	2.53
579.317	2.41
579.657	2.45
579.996	2.52
580.336	2.58
580.675	2.43
581.014	2.37
581.354	2.31
581.693	2.74
582.032	2.63
582.372	2.64
582.711	2.58
583.05	2.53
583.389	2.51
583.728	2.43
584.067	2.43
584.406	2.5
584.745	2.27
585.083	2.69
585.422	2.52
585.761	2.54
586.1	2.36
586.438	2.49
586.777	2.52
587.115	2.39
587.454	2.44
587.792	2.72
588.13	2.4
588.469	2.38
588.807	2.54
589.145	2.47
589.483	2.49
589.821	2.44
590.159	2.54
590.497	2.61
590.835	2.51
591.173	2.3
591.511	2.47
591.849	2.47
592.187	2.53
592.524	2.47
592.862	2.38
593.2	2.27
593.537	2.35
593.875	2.48
594.212	2.63
594.55	2.86
594.887	2.47
595.224	2.62
595.561	2.75
595.899	2.76
596.236	2.78
596.573	2.46
596.91	2.6
597.247	2.46
597.584	2.68
597.921	2.64
598.258	2.66
598.594	2.39
598.931	2.36
599.268	2.51
599.604	2.45
599.941	2.56
600.277	2.29
600.614	2.52
600.95	2.68
601.287	2.31
601.623	2.45
601.959	2.4
602.296	2.57
602.632	2.56
602.968	2.8
603.304	2.44
603.64	2.28
603.976	2.54
604.312	2.51
604.648	2.46
604.984	2.52
605.319	2.67
605.655	2.36
605.991	2.44
606.326	2.46
606.662	2.31
606.998	2.42
607.333	2.52
607.668	2.56
608.004	2.55
608.339	2.18
608.674	2.47
609.01	2.4
609.345	2.46
609.68	2.51
610.015	2.44
610.35	2.64
610.685	2.88
611.02	2.48
611.355	2.77
611.689	2.53
612.024	2.54
612.359	2.46
612.694	2.34
613.028	2.36
613.363	2.54
613.697	2.22
614.032	2.67
614.366	2.37
614.7	2.66
615.035	2.42
615.369	2.56
615.703	2.47
616.037	2.5
616.371	2.58
616.705	2.89
617.039	2.8
617.373	2.39
617.707	2.47
618.041	2.5
618.375	2.74
618.709	2.48
619.042	2.61
619.376	2.6
619.71	2.67
620.043	2.41
620.377	2.35
620.71	2.86
621.043	2.71
621.377	2.13
621.71	2.47
622.043	2.37
622.376	2.68
622.709	2.47
623.043	2.28
623.376	2.64
623.709	2.56
624.041	2.42
624.374	2.55
624.707	2.59
625.04	2.51
625.373	2.24
625.705	2.52
626.038	2.44
626.37	2.67
626.703	2.81
627.035	2.38
627.368	2.5
627.7	2.9
628.032	2.94
628.365	2.77
628.697	2.56
629.029	2.56
629.361	2.68
629.693	2.52
630.025	2.61
630.357	2.49
630.689	2.72
631.021	2.56
631.353	2.57
631.684	2.78
632.016	2.97
632.348	2.45
632.679	2.4
633.011	2.8
633.342	2.63
633.674	2.85
634.005	2.67
634.336	2.6
634.668	2.84
634.999	2.87
635.33	3.12
635.661	2.72
635.992	2.79
636.323	2.51
636.654	2.64
636.985	2.52
637.316	2.47
637.647	2.81
637.977	2.16
638.308	3.25
638.639	2.17
638.969	2.7
639.3	2.78
639.63	2.72
639.961	2.43
640.291	2.42
640.622	2.54
640.952	2.72
641.282	2.69
641.612	2.75
641.943	2.79
642.273	2.68
642.603	2.4
642.933	2.6
643.263	2.07
643.592	2.68
643.922	2.93
644.252	2.52
644.582	3.05
644.911	2.57
645.241	2.79
645.571	2.71
645.9	2.74
646.23	2.94
646.559	2.91
646.888	2.92
647.218	2.81
647.547	2.53
647.876	2.89
648.205	2
648.534	3.28
648.863	2.56
649.192	2.03
649.521	2.56
649.85	2.93
650.179	2.57
650.508	2.57
650.837	2.96
651.165	2.15
651.494	3.03
651.822	2.87
652.151	2.54
652.479	2.82
652.808	2.73
653.136	2.81
653.465	2.7
653.793	2.51
654.121	3.03
654.449	2.71
654.777	2.56
655.105	2.61
655.433	2.95
655.761	3.32
656.089	2.8
656.417	2.39
656.745	2.99
657.073	2.79
657.4	3.69
657.728	2.71
658.056	2.92
658.383	2.8
658.711	2.57
659.038	2.44
659.365	3.1
659.693	2.26
660.02	3.46
660.347	3.26
660.674	2.38
661.001	2.35
661.329	2.68
661.656	2.91
661.982	2.43
662.309	2.81
662.636	3.03
662.963	2.86
663.29	2.98
663.616	2.51
663.943	3.13
664.27	3.06
664.596	2.53
664.923	2.95
665.249	2.44
665.576	2.64
665.902	2.85
666.228	2.52
666.554	2.79
666.881	2.9
667.207	2.69
667.533	2.51
667.859	3.31
668.185	2.88
668.511	2.73
668.837	2.71
669.162	2.62
669.488	2.97
669.814	2.62
670.139	2.72
670.465	3.58
670.791	2.93
671.116	2.81
671.442	3.31
671.767	2.58
672.092	3.44
672.418	3.52
672.743	2.86
673.068	2.9
673.393	2.68
673.718	2.91
674.043	2.96
674.368	3.79
674.693	2.65
675.018	3.12
675.343	3.02
675.667	2.85
675.992	2.51
676.317	3.17
676.641	3.14
676.966	2.46
677.29	2.5
677.615	3.22
677.939	3.37
678.264	2.93
678.588	3.31
678.912	2.67
679.236	3.09
679.56	3.04
679.885	3.01
680.209	3.81
680.532	3.3
680.856	2.94
681.18	3.23
681.504	2.58
681.828	2.86
682.152	2.63
682.475	3.54
682.799	3.35
683.122	2.64
683.446	2.46
683.769	2.85
684.093	3.36
684.416	2.66
684.739	3.24
685.062	3.58
685.386	2.9
685.709	2.85
686.032	2.82
686.355	3.25
686.678	2.39
687.001	2.87
687.324	3.16
687.646	3.31
687.969	3.71
688.292	3.32
688.614	3.01
688.937	3.86
689.26	2.55
689.582	3.78
689.904	3.3
690.227	3.6
690.549	3.61
690.871	3.5
691.194	3.28
691.516	2.98
691.838	3.57
692.16	2.83
692.482	2.75
