Data from 97277_forehead_Reflection__2__83.txt Node

Date: Fri Sep 23 20:19:29 CDT 2022
User: ToomeyLab
Spectrometer: FLMS14357
Trigger mode: 0
Integration Time (sec): 1.000000E-2
Scans to average: 100
Electric dark correction enabled: true
Nonlinearity correction enabled: false
Boxcar width: 0
XAxis mode: Wavelengths
Number of Pixels in Spectrum: 2048
>>>>>Begin Spectral Data<<<<<
189.047	-93.07
189.435	-93.07
189.823	-93.07
190.211	27.74
190.599	46.9
190.987	68.73
191.375	38.03
191.763	70.03
192.151	-68.93
192.538	197.7
192.926	-613.95
193.314	180.2
193.702	72.81
194.089	213.72
194.477	173.6
194.864	58.85
195.252	55.86
195.639	910.74
196.027	50.51
196.414	-4.5
196.801	84.46
197.189	37.24
197.576	-99.35
197.963	-42.9
198.351	53.08
198.738	-10.09
199.125	18.68
199.512	36.45
199.899	-8.3
200.286	-7.84
200.673	-5.21
201.06	20.51
201.447	23.03
201.833	41.65
202.22	63.65
202.607	18.9
202.994	-5.74
203.38	28.14
203.767	-15.69
204.154	43.14
204.54	30.95
204.927	55.87
205.313	33.46
205.699	16.61
206.086	21.36
206.472	25.05
206.858	20.79
207.245	-12.07
207.631	20.98
208.017	17.52
208.403	61.66
208.789	46.86
209.175	46.53
209.561	16.82
209.947	35.17
210.333	-5.53
210.719	-10.54
211.105	-11.76
211.491	11.74
211.876	-3.83
212.262	19.57
212.648	0.26
213.034	1.11
213.419	20.93
213.805	21.08
214.19	10.21
214.576	-11
214.961	16.96
215.346	-2.63
215.732	19.03
216.117	1.62
216.502	39.58
216.888	18.45
217.273	5.4
217.658	12.77
218.043	22.02
218.428	14.06
218.813	6.13
219.198	6.07
219.583	-3.81
219.968	23.73
220.353	10.1
220.738	2.48
221.122	7.74
221.507	16.19
221.892	2.59
222.276	7.38
222.661	8.28
223.046	2.07
223.43	4.47
223.815	10.52
224.199	5.13
224.583	8.2
224.968	-1.66
225.352	6.7
225.736	1.08
226.121	17.52
226.505	8
226.889	10.77
227.273	8.44
227.657	0.65
228.041	1.71
228.425	4.12
228.809	3.55
229.193	2.85
229.577	4.22
229.961	3.43
230.344	2.56
230.728	1.35
231.112	1.57
231.495	1.22
231.879	0.91
232.263	1.5
232.646	2.7
233.03	4.6
233.413	2.73
233.797	2.72
234.18	5.83
234.563	-0.5
234.946	5.9
235.33	2.43
235.713	3.68
236.096	0.57
236.479	0.51
236.862	2.68
237.245	3.77
237.628	2.23
238.011	5.35
238.394	1.74
238.777	2.45
239.16	3.88
239.543	1.68
239.925	2.32
240.308	3.32
240.691	3.88
241.073	1.86
241.456	2.23
241.838	3.43
242.221	3.53
242.603	3.2
242.986	2
243.368	2.38
243.75	2.65
244.133	2.36
244.515	2.26
244.897	2.71
245.279	2.44
245.661	3.3
246.043	3.61
246.425	1.96
246.807	2.38
247.189	3.04
247.571	2.96
247.953	2.34
248.335	2.59
248.717	2.72
249.098	2.37
249.48	2.43
249.862	2.58
250.243	2.61
250.625	2.55
251.006	3.05
251.388	2.11
251.769	2.74
252.151	0.73
252.532	2.72
252.913	3.44
253.295	3.03
253.676	2.8
254.057	2.53
254.438	2.51
254.819	2.9
255.2	3.11
255.581	3.67
255.962	2.24
256.343	2.53
256.724	2.1
257.105	3.35
257.486	2.24
257.867	1.92
258.247	3.43
258.628	1.85
259.009	2.25
259.389	2.76
259.77	2.05
260.15	2.71
260.531	2.46
260.911	2.49
261.292	2.35
261.672	2.2
262.052	2.23
262.432	2.06
262.813	2.48
263.193	2.46
263.573	2.87
263.953	2.36
264.333	2.61
264.713	2.7
265.093	2.93
265.473	2.88
265.853	2.52
266.233	2.6
266.612	3.06
266.992	3.38
267.372	2.83
267.752	2.26
268.131	2.75
268.511	2.04
268.89	2.18
269.27	2.42
269.649	2.14
270.029	2.7
270.408	2.94
270.787	2.27
271.167	2.58
271.546	2.15
271.925	2.49
272.304	2.55
272.683	2.18
273.062	2.37
273.441	2.45
273.82	2.32
274.199	2.03
274.578	1.92
274.957	2.22
275.336	2.36
275.715	2.34
276.093	2.92
276.472	2.65
276.851	2.93
277.229	2.41
277.608	2.35
277.986	1.88
278.365	2.47
278.743	3.11
279.122	1.67
279.5	2.36
279.878	2.75
280.257	2.46
280.635	2.27
281.013	2.56
281.391	2.05
281.769	2.25
282.147	2.31
282.525	2.51
282.903	2.38
283.281	2.28
283.659	2.33
284.037	2.29
284.415	2.38
284.792	1.8
285.17	2.27
285.548	1.96
285.925	2.65
286.303	2.84
286.68	2.63
287.058	2.38
287.435	2.11
287.813	2.37
288.19	2.25
288.567	2.43
288.945	2.46
289.322	2.66
289.699	2.54
290.076	2.45
290.453	2.51
290.83	2.38
291.207	2.51
291.584	3.06
291.961	2.31
292.338	2.55
292.715	2.53
293.092	2.29
293.469	2.72
293.845	3.06
294.222	2.59
294.599	2.4
294.975	3.04
295.352	2.73
295.728	2.58
296.105	2.5
296.481	2.18
296.858	2.72
297.234	2.74
297.61	2.72
297.986	2.72
298.363	2.87
298.739	3.07
299.115	2.54
299.491	2.68
299.867	2.69
300.243	3.07
300.619	3.24
300.995	3.17
301.371	2.87
301.746	3
302.122	2.59
302.498	3.4
302.874	2.85
303.249	3
303.625	2.57
304	3.28
304.376	2.96
304.751	2.46
305.127	3.09
305.502	3.27
305.878	3.04
306.253	3.24
306.628	2.88
307.003	2.7
307.378	3.89
307.754	4.27
308.129	3.71
308.504	3.86
308.879	3.6
309.254	3.55
309.629	3.48
310.003	3.8
310.378	3.52
310.753	3.28
311.128	3.49
311.502	3.34
311.877	3.48
312.252	3.29
312.626	3.49
313.001	3.61
313.375	3.41
313.75	3.09
314.124	3.18
314.498	3.6
314.873	3.7
315.247	3.81
315.621	3.96
315.995	4.06
316.369	4.28
316.743	3.67
317.117	3.07
317.491	3.66
317.865	4.15
318.239	4.54
318.613	3.98
318.987	3.42
319.361	3.68
319.734	3.83
320.108	3.25
320.482	3.96
320.855	4.17
321.229	4.44
321.602	3.91
321.976	3.94
322.349	4.68
322.723	4.44
323.096	3.97
323.469	3.61
323.843	3.74
324.216	4.66
324.589	4.23
324.962	4.11
325.335	4
325.708	4.11
326.081	3.99
326.454	4.19
326.827	3.94
327.2	4.02
327.573	4.44
327.945	4.67
328.318	3.83
328.691	4.55
329.063	4.82
329.436	4.62
329.809	4.93
330.181	4.49
330.553	3.7
330.926	4.47
331.298	4.21
331.671	4.57
332.043	4.76
332.415	4.7
332.787	4.28
333.159	4.68
333.532	4.65
333.904	4.33
334.276	3.79
334.648	4.48
335.02	4.32
335.391	4.62
335.763	4.48
336.135	4.42
336.507	4.92
336.879	4.47
337.25	4.32
337.622	4.91
337.993	4.67
338.365	5.01
338.736	4.84
339.108	5.32
339.479	4.66
339.851	4.69
340.222	5.26
340.593	4.94
340.964	5.02
341.336	4.51
341.707	5.44
342.078	4.5
342.449	4.58
342.82	4.7
343.191	4.67
343.562	4.74
343.933	5.21
344.303	4.91
344.674	5.47
345.045	4.95
345.416	4.91
345.786	5.26
346.157	4.56
346.527	5
346.898	4.96
347.268	5.15
347.639	4.76
348.009	4.91
348.38	5.1
348.75	5.09
349.12	4.92
349.49	5.21
349.861	5.21
350.231	5.41
350.601	5.03
350.971	5.27
351.341	5.32
351.711	5.36
352.081	5.28
352.45	4.91
352.82	4.8
353.19	5.44
353.56	5.77
353.929	5.45
354.299	5.95
354.669	5.18
355.038	5.52
355.408	5.15
355.777	5.25
356.147	5.47
356.516	5.1
356.885	5.32
357.254	5.23
357.624	5.31
357.993	5.55
358.362	5.45
358.731	5.43
359.1	5.39
359.469	5.48
359.838	5.43
360.207	5.65
360.576	5.62
360.945	5.25
361.314	5.34
361.682	5.72
362.051	5.66
362.42	5.8
362.788	5.54
363.157	5.58
363.525	5.67
363.894	5.57
364.262	5.5
364.631	5.79
364.999	5.8
365.367	5.51
365.735	5.77
366.104	5.86
366.472	5.9
366.84	6.01
367.208	6.08
367.576	6.12
367.944	5.84
368.312	6.17
368.68	5.85
369.048	6.04
369.416	6.07
369.783	5.93
370.151	5.96
370.519	6.02
370.886	6.17
371.254	6.17
371.621	6.23
371.989	6.24
372.356	6.36
372.724	5.76
373.091	6.1
373.458	5.73
373.826	5.79
374.193	6.34
374.56	5.93
374.927	6.21
375.294	6.34
375.661	6.26
376.028	6.23
376.395	6.48
376.762	6.08
377.129	6.2
377.496	6.55
377.863	6.42
378.229	6.01
378.596	6.29
378.963	6.51
379.329	6.71
379.696	6.28
380.062	6.4
380.429	6.3
380.795	6.44
381.161	6.68
381.528	6.71
381.894	6.51
382.26	6.67
382.626	6.37
382.993	6.73
383.359	6.62
383.725	6.65
384.091	6.67
384.457	6.67
384.823	6.47
385.188	6.65
385.554	6.81
385.92	7
386.286	6.76
386.651	6.7
387.017	6.96
387.383	6.69
387.748	6.83
388.114	6.94
388.479	6.59
388.845	6.81
389.21	6.84
389.575	7.06
389.94	6.81
390.306	6.78
390.671	6.84
391.036	6.72
391.401	7.14
391.766	6.89
392.131	6.92
392.496	6.91
392.861	7.06
393.226	6.83
393.591	6.83
393.956	7.01
394.32	7.14
394.685	6.96
395.05	7.03
395.414	6.97
395.779	6.99
396.143	7.05
396.508	7.04
396.872	7.06
397.236	7.22
397.601	6.93
397.965	7.47
398.329	7.3
398.694	7.21
399.058	7.32
399.422	7.57
399.786	7.49
400.15	6.99
400.514	7.07
400.878	7.14
401.242	7.1
401.605	7.42
401.969	7.39
402.333	7.13
402.697	6.9
403.06	7.29
403.424	7.19
403.787	7.52
404.151	7.24
404.514	7.22
404.878	7.17
405.241	7.15
405.604	7.32
405.968	7.1
406.331	7.19
406.694	7.27
407.057	7.12
407.42	7.28
407.783	7.21
408.146	7.26
408.509	7.15
408.872	7.39
409.235	7.34
409.598	7.44
409.961	7.43
410.323	7.24
410.686	7.32
411.049	7.3
411.411	7.62
411.774	7.1
412.136	7.23
412.499	7.08
412.861	7.08
413.223	7.12
413.586	7.4
413.948	7.43
414.31	7.36
414.672	7.31
415.035	7.25
415.397	7.74
415.759	7.51
416.121	7.61
416.483	7.48
416.845	6.98
417.206	7.38
417.568	7.46
417.93	7.6
418.292	7.63
418.653	7.42
419.015	7.36
419.377	7.21
419.738	7.36
420.1	7.28
420.461	7.57
420.822	7.44
421.184	7.5
421.545	7.37
421.906	7.49
422.267	7.47
422.629	7.45
422.99	7.4
423.351	7.5
423.712	7.51
424.073	7.51
424.434	7.75
424.795	7.8
425.155	7.79
425.516	7.76
425.877	7.68
426.238	7.66
426.598	7.79
426.959	7.83
427.32	7.95
427.68	8.05
428.041	8.06
428.401	8.09
428.761	8.08
429.122	8.19
429.482	8.25
429.842	8.47
430.202	8.54
430.563	8.44
430.923	8.42
431.283	8.51
431.643	8.59
432.003	8.42
432.363	8.69
432.722	8.65
433.082	8.51
433.442	8.55
433.802	8.61
434.161	8.72
434.521	8.59
434.881	8.62
435.24	8.67
435.6	8.71
435.959	8.79
436.319	8.95
436.678	8.87
437.037	9.14
437.396	8.95
437.756	9.16
438.115	9.02
438.474	9.09
438.833	9.25
439.192	9.31
439.551	9.17
439.91	9.05
440.269	9.19
440.628	9.23
440.987	9.15
441.345	9.19
441.704	9.25
442.063	9.3
442.421	9.09
442.78	9.31
443.138	9.28
443.497	9.48
443.855	9.49
444.214	9.5
444.572	9.62
444.93	9.63
445.288	9.75
445.647	9.92
446.005	9.84
446.363	9.76
446.721	9.67
447.079	9.63
447.437	9.72
447.795	9.73
448.153	9.52
448.51	9.65
448.868	9.78
449.226	9.88
449.584	9.79
449.941	10.04
450.299	9.96
450.656	10.11
451.014	10.18
451.371	9.95
451.729	10.16
452.086	10.48
452.443	10.2
452.801	10.33
453.158	10.47
453.515	10.44
453.872	10.44
454.229	10.53
454.586	10.48
454.943	10.63
455.3	10.62
455.657	10.62
456.014	10.74
456.371	10.64
456.727	10.85
457.084	10.84
457.441	10.94
457.797	10.75
458.154	10.97
458.51	10.98
458.867	10.96
459.223	11.06
459.58	11.14
459.936	10.99
460.292	10.89
460.648	10.97
461.005	10.94
461.361	10.84
461.717	10.84
462.073	10.92
462.429	10.96
462.785	11.18
463.141	11.23
463.496	11.33
463.852	11.46
464.208	11.52
464.564	11.5
464.919	11.58
465.275	11.64
465.631	11.73
465.986	11.51
466.342	11.68
466.697	11.7
467.052	11.77
467.408	11.89
467.763	11.81
468.118	11.89
468.473	11.89
468.829	11.94
469.184	11.98
469.539	11.9
469.894	12.1
470.249	12.2
470.603	12.15
470.958	12.11
471.313	12.14
471.668	12.31
472.023	12.03
472.377	12.18
472.732	12.43
473.086	12.19
473.441	12.42
473.795	12.64
474.15	12.5
474.504	12.55
474.859	12.56
475.213	12.46
475.567	12.42
475.921	12.77
476.275	12.62
476.63	12.6
476.984	12.69
477.338	12.68
477.692	12.74
478.045	12.77
478.399	12.74
478.753	12.91
479.107	12.64
479.461	12.71
479.814	12.9
480.168	12.86
480.521	12.92
480.875	13
481.228	13.17
481.582	13.11
481.935	13.21
482.289	13.17
482.642	12.96
482.995	13.2
483.348	12.92
483.701	12.92
484.055	12.95
484.408	12.87
484.761	12.77
485.114	12.43
485.466	12.29
485.819	12.2
486.172	12.39
486.525	12.66
486.878	12.91
487.23	12.99
487.583	13
487.936	13.12
488.288	13.12
488.641	12.92
488.993	12.75
489.345	12.74
489.698	12.83
490.05	13
490.402	13.04
490.754	13.24
491.107	13.39
491.459	13.45
491.811	13.64
492.163	13.71
492.515	13.59
492.866	13.31
493.218	13.09
493.57	13.1
493.922	13.28
494.274	13.55
494.625	13.8
494.977	13.88
495.328	14.17
495.68	14.09
496.031	14.21
496.383	14.46
496.734	14.44
497.086	14.51
497.437	14.56
497.788	14.58
498.139	14.39
498.49	14.26
498.842	14.24
499.193	14.47
499.544	14.38
499.894	14.58
500.245	14.57
500.596	14.67
500.947	14.52
501.298	14.8
501.648	14.97
501.999	14.74
502.35	14.82
502.7	14.99
503.051	14.88
503.401	15
503.752	14.94
504.102	15.04
504.452	15.05
504.803	15.15
505.153	15.23
505.503	14.98
505.853	15.15
506.203	15.19
506.553	15.2
506.903	15.27
507.253	15.15
507.603	15.29
507.953	15.37
508.303	15.32
508.652	15.29
509.002	15.38
509.352	15.52
509.701	15.32
510.051	15.24
510.4	15.43
510.75	15.23
511.099	15.32
511.449	15.28
511.798	15.5
512.147	15.4
512.496	15.36
512.846	15.51
513.195	15.41
513.544	15.65
513.893	15.45
514.242	15.56
514.591	15.48
514.939	15.56
515.288	15.66
515.637	15.69
515.986	15.77
516.334	15.72
516.683	15.96
517.032	15.83
517.38	15.89
517.729	15.9
518.077	15.83
518.426	15.98
518.774	15.84
519.122	15.76
519.47	15.69
519.819	15.74
520.167	15.57
520.515	15.42
520.863	15.57
521.211	15.7
521.559	15.73
521.907	15.92
522.255	15.86
522.602	16.06
522.95	16.1
523.298	16.17
523.645	16.26
523.993	16.17
524.341	16.34
524.688	16.18
525.036	16.34
525.383	16.08
525.73	16.32
526.078	16.24
526.425	16.14
526.772	16.08
527.119	15.95
527.466	15.77
527.814	15.84
528.161	15.98
528.508	15.97
528.854	16.05
529.201	15.92
529.548	15.78
529.895	15.53
530.242	15.15
530.588	15.22
530.935	15.4
531.282	15.68
531.628	15.92
531.975	15.99
532.321	16.18
532.667	16.28
533.014	16.26
533.36	16.4
533.706	16.35
534.052	16.35
534.399	16.22
534.745	16.09
535.091	15.78
535.437	15.88
535.783	16.16
536.129	16.38
536.474	16.5
536.82	16.54
537.166	16.67
537.512	16.58
537.857	16.54
538.203	16.44
538.549	16.27
538.894	16.49
539.239	16.77
539.585	16.91
539.93	16.93
540.276	17.11
540.621	17.04
540.966	17.06
541.311	17.15
541.656	16.98
542.001	16.94
542.346	16.67
542.691	16.49
543.036	16.13
543.381	16.22
543.726	16.34
544.071	16.59
544.415	16.89
544.76	16.72
545.105	16.85
545.449	16.89
545.794	17.21
546.138	17.08
546.483	17.33
546.827	17.55
547.171	17.24
547.516	17.45
547.86	17.31
548.204	17.36
548.548	17.18
548.892	17.28
549.236	17.4
549.58	17.6
549.924	17.77
550.268	17.95
550.612	17.91
550.956	17.93
551.3	18.1
551.643	18
551.987	18.04
552.33	18.02
552.674	18.19
553.017	18.14
553.361	18.07
553.704	18.09
554.048	18.14
554.391	18
554.734	18.01
555.077	17.98
555.42	17.99
555.764	18.09
556.107	18.39
556.45	18.43
556.793	18.5
557.135	18.46
557.478	18.5
557.821	18.52
558.164	18.5
558.507	18.47
558.849	18.56
559.192	18.56
559.534	18.68
559.877	18.64
560.219	18.7
560.562	18.9
560.904	18.69
561.246	18.69
561.589	18.66
561.931	18.86
562.273	18.78
562.615	18.64
562.957	18.81
563.299	18.75
563.641	18.77
563.983	18.88
564.325	18.96
564.667	19.02
565.008	18.99
565.35	18.9
565.692	19.16
566.033	19.07
566.375	19.17
566.716	19.01
567.058	19.11
567.399	18.83
567.741	18.84
568.082	18.73
568.423	18.72
568.764	18.84
569.105	19.06
569.447	19.3
569.788	19.34
570.129	19.37
570.47	19.24
570.811	19.31
571.151	19.42
571.492	19.23
571.833	19.39
572.174	19.24
572.514	19.47
572.855	19.2
573.195	19.27
573.536	19.3
573.876	19.07
574.217	19.18
574.557	19.29
574.898	19.39
575.238	19.62
575.578	19.56
575.918	19.51
576.258	19.52
576.598	19.57
576.938	19.69
577.278	19.81
577.618	19.51
577.958	19.59
578.298	19.75
578.638	19.88
578.977	19.93
579.317	19.87
579.657	20.02
579.996	19.97
580.336	20.26
580.675	20.18
581.014	20.05
581.354	20.07
581.693	20.26
582.032	20.35
582.372	20.4
582.711	20.29
583.05	20.38
583.389	20.53
583.728	20.5
584.067	20.5
584.406	20.45
584.745	20.84
585.083	20.64
585.422	20.52
585.761	20.49
586.1	20.77
586.438	20.62
586.777	20.35
587.115	20.52
587.454	20.68
587.792	20.97
588.13	20.57
588.469	20.41
588.807	20.5
589.145	20.62
589.483	20.83
589.821	20.9
590.159	20.87
590.497	20.7
590.835	20.77
591.173	20.99
591.511	20.97
591.849	20.76
592.187	20.8
592.524	21.02
592.862	21.13
593.2	21.36
593.537	21.1
593.875	21.21
594.212	21.38
594.55	20.97
594.887	21.48
595.224	21.19
595.561	21.11
595.899	20.87
596.236	20.99
596.573	21.35
596.91	21.47
597.247	21.23
597.584	21.25
597.921	21.36
598.258	20.94
598.594	20.99
598.931	21
599.268	21
599.604	21
599.941	21.46
600.277	21.47
600.614	21.49
600.95	21.45
601.287	21.8
601.623	21.63
601.959	21.64
602.296	21.74
602.632	21.71
602.968	21.52
603.304	21.79
603.64	21.68
603.976	21.74
604.312	21.84
604.648	21.8
604.984	21.61
605.319	21.86
605.655	21.65
605.991	21.52
606.326	21.5
606.662	21.6
606.998	21.78
607.333	21.64
607.668	21.85
608.004	22.02
608.339	22.17
608.674	22
609.01	22.34
609.345	22.32
609.68	21.97
610.015	22.32
610.35	22.27
610.685	22.2
611.02	22.04
611.355	22.07
611.689	22.01
612.024	22.2
612.359	22.4
612.694	22.47
613.028	22.57
613.363	22.4
613.697	22.55
614.032	22.6
614.366	22.77
614.7	22.81
615.035	22.68
615.369	22.87
615.703	22.94
616.037	22.65
616.371	22.84
616.705	22.51
617.039	22.71
617.373	23.21
617.707	23.56
618.041	23.16
618.375	23.47
618.709	22.46
619.042	22.92
619.376	23.16
619.71	22.99
620.043	22.78
620.377	22.93
620.71	23.33
621.043	23.53
621.377	22.9
621.71	23.62
622.043	23
622.376	23.15
622.709	23.62
623.043	23.26
623.376	23.49
623.709	24
624.041	23.6
624.374	23.2
624.707	23.52
625.04	23.96
625.373	23.39
625.705	23.79
626.038	23.45
626.37	23.44
626.703	23.58
627.035	23.52
627.368	23.61
627.7	23.56
628.032	23.46
628.365	23.16
628.697	23.44
629.029	23.32
629.361	23.59
629.693	23.73
630.025	23.61
630.357	24.22
630.689	23.93
631.021	24.3
631.353	24.13
631.684	23.85
632.016	24.17
632.348	23.99
632.679	24.25
633.011	23.95
633.342	23.89
633.674	23.92
634.005	23.93
634.336	24.43
634.668	24.2
634.999	24.06
635.33	24.17
635.661	24.19
635.992	24
636.323	24.12
636.654	24.26
636.985	24.66
637.316	24.41
637.647	24.66
637.977	24.52
638.308	24.46
638.639	24.39
638.969	24.76
639.3	24.67
639.63	24.47
639.961	24.84
640.291	24.48
640.622	24.28
640.952	24.67
641.282	24.88
641.612	24.87
641.943	24.97
642.273	25.09
642.603	24.98
642.933	24.67
643.263	24.81
643.592	25.08
643.922	25
644.252	25.02
644.582	25.11
644.911	24.72
645.241	24.86
645.571	25.38
645.9	25.08
646.23	25.58
646.559	24.8
646.888	25.35
647.218	25.59
647.547	25.19
647.876	25.48
648.205	24.86
648.534	25.39
648.863	25.17
649.192	25.72
649.521	25.24
649.85	24.89
650.179	25.24
650.508	25.31
650.837	25.45
651.165	25.8
651.494	25.06
651.822	25.25
652.151	25.31
652.479	25.68
652.808	25.23
653.136	25.37
653.465	25.35
653.793	25.28
654.121	25.27
654.449	25.22
654.777	25.63
655.105	26
655.433	26.04
655.761	25.92
656.089	26.52
656.417	25.65
656.745	25.64
657.073	25.68
657.4	26.06
657.728	26.05
658.056	26.23
658.383	26.12
658.711	26.05
659.038	25.65
659.365	25.94
659.693	26.14
660.02	25.87
660.347	25.79
660.674	25.76
661.001	26.02
661.329	25.71
661.656	26.01
661.982	25.71
662.309	26.4
662.636	26.37
662.963	26.39
663.29	26.89
663.616	26.34
663.943	26.4
664.27	26.49
664.596	26.73
664.923	26.93
665.249	26.28
665.576	26.97
665.902	26.36
666.228	27.04
666.554	26.86
666.881	26.43
667.207	26.85
667.533	26.99
667.859	26.64
668.185	26.75
668.511	26.15
668.837	26.53
669.162	26.56
669.488	26.64
669.814	26.55
670.139	26.54
670.465	27.12
670.791	26.49
671.116	26.43
671.442	27.03
671.767	26.42
672.092	26.97
672.418	27.01
672.743	27.28
673.068	26.42
673.393	26.91
673.718	26.46
674.043	27.32
674.368	27.42
674.693	27.31
675.018	26.65
675.343	27.89
675.667	27.53
675.992	27
676.317	27.28
676.641	27.2
676.966	28.06
677.29	27.67
677.615	27.8
677.939	27.14
678.264	26.84
