Data from 97277_chest_Reflection__4__80.txt Node

Date: Fri Sep 23 20:18:12 CDT 2022
User: ToomeyLab
Spectrometer: FLMS14357
Trigger mode: 0
Integration Time (sec): 1.000000E-2
Scans to average: 100
Electric dark correction enabled: true
Nonlinearity correction enabled: false
Boxcar width: 0
XAxis mode: Wavelengths
Number of Pixels in Spectrum: 2048
>>>>>Begin Spectral Data<<<<<
189.047	-137.12
189.435	-137.12
189.823	-137.12
190.211	-6.66
190.599	157.94
190.987	113.87
191.375	-43.4
191.763	111.61
192.151	-48.05
192.538	256.07
192.926	-347.44
193.314	103.42
193.702	-30.91
194.089	164.62
194.477	154.46
194.864	-197.62
195.252	86.04
195.639	273.27
196.027	62.57
196.414	-145.94
196.801	153.53
197.189	14.74
197.576	-278.22
197.963	22.71
198.351	6.55
198.738	-41.93
199.125	0.25
199.512	35.36
199.899	-18.93
200.286	16.32
200.673	12.25
201.06	30.94
201.447	24.5
201.833	19.26
202.22	-19.9
202.607	16
202.994	8.87
203.38	-15.81
203.767	-1.11
204.154	34.9
204.54	29.2
204.927	24.51
205.313	9.9
205.699	-36.4
206.086	-7.88
206.472	6.22
206.858	29.42
207.245	-5.72
207.631	18.51
208.017	17.01
208.403	30.72
208.789	23.14
209.175	21.4
209.561	27.08
209.947	-22.04
210.333	-12.58
210.719	8.73
211.105	20.44
211.491	26.11
211.876	33.07
212.262	8.3
212.648	-28.84
213.034	-24.82
213.419	-40.54
213.805	18.13
214.19	8.99
214.576	14.31
214.961	27.33
215.346	-24.13
215.732	34.01
216.117	-9.24
216.502	5.01
216.888	23.29
217.273	-9.24
217.658	-21.83
218.043	-2.3
218.428	6.13
218.813	24.49
219.198	-7.26
219.583	14.28
219.968	-7.37
220.353	13.8
220.738	5.2
221.122	7.81
221.507	9.26
221.892	-3.3
222.276	-14.16
222.661	3.05
223.046	-4.21
223.43	-2.31
223.815	10.23
224.199	-5.36
224.583	0.54
224.968	0.45
225.352	0.14
225.736	-1.76
226.121	11.65
226.505	5.85
226.889	5.68
227.273	1.51
227.657	2.09
228.041	4.76
228.425	4.58
228.809	2.67
229.193	3.79
229.577	3.9
229.961	2.23
230.344	2.24
230.728	1.9
231.112	2.1
231.495	1.94
231.879	0.05
232.263	2.84
232.646	2.16
233.03	2.11
233.413	2.14
233.797	1.99
234.18	2.45
234.563	1.57
234.946	4.64
235.33	2.73
235.713	2.36
236.096	0.65
236.479	0.87
236.862	1.37
237.245	2.6
237.628	4.68
238.011	3.77
238.394	3.41
238.777	3.58
239.16	2.03
239.543	1.32
239.925	1.69
240.308	3.33
240.691	3.21
241.073	0.43
241.456	0.87
241.838	3.29
242.221	2.5
242.603	3.48
242.986	1.27
243.368	1.73
243.75	2.31
244.133	2.58
244.515	2.06
244.897	2.45
245.279	2.56
245.661	2.73
246.043	2.94
246.425	2.13
246.807	1.75
247.189	3.35
247.571	2.09
247.953	2.13
248.335	2.36
248.717	2.22
249.098	2.04
249.48	2.41
249.862	2.4
250.243	2.39
250.625	1.95
251.006	2.46
251.388	1.54
251.769	2.55
252.151	0.99
252.532	2.31
252.913	2.17
253.295	2.61
253.676	1.93
254.057	2.24
254.438	2.2
254.819	2.06
255.2	2.44
255.581	3.09
255.962	1.05
256.343	2.82
256.724	2.1
257.105	2.95
257.486	2.19
257.867	2.08
258.247	2.62
258.628	1.7
259.009	1.87
259.389	2.42
259.77	1.99
260.15	2.52
260.531	2.02
260.911	2.29
261.292	2.14
261.672	2.03
262.052	1.96
262.432	2.08
262.813	2.12
263.193	1.57
263.573	2.11
263.953	1.99
264.333	2.48
264.713	2.08
265.093	2.68
265.473	2.32
265.853	0.9
266.233	2.01
266.612	2.28
266.992	2.49
267.372	1.96
267.752	2.24
268.131	2.36
268.511	1.14
268.89	1.91
269.27	2.4
269.649	2.1
270.029	1.96
270.408	2.2
270.787	1.8
271.167	1.35
271.546	2.41
271.925	1.98
272.304	1.71
272.683	1.95
273.062	1.56
273.441	1.89
273.82	1.74
274.199	1.66
274.578	2.03
274.957	1.6
275.336	2.16
275.715	1.92
276.093	2.39
276.472	2.92
276.851	2.79
277.229	2.03
277.608	1.99
277.986	1.79
278.365	2.08
278.743	2.47
279.122	1.54
279.5	1.68
279.878	1.67
280.257	2.86
280.635	1.61
281.013	2.18
281.391	1.45
281.769	1.61
282.147	2.01
282.525	2.51
282.903	1.66
283.281	1.84
283.659	2.22
284.037	2.03
284.415	2.04
284.792	1.81
285.17	1.98
285.548	1.9
285.925	1.99
286.303	2.32
286.68	2.23
287.058	2.02
287.435	1.81
287.813	2.34
288.19	2.04
288.567	2.28
288.945	2.23
289.322	2.13
289.699	2.09
290.076	2.2
290.453	2.21
290.83	1.86
291.207	1.85
291.584	2.45
291.961	2.14
292.338	2.36
292.715	1.97
293.092	2.24
293.469	2.27
293.845	2.72
294.222	2.73
294.599	1.71
294.975	2.29
295.352	2.25
295.728	1.98
296.105	1.83
296.481	2.07
296.858	2
297.234	1.93
297.61	1.94
297.986	2.28
298.363	2.09
298.739	2.04
299.115	1.95
299.491	2.11
299.867	1.99
300.243	2.23
300.619	2.66
300.995	2.71
301.371	1.71
301.746	2.41
302.122	1.9
302.498	2.33
302.874	1.97
303.249	2.04
303.625	2.1
304	1.99
304.376	2
304.751	2.04
305.127	2.25
305.502	2.49
305.878	2.37
306.253	2.34
306.628	2.04
307.003	1.7
307.378	2.35
307.754	2.74
308.129	2.4
308.504	2.52
308.879	2.62
309.254	1.86
309.629	2.25
310.003	2.28
310.378	2.44
310.753	2.44
311.128	2.29
311.502	2.08
311.877	1.95
312.252	1.93
312.626	2.11
313.001	2.18
313.375	2.26
313.75	2.14
314.124	1.79
314.498	2.69
314.873	2.47
315.247	2.58
315.621	2.02
315.995	2.61
316.369	2.13
316.743	1.58
317.117	1.65
317.491	2.12
317.865	2.46
318.239	2.5
318.613	1.9
318.987	1.85
319.361	1.68
319.734	2.5
320.108	2.19
320.482	2.07
320.855	2.03
321.229	2.27
321.602	1.98
321.976	2.64
322.349	2.28
322.723	2.69
323.096	2.43
323.469	1.88
323.843	1.98
324.216	2.38
324.589	2.67
324.962	2.32
325.335	2.55
325.708	2.51
326.081	2.28
326.454	2.35
326.827	2.13
327.2	1.63
327.573	2.58
327.945	2.65
328.318	2.19
328.691	2.48
329.063	2.6
329.436	2.65
329.809	3.17
330.181	2.25
330.553	1.72
330.926	2.47
331.298	2.05
331.671	2.56
332.043	2.14
332.415	1.96
332.787	1.94
333.159	2.78
333.532	1.41
333.904	1.89
334.276	2.13
334.648	2.39
335.02	2.27
335.391	2.46
335.763	2.29
336.135	2.22
336.507	2.37
336.879	2.42
337.25	2.75
337.622	2.11
337.993	2.51
338.365	2.59
338.736	2.65
339.108	2.59
339.479	1.97
339.851	2.69
340.222	2.74
340.593	1.94
340.964	2.44
341.336	2.18
341.707	3.23
342.078	2.16
342.449	2.19
342.82	2.32
343.191	2.45
343.562	2.15
343.933	2.88
344.303	2.28
344.674	2.55
345.045	2.47
345.416	2.63
345.786	2.97
346.157	2.32
346.527	2.3
346.898	2.56
347.268	2.64
347.639	2.62
348.009	2.43
348.38	2.31
348.75	2.56
349.12	2.76
349.49	2.54
349.861	2.55
350.231	2.34
350.601	2.52
350.971	2.61
351.341	2.33
351.711	2.56
352.081	2.28
352.45	2.01
352.82	2.21
353.19	2.86
353.56	2.63
353.929	2.24
354.299	2.29
354.669	2.41
355.038	2.51
355.408	2.17
355.777	2.08
356.147	1.8
356.516	2.21
356.885	2.14
357.254	2.16
357.624	2.2
357.993	2.5
358.362	2.33
358.731	2.18
359.1	2.62
359.469	2.1
359.838	2.49
360.207	2.6
360.576	2.71
360.945	2.53
361.314	2.55
361.682	2.23
362.051	2.81
362.42	2.47
362.788	2.29
363.157	2.6
363.525	2.54
363.894	2.45
364.262	2.18
364.631	2.56
364.999	2.58
365.367	2.07
365.735	2.34
366.104	2.6
366.472	2.29
366.84	2.43
367.208	2.62
367.576	2.58
367.944	2.66
368.312	2.56
368.68	2.62
369.048	2.34
369.416	2.64
369.783	2.32
370.151	2.37
370.519	2.22
370.886	2.61
371.254	2.87
371.621	2.82
371.989	2.62
372.356	2.9
372.724	2.51
373.091	2.5
373.458	2.57
373.826	2.34
374.193	2.82
374.56	2.56
374.927	2.79
375.294	2.84
375.661	2.53
376.028	2.4
376.395	2.5
376.762	2.36
377.129	2.13
377.496	2.76
377.863	2.63
378.229	2.56
378.596	2.55
378.963	2.7
379.329	2.65
379.696	2.39
380.062	2.61
380.429	2.56
380.795	2.57
381.161	2.49
381.528	2.78
381.894	2.51
382.26	2.35
382.626	2.56
382.993	2.73
383.359	2.69
383.725	2.73
384.091	2.59
384.457	2.64
384.823	2.44
385.188	2.71
385.554	2.63
385.92	2.76
386.286	2.57
386.651	2.64
387.017	2.84
387.383	2.6
387.748	2.9
388.114	2.74
388.479	2.53
388.845	2.68
389.21	2.62
389.575	2.66
389.94	2.48
390.306	2.71
390.671	2.57
391.036	2.54
391.401	2.92
391.766	2.62
392.131	2.65
392.496	2.64
392.861	2.64
393.226	2.75
393.591	2.6
393.956	2.81
394.32	2.74
394.685	2.72
395.05	2.81
395.414	2.7
395.779	2.69
396.143	2.55
396.508	2.73
396.872	2.68
397.236	2.85
397.601	2.7
397.965	2.98
398.329	2.8
398.694	2.63
399.058	2.57
399.422	2.93
399.786	2.99
400.15	2.56
400.514	2.43
400.878	2.69
401.242	2.75
401.605	2.92
401.969	3.01
402.333	2.71
402.697	2.39
403.06	2.73
403.424	2.89
403.787	2.5
404.151	2.71
404.514	2.57
404.878	2.52
405.241	2.83
405.604	2.59
405.968	2.67
406.331	2.49
406.694	2.78
407.057	2.61
407.42	2.67
407.783	2.6
408.146	2.61
408.509	2.62
408.872	2.54
409.235	2.8
409.598	2.97
409.961	2.8
410.323	2.55
410.686	2.71
411.049	2.7
411.411	2.82
411.774	2.7
412.136	2.84
412.499	2.75
412.861	2.56
413.223	2.65
413.586	2.74
413.948	2.76
414.31	2.82
414.672	2.73
415.035	2.74
415.397	3
415.759	2.85
416.121	2.84
416.483	2.78
416.845	2.36
417.206	2.74
417.568	2.75
417.93	2.79
418.292	2.74
418.653	2.71
419.015	2.88
419.377	2.45
419.738	2.79
420.1	2.64
420.461	2.77
420.822	2.78
421.184	2.63
421.545	2.72
421.906	2.74
422.267	2.68
422.629	2.62
422.99	2.75
423.351	2.69
423.712	2.8
424.073	2.68
424.434	2.62
424.795	2.86
425.155	2.64
425.516	2.71
425.877	2.75
426.238	2.73
426.598	2.81
426.959	2.72
427.32	2.74
427.68	2.66
428.041	2.84
428.401	2.74
428.761	2.85
429.122	2.78
429.482	2.85
429.842	2.96
430.202	2.96
430.563	2.85
430.923	2.94
431.283	2.97
431.643	2.95
432.003	2.7
432.363	2.85
432.722	2.87
433.082	2.69
433.442	2.91
433.802	2.86
434.161	2.9
434.521	2.89
434.881	2.7
435.24	2.66
435.6	2.7
435.959	2.73
436.319	2.89
436.678	2.87
437.037	2.96
437.396	2.77
437.756	2.76
438.115	2.9
438.474	2.83
438.833	2.89
439.192	3.1
439.551	2.9
439.91	2.85
440.269	2.87
440.628	2.8
440.987	2.63
441.345	2.77
441.704	2.8
442.063	2.96
442.421	2.65
442.78	2.79
443.138	2.8
443.497	2.88
443.855	2.89
444.214	2.93
444.572	2.8
444.93	2.87
445.288	2.86
445.647	3.07
446.005	2.96
446.363	2.92
446.721	2.73
447.079	2.77
447.437	2.89
447.795	2.84
448.153	2.82
448.51	2.79
448.868	2.87
449.226	2.9
449.584	2.79
449.941	2.9
450.299	2.91
450.656	2.94
451.014	2.93
451.371	2.75
451.729	2.85
452.086	2.97
452.443	2.79
452.801	2.84
453.158	2.9
453.515	2.9
453.872	2.83
454.229	2.95
454.586	2.85
454.943	3.03
455.3	2.92
455.657	2.98
456.014	3.28
456.371	2.85
456.727	2.94
457.084	3.05
457.441	3.07
457.797	2.83
458.154	2.94
458.51	2.96
458.867	3.12
459.223	2.93
459.58	3.01
459.936	2.99
460.292	2.71
460.648	3.01
461.005	2.95
461.361	2.9
461.717	2.88
462.073	2.96
462.429	2.95
462.785	3.03
463.141	3.1
463.496	3
463.852	3.05
464.208	2.97
464.564	3.17
464.919	3.17
465.275	3.06
465.631	2.98
465.986	2.92
466.342	2.86
466.697	3.02
467.052	3.08
467.408	3.13
467.763	3.16
468.118	3.08
468.473	3.08
468.829	2.99
469.184	3.11
469.539	3.01
469.894	3.11
470.249	3.23
470.603	3.09
470.958	3.15
471.313	3.11
471.668	3.14
472.023	3.1
472.377	3.22
472.732	3.19
473.086	2.88
473.441	3.19
473.795	3.22
474.15	3.05
474.504	3.24
474.859	3.28
475.213	3.18
475.567	3
475.921	3.18
476.275	3.1
476.63	3.06
476.984	3.15
477.338	3.15
477.692	3
478.045	3.04
478.399	3.19
478.753	3.22
479.107	3.08
479.461	3.12
479.814	3.05
480.168	3.12
480.521	3
480.875	3.13
481.228	3.26
481.582	3.14
481.935	3.1
482.289	3.2
482.642	2.95
482.995	3.3
483.348	2.91
483.701	3.12
484.055	3.1
484.408	3.01
484.761	3.04
485.114	2.9
485.466	2.84
485.819	2.85
486.172	2.93
486.525	3.01
486.878	3.05
487.23	3.07
487.583	3.1
487.936	3.12
488.288	3.05
488.641	3.05
488.993	2.98
489.345	3
489.698	2.96
490.05	3.06
490.402	2.99
490.754	3.11
491.107	3.2
491.459	3.06
491.811	3.17
492.163	3.18
492.515	3.12
492.866	3.06
493.218	2.96
493.57	2.95
493.922	3.05
494.274	3.13
494.625	3.2
494.977	3.17
495.328	3.36
495.68	3.32
496.031	3.3
496.383	3.38
496.734	3.3
497.086	3.39
497.437	3.46
497.788	3.31
498.139	3.32
498.49	3.16
498.842	3.25
499.193	3.31
499.544	3.21
499.894	3.39
500.245	3.37
500.596	3.3
500.947	3.21
501.298	3.4
501.648	3.48
501.999	3.38
502.35	3.47
502.7	3.36
503.051	3.47
503.401	3.41
503.752	3.29
504.102	3.45
504.452	3.37
504.803	3.34
505.153	3.38
505.503	3.37
505.853	3.47
506.203	3.43
506.553	3.47
506.903	3.49
507.253	3.38
507.603	3.35
507.953	3.43
508.303	3.54
508.652	3.3
509.002	3.46
509.352	3.52
509.701	3.41
510.051	3.4
510.4	3.48
510.75	3.41
511.099	3.43
511.449	3.33
511.798	3.34
512.147	3.43
512.496	3.38
512.846	3.44
513.195	3.34
513.544	3.53
513.893	3.46
514.242	3.44
514.591	3.37
514.939	3.5
515.288	3.63
515.637	3.53
515.986	3.47
516.334	3.45
516.683	3.45
517.032	3.49
517.38	3.59
517.729	3.57
518.077	3.57
518.426	3.73
518.774	3.57
519.122	3.51
519.47	3.47
519.819	3.5
520.167	3.43
520.515	3.44
520.863	3.55
521.211	3.49
521.559	3.59
521.907	3.52
522.255	3.51
522.602	3.54
522.95	3.65
523.298	3.58
523.645	3.56
523.993	3.62
524.341	3.77
524.688	3.64
525.036	3.59
525.383	3.52
525.73	3.73
526.078	3.61
526.425	3.66
526.772	3.62
527.119	3.59
527.466	3.5
527.814	3.62
528.161	3.68
528.508	3.7
528.854	3.69
529.201	3.58
529.548	3.63
529.895	3.51
530.242	3.42
530.588	3.41
530.935	3.49
531.282	3.57
531.628	3.59
531.975	3.62
532.321	3.68
532.667	3.74
533.014	3.65
533.36	3.72
533.706	3.65
534.052	3.64
534.399	3.73
534.745	3.69
535.091	3.61
535.437	3.7
535.783	3.71
536.129	3.77
536.474	3.8
536.82	3.74
537.166	3.86
537.512	3.86
537.857	3.79
538.203	3.74
538.549	3.72
538.894	3.79
539.239	3.91
539.585	3.94
539.93	3.93
540.276	3.92
540.621	3.91
540.966	3.98
541.311	3.96
541.656	3.85
542.001	4.01
542.346	3.81
542.691	3.81
543.036	3.77
543.381	3.79
543.726	3.8
544.071	3.86
544.415	3.97
544.76	3.86
545.105	4
545.449	3.95
545.794	4.07
546.138	4.12
546.483	4.12
546.827	4.16
547.171	4.16
547.516	4.08
547.86	4.04
548.204	4.09
548.548	4.14
548.892	4.02
549.236	4.19
549.58	4.23
549.924	4.3
550.268	4.38
550.612	4.19
550.956	4.41
551.3	4.23
551.643	4.2
551.987	4.41
552.33	4.38
552.674	4.41
553.017	4.37
553.361	4.28
553.704	4.24
554.048	4.51
554.391	4.33
554.734	4.35
555.077	4.32
555.42	4.36
555.764	4.38
556.107	4.43
556.45	4.6
556.793	4.43
557.135	4.49
557.478	4.65
557.821	4.42
558.164	4.59
558.507	4.44
558.849	4.68
559.192	4.7
559.534	4.77
559.877	4.61
560.219	4.57
560.562	4.81
560.904	4.65
561.246	4.66
561.589	4.64
561.931	4.61
562.273	4.74
562.615	4.74
562.957	4.54
563.299	4.49
563.641	4.93
563.983	4.83
564.325	4.65
564.667	4.77
565.008	4.81
565.35	4.93
565.692	4.74
566.033	4.84
566.375	4.95
566.716	4.8
567.058	4.79
567.399	4.57
567.741	4.76
568.082	4.69
568.423	4.86
568.764	4.85
569.105	4.86
569.447	4.82
569.788	4.91
570.129	4.84
570.47	4.65
570.811	4.98
571.151	5.25
571.492	4.95
571.833	4.91
572.174	4.84
572.514	5.08
572.855	4.94
573.195	5.02
573.536	5.16
573.876	4.88
574.217	5.02
574.557	5.08
574.898	4.96
575.238	5.22
575.578	5.07
575.918	5
576.258	5.09
576.598	5.12
576.938	5.26
577.278	5.26
577.618	5.2
577.958	5.26
578.298	5.18
578.638	5.13
578.977	5.4
579.317	5.54
579.657	5.51
579.996	5.25
580.336	5.53
580.675	5.56
581.014	5.44
581.354	5.41
581.693	5.5
582.032	5.51
582.372	5.71
582.711	5.67
583.05	5.35
583.389	5.68
583.728	5.76
584.067	5.52
584.406	5.42
584.745	5.58
585.083	5.51
585.422	5.69
585.761	5.7
586.1	5.75
586.438	5.48
586.777	5.49
587.115	5.86
587.454	5.72
587.792	5.92
588.13	5.75
588.469	5.68
588.807	5.65
589.145	5.7
589.483	5.97
589.821	5.86
590.159	5.87
590.497	5.84
590.835	5.85
591.173	5.96
591.511	6.12
591.849	5.81
592.187	6.09
592.524	6.22
592.862	6.1
593.2	6.23
593.537	6.14
593.875	6.15
594.212	6.11
594.55	6.01
594.887	6.09
595.224	5.71
595.561	6.25
595.899	5.93
596.236	6.04
596.573	6.35
596.91	6.29
597.247	6.12
597.584	6.24
597.921	6.16
598.258	6.08
598.594	6.11
598.931	6.17
599.268	6.12
599.604	6.11
599.941	6.35
600.277	6.41
600.614	6.35
600.95	6.28
601.287	6.28
601.623	6.03
601.959	6.39
602.296	6.27
602.632	6.56
602.968	6.44
603.304	6.63
603.64	6.72
603.976	6.62
604.312	6.51
604.648	6.58
604.984	6.43
605.319	6.71
605.655	6.43
605.991	6.43
606.326	6.72
606.662	6.61
606.998	6.71
607.333	6.6
607.668	6.55
608.004	6.77
608.339	6.85
608.674	6.88
609.01	6.88
609.345	6.86
609.68	6.86
610.015	7.06
610.35	7.04
610.685	6.51
611.02	7
611.355	6.71
611.689	6.75
612.024	6.74
612.359	7.08
612.694	7.29
613.028	7.19
613.363	7.33
613.697	7.49
614.032	7.12
614.366	7.39
614.7	7.24
615.035	7.4
615.369	7.3
615.703	7.21
616.037	7.15
616.371	7.37
616.705	7.39
617.039	7.03
617.373	7.37
617.707	7.63
618.041	7.39
618.375	7.51
618.709	7.5
619.042	7.51
619.376	7.72
619.71	7.7
620.043	7.66
620.377	7.53
620.71	7.37
621.043	8
621.377	7.29
621.71	8.2
622.043	7.52
622.376	7.56
622.709	7.57
623.043	7.38
623.376	7.68
623.709	8.24
624.041	7.91
624.374	7.64
624.707	7.43
625.04	8.31
625.373	8.03
625.705	8.02
626.038	8.03
626.37	7.73
626.703	7.77
627.035	7.96
627.368	8.13
627.7	7.91
628.032	7.85
628.365	7.95
628.697	7.66
629.029	8.04
629.361	8.26
629.693	8.11
630.025	7.95
630.357	8.05
630.689	8.07
631.021	8.26
631.353	8.36
631.684	8.08
632.016	8.64
632.348	8.28
632.679	8.01
633.011	8.29
633.342	8.71
633.674	8.37
634.005	8.26
634.336	8.79
634.668	8.18
634.999	8.41
635.33	8.37
635.661	8.58
635.992	8.57
636.323	8.84
636.654	8.71
636.985	8.82
637.316	8.92
637.647	8.65
637.977	8.83
638.308	8.69
638.639	8.77
638.969	8.92
639.3	8.36
639.63	8.46
639.961	8.96
640.291	8.71
640.622	8.76
640.952	8.6
641.282	8.96
641.612	8.37
641.943	8.98
642.273	9.15
642.603	9.37
642.933	9.07
643.263	8.74
643.592	8.95
643.922	9.33
644.252	9.25
644.582	9.4
644.911	9.3
645.241	9.34
645.571	9.78
645.9	9.14
646.23	9.59
646.559	8.83
646.888	9.14
647.218	9.5
647.547	9.23
647.876	9.28
648.205	9.4
648.534	9.43
648.863	9.34
649.192	9.82
649.521	9.39
649.85	9.24
650.179	9.13
650.508	9.63
650.837	9.48
651.165	9.69
651.494	9.78
651.822	10.02
652.151	9.35
652.479	9.72
652.808	9.63
653.136	9.58
653.465	9.79
653.793	9.54
654.121	9.48
654.449	9.69
654.777	9.85
655.105	9.64
655.433	9.81
655.761	9.94
656.089	10.26
656.417	10.25
656.745	9.92
657.073	9.55
657.4	10.34
657.728	9.9
658.056	10.36
658.383	10.23
658.711	9.66
659.038	9.57
659.365	10.35
659.693	10.07
660.02	10.4
660.347	10.32
660.674	9.86
661.001	10.58
661.329	9.97
661.656	10.43
661.982	10.34
662.309	10.38
662.636	10.59
662.963	10.95
663.29	10.59
663.616	10.69
663.943	10.47
664.27	10.61
664.596	10.67
664.923	11.11
665.249	10.77
665.576	11.13
665.902	10.56
666.228	10.93
666.554	10.4
666.881	10.55
667.207	10.73
667.533	10.31
667.859	10.7
668.185	10.98
668.511	10.48
668.837	11
669.162	11.04
669.488	10.33
669.814	11.01
670.139	10.88
670.465	11.29
670.791	10.8
671.116	11.06
671.442	11.07
671.767	10.87
672.092	10.99
672.418	11
672.743	11.38
673.068	11.03
673.393	11.06
673.718	10.68
674.043	11.47
674.368	11.28
674.693	11.37
675.018	11.28
675.343	12.09
675.667	11.83
675.992	11.77
676.317	10.99
676.641	11
676.966	11.7
677.29	11.61
677.615	11.49
677.939	11.57
678.264	11.29
678.588	12.03
678.912	11.12
679.236	11.67
679.56	11.37
679.885	11.67
680.209	11.53
680.532	11.86
680.856	11.77
681.18	11.99
681.504	12.12
681.828	12.1
682.152	12.25
682.475	11.78
682.799	11.7
683.122	11.97
683.446	11.56
683.769	12
684.093	12.07
684.416	12.22
684.739	12.33
685.062	11.71
685.386	12.56
685.709	11.96
686.032	12.56
686.355	12.05
686.678	12.31
687.001	12.19
687.324	12.29
687.646	12.5
687.969	12.07
688.292	12.7
688.614	12.39
688.937	11.77
689.26	12.64
689.582	12.32
689.904	12.94
690.227	12.51
690.549	12.45
690.871	13.32
