Data from 97277_forehead_Reflection__4__85.txt Node

Date: Fri Sep 23 20:19:54 CDT 2022
User: ToomeyLab
Spectrometer: FLMS14357
Trigger mode: 0
Integration Time (sec): 1.000000E-2
Scans to average: 100
Electric dark correction enabled: true
Nonlinearity correction enabled: false
Boxcar width: 0
XAxis mode: Wavelengths
Number of Pixels in Spectrum: 2048
>>>>>Begin Spectral Data<<<<<
189.047	-477.12
189.435	-477.12
189.823	-477.12
190.211	24.46
190.599	-137.62
190.987	70.82
191.375	51.81
191.763	78.62
192.151	6.38
192.538	115.93
192.926	-758.88
193.314	-38.2
193.702	67.57
194.089	-19.32
194.477	156.54
194.864	-116.79
195.252	15.88
195.639	202.86
196.027	117.48
196.414	20.4
196.801	151.6
197.189	27.79
197.576	-192
197.963	-24.51
198.351	28.33
198.738	-27.3
199.125	34.08
199.512	-2.02
199.899	32.33
200.286	0.57
200.673	1.14
201.06	37.81
201.447	30.55
201.833	-2.64
202.22	1.6
202.607	46.65
202.994	17.62
203.38	-0.4
203.767	-0.02
204.154	49.42
204.54	17.67
204.927	21.4
205.313	37.86
205.699	-4.87
206.086	-3.87
206.472	28.3
206.858	51.41
207.245	17
207.631	31.39
208.017	25.66
208.403	34.33
208.789	26.9
209.175	31.47
209.561	0.95
209.947	10.96
210.333	-13.22
210.719	-4.78
211.105	21.62
211.491	-26.53
211.876	24.95
212.262	-2.54
212.648	-1.86
213.034	-41.65
213.419	-78.01
213.805	12.4
214.19	0.23
214.576	31.37
214.961	18.67
215.346	-20.25
215.732	4.89
216.117	-19.1
216.502	-16.5
216.888	-4.03
217.273	-1.71
217.658	-37.05
218.043	-17.22
218.428	6.26
218.813	18.49
219.198	-3.2
219.583	5.4
219.968	12.99
220.353	-8.03
220.738	9.97
221.122	10.9
221.507	9.73
221.892	1.95
222.276	6.12
222.661	2.61
223.046	5.63
223.43	4.44
223.815	15.73
224.199	7.25
224.583	8.46
224.968	-7.18
225.352	3.64
225.736	5.74
226.121	9.82
226.505	2.65
226.889	1.45
227.273	1.44
227.657	0.36
228.041	2.77
228.425	1.31
228.809	0.14
229.193	0.47
229.577	3.71
229.961	3.36
230.344	3.37
230.728	2.37
231.112	1.49
231.495	1.74
231.879	0.79
232.263	2.63
232.646	3.09
233.03	2.44
233.413	3.25
233.797	3.13
234.18	4.56
234.563	1.37
234.946	3.92
235.33	1.96
235.713	3.44
236.096	0.99
236.479	2.11
236.862	3.06
237.245	4.01
237.628	3.44
238.011	4.73
238.394	1.98
238.777	4.19
239.16	2.54
239.543	2
239.925	2.79
240.308	4.18
240.691	3.45
241.073	2.02
241.456	2.11
241.838	3.81
242.221	3.47
242.603	3.05
242.986	1.63
243.368	2.49
243.75	2.91
244.133	3.26
244.515	2.65
244.897	3.13
245.279	2.83
245.661	3.26
246.043	3.92
246.425	2.52
246.807	2.34
247.189	3.54
247.571	2.87
247.953	2.66
248.335	3.14
248.717	2.9
249.098	2.66
249.48	2.62
249.862	2.9
250.243	3.28
250.625	2.43
251.006	3.47
251.388	2.91
251.769	3.19
252.151	1.75
252.532	3.8
252.913	3.1
253.295	2.77
253.676	3.23
254.057	3.15
254.438	2.92
254.819	3.35
255.2	3.32
255.581	4.21
255.962	3.49
256.343	3.76
256.724	3.34
257.105	3.63
257.486	2.38
257.867	3.45
258.247	2.82
258.628	3.13
259.009	2.26
259.389	3.33
259.77	2.45
260.15	2.48
260.531	2.7
260.911	3.03
261.292	2.84
261.672	2.67
262.052	2.78
262.432	2.54
262.813	2.82
263.193	2.86
263.573	2.93
263.953	2.63
264.333	2.9
264.713	2.62
265.093	2.86
265.473	3.34
265.853	1.78
266.233	2.2
266.612	2.82
266.992	3.36
267.372	2.5
267.752	3.06
268.131	3.12
268.511	2.56
268.89	2.26
269.27	2.71
269.649	2.5
270.029	2.75
270.408	2.87
270.787	2.6
271.167	2.82
271.546	2.67
271.925	2.44
272.304	3.17
272.683	2.57
273.062	2.34
273.441	2.66
273.82	2.77
274.199	1.99
274.578	2.32
274.957	2.57
275.336	2.79
275.715	2.59
276.093	3.49
276.472	3.51
276.851	2.81
277.229	2.23
277.608	2.11
277.986	2.39
278.365	2.75
278.743	3
279.122	2.27
279.5	2.18
279.878	3.09
280.257	3.27
280.635	2.14
281.013	2.86
281.391	2.56
281.769	2.69
282.147	2.2
282.525	2.87
282.903	2.65
283.281	2.87
283.659	2.66
284.037	2.13
284.415	2.55
284.792	2.56
285.17	2.47
285.548	2.22
285.925	2.75
286.303	3.1
286.68	2.86
287.058	2.68
287.435	2.5
287.813	2.92
288.19	2.66
288.567	2.97
288.945	2.54
289.322	2.99
289.699	2.46
290.076	2.87
290.453	2.58
290.83	2.66
291.207	2.42
291.584	2.93
291.961	3.1
292.338	3.09
292.715	2.61
293.092	2.79
293.469	2.64
293.845	3.7
294.222	3.31
294.599	2.56
294.975	3.43
295.352	3.08
295.728	3.26
296.105	2.96
296.481	3.18
296.858	3.08
297.234	3.3
297.61	2.98
297.986	3.35
298.363	3.15
298.739	3.16
299.115	3.18
299.491	3.26
299.867	3.16
300.243	3.29
300.619	3.64
300.995	3.7
301.371	3.12
301.746	3.65
302.122	3.46
302.498	4.1
302.874	3.06
303.249	3.58
303.625	3.44
304	3.77
304.376	3.82
304.751	3.35
305.127	3.78
305.502	4.06
305.878	3.48
306.253	3.7
306.628	3.64
307.003	3.46
307.378	4.44
307.754	4.52
308.129	3.85
308.504	4.13
308.879	4.5
309.254	4.18
309.629	4.28
310.003	4.51
310.378	4.47
310.753	4.14
311.128	3.8
311.502	3.99
311.877	4.07
312.252	3.95
312.626	4.03
313.001	4.34
313.375	4.28
313.75	4.04
314.124	4.09
314.498	4.37
314.873	4.64
315.247	4.59
315.621	4.96
315.995	5.33
316.369	4.71
316.743	4.64
317.117	4.23
317.491	4.89
317.865	4.69
318.239	5.22
318.613	4.69
318.987	4.82
319.361	4.24
319.734	5.02
320.108	4.81
320.482	4.7
320.855	4.7
321.229	4.96
321.602	4.78
321.976	5.73
322.349	5.21
322.723	5.01
323.096	5.55
323.469	5.14
323.843	4.91
324.216	5.82
324.589	5.46
324.962	5.22
325.335	5.28
325.708	5.43
326.081	5.27
326.454	5.46
326.827	5.32
327.2	5.16
327.573	5.3
327.945	5.82
328.318	4.73
328.691	5.75
329.063	5.87
329.436	5.4
329.809	6.23
330.181	5.83
330.553	5.34
330.926	5.82
331.298	6.34
331.671	6.27
332.043	5.69
332.415	5.68
332.787	5.62
333.159	6.18
333.532	5.75
333.904	5.6
334.276	5.56
334.648	6
335.02	6.41
335.391	6.24
335.763	5.52
336.135	6.33
336.507	5.92
336.879	6.19
337.25	5.74
337.622	6.05
337.993	6.27
338.365	6.11
338.736	6.51
339.108	6.56
339.479	5.89
339.851	6.42
340.222	6.6
340.593	6.16
340.964	6.59
341.336	6.34
341.707	6.93
342.078	6.12
342.449	6.47
342.82	6.26
343.191	6.19
343.562	6.48
343.933	6.9
344.303	6.68
344.674	6.63
345.045	6.91
345.416	6.61
345.786	6.79
346.157	6.54
346.527	6.18
346.898	6.33
347.268	6.52
347.639	6.67
348.009	6.59
348.38	6.72
348.75	6.71
349.12	7.14
349.49	7.1
349.861	6.95
350.231	6.83
350.601	6.64
350.971	7.07
351.341	6.77
351.711	7.09
352.081	6.73
352.45	6.83
352.82	6.8
353.19	7.13
353.56	7.2
353.929	6.92
354.299	7.09
354.669	6.92
355.038	7.59
355.408	7.08
355.777	7.12
356.147	6.93
356.516	6.95
356.885	7.13
357.254	7.15
357.624	6.84
357.993	7.24
358.362	7.24
358.731	7.23
359.1	7.2
359.469	7.09
359.838	7.46
360.207	7.47
360.576	7.58
360.945	7.26
361.314	7.64
361.682	7.32
362.051	7.68
362.42	7.7
362.788	7.79
363.157	7.76
363.525	7.46
363.894	7.57
364.262	7.46
364.631	7.65
364.999	7.72
365.367	7.83
365.735	7.81
366.104	8.16
366.472	7.69
366.84	7.77
367.208	7.63
367.576	8.21
367.944	8
368.312	7.96
368.68	7.85
369.048	7.83
369.416	7.67
369.783	7.97
370.151	8.25
370.519	7.93
370.886	8.21
371.254	8.62
371.621	8.27
371.989	8.1
372.356	8.52
372.724	8
373.091	8.39
373.458	8.11
373.826	8.19
374.193	8.54
374.56	8.22
374.927	8.55
375.294	8.73
375.661	8.41
376.028	8.63
376.395	8.16
376.762	8.08
377.129	8.37
377.496	8.69
377.863	8.43
378.229	8.37
378.596	8.62
378.963	8.65
379.329	8.76
379.696	8.59
380.062	8.44
380.429	8.71
380.795	8.48
381.161	8.87
381.528	8.6
381.894	8.56
382.26	8.66
382.626	8.59
382.993	8.92
383.359	8.9
383.725	9.16
384.091	8.77
384.457	8.94
384.823	8.91
385.188	9.1
385.554	9.13
385.92	9.04
386.286	8.85
386.651	9.35
387.017	9.16
387.383	9.06
387.748	9.24
388.114	9.03
388.479	9.01
388.845	9.04
389.21	9.28
389.575	8.99
389.94	8.69
390.306	9.17
390.671	8.93
391.036	9.34
391.401	9.26
391.766	9.35
392.131	9.31
392.496	9.29
392.861	9.33
393.226	9.14
393.591	9.24
393.956	9.48
394.32	9.63
394.685	9.51
395.05	9.48
395.414	9.37
395.779	9.25
396.143	9.32
396.508	9.44
396.872	9.43
397.236	9.65
397.601	9.55
397.965	9.8
398.329	9.76
398.694	9.61
399.058	9.7
399.422	9.84
399.786	9.8
400.15	9.81
400.514	9.76
400.878	9.79
401.242	9.69
401.605	10.14
401.969	9.9
402.333	9.6
402.697	9.59
403.06	10.03
403.424	9.76
403.787	9.83
404.151	9.82
404.514	9.84
404.878	9.84
405.241	9.81
405.604	9.7
405.968	9.7
406.331	9.66
406.694	9.82
407.057	9.76
407.42	10.1
407.783	9.77
408.146	9.83
408.509	10.1
408.872	9.76
409.235	10.11
409.598	10.26
409.961	10.28
410.323	10.03
410.686	9.87
411.049	10.07
411.411	10.05
411.774	10.04
412.136	10.08
412.499	10.04
412.861	9.94
413.223	10.06
413.586	10.18
413.948	10.16
414.31	10.31
414.672	10.27
415.035	10.14
415.397	10.64
415.759	10.5
416.121	10.47
416.483	10.19
416.845	10.3
417.206	10.23
417.568	10.17
417.93	10.32
418.292	10.4
418.653	10.29
419.015	10.46
419.377	10.16
419.738	10.28
420.1	10.32
420.461	10.26
420.822	10.4
421.184	10.23
421.545	10.5
421.906	10.41
422.267	10.32
422.629	10.19
422.99	10.33
423.351	10.44
423.712	10.43
424.073	10.44
424.434	10.65
424.795	10.74
425.155	10.59
425.516	10.58
425.877	10.58
426.238	10.7
426.598	10.62
426.959	10.73
427.32	10.85
427.68	10.87
428.041	11.04
428.401	11.08
428.761	11.1
429.122	11.15
429.482	11.25
429.842	11.44
430.202	11.3
430.563	11.28
430.923	11.47
431.283	11.51
431.643	11.4
432.003	11.3
432.363	11.51
432.722	11.6
433.082	11.65
433.442	11.41
433.802	11.29
434.161	11.46
434.521	11.38
434.881	11.41
435.24	11.47
435.6	11.6
435.959	11.62
436.319	11.72
436.678	11.74
437.037	11.96
437.396	11.76
437.756	11.96
438.115	11.77
438.474	11.74
438.833	12.05
439.192	12.19
439.551	12.09
439.91	11.89
440.269	12.05
440.628	11.98
440.987	11.99
441.345	11.96
441.704	11.9
442.063	12.1
442.421	12.02
442.78	12.05
443.138	11.97
443.497	12.26
443.855	12.26
444.214	12.49
444.572	12.32
444.93	12.36
445.288	12.38
445.647	12.58
446.005	12.42
446.363	12.42
446.721	12.34
447.079	12.38
447.437	12.36
447.795	12.26
448.153	12.2
448.51	12.38
448.868	12.49
449.226	12.52
449.584	12.46
449.941	12.7
450.299	12.85
450.656	12.82
451.014	12.99
451.371	12.83
451.729	12.94
452.086	13.44
452.443	13.05
452.801	13.06
453.158	13.19
453.515	13.09
453.872	13.07
454.229	13.15
454.586	13.06
454.943	13.12
455.3	13.25
455.657	13.25
456.014	13.61
456.371	13.4
456.727	13.41
457.084	13.45
457.441	13.59
457.797	13.51
458.154	13.5
458.51	13.48
458.867	13.74
459.223	13.76
459.58	13.64
459.936	13.61
460.292	13.46
460.648	13.62
461.005	13.54
461.361	13.26
461.717	13.37
462.073	13.37
462.429	13.63
462.785	13.79
463.141	13.87
463.496	13.94
463.852	14.18
464.208	14.11
464.564	14.13
464.919	14.1
465.275	14.21
465.631	14.1
465.986	13.95
466.342	14.14
466.697	13.99
467.052	14.36
467.408	14.31
467.763	14.33
468.118	14.33
468.473	14.3
468.829	14.36
469.184	14.41
469.539	14.37
469.894	14.5
470.249	14.56
470.603	14.72
470.958	14.55
471.313	14.63
471.668	14.73
472.023	14.54
472.377	14.52
472.732	14.71
473.086	14.74
473.441	14.73
473.795	14.86
474.15	14.73
474.504	14.78
474.859	14.78
475.213	14.78
475.567	14.92
475.921	15.15
476.275	14.96
476.63	14.99
476.984	15.29
477.338	15.08
477.692	15.15
478.045	14.93
478.399	14.94
478.753	15.23
479.107	14.96
479.461	15.04
479.814	14.99
480.168	15.07
480.521	15.23
480.875	15.15
481.228	15.39
481.582	15.3
481.935	15.44
482.289	15.38
482.642	15.4
482.995	15.44
483.348	15.26
483.701	15.22
484.055	15.13
484.408	15.04
484.761	14.86
485.114	14.54
485.466	14.35
485.819	14.33
486.172	14.64
486.525	14.98
486.878	15.2
487.23	15.27
487.583	15.36
487.936	15.36
488.288	15.25
488.641	14.96
488.993	14.86
489.345	14.87
489.698	14.94
490.05	15.12
490.402	15.24
490.754	15.54
491.107	15.69
491.459	15.73
491.811	15.8
492.163	15.85
492.515	15.69
492.866	15.46
493.218	15.09
493.57	15.06
493.922	15.42
494.274	15.8
494.625	15.92
494.977	16.1
495.328	16.17
495.68	16.36
496.031	16.32
496.383	16.43
496.734	16.41
497.086	16.5
497.437	16.62
497.788	16.4
498.139	16.41
498.49	16.22
498.842	16.19
499.193	16.42
499.544	16.36
499.894	16.55
500.245	16.59
500.596	16.59
500.947	16.61
501.298	16.85
501.648	16.96
501.999	16.85
502.35	16.88
502.7	16.9
503.051	16.86
503.401	16.94
503.752	16.88
504.102	16.93
504.452	17.03
504.803	17.05
505.153	17.08
505.503	16.86
505.853	17.05
506.203	17.05
506.553	17.03
506.903	17.17
507.253	17.17
507.603	17.16
507.953	17.19
508.303	17.13
508.652	17.11
509.002	17.38
509.352	17.39
509.701	17.17
510.051	17.11
510.4	17.28
510.75	17.09
511.099	17.19
511.449	17.12
511.798	17.36
512.147	17.36
512.496	17.31
512.846	17.33
513.195	17.33
513.544	17.4
513.893	17.36
514.242	17.32
514.591	17.52
514.939	17.62
515.288	17.45
515.637	17.56
515.986	17.72
516.334	17.65
516.683	17.74
517.032	17.81
517.38	17.97
517.729	17.76
518.077	17.81
518.426	17.89
518.774	17.74
519.122	17.66
519.47	17.59
519.819	17.47
520.167	17.34
520.515	17.3
520.863	17.53
521.211	17.67
521.559	17.68
521.907	17.74
522.255	17.89
522.602	17.92
522.95	17.93
523.298	18.04
523.645	18
523.993	18.04
524.341	18.08
524.688	18.04
525.036	18.2
525.383	18.09
525.73	18.33
526.078	18.1
526.425	18.11
526.772	17.93
527.119	17.8
527.466	17.56
527.814	17.77
528.161	18
528.508	18
528.854	18
529.201	17.85
529.548	17.72
529.895	17.46
530.242	17.02
530.588	17.1
530.935	17.49
531.282	17.79
531.628	17.98
531.975	18.09
532.321	18.21
532.667	18.34
533.014	18.29
533.36	18.4
533.706	18.34
534.052	18.24
534.399	18.05
534.745	17.82
535.091	17.65
535.437	17.76
535.783	18.15
536.129	18.44
536.474	18.56
536.82	18.75
537.166	18.75
537.512	18.6
537.857	18.6
538.203	18.44
538.549	18.19
538.894	18.52
539.239	18.7
539.585	18.83
539.93	19
540.276	19.13
540.621	19.04
540.966	19.18
541.311	19.06
541.656	19
542.001	19.02
542.346	18.63
542.691	18.32
543.036	18.07
543.381	18.16
543.726	18.39
544.071	18.67
544.415	18.92
544.76	18.92
545.105	18.89
545.449	19.01
545.794	19.23
546.138	19.28
546.483	19.35
546.827	19.42
547.171	19.36
547.516	19.4
547.86	19.32
548.204	19.39
548.548	19.19
548.892	19.17
549.236	19.48
549.58	19.66
549.924	19.97
550.268	19.82
550.612	20.04
550.956	19.99
551.3	20.04
551.643	20.01
551.987	20.09
552.33	20.11
552.674	20.12
553.017	20.04
553.361	20.04
553.704	19.98
554.048	19.8
554.391	19.77
554.734	19.97
555.077	20.07
555.42	19.91
555.764	20.13
556.107	20.44
556.45	20.32
556.793	20.21
557.135	20.45
557.478	20.49
557.821	20.44
558.164	20.63
558.507	20.51
558.849	20.81
559.192	20.58
559.534	20.65
559.877	20.59
560.219	20.64
560.562	20.73
560.904	20.59
561.246	20.65
561.589	20.87
561.931	20.74
562.273	20.7
562.615	20.67
562.957	20.58
563.299	20.71
563.641	20.9
563.983	20.86
564.325	20.77
564.667	20.84
565.008	20.79
565.35	20.9
565.692	20.99
566.033	21.14
566.375	21.05
566.716	21.04
567.058	21.04
567.399	20.56
567.741	20.79
568.082	20.74
568.423	20.69
568.764	20.76
569.105	20.95
569.447	20.93
569.788	21.1
570.129	21.16
570.47	21.11
570.811	21.25
571.151	21.13
571.492	21.16
571.833	21.1
572.174	21.12
572.514	21.25
572.855	21.18
573.195	21.23
573.536	21.11
573.876	20.99
574.217	20.98
574.557	21.31
574.898	21.25
575.238	21.47
575.578	21.51
575.918	21.42
576.258	21.33
576.598	21.33
576.938	21.33
577.278	21.37
577.618	21.34
577.958	21.6
578.298	21.53
578.638	21.65
578.977	21.72
579.317	21.85
579.657	21.83
579.996	21.58
580.336	21.8
580.675	21.98
581.014	21.98
581.354	21.95
581.693	21.98
582.032	21.95
582.372	22.17
582.711	22.27
583.05	21.92
583.389	22.28
583.728	22.14
584.067	22.14
584.406	21.96
584.745	22.15
585.083	22.25
585.422	22.22
585.761	22.16
586.1	22.47
586.438	22.19
586.777	22.24
587.115	22.19
587.454	22.47
587.792	22.53
588.13	22.3
588.469	22.29
588.807	22.34
589.145	22.57
589.483	22.38
589.821	22.4
590.159	22.39
590.497	22.24
590.835	22.34
591.173	22.5
591.511	22.41
591.849	22.34
592.187	22.76
592.524	22.62
592.862	23.01
593.2	23.04
593.537	22.86
593.875	22.73
594.212	22.78
594.55	22.72
594.887	22.7
595.224	22.84
595.561	22.84
595.899	22.61
596.236	22.4
596.573	22.66
596.91	22.74
597.247	22.55
597.584	22.66
597.921	22.78
598.258	22.41
598.594	22.47
598.931	22.61
599.268	22.59
599.604	22.76
599.941	23.12
600.277	23.17
600.614	23.23
600.95	23.17
601.287	23.33
601.623	23.13
601.959	23.18
602.296	22.92
602.632	23.06
602.968	23.09
603.304	23.29
603.64	23.41
603.976	23.1
604.312	23.22
604.648	23.24
604.984	23.14
605.319	22.81
605.655	23.11
605.991	23.07
606.326	22.97
606.662	23.09
606.998	23.19
607.333	23.16
607.668	23.33
608.004	23.6
608.339	23.53
608.674	23.8
609.01	23.58
609.345	23.78
609.68	23.62
610.015	23.64
610.35	23.77
610.685	23.03
611.02	23.01
611.355	23.18
611.689	23.45
612.024	23.59
612.359	23.67
612.694	24.09
613.028	23.93
613.363	24.01
613.697	23.98
614.032	24.09
614.366	23.92
614.7	24.1
615.035	24.18
615.369	24.43
615.703	23.82
616.037	24.12
616.371	24.34
616.705	24.13
617.039	24.17
617.373	24.49
617.707	24.45
618.041	24.44
618.375	24.41
618.709	24.05
619.042	24.35
619.376	24.64
619.71	24.3
620.043	24.13
620.377	24.13
620.71	24.37
621.043	24.27
621.377	24.03
621.71	24.5
622.043	24.42
622.376	24.65
622.709	24.54
623.043	24.3
623.376	24.7
623.709	25.04
624.041	24.54
624.374	24.21
624.707	24.72
625.04	25.1
625.373	24.86
625.705	24.38
626.038	24.37
626.37	24.63
626.703	24.48
627.035	24.94
627.368	24.54
627.7	24.66
628.032	24.26
628.365	24.36
628.697	24.54
629.029	24.61
629.361	24.77
629.693	24.51
630.025	25.05
630.357	24.84
630.689	24.91
631.021	24.64
631.353	25.13
631.684	24.99
632.016	24.93
632.348	24.73
632.679	24.93
633.011	24.76
633.342	24.94
633.674	25.39
634.005	25.17
634.336	25.33
634.668	25.39
634.999	25.06
635.33	25.04
635.661	24.93
635.992	25.01
636.323	24.77
636.654	25.21
636.985	25.23
637.316	25.16
637.647	25.35
637.977	25.91
638.308	25.37
638.639	25.16
638.969	25.64
639.3	25.53
639.63	25.21
639.961	25.49
640.291	25.58
640.622	25.73
640.952	25.54
641.282	25.56
641.612	25.46
641.943	25.61
642.273	25.9
642.603	26.01
642.933	25.77
643.263	25.27
643.592	25.88
643.922	25.77
644.252	26.06
644.582	25.89
644.911	25.73
645.241	25.83
645.571	25.76
645.9	25.98
646.23	26.16
646.559	25.99
646.888	26.18
647.218	26.3
647.547	25.54
647.876	25.81
648.205	25.96
648.534	26.41
648.863	26.05
649.192	26.77
649.521	25.58
649.85	25.66
650.179	25.92
650.508	26.25
650.837	26.48
651.165	26.1
651.494	26.23
651.822	26.17
652.151	26.46
652.479	26.07
652.808	26.49
653.136	25.9
653.465	26.06
653.793	26.36
654.121	26
654.449	26.18
654.777	26.41
655.105	26.23
655.433	26.27
655.761	26.5
656.089	26.99
656.417	26.49
656.745	26.73
657.073	26.27
657.4	26.82
657.728	26.27
658.056	26.53
658.383	27.11
658.711	26.61
659.038	26.54
659.365	25.9
659.693	26.15
660.02	26.3
660.347	26.49
660.674	25.98
661.001	26.37
661.329	26.44
661.656	26.78
661.982	26.5
662.309	26.58
662.636	26.42
662.963	27.19
663.29	27.45
663.616	26.93
663.943	27.56
664.27	27.2
664.596	26.9
664.923	27.43
665.249	26.64
665.576	27.2
665.902	26.28
666.228	27.17
666.554	26.92
666.881	26.95
667.207	27.09
667.533	27.35
667.859	26.85
668.185	27.23
668.511	26.75
668.837	27.81
669.162	26.92
669.488	26.67
669.814	27.25
670.139	27.25
670.465	27.11
670.791	27.11
671.116	27.49
671.442	27.54
671.767	26.96
672.092	27.23
672.418	27.92
672.743	27.4
673.068	27.18
673.393	27.33
673.718	26.52
674.043	27.82
674.368	27.36
674.693	27.44
675.018	27.54
675.343	28
