Data from 97277_crown_Reflection__3__89.txt Node

Date: Fri Sep 23 20:20:56 CDT 2022
User: ToomeyLab
Spectrometer: FLMS14357
Trigger mode: 0
Integration Time (sec): 1.000000E-2
Scans to average: 100
Electric dark correction enabled: true
Nonlinearity correction enabled: false
Boxcar width: 0
XAxis mode: Wavelengths
Number of Pixels in Spectrum: 2048
>>>>>Begin Spectral Data<<<<<
189.047	-20.52
189.435	-20.52
189.823	-20.52
190.211	-90.13
190.599	-37.17
190.987	10.98
191.375	-29.79
191.763	60.65
192.151	-57.8
192.538	212.33
192.926	-178.88
193.314	175.12
193.702	109.19
194.089	22.58
194.477	92.53
194.864	-22.07
195.252	47.5
195.639	564.44
196.027	86.73
196.414	137.75
196.801	70.05
197.189	66.1
197.576	-128.25
197.963	8.93
198.351	68.4
198.738	-29.07
199.125	28.79
199.512	37.02
199.899	16.02
200.286	-11.98
200.673	28.3
201.06	-1.94
201.447	46.89
201.833	55.15
202.22	11.05
202.607	20.66
202.994	17.66
203.38	-20.53
203.767	-39.45
204.154	14.81
204.54	18.96
204.927	11.4
205.313	35.09
205.699	-11.17
206.086	13.94
206.472	34.26
206.858	34.65
207.245	30.52
207.631	13.15
208.017	9.38
208.403	26.48
208.789	32.4
209.175	2.8
209.561	30.75
209.947	8.07
210.333	-3.41
210.719	-4.11
211.105	17.02
211.491	32.16
211.876	14.68
212.262	-14.06
212.648	-16.94
213.034	-12.94
213.419	16.98
213.805	31
214.19	-34.57
214.576	3.89
214.961	19.47
215.346	-1.08
215.732	29.25
216.117	20.15
216.502	20.28
216.888	21
217.273	40.7
217.658	-3.14
218.043	3.36
218.428	21.34
218.813	31.89
219.198	10.15
219.583	24.87
219.968	34.56
220.353	12.42
220.738	3.32
221.122	3.37
221.507	1.81
221.892	14.45
222.276	-4.09
222.661	-5.37
223.046	-3.71
223.43	0.87
223.815	15.49
224.199	10.17
224.583	5.63
224.968	6.81
225.352	9.3
225.736	6.42
226.121	10.85
226.505	8.52
226.889	3.57
227.273	7.63
227.657	-0.05
228.041	5.31
228.425	3.61
228.809	6.13
229.193	4.48
229.577	7.25
229.961	7.5
230.344	6.08
230.728	6.18
231.112	6.51
231.495	6.1
231.879	5.47
232.263	7.14
232.646	7.5
233.03	5.7
233.413	6.75
233.797	7.27
234.18	8.08
234.563	7.57
234.946	7.58
235.33	6.36
235.713	6.4
236.096	4.57
236.479	5.66
236.862	7.68
237.245	8.51
237.628	8.35
238.011	8.24
238.394	5.59
238.777	6.88
239.16	7.08
239.543	7.02
239.925	6.33
240.308	7.55
240.691	8.08
241.073	5.21
241.456	6.36
241.838	7.37
242.221	7.49
242.603	7.2
242.986	5.88
243.368	5.93
243.75	6.37
244.133	6.29
244.515	5.82
244.897	6.12
245.279	6.69
245.661	6.84
246.043	7.48
246.425	6.79
246.807	5.55
247.189	6.32
247.571	5.72
247.953	6.25
248.335	6.28
248.717	6.27
249.098	5.96
249.48	6.06
249.862	5.86
250.243	6.18
250.625	6.11
251.006	6.65
251.388	6.84
251.769	6.75
252.151	4.86
252.532	6.47
252.913	7.02
253.295	6.89
253.676	6.63
254.057	6.23
254.438	5.76
254.819	6.03
255.2	6
255.581	8.04
255.962	6.2
256.343	6.02
256.724	5.65
257.105	7.33
257.486	5.58
257.867	6.82
258.247	6.34
258.628	5.52
259.009	5.08
259.389	5.64
259.77	4.93
260.15	6.03
260.531	6.02
260.911	5.64
261.292	5.87
261.672	5.6
262.052	5.52
262.432	5.4
262.813	5.64
263.193	6.29
263.573	5.74
263.953	5.69
264.333	5.82
264.713	5.89
265.093	5.94
265.473	5.38
265.853	5.24
266.233	5.06
266.612	5.51
266.992	6.14
267.372	5.39
267.752	5.62
268.131	5.93
268.511	5.32
268.89	5.41
269.27	5.51
269.649	5.49
270.029	5.33
270.408	5.93
270.787	5.49
271.167	5.77
271.546	5.66
271.925	5.17
272.304	5.97
272.683	5.45
273.062	5.45
273.441	5.36
273.82	5.34
274.199	5.15
274.578	4.9
274.957	5.57
275.336	5.09
275.715	5.03
276.093	5.61
276.472	5.79
276.851	5.78
277.229	5.34
277.608	5.61
277.986	5.01
278.365	5.55
278.743	6.11
279.122	4.95
279.5	5.21
279.878	5.16
280.257	5.56
280.635	5.17
281.013	5.44
281.391	5.26
281.769	5.29
282.147	5.52
282.525	5.28
282.903	5.42
283.281	5.27
283.659	5.06
284.037	5.12
284.415	5.3
284.792	5.16
285.17	5.02
285.548	4.97
285.925	5.55
286.303	5.68
286.68	5.14
287.058	4.93
287.435	5.02
287.813	5.65
288.19	5.23
288.567	5.35
288.945	5.37
289.322	5.34
289.699	5.2
290.076	5.11
290.453	5.28
290.83	5.13
291.207	5.03
291.584	5.25
291.961	4.86
292.338	5.2
292.715	5.29
293.092	4.98
293.469	5.06
293.845	5.4
294.222	5.37
294.599	4.74
294.975	5
295.352	5.54
295.728	5.16
296.105	5.43
296.481	4.56
296.858	4.92
297.234	4.81
297.61	4.67
297.986	4.91
298.363	4.91
298.739	5.01
299.115	4.9
299.491	4.71
299.867	4.61
300.243	4.98
300.619	5.21
300.995	5.21
301.371	4.87
301.746	5.07
302.122	4.71
302.498	4.59
302.874	4.49
303.249	5
303.625	4.87
304	4.67
304.376	4.88
304.751	4.63
305.127	5
305.502	5.23
305.878	4.77
306.253	4.88
306.628	4.32
307.003	4.12
307.378	4.81
307.754	5.08
308.129	4.61
308.504	4.99
308.879	5.27
309.254	4.77
309.629	5.11
310.003	4.76
310.378	4.95
310.753	4.68
311.128	4.42
311.502	4.83
311.877	4.74
312.252	4.88
312.626	4.69
313.001	4.91
313.375	4.88
313.75	4.43
314.124	4.39
314.498	4.84
314.873	5.2
315.247	5.13
315.621	4.79
315.995	5.16
316.369	4.74
316.743	4.26
317.117	4
317.491	4.83
317.865	4.86
318.239	5.66
318.613	4.35
318.987	4.2
319.361	4.43
319.734	4.66
320.108	4.3
320.482	4.44
320.855	4.51
321.229	4.7
321.602	4.55
321.976	4.9
322.349	4.45
322.723	4.99
323.096	5.39
323.469	4.56
323.843	4.14
324.216	4.98
324.589	4.68
324.962	4.54
325.335	4.44
325.708	4.57
326.081	4.47
326.454	4.44
326.827	4.7
327.2	4.28
327.573	4.63
327.945	4.73
328.318	4.36
328.691	4.75
329.063	4.43
329.436	4.47
329.809	5.18
330.181	4.69
330.553	3.98
330.926	4.55
331.298	4.63
331.671	5.05
332.043	4.65
332.415	4.74
332.787	4.11
333.159	4.42
333.532	4.92
333.904	3.85
334.276	4.09
334.648	4.27
335.02	4.34
335.391	4.42
335.763	4.59
336.135	4.34
336.507	4.99
336.879	4.49
337.25	4.86
337.622	4.35
337.993	4.74
338.365	5
338.736	4.62
339.108	4.78
339.479	4.23
339.851	4.89
340.222	5.12
340.593	4.26
340.964	4.84
341.336	4.71
341.707	4.96
342.078	4.43
342.449	4.36
342.82	4.43
343.191	4.66
343.562	4.15
343.933	5.18
344.303	4.57
344.674	4.86
345.045	5.06
345.416	4.46
345.786	5.36
346.157	4.53
346.527	4.37
346.898	4.86
347.268	4.66
347.639	4.47
348.009	4.86
348.38	4.63
348.75	4.72
349.12	4.59
349.49	4.92
349.861	4.91
350.231	4.19
350.601	4.62
350.971	4.27
351.341	4.62
351.711	4.57
352.081	4.16
352.45	4.51
352.82	4.5
353.19	4.96
353.56	4.88
353.929	4.6
354.299	4.72
354.669	4.31
355.038	5.15
355.408	4.32
355.777	4.4
356.147	4.53
356.516	4.76
356.885	4.25
357.254	4.6
357.624	4.61
357.993	4.64
358.362	4.41
358.731	4.49
359.1	4.5
359.469	4.38
359.838	4.38
360.207	4.83
360.576	4.65
360.945	4.67
361.314	4.55
361.682	4.77
362.051	4.7
362.42	4.85
362.788	4.69
363.157	4.71
363.525	4.71
363.894	4.89
364.262	4.42
364.631	4.76
364.999	4.64
365.367	4.82
365.735	4.75
366.104	4.86
366.472	4.63
366.84	4.75
367.208	4.78
367.576	4.8
367.944	4.6
368.312	4.96
368.68	4.74
369.048	4.52
369.416	4.85
369.783	4.64
370.151	4.92
370.519	4.87
370.886	5.1
371.254	4.98
371.621	5.09
371.989	4.87
372.356	5.46
372.724	4.58
373.091	4.46
373.458	4.87
373.826	4.62
374.193	5.22
374.56	4.92
374.927	5.19
375.294	5.1
375.661	4.76
376.028	4.93
376.395	4.78
376.762	4.59
377.129	4.6
377.496	4.97
377.863	4.78
378.229	4.78
378.596	4.89
378.963	5.17
379.329	5.21
379.696	4.94
380.062	4.87
380.429	4.9
380.795	4.59
381.161	4.84
381.528	5.29
381.894	4.79
382.26	5.02
382.626	4.69
382.993	5
383.359	5.33
383.725	5.5
384.091	5.12
384.457	4.8
384.823	5.02
385.188	5.28
385.554	5.06
385.92	5.27
386.286	5.06
386.651	5.22
387.017	5.32
387.383	5.17
387.748	5.28
388.114	5.06
388.479	5.07
388.845	5.17
389.21	4.85
389.575	5.11
389.94	4.99
390.306	5.03
390.671	5.09
391.036	4.84
391.401	5.26
391.766	5.46
392.131	5.22
392.496	5.12
392.861	5.2
393.226	4.91
393.591	5.04
393.956	5.2
394.32	5.18
394.685	5.2
395.05	5.11
395.414	5.29
395.779	5.03
396.143	5.2
396.508	5.32
396.872	5.14
397.236	5.36
397.601	5.29
397.965	5.44
398.329	5.38
398.694	5.32
399.058	5.33
399.422	5.44
399.786	5.31
400.15	5.31
400.514	4.92
400.878	5.2
401.242	5.09
401.605	5.5
401.969	5.52
402.333	5.12
402.697	5.02
403.06	5.4
403.424	5.4
403.787	5.43
404.151	5.35
404.514	5.34
404.878	5.29
405.241	5.25
405.604	5.2
405.968	5.36
406.331	5.16
406.694	5.45
407.057	5.26
407.42	5.44
407.783	5.37
408.146	5.13
408.509	5.32
408.872	5.39
409.235	5.44
409.598	5.64
409.961	5.49
410.323	5.07
410.686	5.35
411.049	5.46
411.411	5.28
411.774	5.24
412.136	5.46
412.499	5.3
412.861	5.29
413.223	5.23
413.586	5.35
413.948	5.49
414.31	5.47
414.672	5.6
415.035	5.55
415.397	5.48
415.759	5.5
416.121	5.64
416.483	5.52
416.845	5.12
417.206	5.46
417.568	5.43
417.93	5.41
418.292	5.37
418.653	5.25
419.015	5.38
419.377	5.4
419.738	5.41
420.1	5.38
420.461	5.46
420.822	5.49
421.184	5.38
421.545	5.39
421.906	5.39
422.267	5.4
422.629	5.25
422.99	5.33
423.351	5.37
423.712	5.3
424.073	5.33
424.434	5.47
424.795	5.57
425.155	5.37
425.516	5.44
425.877	5.35
426.238	5.37
426.598	5.43
426.959	5.37
427.32	5.48
427.68	5.46
428.041	5.51
428.401	5.53
428.761	5.49
429.122	5.44
429.482	5.59
429.842	5.81
430.202	5.76
430.563	5.42
430.923	5.58
431.283	5.89
431.643	5.61
432.003	5.59
432.363	5.72
432.722	5.76
433.082	5.55
433.442	5.52
433.802	5.55
434.161	5.55
434.521	5.67
434.881	5.41
435.24	5.61
435.6	5.56
435.959	5.61
436.319	5.69
436.678	5.48
437.037	5.59
437.396	5.56
437.756	5.6
438.115	5.53
438.474	5.76
438.833	5.67
439.192	5.72
439.551	5.59
439.91	5.72
440.269	5.71
440.628	5.6
440.987	5.38
441.345	5.63
441.704	5.59
442.063	5.72
442.421	5.48
442.78	5.56
443.138	5.57
443.497	5.62
443.855	5.55
444.214	5.69
444.572	5.66
444.93	5.75
445.288	5.77
445.647	5.69
446.005	5.72
446.363	5.73
446.721	5.63
447.079	5.72
447.437	5.78
447.795	5.66
448.153	5.47
448.51	5.59
448.868	5.58
449.226	5.7
449.584	5.58
449.941	5.69
450.299	5.74
450.656	5.62
451.014	5.64
451.371	5.59
451.729	5.7
452.086	5.91
452.443	5.72
452.801	5.76
453.158	5.79
453.515	5.66
453.872	5.77
454.229	5.79
454.586	5.75
454.943	5.77
455.3	5.86
455.657	5.88
456.014	5.84
456.371	5.64
456.727	5.72
457.084	5.9
457.441	5.88
457.797	5.73
458.154	5.71
458.51	5.83
458.867	5.9
459.223	5.88
459.58	5.82
459.936	5.79
460.292	5.77
460.648	5.83
461.005	5.84
461.361	5.7
461.717	5.76
462.073	5.74
462.429	5.71
462.785	5.75
463.141	5.75
463.496	5.84
463.852	6.05
464.208	5.77
464.564	5.65
464.919	5.93
465.275	5.97
465.631	5.71
465.986	5.82
466.342	5.78
466.697	6.01
467.052	5.93
467.408	5.99
467.763	6
468.118	5.98
468.473	5.97
468.829	5.91
469.184	5.91
469.539	5.88
469.894	5.91
470.249	5.89
470.603	5.94
470.958	5.92
471.313	5.85
471.668	5.89
472.023	5.9
472.377	5.95
472.732	6.08
473.086	5.91
473.441	5.95
473.795	6.01
474.15	6
474.504	5.87
474.859	5.92
475.213	6
475.567	5.94
475.921	6.02
476.275	5.89
476.63	6
476.984	6.02
477.338	5.88
477.692	6.03
478.045	5.82
478.399	5.91
478.753	5.98
479.107	5.93
479.461	5.89
479.814	5.9
480.168	5.87
480.521	5.84
480.875	5.91
481.228	6.01
481.582	5.98
481.935	5.99
482.289	5.98
482.642	5.72
482.995	5.98
483.348	5.77
483.701	5.92
484.055	5.81
484.408	5.85
484.761	5.76
485.114	5.65
485.466	5.57
485.819	5.5
486.172	5.59
486.525	5.59
486.878	5.66
487.23	5.68
487.583	5.7
487.936	5.84
488.288	5.79
488.641	5.79
488.993	5.7
489.345	5.69
489.698	5.67
490.05	5.69
490.402	5.67
490.754	5.72
491.107	5.87
491.459	5.75
491.811	5.89
492.163	5.87
492.515	5.87
492.866	5.76
493.218	5.72
493.57	5.64
493.922	5.74
494.274	5.75
494.625	5.75
494.977	5.84
495.328	5.93
495.68	6.05
496.031	5.93
496.383	5.98
496.734	5.98
497.086	6.11
497.437	6.04
497.788	6.04
498.139	5.98
498.49	5.85
498.842	5.93
499.193	6.04
499.544	5.9
499.894	5.89
500.245	5.97
500.596	5.99
500.947	5.95
501.298	6.11
501.648	6.22
501.999	6.07
502.35	6.13
502.7	5.96
503.051	6.05
503.401	6.05
503.752	5.91
504.102	6.09
504.452	6.06
504.803	5.99
505.153	6.08
505.503	5.98
505.853	6.08
506.203	6.02
506.553	6.12
506.903	6
507.253	6.1
507.603	6.09
507.953	5.99
508.303	6.13
508.652	5.99
509.002	6.21
509.352	6.13
509.701	5.96
510.051	6.1
510.4	6.03
510.75	5.96
511.099	6.05
511.449	5.99
511.798	6.05
512.147	6.04
512.496	5.92
512.846	6.04
513.195	5.97
513.544	6.15
513.893	6.12
514.242	6.12
514.591	6.05
514.939	6.12
515.288	6.08
515.637	6.06
515.986	6.17
516.334	6.1
516.683	6.15
517.032	6.14
517.38	6.22
517.729	6.07
518.077	6.03
518.426	6.14
518.774	6.16
519.122	6.11
519.47	6.02
519.819	6.06
520.167	6.01
520.515	5.99
520.863	6.05
521.211	6.03
521.559	6.08
521.907	6.02
522.255	6.01
522.602	6.1
522.95	6.14
523.298	6.02
523.645	6.17
523.993	6.12
524.341	6.08
524.688	6.07
525.036	6.2
525.383	6.12
525.73	6.23
526.078	6.24
526.425	6.2
526.772	6.15
527.119	6.04
527.466	5.98
527.814	6.05
528.161	6.03
528.508	6.1
528.854	6.09
529.201	6.01
529.548	6.05
529.895	5.98
530.242	5.88
530.588	5.85
530.935	5.9
531.282	5.82
531.628	5.89
531.975	5.95
532.321	5.96
532.667	6.05
533.014	6.02
533.36	6.19
533.706	6.05
534.052	6.17
534.399	6
534.745	6.04
535.091	6.02
535.437	6.01
535.783	6.01
536.129	6.01
536.474	6.08
536.82	6.02
537.166	6.14
537.512	6.14
537.857	6.22
538.203	5.99
538.549	6.03
538.894	6.2
539.239	6.12
539.585	6.17
539.93	6.13
540.276	6.24
540.621	6.14
540.966	6.19
541.311	6.3
541.656	6.23
542.001	6.3
542.346	6.18
542.691	6.1
543.036	5.99
543.381	6.03
543.726	6.01
544.071	6.01
544.415	6.02
544.76	6.09
545.105	6.11
545.449	6.12
545.794	6.19
546.138	6.23
546.483	6.24
546.827	6.32
547.171	6.36
547.516	6.3
547.86	6.28
548.204	6.27
548.548	6.2
548.892	6.17
549.236	6.25
549.58	6.31
549.924	6.45
550.268	6.4
550.612	6.34
550.956	6.52
551.3	6.41
551.643	6.27
551.987	6.42
552.33	6.39
552.674	6.49
553.017	6.41
553.361	6.4
553.704	6.28
554.048	6.39
554.391	6.22
554.734	6.48
555.077	6.26
555.42	6.18
555.764	6.31
556.107	6.35
556.45	6.51
556.793	6.38
557.135	6.49
557.478	6.5
557.821	6.49
558.164	6.38
558.507	6.25
558.849	6.51
559.192	6.49
559.534	6.5
559.877	6.64
560.219	6.48
560.562	6.6
560.904	6.44
561.246	6.44
561.589	6.46
561.931	6.52
562.273	6.5
562.615	6.54
562.957	6.37
563.299	6.43
563.641	6.43
563.983	6.26
564.325	6.57
564.667	6.57
565.008	6.39
565.35	6.65
565.692	6.36
566.033	6.46
566.375	6.47
566.716	6.42
567.058	6.61
567.399	6.33
567.741	6.43
568.082	6.41
568.423	6.42
568.764	6.47
569.105	6.38
569.447	6.36
569.788	6.5
570.129	6.33
570.47	6.35
570.811	6.69
571.151	6.62
571.492	6.51
571.833	6.48
572.174	6.48
572.514	6.65
572.855	6.41
573.195	6.43
573.536	6.64
573.876	6.41
574.217	6.47
574.557	6.44
574.898	6.42
575.238	6.48
575.578	6.55
575.918	6.44
576.258	6.56
576.598	6.5
576.938	6.57
577.278	6.58
577.618	6.38
577.958	6.63
578.298	6.41
578.638	6.5
578.977	6.63
579.317	6.76
579.657	6.79
579.996	6.47
580.336	6.77
580.675	6.7
581.014	6.69
581.354	6.79
581.693	6.7
582.032	6.62
582.372	6.7
582.711	6.81
583.05	6.57
583.389	6.67
583.728	6.82
584.067	6.72
584.406	6.44
584.745	6.68
585.083	6.78
585.422	6.79
585.761	6.74
586.1	6.67
586.438	6.68
586.777	6.6
587.115	6.62
587.454	6.76
587.792	6.82
588.13	6.73
588.469	6.52
588.807	6.53
589.145	6.76
589.483	6.91
589.821	6.64
590.159	6.57
590.497	6.62
590.835	6.72
591.173	6.63
591.511	6.82
591.849	6.54
592.187	6.7
592.524	6.79
592.862	6.85
593.2	6.89
593.537	6.91
593.875	6.77
594.212	7
594.55	6.8
594.887	6.65
595.224	6.9
595.561	6.81
595.899	6.65
596.236	6.43
596.573	6.82
596.91	6.68
597.247	6.6
597.584	6.67
597.921	6.74
598.258	6.56
598.594	6.72
598.931	6.78
599.268	6.81
599.604	6.69
599.941	6.78
600.277	6.76
600.614	6.7
600.95	6.72
601.287	6.61
601.623	6.62
601.959	6.65
602.296	6.8
602.632	6.82
602.968	6.67
603.304	6.77
603.64	6.86
603.976	6.81
604.312	6.72
604.648	7.01
604.984	6.64
605.319	6.83
605.655	6.57
605.991	6.69
606.326	6.7
606.662	6.88
606.998	6.82
607.333	6.7
607.668	6.83
608.004	6.64
608.339	6.64
608.674	6.78
609.01	6.91
609.345	6.75
609.68	6.75
610.015	6.96
610.35	6.94
610.685	6.61
611.02	6.79
611.355	6.66
611.689	6.75
612.024	6.75
612.359	6.71
612.694	6.92
613.028	6.9
613.363	6.9
613.697	6.74
614.032	6.6
614.366	6.99
614.7	6.6
615.035	6.93
615.369	6.94
615.703	6.86
616.037	6.88
616.371	6.79
616.705	6.86
617.039	6.79
617.373	7.02
617.707	7.2
618.041	7.2
618.375	7.16
618.709	6.55
619.042	6.68
619.376	7.13
619.71	6.99
620.043	6.86
620.377	6.87
620.71	6.8
621.043	6.95
621.377	6.66
621.71	7.22
622.043	6.63
622.376	6.99
622.709	6.85
623.043	6.65
623.376	7.08
623.709	7.19
624.041	6.97
624.374	6.76
624.707	6.93
625.04	7.19
625.373	7.09
625.705	7.2
626.038	7.04
626.37	6.84
626.703	7.04
627.035	7.5
627.368	7.11
627.7	6.92
628.032	6.92
628.365	6.96
628.697	7.04
629.029	7.12
629.361	7.17
629.693	6.91
630.025	7.04
630.357	7.1
630.689	7.06
631.021	6.82
631.353	7.53
631.684	6.98
632.016	7.2
632.348	6.92
632.679	7.36
633.011	7.11
633.342	7.09
633.674	7.1
634.005	6.99
634.336	7.53
634.668	7.21
634.999	7.42
635.33	7.09
635.661	6.91
635.992	7.44
636.323	7.42
636.654	7.32
636.985	7.35
637.316	6.97
637.647	7.21
637.977	6.98
638.308	6.87
638.639	6.97
638.969	7.13
639.3	7.05
639.63	6.7
639.961	7.18
640.291	6.84
640.622	7.01
640.952	6.9
641.282	7.42
641.612	7.11
641.943	7.07
642.273	7.26
642.603	7.61
642.933	7.55
643.263	7.08
643.592	6.91
643.922	7.02
644.252	7.43
644.582	7.59
644.911	6.83
645.241	7.14
645.571	7.56
645.9	7.15
646.23	7.8
646.559	6.83
646.888	7.23
647.218	7.59
647.547	7.53
647.876	7.14
648.205	7.03
648.534	7.43
648.863	7.27
649.192	7.35
649.521	7.19
649.85	6.95
650.179	7.16
650.508	7.06
650.837	7.41
651.165	7.37
651.494	7.41
651.822	7.18
652.151	7.66
652.479	7.3
652.808	7.62
653.136	7.08
653.465	7.11
653.793	7.66
654.121	7.18
654.449	7
654.777	7.76
655.105	7.44
655.433	7.35
655.761	7.11
656.089	7.44
656.417	7.17
656.745	7.44
657.073	6.83
657.4	7.39
657.728	7.37
658.056	7.93
658.383	7.18
658.711	6.91
659.038	7.42
659.365	6.94
659.693	7.24
660.02	7.76
660.347	6.9
660.674	6.79
661.001	7.64
661.329	7.34
661.656	7.62
661.982	7.34
662.309	7.63
662.636	7.57
662.963	7.49
663.29	7.52
663.616	7.71
663.943	7.47
664.27	6.97
664.596	7.53
664.923	7.98
665.249	7.89
665.576	7.82
665.902	6.97
666.228	7.65
666.554	7.2
666.881	7.07
667.207	7.6
667.533	7.54
667.859	7.45
668.185	7.95
668.511	7.33
668.837	7.74
669.162	7.45
669.488	7.32
669.814	7.47
670.139	7.4
670.465	7.86
670.791	7.62
671.116	7.39
671.442	7.75
671.767	7.36
672.092	7.19
672.418	7.68
672.743	7.83
673.068	6.49
673.393	7.16
673.718	7.88
674.043	7.97
674.368	7.83
674.693	7.65
675.018	7.47
675.343	7.64
675.667	8.06
675.992	7.99
676.317	7.73
676.641	7.28
676.966	7.91
677.29	7.58
677.615	7.22
677.939	7.47
678.264	7.61
678.588	7.74
678.912	7.05
679.236	7.37
679.56	7.19
679.885	8.1
680.209	7.61
680.532	7.3
680.856	7.81
681.18	7.92
681.504	7.67
681.828	8.1
682.152	7.87
682.475	7.51
682.799	7.6
683.122	7.38
683.446	8.04
683.769	7.4
684.093	8.09
684.416	8.09
684.739	7.8
685.062	7.55
685.386	8.01
685.709	8.19
686.032	7.54
686.355	8.35
686.678	7.88
687.001	7.68
687.324	8.37
687.646	7.67
687.969	8.02
688.292	7.48
688.614	7.17
688.937	7.84
689.26	7.56
689.582	7.25
689.904	8.19
690.227	7.29
690.549	8.45
690.871	8.77
691.194	7.57
691.516	7.9
691.838	7.78
692.16	8.1
692.482	7.74
692.804	7.59
693.126	7.98
693.448	7.48
