Data from 97277_forehead_Reflection__0__81.txt Node

Date: Fri Sep 23 20:19:02 CDT 2022
User: ToomeyLab
Spectrometer: FLMS14357
Trigger mode: 0
Integration Time (sec): 1.000000E-2
Scans to average: 100
Electric dark correction enabled: true
Nonlinearity correction enabled: false
Boxcar width: 0
XAxis mode: Wavelengths
Number of Pixels in Spectrum: 2048
>>>>>Begin Spectral Data<<<<<
189.047	165.1
189.435	165.1
189.823	165.1
190.211	170.84
190.599	90.1
190.987	25.29
191.375	88.69
191.763	61.59
192.151	75.53
192.538	190.16
192.926	-601.21
193.314	10.29
193.702	183.01
194.089	-0.07
194.477	161.08
194.864	-208.57
195.252	44.75
195.639	-148.69
196.027	1.12
196.414	-461.45
196.801	206
197.189	-41.89
197.576	-223.13
197.963	104.61
198.351	53.37
198.738	5.45
199.125	53.54
199.512	43.92
199.899	15.51
200.286	8.92
200.673	26.72
201.06	9.07
201.447	53.38
201.833	41.44
202.22	19.7
202.607	90.25
202.994	26.1
203.38	30.28
203.767	-5.9
204.154	30.31
204.54	52.68
204.927	45.63
205.313	39.94
205.699	-16.06
206.086	5.67
206.472	49.57
206.858	28.09
207.245	7.56
207.631	27.94
208.017	21.24
208.403	54.61
208.789	46.08
209.175	55.02
209.561	32.05
209.947	25.35
210.333	44.33
210.719	63.99
211.105	23.61
211.491	46.25
211.876	57.5
212.262	30.48
212.648	-16.97
213.034	22.77
213.419	48.58
213.805	36.63
214.19	20.91
214.576	44.53
214.961	37.55
215.346	-2.99
215.732	57.27
216.117	8.02
216.502	25.92
216.888	40.61
217.273	34.52
217.658	-22.29
218.043	45.03
218.428	32.55
218.813	37.25
219.198	17.9
219.583	37.68
219.968	32.07
220.353	19.14
220.738	25.05
221.122	18.3
221.507	13.12
221.892	4.19
222.276	-10.93
222.661	19.78
223.046	5.55
223.43	4.27
223.815	13.81
224.199	0.19
224.583	6.02
224.968	8.58
225.352	16.82
225.736	6.93
226.121	17.23
226.505	13.68
226.889	13.1
227.273	12.48
227.657	2.44
228.041	5.01
228.425	5.06
228.809	8.54
229.193	6.48
229.577	5.95
229.961	5.42
230.344	5.68
230.728	4.08
231.112	5.07
231.495	4.93
231.879	3.37
232.263	5.5
232.646	5.78
233.03	4.66
233.413	5.49
233.797	5.32
234.18	9.04
234.563	5.78
234.946	4.62
235.33	4.74
235.713	7.15
236.096	4
236.479	5.24
236.862	3.99
237.245	6.22
237.628	7.63
238.011	5.74
238.394	5.64
238.777	7.27
239.16	6.58
239.543	3.78
239.925	6.27
240.308	4.86
240.691	7.11
241.073	4.3
241.456	5.43
241.838	6.61
242.221	5.75
242.603	5.49
242.986	4.63
243.368	4.4
243.75	5.04
244.133	4.76
244.515	4.71
244.897	5.09
245.279	5.23
245.661	5.23
246.043	5.53
246.425	5.88
246.807	5.1
247.189	5.95
247.571	5.1
247.953	4.89
248.335	4.91
248.717	5.08
249.098	4.83
249.48	4.65
249.862	4.92
250.243	5.3
250.625	5.01
251.006	5.54
251.388	4.87
251.769	5.26
252.151	4.53
252.532	5.92
252.913	5.8
253.295	4.76
253.676	4.77
254.057	5
254.438	4.97
254.819	5.53
255.2	6.57
255.581	5.65
255.962	4.41
256.343	5.63
256.724	5.38
257.105	4.82
257.486	4.06
257.867	5.34
258.247	5.76
258.628	5.09
259.009	5.35
259.389	4.73
259.77	5.05
260.15	5.3
260.531	4.85
260.911	5.05
261.292	4.82
261.672	4.44
262.052	4.55
262.432	4.61
262.813	5.19
263.193	5.71
263.573	4.98
263.953	4.56
264.333	5.3
264.713	5.44
265.093	5.31
265.473	5.32
265.853	4.56
266.233	4.35
266.612	5.7
266.992	6.01
267.372	4.98
267.752	5.08
268.131	5.19
268.511	4.82
268.89	4.59
269.27	4.85
269.649	4.63
270.029	4.81
270.408	5.27
270.787	4.49
271.167	4.32
271.546	4.58
271.925	4.78
272.304	4.58
272.683	4.7
273.062	4.28
273.441	4.33
273.82	4.83
274.199	4.55
274.578	4.47
274.957	4.42
275.336	4.82
275.715	4.41
276.093	5.17
276.472	5.8
276.851	4.81
277.229	5
277.608	5.05
277.986	4.76
278.365	4.8
278.743	4.84
279.122	4.27
279.5	4.42
279.878	4.46
280.257	4.8
280.635	4.73
281.013	4.94
281.391	4.36
281.769	4.81
282.147	4.71
282.525	4.71
282.903	4.3
283.281	4.41
283.659	4.97
284.037	4.5
284.415	4.44
284.792	4.51
285.17	4.55
285.548	4.49
285.925	5.03
286.303	5.1
286.68	4.94
287.058	4.41
287.435	4.05
287.813	4.73
288.19	4.56
288.567	4.97
288.945	4.83
289.322	4.95
289.699	5.2
290.076	4.75
290.453	4.68
290.83	4.75
291.207	4.82
291.584	5.26
291.961	4.77
292.338	4.91
292.715	4.65
293.092	4.95
293.469	5.38
293.845	5.36
294.222	5.32
294.599	4.83
294.975	5.05
295.352	5.56
295.728	4.88
296.105	5.42
296.481	5.14
296.858	5.17
297.234	5.11
297.61	4.86
297.986	5.1
298.363	5.43
298.739	5.35
299.115	5.15
299.491	5.27
299.867	5.22
300.243	5.5
300.619	5.57
300.995	5.59
301.371	5.33
301.746	6.21
302.122	5.67
302.498	5.67
302.874	5.7
303.249	5.75
303.625	5.75
304	5.74
304.376	5.9
304.751	5.4
305.127	6.09
305.502	6.35
305.878	6.14
306.253	6.41
306.628	6.25
307.003	6.02
307.378	6.65
307.754	6.12
308.129	6.42
308.504	6.33
308.879	6.65
309.254	6.68
309.629	7.19
310.003	6.94
310.378	6.79
310.753	6.76
311.128	6.44
311.502	6.97
311.877	6.95
312.252	6.62
312.626	6.93
313.001	7.19
313.375	7.47
313.75	7.13
314.124	6.78
314.498	7.44
314.873	7.52
315.247	7.71
315.621	7.3
315.995	7.76
316.369	7.85
316.743	7.56
317.117	7.23
317.491	7.08
317.865	7.55
318.239	8.57
318.613	7.88
318.987	7.29
319.361	8.01
319.734	7.92
320.108	7.98
320.482	8.24
320.855	8.12
321.229	8.36
321.602	8.01
321.976	8.66
322.349	8.52
322.723	8.79
323.096	8.74
323.469	8.68
323.843	8.39
324.216	9.06
324.589	8.58
324.962	9.36
325.335	8.97
325.708	8.7
326.081	9.04
326.454	8.97
326.827	9.15
327.2	9.13
327.573	8.89
327.945	9.64
328.318	8.98
328.691	9.17
329.063	9.66
329.436	9.25
329.809	10.08
330.181	10.04
330.553	9.69
330.926	9.15
331.298	9.71
331.671	10.05
332.043	9.58
332.415	9.62
332.787	8.91
333.159	9.9
333.532	10.11
333.904	9.99
334.276	9.51
334.648	9.82
335.02	9.66
335.391	10.31
335.763	10.29
336.135	10.26
336.507	11.14
336.879	9.71
337.25	10.63
337.622	10.64
337.993	10.09
338.365	10.82
338.736	10.25
339.108	11.06
339.479	10.49
339.851	11.1
340.222	11.16
340.593	10.91
340.964	11.16
341.336	11
341.707	11.54
342.078	10.65
342.449	10.88
342.82	10.78
343.191	11.2
343.562	10.81
343.933	11.73
344.303	10.81
344.674	11.47
345.045	11.34
345.416	11.17
345.786	11.78
346.157	11.59
346.527	11.37
346.898	11.62
347.268	11.6
347.639	11.77
348.009	11.44
348.38	11.58
348.75	11.69
349.12	11.88
349.49	11.89
349.861	11.68
350.231	11.66
350.601	11.56
350.971	11.97
351.341	12.16
351.711	12.03
352.081	12.12
352.45	11.8
352.82	11.81
353.19	12.65
353.56	12.3
353.929	11.95
354.299	12.32
354.669	12.43
355.038	12.72
355.408	12.18
355.777	12.52
356.147	12.77
356.516	12.58
356.885	12.67
357.254	12.7
357.624	12.54
357.993	12.95
358.362	12.69
358.731	12.78
359.1	12.74
359.469	12.8
359.838	12.84
360.207	12.98
360.576	13.14
360.945	13.02
361.314	12.68
361.682	12.81
362.051	13.13
362.42	13.4
362.788	12.97
363.157	13.21
363.525	13.26
363.894	13.48
364.262	13.16
364.631	13.32
364.999	13.69
365.367	13.54
365.735	13.62
366.104	13.68
366.472	13.58
366.84	13.72
367.208	14.1
367.576	14.22
367.944	13.75
368.312	14.17
368.68	13.82
369.048	13.85
369.416	14.05
369.783	14.04
370.151	14.52
370.519	14.2
370.886	14.53
371.254	14.4
371.621	14.39
371.989	14.74
372.356	14.78
372.724	14.34
373.091	14.47
373.458	14.52
373.826	14.52
374.193	14.92
374.56	14.74
374.927	14.73
375.294	15
375.661	15.06
376.028	15.22
376.395	15.14
376.762	14.73
377.129	14.89
377.496	15.54
377.863	15.18
378.229	15.28
378.596	15.31
378.963	15.49
379.329	15.35
379.696	15.18
380.062	15.37
380.429	15.49
380.795	15.35
381.161	15.85
381.528	15.85
381.894	15.33
382.26	15.65
382.626	15.73
382.993	16.03
383.359	15.9
383.725	16.01
384.091	15.7
384.457	16.16
384.823	15.91
385.188	15.85
385.554	16.32
385.92	16.08
386.286	16.08
386.651	16.19
387.017	16.7
387.383	16.36
387.748	16.3
388.114	16.32
388.479	16.64
388.845	16.58
389.21	16.51
389.575	16.46
389.94	16.45
390.306	16.4
390.671	16.6
391.036	17.15
391.401	16.95
391.766	16.79
392.131	16.77
392.496	16.86
392.861	16.91
393.226	16.76
393.591	16.8
393.956	17
394.32	16.92
394.685	16.68
395.05	17.13
395.414	17.06
395.779	17.05
396.143	17.13
396.508	17.29
396.872	17.12
397.236	17.2
397.601	17.36
397.965	17.43
398.329	17.65
398.694	17.34
399.058	17.46
399.422	17.46
399.786	17.72
400.15	17.32
400.514	17.7
400.878	17.57
401.242	17.51
401.605	17.82
401.969	17.89
402.333	17.64
402.697	17.44
403.06	17.72
403.424	17.86
403.787	17.94
404.151	17.96
404.514	17.76
404.878	17.67
405.241	17.85
405.604	17.86
405.968	17.9
406.331	17.99
406.694	18.13
407.057	17.85
407.42	17.94
407.783	18.07
408.146	18.09
408.509	18.13
408.872	18.03
409.235	18.29
409.598	18.41
409.961	18.37
410.323	18.32
410.686	18.18
411.049	18.42
411.411	18.34
411.774	18.32
412.136	18.35
412.499	18.25
412.861	18.39
413.223	18.29
413.586	18.41
413.948	18.68
414.31	18.43
414.672	18.75
415.035	18.67
415.397	18.93
415.759	18.9
416.121	18.79
416.483	19
416.845	18.59
417.206	18.72
417.568	18.8
417.93	18.79
418.292	19.05
418.653	18.83
419.015	18.84
419.377	18.72
419.738	18.94
420.1	18.92
420.461	19
420.822	18.92
421.184	19.15
421.545	18.93
421.906	19.04
422.267	19.15
422.629	19
422.99	19.14
423.351	19.03
423.712	19.07
424.073	19.08
424.434	19.31
424.795	19.53
425.155	19.53
425.516	19.64
425.877	19.51
426.238	19.43
426.598	19.66
426.959	19.66
427.32	19.73
427.68	19.76
428.041	20.11
428.401	20.17
428.761	20.22
429.122	20.49
429.482	20.31
429.842	20.74
430.202	20.72
430.563	20.71
430.923	20.89
431.283	21.04
431.643	20.96
432.003	20.84
432.363	21.17
432.722	21.11
433.082	21.18
433.442	21.16
433.802	21.21
434.161	21.38
434.521	21.5
434.881	21.35
435.24	21.3
435.6	21.28
435.959	21.41
436.319	21.62
436.678	21.65
437.037	21.91
437.396	21.74
437.756	21.9
438.115	21.95
438.474	22.13
438.833	22.2
439.192	22.39
439.551	22.4
439.91	22.32
440.269	22.28
440.628	22.22
440.987	22.34
441.345	22.41
441.704	22.22
442.063	22.48
442.421	22.43
442.78	22.38
443.138	22.55
443.497	22.77
443.855	22.65
444.214	23.01
444.572	22.91
444.93	22.86
445.288	23.32
445.647	23.36
446.005	23.27
446.363	23.39
446.721	23
447.079	23.3
447.437	23.2
447.795	23.19
448.153	23.02
448.51	23.15
448.868	23.27
449.226	23.33
449.584	23.42
449.941	23.67
450.299	23.81
450.656	23.8
451.014	23.93
451.371	23.97
451.729	24.04
452.086	24.31
452.443	24.18
452.801	24.35
453.158	24.63
453.515	24.37
453.872	24.6
454.229	24.63
454.586	24.72
454.943	24.68
455.3	24.7
455.657	24.67
456.014	25.16
456.371	25.03
456.727	24.93
457.084	25.38
457.441	25.32
457.797	25.17
458.154	25.24
458.51	25.32
458.867	25.7
459.223	25.7
459.58	25.34
459.936	25.41
460.292	25.24
460.648	25.57
461.005	25.49
461.361	25.5
461.717	25.4
462.073	25.3
462.429	25.31
462.785	25.49
463.141	25.58
463.496	25.9
463.852	25.95
464.208	25.99
464.564	26.42
464.919	26.36
465.275	26.58
465.631	26.42
465.986	26.54
466.342	26.61
466.697	26.85
467.052	26.87
467.408	26.81
467.763	26.73
468.118	26.91
468.473	26.96
468.829	26.97
469.184	27.21
469.539	26.98
469.894	27.01
470.249	27.22
470.603	27.44
470.958	27.33
471.313	27.44
471.668	27.45
472.023	27.54
472.377	27.58
472.732	27.67
473.086	27.63
473.441	27.84
473.795	27.9
474.15	27.77
474.504	27.97
474.859	28.11
475.213	28.11
475.567	27.84
475.921	28.05
476.275	28.2
476.63	28.29
476.984	28.65
477.338	28.4
477.692	28.65
478.045	28.33
478.399	28.42
478.753	28.46
479.107	28.41
479.461	28.58
479.814	28.63
480.168	28.5
480.521	28.62
480.875	28.77
481.228	28.87
481.582	28.7
481.935	28.97
482.289	29.14
482.642	29
482.995	29.12
483.348	28.85
483.701	28.88
484.055	28.76
484.408	28.79
484.761	28.58
485.114	28.47
485.466	28.39
485.819	28.31
486.172	28.2
486.525	28.18
486.878	28.25
487.23	28.27
487.583	28.57
487.936	28.9
488.288	28.9
488.641	28.95
488.993	28.93
489.345	28.72
489.698	28.86
490.05	28.88
490.402	28.81
490.754	29
491.107	29.28
491.459	29.5
491.811	29.52
492.163	29.98
492.515	29.83
492.866	29.85
493.218	29.53
493.57	29.42
493.922	29.53
494.274	29.46
494.625	29.67
494.977	30.02
495.328	30.32
495.68	30.44
496.031	30.63
496.383	30.94
496.734	31
497.086	31.09
497.437	31.11
497.788	31.23
498.139	31.14
498.49	30.99
498.842	30.97
499.193	31.04
499.544	31.11
499.894	31.18
500.245	31.37
500.596	31.24
500.947	31.34
501.298	31.53
501.648	31.73
501.999	31.74
502.35	31.7
502.7	31.93
503.051	31.96
503.401	32.1
503.752	31.92
504.102	32.17
504.452	31.96
504.803	32.28
505.153	32.28
505.503	32.21
505.853	32.32
506.203	32.41
506.553	32.28
506.903	32.33
507.253	32.37
507.603	32.6
507.953	32.49
508.303	32.67
508.652	32.63
509.002	32.68
509.352	32.74
509.701	32.54
510.051	32.71
510.4	32.82
510.75	32.6
511.099	32.79
511.449	32.61
511.798	32.9
512.147	32.91
512.496	32.89
512.846	33.02
513.195	32.78
513.544	33.27
513.893	33.08
514.242	33.11
514.591	33.1
514.939	33.2
515.288	33.27
515.637	33.37
515.986	33.42
516.334	33.56
516.683	33.56
517.032	33.73
517.38	33.75
517.729	33.81
518.077	33.78
518.426	34.11
518.774	33.91
519.122	33.93
519.47	33.76
519.819	33.53
520.167	33.55
520.515	33.46
520.863	33.58
521.211	33.61
521.559	33.5
521.907	33.62
522.255	33.7
522.602	34.05
522.95	34.16
523.298	34.13
523.645	34.27
523.993	34.28
524.341	34.65
524.688	34.32
525.036	34.54
525.383	34.44
525.73	34.71
526.078	34.53
526.425	34.57
526.772	34.51
527.119	34.33
527.466	34.22
527.814	34.12
528.161	34.25
528.508	34.25
528.854	34.34
529.201	34.33
529.548	34.39
529.895	34.21
530.242	34.08
530.588	34.06
530.935	34.02
531.282	33.91
531.628	33.92
531.975	34.09
532.321	34.36
532.667	34.58
533.014	34.6
533.36	35.02
533.706	34.9
534.052	34.93
534.399	34.94
534.745	34.92
535.091	34.59
535.437	34.64
535.783	34.59
536.129	34.76
536.474	34.95
536.82	35.13
537.166	35.44
537.512	35.54
537.857	35.59
538.203	35.47
538.549	35.33
538.894	35.46
539.239	35.45
539.585	35.61
539.93	35.57
540.276	36.13
540.621	35.87
540.966	36.27
541.311	36.51
541.656	36.36
542.001	36.27
542.346	36.21
542.691	36.01
543.036	35.77
543.381	35.59
543.726	35.64
544.071	35.57
544.415	35.79
544.76	35.76
545.105	36.12
545.449	36.13
545.794	36.48
546.138	36.48
546.483	36.69
546.827	36.8
547.171	36.9
547.516	36.96
547.86	37
548.204	36.9
548.548	36.89
548.892	36.73
549.236	37.01
549.58	37.19
549.924	37.37
550.268	37.61
550.612	37.42
550.956	37.66
551.3	37.81
551.643	37.84
551.987	38.02
552.33	37.95
552.674	38.18
553.017	38.15
553.361	38.16
553.704	38.2
554.048	38.22
554.391	38.12
554.734	38.06
555.077	38.23
555.42	37.92
555.764	38.09
556.107	38.41
556.45	38.55
556.793	38.69
557.135	38.61
557.478	38.61
557.821	38.77
558.164	39
558.507	38.87
558.849	38.95
559.192	39.09
559.534	38.76
559.877	38.82
560.219	38.98
560.562	39.1
560.904	39.16
561.246	39.27
561.589	39.21
561.931	39.13
562.273	39.46
562.615	39.51
562.957	39.2
563.299	39.39
563.641	39.48
563.983	39.66
564.325	39.51
564.667	39.67
565.008	39.58
565.35	39.71
565.692	39.56
566.033	39.97
566.375	39.93
566.716	39.77
567.058	39.92
567.399	39.75
567.741	39.71
568.082	39.67
568.423	39.75
568.764	39.42
569.105	39.73
569.447	39.9
569.788	40.05
570.129	39.97
570.47	39.94
570.811	40.25
571.151	40.42
571.492	40.42
571.833	40.52
572.174	40.2
572.514	40.49
572.855	40.42
573.195	40.37
573.536	40.48
573.876	40.15
574.217	40.52
574.557	40.35
574.898	40.49
575.238	40.72
575.578	40.87
575.918	40.84
576.258	40.9
576.598	40.84
576.938	40.93
577.278	41.09
577.618	40.83
577.958	41.02
578.298	41
578.638	41.15
578.977	41.24
579.317	41.57
579.657	40.96
579.996	41.15
580.336	41.54
580.675	41.56
581.014	41.31
581.354	41.72
581.693	41.78
582.032	41.75
582.372	41.97
582.711	42.09
583.05	41.67
583.389	42.1
583.728	42.2
584.067	42.09
584.406	41.7
584.745	42.53
585.083	41.94
585.422	42.28
585.761	42.29
586.1	42.67
586.438	42.48
586.777	42.57
587.115	42.64
587.454	42.63
587.792	42.57
588.13	42.62
588.469	42.68
588.807	42.56
589.145	42.79
589.483	43.04
589.821	42.82
590.159	43.26
590.497	42.86
590.835	42.78
591.173	42.89
591.511	43.02
591.849	42.91
592.187	42.78
592.524	42.84
592.862	43.39
593.2	43.3
593.537	43.02
593.875	43.23
594.212	43.48
594.55	43.02
594.887	43.49
595.224	43.36
595.561	43.28
595.899	43.2
596.236	43.45
596.573	43.63
596.91	43.65
597.247	43.52
597.584	43.44
597.921	43.83
598.258	43.49
598.594	43.4
598.931	43.58
599.268	43.58
599.604	43.24
599.941	43.5
600.277	43.56
600.614	43.91
600.95	43.76
601.287	44.31
601.623	43.59
601.959	44.34
602.296	43.88
602.632	44.18
602.968	43.94
603.304	44.44
603.64	44.11
603.976	44.37
604.312	44.45
604.648	44.78
604.984	44.55
605.319	44.52
605.655	44.39
605.991	44.66
606.326	44.33
606.662	44.75
606.998	44.54
607.333	44.46
607.668	44.55
608.004	44.56
608.339	44.75
608.674	44.73
609.01	45.1
609.345	44.96
609.68	44.96
610.015	45.21
610.35	45.52
610.685	44.99
611.02	45.29
611.355	44.94
611.689	45.16
612.024	44.86
612.359	45.16
612.694	45.31
613.028	45.5
613.363	45.7
613.697	45.42
614.032	45.62
614.366	45.87
614.7	45.47
615.035	46.19
615.369	45.96
615.703	45.81
616.037	46.08
616.371	46.18
616.705	46.18
617.039	45.92
617.373	46.59
617.707	46.41
618.041	45.98
618.375	46.66
618.709	46.31
619.042	46.84
619.376	46.68
619.71	46.55
620.043	45.94
620.377	46.47
620.71	46.37
621.043	46.94
621.377	46.62
621.71	46.59
622.043	47.03
622.376	46.91
622.709	46.99
623.043	46.46
623.376	47.16
623.709	47.35
624.041	46.96
624.374	47.1
624.707	47.4
625.04	47.73
625.373	47.22
625.705	47.43
626.038	47.37
626.37	47.59
626.703	47.49
627.035	47.4
627.368	47.64
627.7	47.34
628.032	47.51
628.365	47.58
628.697	47.91
629.029	47.27
629.361	47.6
629.693	47.54
630.025	47.55
630.357	48.02
630.689	47.4
631.021	47.94
631.353	47.64
631.684	48.06
632.016	47.77
632.348	48.11
632.679	48.01
633.011	48.47
633.342	48.09
633.674	47.97
634.005	48.49
634.336	48.43
634.668	48.28
634.999	48.11
635.33	48.56
635.661	48.37
635.992	48.55
636.323	48.61
636.654	48.77
636.985	48.61
637.316	48.47
637.647	48.7
637.977	48.85
638.308	48.93
638.639	48.83
638.969	49.05
639.3	48.69
639.63	48.62
639.961	49.03
640.291	48.95
640.622	49.23
640.952	49.01
641.282	49.68
641.612	49.23
641.943	49.45
642.273	49.49
642.603	49.38
642.933	48.93
643.263	49.08
643.592	49.85
643.922	49.58
644.252	49.55
644.582	49.8
644.911	49.56
645.241	49.82
645.571	49.57
645.9	49.65
646.23	50.12
646.559	49.69
646.888	50.05
647.218	49.58
647.547	49.84
647.876	49.54
648.205	49.67
648.534	50.15
648.863	49.99
649.192	50.19
649.521	49.91
649.85	49.9
650.179	49.86
650.508	50.31
650.837	50.64
651.165	50.38
651.494	50.2
651.822	50.5
652.151	50.43
652.479	50.89
652.808	51
653.136	50.66
653.465	50.33
653.793	50.75
654.121	50.77
654.449	50.53
654.777	50.72
655.105	50.72
655.433	51.13
655.761	50.49
656.089	51.04
656.417	51.07
656.745	50.88
657.073	50.34
657.4	50.64
657.728	50.81
658.056	51.48
658.383	51.32
658.711	51.32
659.038	51.18
659.365	50.99
659.693	51.7
660.02	51.22
660.347	51.32
660.674	51.51
661.001	52.11
661.329	51.22
661.656	51.19
661.982	51.71
662.309	51.21
662.636	51.47
662.963	51.56
663.29	51.59
663.616	52.04
663.943	52.15
664.27	52.44
664.596	52.21
664.923	52.57
665.249	52.09
665.576	52.24
665.902	52.31
666.228	52.05
666.554	51.88
666.881	51.94
667.207	52.32
667.533	51.82
667.859	52.28
668.185	52.13
668.511	52.35
668.837	53.14
669.162	52.29
669.488	52.43
669.814	52.57
670.139	52.01
670.465	52.94
670.791	52.66
