Data from 97277_forehead_Reflection__1__82.txt Node

Date: Fri Sep 23 20:19:14 CDT 2022
User: ToomeyLab
Spectrometer: FLMS14357
Trigger mode: 0
Integration Time (sec): 1.000000E-2
Scans to average: 100
Electric dark correction enabled: true
Nonlinearity correction enabled: false
Boxcar width: 0
XAxis mode: Wavelengths
Number of Pixels in Spectrum: 2048
>>>>>Begin Spectral Data<<<<<
189.047	-49.93
189.435	-49.93
189.823	-49.93
190.211	-13.91
190.599	202.28
190.987	28.08
191.375	-49.11
191.763	35.48
192.151	5.68
192.538	196.41
192.926	-803.91
193.314	139.19
193.702	104.2
194.089	-69.15
194.477	127.23
194.864	105.43
195.252	67.2
195.639	26.25
196.027	-46.36
196.414	-389.24
196.801	163.24
197.189	39.94
197.576	228.72
197.963	-12.07
198.351	43.59
198.738	14.76
199.125	17.52
199.512	18.67
199.899	13.86
200.286	-12.72
200.673	29.2
201.06	66.45
201.447	40.46
201.833	54.73
202.22	-12.26
202.607	33.13
202.994	-5.21
203.38	34.24
203.767	-8.53
204.154	51.13
204.54	13.59
204.927	18.88
205.313	49.4
205.699	27.51
206.086	1.94
206.472	5.06
206.858	7.03
207.245	8.95
207.631	-3.74
208.017	4.19
208.403	28.58
208.789	46.41
209.175	23.75
209.561	10.99
209.947	20.12
210.333	-1.55
210.719	5.95
211.105	33.82
211.491	29.21
211.876	21.92
212.262	-5.52
212.648	1.35
213.034	-12.03
213.419	44.53
213.805	27.76
214.19	3.75
214.576	-1.09
214.961	9.48
215.346	8.17
215.732	34.73
216.117	35.89
216.502	-4.26
216.888	22.51
217.273	34.27
217.658	-32.04
218.043	18.39
218.428	17.59
218.813	26.31
219.198	24.51
219.583	13.69
219.968	19.34
220.353	10.15
220.738	18.89
221.122	31.44
221.507	-4.27
221.892	10.74
222.276	9.34
222.661	2.06
223.046	2.99
223.43	-6.13
223.815	2.62
224.199	13.34
224.583	12.06
224.968	-3.11
225.352	4.94
225.736	1.65
226.121	9.96
226.505	2.04
226.889	4.42
227.273	3.98
227.657	7.62
228.041	5.4
228.425	8.4
228.809	6.13
229.193	3.56
229.577	4.85
229.961	4.9
230.344	4.27
230.728	3.7
231.112	3.66
231.495	3.2
231.879	2.85
232.263	3.65
232.646	5.52
233.03	4.76
233.413	5.2
233.797	4.76
234.18	7.99
234.563	1.62
234.946	7.31
235.33	3.67
235.713	4.87
236.096	2.93
236.479	3.81
236.862	3.23
237.245	5.36
237.628	6.65
238.011	4.63
238.394	5.04
238.777	5.94
239.16	4.72
239.543	5.88
239.925	4.12
240.308	6.38
240.691	3.72
241.073	4.28
241.456	3.82
241.838	5.12
242.221	5.05
242.603	4.54
242.986	3.6
243.368	3.96
243.75	4.37
244.133	4.39
244.515	4.32
244.897	4.34
245.279	4.89
245.661	4.86
246.043	5.06
246.425	4.59
246.807	3.77
247.189	4.85
247.571	4.09
247.953	4.47
248.335	4.75
248.717	4.48
249.098	4.35
249.48	4.42
249.862	4.13
250.243	4.65
250.625	4.26
251.006	4.9
251.388	4.88
251.769	5.25
252.151	4.19
252.532	5.54
252.913	5.61
253.295	4.93
253.676	4.49
254.057	4.7
254.438	4.51
254.819	4.72
255.2	5.03
255.581	6.11
255.962	4.74
256.343	5.28
256.724	4.59
257.105	5.72
257.486	4.4
257.867	5.07
258.247	4.36
258.628	4.21
259.009	4.58
259.389	5.22
259.77	3.61
260.15	4.21
260.531	4.41
260.911	4.35
261.292	4.5
261.672	4.13
262.052	4.24
262.432	4.06
262.813	4.4
263.193	4.44
263.573	5.12
263.953	4.04
264.333	4.46
264.713	4.46
265.093	5.22
265.473	4.65
265.853	3.92
266.233	4.63
266.612	4.68
266.992	5.9
267.372	4.18
267.752	4.62
268.131	5.02
268.511	4.49
268.89	4.48
269.27	4.17
269.649	4.37
270.029	4.43
270.408	4.71
270.787	4.15
271.167	4.31
271.546	4.42
271.925	4.29
272.304	4.3
272.683	4.5
273.062	3.92
273.441	4.36
273.82	4.06
274.199	4.31
274.578	4.07
274.957	4.35
275.336	4.17
275.715	3.91
276.093	4.79
276.472	4.97
276.851	4.68
277.229	3.87
277.608	4.41
277.986	4.04
278.365	3.82
278.743	5.08
279.122	3.96
279.5	4.67
279.878	4.47
280.257	4.41
280.635	4.63
281.013	4.1
281.391	4.45
281.769	3.93
282.147	4.22
282.525	3.84
282.903	3.97
283.281	4.18
283.659	3.96
284.037	4.53
284.415	4.27
284.792	4.22
285.17	4.39
285.548	3.92
285.925	4.64
286.303	4.71
286.68	3.95
287.058	4.42
287.435	3.92
287.813	4.61
288.19	4.4
288.567	4.63
288.945	4.06
289.322	4.07
289.699	4.55
290.076	4.53
290.453	4.51
290.83	4.38
291.207	4.04
291.584	4.18
291.961	4.34
292.338	4.62
292.715	4.17
293.092	4.59
293.469	4.56
293.845	5.3
294.222	4.81
294.599	4.27
294.975	4.9
295.352	5
295.728	4.8
296.105	5.06
296.481	4.76
296.858	5.04
297.234	5.15
297.61	4.68
297.986	5.19
298.363	5.02
298.739	5.19
299.115	4.88
299.491	4.88
299.867	5.06
300.243	5.17
300.619	5.24
300.995	5.57
301.371	5.06
301.746	5.81
302.122	5.02
302.498	5.41
302.874	5.3
303.249	5.5
303.625	5.58
304	5.15
304.376	5.31
304.751	5.47
305.127	5.6
305.502	6.15
305.878	6.3
306.253	5.6
306.628	5.93
307.003	5.06
307.378	5.89
307.754	6.43
308.129	6.18
308.504	6.06
308.879	6.28
309.254	5.67
309.629	6.57
310.003	6.37
310.378	6.16
310.753	6.42
311.128	5.8
311.502	6.48
311.877	6.43
312.252	6.45
312.626	6.66
313.001	6.54
313.375	6.4
313.75	6.6
314.124	6.48
314.498	6.83
314.873	7.29
315.247	6.89
315.621	7.29
315.995	6.98
316.369	7.27
316.743	7.26
317.117	6.33
317.491	7.25
317.865	7.29
318.239	7.55
318.613	6.94
318.987	6.71
319.361	7.33
319.734	7.09
320.108	7.18
320.482	7.44
320.855	7.69
321.229	7.84
321.602	7.66
321.976	7.58
322.349	7.72
322.723	7.86
323.096	8.13
323.469	7.6
323.843	7.26
324.216	7.92
324.589	8.07
324.962	8.09
325.335	7.72
325.708	8.32
326.081	8.23
326.454	8.25
326.827	8.09
327.2	7.71
327.573	8.34
327.945	8.47
328.318	7.9
328.691	8.19
329.063	8.26
329.436	8.73
329.809	9.03
330.181	8.65
330.553	8.13
330.926	8.24
331.298	8.7
331.671	9
332.043	8.9
332.415	8.72
332.787	8.32
333.159	8.8
333.532	8.78
333.904	8.42
334.276	8.56
334.648	9.02
335.02	8.7
335.391	9.15
335.763	8.55
336.135	9.37
336.507	9.46
336.879	8.74
337.25	9.15
337.622	9.14
337.993	9.25
338.365	9.44
338.736	9.52
339.108	9.42
339.479	9.24
339.851	9.79
340.222	9.73
340.593	9.08
340.964	9.53
341.336	9.5
341.707	10.15
342.078	9.08
342.449	9.51
342.82	9.39
343.191	9.66
343.562	9.62
343.933	10.28
344.303	10.07
344.674	9.61
345.045	10.06
345.416	9.44
345.786	10.38
346.157	9.93
346.527	9.89
346.898	9.87
347.268	10.15
347.639	9.87
348.009	9.75
348.38	9.82
348.75	10.18
349.12	10.13
349.49	10.31
349.861	10.27
350.231	10.38
350.601	10.14
350.971	10.25
351.341	10.08
351.711	10.41
352.081	10.21
352.45	10.19
352.82	9.92
353.19	11.11
353.56	10.58
353.929	10.68
354.299	10.91
354.669	11.17
355.038	11.17
355.408	10.51
355.777	10.48
356.147	10.73
356.516	11.08
356.885	10.82
357.254	10.8
357.624	10.89
357.993	10.95
358.362	10.99
358.731	10.71
359.1	11.01
359.469	10.98
359.838	11.13
360.207	11.02
360.576	11.22
360.945	11.02
361.314	11.23
361.682	10.75
362.051	11.02
362.42	11.31
362.788	11.12
363.157	11.34
363.525	11.35
363.894	11.43
364.262	11.14
364.631	11.32
364.999	11.43
365.367	11.47
365.735	11.73
366.104	11.75
366.472	11.58
366.84	11.57
367.208	11.75
367.576	11.77
367.944	11.57
368.312	11.82
368.68	11.95
369.048	11.7
369.416	12.07
369.783	11.78
370.151	12.03
370.519	11.85
370.886	12.09
371.254	12.2
371.621	12.35
371.989	12.26
372.356	12.41
372.724	11.99
373.091	12.01
373.458	12.22
373.826	12.35
374.193	12.13
374.56	12.41
374.927	12.49
375.294	12.68
375.661	12.52
376.028	12.42
376.395	12.5
376.762	12.26
377.129	12.45
377.496	12.48
377.863	12.67
378.229	12.55
378.596	12.63
378.963	12.96
379.329	12.83
379.696	12.7
380.062	12.44
380.429	12.73
380.795	12.86
381.161	13.08
381.528	12.63
381.894	12.82
382.26	12.85
382.626	13.24
382.993	13.32
383.359	13.17
383.725	13.68
384.091	13.15
384.457	13.09
384.823	13.28
385.188	13.51
385.554	13.38
385.92	13.45
386.286	13.34
386.651	13.38
387.017	13.54
387.383	13.62
387.748	13.61
388.114	13.39
388.479	13.85
388.845	13.53
389.21	13.5
389.575	13.64
389.94	13.83
390.306	13.77
390.671	13.84
391.036	13.83
391.401	13.83
391.766	14.11
392.131	13.91
392.496	13.88
392.861	14.19
393.226	13.63
393.591	13.95
393.956	13.9
394.32	14.1
394.685	14.12
395.05	14.29
395.414	14.26
395.779	14.05
396.143	13.97
396.508	14.13
396.872	14.44
397.236	14.11
397.601	14.25
397.965	14.66
398.329	14.41
398.694	14.36
399.058	14.75
399.422	14.51
399.786	14.69
400.15	14.31
400.514	14.43
400.878	14.59
401.242	14.49
401.605	14.83
401.969	14.87
402.333	14.44
402.697	14.25
403.06	14.86
403.424	14.63
403.787	14.75
404.151	14.72
404.514	14.54
404.878	14.46
405.241	14.71
405.604	14.64
405.968	14.52
406.331	14.79
406.694	14.56
407.057	14.73
407.42	14.89
407.783	14.97
408.146	14.88
408.509	14.7
408.872	14.91
409.235	14.98
409.598	14.9
409.961	14.99
410.323	15.11
410.686	15.26
411.049	15.24
411.411	14.98
411.774	15.05
412.136	14.96
412.499	15.09
412.861	15.07
413.223	15.06
413.586	15.3
413.948	15.21
414.31	15.12
414.672	15.25
415.035	15.17
415.397	15.44
415.759	15.53
416.121	15.49
416.483	15.57
416.845	15.2
417.206	15.28
417.568	15.47
417.93	15.35
418.292	15.31
418.653	15.43
419.015	15.32
419.377	15.34
419.738	15.52
420.1	15.31
420.461	15.61
420.822	15.63
421.184	15.58
421.545	15.52
421.906	15.53
422.267	15.58
422.629	15.59
422.99	15.58
423.351	15.45
423.712	15.65
424.073	15.67
424.434	15.87
424.795	16.06
425.155	15.91
425.516	15.95
425.877	15.94
426.238	15.94
426.598	16.09
426.959	16.13
427.32	16.17
427.68	16.28
428.041	16.43
428.401	16.64
428.761	16.67
429.122	16.85
429.482	16.88
429.842	16.88
430.202	16.95
430.563	16.96
430.923	17.08
431.283	17.28
431.643	16.97
432.003	17.23
432.363	17.25
432.722	17.41
433.082	17.3
433.442	17.26
433.802	17.37
434.161	17.36
434.521	17.34
434.881	17.41
435.24	17.37
435.6	17.48
435.959	17.63
436.319	17.64
436.678	17.75
437.037	17.88
437.396	17.92
437.756	18.06
438.115	17.84
438.474	18.1
438.833	18.2
439.192	18.11
439.551	18.13
439.91	18.16
440.269	18.38
440.628	18.26
440.987	18.19
441.345	18.42
441.704	18.25
442.063	18.32
442.421	18.28
442.78	18.26
443.138	18.36
443.497	18.59
443.855	18.68
444.214	18.62
444.572	18.81
444.93	18.78
445.288	19
445.647	19.06
446.005	19.03
446.363	18.86
446.721	18.88
447.079	18.99
447.437	18.99
447.795	18.91
448.153	18.86
448.51	18.94
448.868	18.94
449.226	19.2
449.584	19.16
449.941	19.28
450.299	19.48
450.656	19.34
451.014	19.56
451.371	19.56
451.729	19.78
452.086	19.93
452.443	19.9
452.801	20.03
453.158	20.03
453.515	20
453.872	19.99
454.229	20.17
454.586	20.28
454.943	20.18
455.3	20.26
455.657	20.36
456.014	20.62
456.371	20.39
456.727	20.57
457.084	20.5
457.441	20.57
457.797	20.64
458.154	20.84
458.51	20.66
458.867	21
459.223	21.11
459.58	20.67
459.936	21.1
460.292	20.77
460.648	21.04
461.005	20.91
461.361	20.52
461.717	20.59
462.073	20.78
462.429	20.86
462.785	20.91
463.141	21.14
463.496	21.17
463.852	21.38
464.208	21.34
464.564	21.83
464.919	21.44
465.275	21.69
465.631	21.8
465.986	21.57
466.342	22.02
466.697	21.94
467.052	22.06
467.408	22.08
467.763	21.99
468.118	22.02
468.473	22.04
468.829	22.18
469.184	22.14
469.539	22.22
469.894	22.37
470.249	22.54
470.603	22.42
470.958	22.63
471.313	22.75
471.668	22.61
472.023	22.46
472.377	22.55
472.732	22.54
473.086	22.72
473.441	22.84
473.795	23.1
474.15	22.91
474.504	22.84
474.859	23.07
475.213	23
475.567	22.79
475.921	23.18
476.275	23.1
476.63	23.1
476.984	23.39
477.338	23.32
477.692	23.5
478.045	23.3
478.399	23.31
478.753	23.6
479.107	23.47
479.461	23.47
479.814	23.62
480.168	23.56
480.521	23.43
480.875	23.58
481.228	23.83
481.582	23.77
481.935	23.79
482.289	23.8
482.642	23.78
482.995	23.86
483.348	23.75
483.701	23.74
484.055	23.82
484.408	23.54
484.761	23.42
485.114	23.22
485.466	23.05
485.819	23.03
486.172	23.12
486.525	23.27
486.878	23.4
487.23	23.49
487.583	23.68
487.936	23.87
488.288	23.95
488.641	23.76
488.993	23.64
489.345	23.6
489.698	23.66
490.05	23.74
490.402	23.87
490.754	24.01
491.107	24.27
491.459	24.36
491.811	24.57
492.163	24.75
492.515	24.7
492.866	24.48
493.218	24.26
493.57	24.18
493.922	24.32
494.274	24.39
494.625	24.6
494.977	24.95
495.328	25.12
495.68	25.26
496.031	25.44
496.383	25.46
496.734	25.66
497.086	25.77
497.437	25.89
497.788	25.82
498.139	25.72
498.49	25.68
498.842	25.54
499.193	25.69
499.544	25.77
499.894	25.88
500.245	25.91
500.596	26.08
500.947	26.13
501.298	26.27
501.648	26.32
501.999	26.36
502.35	26.38
502.7	26.48
503.051	26.46
503.401	26.39
503.752	26.5
504.102	26.7
504.452	26.76
504.803	26.72
505.153	26.8
505.503	26.66
505.853	26.89
506.203	26.82
506.553	26.8
506.903	27.01
507.253	26.99
507.603	27.01
507.953	27.19
508.303	27.01
508.652	27.07
509.002	27.21
509.352	27.19
509.701	27.14
510.051	27.26
510.4	27.19
510.75	27.14
511.099	27.21
511.449	27.22
511.798	27.4
512.147	27.37
512.496	27.39
512.846	27.41
513.195	27.37
513.544	27.61
513.893	27.64
514.242	27.61
514.591	27.55
514.939	27.65
515.288	27.77
515.637	27.76
515.986	27.92
516.334	28
516.683	28
517.032	28.15
517.38	28.04
517.729	27.99
518.077	28.15
518.426	28.29
518.774	28.2
519.122	28.08
519.47	28.06
519.819	28.08
520.167	27.81
520.515	27.72
520.863	28
521.211	27.98
521.559	28.05
521.907	28.19
522.255	28.31
522.602	28.44
522.95	28.57
523.298	28.57
523.645	28.64
523.993	28.6
524.341	28.77
524.688	28.85
525.036	28.76
525.383	28.78
525.73	28.97
526.078	28.92
526.425	28.8
526.772	28.77
527.119	28.69
527.466	28.58
527.814	28.56
528.161	28.63
528.508	28.59
528.854	28.68
529.201	28.6
529.548	28.64
529.895	28.52
530.242	28.14
530.588	28.14
530.935	28.32
531.282	28.3
531.628	28.36
531.975	28.55
532.321	28.65
532.667	28.97
533.014	28.97
533.36	29.19
533.706	29.08
534.052	29.32
534.399	29.16
534.745	28.97
535.091	28.93
535.437	28.8
535.783	29.01
536.129	29.06
536.474	29.2
536.82	29.32
537.166	29.56
537.512	29.62
537.857	29.72
538.203	29.64
538.549	29.44
538.894	29.62
539.239	29.76
539.585	29.88
539.93	29.97
540.276	30.32
540.621	30.21
540.966	30.43
541.311	30.41
541.656	30.51
542.001	30.45
542.346	30.24
542.691	30.05
543.036	29.78
543.381	29.75
543.726	29.79
544.071	29.87
544.415	30.02
544.76	30.05
545.105	30.24
545.449	30.37
545.794	30.6
546.138	30.67
546.483	30.65
546.827	30.94
547.171	31.03
547.516	30.87
547.86	30.97
548.204	31.17
548.548	30.94
548.892	30.91
549.236	31.05
549.58	31.16
549.924	31.32
550.268	31.57
550.612	31.57
550.956	31.57
551.3	31.78
551.643	31.52
551.987	31.83
552.33	31.96
552.674	32
553.017	32.08
553.361	31.89
553.704	31.99
554.048	32.21
554.391	32.14
554.734	32.12
555.077	31.91
555.42	31.94
555.764	31.98
556.107	32.38
556.45	32.41
556.793	32.5
557.135	32.43
557.478	32.69
557.821	32.73
558.164	32.57
558.507	32.56
558.849	32.92
559.192	32.78
559.534	32.86
559.877	32.88
560.219	33.14
560.562	33.23
560.904	32.94
561.246	32.95
561.589	33.25
561.931	33.32
562.273	33.28
562.615	33.18
562.957	33.36
563.299	33.18
563.641	33.18
563.983	33.27
564.325	33.41
564.667	33.51
565.008	33.33
565.35	33.43
565.692	33.53
566.033	33.81
566.375	33.71
566.716	33.7
567.058	33.82
567.399	33.36
567.741	33.44
568.082	33.46
568.423	33.48
568.764	33.42
569.105	33.58
569.447	33.65
569.788	33.66
570.129	33.83
570.47	33.82
570.811	34.01
571.151	34.16
571.492	34.01
571.833	34.32
572.174	34.13
572.514	34.23
572.855	34.22
573.195	34.2
573.536	34.3
573.876	33.98
574.217	34.12
574.557	34.55
574.898	34.38
575.238	34.5
575.578	34.56
575.918	34.58
576.258	34.48
576.598	34.51
576.938	34.9
577.278	34.78
577.618	34.5
577.958	34.6
578.298	34.91
578.638	34.86
578.977	35.12
579.317	35.17
579.657	35.06
579.996	35.03
580.336	35.29
580.675	35.35
581.014	35.15
581.354	35.32
581.693	35.38
582.032	35.66
582.372	35.74
582.711	35.68
583.05	35.33
583.389	35.73
583.728	36.02
584.067	35.78
584.406	35.41
584.745	36.03
585.083	36.02
585.422	36.13
585.761	35.93
586.1	36.07
586.438	35.87
586.777	36.08
587.115	36.12
587.454	36.21
587.792	36.19
588.13	36.28
588.469	36.2
588.807	36.25
589.145	36.51
589.483	36.46
589.821	36.49
590.159	36.4
590.497	36.44
590.835	36.45
591.173	36.49
591.511	36.49
591.849	36.27
592.187	36.75
592.524	36.79
592.862	36.84
593.2	36.98
593.537	36.85
593.875	36.88
594.212	37.18
594.55	36.62
594.887	36.89
595.224	36.9
595.561	37.02
595.899	36.87
596.236	36.89
596.573	37.16
596.91	37.05
597.247	37.29
597.584	37.2
597.921	37.28
598.258	37.08
598.594	37.14
598.931	37.21
599.268	37.19
599.604	37.08
599.941	37.32
600.277	37.34
600.614	37.47
600.95	37.39
601.287	37.89
601.623	37.4
601.959	37.81
602.296	38.11
602.632	37.76
602.968	37.96
603.304	38.15
603.64	38.09
603.976	37.89
604.312	37.99
604.648	38.2
604.984	38.16
605.319	38.21
605.655	37.98
605.991	38.01
606.326	37.92
606.662	37.98
606.998	38.1
607.333	37.91
607.668	37.96
608.004	38.28
608.339	38.36
608.674	38.6
609.01	38.24
609.345	38.38
609.68	38.7
610.015	38.81
610.35	39.04
610.685	38.61
611.02	38.69
611.355	38.61
611.689	38.53
612.024	38.58
612.359	38.67
612.694	38.8
613.028	39.1
613.363	39.32
613.697	39.45
614.032	39.23
614.366	39.32
614.7	39.19
615.035	39.39
615.369	39.43
615.703	39.3
616.037	39.49
616.371	39.62
616.705	39.41
617.039	39.67
617.373	39.82
617.707	40.06
618.041	39.86
618.375	39.53
618.709	39.5
619.042	39.5
619.376	40.19
619.71	39.73
620.043	39.85
620.377	39.91
620.71	40.29
621.043	40.35
621.377	39.78
621.71	40.23
622.043	40
622.376	40.33
622.709	40.32
623.043	40.04
623.376	40.6
623.709	40.45
624.041	40.63
624.374	40.31
624.707	40.58
625.04	41.42
625.373	40.69
625.705	40.75
626.038	40.8
626.37	40.34
626.703	40.73
627.035	40.84
627.368	40.9
627.7	40.9
628.032	41.3
628.365	41.25
628.697	40.6
629.029	41
629.361	40.91
629.693	40.76
630.025	40.9
630.357	41.27
630.689	41.12
631.021	41.08
631.353	41.4
631.684	40.87
632.016	41.09
632.348	41.44
632.679	41.38
633.011	41.64
633.342	41.36
633.674	41.46
634.005	41.66
634.336	41.42
634.668	42
634.999	41.41
635.33	41.52
635.661	41.66
635.992	41.95
636.323	41.87
636.654	41.89
636.985	41.69
637.316	41.69
637.647	41.99
637.977	42.08
638.308	41.93
638.639	42.11
638.969	42.66
639.3	41.92
639.63	42.26
639.961	42.49
640.291	42.32
640.622	42.65
640.952	42.31
641.282	42.85
641.612	42.66
641.943	42.64
642.273	42.53
642.603	42.44
642.933	42.78
643.263	42.47
643.592	42.68
643.922	42.94
644.252	43.08
644.582	43.27
644.911	43.01
645.241	42.51
645.571	43.04
645.9	42.6
646.23	43.45
646.559	43.05
646.888	43.39
647.218	43.6
647.547	43.33
647.876	42.57
648.205	43.12
648.534	43.34
648.863	43.22
649.192	43.82
649.521	42.89
649.85	43.21
650.179	43.15
650.508	43.1
650.837	43.13
651.165	43.35
651.494	43.42
651.822	43.43
652.151	43.34
652.479	43.67
652.808	43.75
653.136	43.83
653.465	43.57
653.793	43.81
654.121	43.62
654.449	43.57
654.777	44.4
655.105	44.07
655.433	44.13
655.761	44.33
656.089	43.92
656.417	43.83
656.745	44.24
657.073	44.07
657.4	44.21
657.728	44.38
658.056	44.62
658.383	44.01
658.711	44.48
659.038	44.26
659.365	43.82
659.693	44.37
660.02	44.69
660.347	44.39
660.674	44.27
661.001	45.04
661.329	44.89
661.656	44.78
661.982	44.52
662.309	44.73
662.636	44.57
662.963	44.91
663.29	45
663.616	44.95
663.943	44.93
664.27	45.24
664.596	45.06
664.923	45.21
665.249	44.95
665.576	45.03
665.902	45.31
666.228	44.89
666.554	45.09
666.881	44.63
667.207	45.32
667.533	45.47
667.859	45.02
668.185	45.22
668.511	45.1
668.837	45.94
669.162	45.76
669.488	45.42
669.814	45.16
670.139	45.95
670.465	45.64
670.791	45.48
671.116	45.48
