Data from 97277_crown_Reflection__1__87.txt Node

Date: Fri Sep 23 20:20:32 CDT 2022
User: ToomeyLab
Spectrometer: FLMS14357
Trigger mode: 0
Integration Time (sec): 1.000000E-2
Scans to average: 100
Electric dark correction enabled: true
Nonlinearity correction enabled: false
Boxcar width: 0
XAxis mode: Wavelengths
Number of Pixels in Spectrum: 2048
>>>>>Begin Spectral Data<<<<<
189.047	-45.88
189.435	-45.88
189.823	-45.88
190.211	-4.06
190.599	73.82
190.987	57.26
191.375	162.9
191.763	40.03
192.151	-39.76
192.538	313.88
192.926	-451.07
193.314	75.88
193.702	140.24
194.089	2.2
194.477	10.01
194.864	-300.41
195.252	7.14
195.639	675.66
196.027	25.87
196.414	-316.06
196.801	60.01
197.189	-5.04
197.576	112.01
197.963	-52.43
198.351	23.51
198.738	-10.9
199.125	-0.81
199.512	23.28
199.899	-4.29
200.286	-39.97
200.673	16.89
201.06	22.25
201.447	31.23
201.833	5.26
202.22	13.15
202.607	-31.64
202.994	-0.57
203.38	-1.67
203.767	-39.18
204.154	21.24
204.54	21.56
204.927	1.19
205.313	27.4
205.699	-8.58
206.086	-21.09
206.472	20.91
206.858	25.76
207.245	9.03
207.631	-4.44
208.017	1.84
208.403	34.23
208.789	26.3
209.175	-15.19
209.561	32.41
209.947	15.47
210.333	-1.76
210.719	2.23
211.105	-20.21
211.491	33.67
211.876	18.38
212.262	5.54
212.648	-10.48
213.034	-16.49
213.419	-97.17
213.805	13.23
214.19	-3.58
214.576	-13.37
214.961	14.4
215.346	-24.16
215.732	16.62
216.117	-0.31
216.502	24.94
216.888	12.96
217.273	-20.34
217.658	-33.47
218.043	10.12
218.428	-13.66
218.813	4.14
219.198	13.61
219.583	-7.55
219.968	16.37
220.353	6.51
220.738	6.97
221.122	-5.11
221.507	-7.26
221.892	3.65
222.276	-10.71
222.661	1.64
223.046	2.86
223.43	-6.09
223.815	-1.16
224.199	-6.38
224.583	9.15
224.968	2.31
225.352	4.23
225.736	-9.5
226.121	5.38
226.505	3.16
226.889	1.64
227.273	3.49
227.657	2.1
228.041	5.33
228.425	7.34
228.809	6.19
229.193	7.39
229.577	7.59
229.961	6.06
230.344	4.86
230.728	4.48
231.112	3.73
231.495	4.51
231.879	3.21
232.263	4.92
232.646	4.91
233.03	5.56
233.413	4.6
233.797	2.86
234.18	6.87
234.563	5.04
234.946	7.04
235.33	3.98
235.713	6.23
236.096	1.71
236.479	2.86
236.862	4.79
237.245	5.56
237.628	6.26
238.011	5.62
238.394	4.12
238.777	5.04
239.16	3.2
239.543	4.32
239.925	2.98
240.308	6.04
240.691	3.98
241.073	2.39
241.456	3.8
241.838	4.85
242.221	4.71
242.603	5.06
242.986	3.38
243.368	4.28
243.75	4.5
244.133	4.7
244.515	4.4
244.897	4.73
245.279	4.6
245.661	5.02
246.043	5.43
246.425	3.22
246.807	3.35
247.189	4.69
247.571	4.21
247.953	4.42
248.335	4.58
248.717	4.45
249.098	4.18
249.48	4.18
249.862	4.47
250.243	4.54
250.625	4.34
251.006	4.91
251.388	4.08
251.769	4.82
252.151	2.35
252.532	4.39
252.913	4.48
253.295	4.7
253.676	4.57
254.057	4.2
254.438	4.41
254.819	4.54
255.2	4.61
255.581	5.49
255.962	3.94
256.343	4.99
256.724	2.52
257.105	5.27
257.486	3.72
257.867	4.45
258.247	4.65
258.628	3.85
259.009	2.54
259.389	4.81
259.77	3.49
260.15	3.6
260.531	4.23
260.911	4.28
261.292	3.89
261.672	3.85
262.052	3.79
262.432	4.04
262.813	4.1
263.193	4.24
263.573	4
263.953	3.59
264.333	4.06
264.713	4.06
265.093	3.92
265.473	3.95
265.853	4.3
266.233	3.59
266.612	3.41
266.992	4.63
267.372	3.8
267.752	3.84
268.131	4.3
268.511	3.5
268.89	3.59
269.27	3.71
269.649	3.68
270.029	3.66
270.408	4.04
270.787	3.98
271.167	3.68
271.546	4.52
271.925	4.26
272.304	3.64
272.683	3.51
273.062	3.53
273.441	3.8
273.82	3.88
274.199	3.75
274.578	3.42
274.957	3.5
275.336	3.97
275.715	3.6
276.093	3.82
276.472	3.86
276.851	3.92
277.229	3.82
277.608	3.85
277.986	3.86
278.365	3.87
278.743	4.23
279.122	2.88
279.5	4.12
279.878	3.56
280.257	3.64
280.635	3.39
281.013	3.31
281.391	3.1
281.769	3.65
282.147	3.27
282.525	3.62
282.903	3.66
283.281	3.55
283.659	3.28
284.037	3.42
284.415	3.46
284.792	3.36
285.17	3.49
285.548	3.56
285.925	3.39
286.303	4.12
286.68	3.67
287.058	3.62
287.435	3.55
287.813	3.73
288.19	3.32
288.567	3.56
288.945	3.48
289.322	3.47
289.699	3.59
290.076	3.55
290.453	3.34
290.83	3.2
291.207	3.39
291.584	3.44
291.961	3.19
292.338	3.54
292.715	3.19
293.092	2.94
293.469	3.88
293.845	3.49
294.222	3.84
294.599	3.21
294.975	3.8
295.352	3.61
295.728	3.4
296.105	3.12
296.481	3.28
296.858	3.62
297.234	3.41
297.61	2.96
297.986	3.34
298.363	3.36
298.739	3.58
299.115	3.16
299.491	3.26
299.867	3.24
300.243	3.66
300.619	3.98
300.995	3.34
301.371	3.12
301.746	3.92
302.122	3.33
302.498	3.39
302.874	3.13
303.249	3.56
303.625	2.9
304	3.18
304.376	3.33
304.751	2.75
305.127	3.5
305.502	3.66
305.878	3.18
306.253	3.17
306.628	3.27
307.003	2.68
307.378	3.27
307.754	3.96
308.129	2.75
308.504	3.57
308.879	3.49
309.254	3.51
309.629	3.5
310.003	3.62
310.378	3.64
310.753	3.17
311.128	2.97
311.502	3.22
311.877	3.17
312.252	3.18
312.626	2.86
313.001	3.22
313.375	3.38
313.75	2.92
314.124	3.08
314.498	3.55
314.873	3.63
315.247	3.53
315.621	3.15
315.995	3.75
316.369	3.02
316.743	2.78
317.117	2.73
317.491	2.69
317.865	3.19
318.239	3.51
318.613	2.91
318.987	3
319.361	2.86
319.734	3.09
320.108	2.84
320.482	2.89
320.855	3.16
321.229	3.34
321.602	3.62
321.976	3.54
322.349	3.54
322.723	3.42
323.096	3.34
323.469	2.89
323.843	3.03
324.216	3.41
324.589	3.36
324.962	3.16
325.335	3.02
325.708	3.14
326.081	2.79
326.454	3.04
326.827	3.03
327.2	3.22
327.573	3.57
327.945	2.92
328.318	2.88
328.691	3.36
329.063	3.32
329.436	3.45
329.809	4.07
330.181	2.73
330.553	2.4
330.926	3.26
331.298	3.33
331.671	3.32
332.043	3.59
332.415	2.71
332.787	2.49
333.159	3.71
333.532	2.53
333.904	2.97
334.276	2.69
334.648	3.1
335.02	3.22
335.391	2.99
335.763	2.99
336.135	3.6
336.507	3.44
336.879	3.05
337.25	3.41
337.622	3.22
337.993	3.37
338.365	3.81
338.736	3.92
339.108	3.92
339.479	3.3
339.851	3.36
340.222	3.74
340.593	2.96
340.964	3.61
341.336	3.2
341.707	4.24
342.078	3.09
342.449	3.1
342.82	3.1
343.191	3.1
343.562	3.28
343.933	3.67
344.303	3.07
344.674	3.62
345.045	3.4
345.416	3.53
345.786	3.59
346.157	3.24
346.527	3.01
346.898	3.45
347.268	3.46
347.639	3.11
348.009	3.36
348.38	2.97
348.75	3.59
349.12	3.38
349.49	3.69
349.861	3.51
350.231	3.2
350.601	3.17
350.971	3.18
351.341	3.26
351.711	3.38
352.081	3.28
352.45	3.12
352.82	3.18
353.19	3.5
353.56	3.66
353.929	3.3
354.299	3.56
354.669	3.62
355.038	3.54
355.408	3.19
355.777	3.43
356.147	3.31
356.516	3.36
356.885	3.24
357.254	3.34
357.624	3.12
357.993	3.53
358.362	3.45
358.731	3.35
359.1	3.44
359.469	3.26
359.838	3.4
360.207	3.66
360.576	3.46
360.945	3.26
361.314	3.38
361.682	3.25
362.051	3.57
362.42	3.47
362.788	3.31
363.157	3.66
363.525	3.6
363.894	3.59
364.262	3.14
364.631	3.48
364.999	3.47
365.367	3.46
365.735	3.57
366.104	3.57
366.472	3.69
366.84	3.45
367.208	3.89
367.576	3.6
367.944	3.63
368.312	3.73
368.68	3.57
369.048	3.68
369.416	3.71
369.783	3.42
370.151	3.45
370.519	3.17
370.886	3.54
371.254	3.73
371.621	3.81
371.989	3.81
372.356	3.85
372.724	3.45
373.091	3.66
373.458	3.63
373.826	3.32
374.193	3.9
374.56	3.7
374.927	3.49
375.294	3.84
375.661	3.48
376.028	3.54
376.395	3.42
376.762	3.29
377.129	3.44
377.496	3.67
377.863	3.76
378.229	3.57
378.596	3.72
378.963	3.55
379.329	3.74
379.696	3.74
380.062	3.68
380.429	3.48
380.795	3.45
381.161	3.85
381.528	3.82
381.894	3.34
382.26	3.53
382.626	3.51
382.993	3.8
383.359	3.8
383.725	3.82
384.091	3.82
384.457	3.7
384.823	3.88
385.188	3.74
385.554	3.76
385.92	3.96
386.286	3.72
386.651	3.91
387.017	3.72
387.383	4.11
387.748	3.98
388.114	3.86
388.479	3.9
388.845	3.62
389.21	3.61
389.575	3.65
389.94	3.7
390.306	3.73
390.671	3.63
391.036	3.88
391.401	4.02
391.766	3.82
392.131	3.63
392.496	3.71
392.861	3.68
393.226	3.72
393.591	3.71
393.956	3.62
394.32	3.77
394.685	4.05
395.05	4.17
395.414	3.79
395.779	3.74
396.143	3.69
396.508	3.94
396.872	4.04
397.236	3.86
397.601	3.62
397.965	4.31
398.329	4.06
398.694	3.75
399.058	3.77
399.422	3.97
399.786	3.95
400.15	3.83
400.514	3.67
400.878	4.01
401.242	3.68
401.605	4.22
401.969	3.97
402.333	3.99
402.697	3.69
403.06	3.84
403.424	3.82
403.787	4.1
404.151	3.98
404.514	3.84
404.878	3.81
405.241	4.03
405.604	3.9
405.968	3.78
406.331	3.77
406.694	4.05
407.057	3.88
407.42	3.95
407.783	3.88
408.146	3.7
408.509	3.96
408.872	3.57
409.235	3.8
409.598	4.12
409.961	4.05
410.323	3.83
410.686	4.02
411.049	3.91
411.411	3.98
411.774	3.83
412.136	3.86
412.499	3.79
412.861	3.88
413.223	3.83
413.586	3.89
413.948	3.99
414.31	3.97
414.672	4
415.035	4.04
415.397	4.3
415.759	4.15
416.121	4.06
416.483	3.84
416.845	3.81
417.206	4.07
417.568	3.82
417.93	3.88
418.292	3.96
418.653	3.93
419.015	3.99
419.377	3.77
419.738	3.88
420.1	3.84
420.461	3.92
420.822	3.97
421.184	3.93
421.545	3.83
421.906	3.84
422.267	3.82
422.629	3.88
422.99	3.85
423.351	3.82
423.712	3.86
424.073	3.84
424.434	3.92
424.795	4.01
425.155	3.89
425.516	3.99
425.877	3.83
426.238	3.94
426.598	3.94
426.959	3.9
427.32	4.04
427.68	3.92
428.041	3.97
428.401	3.84
428.761	3.98
429.122	4.06
429.482	3.94
429.842	4.06
430.202	4.08
430.563	4.08
430.923	4.02
431.283	4.28
431.643	4.04
432.003	3.97
432.363	4.11
432.722	4.16
433.082	3.96
433.442	3.88
433.802	3.97
434.161	3.97
434.521	3.92
434.881	3.89
435.24	3.91
435.6	3.99
435.959	3.97
436.319	4.09
436.678	3.91
437.037	3.99
437.396	4.06
437.756	3.89
438.115	3.83
438.474	3.89
438.833	4.09
439.192	4.09
439.551	4.09
439.91	4.06
440.269	4.03
440.628	3.89
440.987	3.87
441.345	3.93
441.704	3.97
442.063	4.02
442.421	3.86
442.78	3.92
443.138	3.84
443.497	4.03
443.855	3.93
444.214	3.98
444.572	3.98
444.93	3.89
445.288	4.11
445.647	4.23
446.005	4.11
446.363	4.26
446.721	3.91
447.079	3.85
447.437	4
447.795	3.99
448.153	3.86
448.51	3.94
448.868	3.93
449.226	3.98
449.584	3.97
449.941	4
450.299	4.1
450.656	4.06
451.014	4.05
451.371	4.02
451.729	4.03
452.086	4.2
452.443	4.02
452.801	4.04
453.158	4.19
453.515	4.11
453.872	4.08
454.229	4.09
454.586	4.04
454.943	4.15
455.3	3.95
455.657	4.15
456.014	4.23
456.371	4.08
456.727	4.15
457.084	4.05
457.441	4.12
457.797	3.98
458.154	3.96
458.51	4.11
458.867	4.27
459.223	4.12
459.58	4.09
459.936	4.2
460.292	3.94
460.648	4.12
461.005	3.99
461.361	3.97
461.717	4.06
462.073	4.02
462.429	3.93
462.785	4.03
463.141	4.09
463.496	4.15
463.852	4.06
464.208	4.01
464.564	4.25
464.919	4.22
465.275	4.24
465.631	4.06
465.986	3.95
466.342	4
466.697	4.14
467.052	4.15
467.408	4.09
467.763	4.07
468.118	4.01
468.473	4.04
468.829	4.17
469.184	4.17
469.539	4.14
469.894	4
470.249	4.08
470.603	4.29
470.958	3.98
471.313	4.04
471.668	4.12
472.023	4.15
472.377	4.12
472.732	4.16
473.086	4.03
473.441	4.2
473.795	4.18
474.15	4.1
474.504	4.19
474.859	4.11
475.213	4.25
475.567	3.96
475.921	4.14
476.275	4.14
476.63	4.14
476.984	4.23
477.338	3.98
477.692	4.08
478.045	3.91
478.399	4.15
478.753	4.14
479.107	4.12
479.461	3.94
479.814	4.02
480.168	4.03
480.521	4
480.875	3.96
481.228	4.14
481.582	3.98
481.935	4.1
482.289	4.07
482.642	3.93
482.995	4.19
483.348	3.93
483.701	3.97
484.055	3.97
484.408	3.92
484.761	3.92
485.114	3.78
485.466	3.72
485.819	3.72
486.172	3.78
486.525	3.86
486.878	3.89
487.23	3.91
487.583	3.92
487.936	4.01
488.288	3.86
488.641	3.85
488.993	3.82
489.345	3.85
489.698	3.75
490.05	3.88
490.402	3.88
490.754	3.97
491.107	3.99
491.459	3.9
491.811	3.97
492.163	4.05
492.515	3.94
492.866	3.87
493.218	3.72
493.57	3.73
493.922	3.87
494.274	3.95
494.625	3.98
494.977	4.05
495.328	4.11
495.68	4.17
496.031	4.07
496.383	4.18
496.734	4.14
497.086	4.15
497.437	4.18
497.788	4.16
498.139	4.14
498.49	3.97
498.842	3.98
499.193	3.98
499.544	3.92
499.894	4.06
500.245	4.04
500.596	3.99
500.947	4.1
501.298	4.14
501.648	4.25
501.999	4.09
502.35	4.14
502.7	4.03
503.051	3.99
503.401	4.04
503.752	4
504.102	4.17
504.452	4.12
504.803	4.11
505.153	4.06
505.503	4.02
505.853	4.29
506.203	4.1
506.553	4.13
506.903	4.1
507.253	4.01
507.603	4.08
507.953	4.05
508.303	4.09
508.652	3.96
509.002	4.04
509.352	4.12
509.701	3.98
510.051	4.08
510.4	4.1
510.75	4.05
511.099	3.96
511.449	3.96
511.798	4.08
512.147	3.99
512.496	4
512.846	3.95
513.195	3.94
513.544	4.07
513.893	4.03
514.242	4.09
514.591	3.96
514.939	4.11
515.288	4
515.637	4.03
515.986	4.18
516.334	3.93
516.683	4.1
517.032	4.01
517.38	4.09
517.729	4.06
518.077	3.97
518.426	4.05
518.774	4
519.122	3.98
519.47	3.98
519.819	4.01
520.167	3.99
520.515	3.89
520.863	3.95
521.211	3.9
521.559	3.98
521.907	4.05
522.255	3.96
522.602	4.09
522.95	4.03
523.298	4.01
523.645	3.91
523.993	4.09
524.341	4.16
524.688	3.99
525.036	4.09
525.383	4.05
525.73	4.05
526.078	3.94
526.425	3.97
526.772	3.98
527.119	3.95
527.466	3.85
527.814	3.89
528.161	4.04
528.508	3.93
528.854	4
529.201	3.86
529.548	3.89
529.895	3.8
530.242	3.65
530.588	3.7
530.935	3.83
531.282	3.84
531.628	3.85
531.975	3.88
532.321	3.93
532.667	4.02
533.014	3.93
533.36	4.07
533.706	3.89
534.052	3.94
534.399	3.93
534.745	3.84
535.091	3.8
535.437	3.8
535.783	3.9
536.129	3.91
536.474	4
536.82	3.97
537.166	4.09
537.512	3.88
537.857	3.96
538.203	3.94
538.549	3.82
538.894	3.94
539.239	4.02
539.585	3.93
539.93	4.02
540.276	4.16
540.621	4.08
540.966	4.11
541.311	4.06
541.656	3.96
542.001	4.04
542.346	3.9
542.691	3.88
543.036	3.81
543.381	3.77
543.726	3.82
544.071	3.86
544.415	3.95
544.76	3.88
545.105	3.91
545.449	3.99
545.794	3.96
546.138	3.92
546.483	3.96
546.827	4.09
547.171	4.07
547.516	3.98
547.86	3.96
548.204	4.01
548.548	3.87
548.892	3.91
549.236	4.01
549.58	4
549.924	4.16
550.268	4.19
550.612	4.07
550.956	4
551.3	4.02
551.643	4.07
551.987	4.02
552.33	4.02
552.674	4.13
553.017	4.02
553.361	4.1
553.704	3.88
554.048	4.02
554.391	4.09
554.734	4.13
555.077	4.06
555.42	4
555.764	4.05
556.107	4.01
556.45	4.03
556.793	4.09
557.135	4.17
557.478	4.07
557.821	4.1
558.164	4.1
558.507	3.93
558.849	4.24
559.192	4.1
559.534	4.21
559.877	4.2
560.219	4.08
560.562	4.29
560.904	4.19
561.246	4.09
561.589	4.17
561.931	4.11
562.273	4.31
562.615	4.13
562.957	4.06
563.299	3.79
563.641	4.11
563.983	3.97
564.325	4.07
564.667	4.15
565.008	4.1
565.35	4.22
565.692	4.04
566.033	4
566.375	3.94
566.716	4.06
567.058	4.02
567.399	3.74
567.741	3.95
568.082	4.01
568.423	3.87
568.764	3.9
569.105	3.92
569.447	3.97
569.788	4.14
570.129	3.97
570.47	4.01
570.811	3.98
571.151	4.1
571.492	3.9
571.833	4.03
572.174	4
572.514	4.12
572.855	3.96
573.195	4.05
573.536	4.17
573.876	3.81
574.217	4.02
574.557	4.06
574.898	4.04
575.238	3.94
575.578	4.09
575.918	4.08
576.258	4.04
576.598	3.92
576.938	4.08
577.278	4.14
577.618	4.01
577.958	4.16
578.298	3.92
578.638	3.94
578.977	4.05
579.317	4.12
579.657	4.27
579.996	3.92
580.336	4.17
580.675	4.01
581.014	3.98
581.354	4.09
581.693	4.03
582.032	4.19
582.372	4.21
582.711	4.19
583.05	4.16
583.389	4.1
583.728	4.21
584.067	4.03
584.406	3.83
584.745	4.23
585.083	3.89
585.422	3.97
585.761	3.97
586.1	4.01
586.438	3.96
586.777	4.03
587.115	4.03
587.454	4.34
587.792	4.26
588.13	4.17
588.469	3.99
588.807	3.89
589.145	4.16
589.483	4.12
589.821	3.98
590.159	4.13
590.497	4.01
590.835	3.83
591.173	3.97
591.511	4.17
591.849	3.92
592.187	4.07
592.524	4.28
592.862	4.35
593.2	4.11
593.537	4.15
593.875	4.2
594.212	4.26
594.55	3.92
594.887	4.04
595.224	4.05
595.561	3.98
595.899	3.9
596.236	3.78
596.573	3.95
596.91	3.97
597.247	4.06
597.584	4.19
597.921	3.91
598.258	3.84
598.594	3.94
598.931	4.04
599.268	3.9
599.604	3.93
599.941	4.12
600.277	4.12
600.614	3.83
600.95	3.78
601.287	4.04
601.623	4.02
601.959	3.91
602.296	3.89
602.632	4.14
602.968	3.83
603.304	3.86
603.64	3.86
603.976	3.97
604.312	4.22
604.648	4.04
604.984	4.03
605.319	3.87
605.655	3.83
605.991	4.03
606.326	3.8
606.662	4.05
606.998	4.08
607.333	4.06
607.668	3.97
608.004	4.04
608.339	3.76
608.674	4.27
609.01	3.95
609.345	4.07
609.68	4.1
610.015	4.23
610.35	3.98
610.685	3.76
611.02	3.98
611.355	3.96
611.689	4.02
612.024	3.97
612.359	3.93
612.694	4.26
613.028	4.21
613.363	4.26
613.697	4.1
614.032	3.72
614.366	4.18
614.7	3.9
615.035	4.36
615.369	4.2
615.703	3.98
616.037	4
616.371	3.92
616.705	4.14
617.039	3.93
617.373	4.16
617.707	4.18
618.041	4.3
618.375	4.14
618.709	3.8
619.042	4.23
619.376	4.22
619.71	4.37
620.043	3.93
620.377	3.79
620.71	4.02
621.043	4.14
621.377	3.46
621.71	4.06
622.043	4.05
622.376	3.58
622.709	4.25
623.043	3.83
623.376	3.92
623.709	4.31
624.041	3.87
624.374	3.82
624.707	4.13
625.04	4.38
625.373	4.19
625.705	3.85
626.038	4.05
626.37	3.83
626.703	4
627.035	4.41
627.368	4.17
627.7	4.11
628.032	3.87
628.365	3.71
628.697	4
629.029	4.27
629.361	4.27
629.693	4.16
630.025	4.36
630.357	4.32
630.689	4.05
631.021	4.07
631.353	4.17
631.684	3.96
632.016	4.5
632.348	3.97
632.679	4.27
633.011	4.15
633.342	4.19
633.674	3.95
634.005	3.81
634.336	4.42
634.668	4.46
634.999	4.07
635.33	4.01
635.661	4.09
635.992	3.87
636.323	4.35
636.654	4.41
636.985	4.18
637.316	3.96
637.647	4.24
637.977	4.24
638.308	4.17
638.639	3.88
638.969	4.03
639.3	3.79
639.63	3.61
639.961	4.1
640.291	4.33
640.622	4.03
640.952	4.06
641.282	4.14
641.612	4.29
641.943	4.35
642.273	4.41
642.603	4.24
642.933	4.19
643.263	4.21
643.592	4.32
643.922	4.46
644.252	4.7
644.582	4.45
644.911	4.19
645.241	4.34
645.571	4.72
645.9	4.09
646.23	4.53
646.559	4.07
646.888	4.25
647.218	4.05
647.547	4.16
647.876	3.77
648.205	4.34
648.534	4.43
648.863	4.27
649.192	4.3
649.521	3.81
649.85	3.86
650.179	3.91
650.508	4.26
650.837	4.47
651.165	4.29
651.494	4.3
651.822	4.35
652.151	3.92
652.479	4.13
652.808	4.06
653.136	4.23
653.465	4.22
653.793	4.15
654.121	3.71
654.449	3.56
654.777	4.35
655.105	4.14
655.433	4.31
655.761	4.51
656.089	4.26
656.417	4.35
656.745	4.09
657.073	3.81
657.4	4.32
657.728	3.57
658.056	4.64
658.383	4.69
658.711	4.26
659.038	3.74
659.365	4.04
659.693	4.28
660.02	4.1
660.347	4.26
660.674	4.01
661.001	4.4
661.329	4.32
661.656	4.34
661.982	4.13
662.309	4.34
662.636	4.28
662.963	4.66
663.29	3.86
663.616	4.37
663.943	4.17
664.27	3.95
664.596	4.41
664.923	4.52
665.249	4.15
665.576	4.78
665.902	3.84
666.228	4.55
666.554	4.1
666.881	4.3
667.207	4.35
667.533	3.9
667.859	3.69
668.185	4.43
668.511	4.04
668.837	4.36
669.162	4.21
669.488	4.12
669.814	4.41
670.139	4.06
670.465	4.15
670.791	4.46
671.116	4.39
671.442	4.23
671.767	4.1
672.092	4.14
672.418	4.53
672.743	4.18
673.068	4.03
673.393	4.09
673.718	4.16
674.043	4.66
674.368	4.77
674.693	4.14
675.018	4.52
675.343	4.6
675.667	4.53
675.992	4.73
676.317	4.09
676.641	4.14
676.966	4.7
677.29	4.01
677.615	4.3
677.939	4.14
678.264	3.68
678.588	4
678.912	4.06
679.236	4.15
679.56	3.48
679.885	4.88
680.209	4.05
680.532	4.68
680.856	4.36
681.18	4.66
681.504	4.38
681.828	4.35
682.152	4.94
682.475	4.59
682.799	4.17
683.122	4.12
683.446	4.27
683.769	4.21
684.093	5.06
684.416	4.56
684.739	4.69
685.062	3.68
685.386	4.24
685.709	4.33
686.032	4.7
686.355	4.6
686.678	4.27
687.001	4.51
687.324	4.68
687.646	5.08
687.969	4.25
688.292	3.74
688.614	3.88
688.937	3.98
689.26	4.22
689.582	4.28
689.904	5.26
690.227	4.22
690.549	4.52
690.871	5.09
691.194	4.18
691.516	4.12
691.838	3.92
692.16	4.59
692.482	4.93
692.804	4.55
693.126	5
693.448	4.06
