Data from 97277_chest_Reflection__0__76.txt Node

Date: Fri Sep 23 20:17:16 CDT 2022
User: ToomeyLab
Spectrometer: FLMS14357
Trigger mode: 0
Integration Time (sec): 1.000000E-2
Scans to average: 100
Electric dark correction enabled: true
Nonlinearity correction enabled: false
Boxcar width: 0
XAxis mode: Wavelengths
Number of Pixels in Spectrum: 2048
>>>>>Begin Spectral Data<<<<<
189.047	-73.07
189.435	-73.07
189.823	-73.07
190.211	-3.38
190.599	130.28
190.987	-90.7
191.375	40.93
191.763	60.83
192.151	-37.75
192.538	289.92
192.926	-582.05
193.314	80.36
193.702	105.07
194.089	324.12
194.477	85.29
194.864	13.75
195.252	-7.17
195.639	1065.16
196.027	22.59
196.414	102.89
196.801	110.52
197.189	68.03
197.576	-36.79
197.963	58.11
198.351	25.75
198.738	-16.9
199.125	22.53
199.512	36.85
199.899	-19.93
200.286	-20.79
200.673	-13.03
201.06	33
201.447	31.15
201.833	10.65
202.22	9.68
202.607	26.24
202.994	35.51
203.38	18.34
203.767	-1.46
204.154	1.91
204.54	35.26
204.927	8.84
205.313	7.48
205.699	-12.43
206.086	-17.45
206.472	12.81
206.858	23.09
207.245	1.38
207.631	-17.96
208.017	-9.95
208.403	38.44
208.789	31.97
209.175	27.82
209.561	27.31
209.947	42.06
210.333	-0.19
210.719	-3.17
211.105	32.4
211.491	7.24
211.876	22.74
212.262	-19.9
212.648	-17.67
213.034	-43.85
213.419	-29.79
213.805	28.23
214.19	31.99
214.576	-6.07
214.961	11.61
215.346	-33.88
215.732	16.55
216.117	19.3
216.502	-14.4
216.888	16.07
217.273	-9.09
217.658	3.57
218.043	20.64
218.428	-1.39
218.813	-8
219.198	-0.62
219.583	11.19
219.968	19.99
220.353	44.34
220.738	9.77
221.122	2.67
221.507	6.93
221.892	4.96
222.276	-11.51
222.661	-8.81
223.046	0.47
223.43	-9.54
223.815	5.63
224.199	-2.78
224.583	6
224.968	0.04
225.352	4.3
225.736	3.76
226.121	1.17
226.505	1.89
226.889	2.57
227.273	1.47
227.657	4.48
228.041	1.7
228.425	3.98
228.809	0.87
229.193	3.32
229.577	3.09
229.961	0.4
230.344	1.31
230.728	0.14
231.112	0.82
231.495	0.01
231.879	-0.65
232.263	2.4
232.646	1.91
233.03	1.45
233.413	1.19
233.797	0.37
234.18	2.44
234.563	0.25
234.946	2.55
235.33	0.28
235.713	1.6
236.096	-0.67
236.479	0.8
236.862	0.98
237.245	2.02
237.628	2.85
238.011	2.25
238.394	1.7
238.777	-0.08
239.16	0.58
239.543	-0.56
239.925	-1.08
240.308	1.58
240.691	1.14
241.073	-0.24
241.456	0.78
241.838	2.51
242.221	1.99
242.603	1.57
242.986	1.6
243.368	0.74
243.75	1.5
244.133	1.17
244.515	1.33
244.897	1.2
245.279	1.63
245.661	2.25
246.043	2.63
246.425	1.72
246.807	-0.63
247.189	1.2
247.571	1.41
247.953	1
248.335	1.41
248.717	1.52
249.098	1.15
249.48	1.18
249.862	1.19
250.243	1.34
250.625	1.15
251.006	1.92
251.388	1.77
251.769	1.97
252.151	-0.67
252.532	1.99
252.913	1.55
253.295	1.25
253.676	0.82
254.057	1.58
254.438	1.45
254.819	1.79
255.2	1.7
255.581	2.26
255.962	0.97
256.343	0.65
256.724	2.06
257.105	1.29
257.486	0.55
257.867	1.53
258.247	1.36
258.628	1.2
259.009	1
259.389	1.73
259.77	0.5
260.15	1.29
260.531	1.12
260.911	1.3
261.292	1.19
261.672	1.04
262.052	1.05
262.432	1.03
262.813	1.09
263.193	1.47
263.573	1.4
263.953	0.81
264.333	1.02
264.713	1.07
265.093	1.85
265.473	1.67
265.853	0.9
266.233	0.9
266.612	1.36
266.992	1.81
267.372	1.14
267.752	1.47
268.131	2.06
268.511	1.02
268.89	1.33
269.27	1.39
269.649	1.03
270.029	1.16
270.408	0.77
270.787	1.12
271.167	0.87
271.546	1.51
271.925	0.95
272.304	0.76
272.683	0.86
273.062	1.36
273.441	1.08
273.82	1.69
274.199	1.42
274.578	0.72
274.957	1.04
275.336	1.58
275.715	1.11
276.093	1.84
276.472	1.71
276.851	1.07
277.229	1.26
277.608	1.17
277.986	0.89
278.365	0.84
278.743	1.47
279.122	0.54
279.5	1.09
279.878	1.29
280.257	1.23
280.635	0.92
281.013	0.95
281.391	1.66
281.769	1.06
282.147	0.93
282.525	1.1
282.903	1.3
283.281	1.59
283.659	1.16
284.037	1.6
284.415	0.89
284.792	1.32
285.17	1.2
285.548	0.88
285.925	0.95
286.303	1.69
286.68	1.35
287.058	1.12
287.435	0.98
287.813	1.52
288.19	0.97
288.567	1.31
288.945	1.42
289.322	1.23
289.699	1.42
290.076	1.3
290.453	0.99
290.83	1.06
291.207	1.15
291.584	1.23
291.961	1.33
292.338	1.48
292.715	0.88
293.092	1.07
293.469	1.6
293.845	1.65
294.222	1.2
294.599	1.23
294.975	1.54
295.352	1.81
295.728	1.25
296.105	1.12
296.481	1.47
296.858	1.45
297.234	1.73
297.61	0.6
297.986	0.87
298.363	1.35
298.739	1.27
299.115	1.05
299.491	1.08
299.867	1.07
300.243	1.22
300.619	1.87
300.995	1.36
301.371	0.72
301.746	1.63
302.122	1.37
302.498	1.44
302.874	1.18
303.249	1.64
303.625	1.12
304	1.09
304.376	0.99
304.751	0.93
305.127	1.4
305.502	1.53
305.878	1.12
306.253	1.4
306.628	0.94
307.003	0.78
307.378	1.82
307.754	1.6
308.129	1.1
308.504	1.34
308.879	1.5
309.254	0.97
309.629	1.13
310.003	1.48
310.378	1.46
310.753	1.55
311.128	1.33
311.502	1.25
311.877	1.37
312.252	1.39
312.626	1.3
313.001	1.49
313.375	1.55
313.75	1.45
314.124	1.32
314.498	1.42
314.873	1.94
315.247	1.48
315.621	1.88
315.995	1.64
316.369	1.35
316.743	1.07
317.117	0.72
317.491	1.53
317.865	1.63
318.239	1.99
318.613	1.66
318.987	1.35
319.361	0.86
319.734	1.09
320.108	1.22
320.482	1.67
320.855	1.14
321.229	1.64
321.602	1.78
321.976	1.92
322.349	1.59
322.723	1.41
323.096	1.68
323.469	1.18
323.843	1.09
324.216	2.12
324.589	1.34
324.962	1.6
325.335	0.97
325.708	1.46
326.081	1.22
326.454	1.28
326.827	1.4
327.2	1.55
327.573	1.63
327.945	1.58
328.318	0.85
328.691	1.58
329.063	1.37
329.436	1.46
329.809	2.16
330.181	1.68
330.553	1.23
330.926	1.27
331.298	1.65
331.671	1.79
332.043	1.45
332.415	1.3
332.787	1.35
333.159	1.88
333.532	1.12
333.904	1.21
334.276	0.92
334.648	1.51
335.02	1.54
335.391	1.83
335.763	1.11
336.135	1.4
336.507	1.67
336.879	1.64
337.25	1.6
337.622	1.54
337.993	1.44
338.365	1.99
338.736	1.96
339.108	1.75
339.479	1.54
339.851	1.85
340.222	1.74
340.593	1.51
340.964	1.21
341.336	1.78
341.707	2.25
342.078	1.43
342.449	1.61
342.82	1.35
343.191	1.58
343.562	1.56
343.933	2.29
344.303	1.08
344.674	1.79
345.045	1.87
345.416	1.52
345.786	1.68
346.157	1.78
346.527	1.78
346.898	1.97
347.268	1.69
347.639	1.42
348.009	1.79
348.38	1.6
348.75	1.71
349.12	1.92
349.49	1.93
349.861	1.78
350.231	1.26
350.601	1.36
350.971	1.86
351.341	1.59
351.711	1.73
352.081	1.74
352.45	1.23
352.82	1.57
353.19	2.11
353.56	1.71
353.929	1.26
354.299	1.7
354.669	1.71
355.038	2.17
355.408	1.41
355.777	1.94
356.147	1.59
356.516	1.63
356.885	1.74
357.254	1.09
357.624	1.38
357.993	1.78
358.362	1.65
358.731	1.51
359.1	1.47
359.469	1.56
359.838	1.52
360.207	1.79
360.576	1.96
360.945	1.47
361.314	1.3
361.682	1.5
362.051	1.63
362.42	1.86
362.788	1.44
363.157	1.66
363.525	1.91
363.894	1.62
364.262	1.43
364.631	1.51
364.999	1.52
365.367	1.67
365.735	1.76
366.104	2
366.472	1.62
366.84	1.34
367.208	2.04
367.576	2.28
367.944	1.62
368.312	1.97
368.68	1.63
369.048	1.62
369.416	1.52
369.783	1.73
370.151	1.52
370.519	1.58
370.886	1.58
371.254	2
371.621	1.65
371.989	1.63
372.356	2.24
372.724	1.42
373.091	1.93
373.458	1.76
373.826	1.66
374.193	1.55
374.56	1.73
374.927	1.79
375.294	1.8
375.661	1.62
376.028	1.8
376.395	1.72
376.762	1.56
377.129	1.6
377.496	1.88
377.863	1.75
378.229	2
378.596	1.47
378.963	1.79
379.329	2.04
379.696	1.58
380.062	1.79
380.429	1.72
380.795	1.58
381.161	1.97
381.528	1.77
381.894	1.76
382.26	1.69
382.626	1.76
382.993	1.92
383.359	2.16
383.725	2.22
384.091	1.89
384.457	1.79
384.823	1.67
385.188	1.89
385.554	1.71
385.92	1.97
386.286	1.68
386.651	1.96
387.017	2.03
387.383	1.77
387.748	1.91
388.114	1.83
388.479	1.77
388.845	1.92
389.21	1.77
389.575	1.69
389.94	1.77
390.306	1.44
390.671	1.73
391.036	1.7
391.401	2.06
391.766	1.91
392.131	1.89
392.496	1.76
392.861	1.81
393.226	1.77
393.591	1.77
393.956	1.73
394.32	1.94
394.685	1.8
395.05	1.8
395.414	1.79
395.779	1.86
396.143	1.83
396.508	1.87
396.872	2
397.236	2.01
397.601	1.83
397.965	2.07
398.329	2.21
398.694	1.87
399.058	1.97
399.422	1.97
399.786	2
400.15	1.75
400.514	1.81
400.878	1.89
401.242	1.74
401.605	1.92
401.969	1.99
402.333	2.06
402.697	1.5
403.06	2.02
403.424	1.75
403.787	1.95
404.151	1.77
404.514	1.88
404.878	1.86
405.241	1.87
405.604	1.91
405.968	1.91
406.331	2.03
406.694	1.85
407.057	1.91
407.42	1.88
407.783	1.95
408.146	2.04
408.509	1.79
408.872	1.94
409.235	2.12
409.598	2.11
409.961	2.1
410.323	1.99
410.686	1.84
411.049	1.9
411.411	1.96
411.774	1.99
412.136	1.9
412.499	1.84
412.861	1.72
413.223	2.04
413.586	2.01
413.948	2.04
414.31	1.94
414.672	2.17
415.035	1.92
415.397	2.14
415.759	2.02
416.121	2.23
416.483	1.94
416.845	1.73
417.206	2.02
417.568	1.94
417.93	1.96
418.292	2.02
418.653	1.91
419.015	1.98
419.377	1.91
419.738	1.98
420.1	1.93
420.461	2.01
420.822	1.96
421.184	2.02
421.545	1.91
421.906	1.99
422.267	1.88
422.629	1.87
422.99	1.98
423.351	1.82
423.712	1.83
424.073	1.91
424.434	1.99
424.795	1.95
425.155	1.96
425.516	2.02
425.877	2
426.238	1.98
426.598	1.96
426.959	1.97
427.32	2.1
427.68	2
428.041	1.98
428.401	1.98
428.761	2.11
429.122	1.96
429.482	2.1
429.842	2.16
430.202	2.22
430.563	1.92
430.923	2.24
431.283	2.13
431.643	1.98
432.003	2
432.363	2.2
432.722	2.2
433.082	1.91
433.442	2.02
433.802	2.03
434.161	2.02
434.521	2.1
434.881	1.95
435.24	2.02
435.6	2.09
435.959	2.05
436.319	2.01
436.678	2.1
437.037	2.36
437.396	2.12
437.756	2.11
438.115	1.95
438.474	2.15
438.833	2.16
439.192	2.13
439.551	2.12
439.91	2.12
440.269	2.15
440.628	2.05
440.987	2.03
441.345	2
441.704	2.05
442.063	2.07
442.421	1.93
442.78	2.04
443.138	1.97
443.497	2.12
443.855	1.97
444.214	2.18
444.572	2.05
444.93	2
445.288	2.17
445.647	2.14
446.005	2.11
446.363	2.08
446.721	2.05
447.079	2.08
447.437	2.09
447.795	2.1
448.153	2
448.51	2.09
448.868	2.07
449.226	2.16
449.584	2.06
449.941	2.13
450.299	2.15
450.656	2.14
451.014	2.21
451.371	2.06
451.729	2.14
452.086	2.28
452.443	2.01
452.801	2.2
453.158	2.22
453.515	2.21
453.872	2.3
454.229	2.23
454.586	2.18
454.943	2.25
455.3	2.18
455.657	2.05
456.014	2.22
456.371	2.03
456.727	2.3
457.084	2.17
457.441	2.25
457.797	2.01
458.154	2.04
458.51	2.14
458.867	2.28
459.223	2.27
459.58	2.22
459.936	2.24
460.292	2.16
460.648	2.17
461.005	2.11
461.361	2.13
461.717	2.2
462.073	2.26
462.429	2.13
462.785	2.25
463.141	2.23
463.496	2.37
463.852	2.47
464.208	2.25
464.564	2.37
464.919	2.18
465.275	2.41
465.631	2.31
465.986	2.08
466.342	2.23
466.697	2.37
467.052	2.38
467.408	2.33
467.763	2.29
468.118	2.25
468.473	2.21
468.829	2.28
469.184	2.22
469.539	2.23
469.894	2.29
470.249	2.32
470.603	2.24
470.958	2.39
471.313	2.4
471.668	2.44
472.023	2.32
472.377	2.36
472.732	2.38
473.086	2.22
473.441	2.33
473.795	2.4
474.15	2.47
474.504	2.46
474.859	2.41
475.213	2.39
475.567	2.21
475.921	2.31
476.275	2.35
476.63	2.32
476.984	2.41
477.338	2.33
477.692	2.33
478.045	2.23
478.399	2.37
478.753	2.35
479.107	2.28
479.461	2.38
479.814	2.31
480.168	2.38
480.521	2.35
480.875	2.38
481.228	2.43
481.582	2.3
481.935	2.39
482.289	2.45
482.642	2.37
482.995	2.48
483.348	2.24
483.701	2.26
484.055	2.28
484.408	2.25
484.761	2.31
485.114	2.13
485.466	2.12
485.819	2.15
486.172	2.19
486.525	2.3
486.878	2.27
487.23	2.32
487.583	2.33
487.936	2.35
488.288	2.28
488.641	2.28
488.993	2.24
489.345	2.23
489.698	2.24
490.05	2.32
490.402	2.28
490.754	2.39
491.107	2.5
491.459	2.35
491.811	2.43
492.163	2.45
492.515	2.41
492.866	2.35
493.218	2.21
493.57	2.28
493.922	2.34
494.274	2.4
494.625	2.47
494.977	2.44
495.328	2.56
495.68	2.61
496.031	2.48
496.383	2.64
496.734	2.52
497.086	2.6
497.437	2.57
497.788	2.59
498.139	2.47
498.49	2.45
498.842	2.41
499.193	2.53
499.544	2.47
499.894	2.44
500.245	2.48
500.596	2.6
500.947	2.47
501.298	2.64
501.648	2.82
501.999	2.5
502.35	2.71
502.7	2.62
503.051	2.58
503.401	2.62
503.752	2.59
504.102	2.69
504.452	2.56
504.803	2.5
505.153	2.65
505.503	2.45
505.853	2.76
506.203	2.65
506.553	2.65
506.903	2.65
507.253	2.57
507.603	2.62
507.953	2.67
508.303	2.71
508.652	2.63
509.002	2.7
509.352	2.71
509.701	2.49
510.051	2.64
510.4	2.68
510.75	2.61
511.099	2.58
511.449	2.64
511.798	2.7
512.147	2.7
512.496	2.66
512.846	2.64
513.195	2.59
513.544	2.78
513.893	2.62
514.242	2.7
514.591	2.66
514.939	2.76
515.288	2.76
515.637	2.69
515.986	2.69
516.334	2.64
516.683	2.79
517.032	2.8
517.38	2.88
517.729	2.71
518.077	2.64
518.426	2.9
518.774	2.8
519.122	2.69
519.47	2.7
519.819	2.76
520.167	2.63
520.515	2.68
520.863	2.77
521.211	2.7
521.559	2.74
521.907	2.7
522.255	2.81
522.602	2.78
522.95	2.84
523.298	2.84
523.645	2.82
523.993	2.81
524.341	2.97
524.688	2.84
525.036	2.86
525.383	2.74
525.73	2.87
526.078	2.82
526.425	2.89
526.772	2.86
527.119	2.84
527.466	2.71
527.814	2.78
528.161	2.87
528.508	2.92
528.854	2.84
529.201	2.79
529.548	2.88
529.895	2.72
530.242	2.62
530.588	2.65
530.935	2.72
531.282	2.78
531.628	2.77
531.975	2.86
532.321	2.92
532.667	2.91
533.014	2.87
533.36	3.02
533.706	2.95
534.052	2.96
534.399	2.94
534.745	2.83
535.091	2.84
535.437	2.86
535.783	2.94
536.129	2.96
536.474	2.98
536.82	2.97
537.166	3.03
537.512	2.96
537.857	3.06
538.203	2.94
538.549	2.97
538.894	3.02
539.239	3.14
539.585	3.08
539.93	3.06
540.276	3.2
540.621	3.11
540.966	3.18
541.311	3.17
541.656	3.15
542.001	3.25
542.346	3.03
542.691	3.02
543.036	2.98
543.381	2.99
543.726	3.02
544.071	3.05
544.415	3.13
544.76	3.06
545.105	3.14
545.449	3.17
545.794	3.19
546.138	3.28
546.483	3.22
546.827	3.28
547.171	3.19
547.516	3.29
547.86	3.17
548.204	3.37
548.548	3.13
548.892	3.22
549.236	3.33
549.58	3.34
549.924	3.43
550.268	3.5
550.612	3.47
550.956	3.45
551.3	3.35
551.643	3.37
551.987	3.43
552.33	3.4
552.674	3.49
553.017	3.44
553.361	3.48
553.704	3.5
554.048	3.44
554.391	3.41
554.734	3.55
555.077	3.42
555.42	3.45
555.764	3.37
556.107	3.69
556.45	3.7
556.793	3.54
557.135	3.61
557.478	3.61
557.821	3.66
558.164	3.54
558.507	3.6
558.849	3.84
559.192	3.65
559.534	3.89
559.877	3.75
560.219	3.72
560.562	3.84
560.904	3.68
561.246	3.5
561.589	3.69
561.931	3.76
562.273	3.91
562.615	3.61
562.957	3.67
563.299	3.59
563.641	3.68
563.983	3.87
564.325	3.72
564.667	3.88
565.008	3.88
565.35	4.02
565.692	3.77
566.033	3.75
566.375	3.86
566.716	4.07
567.058	3.83
567.399	3.69
567.741	3.89
568.082	3.91
568.423	3.79
568.764	3.79
569.105	3.96
569.447	3.8
569.788	3.89
570.129	3.93
570.47	4.07
570.811	4.13
571.151	4.05
571.492	4.1
571.833	4
572.174	3.94
572.514	4.13
572.855	4.01
573.195	4.02
573.536	4.12
573.876	3.79
574.217	4.12
574.557	4.04
574.898	4.07
575.238	4.13
575.578	4.17
575.918	4.21
576.258	4.04
576.598	4.18
576.938	4.38
577.278	4.18
577.618	4.13
577.958	4.31
578.298	4.17
578.638	4.36
578.977	4.27
579.317	4.43
579.657	4.44
579.996	4.25
580.336	4.47
580.675	4.37
581.014	4.38
581.354	4.53
581.693	4.42
582.032	4.48
582.372	4.51
582.711	4.55
583.05	4.44
583.389	4.61
583.728	4.47
584.067	4.49
584.406	4.34
584.745	4.76
585.083	4.5
585.422	4.91
585.761	4.76
586.1	4.63
586.438	4.51
586.777	4.75
587.115	4.81
587.454	4.86
587.792	4.83
588.13	4.69
588.469	4.56
588.807	4.63
589.145	5.02
589.483	4.8
589.821	4.77
590.159	4.8
590.497	4.84
590.835	4.56
591.173	4.94
591.511	5
591.849	4.74
592.187	4.8
592.524	5.17
592.862	5.07
593.2	4.96
593.537	4.92
593.875	5.02
594.212	5.13
594.55	5.09
594.887	5.15
595.224	5.16
595.561	5.1
595.899	4.83
596.236	4.95
596.573	5.09
596.91	4.97
597.247	5.18
597.584	5.1
597.921	5.03
598.258	4.83
598.594	5.09
598.931	5.15
599.268	4.98
599.604	5.17
599.941	5.28
600.277	5.37
600.614	5.2
600.95	5.17
601.287	5.27
601.623	5.09
601.959	5.12
602.296	5.25
602.632	5.2
602.968	4.98
603.304	5.32
603.64	5.37
603.976	5.48
604.312	5.4
604.648	5.4
604.984	5.43
605.319	5.5
605.655	5.34
605.991	5.32
606.326	5.35
606.662	5.54
606.998	5.62
607.333	5.24
607.668	5.46
608.004	5.76
608.339	5.63
608.674	5.7
609.01	5.51
609.345	5.62
609.68	5.81
610.015	5.84
610.35	5.68
610.685	5.35
611.02	5.74
611.355	5.56
611.689	5.58
612.024	5.65
612.359	5.55
612.694	5.9
613.028	5.83
613.363	6.05
613.697	5.68
614.032	5.87
614.366	6
614.7	5.87
615.035	6.19
615.369	6.24
615.703	6.25
616.037	6.22
616.371	6.09
616.705	6.02
617.039	6.1
617.373	6.38
617.707	6.49
618.041	6.24
618.375	6.46
618.709	6.04
619.042	6.17
619.376	6.32
619.71	6.16
620.043	6.04
620.377	5.9
620.71	6.36
621.043	6.24
621.377	5.82
621.71	6.64
622.043	6.07
622.376	6.27
622.709	6.14
623.043	6.07
623.376	6.47
623.709	6.57
624.041	6.41
624.374	6.72
624.707	6.58
625.04	6.94
625.373	6.47
625.705	6.61
626.038	6.26
626.37	6.29
626.703	6.42
627.035	6.74
627.368	6.84
627.7	6.5
628.032	6.46
628.365	6.65
628.697	6.42
629.029	6.54
629.361	6.78
629.693	6.49
630.025	6.75
630.357	7
630.689	6.94
631.021	6.84
631.353	7.29
631.684	6.65
632.016	7.42
632.348	6.74
632.679	6.95
633.011	6.88
633.342	6.69
633.674	6.78
634.005	6.95
634.336	7.21
634.668	7.16
634.999	7.06
635.33	6.95
635.661	7.18
635.992	7.22
636.323	7.4
636.654	7.06
636.985	7.24
637.316	7.15
637.647	7.19
637.977	7.06
638.308	6.87
638.639	7.17
638.969	7.2
639.3	7.06
639.63	6.99
639.961	7.5
640.291	7.15
640.622	7.15
640.952	7.04
641.282	7.51
641.612	7.49
641.943	7.95
642.273	7.73
642.603	7.67
642.933	7.59
643.263	7.32
643.592	7.32
643.922	7.59
644.252	7.83
644.582	7.57
644.911	7.47
645.241	7.65
645.571	7.68
645.9	7.55
646.23	8.03
646.559	7.55
646.888	7.42
647.218	8.08
647.547	7.49
647.876	7.82
648.205	7.73
648.534	7.71
648.863	7.97
649.192	7.98
649.521	7.28
649.85	7.63
650.179	7.27
650.508	7.69
650.837	8.06
651.165	8.09
651.494	7.53
651.822	8.43
652.151	7.86
652.479	7.81
652.808	7.9
653.136	8.05
653.465	7.91
653.793	7.98
654.121	7.79
654.449	7.54
654.777	7.97
655.105	8.2
655.433	8.51
655.761	8.17
656.089	8.68
656.417	8.21
656.745	8.27
657.073	7.66
657.4	8.39
657.728	8.41
658.056	8.79
658.383	8.4
658.711	8.2
659.038	8.59
659.365	8.34
659.693	8.64
660.02	8.67
660.347	8.5
660.674	8.3
661.001	8.9
661.329	8.18
661.656	8.63
661.982	8.79
662.309	8.74
662.636	8.72
662.963	8.74
663.29	8.65
663.616	8.85
663.943	8.89
664.27	9
664.596	8.96
664.923	8.85
665.249	9.24
665.576	8.86
665.902	8.78
666.228	9.74
666.554	8.61
666.881	9.02
667.207	9.2
667.533	8.71
667.859	8.81
668.185	9.19
668.511	8.8
668.837	9.44
669.162	9.01
669.488	9.01
669.814	9.49
670.139	8.83
670.465	9.42
670.791	8.97
671.116	8.96
671.442	9.68
671.767	9.16
672.092	8.8
672.418	10
672.743	9.58
673.068	8.86
673.393	9.29
673.718	8.85
674.043	9.55
674.368	9.81
674.693	9.49
675.018	9.65
675.343	10.2
675.667	9.93
675.992	9.89
676.317	10.08
676.641	9.57
676.966	9.85
677.29	9.83
677.615	9.77
677.939	9.79
678.264	9.51
678.588	9.53
678.912	9.67
679.236	9.69
679.56	9.15
679.885	9.79
680.209	9.82
680.532	9.73
680.856	10.3
681.18	9.83
681.504	10.39
681.828	9.9
682.152	10.29
682.475	9.73
682.799	9.9
683.122	10.05
683.446	10.28
683.769	10.05
684.093	10.54
684.416	10.4
684.739	10.38
685.062	10.54
685.386	9.88
685.709	10
686.032	10.36
686.355	10.08
686.678	10.25
687.001	9.99
687.324	10.29
687.646	11
687.969	10.43
688.292	9.77
688.614	10.87
688.937	10.69
689.26	10.4
689.582	9.97
689.904	10.46
690.227	10.42
690.549	10.3
690.871	10.67
691.194	10.48
691.516	10.45
691.838	10.89
692.16	10.86
692.482	10.44
692.804	10.34
