Data from 97277_forehead_Reflection__3__84.txt Node

Date: Fri Sep 23 20:19:41 CDT 2022
User: ToomeyLab
Spectrometer: FLMS14357
Trigger mode: 0
Integration Time (sec): 1.000000E-2
Scans to average: 100
Electric dark correction enabled: true
Nonlinearity correction enabled: false
Boxcar width: 0
XAxis mode: Wavelengths
Number of Pixels in Spectrum: 2048
>>>>>Begin Spectral Data<<<<<
189.047	276.6
189.435	276.6
189.823	276.6
190.211	-23.74
190.599	254.3
190.987	135.22
191.375	8.89
191.763	89.59
192.151	5.73
192.538	30.15
192.926	-354.6
193.314	157.64
193.702	6.88
194.089	24.78
194.477	271.34
194.864	-230.75
195.252	27.03
195.639	1068.26
196.027	108.23
196.414	-288.84
196.801	93.58
197.189	97.03
197.576	-237.55
197.963	43.91
198.351	103.71
198.738	50.24
199.125	36.47
199.512	74.48
199.899	41.81
200.286	39.43
200.673	22.24
201.06	28.49
201.447	45.33
201.833	40.51
202.22	34.61
202.607	78.37
202.994	7.22
203.38	-3.51
203.767	15.8
204.154	23.79
204.54	59.95
204.927	54.49
205.313	47.44
205.699	14.71
206.086	47.68
206.472	49.33
206.858	44.82
207.245	0.19
207.631	23.82
208.017	22.18
208.403	37.15
208.789	40.14
209.175	52.07
209.561	49.9
209.947	3.9
210.333	24.1
210.719	36.79
211.105	59.05
211.491	31.19
211.876	33.14
212.262	14.78
212.648	12.26
213.034	11.55
213.419	13.53
213.805	47.05
214.19	21.59
214.576	43.13
214.961	26.02
215.346	-2.57
215.732	30.51
216.117	44.98
216.502	18.5
216.888	11.23
217.273	51.06
217.658	-9.03
218.043	42.8
218.428	21.44
218.813	36.74
219.198	15.77
219.583	22.39
219.968	18.2
220.353	35.2
220.738	36.85
221.122	47.32
221.507	23.89
221.892	-1.18
222.276	7.64
222.661	14.21
223.046	11.36
223.43	5.5
223.815	8.73
224.199	17.85
224.583	15.68
224.968	9.69
225.352	17.67
225.736	15.07
226.121	8.77
226.505	9.29
226.889	12.78
227.273	8.57
227.657	2.17
228.041	6.24
228.425	9.57
228.809	5.05
229.193	7.76
229.577	6.81
229.961	5.57
230.344	5.66
230.728	4.49
231.112	5.21
231.495	5.24
231.879	3.47
232.263	7.68
232.646	5.32
233.03	5.42
233.413	7.4
233.797	7.84
234.18	8.71
234.563	4.85
234.946	6.93
235.33	5.98
235.713	7.28
236.096	3.13
236.479	4.85
236.862	4.87
237.245	6.42
237.628	6.89
238.011	6.52
238.394	5.89
238.777	6.83
239.16	6.15
239.543	5.83
239.925	5.14
240.308	5.63
240.691	6.6
241.073	5.04
241.456	5.95
241.838	6.71
242.221	6.05
242.603	6.54
242.986	3.97
243.368	5.13
243.75	5.33
244.133	5.53
244.515	5.29
244.897	5.51
245.279	6
245.661	6.52
246.043	6.06
246.425	5.12
246.807	5.39
247.189	6.28
247.571	6.27
247.953	5.8
248.335	5.44
248.717	5.45
249.098	5.43
249.48	5.21
249.862	5.6
250.243	5.87
250.625	5.94
251.006	6.04
251.388	5.46
251.769	6.06
252.151	4.24
252.532	5.65
252.913	6.79
253.295	6.09
253.676	5.63
254.057	5.79
254.438	5.58
254.819	6.35
255.2	6.46
255.581	7.03
255.962	5.73
256.343	8.13
256.724	6.96
257.105	6.33
257.486	5.69
257.867	6.92
258.247	7.16
258.628	5.39
259.009	5.55
259.389	6.25
259.77	5.23
260.15	5.71
260.531	5.71
260.911	5.53
261.292	5.25
261.672	5.34
262.052	5.18
262.432	5.29
262.813	5.27
263.193	5.71
263.573	5.97
263.953	5.39
264.333	5.42
264.713	5.98
265.093	5.85
265.473	6.12
265.853	5.09
266.233	5.39
266.612	5.21
266.992	5.99
267.372	5.78
267.752	5.76
268.131	5.6
268.511	5.35
268.89	5.76
269.27	5.14
269.649	5.33
270.029	5.48
270.408	5.93
270.787	5.44
271.167	4.85
271.546	5.75
271.925	5.41
272.304	5.36
272.683	5.3
273.062	4.98
273.441	5.23
273.82	5.3
274.199	5.17
274.578	5.11
274.957	5.2
275.336	5.29
275.715	5.7
276.093	5.96
276.472	5.49
276.851	5.38
277.229	5.1
277.608	5.14
277.986	4.89
278.365	5.47
278.743	5.87
279.122	4.85
279.5	5.58
279.878	5.22
280.257	5.17
280.635	5.25
281.013	5.05
281.391	5.26
281.769	5.65
282.147	4.87
282.525	4.77
282.903	5.08
283.281	5.04
283.659	4.9
284.037	5.13
284.415	5.21
284.792	5.25
285.17	5.06
285.548	4.95
285.925	5.65
286.303	5.55
286.68	5.28
287.058	5.15
287.435	5.01
287.813	5.45
288.19	5.13
288.567	5.22
288.945	5.2
289.322	5.66
289.699	5.6
290.076	5.46
290.453	5.5
290.83	5.85
291.207	5.38
291.584	5.62
291.961	6.06
292.338	5.66
292.715	5.34
293.092	5.42
293.469	5.8
293.845	5.62
294.222	5.58
294.599	5.27
294.975	6.16
295.352	6.11
295.728	5.56
296.105	5.62
296.481	5.81
296.858	5.96
297.234	6.05
297.61	5.79
297.986	5.98
298.363	5.54
298.739	6.16
299.115	5.97
299.491	5.82
299.867	5.9
300.243	6.05
300.619	6.32
300.995	6.43
301.371	6.02
301.746	6.85
302.122	6.73
302.498	6.14
302.874	6.36
303.249	6.73
303.625	6
304	6.54
304.376	6.48
304.751	6.71
305.127	6.7
305.502	7.24
305.878	7
306.253	6.76
306.628	6.76
307.003	6.96
307.378	7.12
307.754	7.3
308.129	7.29
308.504	7.94
308.879	7.53
309.254	7.65
309.629	7.42
310.003	7.55
310.378	7.7
310.753	7.63
311.128	7.41
311.502	7.51
311.877	7.68
312.252	7.82
312.626	8.34
313.001	8.14
313.375	7.75
313.75	7.65
314.124	7.46
314.498	8.07
314.873	8.48
315.247	8.68
315.621	8.92
315.995	8.44
316.369	8.48
316.743	8.07
317.117	8.04
317.491	8.34
317.865	8.74
318.239	8.94
318.613	8.84
318.987	8.49
319.361	8.62
319.734	9.32
320.108	8.82
320.482	9.13
320.855	9.11
321.229	9.66
321.602	9.41
321.976	9.47
322.349	9.56
322.723	9.83
323.096	9.73
323.469	9.76
323.843	10.04
324.216	10.29
324.589	10.12
324.962	10.11
325.335	9.67
325.708	9.87
326.081	10.27
326.454	10.3
326.827	9.98
327.2	9.86
327.573	11.03
327.945	10.85
328.318	9.95
328.691	10.52
329.063	10.61
329.436	10.68
329.809	11.37
330.181	10.74
330.553	10.23
330.926	11.15
331.298	11.04
331.671	11.45
332.043	11.25
332.415	10.67
332.787	10.63
333.159	11.05
333.532	11.12
333.904	10.75
334.276	10.87
334.648	11.3
335.02	11.53
335.391	11.3
335.763	10.85
336.135	11.87
336.507	11.73
336.879	11.41
337.25	12.04
337.622	12.08
337.993	11.82
338.365	11.8
338.736	12.07
339.108	12.16
339.479	11.93
339.851	12.11
340.222	12.2
340.593	11.73
340.964	12.56
341.336	11.75
341.707	12.86
342.078	11.94
342.449	12.33
342.82	12.5
343.191	12.33
343.562	12.17
343.933	12.87
344.303	12.25
344.674	12.62
345.045	12.82
345.416	12.5
345.786	13.07
346.157	12.44
346.527	12.9
346.898	12.97
347.268	12.75
347.639	12.96
348.009	13.08
348.38	13.23
348.75	13.36
349.12	13.43
349.49	13.67
349.861	13.19
350.231	13.34
350.601	13.48
350.971	13.64
351.341	13.45
351.711	13.76
352.081	13.2
352.45	13.32
352.82	13.38
353.19	14.02
353.56	13.86
353.929	14
354.299	13.97
354.669	13.95
355.038	14.29
355.408	13.72
355.777	14.16
356.147	14.24
356.516	14
356.885	13.99
357.254	14.3
357.624	14.17
357.993	14.18
358.362	14
358.731	14.37
359.1	14.37
359.469	14.61
359.838	13.99
360.207	14.61
360.576	14.83
360.945	14.61
361.314	14.48
361.682	14.97
362.051	14.99
362.42	14.64
362.788	14.8
363.157	14.92
363.525	14.94
363.894	14.95
364.262	14.68
364.631	14.89
364.999	15.03
365.367	15.41
365.735	15.36
366.104	15.51
366.472	15.22
366.84	15.55
367.208	15.64
367.576	15.91
367.944	15.77
368.312	15.92
368.68	15.57
369.048	15.72
369.416	15.79
369.783	15.84
370.151	15.85
370.519	15.85
370.886	16.05
371.254	16.4
371.621	16.43
371.989	16.06
372.356	16.55
372.724	16.3
373.091	16.12
373.458	16.54
373.826	16.26
374.193	16.41
374.56	16.46
374.927	16.6
375.294	16.93
375.661	16.95
376.028	17
376.395	16.68
376.762	16.87
377.129	16.93
377.496	16.89
377.863	17.25
378.229	17.04
378.596	16.98
378.963	17.15
379.329	17.45
379.696	16.97
380.062	17.24
380.429	17.21
380.795	17.08
381.161	17.17
381.528	17.62
381.894	17.41
382.26	17.37
382.626	17.41
382.993	17.81
383.359	17.64
383.725	18.03
384.091	18.08
384.457	17.79
384.823	17.94
385.188	17.94
385.554	17.79
385.92	18.08
386.286	18.13
386.651	18.53
387.017	18.34
387.383	18.47
387.748	18.21
388.114	18.46
388.479	18.41
388.845	18.52
389.21	18.49
389.575	18.25
389.94	18.49
390.306	18.57
390.671	18.54
391.036	18.59
391.401	18.84
391.766	18.74
392.131	18.7
392.496	19.06
392.861	18.68
393.226	18.67
393.591	18.91
393.956	19.06
394.32	18.83
394.685	18.83
395.05	18.94
395.414	19.08
395.779	19.07
396.143	19.04
396.508	19.01
396.872	19.28
397.236	19.28
397.601	19.35
397.965	19.45
398.329	19.78
398.694	19.45
399.058	19.57
399.422	19.56
399.786	19.77
400.15	19.62
400.514	19.74
400.878	19.76
401.242	19.49
401.605	19.89
401.969	20.02
402.333	19.76
402.697	19.72
403.06	20.1
403.424	19.76
403.787	19.74
404.151	20.29
404.514	19.84
404.878	19.73
405.241	19.97
405.604	19.85
405.968	19.95
406.331	20.05
406.694	20.06
407.057	19.93
407.42	20.06
407.783	19.98
408.146	20.15
408.509	20.34
408.872	20.2
409.235	20.49
409.598	20.41
409.961	20.58
410.323	20.53
410.686	20.48
411.049	20.4
411.411	20.39
411.774	20.47
412.136	20.57
412.499	20.3
412.861	20.61
413.223	20.6
413.586	20.88
413.948	21
414.31	20.68
414.672	20.97
415.035	20.79
415.397	21.31
415.759	21.13
416.121	21.2
416.483	21.05
416.845	20.92
417.206	21.14
417.568	21.16
417.93	21.15
418.292	21.23
418.653	21.01
419.015	21.03
419.377	21.06
419.738	21.12
420.1	21.04
420.461	21.15
420.822	21.13
421.184	21.16
421.545	21.29
421.906	21.35
422.267	21.13
422.629	21.13
422.99	21.29
423.351	21.15
423.712	21.4
424.073	21.53
424.434	21.6
424.795	21.8
425.155	21.73
425.516	21.96
425.877	21.69
426.238	21.78
426.598	21.81
426.959	21.81
427.32	22.06
427.68	22.03
428.041	22.28
428.401	22.35
428.761	22.38
429.122	22.7
429.482	23.07
429.842	23.04
430.202	23.19
430.563	23.03
430.923	23.14
431.283	23.67
431.643	23.3
432.003	23.38
432.363	23.46
432.722	23.65
433.082	23.74
433.442	23.62
433.802	23.5
434.161	23.64
434.521	23.72
434.881	23.8
435.24	23.66
435.6	23.78
435.959	23.83
436.319	24.05
436.678	24.13
437.037	24.28
437.396	24.37
437.756	24.41
438.115	24.19
438.474	24.51
438.833	24.81
439.192	24.59
439.551	24.69
439.91	24.58
440.269	24.7
440.628	24.7
440.987	24.76
441.345	24.67
441.704	24.71
442.063	24.85
442.421	24.83
442.78	24.83
443.138	24.7
443.497	25.11
443.855	25.16
444.214	25.3
444.572	25.31
444.93	25.35
445.288	25.66
445.647	25.68
446.005	25.82
446.363	25.79
446.721	25.44
447.079	25.6
447.437	25.71
447.795	25.57
448.153	25.48
448.51	25.72
448.868	25.62
449.226	25.81
449.584	25.83
449.941	26.2
450.299	26.23
450.656	26.25
451.014	26.5
451.371	26.59
451.729	26.79
452.086	26.82
452.443	26.76
452.801	26.83
453.158	27.12
453.515	27.06
453.872	27.16
454.229	27.24
454.586	27.41
454.943	27.18
455.3	27.49
455.657	27.42
456.014	27.5
456.371	27.63
456.727	27.69
457.084	27.79
457.441	27.88
457.797	27.68
458.154	27.81
458.51	28
458.867	28.16
459.223	28.31
459.58	28.15
459.936	28.2
460.292	28.19
460.648	28.25
461.005	28.14
461.361	27.99
461.717	28.02
462.073	27.99
462.429	27.98
462.785	28.18
463.141	28.42
463.496	28.64
463.852	28.87
464.208	28.71
464.564	29.07
464.919	29.29
465.275	29.49
465.631	29.33
465.986	29.4
466.342	29.37
466.697	29.33
467.052	29.37
467.408	29.63
467.763	29.46
468.118	29.57
468.473	29.69
468.829	29.69
469.184	29.88
469.539	29.89
469.894	29.93
470.249	30.11
470.603	30.12
470.958	30.1
471.313	30.37
471.668	30.31
472.023	30.31
472.377	30.32
472.732	30.73
473.086	30.4
473.441	30.88
473.795	30.99
474.15	30.67
474.504	30.78
474.859	30.85
475.213	30.79
475.567	30.72
475.921	31.09
476.275	30.97
476.63	31.02
476.984	31.32
477.338	31.48
477.692	31.38
478.045	31.16
478.399	31.39
478.753	31.39
479.107	31.37
479.461	31.44
479.814	31.47
480.168	31.28
480.521	31.65
480.875	31.51
481.228	31.91
481.582	31.86
481.935	31.99
482.289	32.05
482.642	32.01
482.995	31.92
483.348	31.78
483.701	31.78
484.055	31.74
484.408	31.48
484.761	31.45
485.114	31.24
485.466	31.08
485.819	31.06
486.172	31.12
486.525	31.13
486.878	31.23
487.23	31.28
487.583	31.57
487.936	31.85
488.288	31.98
488.641	31.83
488.993	31.72
489.345	31.61
489.698	31.68
490.05	31.76
490.402	31.76
490.754	32.07
491.107	32.37
491.459	32.47
491.811	32.8
492.163	32.95
492.515	32.95
492.866	32.71
493.218	32.39
493.57	32.41
493.922	32.48
494.274	32.51
494.625	32.81
494.977	32.98
495.328	33.29
495.68	33.5
496.031	33.9
496.383	34.08
496.734	33.99
497.086	34.34
497.437	34.28
497.788	34.15
498.139	34.18
498.49	34.06
498.842	34.1
499.193	33.97
499.544	34.13
499.894	34.36
500.245	34.45
500.596	34.58
500.947	34.57
501.298	34.85
501.648	34.85
501.999	34.95
502.35	35.15
502.7	34.96
503.051	35.26
503.401	35.25
503.752	35.04
504.102	35.52
504.452	35.4
504.803	35.54
505.153	35.6
505.503	35.49
505.853	35.38
506.203	35.66
506.553	35.6
506.903	35.61
507.253	35.72
507.603	35.72
507.953	35.87
508.303	35.98
508.652	36.05
509.002	35.89
509.352	36.23
509.701	35.91
510.051	36.03
510.4	35.96
510.75	35.79
511.099	35.87
511.449	35.9
511.798	36.15
512.147	36.15
512.496	36
512.846	36.27
513.195	36.2
513.544	36.57
513.893	36.27
514.242	36.58
514.591	36.45
514.939	36.66
515.288	36.62
515.637	36.71
515.986	36.71
516.334	36.84
516.683	37.04
517.032	37.03
517.38	37.12
517.729	37.19
518.077	37.17
518.426	37.26
518.774	37.17
519.122	37.25
519.47	36.98
519.819	36.95
520.167	36.71
520.515	36.73
520.863	36.79
521.211	36.83
521.559	36.92
521.907	37.1
522.255	37.26
522.602	37.33
522.95	37.5
523.298	37.64
523.645	37.71
523.993	37.6
524.341	37.92
524.688	37.95
525.036	37.86
525.383	38.24
525.73	38.34
526.078	37.94
526.425	37.83
526.772	38.03
527.119	37.65
527.466	37.67
527.814	37.49
528.161	37.75
528.508	37.67
528.854	37.68
529.201	37.68
529.548	37.62
529.895	37.55
530.242	37.26
530.588	37.36
530.935	37.4
531.282	37.31
531.628	37.4
531.975	37.44
532.321	37.7
532.667	38.05
533.014	38.27
533.36	38.49
533.706	38.28
534.052	38.43
534.399	38.18
534.745	38.22
535.091	37.97
535.437	37.87
535.783	38.04
536.129	38.3
536.474	38.43
536.82	38.59
537.166	38.72
537.512	38.82
537.857	39.01
538.203	38.79
538.549	38.72
538.894	38.91
539.239	39.04
539.585	39.17
539.93	39.23
540.276	39.58
540.621	39.6
540.966	39.82
541.311	39.82
541.656	39.79
542.001	39.82
542.346	39.47
542.691	39.36
543.036	38.94
543.381	38.93
543.726	38.94
544.071	38.92
544.415	39.15
544.76	39.31
545.105	39.49
545.449	39.61
545.794	39.96
546.138	39.97
546.483	40.11
546.827	40.44
547.171	40.38
547.516	40.3
547.86	40.35
548.204	40.36
548.548	40.28
548.892	40.24
549.236	40.59
549.58	40.78
549.924	40.77
550.268	41.04
550.612	41.16
550.956	41.24
551.3	41.22
551.643	41.52
551.987	41.52
552.33	41.73
552.674	42.03
553.017	41.97
553.361	41.75
553.704	41.9
554.048	41.6
554.391	41.71
554.734	41.75
555.077	41.75
555.42	41.81
555.764	41.81
556.107	41.96
556.45	42.15
556.793	42.24
557.135	42.34
557.478	42.3
557.821	42.54
558.164	42.73
558.507	42.58
558.849	42.62
559.192	42.54
559.534	42.76
559.877	42.55
560.219	42.69
560.562	43.16
560.904	42.72
561.246	42.73
561.589	42.99
561.931	42.97
562.273	43.37
562.615	43.07
562.957	43.21
563.299	43.02
563.641	43.24
563.983	43.31
564.325	42.89
564.667	43.35
565.008	43.41
565.35	43.75
565.692	43.35
566.033	43.66
566.375	43.54
566.716	43.52
567.058	43.63
567.399	43.35
567.741	43.22
568.082	43.31
568.423	43.37
568.764	43.27
569.105	43.29
569.447	43.71
569.788	43.63
570.129	43.9
570.47	43.88
570.811	43.9
571.151	44.18
571.492	44.03
571.833	43.93
572.174	44.16
572.514	44.07
572.855	44.28
573.195	44.13
573.536	44.26
573.876	43.96
574.217	44.02
574.557	44.35
574.898	44.14
575.238	44.42
575.578	44.43
575.918	44.39
576.258	44.59
576.598	44.77
576.938	44.86
577.278	44.75
577.618	44.63
577.958	44.68
578.298	44.76
578.638	44.97
578.977	44.98
579.317	45.28
579.657	45.2
579.996	45.23
580.336	45.64
580.675	45.33
581.014	45.4
581.354	45.59
581.693	45.83
582.032	45.94
582.372	46.13
582.711	45.93
583.05	45.65
583.389	46.04
583.728	45.78
584.067	45.8
584.406	45.71
584.745	46.04
585.083	46.17
585.422	46.09
585.761	46.04
586.1	46.46
586.438	46.41
586.777	46.4
587.115	46.4
587.454	46.62
587.792	46.68
588.13	46.65
588.469	46.37
588.807	46.59
589.145	46.83
589.483	46.91
589.821	46.71
590.159	46.72
590.497	46.51
590.835	46.81
591.173	46.81
591.511	46.88
591.849	46.72
592.187	46.72
592.524	47.04
592.862	47.05
593.2	47.37
593.537	47.02
593.875	47.12
594.212	47.48
594.55	47.15
594.887	47.42
595.224	47.44
595.561	47.32
595.899	47.26
596.236	47.07
596.573	47.25
596.91	47.38
597.247	47.55
597.584	47.54
597.921	47.45
598.258	47.5
598.594	47.22
598.931	47.23
599.268	47.11
599.604	47.16
599.941	47.51
600.277	47.51
600.614	47.98
600.95	48.1
601.287	48.18
601.623	47.8
601.959	48.26
602.296	48.3
602.632	48.2
602.968	48.03
603.304	48.15
603.64	48.35
603.976	47.95
604.312	48.49
604.648	48.47
604.984	48.22
605.319	48.34
605.655	48.28
605.991	48.19
606.326	48.37
606.662	48.13
606.998	48.46
607.333	48.18
607.668	48.22
608.004	48.34
608.339	48.86
608.674	49.04
609.01	48.8
609.345	48.74
609.68	48.82
610.015	49.3
610.35	49.39
610.685	48.99
611.02	49.2
611.355	48.91
611.689	48.95
612.024	48.85
612.359	49.17
612.694	49.38
613.028	49.62
613.363	49.46
613.697	49.42
614.032	49.68
614.366	50.01
614.7	49.69
615.035	49.99
615.369	50.18
615.703	49.83
616.037	50.21
616.371	50.48
616.705	49.97
617.039	50.11
617.373	50.56
617.707	50.46
618.041	50.67
618.375	50.72
618.709	50.13
619.042	50.47
619.376	50.69
619.71	50.27
620.043	50.52
620.377	50.29
620.71	50.69
621.043	50.96
621.377	50.42
621.71	50.61
622.043	50.94
622.376	50.84
622.709	51.28
623.043	50.85
623.376	50.97
623.709	50.91
624.041	51.48
624.374	51.37
624.707	51.32
625.04	51.62
625.373	51.51
625.705	51.33
626.038	51.11
626.37	51.17
626.703	51.64
627.035	51.41
627.368	51.66
627.7	51.58
628.032	51.34
628.365	51.43
628.697	51.76
629.029	51.33
629.361	51.51
629.693	51.33
630.025	51.51
630.357	52
630.689	51.35
631.021	51.48
631.353	51.93
631.684	51.45
632.016	52.11
632.348	51.59
632.679	52.28
633.011	52.24
633.342	52.09
633.674	52.37
634.005	52.52
634.336	52.35
634.668	52.17
634.999	52.12
635.33	52.41
635.661	52.22
635.992	52.6
636.323	52.54
636.654	52.64
636.985	52.38
637.316	52.43
637.647	52.86
637.977	52.62
638.308	53.09
638.639	52.83
638.969	52.93
639.3	52.87
639.63	53.13
639.961	53.32
640.291	53.22
640.622	53.22
640.952	53.06
641.282	53.62
641.612	53.61
641.943	53.8
642.273	53.76
642.603	53.31
642.933	53.47
643.263	53.31
643.592	53.15
643.922	54.1
644.252	53.81
644.582	53.79
644.911	54.49
645.241	53.79
645.571	53.9
645.9	53.75
646.23	54.19
646.559	53.42
646.888	54.2
647.218	53.96
647.547	54.21
647.876	54.05
648.205	53.9
648.534	54.56
648.863	54.22
649.192	54.58
649.521	53.66
649.85	54.3
650.179	54.26
650.508	54.13
650.837	54.64
651.165	54.39
651.494	54.4
651.822	54.28
652.151	54.38
652.479	54.49
652.808	54.99
653.136	55.09
653.465	54.07
653.793	54.46
654.121	54.65
654.449	54.38
654.777	55.12
655.105	54.67
655.433	54.98
655.761	55.13
656.089	54.92
656.417	54.88
656.745	55.12
657.073	54.81
657.4	55.5
657.728	55.02
658.056	55.54
658.383	55.56
658.711	55.03
659.038	54.9
659.365	54.68
659.693	55.35
660.02	55.33
660.347	55.43
660.674	54.97
661.001	55.3
661.329	55.14
661.656	55.47
661.982	55.37
662.309	55.78
662.636	55.68
662.963	56.12
663.29	55.72
663.616	55.79
663.943	56.12
664.27	56.43
664.596	56.39
664.923	56.43
665.249	56.14
665.576	56.39
665.902	56.51
666.228	55.96
666.554	56.41
666.881	56.4
667.207	56.46
667.533	56.28
667.859	56.9
668.185	56.57
668.511	56.37
668.837	56.66
669.162	57.08
669.488	57.02
669.814	56.18
