Data from 97277_crown_Reflection__2__88.txt Node

Date: Fri Sep 23 20:20:45 CDT 2022
User: ToomeyLab
Spectrometer: FLMS14357
Trigger mode: 0
Integration Time (sec): 1.000000E-2
Scans to average: 100
Electric dark correction enabled: true
Nonlinearity correction enabled: false
Boxcar width: 0
XAxis mode: Wavelengths
Number of Pixels in Spectrum: 2048
>>>>>Begin Spectral Data<<<<<
189.047	-323.92
189.435	-323.92
189.823	-323.92
190.211	-46.93
190.599	-131.93
190.987	114.14
191.375	-8.61
191.763	93.72
192.151	77.22
192.538	340.99
192.926	-163.91
193.314	113.16
193.702	-28.8
194.089	-132.05
194.477	115.37
194.864	-134.04
195.252	75.64
195.639	217.18
196.027	40.44
196.414	-156.63
196.801	29.11
197.189	-15.42
197.576	-36.85
197.963	26.12
198.351	29.66
198.738	-30.17
199.125	-0.19
199.512	-39.44
199.899	15.29
200.286	-5.11
200.673	2.14
201.06	5.32
201.447	35.77
201.833	-1.23
202.22	18.11
202.607	5.99
202.994	-12.52
203.38	-22.79
203.767	-34.01
204.154	33.28
204.54	-40.22
204.927	15.05
205.313	8.73
205.699	-32.95
206.086	-22.05
206.472	14.82
206.858	17.69
207.245	-3.25
207.631	17.78
208.017	-17.89
208.403	-9.06
208.789	-10.09
209.175	22.96
209.561	18.28
209.947	-48.84
210.333	-25.04
210.719	-15.67
211.105	7.76
211.491	0.37
211.876	-9.79
212.262	-18.53
212.648	5.36
213.034	-7.58
213.419	-74.9
213.805	24.11
214.19	-27.58
214.576	-10.38
214.961	3.32
215.346	-20.93
215.732	20.12
216.117	0.53
216.502	19.68
216.888	-2.11
217.273	-0.61
217.658	-30.72
218.043	45.3
218.428	-25.15
218.813	17.85
219.198	4.94
219.583	-0.2
219.968	-5.99
220.353	4.55
220.738	-0.57
221.122	6.8
221.507	0.8
221.892	-2.34
222.276	-13.59
222.661	0.11
223.046	-0.76
223.43	-4.49
223.815	7.53
224.199	4.21
224.583	4.47
224.968	-1.74
225.352	7.95
225.736	13.54
226.121	10.17
226.505	5.05
226.889	3.87
227.273	4.08
227.657	1.37
228.041	5.61
228.425	8.55
228.809	6.14
229.193	5.93
229.577	8.8
229.961	7.55
230.344	8.16
230.728	8.13
231.112	8.02
231.495	8.02
231.879	6.71
232.263	8.06
232.646	8.84
233.03	8.85
233.413	8.23
233.797	6.51
234.18	7.88
234.563	8.41
234.946	8.68
235.33	7.35
235.713	9.05
236.096	5.4
236.479	6.27
236.862	8.06
237.245	8.12
237.628	8.79
238.011	8.58
238.394	7.56
238.777	9.01
239.16	7.01
239.543	8.16
239.925	6.82
240.308	9.41
240.691	7.71
241.073	6.3
241.456	7.45
241.838	9.39
242.221	7.36
242.603	8.65
242.986	6.77
243.368	7.26
243.75	8.18
244.133	7.84
244.515	7.64
244.897	7.95
245.279	8.33
245.661	8.7
246.043	8.18
246.425	7.31
246.807	7.22
247.189	7.76
247.571	7.72
247.953	7.97
248.335	8.03
248.717	7.86
249.098	7.63
249.48	7.85
249.862	7.57
250.243	7.76
250.625	7.7
251.006	8.04
251.388	7.59
251.769	8.1
252.151	7.13
252.532	7.87
252.913	8.36
253.295	7.6
253.676	7.63
254.057	7.42
254.438	7.62
254.819	8.21
255.2	7.21
255.581	8.11
255.962	5.82
256.343	7.25
256.724	6.98
257.105	7.75
257.486	6.44
257.867	7.65
258.247	7.46
258.628	7.34
259.009	6.82
259.389	7.74
259.77	6.56
260.15	7.36
260.531	7.4
260.911	7.18
261.292	7.51
261.672	7.28
262.052	7.19
262.432	7.19
262.813	7.19
263.193	7.03
263.573	6.89
263.953	7.36
264.333	7.29
264.713	7
265.093	7.37
265.473	7.47
265.853	6.69
266.233	5.91
266.612	6.72
266.992	7.83
267.372	6.81
267.752	7.27
268.131	7.42
268.511	6.8
268.89	7
269.27	6.86
269.649	7.24
270.029	6.66
270.408	7.34
270.787	6.63
271.167	6.49
271.546	6.62
271.925	6.54
272.304	6.67
272.683	6.62
273.062	6.52
273.441	6.96
273.82	6.92
274.199	6.57
274.578	6.58
274.957	6.85
275.336	6.86
275.715	6.98
276.093	7.35
276.472	7.17
276.851	6.86
277.229	6.66
277.608	6.36
277.986	6.75
278.365	7.01
278.743	6.97
279.122	6.26
279.5	6.14
279.878	6.49
280.257	6.96
280.635	6.26
281.013	6.25
281.391	6.95
281.769	6.59
282.147	6.62
282.525	6.63
282.903	6.35
283.281	6.55
283.659	6.26
284.037	6.37
284.415	5.99
284.792	6.51
285.17	6.51
285.548	6.29
285.925	6.7
286.303	6.44
286.68	6.12
287.058	6.56
287.435	6.17
287.813	6.52
288.19	6.12
288.567	6.25
288.945	6.56
289.322	6.3
289.699	6.11
290.076	5.99
290.453	6.37
290.83	6.12
291.207	5.81
291.584	6.37
291.961	6.44
292.338	6.2
292.715	5.65
293.092	5.85
293.469	5.92
293.845	6.4
294.222	6.1
294.599	5.25
294.975	5.84
295.352	6.06
295.728	5.88
296.105	5.69
296.481	5.8
296.858	6.16
297.234	5.69
297.61	5.54
297.986	5.79
298.363	5.66
298.739	5.74
299.115	5.72
299.491	5.89
299.867	5.52
300.243	5.71
300.619	6.11
300.995	5.83
301.371	5.39
301.746	5.81
302.122	5.67
302.498	6.05
302.874	4.9
303.249	5.83
303.625	5.86
304	5.92
304.376	5.48
304.751	5.49
305.127	5.55
305.502	5.76
305.878	5.76
306.253	5.88
306.628	5.56
307.003	4.91
307.378	5.36
307.754	5.92
308.129	5.41
308.504	5.38
308.879	5.53
309.254	5.65
309.629	5.56
310.003	6.26
310.378	5.75
310.753	5.31
311.128	5.12
311.502	5.13
311.877	5.58
312.252	5.48
312.626	5.65
313.001	5.52
313.375	5.44
313.75	5.3
314.124	4.98
314.498	5.74
314.873	5.97
315.247	5.91
315.621	5.56
315.995	5.43
316.369	5.15
316.743	4.89
317.117	4.72
317.491	4.8
317.865	5.34
318.239	6.2
318.613	5.13
318.987	4.73
319.361	4.77
319.734	4.92
320.108	4.89
320.482	5.3
320.855	4.98
321.229	5.71
321.602	4.72
321.976	6.09
322.349	5.57
322.723	5.47
323.096	5.3
323.469	4.94
323.843	4.94
324.216	5.38
324.589	5.14
324.962	5.02
325.335	5.06
325.708	5.36
326.081	5.33
326.454	5.36
326.827	5.11
327.2	5.42
327.573	5.42
327.945	5.75
328.318	4.98
328.691	5.23
329.063	5.64
329.436	5.23
329.809	5.73
330.181	4.68
330.553	4.96
330.926	4.93
331.298	5.09
331.671	5.23
332.043	5.42
332.415	5.22
332.787	4.69
333.159	4.98
333.532	4.96
333.904	4.82
334.276	4.69
334.648	5.04
335.02	5.36
335.391	5.27
335.763	5.05
336.135	5.45
336.507	5.61
336.879	5.42
337.25	5.43
337.622	5.37
337.993	5.49
338.365	5.48
338.736	5.76
339.108	5.65
339.479	4.51
339.851	5.46
340.222	5.58
340.593	5.1
340.964	5.57
341.336	5.35
341.707	5.62
342.078	5.12
342.449	5.24
342.82	5.24
343.191	5.23
343.562	5.04
343.933	5.75
344.303	5.53
344.674	5.79
345.045	5.28
345.416	5.34
345.786	5.58
346.157	5.64
346.527	5.31
346.898	5.44
347.268	5.53
347.639	5.47
348.009	5.55
348.38	5.27
348.75	5
349.12	5.52
349.49	5.68
349.861	5.24
350.231	5.27
350.601	5.33
350.971	5.15
351.341	5.18
351.711	5.36
352.081	5.03
352.45	5.23
352.82	5.03
353.19	5.85
353.56	5.59
353.929	5.25
354.299	5.9
354.669	5.37
355.038	5.71
355.408	5.33
355.777	5.39
356.147	5.22
356.516	5.69
356.885	5.87
357.254	5.43
357.624	4.96
357.993	5.69
358.362	5.66
358.731	5.35
359.1	5.55
359.469	5.39
359.838	5.53
360.207	5.43
360.576	5.65
360.945	5.43
361.314	5.16
361.682	5.63
362.051	5.63
362.42	5.9
362.788	5.58
363.157	5.84
363.525	5.69
363.894	5.72
364.262	5.41
364.631	5.75
364.999	5.56
365.367	5.62
365.735	5.76
366.104	5.77
366.472	5.66
366.84	5.69
367.208	5.65
367.576	5.94
367.944	5.86
368.312	5.84
368.68	5.8
369.048	5.53
369.416	6.08
369.783	6.11
370.151	6.04
370.519	5.95
370.886	5.9
371.254	6.04
371.621	5.97
371.989	5.72
372.356	6.24
372.724	5.74
373.091	5.9
373.458	5.94
373.826	5.67
374.193	5.93
374.56	6.34
374.927	5.93
375.294	6.34
375.661	5.75
376.028	6.18
376.395	5.96
376.762	6.21
377.129	5.98
377.496	6.11
377.863	6.21
378.229	6.1
378.596	5.89
378.963	6.06
379.329	6.46
379.696	6.12
380.062	6.09
380.429	5.91
380.795	5.94
381.161	5.86
381.528	6.11
381.894	6.01
382.26	5.92
382.626	6.01
382.993	6.19
383.359	6.35
383.725	6.15
384.091	6.21
384.457	6.29
384.823	6.09
385.188	6.19
385.554	6.24
385.92	6.46
386.286	6.03
386.651	6.29
387.017	6.57
387.383	6.15
387.748	6.44
388.114	6.05
388.479	6.28
388.845	6.4
389.21	6.08
389.575	6.45
389.94	6.19
390.306	6.12
390.671	6.23
391.036	6.14
391.401	6.62
391.766	6.05
392.131	6.49
392.496	6.41
392.861	6.28
393.226	6.17
393.591	6.5
393.956	6.41
394.32	6.32
394.685	6.44
395.05	6.6
395.414	6.28
395.779	6.24
396.143	6.4
396.508	6.55
396.872	6.41
397.236	6.75
397.601	6.44
397.965	6.66
398.329	6.49
398.694	6.45
399.058	6.47
399.422	6.81
399.786	6.85
400.15	6.42
400.514	6.37
400.878	6.34
401.242	6.44
401.605	6.7
401.969	6.68
402.333	6.43
402.697	6.48
403.06	6.44
403.424	6.64
403.787	6.72
404.151	6.64
404.514	6.64
404.878	6.65
405.241	6.48
405.604	6.69
405.968	6.65
406.331	6.64
406.694	6.72
407.057	6.62
407.42	6.8
407.783	6.58
408.146	6.65
408.509	6.67
408.872	6.71
409.235	6.88
409.598	6.81
409.961	6.85
410.323	6.64
410.686	6.74
411.049	6.77
411.411	6.67
411.774	6.79
412.136	6.75
412.499	6.83
412.861	6.75
413.223	6.58
413.586	6.84
413.948	6.85
414.31	6.9
414.672	6.67
415.035	6.74
415.397	7.18
415.759	6.97
416.121	6.97
416.483	6.71
416.845	6.6
417.206	6.81
417.568	7.01
417.93	6.86
418.292	6.78
418.653	6.9
419.015	6.85
419.377	6.62
419.738	6.97
420.1	6.69
420.461	6.81
420.822	6.98
421.184	6.88
421.545	6.84
421.906	6.77
422.267	6.74
422.629	6.77
422.99	6.73
423.351	6.75
423.712	6.84
424.073	6.81
424.434	6.77
424.795	6.94
425.155	6.79
425.516	6.86
425.877	6.83
426.238	6.8
426.598	6.83
426.959	6.89
427.32	6.87
427.68	6.86
428.041	6.98
428.401	7
428.761	7.04
429.122	6.88
429.482	6.93
429.842	7.12
430.202	6.98
430.563	7.15
430.923	7.11
431.283	7.08
431.643	7.05
432.003	7.02
432.363	7.11
432.722	7.11
433.082	7.04
433.442	7.15
433.802	7.03
434.161	7
434.521	7.17
434.881	6.93
435.24	7.09
435.6	6.96
435.959	6.98
436.319	7.08
436.678	7.11
437.037	7.2
437.396	7.01
437.756	6.95
438.115	7.09
438.474	7.14
438.833	7.11
439.192	7.15
439.551	7.11
439.91	6.94
440.269	7.17
440.628	6.97
440.987	6.9
441.345	6.97
441.704	7.08
442.063	7.2
442.421	6.94
442.78	6.99
443.138	7.09
443.497	7.09
443.855	7.08
444.214	7.14
444.572	7.08
444.93	7.23
445.288	7.08
445.647	7.3
446.005	7.18
446.363	7.18
446.721	7.02
447.079	7.11
447.437	7.18
447.795	7.19
448.153	7.02
448.51	7.18
448.868	6.97
449.226	7.22
449.584	7.06
449.941	7.12
450.299	7.17
450.656	7.17
451.014	7.15
451.371	7.11
451.729	7.06
452.086	7.22
452.443	7.12
452.801	7.32
453.158	7.26
453.515	7.16
453.872	7.37
454.229	7.18
454.586	7.21
454.943	7.28
455.3	7.16
455.657	7.15
456.014	7.4
456.371	7.13
456.727	7.36
457.084	7.28
457.441	7.38
457.797	7.18
458.154	7.22
458.51	7.27
458.867	7.37
459.223	7.23
459.58	7.27
459.936	7.24
460.292	7.16
460.648	7.2
461.005	7.2
461.361	7.15
461.717	7.14
462.073	7.22
462.429	7.15
462.785	7.18
463.141	7.25
463.496	7.3
463.852	7.49
464.208	7.36
464.564	7.46
464.919	7.28
465.275	7.41
465.631	7.29
465.986	7.13
466.342	7.26
466.697	7.32
467.052	7.38
467.408	7.27
467.763	7.33
468.118	7.31
468.473	7.24
468.829	7.41
469.184	7.22
469.539	7.17
469.894	7.45
470.249	7.4
470.603	7.41
470.958	7.38
471.313	7.41
471.668	7.39
472.023	7.31
472.377	7.19
472.732	7.43
473.086	7.51
473.441	7.42
473.795	7.51
474.15	7.29
474.504	7.4
474.859	7.4
475.213	7.61
475.567	7.26
475.921	7.46
476.275	7.32
476.63	7.37
476.984	7.5
477.338	7.31
477.692	7.34
478.045	7.23
478.399	7.41
478.753	7.26
479.107	7.21
479.461	7.27
479.814	7.33
480.168	7.27
480.521	7.3
480.875	7.43
481.228	7.44
481.582	7.34
481.935	7.47
482.289	7.44
482.642	7.28
482.995	7.4
483.348	7.21
483.701	7.35
484.055	7.25
484.408	7.21
484.761	7.11
485.114	7.04
485.466	6.96
485.819	6.93
486.172	6.95
486.525	7
486.878	6.99
487.23	7.03
487.583	7.18
487.936	7.2
488.288	7.16
488.641	7.12
488.993	7.07
489.345	7.01
489.698	7
490.05	7.08
490.402	7.01
490.754	7.09
491.107	7.27
491.459	7.09
491.811	7.24
492.163	7.32
492.515	7.32
492.866	7.14
493.218	7.09
493.57	7.01
493.922	7.1
494.274	7.13
494.625	7.17
494.977	7.18
495.328	7.35
495.68	7.38
496.031	7.34
496.383	7.35
496.734	7.4
497.086	7.49
497.437	7.49
497.788	7.36
498.139	7.35
498.49	7.22
498.842	7.31
499.193	7.3
499.544	7.2
499.894	7.21
500.245	7.36
500.596	7.37
500.947	7.33
501.298	7.42
501.648	7.6
501.999	7.45
502.35	7.47
502.7	7.41
503.051	7.31
503.401	7.36
503.752	7.28
504.102	7.46
504.452	7.43
504.803	7.32
505.153	7.5
505.503	7.36
505.853	7.45
506.203	7.41
506.553	7.28
506.903	7.4
507.253	7.39
507.603	7.46
507.953	7.45
508.303	7.4
508.652	7.32
509.002	7.34
509.352	7.41
509.701	7.3
510.051	7.36
510.4	7.38
510.75	7.27
511.099	7.35
511.449	7.33
511.798	7.4
512.147	7.39
512.496	7.34
512.846	7.34
513.195	7.31
513.544	7.4
513.893	7.33
514.242	7.42
514.591	7.32
514.939	7.4
515.288	7.4
515.637	7.35
515.986	7.47
516.334	7.28
516.683	7.38
517.032	7.42
517.38	7.57
517.729	7.38
518.077	7.33
518.426	7.41
518.774	7.35
519.122	7.44
519.47	7.38
519.819	7.38
520.167	7.23
520.515	7.19
520.863	7.31
521.211	7.23
521.559	7.27
521.907	7.26
522.255	7.32
522.602	7.31
522.95	7.36
523.298	7.37
523.645	7.42
523.993	7.34
524.341	7.47
524.688	7.24
525.036	7.42
525.383	7.27
525.73	7.45
526.078	7.34
526.425	7.46
526.772	7.22
527.119	7.26
527.466	7.21
527.814	7.22
528.161	7.35
528.508	7.28
528.854	7.35
529.201	7.13
529.548	7.24
529.895	7.13
530.242	6.97
530.588	7.02
530.935	7.05
531.282	7.02
531.628	7.04
531.975	7.11
532.321	7.24
532.667	7.2
533.014	7.28
533.36	7.35
533.706	7.22
534.052	7.26
534.399	7.21
534.745	7.14
535.091	7.1
535.437	7.17
535.783	7.15
536.129	7.21
536.474	7.24
536.82	7.23
537.166	7.29
537.512	7.28
537.857	7.35
538.203	7.3
538.549	7.22
538.894	7.26
539.239	7.28
539.585	7.39
539.93	7.36
540.276	7.49
540.621	7.42
540.966	7.45
541.311	7.35
541.656	7.24
542.001	7.49
542.346	7.3
542.691	7.25
543.036	7.1
543.381	7.1
543.726	7.13
544.071	7.09
544.415	7.18
544.76	7.09
545.105	7.17
545.449	7.2
545.794	7.2
546.138	7.31
546.483	7.32
546.827	7.35
547.171	7.34
547.516	7.46
547.86	7.29
548.204	7.29
548.548	7.29
548.892	7.25
549.236	7.3
549.58	7.36
549.924	7.48
550.268	7.41
550.612	7.46
550.956	7.4
551.3	7.43
551.643	7.31
551.987	7.57
552.33	7.35
552.674	7.48
553.017	7.51
553.361	7.44
553.704	7.42
554.048	7.37
554.391	7.36
554.734	7.49
555.077	7.39
555.42	7.22
555.764	7.28
556.107	7.43
556.45	7.46
556.793	7.37
557.135	7.54
557.478	7.48
557.821	7.53
558.164	7.51
558.507	7.48
558.849	7.72
559.192	7.53
559.534	7.67
559.877	7.53
560.219	7.55
560.562	7.65
560.904	7.47
561.246	7.41
561.589	7.54
561.931	7.56
562.273	7.56
562.615	7.57
562.957	7.46
563.299	7.16
563.641	7.56
563.983	7.4
564.325	7.5
564.667	7.53
565.008	7.32
565.35	7.42
565.692	7.36
566.033	7.38
566.375	7.45
566.716	7.37
567.058	7.53
567.399	7.29
567.741	7.42
568.082	7.44
568.423	7.22
568.764	7.32
569.105	7.28
569.447	7.42
569.788	7.32
570.129	7.5
570.47	7.41
570.811	7.37
571.151	7.65
571.492	7.35
571.833	7.45
572.174	7.33
572.514	7.53
572.855	7.5
573.195	7.35
573.536	7.39
573.876	7.18
574.217	7.29
574.557	7.39
574.898	7.25
575.238	7.47
575.578	7.51
575.918	7.24
576.258	7.51
576.598	7.42
576.938	7.51
577.278	7.36
577.618	7.26
577.958	7.41
578.298	7.31
578.638	7.26
578.977	7.41
579.317	7.42
579.657	7.36
579.996	7.46
580.336	7.47
580.675	7.41
581.014	7.53
581.354	7.35
581.693	7.5
582.032	7.64
582.372	7.74
582.711	7.63
583.05	7.43
583.389	7.59
583.728	7.52
584.067	7.43
584.406	7.28
584.745	7.47
585.083	7.47
585.422	7.42
585.761	7.28
586.1	7.6
586.438	7.25
586.777	7.37
587.115	7.37
587.454	7.5
587.792	7.52
588.13	7.48
588.469	7.29
588.807	7.31
589.145	7.35
589.483	7.36
589.821	7.45
590.159	7.46
590.497	7.37
590.835	7.12
591.173	7.28
591.511	7.52
591.849	7.36
592.187	7.25
592.524	7.51
592.862	7.36
593.2	7.4
593.537	7.65
593.875	7.39
594.212	7.86
594.55	7.39
594.887	7.42
595.224	7.38
595.561	7.44
595.899	7.15
596.236	7.24
596.573	7.29
596.91	7.35
597.247	7.43
597.584	7.41
597.921	7.35
598.258	7.2
598.594	7.22
598.931	7.37
599.268	7.29
599.604	7.14
599.941	7.41
600.277	7.42
600.614	7.16
600.95	7.14
601.287	7.18
601.623	7.37
601.959	7.23
602.296	7.14
602.632	7.47
602.968	7.23
603.304	7.51
603.64	7.18
603.976	7.3
604.312	7.43
604.648	7.3
604.984	7.2
605.319	7.41
605.655	7.23
605.991	7.07
606.326	7.26
606.662	7.22
606.998	7.3
607.333	7.09
607.668	7.28
608.004	7.24
608.339	7.17
608.674	7.35
609.01	7.25
609.345	7.32
609.68	7.25
610.015	7.3
610.35	7.5
610.685	7.14
611.02	7.39
611.355	7.31
611.689	7.23
612.024	7.36
612.359	7.17
612.694	7.39
613.028	7.34
613.363	7.37
613.697	7.39
614.032	7.32
614.366	7.45
614.7	7.2
615.035	7.62
615.369	7.53
615.703	7.43
616.037	7.14
616.371	7.49
616.705	7.34
617.039	7.5
617.373	7.47
617.707	7.46
618.041	7.38
618.375	7.45
618.709	7.23
619.042	7.23
619.376	7.57
619.71	7.18
620.043	7.25
620.377	7.15
620.71	7.36
621.043	7.31
621.377	7.05
621.71	7.45
622.043	7.25
622.376	7.08
622.709	7.21
623.043	7.29
623.376	7.52
623.709	7.56
624.041	7.28
624.374	7.33
624.707	7.27
625.04	7.23
625.373	7.35
625.705	7.55
626.038	7.18
626.37	7.06
626.703	7.33
627.035	7.36
627.368	7.31
627.7	7.34
628.032	6.89
628.365	7.19
628.697	7.45
629.029	7.42
629.361	7.34
629.693	7.11
630.025	7.37
630.357	7.45
630.689	7.37
631.021	7.06
631.353	7.52
631.684	7.23
632.016	7.28
632.348	7.05
632.679	7.16
633.011	7.23
633.342	7.26
633.674	7.26
634.005	7.26
634.336	7.49
634.668	7.33
634.999	7.14
635.33	7.15
635.661	7.48
635.992	7.51
636.323	7.34
636.654	7.47
636.985	7.68
637.316	7.56
637.647	7.22
637.977	7.26
638.308	7.37
638.639	6.88
638.969	7.64
639.3	7.21
639.63	7.2
639.961	7.24
640.291	7.33
640.622	7.07
640.952	7.14
641.282	7.68
641.612	7.21
641.943	7.05
642.273	7.71
642.603	7.75
642.933	7.15
643.263	6.99
643.592	7.42
643.922	7.28
644.252	7.57
644.582	7.47
644.911	7.22
645.241	7.42
645.571	7.23
645.9	7.41
646.23	7.79
646.559	7.2
646.888	7.79
647.218	7.3
647.547	7.23
647.876	6.9
648.205	7.43
648.534	7.48
648.863	7.47
649.192	7.76
649.521	7.26
649.85	7.32
650.179	6.78
650.508	7.19
650.837	7.65
651.165	7.56
651.494	6.98
651.822	7.13
652.151	7.47
652.479	7.4
652.808	7.58
653.136	7.58
653.465	7.35
653.793	7.17
654.121	6.96
654.449	7.33
654.777	7.24
655.105	7.13
655.433	7.36
655.761	7.57
656.089	7.65
656.417	7.22
656.745	7.39
657.073	6.74
657.4	7.68
657.728	7.22
658.056	7.54
658.383	7.51
658.711	7.43
659.038	7.32
659.365	6.73
659.693	7.46
660.02	7.49
660.347	7.29
660.674	6.86
661.001	7.74
661.329	7.14
661.656	7.65
661.982	7.27
662.309	7.42
662.636	7.29
662.963	7.7
663.29	7.49
663.616	7.3
663.943	7.21
664.27	7.35
664.596	7.31
664.923	7.35
665.249	7.65
665.576	7.84
665.902	7.38
666.228	7.42
666.554	6.89
666.881	6.92
667.207	7.37
667.533	7.34
667.859	7.04
668.185	7.42
668.511	7.45
668.837	7.78
669.162	7.14
669.488	7.26
669.814	7.02
670.139	7.08
670.465	7.21
670.791	7.09
671.116	7.11
671.442	7.51
671.767	6.78
672.092	6.45
672.418	7.75
672.743	7.7
673.068	6.97
673.393	7.22
673.718	7.19
674.043	7.72
674.368	7.27
674.693	7.6
675.018	7.38
675.343	7.83
675.667	7.28
675.992	7.05
676.317	8.01
676.641	7.42
676.966	7.8
677.29	7.44
677.615	7.56
677.939	7.56
678.264	7.24
678.588	7.11
678.912	7.48
679.236	7.35
679.56	6.72
679.885	7.39
680.209	7.86
680.532	7.43
680.856	7.26
681.18	7.04
681.504	7.74
681.828	7.65
682.152	7.62
682.475	7.46
682.799	7.54
683.122	7.06
683.446	7.53
683.769	7.4
684.093	7.37
684.416	7.93
684.739	7.34
685.062	6.94
685.386	7
685.709	7.34
686.032	7.29
686.355	7.31
686.678	7.72
687.001	7.68
687.324	7.77
687.646	8.02
687.969	8.05
688.292	7.25
688.614	7.86
688.937	7.4
689.26	7.17
689.582	6.94
689.904	7.81
690.227	7.36
690.549	7.54
690.871	8.23
691.194	7.3
691.516	7.69
691.838	7.65
