Data from 2019-21_chest_Reflection__1__423.txt Node

Date: Thu Dec 15 20:15:38 CST 2022
User: ToomeyLab
Spectrometer: FLMS14357
Trigger mode: 0
Integration Time (sec): 1.000000E-2
Scans to average: 100
Electric dark correction enabled: true
Nonlinearity correction enabled: false
Boxcar width: 0
XAxis mode: Wavelengths
Number of Pixels in Spectrum: 2048
>>>>>Begin Spectral Data<<<<<
189.047	244.89
189.435	244.89
189.823	244.89
190.211	-213.63
190.599	403.11
190.987	914.52
191.375	-217.28
191.763	40.6
192.151	290.98
192.538	-3.74
192.926	-27.43
193.314	3.87
193.702	-16.12
194.089	-7.98
194.477	61.77
194.864	136.92
195.252	104.77
195.639	26.09
196.027	7.73
196.414	445.72
196.801	-17.96
197.189	29.19
197.576	-92.06
197.963	189.82
198.351	16.9
198.738	-15.63
199.125	-83.89
199.512	-3.09
199.899	0.09
200.286	-65.97
200.673	41.03
201.06	40.05
201.447	9.1
201.833	26.87
202.22	27.39
202.607	-0.66
202.994	-12.49
203.38	39.7
203.767	12.23
204.154	26.34
204.54	-16.66
204.927	45.88
205.313	13.08
205.699	32.09
206.086	21.17
206.472	22.8
206.858	18.48
207.245	-20.4
207.631	-21.46
208.017	46.4
208.403	-59.7
208.789	8.88
209.175	-23.52
209.561	-104.77
209.947	7.31
210.333	-22.91
210.719	-6.09
211.105	39.88
211.491	0.06
211.876	-54.93
212.262	0.96
212.648	-3.48
213.034	-15.73
213.419	-27.02
213.805	-8.77
214.19	-14.8
214.576	-11.37
214.961	13.8
215.346	-18.4
215.732	15.17
216.117	-24.19
216.502	-28.38
216.888	1.17
217.273	6.79
217.658	-4.15
218.043	-38.79
218.428	-11.51
218.813	-0.68
219.198	-31.98
219.583	-18.36
219.968	3.06
220.353	-29.11
220.738	28.72
221.122	21.5
221.507	-8.03
221.892	-13.34
222.276	-31.9
222.661	-5.1
223.046	-8.73
223.43	1.49
223.815	-1.49
224.199	3.94
224.583	-4.17
224.968	1.09
225.352	-8.59
225.736	12.58
226.121	-1.98
226.505	-8.77
226.889	3.96
227.273	-4.72
227.657	1.17
228.041	7.07
228.425	1.41
228.809	1.73
229.193	3.77
229.577	2.2
229.961	3.09
230.344	3.6
230.728	3.9
231.112	3.67
231.495	2.16
231.879	4.09
232.263	5.34
232.646	2.33
233.03	3.8
233.413	3.92
233.797	1.33
234.18	4.09
234.563	4.37
234.946	2.24
235.33	2.62
235.713	4.33
236.096	4.21
236.479	4.46
236.862	1.88
237.245	2.23
237.628	3.08
238.011	3.71
238.394	2.43
238.777	2.96
239.16	3.98
239.543	4.08
239.925	2.42
240.308	0.75
240.691	3.56
241.073	3.1
241.456	3.63
241.838	3.86
242.221	4.19
242.603	4.16
242.986	3.55
243.368	3.48
243.75	3.8
244.133	4.08
244.515	3.72
244.897	3.46
245.279	3.95
245.661	3.79
246.043	3.77
246.425	4.03
246.807	3.74
247.189	2.95
247.571	3.41
247.953	3.79
248.335	3.85
248.717	3.82
249.098	3.89
249.48	3.77
249.862	3.94
250.243	3.78
250.625	4.19
251.006	4.19
251.388	4.04
251.769	3.12
252.151	4.03
252.532	3.01
252.913	3.53
253.295	3.54
253.676	3.9
254.057	3.84
254.438	3.51
254.819	3.16
255.2	4.45
255.581	5.06
255.962	3.37
256.343	4.4
256.724	4.35
257.105	2.74
257.486	3.02
257.867	3.51
258.247	3.57
258.628	3.64
259.009	3.4
259.389	2.94
259.77	3.13
260.15	4.12
260.531	3.54
260.911	3.42
261.292	3.63
261.672	3.6
262.052	3.56
262.432	3.34
262.813	3.82
263.193	3.04
263.573	3.26
263.953	2.91
264.333	3.61
264.713	3.6
265.093	3
265.473	4.48
265.853	3.36
266.233	3.53
266.612	3.22
266.992	3.13
267.372	3.76
267.752	3.88
268.131	3.4
268.511	3.33
268.89	3.86
269.27	2.91
269.649	3.64
270.029	2.94
270.408	3.15
270.787	3.28
271.167	3.73
271.546	3.85
271.925	3.4
272.304	3.5
272.683	3.12
273.062	3.15
273.441	3.01
273.82	3.54
274.199	3.27
274.578	3.56
274.957	3.56
275.336	3.79
275.715	3.39
276.093	2.67
276.472	3.25
276.851	3.62
277.229	3.21
277.608	3.23
277.986	3.22
278.365	4.08
278.743	3.48
279.122	2.85
279.5	2.96
279.878	3.24
280.257	3.06
280.635	3.47
281.013	3.33
281.391	3.71
281.769	3.96
282.147	3.18
282.525	2.93
282.903	2.87
283.281	3.46
283.659	3.59
284.037	3.09
284.415	3.06
284.792	3.45
285.17	3.04
285.548	3.03
285.925	3.2
286.303	3.48
286.68	3.41
287.058	3.91
287.435	3.27
287.813	3.28
288.19	3.35
288.567	3.47
288.945	3.36
289.322	3.29
289.699	3.57
290.076	3.43
290.453	3.35
290.83	3.5
291.207	3.4
291.584	3.74
291.961	3.52
292.338	3.22
292.715	2.97
293.092	3.78
293.469	3.56
293.845	3.79
294.222	4.15
294.599	3.32
294.975	2.97
295.352	3.43
295.728	3.58
296.105	3.37
296.481	3.66
296.858	3.53
297.234	3.45
297.61	3.57
297.986	4.15
298.363	3.48
298.739	4.09
299.115	3.7
299.491	4.07
299.867	3.57
300.243	3.29
300.619	3.35
300.995	3.61
301.371	3.7
301.746	4.07
302.122	3.3
302.498	3.86
302.874	3.85
303.249	3.74
303.625	3.68
304	3.89
304.376	4.36
304.751	3.75
305.127	3.7
305.502	3.94
305.878	4.1
306.253	3.46
306.628	3.8
307.003	4.02
307.378	3.83
307.754	3.47
308.129	3.8
308.504	4.42
308.879	3.88
309.254	4.58
309.629	3.77
310.003	3.75
310.378	3.97
310.753	3.95
311.128	3.65
311.502	3.87
311.877	3.94
312.252	4.28
312.626	4.47
313.001	4.14
313.375	4.23
313.75	4.2
314.124	3.9
314.498	4.3
314.873	3.57
315.247	3.73
315.621	4.2
315.995	4.5
316.369	3.66
316.743	4.3
317.117	3.7
317.491	4.43
317.865	3.88
318.239	4.49
318.613	4.41
318.987	3.69
319.361	4.15
319.734	4.12
320.108	4.45
320.482	4.18
320.855	4.26
321.229	3.86
321.602	4
321.976	3.55
322.349	4.05
322.723	3.83
323.096	4.05
323.469	3.98
323.843	3.72
324.216	4.45
324.589	4.45
324.962	4.09
325.335	3.97
325.708	3.89
326.081	3.93
326.454	4.36
326.827	4.31
327.2	4.26
327.573	4.49
327.945	4.28
328.318	3.84
328.691	3.75
329.063	3.72
329.436	3.99
329.809	4.17
330.181	4.76
330.553	4.39
330.926	4.56
331.298	3.88
331.671	4.42
332.043	4.47
332.415	4.32
332.787	4.62
333.159	4.07
333.532	4.01
333.904	4.61
334.276	4.47
334.648	4.2
335.02	4.55
335.391	4.38
335.763	4.32
336.135	4.71
336.507	4.27
336.879	4.1
337.25	4.4
337.622	4.21
337.993	4.18
338.365	4.48
338.736	4.38
339.108	4.4
339.479	4.24
339.851	4.51
340.222	4.59
340.593	4.21
340.964	4.14
341.336	3.84
341.707	4.37
342.078	4.33
342.449	4.26
342.82	4.71
343.191	4.48
343.562	4.17
343.933	4.11
344.303	4.53
344.674	4.39
345.045	4.4
345.416	4.29
345.786	4.12
346.157	4.6
346.527	4.24
346.898	4.03
347.268	4.54
347.639	4.56
348.009	4.32
348.38	4.31
348.75	4.43
349.12	4.33
349.49	4.66
349.861	4.67
350.231	4.2
350.601	4.37
350.971	4.34
351.341	4.88
351.711	4.27
352.081	3.93
352.45	4.34
352.82	4.16
353.19	4.1
353.56	4.34
353.929	4.24
354.299	4.49
354.669	4.9
355.038	4.57
355.408	4.45
355.777	4.68
356.147	4.56
356.516	4.25
356.885	4.13
357.254	3.91
357.624	4.11
357.993	4.29
358.362	4.38
358.731	4.95
359.1	4.53
359.469	4.61
359.838	4.37
360.207	4.53
360.576	4.61
360.945	4.83
361.314	4.29
361.682	4.22
362.051	4.19
362.42	4.35
362.788	4.58
363.157	4.31
363.525	4.53
363.894	4.34
364.262	4.42
364.631	4.64
364.999	4.43
365.367	4.22
365.735	4.19
366.104	4.69
366.472	4.19
366.84	4.42
367.208	4.6
367.576	4.48
367.944	4.43
368.312	4.47
368.68	4.79
369.048	4.54
369.416	4.28
369.783	4.41
370.151	4.95
370.519	4.63
370.886	4.42
371.254	4.8
371.621	4.43
371.989	4.94
372.356	4.56
372.724	4.52
373.091	4.52
373.458	4.44
373.826	4.72
374.193	4.39
374.56	4.44
374.927	4.57
375.294	4.51
375.661	4.58
376.028	4.53
376.395	4.79
376.762	4.31
377.129	4.38
377.496	4.35
377.863	4.48
378.229	4.95
378.596	4.8
378.963	4.7
379.329	4.71
379.696	4.45
380.062	4.78
380.429	4.41
380.795	4.75
381.161	4.23
381.528	4.23
381.894	4.66
382.26	4.68
382.626	4.67
382.993	4.94
383.359	4.49
383.725	4.7
384.091	4.75
384.457	4.41
384.823	4.44
385.188	4.8
385.554	4.52
385.92	4.63
386.286	4.68
386.651	4.73
387.017	5.03
387.383	4.58
387.748	4.7
388.114	4.79
388.479	4.7
388.845	4.45
389.21	4.96
389.575	4.91
389.94	4.68
390.306	4.79
390.671	4.57
391.036	4.76
391.401	4.75
391.766	4.69
392.131	4.89
392.496	4.86
392.861	4.63
393.226	4.57
393.591	4.73
393.956	4.79
394.32	4.97
394.685	4.85
395.05	4.67
395.414	4.73
395.779	4.93
396.143	4.7
396.508	4.61
396.872	4.71
397.236	5.06
397.601	4.85
397.965	4.87
398.329	5.05
398.694	4.59
399.058	4.83
399.422	4.84
399.786	4.73
400.15	4.82
400.514	4.64
400.878	4.77
401.242	4.84
401.605	5.09
401.969	4.74
402.333	4.74
402.697	5.01
403.06	4.59
403.424	5.04
403.787	4.91
404.151	4.91
404.514	5.05
404.878	4.9
405.241	4.82
405.604	4.82
405.968	4.9
406.331	4.98
406.694	4.95
407.057	4.86
407.42	5
407.783	5
408.146	4.97
408.509	4.91
408.872	4.9
409.235	4.82
409.598	5.01
409.961	5.06
410.323	5.11
410.686	4.9
411.049	5.01
411.411	5.09
411.774	5.12
412.136	5.01
412.499	5.07
412.861	4.76
413.223	4.74
413.586	5.04
413.948	5.15
414.31	4.98
414.672	4.96
415.035	5.19
415.397	4.95
415.759	4.96
416.121	5.12
416.483	4.96
416.845	4.9
417.206	4.95
417.568	5.02
417.93	5.06
418.292	4.85
418.653	4.92
419.015	4.95
419.377	4.82
419.738	5.01
420.1	4.9
420.461	4.91
420.822	5.03
421.184	4.86
421.545	5.04
421.906	5.01
422.267	4.84
422.629	4.95
422.99	4.91
423.351	4.97
423.712	4.96
424.073	5.04
424.434	5.1
424.795	4.91
425.155	4.93
425.516	5.03
425.877	4.99
426.238	4.99
426.598	5.07
426.959	5.13
427.32	4.95
427.68	5.05
428.041	5.08
428.401	5.04
428.761	5.23
429.122	5.15
429.482	5.18
429.842	5.06
430.202	5.12
430.563	5.17
430.923	5.13
431.283	5.12
431.643	5.23
432.003	5.22
432.363	5.26
432.722	5.2
433.082	5.14
433.442	5.3
433.802	5.2
434.161	5.24
434.521	5.16
434.881	5.12
435.24	5.26
435.6	5.25
435.959	5.29
436.319	5.23
436.678	5.39
437.037	5.17
437.396	5.31
437.756	5.2
438.115	5.34
438.474	5.3
438.833	5.18
439.192	5.3
439.551	5.28
439.91	5.3
440.269	5.25
440.628	5.24
440.987	5.31
441.345	5.26
441.704	5.25
442.063	5.31
442.421	5.31
442.78	5.43
443.138	5.38
443.497	5.31
443.855	5.34
444.214	5.15
444.572	5.57
444.93	5.41
445.288	5.33
445.647	5.32
446.005	5.32
446.363	5.29
446.721	5.33
447.079	5.24
447.437	5.34
447.795	5.31
448.153	5.26
448.51	5.46
448.868	5.34
449.226	5.41
449.584	5.3
449.941	5.42
450.299	5.26
450.656	5.48
451.014	5.5
451.371	5.51
451.729	5.48
452.086	5.53
452.443	5.69
452.801	5.55
453.158	5.63
453.515	5.47
453.872	5.4
454.229	5.36
454.586	5.36
454.943	5.63
455.3	5.61
455.657	5.52
456.014	5.55
456.371	5.67
456.727	5.63
457.084	5.53
457.441	5.72
457.797	5.51
458.154	5.64
458.51	5.67
458.867	5.69
459.223	5.53
459.58	5.47
459.936	5.52
460.292	5.6
460.648	5.57
461.005	5.5
461.361	5.43
461.717	5.46
462.073	5.67
462.429	5.73
462.785	5.65
463.141	5.59
463.496	5.68
463.852	5.69
464.208	5.67
464.564	5.73
464.919	5.58
465.275	5.74
465.631	5.88
465.986	5.75
466.342	5.71
466.697	5.69
467.052	5.87
467.408	5.89
467.763	5.83
468.118	5.68
468.473	5.78
468.829	5.76
469.184	5.95
469.539	5.74
469.894	5.98
470.249	5.91
470.603	5.9
470.958	5.82
471.313	5.76
471.668	5.81
472.023	5.95
472.377	5.77
472.732	6.05
473.086	5.74
473.441	5.94
473.795	6.09
474.15	5.87
474.504	5.95
474.859	5.63
475.213	5.82
475.567	5.8
475.921	5.99
476.275	6.02
476.63	5.99
476.984	5.81
477.338	6.12
477.692	5.79
478.045	5.95
478.399	6.03
478.753	5.79
479.107	5.99
479.461	5.88
479.814	6.02
480.168	5.98
480.521	6.12
480.875	6.01
481.228	5.95
481.582	6.02
481.935	6.09
482.289	6.05
482.642	6.17
482.995	6.02
483.348	5.97
483.701	6.05
484.055	5.98
484.408	5.96
484.761	5.81
485.114	5.76
485.466	5.68
485.819	5.72
486.172	5.75
486.525	5.78
486.878	5.89
487.23	5.95
487.583	6.02
487.936	5.95
488.288	5.91
488.641	5.95
488.993	5.87
489.345	5.87
489.698	5.93
490.05	5.89
490.402	5.99
490.754	6.03
491.107	6.03
491.459	6.14
491.811	6.17
492.163	6.11
492.515	5.97
492.866	5.99
493.218	5.95
493.57	6.01
493.922	6.06
494.274	6.1
494.625	6.2
494.977	6.2
495.328	6.31
495.68	6.32
496.031	6.28
496.383	6.4
496.734	6.33
497.086	6.4
497.437	6.44
497.788	6.33
498.139	6.33
498.49	6.36
498.842	6.35
499.193	6.27
499.544	6.34
499.894	6.26
500.245	6.48
500.596	6.49
500.947	6.41
501.298	6.42
501.648	6.46
501.999	6.51
502.35	6.43
502.7	6.64
503.051	6.44
503.401	6.62
503.752	6.4
504.102	6.53
504.452	6.51
504.803	6.59
505.153	6.57
505.503	6.6
505.853	6.53
506.203	6.58
506.553	6.59
506.903	6.58
507.253	6.59
507.603	6.7
507.953	6.59
508.303	6.64
508.652	6.53
509.002	6.81
509.352	6.75
509.701	6.6
510.051	6.68
510.4	6.71
510.75	6.64
511.099	6.51
511.449	6.66
511.798	6.61
512.147	6.64
512.496	6.75
512.846	6.64
513.195	6.72
513.544	6.83
513.893	6.79
514.242	6.84
514.591	6.71
514.939	6.85
515.288	6.81
515.637	6.91
515.986	6.92
516.334	6.9
516.683	6.89
517.032	6.9
517.38	6.93
517.729	6.92
518.077	6.89
518.426	6.96
518.774	6.88
519.122	6.82
519.47	6.86
519.819	6.91
520.167	6.93
520.515	6.88
520.863	6.92
521.211	6.96
521.559	7.02
521.907	7.07
522.255	6.99
522.602	7.05
522.95	7.04
523.298	7.14
523.645	7.1
523.993	7.16
524.341	7.2
524.688	7.13
525.036	7.14
525.383	7.27
525.73	7.03
526.078	7.28
526.425	7.15
526.772	7.12
527.119	7.12
527.466	7.18
527.814	7.15
528.161	7.23
528.508	7.18
528.854	7.17
529.201	7.07
529.548	7.1
529.895	6.94
530.242	6.95
530.588	6.99
530.935	7
531.282	7.05
531.628	7.12
531.975	7.18
532.321	7.22
532.667	7.33
533.014	7.4
533.36	7.38
533.706	7.3
534.052	7.42
534.399	7.28
534.745	7.24
535.091	7.25
535.437	7.31
535.783	7.41
536.129	7.35
536.474	7.45
536.82	7.54
537.166	7.41
537.512	7.55
537.857	7.48
538.203	7.55
538.549	7.47
538.894	7.51
539.239	7.55
539.585	7.59
539.93	7.76
540.276	7.69
540.621	7.79
540.966	7.7
541.311	7.79
541.656	7.61
542.001	7.72
542.346	7.54
542.691	7.49
543.036	7.62
543.381	7.55
543.726	7.68
544.071	7.7
544.415	7.68
544.76	7.73
545.105	7.79
545.449	7.92
545.794	7.92
546.138	7.87
546.483	7.9
546.827	7.94
547.171	8.06
547.516	8.04
547.86	8.01
548.204	8.02
548.548	8.04
548.892	8.03
549.236	8.06
549.58	8.14
549.924	8.15
550.268	8.3
550.612	8.28
550.956	8.32
551.3	8.37
551.643	8.27
551.987	8.54
552.33	8.56
552.674	8.32
553.017	8.34
553.361	8.45
553.704	8.41
554.048	8.38
554.391	8.49
554.734	8.34
555.077	8.44
555.42	8.45
555.764	8.52
556.107	8.71
556.45	8.61
556.793	8.59
557.135	8.69
557.478	8.59
557.821	8.74
558.164	8.62
558.507	8.45
558.849	8.76
559.192	8.63
559.534	8.64
559.877	8.76
560.219	8.86
560.562	8.73
560.904	8.93
561.246	8.75
561.589	9.08
561.931	8.82
562.273	8.85
562.615	8.79
562.957	8.79
563.299	8.9
563.641	9.01
563.983	8.83
564.325	9.09
564.667	8.92
565.008	8.85
565.35	9.04
565.692	8.97
566.033	9.07
566.375	9.09
566.716	9.17
567.058	9.12
567.399	9.07
567.741	9.24
568.082	9.22
568.423	9.12
568.764	9.33
569.105	9.24
569.447	9.23
569.788	9.27
570.129	9.37
570.47	9.32
570.811	9.33
571.151	9.41
571.492	9.4
571.833	9.35
572.174	9.69
572.514	9.4
572.855	9.63
573.195	9.38
573.536	9.48
573.876	9.39
574.217	9.51
574.557	9.56
574.898	9.49
575.238	9.77
575.578	9.61
575.918	9.63
576.258	9.92
576.598	9.54
576.938	9.66
577.278	9.85
577.618	9.81
577.958	9.96
578.298	9.81
578.638	9.83
578.977	9.94
579.317	9.95
579.657	10.1
579.996	10.11
580.336	10.01
580.675	9.99
581.014	9.96
581.354	9.98
581.693	10.29
582.032	10.4
582.372	10.26
582.711	10.22
583.05	10.44
583.389	10.52
583.728	10.57
584.067	10.29
584.406	10.54
584.745	10.21
585.083	10.36
585.422	10.56
585.761	10.47
586.1	10.53
586.438	10.6
586.777	10.32
587.115	10.55
587.454	10.43
587.792	10.56
588.13	10.6
588.469	10.63
588.807	10.59
589.145	10.67
589.483	10.55
589.821	10.67
590.159	10.73
590.497	10.96
590.835	10.72
591.173	11.07
591.511	10.92
591.849	10.98
592.187	10.85
592.524	11.01
592.862	10.94
593.2	10.98
593.537	11.14
593.875	11.08
594.212	11.03
594.55	11.12
594.887	11.05
595.224	11.24
595.561	11.21
595.899	11.19
596.236	11.12
596.573	11.12
596.91	10.94
597.247	11.35
597.584	11.48
597.921	11.15
598.258	11.28
598.594	11.32
598.931	11.15
599.268	11.32
599.604	11.42
599.941	11.29
600.277	11.51
600.614	11.58
600.95	11.5
601.287	11.32
601.623	11.39
601.959	11.93
602.296	11.7
602.632	11.34
602.968	11.43
603.304	11.67
603.64	11.76
603.976	11.77
604.312	11.63
604.648	11.78
604.984	11.84
605.319	11.73
605.655	11.71
605.991	11.91
606.326	11.87
606.662	11.7
606.998	11.85
607.333	11.86
607.668	11.93
608.004	12.03
608.339	11.75
608.674	12.04
609.01	12.39
609.345	11.99
609.68	12.2
610.015	12.28
610.35	12.43
610.685	11.97
611.02	12.04
611.355	12.13
611.689	12.03
612.024	12.35
612.359	12.09
612.694	12.51
613.028	12.23
613.363	12.17
613.697	12.34
614.032	12.35
614.366	12.63
614.7	12.5
615.035	12.49
615.369	12.81
615.703	12.49
616.037	12.72
616.371	12.7
616.705	12.82
617.039	12.74
617.373	12.85
617.707	12.98
618.041	12.68
618.375	12.41
618.709	12.92
619.042	13.05
619.376	12.94
619.71	12.81
620.043	13.51
620.377	13.02
620.71	12.99
621.043	13.09
621.377	13.23
621.71	13.3
622.043	13.17
622.376	13.3
622.709	13.63
623.043	13.34
623.376	13.37
623.709	13.4
624.041	13.5
624.374	12.94
624.707	13.07
625.04	13.28
625.373	13.38
625.705	13.67
626.038	13.43
626.37	13.28
626.703	13.63
627.035	13.54
627.368	13.89
627.7	13.52
628.032	13.44
628.365	14.03
628.697	14.06
629.029	13.75
629.361	13.5
629.693	13.58
630.025	14.02
630.357	13.95
630.689	13.72
631.021	14.01
631.353	13.9
631.684	13.86
632.016	13.47
632.348	13.54
632.679	14.26
633.011	13.89
633.342	13.79
633.674	13.75
634.005	14.27
634.336	14.43
634.668	14.04
634.999	13.92
635.33	14.23
635.661	13.94
635.992	14.18
636.323	14.18
636.654	14.51
636.985	14.12
637.316	14.32
637.647	14.22
637.977	13.93
638.308	14.53
638.639	14.48
638.969	14.66
639.3	14.19
639.63	14.5
639.961	14.43
640.291	14.53
640.622	14.39
640.952	14.38
641.282	14.43
641.612	15.07
641.943	14.71
642.273	14.75
642.603	15.06
642.933	14.97
643.263	14.9
643.592	15
643.922	15.38
644.252	14.88
644.582	15.12
644.911	15.27
645.241	14.94
645.571	15.04
645.9	15.48
646.23	15.17
646.559	14.92
646.888	15.21
647.218	15.16
647.547	15.16
647.876	15.06
648.205	15.03
648.534	15.13
648.863	15.62
649.192	15.04
649.521	15.31
649.85	15.58
650.179	15.58
650.508	15.09
650.837	15.69
651.165	15.62
651.494	15.59
651.822	16.28
652.151	15.55
652.479	15.76
652.808	15.73
653.136	15.3
653.465	15.08
653.793	15.64
654.121	15.74
654.449	15.86
654.777	15.73
655.105	15.47
655.433	15.97
655.761	15.85
656.089	15.77
656.417	16.47
656.745	16.34
657.073	15.94
657.4	15.79
657.728	15.64
658.056	15.52
658.383	16.12
658.711	15.92
659.038	16.45
659.365	16.41
659.693	15.98
660.02	15.89
660.347	16.01
660.674	16.04
661.001	16.37
661.329	16.05
661.656	16
661.982	16
662.309	15.92
662.636	16.34
662.963	16.36
663.29	16.62
663.616	16.19
663.943	16.23
664.27	16.47
664.596	16.42
664.923	16.78
665.249	17.26
665.576	16.1
665.902	16.15
666.228	16.7
666.554	17.15
666.881	16.26
667.207	16.78
667.533	16.89
667.859	16.67
668.185	16.43
668.511	16.82
668.837	16.8
669.162	16.78
669.488	16.49
669.814	17.14
670.139	16.48
670.465	17.24
670.791	16.75
671.116	16.75
671.442	16.45
671.767	17.14
672.092	16.94
672.418	17.17
672.743	16.8
673.068	16.66
673.393	16.59
673.718	16.62
674.043	17.18
674.368	17.58
674.693	17.39
675.018	17.62
675.343	17.97
675.667	17.6
675.992	17.49
676.317	17.45
676.641	17.8
676.966	17.22
677.29	16.79
677.615	17.13
677.939	17.7
678.264	17.37
678.588	18.34
678.912	17.46
679.236	17.52
679.56	17.3
679.885	17.69
680.209	18.33
680.532	17.61
680.856	17.59
681.18	18.18
681.504	17.58
681.828	17.49
682.152	17.6
682.475	17.94
682.799	17.66
683.122	17.53
683.446	17.14
683.769	18.41
684.093	18.59
684.416	17.67
684.739	17.56
685.062	18.22
