Data from 2019-21_forehead_Reflection__4__438.txt Node

Date: Thu Dec 15 20:20:07 CST 2022
User: ToomeyLab
Spectrometer: FLMS14357
Trigger mode: 0
Integration Time (sec): 1.000000E-2
Scans to average: 100
Electric dark correction enabled: true
Nonlinearity correction enabled: false
Boxcar width: 0
XAxis mode: Wavelengths
Number of Pixels in Spectrum: 2048
>>>>>Begin Spectral Data<<<<<
189.047	51.8
189.435	51.8
189.823	51.8
190.211	-159.36
190.599	422.16
190.987	514.52
191.375	117.74
191.763	649.48
192.151	172.7
192.538	287.9
192.926	-53.39
193.314	-28.73
193.702	-15.02
194.089	-0.73
194.477	162.96
194.864	247.33
195.252	298.96
195.639	78.87
196.027	31
196.414	457.84
196.801	-49.17
197.189	40.21
197.576	10.92
197.963	82.03
198.351	15.63
198.738	-31.88
199.125	-110.63
199.512	0.13
199.899	-49.58
200.286	-31.99
200.673	36.62
201.06	1.61
201.447	13.62
201.833	9.57
202.22	10.25
202.607	-57.21
202.994	-20.09
203.38	13.88
203.767	-22.93
204.154	9.69
204.54	1.57
204.927	-10.27
205.313	22.98
205.699	28.53
206.086	11.92
206.472	26.58
206.858	-25.6
207.245	-27.05
207.631	-6.18
208.017	22.84
208.403	-75.07
208.789	3.87
209.175	5.33
209.561	-188.62
209.947	4.21
210.333	-4.68
210.719	14.94
211.105	54.11
211.491	20.25
211.876	-57.62
212.262	14.42
212.648	0.91
213.034	4.28
213.419	-11.22
213.805	-22.13
214.19	-67.97
214.576	-46.02
214.961	-9.81
215.346	-48.8
215.732	-11.27
216.117	-10.99
216.502	0.54
216.888	-22.07
217.273	-10.33
217.658	-19.73
218.043	-20.99
218.428	-7.2
218.813	-7.43
219.198	-58.8
219.583	-45.48
219.968	1.28
220.353	-23.61
220.738	-4.44
221.122	-3.14
221.507	-12.75
221.892	-40.22
222.276	-24.8
222.661	-10.78
223.046	-7.22
223.43	13.99
223.815	-0.68
224.199	-11.3
224.583	-21.29
224.968	-2.33
225.352	-11.93
225.736	7.54
226.121	-1.85
226.505	-6.18
226.889	-1.46
227.273	-1.45
227.657	-0.37
228.041	1.32
228.425	-1.99
228.809	2.95
229.193	3.15
229.577	2.56
229.961	3.74
230.344	3.61
230.728	4.31
231.112	4.13
231.495	2.67
231.879	2.79
232.263	2.92
232.646	3.8
233.03	4.51
233.413	3.48
233.797	3.79
234.18	2.11
234.563	4.23
234.946	0.68
235.33	1.78
235.713	3.78
236.096	5.06
236.479	3.76
236.862	3.36
237.245	2.53
237.628	2.81
238.011	3.79
238.394	1.73
238.777	4.22
239.16	4.57
239.543	3.79
239.925	2.95
240.308	1.37
240.691	3.1
241.073	3.4
241.456	3.06
241.838	3.85
242.221	3.42
242.603	3.32
242.986	4.03
243.368	3.8
243.75	3.98
244.133	4.14
244.515	3.84
244.897	3.63
245.279	4.17
245.661	3.84
246.043	4.07
246.425	3.82
246.807	4.06
247.189	3.8
247.571	4.02
247.953	3.86
248.335	4.01
248.717	3.88
249.098	3.95
249.48	3.65
249.862	3.84
250.243	4.01
250.625	4.08
251.006	4.26
251.388	3.58
251.769	3.14
252.151	3.61
252.532	3
252.913	3.92
253.295	3.81
253.676	4.02
254.057	3.66
254.438	3.65
254.819	3.98
255.2	3.51
255.581	4.85
255.962	3.98
256.343	4.04
256.724	4.32
257.105	2.98
257.486	3.08
257.867	3.08
258.247	3.97
258.628	4.11
259.009	3.51
259.389	3.42
259.77	3.73
260.15	4.34
260.531	4.09
260.911	3.82
261.292	3.88
261.672	3.69
262.052	3.92
262.432	3.66
262.813	3.45
263.193	3.63
263.573	3.31
263.953	3.24
264.333	3.95
264.713	3.96
265.093	3.2
265.473	4.16
265.853	3.99
266.233	3.66
266.612	3.51
266.992	3.63
267.372	3.56
267.752	4.13
268.131	3.69
268.511	3.67
268.89	4.12
269.27	3.21
269.649	3.36
270.029	3.1
270.408	3.18
270.787	3.61
271.167	3.72
271.546	4.49
271.925	3.56
272.304	3.49
272.683	3.25
273.062	3.48
273.441	3.35
273.82	3.65
274.199	3.33
274.578	3.7
274.957	3.61
275.336	3.57
275.715	3.69
276.093	2.8
276.472	3.15
276.851	4.22
277.229	3.64
277.608	3.07
277.986	3.78
278.365	4.19
278.743	3.51
279.122	3.35
279.5	3.46
279.878	3.07
280.257	3.66
280.635	3.79
281.013	2.96
281.391	3.43
281.769	4.16
282.147	3.6
282.525	3.2
282.903	3.25
283.281	3.85
283.659	3.79
284.037	3.02
284.415	3.53
284.792	3.27
285.17	3.36
285.548	3.57
285.925	3.4
286.303	3.97
286.68	3.57
287.058	3.7
287.435	3.36
287.813	3.61
288.19	3.3
288.567	3.4
288.945	3.41
289.322	3.6
289.699	3.92
290.076	3.4
290.453	2.99
290.83	3.88
291.207	3.74
291.584	3.68
291.961	3.5
292.338	3.46
292.715	3.34
293.092	3.9
293.469	3.31
293.845	3.79
294.222	3.88
294.599	2.94
294.975	2.93
295.352	3.87
295.728	3.51
296.105	3.66
296.481	3.72
296.858	3.66
297.234	3.32
297.61	3.86
297.986	3.83
298.363	3.62
298.739	3.66
299.115	3.71
299.491	3.77
299.867	3.76
300.243	3.68
300.619	3.61
300.995	3.84
301.371	3.84
301.746	4.17
302.122	3.38
302.498	3.88
302.874	3.93
303.249	4.15
303.625	3.43
304	4.14
304.376	4.31
304.751	3.66
305.127	3.65
305.502	3.97
305.878	4.44
306.253	3.48
306.628	4.01
307.003	3.73
307.378	3.87
307.754	4.16
308.129	3.51
308.504	3.72
308.879	3.63
309.254	4.2
309.629	4.03
310.003	3.97
310.378	4.2
310.753	4.36
311.128	4.24
311.502	4.37
311.877	4.22
312.252	4.19
312.626	4.43
313.001	4.22
313.375	4.47
313.75	4.3
314.124	4.36
314.498	4.67
314.873	4.24
315.247	4.5
315.621	4.4
315.995	4.03
316.369	4.21
316.743	4.32
317.117	3.81
317.491	4.58
317.865	4.11
318.239	4.43
318.613	4.65
318.987	4.48
319.361	4.31
319.734	4.27
320.108	4.34
320.482	4.87
320.855	4.14
321.229	4.6
321.602	4.91
321.976	4.27
322.349	5.02
322.723	4.54
323.096	4.29
323.469	4.6
323.843	4.57
324.216	4.72
324.589	4.6
324.962	4.47
325.335	4.28
325.708	4.39
326.081	4.61
326.454	4.8
326.827	4.7
327.2	4.66
327.573	5.13
327.945	4.56
328.318	4.44
328.691	4.61
329.063	4.68
329.436	4.87
329.809	5.17
330.181	5.13
330.553	5.32
330.926	5.08
331.298	4.52
331.671	5.15
332.043	5.29
332.415	4.79
332.787	5.16
333.159	5.03
333.532	4.83
333.904	4.73
334.276	5
334.648	4.79
335.02	4.82
335.391	4.75
335.763	5
336.135	4.95
336.507	4.69
336.879	4.93
337.25	4.89
337.622	5.15
337.993	5.5
338.365	4.86
338.736	5.32
339.108	5.38
339.479	4.91
339.851	5.44
340.222	5.26
340.593	5.15
340.964	5.18
341.336	4.75
341.707	5.19
342.078	4.9
342.449	4.9
342.82	5.34
343.191	5.03
343.562	5.14
343.933	5.3
344.303	5.02
344.674	5.22
345.045	5.17
345.416	5.14
345.786	4.86
346.157	5.47
346.527	5.02
346.898	4.78
347.268	5.21
347.639	4.98
348.009	5.41
348.38	5.11
348.75	5.42
349.12	5.19
349.49	5.47
349.861	5.86
350.231	5.54
350.601	5.05
350.971	5.02
351.341	5.65
351.711	5.35
352.081	5.26
352.45	5.09
352.82	4.78
353.19	5.12
353.56	5.24
353.929	5.08
354.299	4.91
354.669	5.26
355.038	5.71
355.408	5.18
355.777	5.59
356.147	5.49
356.516	5.27
356.885	5.42
357.254	5.04
357.624	4.78
357.993	5.37
358.362	5.63
358.731	5.57
359.1	5.61
359.469	5.6
359.838	5.24
360.207	5.27
360.576	5.53
360.945	5.66
361.314	5.47
361.682	5.67
362.051	5.52
362.42	5.67
362.788	5.67
363.157	5.15
363.525	5.42
363.894	5.36
364.262	5.47
364.631	5.76
364.999	5.85
365.367	5.59
365.735	5.41
366.104	5.27
366.472	5.11
366.84	5.54
367.208	5.36
367.576	5.55
367.944	5.53
368.312	5.83
368.68	5.94
369.048	5.92
369.416	5.34
369.783	5.72
370.151	6.23
370.519	5.51
370.886	5.66
371.254	6.17
371.621	5.81
371.989	6.02
372.356	6.07
372.724	5.93
373.091	5.57
373.458	5.99
373.826	5.77
374.193	5.93
374.56	5.95
374.927	5.86
375.294	6.03
375.661	5.97
376.028	5.77
376.395	6.05
376.762	5.67
377.129	5.79
377.496	5.85
377.863	5.89
378.229	6.09
378.596	6.05
378.963	5.75
379.329	6.19
379.696	5.59
380.062	5.86
380.429	5.84
380.795	6.14
381.161	5.7
381.528	5.69
381.894	5.77
382.26	5.96
382.626	6.21
382.993	6.18
383.359	5.92
383.725	5.72
384.091	6.27
384.457	5.99
384.823	6.03
385.188	6.14
385.554	6.19
385.92	5.99
386.286	5.99
386.651	6.09
387.017	6.19
387.383	5.94
387.748	6.09
388.114	6.02
388.479	6.17
388.845	5.82
389.21	6.29
389.575	6.5
389.94	6.23
390.306	6.2
390.671	6.17
391.036	6.05
391.401	6.35
391.766	5.9
392.131	6.38
392.496	6.09
392.861	6.12
393.226	6.24
393.591	6.16
393.956	6.26
394.32	6.43
394.685	6.24
395.05	6.27
395.414	6.23
395.779	6.57
396.143	6.23
396.508	6.23
396.872	6.34
397.236	6.57
397.601	6.28
397.965	6.57
398.329	6.47
398.694	6.22
399.058	6.28
399.422	6.35
399.786	6.38
400.15	6.18
400.514	6.44
400.878	6.32
401.242	6.37
401.605	6.18
401.969	6.36
402.333	6.25
402.697	6.7
403.06	6.49
403.424	6.73
403.787	6.51
404.151	6.66
404.514	6.31
404.878	6.35
405.241	6.16
405.604	6.53
405.968	6.5
406.331	6.59
406.694	6.34
407.057	6.39
407.42	6.53
407.783	6.51
408.146	6.58
408.509	6.7
408.872	6.63
409.235	6.58
409.598	6.4
409.961	6.64
410.323	6.49
410.686	6.59
411.049	6.78
411.411	6.79
411.774	6.59
412.136	6.65
412.499	6.75
412.861	6.4
413.223	6.61
413.586	6.93
413.948	6.7
414.31	6.79
414.672	6.73
415.035	6.88
415.397	6.63
415.759	6.59
416.121	6.67
416.483	6.58
416.845	6.86
417.206	6.79
417.568	6.79
417.93	6.8
418.292	6.58
418.653	6.5
419.015	6.69
419.377	6.61
419.738	6.83
420.1	6.76
420.461	6.59
420.822	6.77
421.184	6.84
421.545	6.75
421.906	6.8
422.267	6.71
422.629	6.62
422.99	6.71
423.351	6.74
423.712	6.83
424.073	6.89
424.434	6.98
424.795	6.8
425.155	6.84
425.516	6.83
425.877	6.83
426.238	6.86
426.598	6.95
426.959	7.04
427.32	6.92
427.68	6.96
428.041	7.05
428.401	7.02
428.761	7.12
429.122	7.11
429.482	7.17
429.842	7.07
430.202	7.24
430.563	7.29
430.923	7.33
431.283	7.43
431.643	7.18
432.003	7.27
432.363	7.47
432.722	7.38
433.082	7.2
433.442	7.41
433.802	7.4
434.161	7.44
434.521	7.4
434.881	7.49
435.24	7.38
435.6	7.55
435.959	7.63
436.319	7.51
436.678	7.66
437.037	7.39
437.396	7.7
437.756	7.49
438.115	7.55
438.474	7.66
438.833	7.62
439.192	7.54
439.551	7.61
439.91	7.57
440.269	7.53
440.628	7.53
440.987	7.67
441.345	7.75
441.704	7.56
442.063	7.51
442.421	7.75
442.78	7.65
443.138	7.72
443.497	7.67
443.855	7.8
444.214	7.6
444.572	7.89
444.93	7.84
445.288	7.86
445.647	7.8
446.005	7.91
446.363	7.8
446.721	7.86
447.079	7.81
447.437	7.91
447.795	7.89
448.153	7.85
448.51	7.94
448.868	7.85
449.226	7.98
449.584	7.97
449.941	8.07
450.299	8.02
450.656	8.03
451.014	8.25
451.371	8.33
451.729	8.08
452.086	8.24
452.443	8.28
452.801	8.26
453.158	8.54
453.515	8.28
453.872	8.37
454.229	8.13
454.586	8.29
454.943	8.34
455.3	8.39
455.657	8.43
456.014	8.39
456.371	8.43
456.727	8.6
457.084	8.47
457.441	8.53
457.797	8.44
458.154	8.43
458.51	8.55
458.867	8.52
459.223	8.51
459.58	8.63
459.936	8.47
460.292	8.58
460.648	8.48
461.005	8.43
461.361	8.38
461.717	8.41
462.073	8.65
462.429	8.54
462.785	8.82
463.141	8.77
463.496	8.87
463.852	8.82
464.208	8.9
464.564	8.78
464.919	8.86
465.275	8.82
465.631	8.93
465.986	8.94
466.342	8.78
466.697	8.89
467.052	9.05
467.408	9.1
467.763	9.05
468.118	8.94
468.473	9.1
468.829	8.98
469.184	9.31
469.539	9.07
469.894	9.05
470.249	9.22
470.603	9.37
470.958	9.38
471.313	9.17
471.668	9.23
472.023	9.47
472.377	9.29
472.732	9.3
473.086	9.21
473.441	9.44
473.795	9.43
474.15	9.37
474.504	9.23
474.859	9.17
475.213	9.42
475.567	9.32
475.921	9.42
476.275	9.62
476.63	9.59
476.984	9.5
477.338	9.55
477.692	9.44
478.045	9.55
478.399	9.46
478.753	9.48
479.107	9.65
479.461	9.55
479.814	9.6
480.168	9.71
480.521	9.74
480.875	9.65
481.228	9.69
481.582	9.68
481.935	9.81
482.289	9.66
482.642	9.74
482.995	9.64
483.348	9.62
483.701	9.58
484.055	9.56
484.408	9.52
484.761	9.42
485.114	9.16
485.466	9.08
485.819	9.14
486.172	9.28
486.525	9.46
486.878	9.63
487.23	9.74
487.583	9.73
487.936	9.63
488.288	9.62
488.641	9.53
488.993	9.47
489.345	9.54
489.698	9.52
490.05	9.64
490.402	9.67
490.754	9.72
491.107	9.89
491.459	10.06
491.811	9.99
492.163	10.03
492.515	9.87
492.866	9.79
493.218	9.64
493.57	9.75
493.922	9.89
494.274	10.12
494.625	10.21
494.977	10.31
495.328	10.36
495.68	10.35
496.031	10.38
496.383	10.43
496.734	10.39
497.086	10.62
497.437	10.5
497.788	10.48
498.139	10.35
498.49	10.32
498.842	10.53
499.193	10.38
499.544	10.51
499.894	10.5
500.245	10.55
500.596	10.48
500.947	10.6
501.298	10.63
501.648	10.6
501.999	10.88
502.35	10.64
502.7	10.94
503.051	10.95
503.401	10.81
503.752	10.74
504.102	10.98
504.452	10.86
504.803	10.7
505.153	10.87
505.503	10.97
505.853	10.93
506.203	10.94
506.553	10.96
506.903	11
507.253	10.92
507.603	11.15
507.953	11.05
508.303	11.13
508.652	11.01
509.002	11.1
509.352	11.13
509.701	10.88
510.051	11.17
510.4	11.17
510.75	11.05
511.099	11.11
511.449	11.17
511.798	11.02
512.147	11.09
512.496	11.1
512.846	11.24
513.195	11.27
513.544	11.23
513.893	11.26
514.242	11.18
514.591	11.22
514.939	11.44
515.288	11.47
515.637	11.25
515.986	11.44
516.334	11.51
516.683	11.43
517.032	11.55
517.38	11.38
517.729	11.48
518.077	11.54
518.426	11.61
518.774	11.36
519.122	11.44
519.47	11.34
519.819	11.37
520.167	11.25
520.515	11.33
520.863	11.38
521.211	11.44
521.559	11.6
521.907	11.7
522.255	11.69
522.602	11.74
522.95	11.84
523.298	11.74
523.645	11.83
523.993	11.86
524.341	11.77
524.688	11.79
525.036	11.86
525.383	11.85
525.73	11.66
526.078	11.88
526.425	11.8
526.772	11.64
527.119	11.59
527.466	11.7
527.814	11.74
528.161	11.77
528.508	11.83
528.854	11.74
529.201	11.71
529.548	11.49
529.895	11.34
530.242	11.25
530.588	11.31
530.935	11.5
531.282	11.6
531.628	11.73
531.975	11.88
532.321	12.01
532.667	12.01
533.014	12.08
533.36	12.02
533.706	12.11
534.052	12.06
534.399	11.86
534.745	11.73
535.091	11.8
535.437	11.82
535.783	11.93
536.129	12.19
536.474	12.35
536.82	12.3
537.166	12.3
537.512	12.26
537.857	12.18
538.203	12.27
538.549	12.22
538.894	12.3
539.239	12.36
539.585	12.49
539.93	12.64
540.276	12.55
540.621	12.64
540.966	12.7
541.311	12.69
541.656	12.6
542.001	12.42
542.346	12.19
542.691	11.99
543.036	12.01
543.381	12.22
543.726	12.37
544.071	12.43
544.415	12.48
544.76	12.49
545.105	12.58
545.449	12.7
545.794	12.72
546.138	12.77
546.483	12.92
546.827	12.85
547.171	12.99
547.516	12.88
547.86	12.98
548.204	12.91
548.548	12.82
548.892	12.84
549.236	13.01
549.58	13.08
549.924	13.39
550.268	13.25
550.612	13.4
550.956	13.58
551.3	13.52
551.643	13.35
551.987	13.64
552.33	13.51
552.674	13.55
553.017	13.5
553.361	13.73
553.704	13.62
554.048	13.46
554.391	13.47
554.734	13.39
555.077	13.54
555.42	13.59
555.764	13.58
556.107	13.65
556.45	13.78
556.793	13.81
557.135	13.87
557.478	13.77
557.821	13.86
558.164	13.94
558.507	13.78
558.849	14.15
559.192	13.89
559.534	13.78
559.877	14
560.219	14.07
560.562	14.03
560.904	14.04
561.246	14.14
561.589	14.43
561.931	14.12
562.273	13.96
562.615	14.06
562.957	14.02
563.299	14.25
563.641	14.27
563.983	14.05
564.325	14.41
564.667	14.14
565.008	14.23
565.35	14.2
565.692	14.28
566.033	14.32
566.375	14.31
566.716	14.13
567.058	14.27
567.399	14.27
567.741	14.42
568.082	14.34
568.423	14.27
568.764	14.46
569.105	14.45
569.447	14.42
569.788	14.57
570.129	14.57
570.47	14.58
570.811	14.62
571.151	14.64
571.492	14.59
571.833	14.49
572.174	14.9
572.514	14.7
572.855	14.69
573.195	14.44
573.536	14.66
573.876	14.61
574.217	14.59
574.557	14.78
574.898	14.72
575.238	14.89
575.578	14.98
575.918	14.98
576.258	14.9
576.598	14.69
576.938	14.74
577.278	15.05
577.618	14.97
577.958	14.97
578.298	15.15
578.638	14.91
578.977	15.14
579.317	15.17
579.657	14.99
579.996	15.29
580.336	15.34
580.675	15.2
581.014	15.48
581.354	15.28
581.693	15.65
582.032	15.78
582.372	15.5
582.711	15.63
583.05	15.45
583.389	15.6
583.728	15.84
584.067	15.43
584.406	15.91
584.745	15.59
585.083	15.61
585.422	15.92
585.761	15.81
586.1	15.85
586.438	15.67
586.777	15.58
587.115	15.75
587.454	15.61
587.792	15.59
588.13	15.73
588.469	15.78
588.807	15.89
589.145	15.91
589.483	15.91
589.821	16.06
590.159	16.02
590.497	15.96
590.835	15.81
591.173	16.06
591.511	16.07
591.849	16.18
592.187	15.91
592.524	16.02
592.862	16.05
593.2	16.03
593.537	15.98
593.875	16.25
594.212	16.16
594.55	16.13
594.887	16.18
595.224	16.14
595.561	16.57
595.899	16.15
596.236	16.3
596.573	16.26
596.91	16.17
597.247	16.68
597.584	16.58
597.921	16.23
598.258	16.37
598.594	16.13
598.931	16.05
599.268	16.29
599.604	16.27
599.941	16.49
600.277	16.68
600.614	16.38
600.95	16.71
601.287	16.42
601.623	16.33
601.959	16.88
602.296	16.59
602.632	16.63
602.968	16.43
603.304	16.66
603.64	16.95
603.976	16.63
604.312	16.68
604.648	16.64
604.984	16.67
605.319	16.6
605.655	16.66
605.991	16.75
606.326	16.6
606.662	16.43
606.998	16.77
607.333	16.81
607.668	16.95
608.004	16.77
608.339	16.82
608.674	17.05
609.01	17.22
609.345	17.18
609.68	17.03
610.015	17.04
610.35	16.99
610.685	16.88
611.02	16.87
611.355	17.06
611.689	16.91
612.024	17.09
612.359	17.21
612.694	17.06
613.028	17.29
613.363	17.09
613.697	17.26
614.032	17.72
614.366	17.31
614.7	17.46
615.035	17.37
615.369	17.32
615.703	17.69
616.037	17.19
616.371	17.46
616.705	17.62
617.039	17.49
617.373	17.51
617.707	17.45
618.041	17.28
618.375	17.35
618.709	17.75
619.042	17.31
619.376	17.63
619.71	17.61
620.043	18.05
620.377	17.74
620.71	17.74
621.043	18.03
621.377	17.91
621.71	18.04
622.043	17.92
622.376	17.62
622.709	17.79
623.043	17.97
623.376	17.91
623.709	17.63
624.041	17.98
624.374	17.82
624.707	17.95
625.04	17.93
625.373	17.82
625.705	18.19
626.038	18.28
626.37	17.94
626.703	18
627.035	17.96
627.368	18.05
627.7	17.99
628.032	17.94
628.365	18.23
628.697	18.64
629.029	17.88
629.361	18.36
629.693	18.19
630.025	18.41
630.357	18.44
630.689	18.03
631.021	18.2
631.353	17.85
631.684	17.99
632.016	18.05
632.348	18.3
632.679	18.29
633.011	18.35
633.342	18.15
633.674	18.28
634.005	18.56
634.336	18.29
634.668	18.2
634.999	18.36
635.33	18.42
635.661	18.47
635.992	18.46
636.323	18.52
636.654	18.29
636.985	18.22
637.316	18.65
637.647	18.64
637.977	18.37
638.308	18.93
638.639	18.5
638.969	18.44
639.3	19
639.63	18.75
639.961	18.64
640.291	18.56
640.622	19.22
640.952	18.74
641.282	18.74
641.612	18.92
641.943	18.26
642.273	18.63
642.603	19.21
642.933	19.18
643.263	19.36
643.592	19.14
643.922	19.58
644.252	19.11
644.582	18.82
644.911	19.18
645.241	18.95
645.571	19.23
645.9	19.16
646.23	19.07
646.559	19.23
646.888	19.5
647.218	19.08
647.547	19.39
647.876	19.38
648.205	19.32
648.534	19.6
648.863	19.5
649.192	19.37
649.521	19.25
649.85	19.53
650.179	19.56
650.508	19.61
650.837	19.65
651.165	20.03
651.494	19.84
651.822	20
652.151	19.37
652.479	19.49
652.808	19.59
653.136	19.19
653.465	19.01
653.793	19.71
654.121	19.69
654.449	19.46
654.777	19.62
655.105	19.39
655.433	20.19
655.761	19.41
656.089	19.7
656.417	20.48
656.745	19.85
657.073	19.75
657.4	19.59
657.728	19.48
658.056	20.24
658.383	19.74
658.711	20.21
659.038	20.43
659.365	19.63
659.693	20.06
660.02	20.62
660.347	19.85
660.674	19.76
661.001	19.9
661.329	20.1
661.656	19.82
661.982	19.93
662.309	20.05
662.636	20.42
662.963	20.23
663.29	20.64
663.616	20.07
663.943	20.19
664.27	20.41
664.596	20.6
664.923	20.26
665.249	20.66
665.576	20.6
665.902	20.18
666.228	20.9
666.554	20.8
666.881	20.47
667.207	20.51
667.533	20.58
667.859	20.23
668.185	21.01
668.511	21
668.837	20.55
669.162	21.07
669.488	20.24
669.814	20.76
670.139	20.18
670.465	21.67
670.791	20.45
671.116	20.39
671.442	20.64
671.767	21.02
672.092	20.88
672.418	20.92
672.743	20.89
673.068	21.15
673.393	21.11
673.718	20.59
674.043	21.5
674.368	20.79
674.693	21.21
675.018	21.61
675.343	21.37
675.667	21.44
675.992	20.98
676.317	20.82
676.641	21.56
676.966	20.92
677.29	20.84
677.615	21.03
677.939	21.43
678.264	21.06
678.588	21.54
678.912	21.4
