Data from 2019-21_forehead_Reflection__3__437.txt Node

Date: Thu Dec 15 20:19:57 CST 2022
User: ToomeyLab
Spectrometer: FLMS14357
Trigger mode: 0
Integration Time (sec): 1.000000E-2
Scans to average: 100
Electric dark correction enabled: true
Nonlinearity correction enabled: false
Boxcar width: 0
XAxis mode: Wavelengths
Number of Pixels in Spectrum: 2048
>>>>>Begin Spectral Data<<<<<
189.047	-24.06
189.435	-24.06
189.823	-24.06
190.211	-91.24
190.599	14.65
190.987	3225.81
191.375	0.61
191.763	102.35
192.151	152.15
192.538	31.46
192.926	-20.96
193.314	-123.03
193.702	21.31
194.089	-8.13
194.477	-7.24
194.864	56.81
195.252	610.79
195.639	6.61
196.027	93.65
196.414	430.66
196.801	-65.08
197.189	-11.19
197.576	68.65
197.963	-34.33
198.351	-14.43
198.738	-61.78
199.125	-2.58
199.512	37.42
199.899	-21.94
200.286	-27.09
200.673	4.27
201.06	-38.8
201.447	7.33
201.833	-10.9
202.22	-15.84
202.607	-28.16
202.994	-14.57
203.38	-14.13
203.767	20.04
204.154	9.68
204.54	3.13
204.927	-22.84
205.313	33.16
205.699	-1.66
206.086	11.92
206.472	12.89
206.858	2.32
207.245	5.5
207.631	-10.77
208.017	33.94
208.403	-80.1
208.789	4.06
209.175	-9
209.561	-115.94
209.947	-12.03
210.333	37.08
210.719	12.19
211.105	21.59
211.491	23.96
211.876	-62.43
212.262	8.11
212.648	15.94
213.034	24.07
213.419	0.13
213.805	-30.86
214.19	-49.63
214.576	-50.18
214.961	20
215.346	-7.74
215.732	21.3
216.117	-11.71
216.502	-26.08
216.888	-11.04
217.273	22.64
217.658	6.51
218.043	-31.73
218.428	-7.82
218.813	5.7
219.198	-32.79
219.583	-7.35
219.968	-20.25
220.353	-4.18
220.738	-6.7
221.122	-42.33
221.507	-31.05
221.892	-19.24
222.276	-23.63
222.661	-9.3
223.046	-13.2
223.43	15.35
223.815	1.76
224.199	6.52
224.583	0.14
224.968	-2.01
225.352	-11.01
225.736	5.67
226.121	4.19
226.505	2.39
226.889	0.84
227.273	1.1
227.657	6.84
228.041	0.84
228.425	-1.18
228.809	3.75
229.193	6.59
229.577	4.01
229.961	4.73
230.344	4.77
230.728	5.33
231.112	5.03
231.495	3.62
231.879	4.57
232.263	4.02
232.646	4.17
233.03	4.97
233.413	5.46
233.797	1.86
234.18	5.32
234.563	4.33
234.946	5.49
235.33	3.09
235.713	4.43
236.096	5.18
236.479	5.3
236.862	3.86
237.245	2.99
237.628	4.23
238.011	5.64
238.394	2.78
238.777	4.87
239.16	6.57
239.543	5.03
239.925	4.6
240.308	3.88
240.691	3.09
241.073	3.81
241.456	5.79
241.838	4.66
242.221	4.38
242.603	4.64
242.986	5.12
243.368	5.01
243.75	4.92
244.133	5.33
244.515	4.84
244.897	4.73
245.279	3.71
245.661	5.07
246.043	5.32
246.425	5.27
246.807	4.54
247.189	4.39
247.571	4.57
247.953	4.54
248.335	4.6
248.717	4.69
249.098	4.69
249.48	4.71
249.862	4.79
250.243	4.74
250.625	5.05
251.006	5.68
251.388	3.94
251.769	4.61
252.151	4.44
252.532	3.5
252.913	4.57
253.295	4.51
253.676	5.28
254.057	4.24
254.438	4.28
254.819	4.07
255.2	4.77
255.581	5.32
255.962	5.77
256.343	5.44
256.724	5.69
257.105	5.29
257.486	2.91
257.867	4.09
258.247	4.86
258.628	4.83
259.009	4.59
259.389	3.86
259.77	4.14
260.15	4.81
260.531	4.77
260.911	4.38
261.292	4.45
261.672	4.46
262.052	4.45
262.432	4.38
262.813	4.47
263.193	4.42
263.573	3.86
263.953	4.41
264.333	4.56
264.713	4.43
265.093	4.15
265.473	4.65
265.853	4.06
266.233	3.77
266.612	3.4
266.992	3.74
267.372	4.25
267.752	4.17
268.131	4.08
268.511	4.17
268.89	4.67
269.27	3.96
269.649	4.07
270.029	4.26
270.408	3.44
270.787	4.03
271.167	3.94
271.546	5.02
271.925	4.9
272.304	4.15
272.683	3.84
273.062	4.11
273.441	3.87
273.82	4.29
274.199	3.97
274.578	4.25
274.957	3.97
275.336	4.51
275.715	3.9
276.093	3.69
276.472	3.75
276.851	3.92
277.229	4
277.608	3.83
277.986	4.41
278.365	4.7
278.743	3.88
279.122	3.69
279.5	4.17
279.878	3.46
280.257	4.15
280.635	3.85
281.013	3.85
281.391	3.66
281.769	4.42
282.147	4.41
282.525	3.89
282.903	4.1
283.281	4.61
283.659	4.31
284.037	4.12
284.415	4.11
284.792	4.35
285.17	4.06
285.548	4.09
285.925	4.17
286.303	4.49
286.68	4.16
287.058	4.19
287.435	4.01
287.813	4.11
288.19	3.76
288.567	4.12
288.945	3.83
289.322	3.99
289.699	4.33
290.076	4.18
290.453	3.91
290.83	3.87
291.207	4.04
291.584	4.19
291.961	4.14
292.338	4.1
292.715	3.99
293.092	4.24
293.469	3.7
293.845	4.23
294.222	4.56
294.599	3.87
294.975	3.55
295.352	4.44
295.728	4.18
296.105	4.6
296.481	4.45
296.858	4.29
297.234	4.03
297.61	4.5
297.986	4.73
298.363	4.21
298.739	4.41
299.115	4.45
299.491	4.63
299.867	4.3
300.243	4.13
300.619	3.97
300.995	4.05
301.371	4.3
301.746	4.07
302.122	3.89
302.498	4.15
302.874	4.36
303.249	4.3
303.625	3.78
304	4.76
304.376	4.72
304.751	4.32
305.127	4.3
305.502	4.85
305.878	4.33
306.253	4.28
306.628	4.51
307.003	4.27
307.378	4.53
307.754	4.73
308.129	4.43
308.504	5.11
308.879	4.38
309.254	4.82
309.629	4.76
310.003	4.53
310.378	5.09
310.753	4.83
311.128	4.48
311.502	4.76
311.877	4.63
312.252	4.94
312.626	4.94
313.001	4.64
313.375	4.77
313.75	5.11
314.124	4.76
314.498	5.35
314.873	4.28
315.247	4.5
315.621	4.58
315.995	4.9
316.369	4.18
316.743	4.77
317.117	4.7
317.491	4.6
317.865	4.51
318.239	5.23
318.613	4.69
318.987	4.7
319.361	4.89
319.734	5.25
320.108	5.05
320.482	5.32
320.855	4.57
321.229	4.83
321.602	4.86
321.976	4.3
322.349	5.81
322.723	4.86
323.096	5.03
323.469	4.83
323.843	4.53
324.216	5.06
324.589	5.32
324.962	4.65
325.335	5.32
325.708	4.86
326.081	5.33
326.454	5.24
326.827	5.27
327.2	4.82
327.573	5.42
327.945	4.99
328.318	5.2
328.691	5.21
329.063	5.43
329.436	5.02
329.809	5.13
330.181	5.68
330.553	5.74
330.926	5.66
331.298	5.11
331.671	5.54
332.043	4.97
332.415	5.47
332.787	5.51
333.159	4.93
333.532	5.34
333.904	5.47
334.276	5.63
334.648	5.35
335.02	5.44
335.391	5.24
335.763	5.51
336.135	5.65
336.507	5.1
336.879	5.37
337.25	5.51
337.622	5.69
337.993	5.25
338.365	5.34
338.736	5.49
339.108	5.53
339.479	5.37
339.851	5.32
340.222	5.57
340.593	5.68
340.964	5.37
341.336	5.02
341.707	5.59
342.078	5.17
342.449	5.55
342.82	5.49
343.191	5.47
343.562	5.52
343.933	5.44
344.303	5.52
344.674	5.48
345.045	5.26
345.416	6.18
345.786	5.73
346.157	5.5
346.527	5.47
346.898	5.41
347.268	5.93
347.639	5.56
348.009	5.5
348.38	5.22
348.75	5.83
349.12	5.76
349.49	5.35
349.861	5.77
350.231	5.31
350.601	5.65
350.971	5.7
351.341	5.45
351.711	5.27
352.081	5.23
352.45	5.09
352.82	5.5
353.19	5.5
353.56	5.46
353.929	5.61
354.299	5.74
354.669	5.86
355.038	5.67
355.408	5.61
355.777	6.08
356.147	5.64
356.516	5.48
356.885	5.43
357.254	5.52
357.624	5.15
357.993	5.71
358.362	5.77
358.731	6.04
359.1	5.56
359.469	5.81
359.838	5.85
360.207	5.31
360.576	5.98
360.945	5.87
361.314	5.81
361.682	5.51
362.051	5.71
362.42	5.8
362.788	5.99
363.157	5.54
363.525	5.82
363.894	5.62
364.262	5.7
364.631	5.87
364.999	5.82
365.367	5.8
365.735	5.82
366.104	5.72
366.472	5.98
366.84	5.8
367.208	6.11
367.576	5.61
367.944	6
368.312	5.82
368.68	5.99
369.048	5.68
369.416	5.52
369.783	6.07
370.151	5.9
370.519	6.24
370.886	6.14
371.254	6.15
371.621	5.96
371.989	6.22
372.356	6.13
372.724	5.66
373.091	5.79
373.458	5.91
373.826	6.12
374.193	5.96
374.56	6.04
374.927	6.02
375.294	6.27
375.661	6.01
376.028	6.04
376.395	6
376.762	6.07
377.129	5.85
377.496	6.05
377.863	5.99
378.229	6.44
378.596	6.2
378.963	6.15
379.329	6.25
379.696	5.94
380.062	5.94
380.429	6.05
380.795	6.65
381.161	5.77
381.528	5.75
381.894	6.01
382.26	6.23
382.626	6.25
382.993	6.47
383.359	6.15
383.725	6.13
384.091	6.37
384.457	5.79
384.823	6.38
385.188	6.18
385.554	6.23
385.92	6.12
386.286	6.08
386.651	5.98
387.017	6.34
387.383	6.27
387.748	6.37
388.114	6.43
388.479	6.33
388.845	6.06
389.21	6.41
389.575	6.53
389.94	6.39
390.306	6.36
390.671	6.42
391.036	6.27
391.401	6.29
391.766	6.3
392.131	6.55
392.496	6.3
392.861	6.31
393.226	6.47
393.591	6.55
393.956	6.53
394.32	6.3
394.685	6.52
395.05	6.38
395.414	6.6
395.779	6.49
396.143	6.52
396.508	6.47
396.872	6.15
397.236	6.65
397.601	6.42
397.965	6.38
398.329	6.32
398.694	6.56
399.058	6.58
399.422	6.23
399.786	6.33
400.15	6.63
400.514	6.41
400.878	6.59
401.242	6.54
401.605	6.42
401.969	6.54
402.333	6.36
402.697	6.75
403.06	6.48
403.424	6.67
403.787	6.43
404.151	6.57
404.514	6.7
404.878	6.44
405.241	6.5
405.604	6.5
405.968	6.63
406.331	6.52
406.694	6.62
407.057	6.61
407.42	6.38
407.783	6.61
408.146	6.42
408.509	6.76
408.872	6.37
409.235	6.78
409.598	6.51
409.961	6.71
410.323	6.97
410.686	6.51
411.049	6.51
411.411	6.55
411.774	6.71
412.136	6.6
412.499	6.61
412.861	6.33
413.223	6.51
413.586	6.46
413.948	6.9
414.31	6.9
414.672	6.57
415.035	6.81
415.397	6.92
415.759	6.45
416.121	6.72
416.483	6.75
416.845	6.7
417.206	6.72
417.568	6.6
417.93	6.7
418.292	6.72
418.653	6.54
419.015	6.72
419.377	6.75
419.738	6.81
420.1	6.8
420.461	6.69
420.822	6.82
421.184	6.67
421.545	6.77
421.906	6.82
422.267	6.77
422.629	6.61
422.99	6.73
423.351	6.79
423.712	6.9
424.073	6.78
424.434	6.95
424.795	6.91
425.155	6.77
425.516	6.84
425.877	6.89
426.238	6.9
426.598	6.92
426.959	7.02
427.32	6.91
427.68	7
428.041	7.14
428.401	6.98
428.761	7.15
429.122	7.07
429.482	7.14
429.842	7.18
430.202	7.24
430.563	7.22
430.923	7.14
431.283	7.29
431.643	7.42
432.003	7.42
432.363	7.52
432.722	7.38
433.082	7.18
433.442	7.43
433.802	7.36
434.161	7.33
434.521	7.36
434.881	7.38
435.24	7.35
435.6	7.34
435.959	7.54
436.319	7.55
436.678	7.45
437.037	7.39
437.396	7.6
437.756	7.58
438.115	7.61
438.474	7.6
438.833	7.47
439.192	7.52
439.551	7.59
439.91	7.54
440.269	7.67
440.628	7.57
440.987	7.69
441.345	7.66
441.704	7.56
442.063	7.55
442.421	7.57
442.78	7.68
443.138	7.6
443.497	7.7
443.855	7.74
444.214	7.59
444.572	7.99
444.93	7.8
445.288	7.86
445.647	7.69
446.005	7.79
446.363	7.81
446.721	7.85
447.079	7.7
447.437	7.89
447.795	7.87
448.153	7.84
448.51	7.89
448.868	7.78
449.226	7.96
449.584	7.86
449.941	8.01
450.299	7.96
450.656	7.97
451.014	8.25
451.371	8.02
451.729	8.02
452.086	8.18
452.443	8.36
452.801	8.12
453.158	8.22
453.515	8.14
453.872	8.29
454.229	8
454.586	8.23
454.943	8.33
455.3	8.35
455.657	8.31
456.014	8.34
456.371	8.42
456.727	8.53
457.084	8.4
457.441	8.28
457.797	8.38
458.154	8.5
458.51	8.31
458.867	8.49
459.223	8.55
459.58	8.38
459.936	8.53
460.292	8.44
460.648	8.29
461.005	8.39
461.361	8.36
461.717	8.38
462.073	8.5
462.429	8.52
462.785	8.52
463.141	8.61
463.496	8.67
463.852	8.6
464.208	8.69
464.564	8.49
464.919	8.76
465.275	8.73
465.631	8.81
465.986	8.81
466.342	8.63
466.697	8.69
467.052	8.96
467.408	8.86
467.763	8.74
468.118	8.86
468.473	8.87
468.829	8.75
469.184	9.01
469.539	8.63
469.894	9.04
470.249	8.88
470.603	9.04
470.958	8.89
471.313	9.12
471.668	9.11
472.023	9.14
472.377	9.05
472.732	9.15
473.086	9.29
473.441	9.23
473.795	9.36
474.15	9.21
474.504	9.28
474.859	9.12
475.213	9.18
475.567	9.14
475.921	9.33
476.275	9.34
476.63	9.27
476.984	9.09
477.338	9.37
477.692	9.31
478.045	9.41
478.399	9.45
478.753	9.28
479.107	9.32
479.461	9.32
479.814	9.43
480.168	9.47
480.521	9.4
480.875	9.46
481.228	9.55
481.582	9.39
481.935	9.46
482.289	9.5
482.642	9.56
482.995	9.5
483.348	9.47
483.701	9.53
484.055	9.4
484.408	9.37
484.761	9.19
485.114	9.08
485.466	9.05
485.819	9.06
486.172	9.05
486.525	9.14
486.878	9.2
487.23	9.24
487.583	9.37
487.936	9.38
488.288	9.38
488.641	9.37
488.993	9.31
489.345	9.3
489.698	9.34
490.05	9.3
490.402	9.38
490.754	9.44
491.107	9.57
491.459	9.67
491.811	9.71
492.163	9.72
492.515	9.63
492.866	9.53
493.218	9.56
493.57	9.62
493.922	9.56
494.274	9.74
494.625	9.75
494.977	9.83
495.328	9.89
495.68	9.93
496.031	10.09
496.383	10.07
496.734	10.24
497.086	10.31
497.437	10.21
497.788	10.33
498.139	10.17
498.49	10.14
498.842	10.16
499.193	9.99
499.544	10.3
499.894	10.21
500.245	10.22
500.596	10.28
500.947	10.16
501.298	10.31
501.648	10.27
501.999	10.39
502.35	10.25
502.7	10.58
503.051	10.37
503.401	10.52
503.752	10.33
504.102	10.61
504.452	10.46
504.803	10.47
505.153	10.63
505.503	10.44
505.853	10.62
506.203	10.6
506.553	10.58
506.903	10.64
507.253	10.62
507.603	10.6
507.953	10.65
508.303	10.69
508.652	10.53
509.002	10.68
509.352	10.7
509.701	10.66
510.051	10.7
510.4	10.73
510.75	10.62
511.099	10.66
511.449	10.71
511.798	10.65
512.147	10.67
512.496	10.76
512.846	10.82
513.195	10.76
513.544	10.81
513.893	10.79
514.242	10.82
514.591	10.81
514.939	10.83
515.288	11
515.637	10.9
515.986	10.98
516.334	10.93
516.683	10.96
517.032	11.04
517.38	10.97
517.729	11.01
518.077	10.97
518.426	11.17
518.774	11.05
519.122	11.04
519.47	10.94
519.819	11.05
520.167	11.02
520.515	11.02
520.863	10.89
521.211	10.98
521.559	11.03
521.907	11.13
522.255	11.14
522.602	11.28
522.95	11.27
523.298	11.2
523.645	11.21
523.993	11.22
524.341	11.32
524.688	11.3
525.036	11.28
525.383	11.4
525.73	11.31
526.078	11.39
526.425	11.29
526.772	11.28
527.119	11.23
527.466	11.27
527.814	11.33
528.161	11.32
528.508	11.39
528.854	11.27
529.201	11.18
529.548	11.09
529.895	11.01
530.242	11.02
530.588	11
530.935	10.99
531.282	10.98
531.628	11.09
531.975	11.11
532.321	11.28
532.667	11.33
533.014	11.47
533.36	11.48
533.706	11.52
534.052	11.54
534.399	11.42
534.745	11.31
535.091	11.33
535.437	11.42
535.783	11.38
536.129	11.49
536.474	11.61
536.82	11.69
537.166	11.52
537.512	11.77
537.857	11.69
538.203	11.71
538.549	11.75
538.894	11.72
539.239	11.69
539.585	11.76
539.93	11.83
540.276	11.95
540.621	12.11
540.966	11.92
541.311	12.11
541.656	12
542.001	11.9
542.346	11.79
542.691	11.71
543.036	11.73
543.381	11.75
543.726	11.73
544.071	11.68
544.415	11.77
544.76	11.86
545.105	11.95
545.449	12.06
545.794	12.04
546.138	12.09
546.483	12.25
546.827	12.17
547.171	12.35
547.516	12.24
547.86	12.32
548.204	12.37
548.548	12.29
548.892	12.46
549.236	12.24
549.58	12.33
549.924	12.46
550.268	12.58
550.612	12.54
550.956	12.77
551.3	12.8
551.643	12.68
551.987	12.8
552.33	12.95
552.674	12.91
553.017	12.75
553.361	12.93
553.704	12.87
554.048	12.92
554.391	12.83
554.734	12.93
555.077	12.89
555.42	12.87
555.764	12.98
556.107	13.11
556.45	12.97
556.793	13.24
557.135	13.25
557.478	13.23
557.821	13.22
558.164	13.19
558.507	13.12
558.849	13.48
559.192	13.22
559.534	13.17
559.877	13.33
560.219	13.46
560.562	13.26
560.904	13.5
561.246	13.43
561.589	13.47
561.931	13.4
562.273	13.28
562.615	13.43
562.957	13.38
563.299	13.49
563.641	13.52
563.983	13.44
564.325	13.68
564.667	13.54
565.008	13.48
565.35	13.65
565.692	13.71
566.033	13.65
566.375	13.71
566.716	13.56
567.058	13.63
567.399	13.74
567.741	13.65
568.082	13.72
568.423	13.77
568.764	13.78
569.105	13.71
569.447	13.67
569.788	13.88
570.129	13.78
570.47	13.83
570.811	13.89
571.151	13.88
571.492	13.88
571.833	14.07
572.174	13.92
572.514	13.96
572.855	14.1
573.195	13.87
573.536	14
573.876	13.87
574.217	13.94
574.557	14.06
574.898	13.95
575.238	14.14
575.578	14.24
575.918	14.25
576.258	14.54
576.598	14.18
576.938	14.04
577.278	14.22
577.618	14.17
577.958	14.27
578.298	14.32
578.638	14.36
578.977	14.43
579.317	14.43
579.657	14.44
579.996	14.63
580.336	14.64
580.675	14.47
581.014	14.72
581.354	14.35
581.693	14.88
582.032	14.96
582.372	14.74
582.711	14.78
583.05	14.53
583.389	14.96
583.728	14.63
584.067	14.73
584.406	14.79
584.745	14.77
585.083	14.87
585.422	15.19
585.761	14.9
586.1	15.02
586.438	14.92
586.777	14.94
587.115	15.29
587.454	15.04
587.792	15.1
588.13	14.89
588.469	15.1
588.807	15
589.145	15.26
589.483	14.81
589.821	15.24
590.159	15.31
590.497	15.28
590.835	14.93
591.173	15.41
591.511	15.46
591.849	15.28
592.187	15.37
592.524	15.52
592.862	15.28
593.2	15.41
593.537	15.45
593.875	15.05
594.212	15.47
594.55	15.55
594.887	15.49
595.224	15.52
595.561	15.24
595.899	15.61
596.236	15.63
596.573	15.51
596.91	15.29
597.247	15.73
597.584	15.61
597.921	15.52
598.258	15.7
598.594	15.52
598.931	15.35
599.268	15.53
599.604	15.48
599.941	15.67
600.277	15.48
600.614	15.63
600.95	15.53
601.287	15.41
601.623	15.63
601.959	15.98
602.296	15.94
602.632	15.89
602.968	15.54
603.304	15.97
603.64	16.15
603.976	15.79
604.312	15.91
604.648	15.89
604.984	15.97
605.319	15.99
605.655	15.97
605.991	15.93
606.326	15.85
606.662	15.86
606.998	16.08
607.333	15.93
607.668	15.99
608.004	15.84
608.339	15.83
608.674	16.22
609.01	16.3
609.345	16.2
609.68	16.22
610.015	16.11
610.35	16.42
610.685	16.04
611.02	16.1
611.355	16.16
611.689	16.14
612.024	16.26
612.359	15.98
612.694	16.33
613.028	16.37
613.363	16.31
613.697	16.36
614.032	16.66
614.366	16.58
614.7	16.41
615.035	16.46
615.369	16.48
615.703	16.71
616.037	16.35
616.371	16.5
616.705	16.6
617.039	16.69
617.373	16.66
617.707	16.75
618.041	16.36
618.375	16.48
618.709	16.88
619.042	16.94
619.376	16.83
619.71	16.81
620.043	17.09
620.377	16.87
620.71	16.9
621.043	16.82
621.377	17.18
621.71	17.14
622.043	17.17
622.376	16.85
622.709	17.26
623.043	17.07
623.376	17.08
623.709	17.33
624.041	17.18
624.374	17.02
624.707	16.91
625.04	17.03
625.373	17.02
625.705	17.39
626.038	17.15
626.37	17.19
626.703	17.38
627.035	17.23
627.368	17.56
627.7	17.32
628.032	17.05
628.365	17.5
628.697	17.43
629.029	17.12
629.361	17.17
629.693	17.2
630.025	17.22
630.357	17.39
630.689	17.18
631.021	17.39
631.353	17.41
631.684	17.27
632.016	17.17
632.348	17.38
632.679	17.84
633.011	17.29
633.342	17.56
633.674	17.09
634.005	17.7
634.336	17.74
634.668	17.6
634.999	17.59
635.33	17.83
635.661	17.51
635.992	17.83
636.323	17.86
636.654	17.4
636.985	17.72
637.316	17.68
637.647	17.56
637.977	17.51
638.308	18.16
638.639	17.8
638.969	17.66
639.3	17.97
639.63	17.71
639.961	18.01
640.291	17.64
640.622	18.25
640.952	18.04
641.282	17.21
641.612	18
641.943	17.85
642.273	18.27
642.603	18.26
642.933	18.19
643.263	18.17
643.592	18
643.922	17.97
644.252	18.13
644.582	18.11
644.911	18.2
645.241	18.21
645.571	18.2
645.9	18.75
646.23	18.85
646.559	17.89
646.888	18.51
647.218	18.1
647.547	18.12
647.876	18.6
648.205	18.04
648.534	18.78
648.863	18.8
649.192	18.56
649.521	18.32
649.85	18.79
650.179	18.8
650.508	18.24
650.837	18.51
651.165	18.96
651.494	18.79
651.822	18.68
652.151	18.57
652.479	18.91
652.808	18.47
653.136	18.56
653.465	18.21
653.793	19.21
654.121	18.7
654.449	18.55
654.777	18.86
655.105	18.68
655.433	19.49
655.761	19.06
656.089	18.61
656.417	19.16
656.745	19.22
657.073	19.18
657.4	19.13
657.728	18.99
658.056	18.96
658.383	18.93
658.711	19.4
659.038	19.62
659.365	19.62
659.693	19.12
660.02	19.13
660.347	19.32
660.674	18.95
661.001	19.21
661.329	19.25
661.656	18.98
661.982	19.07
662.309	19.14
662.636	19.24
662.963	19.49
663.29	19.34
663.616	19.36
663.943	19.62
664.27	19.84
664.596	19.54
664.923	19.72
665.249	19.67
665.576	19.68
665.902	19.77
666.228	20.07
666.554	20.19
666.881	19.55
667.207	19.5
667.533	20.07
667.859	19.83
668.185	19.55
668.511	19.83
668.837	20.36
669.162	19.74
669.488	19.43
669.814	19.85
670.139	19.82
670.465	20.64
670.791	19.32
671.116	20.37
671.442	19.53
671.767	19.84
672.092	20.28
672.418	19.82
672.743	20.18
673.068	19.65
673.393	20.42
673.718	19.74
674.043	20.39
674.368	20.12
674.693	20.67
675.018	20.43
675.343	21.48
675.667	20.5
675.992	20.72
676.317	19.86
676.641	20.84
676.966	20.49
677.29	19.89
677.615	20.16
677.939	21.1
678.264	20.17
678.588	20.39
678.912	20.88
679.236	20.35
679.56	20.67
