Data from 2019-21_crown_Reflection__2__431.txt Node

Date: Thu Dec 15 20:18:35 CST 2022
User: ToomeyLab
Spectrometer: FLMS14357
Trigger mode: 0
Integration Time (sec): 1.000000E-2
Scans to average: 100
Electric dark correction enabled: true
Nonlinearity correction enabled: false
Boxcar width: 0
XAxis mode: Wavelengths
Number of Pixels in Spectrum: 2048
>>>>>Begin Spectral Data<<<<<
189.047	216.24
189.435	216.24
189.823	216.24
190.211	44.9
190.599	1376.56
190.987	4909.68
191.375	70.34
191.763	251.17
192.151	1.23
192.538	59.09
192.926	1.55
193.314	-151.19
193.702	-24.83
194.089	-35.62
194.477	6.9
194.864	91.3
195.252	998.34
195.639	62
196.027	21.54
196.414	155.08
196.801	20.03
197.189	-7.26
197.576	59.64
197.963	-41.34
198.351	33.89
198.738	-28.54
199.125	-126.6
199.512	24.39
199.899	-13.07
200.286	-11.27
200.673	9.18
201.06	1.13
201.447	1.98
201.833	5.88
202.22	12.26
202.607	21.72
202.994	-3.67
203.38	-7.83
203.767	-32.01
204.154	10.25
204.54	-0.75
204.927	42.35
205.313	21.11
205.699	29.28
206.086	21.65
206.472	0.87
206.858	-1.13
207.245	-35.66
207.631	0.46
208.017	38.67
208.403	-133.28
208.789	3.05
209.175	-7.4
209.561	-175.22
209.947	-4.58
210.333	-49.17
210.719	18.5
211.105	43.95
211.491	-6.78
211.876	-36.86
212.262	57.4
212.648	12.11
213.034	26.03
213.419	15.45
213.805	-1.99
214.19	-41.67
214.576	-21.29
214.961	0.78
215.346	-47.21
215.732	-5.66
216.117	-11.74
216.502	-51.93
216.888	-27.48
217.273	14.44
217.658	3.48
218.043	-12.75
218.428	-14.27
218.813	-0.88
219.198	-49.35
219.583	-9.7
219.968	-7.5
220.353	-24.03
220.738	13.31
221.122	-2.67
221.507	-3.71
221.892	-17.36
222.276	-25.47
222.661	-9.53
223.046	-0.54
223.43	0.24
223.815	2.62
224.199	-2.36
224.583	-11.35
224.968	1.14
225.352	-9.12
225.736	13.44
226.121	-5.11
226.505	4.05
226.889	4.14
227.273	-2.29
227.657	5.65
228.041	4.93
228.425	-2.58
228.809	2.22
229.193	3.77
229.577	3.55
229.961	3.03
230.344	4.21
230.728	4.41
231.112	4.74
231.495	2.42
231.879	2.92
232.263	4.29
232.646	2.7
233.03	3.95
233.413	4.78
233.797	3.81
234.18	1.21
234.563	4.36
234.946	2.69
235.33	4.03
235.713	2.01
236.096	4.87
236.479	4.82
236.862	2.87
237.245	3.48
237.628	3.33
238.011	2.37
238.394	2.57
238.777	4.6
239.16	2.97
239.543	4.76
239.925	3.08
240.308	2.81
240.691	3.22
241.073	3.63
241.456	3.89
241.838	3.47
242.221	3.38
242.603	3.62
242.986	4.52
243.368	4.08
243.75	4.01
244.133	4.16
244.515	3.72
244.897	3.71
245.279	3.29
245.661	4.28
246.043	3.49
246.425	3.79
246.807	2.76
247.189	3.35
247.571	3.61
247.953	3.6
248.335	3.7
248.717	3.8
249.098	3.76
249.48	3.76
249.862	3.63
250.243	3.73
250.625	4.13
251.006	3.72
251.388	3.3
251.769	2.76
252.151	4.17
252.532	3.51
252.913	3.05
253.295	3.16
253.676	3.88
254.057	3.23
254.438	3.39
254.819	2.81
255.2	4.33
255.581	3.55
255.962	3.26
256.343	2.99
256.724	2.48
257.105	3.49
257.486	2.31
257.867	2.99
258.247	3.4
258.628	2.86
259.009	3.05
259.389	3.22
259.77	3.54
260.15	3.72
260.531	3.53
260.911	3.29
261.292	3.26
261.672	3.38
262.052	3.22
262.432	2.99
262.813	3.71
263.193	3.29
263.573	3.02
263.953	2.9
264.333	3.3
264.713	3.52
265.093	3.24
265.473	3.49
265.853	2.99
266.233	2.49
266.612	2.28
266.992	2.1
267.372	2.99
267.752	3.16
268.131	2.91
268.511	2.92
268.89	3.76
269.27	3.03
269.649	2.86
270.029	3.09
270.408	2.76
270.787	3.3
271.167	3.4
271.546	3.33
271.925	3.03
272.304	2.75
272.683	2.63
273.062	3.15
273.441	2.83
273.82	3.03
274.199	3.03
274.578	3.19
274.957	3.12
275.336	3.22
275.715	3.43
276.093	3.03
276.472	3.31
276.851	3.32
277.229	2.74
277.608	2.63
277.986	3.24
278.365	3.33
278.743	3.25
279.122	2.36
279.5	2.87
279.878	2.5
280.257	2.44
280.635	3.43
281.013	2.72
281.391	3.06
281.769	3.16
282.147	2.52
282.525	2.3
282.903	2.82
283.281	3.04
283.659	3.2
284.037	2.68
284.415	2.73
284.792	2.89
285.17	2.73
285.548	2.75
285.925	2.84
286.303	2.97
286.68	2.85
287.058	3.03
287.435	2.88
287.813	2.95
288.19	2.73
288.567	3.13
288.945	2.6
289.322	2.74
289.699	3.12
290.076	2.59
290.453	2.92
290.83	2.98
291.207	2.93
291.584	3.15
291.961	2.91
292.338	2.72
292.715	2.75
293.092	2.82
293.469	2.65
293.845	2.76
294.222	2.62
294.599	2.76
294.975	2.37
295.352	2.73
295.728	2.76
296.105	2.6
296.481	3.14
296.858	2.42
297.234	2.33
297.61	2.72
297.986	2.87
298.363	3.08
298.739	3.15
299.115	3.05
299.491	2.98
299.867	2.47
300.243	2.51
300.619	2.86
300.995	3.41
301.371	3.12
301.746	3.04
302.122	2.34
302.498	2.81
302.874	2.91
303.249	2.8
303.625	2.52
304	2.92
304.376	3.4
304.751	3.05
305.127	2.8
305.502	2.87
305.878	2.59
306.253	2.91
306.628	2.83
307.003	2.85
307.378	3.04
307.754	2.94
308.129	2.43
308.504	3
308.879	3.18
309.254	3.1
309.629	2.75
310.003	3.04
310.378	3.03
310.753	3.07
311.128	2.61
311.502	3.08
311.877	2.8
312.252	2.97
312.626	3.16
313.001	2.97
313.375	3.35
313.75	3.15
314.124	2.85
314.498	3.11
314.873	2.98
315.247	2.54
315.621	2.57
315.995	2.9
316.369	2.73
316.743	2.54
317.117	2.41
317.491	3.22
317.865	2.6
318.239	3.73
318.613	2.57
318.987	2.67
319.361	2.36
319.734	2.46
320.108	2.92
320.482	2.6
320.855	3.24
321.229	2.9
321.602	2.7
321.976	2.55
322.349	3.5
322.723	3.21
323.096	2.87
323.469	2.92
323.843	2.61
324.216	2.61
324.589	3.11
324.962	3
325.335	2.95
325.708	3.2
326.081	3.01
326.454	3.15
326.827	3.09
327.2	2.62
327.573	3.26
327.945	2.91
328.318	2.98
328.691	2.87
329.063	2.23
329.436	2.52
329.809	3.4
330.181	3.42
330.553	3.13
330.926	3.23
331.298	2.71
331.671	3.1
332.043	3.31
332.415	3.24
332.787	3.56
333.159	3.12
333.532	3.39
333.904	3.08
334.276	3.01
334.648	2.98
335.02	3.33
335.391	2.73
335.763	3.27
336.135	3.28
336.507	2.65
336.879	3.12
337.25	3.53
337.622	3.39
337.993	2.99
338.365	2.72
338.736	3.39
339.108	3.57
339.479	3.06
339.851	3.44
340.222	3.66
340.593	3.09
340.964	2.94
341.336	3.09
341.707	2.94
342.078	3
342.449	2.68
342.82	3.07
343.191	2.95
343.562	3.56
343.933	2.81
344.303	3.22
344.674	2.75
345.045	3.27
345.416	3.34
345.786	2.86
346.157	3.57
346.527	3.25
346.898	3.11
347.268	3.61
347.639	2.9
348.009	3.24
348.38	2.76
348.75	3.24
349.12	3.69
349.49	3.25
349.861	3.5
350.231	2.72
350.601	3.19
350.971	2.93
351.341	3.11
351.711	3.43
352.081	3.06
352.45	2.95
352.82	2.9
353.19	3.08
353.56	2.89
353.929	3.24
354.299	3.41
354.669	3.29
355.038	3.26
355.408	3.17
355.777	3.38
356.147	3.46
356.516	2.8
356.885	3.14
357.254	3.14
357.624	2.88
357.993	3.23
358.362	3.53
358.731	3.47
359.1	3.35
359.469	3.33
359.838	3.42
360.207	3.21
360.576	3.46
360.945	3.36
361.314	3.35
361.682	3.16
362.051	3.2
362.42	3.56
362.788	3.44
363.157	3.13
363.525	3.42
363.894	3.14
364.262	3.36
364.631	3.69
364.999	3.39
365.367	3.2
365.735	2.97
366.104	3.06
366.472	3.18
366.84	3.68
367.208	3.59
367.576	3.22
367.944	3.47
368.312	3.16
368.68	3.65
369.048	3.48
369.416	3.12
369.783	3.05
370.151	3.42
370.519	3.83
370.886	3.57
371.254	3.87
371.621	3.74
371.989	3.5
372.356	3.42
372.724	3.16
373.091	3.32
373.458	3.17
373.826	3.58
374.193	3.43
374.56	3.38
374.927	3.28
375.294	3.69
375.661	3.18
376.028	3.23
376.395	3.5
376.762	3.16
377.129	3.52
377.496	3.54
377.863	3.56
378.229	3.4
378.596	3.41
378.963	3.41
379.329	3.42
379.696	3.29
380.062	3.69
380.429	3.1
380.795	3.66
381.161	3.23
381.528	3.17
381.894	3.39
382.26	3.35
382.626	3.67
382.993	3.87
383.359	3.26
383.725	3.03
384.091	3.41
384.457	3.34
384.823	3.45
385.188	3.56
385.554	3.52
385.92	3.55
386.286	3.49
386.651	3.57
387.017	3.49
387.383	3.43
387.748	3.63
388.114	3.21
388.479	3.23
388.845	3.28
389.21	3.94
389.575	3.79
389.94	3.79
390.306	3.69
390.671	3.79
391.036	3.33
391.401	3.56
391.766	3.56
392.131	3.72
392.496	3.59
392.861	3.5
393.226	3.39
393.591	3.71
393.956	3.66
394.32	3.68
394.685	3.56
395.05	3.65
395.414	3.54
395.779	3.6
396.143	3.62
396.508	3.45
396.872	3.49
397.236	3.72
397.601	3.79
397.965	3.46
398.329	3.7
398.694	3.29
399.058	3.48
399.422	3.43
399.786	3.46
400.15	3.6
400.514	3.78
400.878	3.66
401.242	3.68
401.605	3.54
401.969	3.54
402.333	3.47
402.697	3.96
403.06	3.57
403.424	3.73
403.787	3.8
404.151	3.67
404.514	3.72
404.878	3.32
405.241	3.46
405.604	3.36
405.968	3.52
406.331	3.79
406.694	3.52
407.057	3.45
407.42	3.56
407.783	3.7
408.146	3.64
408.509	3.92
408.872	3.66
409.235	3.65
409.598	3.5
409.961	3.64
410.323	3.57
410.686	3.51
411.049	3.57
411.411	3.43
411.774	3.68
412.136	3.7
412.499	3.69
412.861	3.38
413.223	3.32
413.586	3.53
413.948	3.67
414.31	3.78
414.672	3.49
415.035	3.62
415.397	3.57
415.759	3.23
416.121	3.54
416.483	3.55
416.845	3.83
417.206	3.5
417.568	3.44
417.93	3.63
418.292	3.32
418.653	3.46
419.015	3.54
419.377	3.49
419.738	3.62
420.1	3.54
420.461	3.42
420.822	3.56
421.184	3.63
421.545	3.62
421.906	3.58
422.267	3.51
422.629	3.51
422.99	3.46
423.351	3.43
423.712	3.58
424.073	3.65
424.434	3.63
424.795	3.46
425.155	3.43
425.516	3.48
425.877	3.51
426.238	3.5
426.598	3.54
426.959	3.63
427.32	3.46
427.68	3.45
428.041	3.59
428.401	3.53
428.761	3.65
429.122	3.71
429.482	3.64
429.842	3.62
430.202	3.54
430.563	3.6
430.923	3.59
431.283	3.64
431.643	3.8
432.003	3.56
432.363	3.7
432.722	3.58
433.082	3.57
433.442	3.69
433.802	3.57
434.161	3.69
434.521	3.55
434.881	3.64
435.24	3.67
435.6	3.64
435.959	3.59
436.319	3.6
436.678	3.76
437.037	3.58
437.396	3.62
437.756	3.62
438.115	3.62
438.474	3.78
438.833	3.53
439.192	3.44
439.551	3.54
439.91	3.58
440.269	3.58
440.628	3.62
440.987	3.65
441.345	3.63
441.704	3.62
442.063	3.53
442.421	3.69
442.78	3.63
443.138	3.59
443.497	3.57
443.855	3.63
444.214	3.53
444.572	3.76
444.93	3.56
445.288	3.59
445.647	3.43
446.005	3.67
446.363	3.57
446.721	3.62
447.079	3.53
447.437	3.52
447.795	3.63
448.153	3.52
448.51	3.59
448.868	3.49
449.226	3.6
449.584	3.6
449.941	3.6
450.299	3.68
450.656	3.64
451.014	3.64
451.371	3.75
451.729	3.59
452.086	3.67
452.443	3.8
452.801	3.55
453.158	3.73
453.515	3.62
453.872	3.63
454.229	3.48
454.586	3.54
454.943	3.73
455.3	3.55
455.657	3.56
456.014	3.5
456.371	3.8
456.727	3.82
457.084	3.72
457.441	3.68
457.797	3.71
458.154	3.66
458.51	3.49
458.867	3.72
459.223	3.55
459.58	3.65
459.936	3.69
460.292	3.49
460.648	3.47
461.005	3.48
461.361	3.54
461.717	3.47
462.073	3.66
462.429	3.61
462.785	3.8
463.141	3.69
463.496	3.85
463.852	3.69
464.208	3.71
464.564	3.71
464.919	3.56
465.275	3.75
465.631	3.76
465.986	3.86
466.342	3.59
466.697	3.6
467.052	3.72
467.408	3.83
467.763	3.7
468.118	3.5
468.473	3.64
468.829	3.56
469.184	3.56
469.539	3.47
469.894	3.5
470.249	3.78
470.603	3.78
470.958	3.67
471.313	3.7
471.668	3.67
472.023	3.68
472.377	3.41
472.732	3.76
473.086	3.66
473.441	3.74
473.795	3.85
474.15	3.59
474.504	3.42
474.859	3.4
475.213	3.81
475.567	3.56
475.921	3.65
476.275	3.6
476.63	3.66
476.984	3.45
477.338	3.78
477.692	3.71
478.045	3.64
478.399	3.7
478.753	3.59
479.107	3.64
479.461	3.47
479.814	3.61
480.168	3.64
480.521	3.72
480.875	3.54
481.228	3.52
481.582	3.69
481.935	3.63
482.289	3.63
482.642	3.76
482.995	3.6
483.348	3.62
483.701	3.57
484.055	3.46
484.408	3.54
484.761	3.39
485.114	3.36
485.466	3.33
485.819	3.37
486.172	3.39
486.525	3.45
486.878	3.55
487.23	3.49
487.583	3.55
487.936	3.52
488.288	3.51
488.641	3.4
488.993	3.4
489.345	3.38
489.698	3.43
490.05	3.41
490.402	3.44
490.754	3.45
491.107	3.52
491.459	3.57
491.811	3.58
492.163	3.52
492.515	3.35
492.866	3.39
493.218	3.41
493.57	3.44
493.922	3.48
494.274	3.57
494.625	3.65
494.977	3.6
495.328	3.55
495.68	3.55
496.031	3.63
496.383	3.59
496.734	3.55
497.086	3.65
497.437	3.74
497.788	3.61
498.139	3.61
498.49	3.54
498.842	3.64
499.193	3.51
499.544	3.61
499.894	3.57
500.245	3.68
500.596	3.58
500.947	3.48
501.298	3.63
501.648	3.66
501.999	3.6
502.35	3.52
502.7	3.72
503.051	3.6
503.401	3.6
503.752	3.5
504.102	3.58
504.452	3.44
504.803	3.58
505.153	3.59
505.503	3.53
505.853	3.67
506.203	3.64
506.553	3.6
506.903	3.58
507.253	3.54
507.603	3.67
507.953	3.58
508.303	3.66
508.652	3.43
509.002	3.51
509.352	3.61
509.701	3.4
510.051	3.71
510.4	3.6
510.75	3.48
511.099	3.51
511.449	3.6
511.798	3.55
512.147	3.52
512.496	3.49
512.846	3.55
513.195	3.56
513.544	3.71
513.893	3.53
514.242	3.47
514.591	3.48
514.939	3.66
515.288	3.55
515.637	3.51
515.986	3.59
516.334	3.65
516.683	3.56
517.032	3.45
517.38	3.46
517.729	3.65
518.077	3.55
518.426	3.57
518.774	3.47
519.122	3.54
519.47	3.45
519.819	3.53
520.167	3.46
520.515	3.46
520.863	3.48
521.211	3.52
521.559	3.42
521.907	3.55
522.255	3.42
522.602	3.47
522.95	3.56
523.298	3.57
523.645	3.59
523.993	3.53
524.341	3.5
524.688	3.43
525.036	3.51
525.383	3.5
525.73	3.4
526.078	3.55
526.425	3.5
526.772	3.46
527.119	3.47
527.466	3.45
527.814	3.47
528.161	3.6
528.508	3.55
528.854	3.43
529.201	3.43
529.548	3.37
529.895	3.32
530.242	3.33
530.588	3.29
530.935	3.4
531.282	3.4
531.628	3.41
531.975	3.39
532.321	3.44
532.667	3.44
533.014	3.45
533.36	3.53
533.706	3.47
534.052	3.42
534.399	3.45
534.745	3.39
535.091	3.36
535.437	3.36
535.783	3.38
536.129	3.44
536.474	3.52
536.82	3.52
537.166	3.39
537.512	3.48
537.857	3.34
538.203	3.44
538.549	3.48
538.894	3.38
539.239	3.44
539.585	3.54
539.93	3.57
540.276	3.4
540.621	3.53
540.966	3.39
541.311	3.55
541.656	3.36
542.001	3.38
542.346	3.42
542.691	3.3
543.036	3.3
543.381	3.28
543.726	3.39
544.071	3.41
544.415	3.39
544.76	3.45
545.105	3.43
545.449	3.45
545.794	3.45
546.138	3.35
546.483	3.49
546.827	3.35
547.171	3.46
547.516	3.49
547.86	3.49
548.204	3.37
548.548	3.4
548.892	3.4
549.236	3.44
549.58	3.53
549.924	3.61
550.268	3.46
550.612	3.49
550.956	3.54
551.3	3.64
551.643	3.54
551.987	3.51
552.33	3.55
552.674	3.64
553.017	3.47
553.361	3.55
553.704	3.52
554.048	3.49
554.391	3.48
554.734	3.44
555.077	3.49
555.42	3.49
555.764	3.42
556.107	3.6
556.45	3.48
556.793	3.73
557.135	3.59
557.478	3.45
557.821	3.72
558.164	3.54
558.507	3.43
558.849	3.64
559.192	3.58
559.534	3.45
559.877	3.53
560.219	3.46
560.562	3.47
560.904	3.52
561.246	3.43
561.589	3.63
561.931	3.57
562.273	3.35
562.615	3.38
562.957	3.35
563.299	3.45
563.641	3.5
563.983	3.45
564.325	3.52
564.667	3.44
565.008	3.35
565.35	3.51
565.692	3.51
566.033	3.46
566.375	3.58
566.716	3.34
567.058	3.42
567.399	3.45
567.741	3.4
568.082	3.45
568.423	3.39
568.764	3.44
569.105	3.45
569.447	3.43
569.788	3.42
570.129	3.36
570.47	3.32
570.811	3.36
571.151	3.4
571.492	3.32
571.833	3.35
572.174	3.58
572.514	3.4
572.855	3.62
573.195	3.29
573.536	3.57
573.876	3.31
574.217	3.29
574.557	3.38
574.898	3.3
575.238	3.62
575.578	3.52
575.918	3.29
576.258	3.7
576.598	3.41
576.938	3.38
577.278	3.46
577.618	3.32
577.958	3.46
578.298	3.43
578.638	3.42
578.977	3.54
579.317	3.36
579.657	3.29
579.996	3.47
580.336	3.51
580.675	3.25
581.014	3.55
581.354	3.23
581.693	3.65
582.032	3.62
582.372	3.39
582.711	3.49
583.05	3.43
583.389	3.51
583.728	3.47
584.067	3.28
584.406	3.63
584.745	3.45
585.083	3.42
585.422	3.51
585.761	3.53
586.1	3.65
586.438	3.4
586.777	3.38
587.115	3.29
587.454	3.15
587.792	3.61
588.13	3.43
588.469	3.34
588.807	3.45
589.145	3.32
589.483	3.21
589.821	3.35
590.159	3.59
590.497	3.52
590.835	3.5
591.173	3.45
591.511	3.71
591.849	3.56
592.187	3.28
592.524	3.43
592.862	3.26
593.2	3.6
593.537	3.26
593.875	3.65
594.212	3.57
594.55	3.18
594.887	3.3
595.224	3.57
595.561	3.48
595.899	3.32
596.236	3.47
596.573	3.31
596.91	3.3
597.247	3.56
597.584	3.58
597.921	3.48
598.258	3.55
598.594	3.29
598.931	3.27
599.268	3.27
599.604	3.41
599.941	3.51
600.277	3.33
600.614	3.44
600.95	3.15
601.287	3.36
601.623	3.05
601.959	3.83
602.296	3.41
602.632	3.42
602.968	3.28
603.304	3.35
603.64	3.41
603.976	3.21
604.312	3.3
604.648	3.4
604.984	3.54
605.319	3.4
605.655	3.38
605.991	3.36
606.326	3.34
606.662	3.28
606.998	3.45
607.333	3.51
607.668	3.39
608.004	3.29
608.339	3.15
608.674	3.38
609.01	3.68
609.345	3.25
609.68	3.16
610.015	3.5
610.35	3.26
610.685	3.16
611.02	3.31
611.355	3.31
611.689	3.41
612.024	3.38
612.359	3.44
612.694	3.6
613.028	3.25
613.363	3.44
613.697	3.49
614.032	3.24
614.366	3.29
614.7	3.46
615.035	3.28
615.369	3.58
615.703	3.39
616.037	3.16
616.371	3.36
616.705	3.07
617.039	3.22
617.373	3.47
617.707	3.2
618.041	3.11
618.375	2.82
618.709	3.49
619.042	2.89
619.376	3.51
619.71	3.35
620.043	3.43
620.377	3.42
620.71	3.29
621.043	3.54
621.377	3.58
621.71	3.57
622.043	3.37
622.376	3.31
622.709	3.49
623.043	3.35
623.376	3.44
623.709	3.78
624.041	3.31
624.374	3.28
624.707	3.27
625.04	3.33
625.373	3.43
625.705	3.68
626.038	3.49
626.37	2.87
626.703	3.31
627.035	3.59
627.368	3.64
627.7	3.17
628.032	3.3
628.365	3.47
628.697	3.28
629.029	3.48
629.361	3.68
629.693	3.47
630.025	3.5
630.357	3.48
630.689	3.28
631.021	3.66
631.353	3.46
631.684	3.29
632.016	2.87
632.348	3.06
632.679	3.64
633.011	3.34
633.342	3.69
633.674	2.91
634.005	3.49
634.336	3.61
634.668	3.49
634.999	3.22
635.33	3.52
635.661	3.22
635.992	3.43
636.323	3.27
636.654	3.3
636.985	3.2
637.316	3.3
637.647	3.45
637.977	3.42
638.308	3.64
638.639	3.71
638.969	3.39
639.3	3.34
639.63	3.53
639.961	3.49
640.291	3.15
640.622	3.3
640.952	3.62
641.282	3.21
641.612	3.35
641.943	3.12
642.273	3.17
642.603	3.34
642.933	3.71
643.263	3.41
643.592	3.69
643.922	3.9
644.252	3.29
644.582	3.56
644.911	3.16
645.241	3.23
645.571	3.6
645.9	3.84
646.23	3.76
646.559	2.78
646.888	3.72
647.218	3.88
647.547	3.58
647.876	3.29
648.205	3.26
648.534	3.33
648.863	3.26
649.192	3.36
649.521	3.1
649.85	3.25
650.179	3.52
650.508	2.89
650.837	3.73
651.165	3.13
651.494	3.59
651.822	3.25
652.151	2.91
652.479	3.14
652.808	3.25
653.136	3
653.465	3.44
653.793	3.43
654.121	3.64
654.449	3.04
654.777	2.76
655.105	2.87
655.433	3.28
655.761	3.07
656.089	3.49
656.417	3.57
656.745	3.75
657.073	3.41
657.4	3.36
657.728	2.91
658.056	3.56
658.383	3.7
658.711	3.55
659.038	3.56
659.365	3.57
659.693	3.22
660.02	3.3
660.347	3.48
660.674	3.43
661.001	3.45
661.329	3.44
661.656	3.11
661.982	2.99
662.309	3.64
662.636	3.4
662.963	3.14
663.29	3.37
663.616	3.51
663.943	3.67
664.27	3.53
664.596	2.94
664.923	3.75
665.249	3.4
665.576	3.21
665.902	2.83
666.228	3.06
666.554	4
666.881	2.74
667.207	3.28
667.533	3.25
667.859	3.3
668.185	3.61
668.511	3.34
668.837	3.3
669.162	3.39
669.488	3
669.814	3.64
670.139	3.09
670.465	3.27
670.791	2.61
671.116	2.67
671.442	2.62
671.767	3.27
672.092	3.04
672.418	3.26
672.743	3.08
673.068	3.23
673.393	3.52
673.718	2.98
674.043	3.03
674.368	3.39
674.693	3.07
675.018	3.39
675.343	3.66
675.667	3.22
675.992	3.04
676.317	2.61
676.641	3.69
676.966	3.71
677.29	3.08
677.615	3.41
677.939	3.5
678.264	3.3
678.588	3.67
678.912	3.46
679.236	3.5
679.56	3
679.885	2.88
680.209	3.4
680.532	3.58
680.856	2.96
681.18	4.05
681.504	3.72
681.828	3.06
682.152	3.12
682.475	3.39
682.799	3.05
683.122	3.35
683.446	2.43
683.769	3.52
684.093	3.4
684.416	3.37
684.739	3.25
685.062	3.06
685.386	3.89
685.709	3.13
686.032	3.63
686.355	3.75
686.678	3.85
687.001	3.08
687.324	3.88
687.646	3.83
687.969	3.09
688.292	2.88
688.614	4.09
688.937	4.13
689.26	4.13
689.582	3.72
689.904	3.66
690.227	4.01
690.549	3.84
690.871	3.39
691.194	2.87
691.516	2.58
691.838	3.87
692.16	2.72
692.482	2.37
