Data from 2019-21_chest_Reflection__3__425.txt Node

Date: Thu Dec 15 20:16:11 CST 2022
User: ToomeyLab
Spectrometer: FLMS14357
Trigger mode: 0
Integration Time (sec): 1.000000E-2
Scans to average: 100
Electric dark correction enabled: true
Nonlinearity correction enabled: false
Boxcar width: 0
XAxis mode: Wavelengths
Number of Pixels in Spectrum: 2048
>>>>>Begin Spectral Data<<<<<
189.047	-25.19
189.435	-25.19
189.823	-25.19
190.211	-88.3
190.599	835.35
190.987	4514.52
191.375	-24.48
191.763	929.37
192.151	36.26
192.538	137.17
192.926	-135.82
193.314	4.7
193.702	11.3
194.089	1.39
194.477	111.35
194.864	63.67
195.252	1138.8
195.639	99.22
196.027	31
196.414	51.43
196.801	-28.8
197.189	105.62
197.576	-152.21
197.963	71.56
198.351	10.28
198.738	-13.39
199.125	-69.32
199.512	-4.97
199.899	-31.14
200.286	-54.64
200.673	40.15
201.06	-20.05
201.447	-3.23
201.833	-8.21
202.22	-18.29
202.607	-69.28
202.994	-3.01
203.38	14.4
203.767	-18.88
204.154	-6.84
204.54	-30.67
204.927	10.29
205.313	16.8
205.699	23.96
206.086	-3.85
206.472	30.05
206.858	-8.16
207.245	-60.68
207.631	3.35
208.017	18.09
208.403	-67.12
208.789	2.38
209.175	0.14
209.561	-103.53
209.947	-14.71
210.333	15.5
210.719	-11.15
211.105	0.79
211.491	-7.3
211.876	-18.47
212.262	-32.2
212.648	17.39
213.034	16.82
213.419	3.1
213.805	-24.31
214.19	-55.79
214.576	-18.73
214.961	12.77
215.346	-38.56
215.732	-9.12
216.117	-9.76
216.502	-52.82
216.888	-7.6
217.273	14.11
217.658	-8.71
218.043	-38.61
218.428	-27.79
218.813	-20.05
219.198	-57.69
219.583	-45.29
219.968	-18.79
220.353	-6.82
220.738	-7.71
221.122	-14
221.507	-29.43
221.892	-15.2
222.276	-20.09
222.661	-18.34
223.046	-25.21
223.43	16.96
223.815	-6.04
224.199	-4.87
224.583	-12.87
224.968	-7.3
225.352	-6.39
225.736	6.33
226.121	-5.87
226.505	-3.04
226.889	-2.24
227.273	-3.03
227.657	4.06
228.041	2.62
228.425	3.45
228.809	-0.48
229.193	2.26
229.577	3.26
229.961	3.29
230.344	4.28
230.728	4.61
231.112	5.03
231.495	2.4
231.879	2.91
232.263	4.57
232.646	1.92
233.03	4.58
233.413	3.33
233.797	1.07
234.18	3.06
234.563	2.9
234.946	2.75
235.33	3.62
235.713	3.79
236.096	5.29
236.479	4.37
236.862	3.43
237.245	4.68
237.628	4.83
238.011	3.12
238.394	3.51
238.777	5.25
239.16	2.89
239.543	5.03
239.925	3.04
240.308	2.25
240.691	4.94
241.073	4.39
241.456	4.17
241.838	4.05
242.221	4.66
242.603	4.2
242.986	4.75
243.368	4.62
243.75	5
244.133	4.91
244.515	5.06
244.897	4.6
245.279	4.57
245.661	4.79
246.043	3.99
246.425	4.13
246.807	4.63
247.189	4.96
247.571	4.39
247.953	4.56
248.335	4.84
248.717	4.83
249.098	4.75
249.48	4.55
249.862	4.78
250.243	4.84
250.625	4.63
251.006	5.42
251.388	5.05
251.769	4.18
252.151	5.24
252.532	4.64
252.913	4.84
253.295	4.3
253.676	4.97
254.057	4.27
254.438	4.74
254.819	4.46
255.2	4.66
255.581	5.23
255.962	4.64
256.343	4.36
256.724	5.04
257.105	5.1
257.486	4.31
257.867	4.67
258.247	5.83
258.628	4.66
259.009	4.53
259.389	3.82
259.77	4.61
260.15	5.2
260.531	4.65
260.911	4.42
261.292	4.75
261.672	4.68
262.052	4.78
262.432	4.45
262.813	4.85
263.193	4.29
263.573	4.41
263.953	3.93
264.333	4.91
264.713	4.56
265.093	3.84
265.473	4.9
265.853	4.2
266.233	4.68
266.612	3.74
266.992	4.02
267.372	4.53
267.752	4.78
268.131	4.17
268.511	4.27
268.89	4.71
269.27	3.6
269.649	3.87
270.029	4.21
270.408	4.14
270.787	4.69
271.167	4.48
271.546	4.62
271.925	4.35
272.304	4.34
272.683	4.16
273.062	4.33
273.441	3.99
273.82	4.88
274.199	4.48
274.578	4.68
274.957	4.22
275.336	4.59
275.715	4.31
276.093	3.84
276.472	3.93
276.851	3.94
277.229	3.88
277.608	3.62
277.986	4.2
278.365	4.34
278.743	4.08
279.122	4.06
279.5	3.95
279.878	4.3
280.257	4.39
280.635	4.46
281.013	3.8
281.391	3.86
281.769	4.39
282.147	4.38
282.525	4.16
282.903	4.05
283.281	4.51
283.659	4.59
284.037	3.93
284.415	4.14
284.792	4.39
285.17	4.17
285.548	4.16
285.925	4.05
286.303	4.83
286.68	4.33
287.058	4.54
287.435	4.19
287.813	4.38
288.19	4.04
288.567	4.15
288.945	4.2
289.322	4.34
289.699	4.36
290.076	3.96
290.453	4.18
290.83	4.35
291.207	4.58
291.584	4.97
291.961	4.57
292.338	4.55
292.715	4.48
293.092	4.78
293.469	4.25
293.845	4.49
294.222	5.32
294.599	4.32
294.975	4.02
295.352	4.75
295.728	4.86
296.105	4.46
296.481	4.71
296.858	4.85
297.234	3.98
297.61	4.7
297.986	5.04
298.363	4.9
298.739	5.1
299.115	4.99
299.491	4.85
299.867	4.64
300.243	5.07
300.619	4.52
300.995	4.76
301.371	4.91
301.746	4.71
302.122	4.75
302.498	4.84
302.874	5.34
303.249	4.79
303.625	5.01
304	4.9
304.376	4.66
304.751	5.03
305.127	4.74
305.502	5.1
305.878	5.37
306.253	4.79
306.628	5.39
307.003	4.69
307.378	4.7
307.754	4.66
308.129	4.66
308.504	5.08
308.879	4.97
309.254	5.13
309.629	5.26
310.003	4.83
310.378	5.51
310.753	4.92
311.128	5.16
311.502	5.31
311.877	5.15
312.252	5.1
312.626	5.7
313.001	5.43
313.375	5.26
313.75	5.16
314.124	5.56
314.498	5.3
314.873	4.46
315.247	5.25
315.621	5.1
315.995	5.46
316.369	4.68
316.743	5.14
317.117	4.69
317.491	5.33
317.865	4.94
318.239	5.55
318.613	5.12
318.987	5.23
319.361	5.02
319.734	5.39
320.108	4.76
320.482	5.86
320.855	5.35
321.229	5.37
321.602	4.74
321.976	4.91
322.349	5.49
322.723	5.41
323.096	5.61
323.469	4.89
323.843	4.74
324.216	5.91
324.589	5.25
324.962	5.01
325.335	4.96
325.708	5.58
326.081	5.42
326.454	5.8
326.827	5.52
327.2	5.25
327.573	5.77
327.945	5.28
328.318	5.08
328.691	5.34
329.063	5.37
329.436	5.05
329.809	5.39
330.181	6.07
330.553	5.37
330.926	5.91
331.298	5.32
331.671	5.63
332.043	5.05
332.415	4.97
332.787	5.43
333.159	5.48
333.532	5.38
333.904	5.74
334.276	5.7
334.648	5.61
335.02	5.63
335.391	5.06
335.763	5.51
336.135	5.6
336.507	4.79
336.879	5.59
337.25	5.48
337.622	6.11
337.993	5.52
338.365	5.26
338.736	5.45
339.108	5.51
339.479	5.28
339.851	5.46
340.222	5.8
340.593	5.36
340.964	5.22
341.336	5.42
341.707	5.44
342.078	5.58
342.449	5.33
342.82	5.48
343.191	5.54
343.562	5.68
343.933	5.35
344.303	5.66
344.674	5.81
345.045	5.66
345.416	5.51
345.786	5.35
346.157	5.7
346.527	5.33
346.898	5.06
347.268	5.72
347.639	5.2
348.009	5.4
348.38	5.55
348.75	5.55
349.12	5.74
349.49	5.47
349.861	5.46
350.231	5.47
350.601	5.42
350.971	5.3
351.341	5.62
351.711	5.53
352.081	5.2
352.45	5.21
352.82	5.31
353.19	5.79
353.56	5.8
353.929	5.9
354.299	5.91
354.669	5.56
355.038	6.07
355.408	5.45
355.777	5.95
356.147	5.57
356.516	5.43
356.885	6.07
357.254	5.38
357.624	5.3
357.993	5.71
358.362	5.56
358.731	5.98
359.1	5.67
359.469	5.91
359.838	5.59
360.207	5.79
360.576	5.66
360.945	5.68
361.314	5.35
361.682	5.58
362.051	5.7
362.42	5.72
362.788	5.84
363.157	5.77
363.525	5.87
363.894	5.53
364.262	5.66
364.631	5.88
364.999	5.88
365.367	5.46
365.735	5.77
366.104	5.72
366.472	5.86
366.84	5.95
367.208	5.86
367.576	5.81
367.944	5.66
368.312	5.53
368.68	6.03
369.048	5.79
369.416	5.66
369.783	5.81
370.151	6.14
370.519	6.31
370.886	6
371.254	6.12
371.621	6.01
371.989	5.82
372.356	5.77
372.724	5.95
373.091	5.92
373.458	5.67
373.826	5.73
374.193	6.02
374.56	5.85
374.927	5.9
375.294	5.94
375.661	6.15
376.028	5.86
376.395	5.83
376.762	5.34
377.129	5.69
377.496	6
377.863	6.19
378.229	5.9
378.596	6.01
378.963	5.91
379.329	6
379.696	5.83
380.062	5.81
380.429	5.69
380.795	6.2
381.161	5.89
381.528	5.68
381.894	5.71
382.26	6.03
382.626	6
382.993	6.41
383.359	5.88
383.725	5.71
384.091	6.24
384.457	5.72
384.823	6.01
385.188	6.17
385.554	5.89
385.92	5.81
386.286	6
386.651	6.06
387.017	6.11
387.383	6.12
387.748	6.21
388.114	6.01
388.479	5.89
388.845	6.01
389.21	6.34
389.575	6.13
389.94	6.48
390.306	5.94
390.671	6.23
391.036	6.26
391.401	6.05
391.766	5.85
392.131	6.02
392.496	6.05
392.861	6.11
393.226	6.05
393.591	6.24
393.956	6.08
394.32	6.07
394.685	6.07
395.05	6.25
395.414	6.17
395.779	6.46
396.143	5.96
396.508	6.07
396.872	6.02
397.236	6.4
397.601	6.25
397.965	6.08
398.329	6.24
398.694	5.95
399.058	6.25
399.422	6.28
399.786	6.03
400.15	6.01
400.514	6.34
400.878	6.28
401.242	6.17
401.605	6.09
401.969	6.16
402.333	5.99
402.697	6.34
403.06	6.33
403.424	6.29
403.787	6.24
404.151	5.98
404.514	6.28
404.878	6.12
405.241	6.35
405.604	6.38
405.968	6.25
406.331	6.22
406.694	6.21
407.057	6.1
407.42	6.3
407.783	6.48
408.146	6.38
408.509	6.53
408.872	6.18
409.235	6.28
409.598	6.28
409.961	6.37
410.323	6.32
410.686	6.24
411.049	6.5
411.411	6.41
411.774	6.27
412.136	6.16
412.499	6.69
412.861	5.96
413.223	6.31
413.586	6.63
413.948	6.48
414.31	6.5
414.672	6.39
415.035	6.7
415.397	6.47
415.759	6.07
416.121	6.38
416.483	6.44
416.845	6.4
417.206	6.53
417.568	6.36
417.93	6.36
418.292	6.23
418.653	6.23
419.015	6.47
419.377	6.44
419.738	6.48
420.1	6.45
420.461	6.42
420.822	6.47
421.184	6.26
421.545	6.45
421.906	6.41
422.267	6.5
422.629	6.27
422.99	6.38
423.351	6.36
423.712	6.38
424.073	6.43
424.434	6.57
424.795	6.33
425.155	6.32
425.516	6.36
425.877	6.35
426.238	6.41
426.598	6.43
426.959	6.5
427.32	6.38
427.68	6.5
428.041	6.54
428.401	6.44
428.761	6.53
429.122	6.6
429.482	6.37
429.842	6.6
430.202	6.62
430.563	6.68
430.923	6.58
431.283	6.64
431.643	6.72
432.003	6.78
432.363	6.75
432.722	6.73
433.082	6.58
433.442	6.6
433.802	6.54
434.161	6.68
434.521	6.71
434.881	6.65
435.24	6.65
435.6	6.75
435.959	6.69
436.319	6.81
436.678	6.77
437.037	6.74
437.396	6.86
437.756	6.58
438.115	6.58
438.474	6.74
438.833	6.76
439.192	6.7
439.551	6.74
439.91	6.87
440.269	6.71
440.628	6.65
440.987	6.73
441.345	6.71
441.704	6.66
442.063	6.71
442.421	6.77
442.78	6.83
443.138	6.76
443.497	6.71
443.855	6.98
444.214	6.61
444.572	6.92
444.93	6.71
445.288	6.71
445.647	6.73
446.005	6.77
446.363	6.83
446.721	6.82
447.079	6.72
447.437	6.78
447.795	6.75
448.153	6.8
448.51	6.78
448.868	6.69
449.226	6.79
449.584	6.8
449.941	6.84
450.299	6.83
450.656	6.89
451.014	6.83
451.371	6.9
451.729	6.81
452.086	6.97
452.443	7.06
452.801	6.86
453.158	7.08
453.515	6.78
453.872	6.86
454.229	6.85
454.586	6.85
454.943	7.04
455.3	6.91
455.657	6.91
456.014	6.87
456.371	7.08
456.727	6.97
457.084	6.99
457.441	7.01
457.797	6.99
458.154	6.99
458.51	7.12
458.867	7.06
459.223	6.86
459.58	7.15
459.936	6.98
460.292	6.95
460.648	6.86
461.005	6.89
461.361	7.07
461.717	6.94
462.073	7.06
462.429	7.02
462.785	7.11
463.141	7.14
463.496	7.2
463.852	7.16
464.208	7.13
464.564	7.17
464.919	7.15
465.275	7.03
465.631	7.27
465.986	7.19
466.342	7.05
466.697	7.09
467.052	7.25
467.408	7.33
467.763	7.19
468.118	7.1
468.473	7.22
468.829	7.1
469.184	7.28
469.539	7.1
469.894	7.25
470.249	7.13
470.603	7.42
470.958	7.29
471.313	7.29
471.668	7.25
472.023	7.43
472.377	7.27
472.732	7.62
473.086	7.42
473.441	7.28
473.795	7.41
474.15	7.28
474.504	7.27
474.859	7.06
475.213	7.57
475.567	7.36
475.921	7.37
476.275	7.49
476.63	7.39
476.984	7.24
477.338	7.62
477.692	7.41
478.045	7.42
478.399	7.45
478.753	7.38
479.107	7.51
479.461	7.33
479.814	7.44
480.168	7.4
480.521	7.65
480.875	7.38
481.228	7.42
481.582	7.39
481.935	7.49
482.289	7.51
482.642	7.6
482.995	7.37
483.348	7.39
483.701	7.38
484.055	7.34
484.408	7.4
484.761	7.25
485.114	7.07
485.466	7.06
485.819	7.11
486.172	7.17
486.525	7.24
486.878	7.41
487.23	7.39
487.583	7.33
487.936	7.36
488.288	7.37
488.641	7.33
488.993	7.24
489.345	7.25
489.698	7.27
490.05	7.29
490.402	7.4
490.754	7.44
491.107	7.41
491.459	7.56
491.811	7.48
492.163	7.57
492.515	7.49
492.866	7.43
493.218	7.32
493.57	7.48
493.922	7.48
494.274	7.61
494.625	7.68
494.977	7.69
495.328	7.69
495.68	7.67
496.031	7.73
496.383	7.67
496.734	7.74
497.086	7.86
497.437	7.86
497.788	7.88
498.139	7.68
498.49	7.72
498.842	7.78
499.193	7.75
499.544	7.84
499.894	7.77
500.245	7.87
500.596	7.79
500.947	7.82
501.298	7.89
501.648	7.91
501.999	7.93
502.35	7.96
502.7	7.95
503.051	7.97
503.401	7.93
503.752	7.95
504.102	7.89
504.452	8.01
504.803	7.99
505.153	8.13
505.503	7.93
505.853	8.02
506.203	8.1
506.553	8.01
506.903	8.04
507.253	8.01
507.603	8
507.953	8.16
508.303	8.02
508.652	8
509.002	8
509.352	8.16
509.701	8.09
510.051	8.16
510.4	8.19
510.75	8.06
511.099	7.94
511.449	8.22
511.798	8.12
512.147	8.19
512.496	8.03
512.846	8.13
513.195	8.2
513.544	8.33
513.893	8.27
514.242	8.28
514.591	8.34
514.939	8.29
515.288	8.31
515.637	8.32
515.986	8.4
516.334	8.31
516.683	8.43
517.032	8.39
517.38	8.27
517.729	8.38
518.077	8.47
518.426	8.47
518.774	8.37
519.122	8.41
519.47	8.32
519.819	8.34
520.167	8.29
520.515	8.38
520.863	8.35
521.211	8.36
521.559	8.36
521.907	8.47
522.255	8.48
522.602	8.57
522.95	8.6
523.298	8.51
523.645	8.69
523.993	8.55
524.341	8.65
524.688	8.61
525.036	8.7
525.383	8.78
525.73	8.62
526.078	8.68
526.425	8.63
526.772	8.56
527.119	8.62
527.466	8.61
527.814	8.67
528.161	8.68
528.508	8.67
528.854	8.66
529.201	8.59
529.548	8.54
529.895	8.46
530.242	8.41
530.588	8.48
530.935	8.54
531.282	8.5
531.628	8.72
531.975	8.67
532.321	8.78
532.667	8.85
533.014	8.9
533.36	8.83
533.706	8.93
534.052	8.88
534.399	8.87
534.745	8.77
535.091	8.69
535.437	8.9
535.783	8.89
536.129	8.93
536.474	9.01
536.82	8.98
537.166	9.03
537.512	9.08
537.857	9.13
538.203	9.01
538.549	9.01
538.894	9.07
539.239	9.15
539.585	9.26
539.93	9.37
540.276	9.29
540.621	9.32
540.966	9.35
541.311	9.22
541.656	9.27
542.001	9.19
542.346	9.1
542.691	9.05
543.036	9.13
543.381	9.15
543.726	9.25
544.071	9.28
544.415	9.37
544.76	9.36
545.105	9.4
545.449	9.32
545.794	9.53
546.138	9.46
546.483	9.66
546.827	9.54
547.171	9.7
547.516	9.65
547.86	9.69
548.204	9.62
548.548	9.7
548.892	9.66
549.236	9.67
549.58	9.72
549.924	9.86
550.268	9.84
550.612	9.89
550.956	9.89
551.3	10.05
551.643	9.99
551.987	9.99
552.33	10.11
552.674	10
553.017	10.04
553.361	10.3
553.704	10.24
554.048	10.07
554.391	10.12
554.734	9.96
555.077	10.03
555.42	10.22
555.764	10.25
556.107	10.11
556.45	10.42
556.793	10.43
557.135	10.27
557.478	10.38
557.821	10.29
558.164	10.38
558.507	10.2
558.849	10.38
559.192	10.49
559.534	10.36
559.877	10.55
560.219	10.52
560.562	10.54
560.904	10.65
561.246	10.36
561.589	10.61
561.931	10.54
562.273	10.63
562.615	10.47
562.957	10.54
563.299	10.65
563.641	10.62
563.983	10.74
564.325	10.77
564.667	10.77
565.008	10.71
565.35	10.69
565.692	10.91
566.033	10.74
566.375	10.84
566.716	10.78
567.058	10.99
567.399	10.94
567.741	10.97
568.082	10.9
568.423	10.86
568.764	10.94
569.105	10.96
569.447	10.89
569.788	11.18
570.129	10.93
570.47	11.09
570.811	11.29
571.151	11.13
571.492	11.22
571.833	11.32
572.174	11.22
572.514	11.16
572.855	11.38
573.195	11.12
573.536	11.36
573.876	11.32
574.217	11.35
574.557	11.3
574.898	11.32
575.238	11.56
575.578	11.65
575.918	11.6
576.258	11.74
576.598	11.48
576.938	11.38
577.278	11.6
577.618	11.6
577.958	11.65
578.298	11.63
578.638	11.66
578.977	11.85
579.317	11.74
579.657	11.81
579.996	12.13
580.336	11.91
580.675	11.89
581.014	11.94
581.354	11.73
581.693	12.17
582.032	12.22
582.372	12.15
582.711	12.16
583.05	11.91
583.389	12.53
583.728	12.14
584.067	12.38
584.406	12.5
584.745	12.22
585.083	12.22
585.422	12.42
585.761	12.37
586.1	12.28
586.438	12.38
586.777	12.5
587.115	12.44
587.454	12.45
587.792	12.47
588.13	12.51
588.469	12.41
588.807	12.69
589.145	12.5
589.483	12.62
589.821	12.66
590.159	12.6
590.497	12.85
590.835	12.79
591.173	12.82
591.511	12.83
591.849	12.71
592.187	12.46
592.524	12.88
592.862	12.96
593.2	13.03
593.537	12.92
593.875	12.91
594.212	13.18
594.55	12.82
594.887	13.14
595.224	13.2
595.561	13.1
595.899	13.25
596.236	13.4
596.573	13.2
596.91	13.24
597.247	13.45
597.584	13.28
597.921	13.21
598.258	13.31
598.594	13.33
598.931	13.13
599.268	13.33
599.604	13.53
599.941	13.45
600.277	13.42
600.614	13.52
600.95	13.48
601.287	13.28
601.623	13.49
601.959	13.78
602.296	13.75
602.632	13.78
602.968	13.55
603.304	14.1
603.64	13.67
603.976	13.64
604.312	13.62
604.648	13.79
604.984	14.04
605.319	13.77
605.655	13.76
605.991	13.76
606.326	13.91
606.662	13.83
606.998	13.98
607.333	14.02
607.668	13.92
608.004	14.1
608.339	13.92
608.674	14.28
609.01	14.37
609.345	14.3
609.68	14.02
610.015	14.26
610.35	14.42
610.685	14.05
611.02	14.32
611.355	14.37
611.689	14.39
612.024	14.31
612.359	14.32
612.694	14.47
613.028	14.48
613.363	14.43
613.697	14.69
614.032	14.66
614.366	14.74
614.7	14.67
615.035	14.64
615.369	15.12
615.703	15.1
616.037	14.8
616.371	14.59
616.705	14.75
617.039	15.1
617.373	15.12
617.707	14.83
618.041	14.41
618.375	14.41
618.709	14.64
619.042	15.17
619.376	15.08
619.71	15.06
620.043	15.11
620.377	15.37
620.71	15.34
621.043	15.11
621.377	15.17
621.71	15.74
622.043	15.42
622.376	15.51
622.709	15.44
623.043	15.24
623.376	14.96
623.709	15.69
624.041	15.5
624.374	15.51
624.707	15.58
625.04	15.43
625.373	15.79
625.705	15.64
626.038	15.63
626.37	15.66
626.703	15.83
627.035	15.69
627.368	15.84
627.7	15.72
628.032	15.75
628.365	16.03
628.697	16.23
629.029	15.69
629.361	15.65
629.693	15.84
630.025	16.05
630.357	16.14
630.689	15.86
631.021	16.36
631.353	16.43
631.684	16.28
632.016	16.03
632.348	16.18
632.679	16.2
633.011	15.99
633.342	16.39
633.674	16.19
634.005	16.28
634.336	16.53
634.668	16.53
634.999	16.23
635.33	16.47
635.661	16.38
635.992	16.29
636.323	16.59
636.654	16.55
636.985	16.53
637.316	16.35
637.647	16.7
637.977	16.59
638.308	16.87
638.639	16.89
638.969	16.77
639.3	16.91
639.63	16.53
639.961	16.63
640.291	16.51
640.622	17.05
640.952	16.92
641.282	16.84
641.612	16.96
641.943	16.49
642.273	17.23
642.603	17.66
642.933	17.48
643.263	17.04
643.592	17.41
643.922	17.68
644.252	17.17
644.582	17.25
644.911	17.41
645.241	17.55
645.571	17.34
645.9	17.72
646.23	17.68
646.559	17.12
646.888	17.74
647.218	17.32
647.547	17.85
647.876	17.55
648.205	17.09
648.534	17.54
648.863	17.5
649.192	17.57
649.521	17.97
649.85	17.5
650.179	17.92
650.508	17.79
650.837	17.72
651.165	18.34
651.494	17.97
651.822	17.5
652.151	18.11
652.479	18.22
652.808	17.96
653.136	17.3
653.465	17.65
653.793	18.25
654.121	18.07
654.449	18.08
654.777	17.69
655.105	17.62
655.433	19.02
655.761	18.76
656.089	18.43
656.417	18.39
656.745	18.37
657.073	18.46
657.4	18.32
657.728	18.03
658.056	18.59
658.383	18.05
658.711	18.55
659.038	18.51
659.365	18.65
659.693	18.51
660.02	18.59
660.347	18.98
660.674	18.39
661.001	18.37
661.329	18.52
661.656	18.45
661.982	18.52
662.309	18.77
662.636	18.57
662.963	18.77
663.29	18.69
663.616	18.8
663.943	18.77
664.27	18.35
664.596	19.03
664.923	19.13
665.249	19.14
665.576	19.45
665.902	18.65
666.228	18.53
666.554	19.65
666.881	18.34
667.207	18.63
667.533	18.92
667.859	19.28
668.185	19.43
668.511	19.39
668.837	19.83
669.162	19.62
669.488	18.66
669.814	19.27
670.139	18.73
670.465	19.78
670.791	18.86
671.116	19.27
671.442	18.78
671.767	19.5
672.092	19.56
672.418	19.59
672.743	18.98
673.068	18.95
673.393	19.17
673.718	19.4
674.043	19.37
674.368	19.34
674.693	19.68
675.018	20.37
675.343	20.24
675.667	19.88
675.992	19.53
676.317	19.6
676.641	20.03
676.966	20.05
677.29	20.05
677.615	19.81
677.939	20.09
678.264	19.93
678.588	19.89
678.912	20.24
679.236	19.9
679.56	19.4
679.885	20.36
680.209	21.07
680.532	20.29
680.856	20.44
681.18	21.27
681.504	20.28
681.828	20.03
682.152	21.02
682.475	20.29
682.799	20.37
