Data from 2019-21_crown_Reflection__1__430.txt Node

Date: Thu Dec 15 20:18:22 CST 2022
User: ToomeyLab
Spectrometer: FLMS14357
Trigger mode: 0
Integration Time (sec): 1.000000E-2
Scans to average: 100
Electric dark correction enabled: true
Nonlinearity correction enabled: false
Boxcar width: 0
XAxis mode: Wavelengths
Number of Pixels in Spectrum: 2048
>>>>>Begin Spectral Data<<<<<
189.047	-96.62
189.435	-96.62
189.823	-96.62
190.211	101.5
190.599	-24.36
190.987	4782.26
191.375	28.01
191.763	495.69
192.151	125.95
192.538	84.03
192.926	-186.63
193.314	-59.95
193.702	-2.29
194.089	-14.38
194.477	86.62
194.864	78.46
195.252	304.36
195.639	95.82
196.027	-57.63
196.414	90.82
196.801	79.83
197.189	27.39
197.576	104.46
197.963	28.6
198.351	45.78
198.738	-52.58
199.125	-142.85
199.512	31.79
199.899	-23.1
200.286	-75.75
200.673	33.98
201.06	22.19
201.447	40.92
201.833	-4.27
202.22	-10.7
202.607	-34.32
202.994	-8.2
203.38	3.92
203.767	-16.95
204.154	17.92
204.54	-18.21
204.927	-45.34
205.313	1.81
205.699	25.58
206.086	0.31
206.472	5.57
206.858	23.98
207.245	-11.97
207.631	6.64
208.017	2.96
208.403	-90.63
208.789	-9.54
209.175	5
209.561	-112.72
209.947	-20.71
210.333	-33.38
210.719	9.99
211.105	25.95
211.491	-39.17
211.876	-49.38
212.262	-1.27
212.648	-17.87
213.034	-37.07
213.419	11.57
213.805	-21.62
214.19	0.49
214.576	-18.02
214.961	15.33
215.346	-19.89
215.732	4.25
216.117	5.52
216.502	-63.4
216.888	11.66
217.273	6.71
217.658	-29.19
218.043	-14.39
218.428	-26.44
218.813	26.02
219.198	-29.87
219.583	-21.7
219.968	-10.79
220.353	-18.66
220.738	-5.25
221.122	-5.99
221.507	-0.79
221.892	-55.84
222.276	-22.06
222.661	-14.81
223.046	-17.43
223.43	12.19
223.815	-0.05
224.199	-6.53
224.583	5
224.968	2.96
225.352	0.8
225.736	5.88
226.121	-3.46
226.505	4.56
226.889	4.92
227.273	-2.22
227.657	8.75
228.041	4.3
228.425	5.61
228.809	6.4
229.193	8.98
229.577	8.43
229.961	8.04
230.344	8.72
230.728	9.51
231.112	9.63
231.495	7.75
231.879	8.37
232.263	9.29
232.646	7.61
233.03	9.23
233.413	8.08
233.797	5.72
234.18	8.43
234.563	8.07
234.946	6.84
235.33	7.35
235.713	7.7
236.096	9.11
236.479	8.73
236.862	5.59
237.245	6.73
237.628	8.39
238.011	8.52
238.394	5.92
238.777	8.67
239.16	8.46
239.543	8.15
239.925	7.87
240.308	6.1
240.691	7.2
241.073	7.64
241.456	7.79
241.838	7.89
242.221	6.69
242.603	8.62
242.986	8.22
243.368	8.01
243.75	8.67
244.133	8.4
244.515	8.3
244.897	7.71
245.279	7.11
245.661	7.42
246.043	8.25
246.425	8.42
246.807	7.76
247.189	7.26
247.571	7.3
247.953	7.57
248.335	7.84
248.717	7.69
249.098	7.81
249.48	7.78
249.862	7.68
250.243	7.51
250.625	8
251.006	8.44
251.388	7.25
251.769	6.48
252.151	7.23
252.532	6.75
252.913	6.5
253.295	7.67
253.676	7.69
254.057	7.89
254.438	7.02
254.819	7.85
255.2	8.09
255.581	8.81
255.962	7.2
256.343	7.14
256.724	7.55
257.105	7.49
257.486	6.75
257.867	7.3
258.247	7.03
258.628	7.3
259.009	6.55
259.389	6.45
259.77	6.84
260.15	7.56
260.531	6.98
260.911	7.24
261.292	7.51
261.672	7.52
262.052	7.49
262.432	7.01
262.813	7.22
263.193	7.48
263.573	7.03
263.953	7.19
264.333	6.94
264.713	7.36
265.093	7.29
265.473	8.64
265.853	7.44
266.233	7.43
266.612	6.76
266.992	6.77
267.372	7.01
267.752	7.7
268.131	6.87
268.511	6.96
268.89	7.5
269.27	6.73
269.649	7
270.029	6.87
270.408	6.94
270.787	7.09
271.167	7.01
271.546	7.1
271.925	7.06
272.304	6.86
272.683	6.76
273.062	6.65
273.441	6.8
273.82	7.32
274.199	6.87
274.578	6.88
274.957	6.58
275.336	7.24
275.715	7.51
276.093	6.6
276.472	6.51
276.851	6.89
277.229	6.63
277.608	6.4
277.986	6.66
278.365	7.47
278.743	7.41
279.122	6.88
279.5	6.69
279.878	6.78
280.257	6.79
280.635	6.7
281.013	6.28
281.391	6.75
281.769	6.8
282.147	6.43
282.525	6.35
282.903	6.42
283.281	6.57
283.659	6.72
284.037	6.62
284.415	6.91
284.792	6.63
285.17	6.56
285.548	6.44
285.925	6.66
286.303	6.89
286.68	6.9
287.058	6.73
287.435	6.47
287.813	6.56
288.19	6.58
288.567	6.54
288.945	6.44
289.322	6.68
289.699	6.69
290.076	6.3
290.453	6.1
290.83	6.43
291.207	6.27
291.584	6.55
291.961	6.49
292.338	6.4
292.715	6.37
293.092	6.75
293.469	6.39
293.845	6.8
294.222	7.07
294.599	6.26
294.975	6.26
295.352	6.24
295.728	6.46
296.105	6.21
296.481	6.95
296.858	6.33
297.234	5.96
297.61	6.43
297.986	6.9
298.363	6.45
298.739	6.45
299.115	6.52
299.491	6.57
299.867	6.58
300.243	6.07
300.619	5.85
300.995	6.46
301.371	6.38
301.746	6.37
302.122	5.77
302.498	6.77
302.874	6.88
303.249	6.62
303.625	6.12
304	6.49
304.376	6.58
304.751	6.14
305.127	6.38
305.502	6.29
305.878	6.47
306.253	5.99
306.628	6.47
307.003	6.41
307.378	6.13
307.754	6.52
308.129	5.65
308.504	6.25
308.879	6.14
309.254	6.67
309.629	6.59
310.003	6.11
310.378	6.58
310.753	6.26
311.128	5.96
311.502	6.32
311.877	6.12
312.252	6.49
312.626	6.44
313.001	6.41
313.375	6.68
313.75	6.42
314.124	6.26
314.498	6.58
314.873	5.96
315.247	6.18
315.621	6.2
315.995	6.36
316.369	6.04
316.743	6.03
317.117	6.53
317.491	6.21
317.865	5.65
318.239	6.57
318.613	6.24
318.987	5.84
319.361	6.09
319.734	6.47
320.108	5.98
320.482	6.11
320.855	5.99
321.229	6.19
321.602	5.98
321.976	5.29
322.349	6.35
322.723	6.34
323.096	5.86
323.469	5.99
323.843	6
324.216	6.59
324.589	6.07
324.962	5.99
325.335	5.87
325.708	6.12
326.081	6.16
326.454	6.5
326.827	6.35
327.2	6.18
327.573	6.81
327.945	5.81
328.318	6.06
328.691	6.22
329.063	5.97
329.436	5.95
329.809	6.32
330.181	6.98
330.553	6.42
330.926	6.36
331.298	6.06
331.671	6.24
332.043	5.84
332.415	6.41
332.787	6.37
333.159	5.69
333.532	5.99
333.904	6.55
334.276	5.95
334.648	5.98
335.02	6.22
335.391	5.64
335.763	6.36
336.135	6.38
336.507	6.23
336.879	5.81
337.25	5.99
337.622	6.35
337.993	6.07
338.365	6.04
338.736	6.18
339.108	6.7
339.479	5.52
339.851	5.98
340.222	6.51
340.593	6.05
340.964	5.61
341.336	5.48
341.707	5.88
342.078	5.72
342.449	6.16
342.82	6.13
343.191	6.25
343.562	6.52
343.933	5.74
344.303	6.43
344.674	5.79
345.045	6.01
345.416	6.38
345.786	6.2
346.157	6.47
346.527	5.87
346.898	5.83
347.268	6.22
347.639	6.03
348.009	6.09
348.38	6
348.75	6.57
349.12	6.25
349.49	5.95
349.861	5.93
350.231	5.95
350.601	6.81
350.971	5.6
351.341	6.44
351.711	6.25
352.081	5.78
352.45	5.94
352.82	5.59
353.19	6.1
353.56	6.22
353.929	6.2
354.299	5.89
354.669	6.62
355.038	6.25
355.408	6.11
355.777	6.17
356.147	6.28
356.516	6.11
356.885	5.94
357.254	5.87
357.624	6.04
357.993	6.16
358.362	6.43
358.731	6.44
359.1	6.11
359.469	6.62
359.838	6.23
360.207	6.1
360.576	6.42
360.945	6.33
361.314	6.21
361.682	5.83
362.051	6.13
362.42	6.21
362.788	6.17
363.157	6.15
363.525	6.35
363.894	6.11
364.262	6.35
364.631	6.32
364.999	6.05
365.367	6.13
365.735	6.14
366.104	6.34
366.472	6.1
366.84	6.13
367.208	6.75
367.576	6.1
367.944	6.27
368.312	6.09
368.68	6.5
369.048	6.29
369.416	5.91
369.783	5.97
370.151	6.47
370.519	6.44
370.886	5.94
371.254	6.61
371.621	6.52
371.989	6.51
372.356	6.38
372.724	6.18
373.091	6.31
373.458	6.54
373.826	6.58
374.193	6.16
374.56	6.27
374.927	6.17
375.294	6.5
375.661	6.54
376.028	6.2
376.395	6.38
376.762	6.25
377.129	6.3
377.496	6.33
377.863	6.07
378.229	6.63
378.596	6.35
378.963	6.43
379.329	6.52
379.696	6.14
380.062	6.42
380.429	6.4
380.795	5.95
381.161	6.01
381.528	5.72
381.894	6.2
382.26	6.22
382.626	6.57
382.993	6.56
383.359	6.27
383.725	6.27
384.091	6.68
384.457	6.34
384.823	6.49
385.188	6.47
385.554	6.15
385.92	6.04
386.286	6.23
386.651	6.07
387.017	6.69
387.383	6.26
387.748	6.24
388.114	6.38
388.479	6.32
388.845	6.05
389.21	6.34
389.575	6.65
389.94	6.72
390.306	6.39
390.671	6.64
391.036	6.5
391.401	6.4
391.766	6.3
392.131	6.49
392.496	6.53
392.861	6.47
393.226	6.3
393.591	6.36
393.956	6.54
394.32	6.48
394.685	6.4
395.05	6.5
395.414	6.49
395.779	6.66
396.143	6.44
396.508	6.28
396.872	6.49
397.236	6.59
397.601	6.52
397.965	6.51
398.329	6.36
398.694	6.03
399.058	6.35
399.422	6.59
399.786	6.46
400.15	6.39
400.514	6.59
400.878	6.45
401.242	6.68
401.605	6.46
401.969	6.43
402.333	6.32
402.697	6.88
403.06	6.66
403.424	6.56
403.787	6.63
404.151	6.54
404.514	6.38
404.878	6.36
405.241	6.41
405.604	6.57
405.968	6.54
406.331	6.49
406.694	6.54
407.057	6.44
407.42	6.67
407.783	6.67
408.146	6.55
408.509	6.56
408.872	6.49
409.235	6.37
409.598	6.52
409.961	6.73
410.323	6.49
410.686	6.44
411.049	6.47
411.411	6.47
411.774	6.38
412.136	6.57
412.499	6.61
412.861	6.31
413.223	6.46
413.586	6.62
413.948	6.79
414.31	6.64
414.672	6.48
415.035	6.84
415.397	6.3
415.759	6.51
416.121	6.81
416.483	6.64
416.845	6.49
417.206	6.6
417.568	6.5
417.93	6.6
418.292	6.46
418.653	6.4
419.015	6.44
419.377	6.59
419.738	6.66
420.1	6.47
420.461	6.46
420.822	6.39
421.184	6.45
421.545	6.47
421.906	6.46
422.267	6.43
422.629	6.43
422.99	6.41
423.351	6.42
423.712	6.48
424.073	6.56
424.434	6.58
424.795	6.39
425.155	6.37
425.516	6.34
425.877	6.4
426.238	6.42
426.598	6.4
426.959	6.47
427.32	6.39
427.68	6.49
428.041	6.62
428.401	6.48
428.761	6.67
429.122	6.54
429.482	6.6
429.842	6.58
430.202	6.67
430.563	6.66
430.923	6.67
431.283	6.54
431.643	6.68
432.003	6.59
432.363	6.65
432.722	6.61
433.082	6.71
433.442	6.5
433.802	6.54
434.161	6.56
434.521	6.62
434.881	6.83
435.24	6.66
435.6	6.57
435.959	6.64
436.319	6.74
436.678	6.62
437.037	6.57
437.396	6.61
437.756	6.61
438.115	6.66
438.474	6.62
438.833	6.57
439.192	6.54
439.551	6.66
439.91	6.66
440.269	6.68
440.628	6.56
440.987	6.61
441.345	6.61
441.704	6.53
442.063	6.57
442.421	6.55
442.78	6.63
443.138	6.57
443.497	6.49
443.855	6.64
444.214	6.44
444.572	6.85
444.93	6.7
445.288	6.61
445.647	6.5
446.005	6.63
446.363	6.55
446.721	6.56
447.079	6.49
447.437	6.54
447.795	6.6
448.153	6.53
448.51	6.57
448.868	6.54
449.226	6.69
449.584	6.58
449.941	6.65
450.299	6.59
450.656	6.66
451.014	6.78
451.371	6.71
451.729	6.64
452.086	6.65
452.443	6.67
452.801	6.72
453.158	6.87
453.515	6.68
453.872	6.68
454.229	6.54
454.586	6.44
454.943	6.82
455.3	6.7
455.657	6.77
456.014	6.69
456.371	6.75
456.727	6.74
457.084	6.92
457.441	6.68
457.797	6.66
458.154	6.81
458.51	6.71
458.867	6.7
459.223	6.5
459.58	6.75
459.936	6.66
460.292	6.68
460.648	6.61
461.005	6.49
461.361	6.65
461.717	6.55
462.073	6.62
462.429	6.67
462.785	6.78
463.141	6.77
463.496	6.66
463.852	6.93
464.208	6.68
464.564	6.85
464.919	6.8
465.275	6.72
465.631	6.88
465.986	6.88
466.342	6.73
466.697	6.75
467.052	6.91
467.408	6.83
467.763	6.78
468.118	6.7
468.473	6.83
468.829	6.68
469.184	6.76
469.539	6.63
469.894	6.83
470.249	6.77
470.603	6.95
470.958	6.89
471.313	6.85
471.668	6.99
472.023	6.86
472.377	6.86
472.732	6.9
473.086	6.81
473.441	6.92
473.795	7.05
474.15	6.79
474.504	6.85
474.859	6.76
475.213	7.03
475.567	6.73
475.921	6.9
476.275	6.96
476.63	6.84
476.984	6.73
477.338	7.01
477.692	6.81
478.045	6.97
478.399	6.82
478.753	6.74
479.107	6.86
479.461	6.72
479.814	6.88
480.168	6.78
480.521	6.95
480.875	6.96
481.228	6.86
481.582	6.87
481.935	6.86
482.289	6.84
482.642	6.9
482.995	6.75
483.348	6.69
483.701	6.72
484.055	6.67
484.408	6.66
484.761	6.58
485.114	6.41
485.466	6.39
485.819	6.39
486.172	6.45
486.525	6.49
486.878	6.56
487.23	6.6
487.583	6.58
487.936	6.56
488.288	6.6
488.641	6.54
488.993	6.51
489.345	6.46
489.698	6.47
490.05	6.51
490.402	6.61
490.754	6.59
491.107	6.61
491.459	6.78
491.811	6.67
492.163	6.72
492.515	6.6
492.866	6.58
493.218	6.58
493.57	6.61
493.922	6.59
494.274	6.67
494.625	6.74
494.977	6.73
495.328	6.79
495.68	6.84
496.031	6.84
496.383	6.82
496.734	6.84
497.086	6.8
497.437	7.04
497.788	7.01
498.139	6.79
498.49	6.88
498.842	6.86
499.193	6.75
499.544	6.84
499.894	6.85
500.245	6.86
500.596	6.92
500.947	6.97
501.298	6.8
501.648	6.88
501.999	6.92
502.35	6.81
502.7	7.08
503.051	6.95
503.401	6.97
503.752	6.78
504.102	6.9
504.452	6.78
504.803	6.82
505.153	6.9
505.503	6.84
505.853	7.03
506.203	6.85
506.553	6.91
506.903	6.93
507.253	6.92
507.603	6.99
507.953	6.92
508.303	6.99
508.652	6.91
509.002	6.96
509.352	6.83
509.701	6.84
510.051	6.9
510.4	6.96
510.75	6.75
511.099	6.76
511.449	6.9
511.798	6.86
512.147	6.95
512.496	6.94
512.846	6.83
513.195	6.83
513.544	6.98
513.893	6.93
514.242	6.84
514.591	6.79
514.939	7.03
515.288	7.04
515.637	6.85
515.986	6.97
516.334	6.97
516.683	6.9
517.032	6.87
517.38	6.85
517.729	6.9
518.077	6.81
518.426	6.95
518.774	6.86
519.122	6.91
519.47	6.8
519.819	6.84
520.167	6.76
520.515	6.77
520.863	6.8
521.211	6.77
521.559	6.84
521.907	6.91
522.255	6.9
522.602	6.95
522.95	7.04
523.298	6.93
523.645	6.92
523.993	6.94
524.341	6.83
524.688	6.84
525.036	6.81
525.383	6.95
525.73	6.86
526.078	6.93
526.425	6.88
526.772	6.84
527.119	6.87
527.466	6.8
527.814	6.72
528.161	6.86
528.508	6.84
528.854	6.78
529.201	6.71
529.548	6.66
529.895	6.61
530.242	6.57
530.588	6.56
530.935	6.62
531.282	6.65
531.628	6.66
531.975	6.73
532.321	6.76
532.667	6.85
533.014	6.92
533.36	6.92
533.706	6.84
534.052	6.87
534.399	6.83
534.745	6.63
535.091	6.68
535.437	6.75
535.783	6.75
536.129	6.71
536.474	6.84
536.82	6.84
537.166	6.84
537.512	6.83
537.857	6.83
538.203	6.87
538.549	6.8
538.894	6.91
539.239	6.91
539.585	6.96
539.93	7.02
540.276	6.96
540.621	6.98
540.966	6.84
541.311	7.05
541.656	6.84
542.001	6.78
542.346	6.78
542.691	6.62
543.036	6.73
543.381	6.72
543.726	6.74
544.071	6.7
544.415	6.86
544.76	6.82
545.105	6.85
545.449	6.78
545.794	6.94
546.138	6.86
546.483	6.92
546.827	6.87
547.171	7.02
547.516	6.97
547.86	6.89
548.204	6.93
548.548	6.93
548.892	6.99
549.236	6.89
549.58	6.95
549.924	7.14
550.268	7.06
550.612	7.1
550.956	7.18
551.3	7.33
551.643	7.19
551.987	7.21
552.33	7.26
552.674	7.17
553.017	7.14
553.361	7.17
553.704	7.25
554.048	7.2
554.391	7.16
554.734	7.09
555.077	7.05
555.42	6.99
555.764	7.07
556.107	7.11
556.45	7.03
556.793	7.15
557.135	7.22
557.478	7.1
557.821	7.26
558.164	7.15
558.507	7.1
558.849	7.16
559.192	7.18
559.534	7.14
559.877	6.99
560.219	7.02
560.562	6.93
560.904	7.46
561.246	7.11
561.589	7.32
561.931	7.06
562.273	7.18
562.615	7.14
562.957	7.06
563.299	7.18
563.641	7
563.983	6.98
564.325	7.09
564.667	7.1
565.008	7.07
565.35	7.01
565.692	7.31
566.033	7.21
566.375	7.21
566.716	7.07
567.058	7.12
567.399	7.21
567.741	7.07
568.082	7.22
568.423	7.03
568.764	7.08
569.105	7.09
569.447	7.14
569.788	7.13
570.129	7.15
570.47	7.03
570.811	7.08
571.151	7.28
571.492	7.14
571.833	7.02
572.174	7.16
572.514	7.1
572.855	7.32
573.195	6.92
573.536	7.17
573.876	7.08
574.217	6.97
574.557	7.12
574.898	7.06
575.238	7.23
575.578	7.28
575.918	7.14
576.258	7.29
576.598	7.01
576.938	7.09
577.278	7.1
577.618	7.12
577.958	7.27
578.298	7.17
578.638	7.09
578.977	7.3
579.317	7.31
579.657	7.03
579.996	7.11
580.336	7.2
580.675	7
581.014	7.16
581.354	6.92
581.693	7.23
582.032	7.23
582.372	7.32
582.711	7.4
583.05	7.25
583.389	7.31
583.728	7.4
584.067	7.26
584.406	7.27
584.745	7.15
585.083	7.27
585.422	7.28
585.761	7.15
586.1	7.3
586.438	7.06
586.777	7
587.115	7.29
587.454	7.05
587.792	7.33
588.13	7.12
588.469	7.08
588.807	7.29
589.145	7.13
589.483	6.92
589.821	7.05
590.159	7.25
590.497	7.3
590.835	7.3
591.173	7.26
591.511	7.51
591.849	7.17
592.187	7.22
592.524	7.28
592.862	7.1
593.2	7.25
593.537	7.16
593.875	7.1
594.212	7.2
594.55	7.25
594.887	7.2
595.224	7.22
595.561	7.07
595.899	7.11
596.236	7.1
596.573	7.29
596.91	7.16
597.247	7.42
597.584	7.17
597.921	7.04
598.258	7.29
598.594	7.06
598.931	6.74
599.268	6.88
599.604	7.32
599.941	7.09
600.277	7.13
600.614	7.2
600.95	7.24
601.287	7.07
601.623	6.77
601.959	7.43
602.296	7.13
602.632	7.14
602.968	7.13
603.304	7.22
603.64	7.33
603.976	7.23
604.312	7.26
604.648	7.21
604.984	7.16
605.319	7.09
605.655	7.21
605.991	7.26
606.326	7.1
606.662	6.93
606.998	7.16
607.333	7.16
607.668	7.1
608.004	6.87
608.339	7.04
608.674	7.24
609.01	7.25
609.345	6.99
609.68	7.17
610.015	6.92
610.35	7.22
610.685	6.92
611.02	7.03
611.355	7.16
611.689	7.05
612.024	7.19
612.359	7.38
612.694	7.26
613.028	7.22
613.363	7.2
613.697	6.99
614.032	7.31
614.366	7.08
614.7	7.15
615.035	7.25
615.369	7.28
615.703	7.43
616.037	7.18
616.371	7.26
616.705	7.34
617.039	7.23
617.373	7.38
617.707	7.33
618.041	7.06
618.375	6.79
618.709	7.33
619.042	7.16
619.376	7.24
619.71	6.85
620.043	7.46
620.377	7
620.71	6.98
621.043	7.35
621.377	7.53
621.71	7.5
622.043	7.4
622.376	7.27
622.709	7.48
623.043	6.91
623.376	7.09
623.709	7.42
624.041	7.01
624.374	7.02
624.707	7.04
625.04	7.38
625.373	7.23
625.705	7.42
626.038	7.44
626.37	7.26
626.703	7.24
627.035	7.13
627.368	7.37
627.7	7.08
628.032	7.32
628.365	7.42
628.697	7.27
629.029	7.07
629.361	7.18
629.693	7.14
630.025	7.4
630.357	7.26
630.689	7.31
631.021	7.43
631.353	7.3
631.684	7.16
632.016	7.35
632.348	7.1
632.679	7.23
633.011	6.86
633.342	7.19
633.674	7.09
634.005	7.39
634.336	7.55
634.668	7.11
634.999	7.03
635.33	7.85
635.661	7.39
635.992	7.41
636.323	7.24
636.654	7.29
636.985	7.2
637.316	6.96
637.647	7.22
637.977	7.17
638.308	7.47
638.639	7.33
638.969	7.26
639.3	7.66
639.63	7.44
639.961	7.3
640.291	6.97
640.622	7.29
640.952	7.42
641.282	7.32
641.612	7.32
641.943	7.31
642.273	7.11
642.603	7.17
642.933	7.37
643.263	7.6
643.592	7.36
643.922	7.48
644.252	7.1
644.582	7.74
644.911	7.23
645.241	7.16
645.571	7.29
645.9	7.28
646.23	7.36
646.559	7
646.888	7.61
647.218	7.2
647.547	7.04
647.876	7.13
648.205	6.63
648.534	7.37
648.863	7.13
649.192	7.26
649.521	6.95
649.85	7.28
650.179	7.4
650.508	6.9
650.837	7.25
651.165	7.59
651.494	7.44
651.822	7.38
652.151	7.16
652.479	7.35
652.808	6.98
653.136	7.53
653.465	7.09
653.793	6.98
654.121	7.13
654.449	7.26
654.777	6.68
655.105	6.96
655.433	7.36
655.761	7.26
656.089	6.99
656.417	7.42
656.745	7.56
657.073	7.48
657.4	7.21
657.728	7.06
658.056	7.31
658.383	7.17
658.711	7.4
659.038	7.51
659.365	7.29
659.693	7
660.02	7.18
660.347	7.44
660.674	6.97
661.001	6.95
661.329	7
661.656	6.61
661.982	6.98
662.309	6.85
662.636	7
662.963	7.15
663.29	7.48
663.616	6.79
663.943	7.27
664.27	7.37
664.596	6.83
664.923	7.41
665.249	7.33
665.576	6.91
665.902	7.09
666.228	7.36
666.554	7.6
666.881	6.95
667.207	6.86
667.533	7.73
667.859	7.39
668.185	7.61
668.511	7.7
668.837	7.38
669.162	7.35
669.488	6.62
669.814	7.42
670.139	6.75
670.465	7.34
670.791	6.84
671.116	6.87
671.442	6.85
671.767	7.51
672.092	7.11
672.418	7.24
672.743	7.51
673.068	6.84
673.393	7.2
673.718	6.7
674.043	6.84
674.368	6.71
674.693	6.9
675.018	7.18
675.343	7.26
675.667	6.92
675.992	6.91
676.317	6.62
676.641	7.31
676.966	7.32
677.29	6.54
677.615	7.3
677.939	7.29
678.264	6.96
678.588	7.24
678.912	7.21
679.236	6.97
679.56	6.78
679.885	7.05
680.209	7.38
680.532	7.92
680.856	7.28
681.18	7.5
681.504	7.31
681.828	6.89
682.152	7.58
682.475	7.41
682.799	6.82
683.122	7.36
683.446	6.84
683.769	7.79
684.093	7.47
684.416	7.25
684.739	7
685.062	7.32
685.386	7.19
685.709	7.17
686.032	7.4
686.355	7.23
686.678	7.51
687.001	7.21
687.324	7.61
687.646	6.82
687.969	7.44
688.292	7.14
688.614	7.63
688.937	7.54
689.26	7.65
689.582	7.04
689.904	7.7
690.227	7.52
690.549	7.38
690.871	7.33
691.194	6.48
691.516	6.99
691.838	7.05
692.16	6.65
692.482	6.47
692.804	7.36
