Data from 2019-21_crown_Reflection__3__432.txt Node

Date: Thu Dec 15 20:18:48 CST 2022
User: ToomeyLab
Spectrometer: FLMS14357
Trigger mode: 0
Integration Time (sec): 1.000000E-2
Scans to average: 100
Electric dark correction enabled: true
Nonlinearity correction enabled: false
Boxcar width: 0
XAxis mode: Wavelengths
Number of Pixels in Spectrum: 2048
>>>>>Begin Spectral Data<<<<<
189.047	-254.66
189.435	-254.66
189.823	-254.66
190.211	2.22
190.599	74.18
190.987	-4575.81
191.375	-32.91
191.763	680.29
192.151	52.7
192.538	41.37
192.926	-122.13
193.314	-105.2
193.702	-20.9
194.089	-63.74
194.477	106.25
194.864	53.1
195.252	-297.72
195.639	72.83
196.027	-62.24
196.414	252.85
196.801	37.49
197.189	89.79
197.576	129.35
197.963	141.78
198.351	6.44
198.738	-8.12
199.125	-53.73
199.512	-13.2
199.899	-21.41
200.286	-45.24
200.673	10.81
201.06	-28.73
201.447	17.27
201.833	-13.7
202.22	-26.32
202.607	-62.39
202.994	-13.4
203.38	-4.45
203.767	-26.73
204.154	5.87
204.54	44.19
204.927	10.44
205.313	17.57
205.699	-2.7
206.086	-14.26
206.472	11.85
206.858	-22.03
207.245	-8.82
207.631	-33.37
208.017	24.31
208.403	-76.27
208.789	5.88
209.175	-40.06
209.561	-200.4
209.947	-15.38
210.333	-22.64
210.719	14.58
211.105	37.94
211.491	-8.51
211.876	-41.58
212.262	21.32
212.648	12.16
213.034	-15.91
213.419	-35.05
213.805	-52.19
214.19	-77.38
214.576	-5.87
214.961	-2.83
215.346	-4.45
215.732	-14.96
216.117	-18.26
216.502	-29.86
216.888	8.19
217.273	-0.15
217.658	-54.87
218.043	-56.9
218.428	-28.29
218.813	1.61
219.198	-58.77
219.583	-24.15
219.968	-18.76
220.353	-34.11
220.738	-40.42
221.122	-20.27
221.507	-12.04
221.892	-32.37
222.276	-21.08
222.661	-19.7
223.046	-26.59
223.43	6.67
223.815	-7.5
224.199	-13.06
224.583	-1.09
224.968	-7.22
225.352	-13.47
225.736	8.84
226.121	-5.52
226.505	-8.13
226.889	-2.32
227.273	-6.59
227.657	-0.25
228.041	-2.97
228.425	-3.97
228.809	-3.8
229.193	-0.87
229.577	-0.92
229.961	0.52
230.344	1.3
230.728	2.13
231.112	0.56
231.495	0.05
231.879	-1.37
232.263	1.29
232.646	-0.81
233.03	1.25
233.413	0.34
233.797	-1.2
234.18	-1.14
234.563	-0.45
234.946	-2.33
235.33	0.29
235.713	0.1
236.096	1.47
236.479	0.26
236.862	-0.36
237.245	0.15
237.628	0.9
238.011	0.04
238.394	0.47
238.777	0.59
239.16	1.86
239.543	1.68
239.925	0.1
240.308	-1.5
240.691	0.16
241.073	0.51
241.456	2.16
241.838	1.29
242.221	0.52
242.603	1.49
242.986	0.33
243.368	1.23
243.75	1
244.133	1.26
244.515	0.66
244.897	0.82
245.279	0.22
245.661	1.26
246.043	0.6
246.425	1.69
246.807	0.92
247.189	0.97
247.571	0.72
247.953	1.09
248.335	1.19
248.717	1.34
249.098	1.07
249.48	0.73
249.862	1.39
250.243	1.23
250.625	1.16
251.006	1.46
251.388	0.85
251.769	-0.41
252.151	1.09
252.532	-0.06
252.913	1.11
253.295	0.69
253.676	1.29
254.057	1.06
254.438	0.65
254.819	1.63
255.2	2
255.581	1.22
255.962	0.99
256.343	0.05
256.724	1.15
257.105	1.17
257.486	-0.02
257.867	0.4
258.247	0.53
258.628	0.97
259.009	0.96
259.389	0.19
259.77	1.25
260.15	1.57
260.531	1.24
260.911	0.86
261.292	1.22
261.672	1.3
262.052	1.12
262.432	0.76
262.813	0.97
263.193	1.03
263.573	0.74
263.953	0.5
264.333	0.82
264.713	0.56
265.093	0.8
265.473	1.7
265.853	1.4
266.233	0.61
266.612	-0.07
266.992	0.67
267.372	1.01
267.752	1.46
268.131	0.95
268.511	0.88
268.89	1.25
269.27	0.23
269.649	0.54
270.029	0.61
270.408	0.78
270.787	0.95
271.167	1.21
271.546	1.34
271.925	0.89
272.304	1.21
272.683	0.94
273.062	0.96
273.441	0.5
273.82	0.89
274.199	0.76
274.578	0.78
274.957	1.01
275.336	1.23
275.715	0.89
276.093	0.42
276.472	0.5
276.851	0.46
277.229	0.46
277.608	0.53
277.986	0.71
278.365	1.16
278.743	1.03
279.122	1.07
279.5	1.09
279.878	0.37
280.257	0.88
280.635	0.95
281.013	0.26
281.391	0.72
281.769	1.75
282.147	0.56
282.525	0.79
282.903	0.8
283.281	1.21
283.659	1.36
284.037	0.71
284.415	0.84
284.792	0.85
285.17	0.77
285.548	0.81
285.925	1.08
286.303	1.41
286.68	0.9
287.058	1.11
287.435	0.72
287.813	0.97
288.19	0.68
288.567	0.64
288.945	0.39
289.322	1.17
289.699	1.27
290.076	0.79
290.453	0.57
290.83	1.24
291.207	0.98
291.584	1.01
291.961	1.1
292.338	0.8
292.715	0.52
293.092	0.9
293.469	0.6
293.845	0.98
294.222	1.19
294.599	0.51
294.975	0.18
295.352	0.63
295.728	0.71
296.105	1.05
296.481	1.07
296.858	0.73
297.234	0.76
297.61	1.11
297.986	1.26
298.363	1.07
298.739	1.19
299.115	1.19
299.491	1.26
299.867	0.96
300.243	0.89
300.619	0.63
300.995	1.04
301.371	0.95
301.746	1.48
302.122	0.45
302.498	0.95
302.874	1.14
303.249	1.05
303.625	0.78
304	0.94
304.376	1.49
304.751	0.78
305.127	0.6
305.502	1.51
305.878	1.19
306.253	0.47
306.628	1.08
307.003	0.93
307.378	0.67
307.754	1
308.129	0.6
308.504	0.8
308.879	1.03
309.254	1.5
309.629	1.03
310.003	0.77
310.378	1.25
310.753	0.96
311.128	0.95
311.502	1.06
311.877	1.07
312.252	1.33
312.626	1.43
313.001	1.16
313.375	1.45
313.75	1.16
314.124	1.21
314.498	1.33
314.873	0.96
315.247	1.21
315.621	1.03
315.995	0.95
316.369	0.82
316.743	0.53
317.117	0.86
317.491	1.18
317.865	0.73
318.239	1.23
318.613	0.92
318.987	0.76
319.361	1.04
319.734	0.8
320.108	1.63
320.482	1.07
320.855	0.84
321.229	1.29
321.602	0.51
321.976	0.32
322.349	1.46
322.723	0.82
323.096	0.9
323.469	0.87
323.843	1.48
324.216	0.99
324.589	1.41
324.962	0.7
325.335	1.3
325.708	1.1
326.081	1.16
326.454	1.44
326.827	1.21
327.2	0.88
327.573	1.62
327.945	1.18
328.318	1.33
328.691	0.94
329.063	0.9
329.436	0.77
329.809	1.46
330.181	1.63
330.553	1.45
330.926	1.46
331.298	1.01
331.671	1.75
332.043	0.67
332.415	1.22
332.787	1.27
333.159	1
333.532	1.18
333.904	1.37
334.276	1.45
334.648	1.17
335.02	1.19
335.391	1.37
335.763	1.39
336.135	1.19
336.507	1.26
336.879	1.12
337.25	1.66
337.622	1.52
337.993	1.18
338.365	1.14
338.736	1.3
339.108	1.32
339.479	0.91
339.851	1.53
340.222	1.71
340.593	1.28
340.964	1.53
341.336	1.28
341.707	1.35
342.078	0.86
342.449	1.26
342.82	1.02
343.191	1.04
343.562	1.67
343.933	1.07
344.303	1.57
344.674	1.36
345.045	1.33
345.416	1.56
345.786	1.43
346.157	1.42
346.527	1.4
346.898	1.24
347.268	1.27
347.639	1.17
348.009	1.57
348.38	0.93
348.75	1.7
349.12	1.46
349.49	1.46
349.861	1.36
350.231	1.07
350.601	1.16
350.971	1.3
351.341	1.46
351.711	1.47
352.081	1
352.45	1.18
352.82	0.98
353.19	1.35
353.56	1.23
353.929	1.56
354.299	1.36
354.669	1.53
355.038	1.8
355.408	1.33
355.777	1.59
356.147	1.12
356.516	1.46
356.885	1.55
357.254	1.32
357.624	1.16
357.993	1.16
358.362	1.39
358.731	1.78
359.1	1.56
359.469	1.63
359.838	1.21
360.207	1.53
360.576	1.75
360.945	1.64
361.314	1.53
361.682	1.19
362.051	1.33
362.42	1.48
362.788	1.49
363.157	1.48
363.525	1.58
363.894	1.07
364.262	1.29
364.631	1.51
364.999	1.24
365.367	1.42
365.735	0.99
366.104	1.52
366.472	1.44
366.84	1.63
367.208	1.51
367.576	1.04
367.944	1.22
368.312	1.22
368.68	1.49
369.048	1.24
369.416	1.44
369.783	1.29
370.151	1.67
370.519	1.8
370.886	1.62
371.254	1.8
371.621	1.86
371.989	1.51
372.356	1.46
372.724	1.43
373.091	1.18
373.458	1.2
373.826	1.77
374.193	1.17
374.56	1.88
374.927	1.39
375.294	1.54
375.661	1.69
376.028	1.44
376.395	1.84
376.762	1.13
377.129	1.31
377.496	1.39
377.863	1.54
378.229	1.48
378.596	1.61
378.963	1.51
379.329	1.44
379.696	1.56
380.062	1.45
380.429	1.02
380.795	1.69
381.161	1.13
381.528	1.24
381.894	1.5
382.26	1.57
382.626	1.83
382.993	1.64
383.359	1.52
383.725	1.42
384.091	1.56
384.457	1.2
384.823	1.54
385.188	1.69
385.554	1.54
385.92	1.34
386.286	1.35
386.651	1.51
387.017	1.61
387.383	1.3
387.748	1.49
388.114	1.5
388.479	1.47
388.845	1.33
389.21	1.77
389.575	1.47
389.94	1.36
390.306	1.51
390.671	1.69
391.036	1.44
391.401	1.48
391.766	1.58
392.131	1.82
392.496	1.6
392.861	1.56
393.226	1.33
393.591	1.66
393.956	1.47
394.32	1.56
394.685	1.6
395.05	1.64
395.414	1.51
395.779	1.9
396.143	1.23
396.508	1.3
396.872	1.55
397.236	1.76
397.601	1.51
397.965	1.53
398.329	1.49
398.694	1.27
399.058	1.62
399.422	1.56
399.786	1.39
400.15	1.4
400.514	1.41
400.878	1.73
401.242	1.67
401.605	1.48
401.969	1.38
402.333	1.44
402.697	1.62
403.06	1.45
403.424	1.66
403.787	1.44
404.151	1.58
404.514	1.61
404.878	1.32
405.241	1.54
405.604	1.43
405.968	1.68
406.331	1.53
406.694	1.43
407.057	1.53
407.42	1.45
407.783	1.6
408.146	1.57
408.509	1.63
408.872	1.69
409.235	1.76
409.598	1.53
409.961	1.52
410.323	1.6
410.686	1.6
411.049	1.63
411.411	1.56
411.774	1.59
412.136	1.4
412.499	1.54
412.861	1.14
413.223	1.26
413.586	1.62
413.948	1.65
414.31	1.51
414.672	1.57
415.035	1.82
415.397	1.44
415.759	1.46
416.121	1.74
416.483	1.4
416.845	1.53
417.206	1.47
417.568	1.4
417.93	1.59
418.292	1.46
418.653	1.35
419.015	1.51
419.377	1.45
419.738	1.52
420.1	1.57
420.461	1.45
420.822	1.56
421.184	1.59
421.545	1.62
421.906	1.52
422.267	1.51
422.629	1.63
422.99	1.54
423.351	1.47
423.712	1.59
424.073	1.64
424.434	1.71
424.795	1.58
425.155	1.53
425.516	1.55
425.877	1.6
426.238	1.54
426.598	1.63
426.959	1.6
427.32	1.54
427.68	1.56
428.041	1.63
428.401	1.6
428.761	1.75
429.122	1.66
429.482	1.58
429.842	1.47
430.202	1.83
430.563	1.66
430.923	1.55
431.283	1.62
431.643	1.63
432.003	1.56
432.363	1.83
432.722	1.64
433.082	1.58
433.442	1.6
433.802	1.68
434.161	1.66
434.521	1.57
434.881	1.68
435.24	1.71
435.6	1.69
435.959	1.77
436.319	1.56
436.678	1.75
437.037	1.76
437.396	1.74
437.756	1.62
438.115	1.69
438.474	1.67
438.833	1.61
439.192	1.77
439.551	1.81
439.91	1.85
440.269	1.67
440.628	1.66
440.987	1.68
441.345	1.74
441.704	1.67
442.063	1.69
442.421	1.72
442.78	1.63
443.138	1.68
443.497	1.61
443.855	1.81
444.214	1.63
444.572	1.83
444.93	1.59
445.288	1.71
445.647	1.6
446.005	1.64
446.363	1.69
446.721	1.72
447.079	1.67
447.437	1.78
447.795	1.73
448.153	1.73
448.51	1.83
448.868	1.76
449.226	1.85
449.584	1.67
449.941	1.69
450.299	1.67
450.656	1.74
451.014	1.82
451.371	1.75
451.729	1.78
452.086	1.71
452.443	1.89
452.801	1.86
453.158	1.99
453.515	1.64
453.872	1.73
454.229	1.59
454.586	1.64
454.943	1.71
455.3	1.68
455.657	1.78
456.014	1.86
456.371	1.9
456.727	1.86
457.084	1.97
457.441	1.86
457.797	1.67
458.154	1.77
458.51	1.83
458.867	1.81
459.223	1.7
459.58	1.78
459.936	1.86
460.292	1.78
460.648	1.64
461.005	1.73
461.361	1.72
461.717	1.75
462.073	1.77
462.429	1.81
462.785	1.91
463.141	1.81
463.496	1.77
463.852	2.03
464.208	1.85
464.564	1.74
464.919	1.75
465.275	1.76
465.631	1.93
465.986	1.84
466.342	1.7
466.697	1.7
467.052	1.97
467.408	2.04
467.763	1.78
468.118	1.73
468.473	1.83
468.829	1.77
469.184	1.96
469.539	1.76
469.894	2.11
470.249	1.82
470.603	1.87
470.958	1.92
471.313	1.89
471.668	1.8
472.023	1.85
472.377	1.77
472.732	1.92
473.086	1.83
473.441	1.79
473.795	1.96
474.15	1.82
474.504	1.83
474.859	1.5
475.213	1.98
475.567	1.81
475.921	1.93
476.275	1.88
476.63	1.77
476.984	1.79
477.338	1.85
477.692	1.85
478.045	1.84
478.399	1.74
478.753	1.8
479.107	1.82
479.461	1.84
479.814	1.85
480.168	1.91
480.521	2
480.875	1.98
481.228	1.92
481.582	1.84
481.935	1.92
482.289	1.8
482.642	2.01
482.995	1.82
483.348	1.79
483.701	1.83
484.055	1.89
484.408	1.87
484.761	1.85
485.114	1.72
485.466	1.75
485.819	1.76
486.172	1.82
486.525	1.78
486.878	1.82
487.23	1.85
487.583	1.82
487.936	1.8
488.288	1.83
488.641	1.77
488.993	1.81
489.345	1.77
489.698	1.8
490.05	1.76
490.402	1.83
490.754	1.82
491.107	1.8
491.459	1.92
491.811	1.86
492.163	1.75
492.515	1.82
492.866	1.81
493.218	1.77
493.57	1.82
493.922	1.79
494.274	1.95
494.625	1.96
494.977	1.83
495.328	1.86
495.68	1.9
496.031	1.84
496.383	1.89
496.734	1.79
497.086	2.06
497.437	1.85
497.788	1.97
498.139	1.87
498.49	1.9
498.842	2.02
499.193	1.89
499.544	1.98
499.894	1.94
500.245	2
500.596	1.96
500.947	1.85
501.298	1.98
501.648	1.88
501.999	1.89
502.35	1.87
502.7	1.99
503.051	1.79
503.401	1.96
503.752	1.89
504.102	1.85
504.452	1.9
504.803	1.8
505.153	1.91
505.503	1.89
505.853	1.96
506.203	1.97
506.553	1.79
506.903	1.97
507.253	1.88
507.603	2.02
507.953	1.94
508.303	1.99
508.652	1.88
509.002	1.99
509.352	1.96
509.701	1.83
510.051	1.94
510.4	1.95
510.75	1.93
511.099	1.81
511.449	1.99
511.798	1.85
512.147	1.92
512.496	1.96
512.846	1.93
513.195	1.98
513.544	2.01
513.893	1.91
514.242	1.91
514.591	1.9
514.939	1.94
515.288	2.03
515.637	1.95
515.986	1.91
516.334	2.07
516.683	1.88
517.032	1.81
517.38	1.86
517.729	1.88
518.077	1.94
518.426	1.99
518.774	1.85
519.122	1.92
519.47	1.85
519.819	1.93
520.167	1.87
520.515	1.91
520.863	1.95
521.211	1.87
521.559	1.92
521.907	1.97
522.255	1.93
522.602	1.96
522.95	2.02
523.298	1.99
523.645	1.98
523.993	2.01
524.341	1.95
524.688	1.96
525.036	1.88
525.383	1.97
525.73	1.75
526.078	1.92
526.425	1.93
526.772	1.83
527.119	1.94
527.466	1.98
527.814	1.98
528.161	1.96
528.508	2.01
528.854	1.99
529.201	1.91
529.548	1.88
529.895	1.84
530.242	1.82
530.588	1.82
530.935	1.87
531.282	1.84
531.628	1.88
531.975	1.87
532.321	1.97
532.667	1.9
533.014	2
533.36	1.93
533.706	1.93
534.052	1.95
534.399	1.91
534.745	1.82
535.091	1.87
535.437	1.9
535.783	1.9
536.129	1.9
536.474	1.91
536.82	1.93
537.166	1.83
537.512	1.9
537.857	1.93
538.203	1.91
538.549	1.87
538.894	1.92
539.239	1.97
539.585	1.95
539.93	2.02
540.276	1.88
540.621	1.99
540.966	1.91
541.311	1.93
541.656	1.84
542.001	1.89
542.346	1.85
542.691	1.83
543.036	1.84
543.381	1.86
543.726	1.89
544.071	1.88
544.415	1.91
544.76	1.95
545.105	1.88
545.449	1.91
545.794	1.91
546.138	1.85
546.483	1.95
546.827	1.93
547.171	1.95
547.516	1.93
547.86	1.93
548.204	1.97
548.548	1.96
548.892	1.96
549.236	1.92
549.58	2.03
549.924	2.08
550.268	2.06
550.612	2.04
550.956	2.13
551.3	2.17
551.643	1.87
551.987	2.18
552.33	2.08
552.674	2.01
553.017	1.97
553.361	1.92
553.704	2.03
554.048	1.95
554.391	2.06
554.734	1.85
555.077	1.92
555.42	1.97
555.764	2.06
556.107	2.04
556.45	2.01
556.793	2.28
557.135	2.14
557.478	1.93
557.821	1.92
558.164	2
558.507	1.95
558.849	2.29
559.192	2.01
559.534	1.92
559.877	2.09
560.219	2.04
560.562	1.96
560.904	2.11
561.246	1.8
561.589	2.12
561.931	1.93
562.273	2
562.615	2.01
562.957	1.99
563.299	2
563.641	2.02
563.983	1.73
564.325	1.96
564.667	1.96
565.008	1.86
565.35	1.88
565.692	1.85
566.033	1.84
566.375	1.97
566.716	1.8
567.058	2.07
567.399	2.06
567.741	2.06
568.082	2.01
568.423	1.93
568.764	1.96
569.105	2
569.447	1.96
569.788	2.02
570.129	1.98
570.47	1.94
570.811	1.92
571.151	1.85
571.492	1.93
571.833	1.9
572.174	2.02
572.514	1.92
572.855	2.12
573.195	1.95
573.536	2.16
573.876	1.95
574.217	1.82
574.557	1.91
574.898	1.97
575.238	2.11
575.578	2
575.918	2.03
576.258	2.11
576.598	1.95
576.938	1.91
577.278	1.98
577.618	1.89
577.958	1.95
578.298	2.05
578.638	2.01
578.977	2.06
579.317	2.01
579.657	2.07
579.996	2.07
580.336	2.07
580.675	1.87
581.014	2.02
581.354	1.78
581.693	2.18
582.032	2.13
582.372	2.12
582.711	2.03
583.05	1.99
583.389	2.1
583.728	2.04
584.067	1.86
584.406	2
584.745	1.99
585.083	1.94
585.422	2.13
585.761	2.16
586.1	2.03
586.438	1.97
586.777	2
587.115	2.08
587.454	1.76
587.792	1.97
588.13	1.97
588.469	2.08
588.807	2.21
589.145	2.05
589.483	1.72
589.821	1.98
590.159	2.02
590.497	2.16
590.835	2.02
591.173	2.03
591.511	2.21
591.849	2.11
592.187	1.9
592.524	2.12
592.862	1.8
593.2	1.84
593.537	1.89
593.875	2.06
594.212	2.02
594.55	2.07
594.887	2.05
595.224	2.22
595.561	2.11
595.899	2.08
596.236	2.1
596.573	1.99
596.91	2
597.247	2.34
597.584	1.9
597.921	2.07
598.258	2
598.594	2.05
598.931	1.78
599.268	1.8
599.604	2.07
599.941	1.92
600.277	2.04
600.614	2.01
600.95	1.99
601.287	1.82
601.623	1.78
601.959	2.32
602.296	2.07
602.632	1.86
602.968	1.98
603.304	2.14
603.64	1.9
603.976	1.82
604.312	2.09
604.648	2.1
604.984	2.06
605.319	2.11
605.655	1.92
605.991	1.92
606.326	1.98
606.662	2.01
606.998	2.2
607.333	1.96
607.668	1.93
608.004	1.91
608.339	1.89
608.674	2.09
609.01	2.11
609.345	2.14
609.68	1.8
610.015	1.94
610.35	2
610.685	1.89
611.02	1.92
611.355	1.98
611.689	2.03
612.024	2.11
612.359	2.05
612.694	1.97
613.028	1.85
613.363	2.04
613.697	2.05
614.032	1.93
614.366	1.86
614.7	2.04
615.035	1.8
615.369	2.14
615.703	2.11
616.037	1.94
616.371	1.9
616.705	2.06
617.039	2.09
617.373	2.11
617.707	2.16
618.041	1.92
618.375	1.37
618.709	2.32
619.042	1.9
619.376	1.89
619.71	2.26
620.043	2.4
620.377	1.94
620.71	1.85
621.043	2.05
621.377	2.15
621.71	2.22
622.043	2.15
622.376	1.77
622.709	2.14
623.043	1.99
623.376	1.88
623.709	2.1
624.041	1.84
624.374	2.06
624.707	2.06
625.04	2.11
625.373	2.07
625.705	2.08
626.038	2.39
626.37	1.93
626.703	2.13
627.035	2.04
627.368	2.39
627.7	1.83
628.032	1.96
628.365	2.27
628.697	2.32
629.029	2.09
629.361	2.15
629.693	2.05
630.025	1.96
630.357	2.27
630.689	2.09
631.021	2.2
631.353	1.79
631.684	2.12
632.016	1.84
632.348	1.68
632.679	2.26
633.011	2.26
633.342	2.12
633.674	1.83
634.005	1.98
634.336	2.06
634.668	1.97
634.999	1.86
635.33	1.99
635.661	1.83
635.992	2.09
636.323	1.98
636.654	1.94
636.985	1.95
637.316	2.16
637.647	2
637.977	1.96
638.308	2.06
638.639	1.81
638.969	1.75
639.3	2.07
639.63	2.15
639.961	2.12
640.291	1.66
640.622	2.4
640.952	2.28
641.282	1.75
641.612	1.84
641.943	1.6
642.273	1.92
642.603	2.28
642.933	2.53
643.263	2.19
643.592	2.2
643.922	2.38
644.252	2.08
644.582	2.15
644.911	1.98
645.241	1.79
645.571	2.03
645.9	2.12
646.23	2.53
646.559	1.86
646.888	2.31
647.218	1.95
647.547	2.14
647.876	2.2
648.205	1.41
648.534	2.02
648.863	1.88
649.192	1.97
649.521	2.29
649.85	2.05
650.179	2.01
650.508	1.89
650.837	1.87
651.165	2.19
651.494	2.5
651.822	2.2
652.151	1.89
652.479	2.22
652.808	2.2
653.136	1.46
653.465	1.77
653.793	2.07
654.121	2.05
654.449	1.72
654.777	1.72
655.105	1.44
655.433	2.41
655.761	1.94
656.089	2.14
656.417	2.49
656.745	2.35
657.073	1.82
657.4	1.6
657.728	1.38
658.056	2.05
658.383	2.14
658.711	1.86
659.038	2.14
659.365	1.9
659.693	1.96
660.02	2.18
660.347	2.04
660.674	1.95
661.001	1.95
661.329	1.93
661.656	1.72
661.982	2.15
662.309	2.09
662.636	2.15
662.963	2.33
663.29	2.11
663.616	2
663.943	2.15
664.27	2.1
664.596	1.75
664.923	2.29
665.249	1.99
665.576	1.97
665.902	1.59
666.228	2.45
666.554	2.15
666.881	1.74
667.207	1.96
667.533	1.81
667.859	1.83
668.185	2.18
668.511	2.46
668.837	2.19
669.162	2.28
669.488	1.47
669.814	2.16
670.139	1.87
670.465	2.4
670.791	1.6
671.116	1.42
671.442	1.48
671.767	2.2
672.092	1.83
672.418	1.89
672.743	2.12
673.068	1.23
673.393	2.24
673.718	1.66
674.043	2
674.368	2.3
674.693	2.12
675.018	2.15
675.343	2.46
675.667	1.97
675.992	1.64
676.317	1.69
676.641	2.09
676.966	1.7
677.29	1.23
677.615	1.56
677.939	1.96
678.264	2.19
678.588	2.19
678.912	2.19
679.236	1.77
679.56	1.68
679.885	2.02
680.209	2.11
680.532	1.58
680.856	2.43
681.18	2.29
681.504	1.86
681.828	1.81
682.152	1.82
682.475	2.13
682.799	1.56
683.122	1.47
683.446	1.29
683.769	2.13
684.093	2.48
684.416	2.04
684.739	1.45
685.062	2.23
685.386	1.96
685.709	1.67
686.032	2.06
686.355	1.94
686.678	2.27
687.001	2.22
687.324	2.21
687.646	2.48
687.969	2.11
688.292	1.92
688.614	2.41
688.937	2.34
689.26	2.35
689.582	1.85
689.904	2.16
690.227	1.72
690.549	2.11
690.871	1.53
691.194	1.61
691.516	1.81
691.838	2.19
