Data from 2019-21_chest_Reflection__0__422.txt Node

Date: Thu Dec 15 20:15:28 CST 2022
User: ToomeyLab
Spectrometer: FLMS14357
Trigger mode: 0
Integration Time (sec): 1.000000E-2
Scans to average: 100
Electric dark correction enabled: true
Nonlinearity correction enabled: false
Boxcar width: 0
XAxis mode: Wavelengths
Number of Pixels in Spectrum: 2048
>>>>>Begin Spectral Data<<<<<
189.047	82.41
189.435	82.41
189.823	82.41
190.211	-78.27
190.599	628.57
190.987	2283.87
191.375	47.51
191.763	613.05
192.151	175.21
192.538	-10.27
192.926	-166.53
193.314	-73.72
193.702	64.08
194.089	68.05
194.477	106.17
194.864	86.92
195.252	1136.93
195.639	33.2
196.027	80
196.414	308.73
196.801	84.34
197.189	122.26
197.576	126.08
197.963	12.35
198.351	-3.2
198.738	-23.8
199.125	-80.96
199.512	42.22
199.899	-49.2
200.286	-57.11
200.673	44.37
201.06	-15.77
201.447	-15.19
201.833	-18.83
202.22	10.45
202.607	-48.95
202.994	-7.6
203.38	6.93
203.767	-5.27
204.154	-8.14
204.54	52.76
204.927	19.48
205.313	16.58
205.699	29.94
206.086	15.95
206.472	18.18
206.858	11.4
207.245	-19.03
207.631	15.03
208.017	30.38
208.403	-27.5
208.789	12.14
209.175	1.02
209.561	-35.11
209.947	-6.25
210.333	3.36
210.719	7.99
211.105	45.04
211.491	-4.78
211.876	-8.51
212.262	21
212.648	31.38
213.034	-49.92
213.419	-23.67
213.805	-22.08
214.19	-37.36
214.576	-24.59
214.961	14.42
215.346	-9.05
215.732	-31.06
216.117	-7.55
216.502	-27.07
216.888	-9.79
217.273	-24.03
217.658	-19.39
218.043	-19.43
218.428	-16.38
218.813	2.27
219.198	-48.14
219.583	11.49
219.968	20.39
220.353	-34.17
220.738	-19.37
221.122	-7.58
221.507	-21.1
221.892	-18.14
222.276	-28.49
222.661	-16.15
223.046	-17.53
223.43	5.85
223.815	-0.63
224.199	-8.52
224.583	-8.09
224.968	-8
225.352	-12.3
225.736	2.79
226.121	0.61
226.505	-4.88
226.889	-0.52
227.273	-2.81
227.657	1.68
228.041	0.35
228.425	-0.82
228.809	-2.46
229.193	2.05
229.577	1.31
229.961	1.61
230.344	1.69
230.728	3.04
231.112	2.92
231.495	0.75
231.879	2.25
232.263	2.92
232.646	2.8
233.03	2.95
233.413	2.79
233.797	0.27
234.18	0.29
234.563	0.74
234.946	0.67
235.33	0.95
235.713	2.95
236.096	3.47
236.479	2.54
236.862	0.97
237.245	2.55
237.628	1.72
238.011	2.49
238.394	1.68
238.777	2.27
239.16	2.75
239.543	4.56
239.925	1.64
240.308	2.91
240.691	3.4
241.073	2.71
241.456	2.15
241.838	2.62
242.221	3.69
242.603	3.41
242.986	2.46
243.368	3.02
243.75	3.26
244.133	3.31
244.515	3.14
244.897	2.69
245.279	2.45
245.661	2.89
246.043	1.66
246.425	2.9
246.807	3.31
247.189	2.59
247.571	2.56
247.953	3.01
248.335	3.12
248.717	3.23
249.098	3.15
249.48	3.09
249.862	3.2
250.243	2.94
250.625	2.71
251.006	3.44
251.388	3.57
251.769	1.82
252.151	3.2
252.532	2.23
252.913	2.94
253.295	3
253.676	3.12
254.057	3.01
254.438	2.98
254.819	2.28
255.2	3.1
255.581	3.75
255.962	3.59
256.343	2.53
256.724	2.86
257.105	2.04
257.486	1.24
257.867	2.15
258.247	2.66
258.628	3.17
259.009	2.79
259.389	2.69
259.77	2.58
260.15	3.32
260.531	2.85
260.911	2.86
261.292	3.1
261.672	3
262.052	2.87
262.432	2.89
262.813	2.93
263.193	3.37
263.573	3.15
263.953	2.5
264.333	2.7
264.713	3.41
265.093	2.48
265.473	3.58
265.853	2.51
266.233	3.02
266.612	2.02
266.992	2.17
267.372	2.64
267.752	2.84
268.131	2.71
268.511	2.64
268.89	3.62
269.27	2.19
269.649	2.47
270.029	2.71
270.408	2.55
270.787	2.99
271.167	2.67
271.546	3.3
271.925	2.6
272.304	2.68
272.683	2.54
273.062	2.94
273.441	2.57
273.82	2.63
274.199	2.56
274.578	2.76
274.957	3.01
275.336	2.74
275.715	3.1
276.093	2.09
276.472	2.55
276.851	2.31
277.229	2.52
277.608	2.25
277.986	2.76
278.365	2.94
278.743	2.72
279.122	2.51
279.5	2.43
279.878	2.85
280.257	2.5
280.635	3.14
281.013	2.26
281.391	2.41
281.769	2.47
282.147	2.26
282.525	2.46
282.903	2.93
283.281	2.89
283.659	3.16
284.037	2.56
284.415	2.7
284.792	2.81
285.17	2.2
285.548	2.57
285.925	2.6
286.303	3.29
286.68	2.69
287.058	2.77
287.435	2.83
287.813	2.85
288.19	2.36
288.567	2.75
288.945	2.49
289.322	2.93
289.699	2.91
290.076	2.67
290.453	2.56
290.83	2.93
291.207	2.54
291.584	2.86
291.961	3.12
292.338	2.6
292.715	2.67
293.092	2.98
293.469	2.85
293.845	2.91
294.222	2.93
294.599	2.68
294.975	2.51
295.352	3.16
295.728	3.33
296.105	2.86
296.481	3.31
296.858	2.76
297.234	3.12
297.61	3.07
297.986	3.84
298.363	3.47
298.739	3.4
299.115	3.52
299.491	3.63
299.867	3.13
300.243	3.49
300.619	3.09
300.995	3.18
301.371	2.98
301.746	3.61
302.122	3.04
302.498	3.33
302.874	3.19
303.249	2.87
303.625	3.27
304	3.8
304.376	3.57
304.751	3.64
305.127	3.05
305.502	3.39
305.878	3.57
306.253	3.23
306.628	3.44
307.003	3.5
307.378	3.22
307.754	3.66
308.129	3.31
308.504	3.83
308.879	3.97
309.254	3.68
309.629	3.96
310.003	3.31
310.378	3.82
310.753	3.61
311.128	3.47
311.502	3.83
311.877	3.55
312.252	3.82
312.626	4.15
313.001	3.93
313.375	3.81
313.75	3.61
314.124	3.7
314.498	3.96
314.873	3.52
315.247	3.56
315.621	3.55
315.995	3.77
316.369	3.05
316.743	3.03
317.117	3.7
317.491	4.11
317.865	3.38
318.239	4.12
318.613	3.68
318.987	3.25
319.361	3.61
319.734	3.42
320.108	3.87
320.482	3.75
320.855	3.97
321.229	4.08
321.602	4.08
321.976	3.2
322.349	4.28
322.723	4.33
323.096	4.06
323.469	3.67
323.843	3.94
324.216	4.18
324.589	4.2
324.962	3.92
325.335	3.96
325.708	4.06
326.081	3.84
326.454	4.18
326.827	4.44
327.2	3.96
327.573	4.19
327.945	3.71
328.318	3.64
328.691	3.94
329.063	3.84
329.436	3.83
329.809	4.44
330.181	4.74
330.553	4.55
330.926	4.51
331.298	4.06
331.671	4.31
332.043	3.88
332.415	4.33
332.787	4.31
333.159	3.86
333.532	3.95
333.904	4.27
334.276	3.72
334.648	4.22
335.02	4.49
335.391	4.21
335.763	4.28
336.135	4.31
336.507	4.08
336.879	4.12
337.25	4.16
337.622	4.1
337.993	3.77
338.365	4.31
338.736	4.4
339.108	4
339.479	3.92
339.851	4.23
340.222	4.24
340.593	4.06
340.964	4.22
341.336	3.97
341.707	4.26
342.078	4.19
342.449	4.07
342.82	3.82
343.191	3.94
343.562	4.45
343.933	4.09
344.303	4.11
344.674	3.94
345.045	4.19
345.416	4.65
345.786	4.18
346.157	4.21
346.527	3.9
346.898	3.74
347.268	4.04
347.639	3.96
348.009	4.4
348.38	4.07
348.75	4.41
349.12	4.22
349.49	4.24
349.861	4.17
350.231	4.2
350.601	4.18
350.971	3.94
351.341	4.39
351.711	4.35
352.081	4.24
352.45	3.7
352.82	3.71
353.19	4
353.56	4.1
353.929	4.56
354.299	4.21
354.669	4.32
355.038	4.55
355.408	4.21
355.777	4.32
356.147	4.42
356.516	4.05
356.885	4.23
357.254	3.78
357.624	3.87
357.993	4.1
358.362	4.23
358.731	4.53
359.1	4.2
359.469	4.49
359.838	4.1
360.207	4.39
360.576	4.34
360.945	4.43
361.314	4.34
361.682	4.03
362.051	4.17
362.42	4.42
362.788	4.16
363.157	4.27
363.525	4.45
363.894	4.18
364.262	4.26
364.631	4.59
364.999	4.3
365.367	4.57
365.735	3.82
366.104	3.98
366.472	4.19
366.84	4.14
367.208	4.55
367.576	4.46
367.944	4.29
368.312	3.95
368.68	4.43
369.048	4.33
369.416	4.06
369.783	4.27
370.151	4.64
370.519	4.81
370.886	4.47
371.254	4.58
371.621	4.48
371.989	4.63
372.356	4.58
372.724	4.31
373.091	4.22
373.458	4.32
373.826	4.73
374.193	4.52
374.56	4.6
374.927	4.45
375.294	4.3
375.661	4.47
376.028	4.13
376.395	4.45
376.762	4.23
377.129	4.43
377.496	4.42
377.863	4.67
378.229	4.52
378.596	4.59
378.963	4.52
379.329	4.56
379.696	4.12
380.062	4.43
380.429	4.05
380.795	4.61
381.161	4.17
381.528	4.17
381.894	4.63
382.26	4.32
382.626	4.73
382.993	4.65
383.359	4.33
383.725	4.28
384.091	4.26
384.457	4.45
384.823	4.75
385.188	4.72
385.554	4.49
385.92	4.25
386.286	4.55
386.651	4.3
387.017	4.53
387.383	4.53
387.748	4.52
388.114	4.71
388.479	4.66
388.845	4.48
389.21	4.74
389.575	4.91
389.94	4.53
390.306	4.64
390.671	4.58
391.036	4.57
391.401	4.67
391.766	4.53
392.131	4.77
392.496	4.62
392.861	4.68
393.226	4.43
393.591	4.6
393.956	4.83
394.32	4.72
394.685	4.81
395.05	4.67
395.414	4.56
395.779	4.61
396.143	4.53
396.508	4.66
396.872	4.58
397.236	4.83
397.601	4.82
397.965	4.68
398.329	4.94
398.694	4.44
399.058	4.61
399.422	4.72
399.786	4.64
400.15	4.65
400.514	4.8
400.878	4.69
401.242	4.8
401.605	4.67
401.969	4.65
402.333	4.72
402.697	4.81
403.06	4.78
403.424	4.75
403.787	4.78
404.151	4.72
404.514	4.68
404.878	4.65
405.241	4.79
405.604	4.66
405.968	4.62
406.331	4.76
406.694	4.87
407.057	4.65
407.42	4.73
407.783	4.86
408.146	4.81
408.509	4.83
408.872	5.03
409.235	5.01
409.598	4.8
409.961	5.16
410.323	5
410.686	5.06
411.049	4.89
411.411	4.86
411.774	4.94
412.136	4.86
412.499	5.17
412.861	4.57
413.223	4.89
413.586	4.99
413.948	5.2
414.31	5.13
414.672	4.95
415.035	5.04
415.397	4.88
415.759	4.7
416.121	5.22
416.483	4.84
416.845	4.95
417.206	4.91
417.568	4.91
417.93	5.1
418.292	4.78
418.653	4.73
419.015	5
419.377	4.83
419.738	5.03
420.1	4.93
420.461	4.85
420.822	5.08
421.184	4.96
421.545	4.94
421.906	4.94
422.267	4.84
422.629	4.9
422.99	4.91
423.351	4.92
423.712	4.99
424.073	5.06
424.434	5.07
424.795	4.94
425.155	4.93
425.516	4.96
425.877	5
426.238	4.97
426.598	5.07
426.959	5.07
427.32	4.92
427.68	5.06
428.041	5.09
428.401	5.11
428.761	5.13
429.122	5.08
429.482	5.07
429.842	5.18
430.202	5.17
430.563	5.17
430.923	5.25
431.283	5.24
431.643	5.29
432.003	5.24
432.363	5.28
432.722	5.19
433.082	5.25
433.442	5.23
433.802	5.29
434.161	5.21
434.521	5.2
434.881	5.26
435.24	5.15
435.6	5.3
435.959	5.3
436.319	5.28
436.678	5.23
437.037	5.29
437.396	5.29
437.756	5.28
438.115	5.38
438.474	5.27
438.833	5.3
439.192	5.25
439.551	5.33
439.91	5.37
440.269	5.24
440.628	5.23
440.987	5.32
441.345	5.31
441.704	5.26
442.063	5.29
442.421	5.28
442.78	5.28
443.138	5.27
443.497	5.34
443.855	5.51
444.214	5.26
444.572	5.59
444.93	5.34
445.288	5.4
445.647	5.3
446.005	5.3
446.363	5.37
446.721	5.37
447.079	5.24
447.437	5.47
447.795	5.45
448.153	5.36
448.51	5.44
448.868	5.36
449.226	5.45
449.584	5.48
449.941	5.53
450.299	5.45
450.656	5.52
451.014	5.47
451.371	5.44
451.729	5.62
452.086	5.6
452.443	5.67
452.801	5.42
453.158	5.61
453.515	5.46
453.872	5.53
454.229	5.52
454.586	5.46
454.943	5.5
455.3	5.58
455.657	5.56
456.014	5.67
456.371	5.76
456.727	5.75
457.084	5.72
457.441	5.77
457.797	5.67
458.154	5.55
458.51	5.6
458.867	5.73
459.223	5.67
459.58	5.68
459.936	5.72
460.292	5.59
460.648	5.6
461.005	5.6
461.361	5.59
461.717	5.58
462.073	5.74
462.429	5.76
462.785	5.85
463.141	5.67
463.496	5.89
463.852	5.81
464.208	5.71
464.564	5.74
464.919	5.79
465.275	5.74
465.631	5.98
465.986	5.89
466.342	5.63
466.697	5.96
467.052	5.94
467.408	5.94
467.763	5.75
468.118	5.89
468.473	6.03
468.829	5.75
469.184	5.98
469.539	5.85
469.894	6.06
470.249	6.14
470.603	6.1
470.958	6.05
471.313	5.95
471.668	5.97
472.023	6.13
472.377	6
472.732	6.01
473.086	5.94
473.441	6.01
473.795	6.13
474.15	5.99
474.504	6.11
474.859	5.87
475.213	6.29
475.567	5.94
475.921	6.13
476.275	6.08
476.63	6.17
476.984	5.99
477.338	6.12
477.692	6.11
478.045	6.24
478.399	6.04
478.753	5.98
479.107	6.07
479.461	6.11
479.814	6.07
480.168	6.22
480.521	6.28
480.875	6.19
481.228	6.15
481.582	6.1
481.935	6.24
482.289	6.19
482.642	6.22
482.995	6.15
483.348	6.18
483.701	6.18
484.055	6.1
484.408	6.15
484.761	6
485.114	5.85
485.466	5.81
485.819	5.87
486.172	5.94
486.525	6.02
486.878	6.15
487.23	6.1
487.583	6.15
487.936	6.12
488.288	6.09
488.641	6.07
488.993	6.08
489.345	6.04
489.698	6.07
490.05	6.12
490.402	6.16
490.754	6.21
491.107	6.24
491.459	6.34
491.811	6.39
492.163	6.38
492.515	6.18
492.866	6.15
493.218	6.15
493.57	6.2
493.922	6.27
494.274	6.42
494.625	6.48
494.977	6.44
495.328	6.58
495.68	6.6
496.031	6.52
496.383	6.46
496.734	6.44
497.086	6.64
497.437	6.65
497.788	6.58
498.139	6.47
498.49	6.56
498.842	6.67
499.193	6.49
499.544	6.68
499.894	6.55
500.245	6.59
500.596	6.7
500.947	6.65
501.298	6.69
501.648	6.57
501.999	6.77
502.35	6.55
502.7	6.88
503.051	6.78
503.401	6.87
503.752	6.67
504.102	6.75
504.452	6.78
504.803	6.88
505.153	6.83
505.503	6.69
505.853	6.86
506.203	6.75
506.553	6.83
506.903	6.81
507.253	6.81
507.603	6.86
507.953	6.9
508.303	7.01
508.652	6.7
509.002	6.92
509.352	6.93
509.701	6.77
510.051	6.93
510.4	7.03
510.75	6.88
511.099	6.8
511.449	7.01
511.798	6.88
512.147	6.93
512.496	7.08
512.846	6.89
513.195	6.97
513.544	7.19
513.893	7.13
514.242	7.02
514.591	7.04
514.939	7.05
515.288	7.19
515.637	7.09
515.986	7.15
516.334	7.28
516.683	7.12
517.032	7.12
517.38	7.09
517.729	7.25
518.077	7.14
518.426	7.16
518.774	7.19
519.122	7.17
519.47	7.15
519.819	7.2
520.167	7.09
520.515	7.19
520.863	7.09
521.211	7.15
521.559	7.1
521.907	7.27
522.255	7.31
522.602	7.3
522.95	7.36
523.298	7.35
523.645	7.37
523.993	7.48
524.341	7.38
524.688	7.35
525.036	7.51
525.383	7.43
525.73	7.35
526.078	7.54
526.425	7.39
526.772	7.36
527.119	7.35
527.466	7.46
527.814	7.41
528.161	7.44
528.508	7.48
528.854	7.41
529.201	7.33
529.548	7.3
529.895	7.23
530.242	7.18
530.588	7.26
530.935	7.32
531.282	7.33
531.628	7.44
531.975	7.42
532.321	7.49
532.667	7.56
533.014	7.51
533.36	7.62
533.706	7.57
534.052	7.65
534.399	7.58
534.745	7.51
535.091	7.51
535.437	7.59
535.783	7.66
536.129	7.75
536.474	7.81
536.82	7.82
537.166	7.79
537.512	7.81
537.857	7.79
538.203	7.87
538.549	7.79
538.894	7.81
539.239	7.89
539.585	7.96
539.93	8.05
540.276	8.01
540.621	8.06
540.966	8.03
541.311	8.05
541.656	7.89
542.001	7.95
542.346	7.82
542.691	7.8
543.036	7.79
543.381	7.82
543.726	7.95
544.071	7.96
544.415	7.98
544.76	8.03
545.105	8.05
545.449	8.17
545.794	8.17
546.138	8.21
546.483	8.33
546.827	8.19
547.171	8.31
547.516	8.3
547.86	8.36
548.204	8.26
548.548	8.24
548.892	8.4
549.236	8.32
549.58	8.51
549.924	8.58
550.268	8.62
550.612	8.54
550.956	8.7
551.3	8.62
551.643	8.54
551.987	8.61
552.33	8.89
552.674	8.65
553.017	8.65
553.361	8.52
553.704	8.66
554.048	8.66
554.391	8.81
554.734	8.57
555.077	8.62
555.42	8.85
555.764	8.81
556.107	8.86
556.45	8.83
556.793	8.85
557.135	8.85
557.478	8.82
557.821	9.06
558.164	8.85
558.507	8.86
558.849	9.09
559.192	9.02
559.534	9
559.877	9.1
560.219	8.86
560.562	8.98
560.904	9.26
561.246	9.03
561.589	9.19
561.931	9.14
562.273	8.97
562.615	9.1
562.957	8.99
563.299	9.23
563.641	9.17
563.983	9.01
564.325	9.36
564.667	9.29
565.008	9.19
565.35	9.35
565.692	9.3
566.033	9.26
566.375	9.3
566.716	9.15
567.058	9.35
567.399	9.35
567.741	9.44
568.082	9.31
568.423	9.36
568.764	9.5
569.105	9.38
569.447	9.34
569.788	9.59
570.129	9.51
570.47	9.6
570.811	9.52
571.151	9.57
571.492	9.66
571.833	9.5
572.174	9.84
572.514	9.57
572.855	9.68
573.195	9.67
573.536	9.74
573.876	9.61
574.217	9.65
574.557	9.54
574.898	9.5
575.238	9.75
575.578	9.85
575.918	9.8
576.258	9.92
576.598	9.69
576.938	9.79
577.278	9.96
577.618	9.87
577.958	10.01
578.298	9.96
578.638	9.93
578.977	10.12
579.317	10.05
579.657	9.92
579.996	10.3
580.336	10.26
580.675	10.08
581.014	10.21
581.354	10.11
581.693	10.37
582.032	10.46
582.372	10.16
582.711	10.32
583.05	10.15
583.389	10.57
583.728	10.36
584.067	10.33
584.406	10.39
584.745	10.47
585.083	10.48
585.422	10.68
585.761	10.43
586.1	10.73
586.438	10.57
586.777	10.41
587.115	10.66
587.454	10.14
587.792	10.83
588.13	10.63
588.469	10.43
588.807	10.75
589.145	10.64
589.483	10.33
589.821	10.84
590.159	10.85
590.497	10.76
590.835	10.87
591.173	10.77
591.511	10.84
591.849	10.82
592.187	10.63
592.524	11.02
592.862	10.78
593.2	11.05
593.537	10.88
593.875	10.86
594.212	10.85
594.55	11.11
594.887	11.32
595.224	11.38
595.561	11.18
595.899	11.08
596.236	11.08
596.573	11.14
596.91	11.02
597.247	11.25
597.584	11.2
597.921	11.06
598.258	11.37
598.594	11.13
598.931	10.92
599.268	10.94
599.604	11.19
599.941	11.13
600.277	11.19
600.614	11.28
600.95	11.22
601.287	11.12
601.623	11.01
601.959	11.7
602.296	11.48
602.632	11.51
602.968	11.47
603.304	11.59
603.64	11.51
603.976	11.37
604.312	11.52
604.648	11.49
604.984	11.54
605.319	11.68
605.655	11.31
605.991	11.51
606.326	11.51
606.662	11.49
606.998	11.63
607.333	11.68
607.668	11.58
608.004	11.78
608.339	11.57
608.674	11.88
609.01	11.85
609.345	12.09
609.68	11.92
610.015	12.04
610.35	11.88
610.685	11.94
611.02	11.57
611.355	11.85
611.689	12.02
612.024	11.81
612.359	12
612.694	12.12
613.028	11.8
613.363	12.07
613.697	12.08
614.032	12.3
614.366	12.21
614.7	12.36
615.035	11.83
615.369	12.27
615.703	12.31
616.037	12.41
616.371	12.44
616.705	12.23
617.039	12.26
617.373	12.21
617.707	12.31
618.041	12.46
618.375	11.88
618.709	12.23
619.042	12.28
619.376	12.56
619.71	12.27
620.043	12.45
620.377	12.61
620.71	12.62
621.043	12.83
621.377	12.6
621.71	13.09
622.043	12.71
622.376	12.94
622.709	13.09
623.043	12.74
623.376	12.41
623.709	12.92
624.041	13.03
624.374	12.91
624.707	12.94
625.04	12.73
625.373	12.72
625.705	12.82
626.038	13.03
626.37	12.83
626.703	13.16
627.035	12.83
627.368	13.42
627.7	12.87
628.032	13.21
628.365	13.14
628.697	13.5
629.029	13.14
629.361	13.19
629.693	12.92
630.025	13.41
630.357	13.22
630.689	13.12
631.021	13.47
631.353	13.35
631.684	13.45
632.016	13.05
632.348	13.05
632.679	13.34
633.011	13.27
633.342	13.3
633.674	13.08
634.005	13.38
634.336	13.46
634.668	13.79
634.999	13.32
635.33	13.58
635.661	13.5
635.992	13.57
636.323	13.66
636.654	13.52
636.985	13.65
637.316	13.46
637.647	13.64
637.977	13.68
638.308	13.86
638.639	13.99
638.969	13.96
639.3	13.7
639.63	13.99
639.961	13.59
640.291	13.56
640.622	13.83
640.952	14.09
641.282	13.51
641.612	13.75
641.943	13.83
642.273	13.54
642.603	13.84
642.933	14.07
643.263	14.26
643.592	14.05
643.922	14.73
644.252	14.08
644.582	14.08
644.911	13.74
645.241	14.17
645.571	14.54
645.9	14.12
646.23	14.33
646.559	14.34
646.888	14.8
647.218	14.45
647.547	14.54
647.876	14.31
648.205	13.83
648.534	14.5
648.863	14.18
649.192	14.92
649.521	14.47
649.85	14.93
650.179	14.43
650.508	14.31
650.837	14.48
651.165	14.1
651.494	14.45
651.822	15.37
652.151	14.54
652.479	14.96
652.808	14.27
653.136	14.53
653.465	14.71
653.793	14.77
654.121	14.75
654.449	14.46
654.777	14.65
655.105	14.82
655.433	15.02
655.761	15.06
656.089	15.15
656.417	15.54
656.745	15.23
657.073	14.6
657.4	15.33
657.728	14.88
658.056	14.86
658.383	15
658.711	15.51
659.038	15.45
659.365	15.18
659.693	15.54
660.02	15.43
660.347	14.97
660.674	15.05
661.001	14.76
661.329	14.92
661.656	14.84
661.982	15.03
662.309	15.25
662.636	15.29
662.963	15.12
663.29	15.14
663.616	15.04
663.943	15.51
664.27	14.91
664.596	15.48
664.923	15.4
665.249	15.74
665.576	15.32
665.902	15.57
666.228	15.45
666.554	16.12
666.881	15.33
667.207	16.1
667.533	15.5
667.859	15.54
668.185	15.65
668.511	15.87
668.837	15.07
669.162	15.46
669.488	15.46
669.814	15.51
670.139	15.42
670.465	15.98
670.791	15.42
671.116	15.57
671.442	15.01
671.767	15.6
672.092	15.83
672.418	15.88
672.743	16.03
673.068	15.49
673.393	15.83
673.718	15.54
674.043	15.7
674.368	16.3
674.693	16.12
675.018	16.31
675.343	16.66
675.667	15.53
675.992	16.3
676.317	15.55
676.641	16.55
676.966	16.59
677.29	15.93
677.615	16.1
677.939	16.22
678.264	16.05
678.588	16.3
678.912	16.16
679.236	16.29
679.56	15.91
679.885	16.15
680.209	16.61
680.532	16.73
680.856	16.57
681.18	16.39
681.504	16.59
681.828	16.5
682.152	15.99
682.475	16.55
682.799	16.04
683.122	16.89
683.446	15.97
683.769	17.02
684.093	16.76
684.416	16.26
684.739	16.82
