Data from 2019-21_crown_Reflection__4__433.txt Node

Date: Thu Dec 15 20:19:01 CST 2022
User: ToomeyLab
Spectrometer: FLMS14357
Trigger mode: 0
Integration Time (sec): 1.000000E-2
Scans to average: 100
Electric dark correction enabled: true
Nonlinearity correction enabled: false
Boxcar width: 0
XAxis mode: Wavelengths
Number of Pixels in Spectrum: 2048
>>>>>Begin Spectral Data<<<<<
189.047	85.64
189.435	85.64
189.823	85.64
190.211	-62.24
190.599	501.65
190.987	-675.81
191.375	18.51
191.763	477.94
192.151	-43.37
192.538	116.58
192.926	-147.8
193.314	-81.84
193.702	22.62
194.089	-33.3
194.477	91.37
194.864	109.42
195.252	216.39
195.639	72.54
196.027	109.6
196.414	189.93
196.801	75.18
197.189	95.78
197.576	-122.22
197.963	90.35
198.351	-20.06
198.738	-39.87
199.125	-85.5
199.512	23.47
199.899	-48.29
200.286	-70.73
200.673	29.85
201.06	-36.88
201.447	-12.36
201.833	-77.19
202.22	-37.95
202.607	-22.77
202.994	-18.82
203.38	19.7
203.767	-4.61
204.154	-9.83
204.54	-7.2
204.927	16.9
205.313	22.24
205.699	42.47
206.086	13.87
206.472	5.26
206.858	3.19
207.245	-26.57
207.631	-9.26
208.017	14.65
208.403	-53.92
208.789	-16.83
209.175	-5.29
209.561	-148.93
209.947	-23.11
210.333	-22.19
210.719	13.91
211.105	40.74
211.491	-25.28
211.876	-87.58
212.262	-19.57
212.648	-19.82
213.034	-63.21
213.419	-27.33
213.805	-21.02
214.19	-50.68
214.576	-20.35
214.961	-3.73
215.346	-12.08
215.732	5.54
216.117	-7.28
216.502	-25.27
216.888	15.14
217.273	-13.64
217.658	0.72
218.043	9.36
218.428	-32.04
218.813	-25.96
219.198	-15.14
219.583	-37.47
219.968	-12.76
220.353	-32.27
220.738	-1.47
221.122	-26.74
221.507	-40.8
221.892	-39.45
222.276	-32.22
222.661	-19.33
223.046	-23.1
223.43	11.24
223.815	6.87
224.199	7.27
224.583	0.72
224.968	-5.8
225.352	-8.15
225.736	9.63
226.121	-0.28
226.505	4.36
226.889	0.54
227.273	1.18
227.657	5.64
228.041	6.02
228.425	4.52
228.809	6.27
229.193	7.53
229.577	8.36
229.961	8.41
230.344	8.92
230.728	9.54
231.112	8.64
231.495	7.72
231.879	8.19
232.263	8.91
232.646	9.2
233.03	9.8
233.413	7.23
233.797	6.17
234.18	5.42
234.563	7.14
234.946	7.05
235.33	7.59
235.713	8.19
236.096	8.62
236.479	7.96
236.862	5.37
237.245	7.57
237.628	6.68
238.011	8.79
238.394	6.28
238.777	6.13
239.16	8.12
239.543	7.52
239.925	6.78
240.308	7.63
240.691	7.06
241.073	7.32
241.456	8.61
241.838	7.85
242.221	8.52
242.603	8.23
242.986	8.4
243.368	7.89
243.75	8.05
244.133	8.01
244.515	7.84
244.897	7.66
245.279	7.48
245.661	7.33
246.043	8.14
246.425	7.46
246.807	6.94
247.189	7.34
247.571	7.45
247.953	7.74
248.335	7.7
248.717	7.97
249.098	7.75
249.48	7.41
249.862	8.02
250.243	7.66
250.625	7.92
251.006	8.05
251.388	7.22
251.769	6.7
252.151	7.5
252.532	7
252.913	7.56
253.295	7.2
253.676	7.21
254.057	7.32
254.438	7.12
254.819	7.62
255.2	7.54
255.581	7.6
255.962	7.92
256.343	7.31
256.724	6.41
257.105	7.03
257.486	6.31
257.867	7.13
258.247	6.92
258.628	7.48
259.009	6.96
259.389	5.95
259.77	7.14
260.15	7.71
260.531	7.4
260.911	7.32
261.292	7.04
261.672	7.11
262.052	7.26
262.432	7.04
262.813	6.95
263.193	7.12
263.573	6.74
263.953	6.74
264.333	6.88
264.713	7.5
265.093	6.33
265.473	7.23
265.853	6.9
266.233	5.95
266.612	6.58
266.992	6.58
267.372	7.3
267.752	7.38
268.131	6.69
268.511	6.56
268.89	7.02
269.27	6.58
269.649	7.17
270.029	6.77
270.408	6.81
270.787	7.17
271.167	7.04
271.546	7.11
271.925	6.44
272.304	6.63
272.683	6.61
273.062	6.86
273.441	6.68
273.82	6.72
274.199	6.72
274.578	7.01
274.957	6.62
275.336	6.68
275.715	6.98
276.093	5.97
276.472	6.32
276.851	6.45
277.229	6.52
277.608	6.77
277.986	6.71
278.365	7.09
278.743	6.73
279.122	6.28
279.5	6.36
279.878	6.43
280.257	6.91
280.635	6.67
281.013	5.63
281.391	6.55
281.769	6.6
282.147	6.82
282.525	6.13
282.903	6.38
283.281	6.78
283.659	7.27
284.037	6.49
284.415	6.2
284.792	6.45
285.17	6.13
285.548	6.25
285.925	6.32
286.303	6.68
286.68	6.57
287.058	6.45
287.435	6.37
287.813	6.33
288.19	6.3
288.567	6.63
288.945	6.31
289.322	6.46
289.699	6.14
290.076	5.94
290.453	6.3
290.83	6.6
291.207	6.29
291.584	6.42
291.961	6.29
292.338	6.08
292.715	6.36
293.092	6.29
293.469	6.3
293.845	6.45
294.222	6.43
294.599	5.8
294.975	5.91
295.352	6.57
295.728	6.53
296.105	5.97
296.481	6.08
296.858	6.36
297.234	5.89
297.61	6.25
297.986	6.48
298.363	6.26
298.739	6.55
299.115	6.23
299.491	6.56
299.867	5.78
300.243	5.82
300.619	5.98
300.995	6.46
301.371	6.44
301.746	6.08
302.122	5.49
302.498	5.94
302.874	6.07
303.249	6.21
303.625	6.02
304	6.16
304.376	6.58
304.751	6.13
305.127	5.91
305.502	5.65
305.878	6.21
306.253	6.05
306.628	5.55
307.003	6.1
307.378	6.09
307.754	5.9
308.129	5.89
308.504	6.23
308.879	5.68
309.254	6.35
309.629	6.03
310.003	5.73
310.378	6.18
310.753	6.28
311.128	6.2
311.502	6.26
311.877	5.84
312.252	6.13
312.626	6.24
313.001	6
313.375	6.19
313.75	6.15
314.124	6.19
314.498	6.32
314.873	5.98
315.247	6.16
315.621	5.95
315.995	6.28
316.369	5.65
316.743	5.72
317.117	6.12
317.491	6.23
317.865	5.54
318.239	6.09
318.613	6.05
318.987	5.26
319.361	5.51
319.734	5.66
320.108	5.68
320.482	6.07
320.855	5.66
321.229	5.81
321.602	6.05
321.976	4.97
322.349	6.66
322.723	5.9
323.096	6.12
323.469	6.2
323.843	5.69
324.216	5.6
324.589	6.26
324.962	5.77
325.335	5.9
325.708	5.69
326.081	6.14
326.454	6.23
326.827	5.75
327.2	5.51
327.573	6.03
327.945	5.8
328.318	5.82
328.691	6.15
329.063	5.67
329.436	5.36
329.809	5.92
330.181	6.07
330.553	6.57
330.926	6.22
331.298	5.64
331.671	5.49
332.043	5.69
332.415	5.55
332.787	5.96
333.159	5.33
333.532	5.57
333.904	5.99
334.276	5.71
334.648	6.12
335.02	5.85
335.391	5.27
335.763	5.55
336.135	5.9
336.507	5.81
336.879	5.95
337.25	6.21
337.622	5.75
337.993	5.77
338.365	5.78
338.736	5.64
339.108	5.35
339.479	5.8
339.851	5.64
340.222	6.34
340.593	5.95
340.964	5.69
341.336	5.38
341.707	5.45
342.078	5.6
342.449	6.06
342.82	5.84
343.191	5.76
343.562	6.11
343.933	5.26
344.303	5.92
344.674	5.91
345.045	5.74
345.416	5.87
345.786	5.6
346.157	6.04
346.527	5.48
346.898	5.31
347.268	5.51
347.639	5.63
348.009	5.74
348.38	5.5
348.75	5.78
349.12	6.13
349.49	5.38
349.861	5.94
350.231	5.75
350.601	5.81
350.971	5.92
351.341	6.2
351.711	6
352.081	5.71
352.45	5.59
352.82	5.43
353.19	5.6
353.56	5.81
353.929	5.85
354.299	5.77
354.669	5.67
355.038	6.19
355.408	6.02
355.777	6.19
356.147	6.23
356.516	5.5
356.885	5.99
357.254	5.73
357.624	5.46
357.993	5.68
358.362	5.9
358.731	6.11
359.1	5.97
359.469	6.04
359.838	5.93
360.207	5.56
360.576	5.75
360.945	5.91
361.314	5.67
361.682	5.73
362.051	6
362.42	5.87
362.788	5.97
363.157	5.77
363.525	5.99
363.894	5.73
364.262	5.85
364.631	6.29
364.999	5.86
365.367	5.96
365.735	5.78
366.104	5.88
366.472	5.84
366.84	6.01
367.208	6.16
367.576	5.8
367.944	5.95
368.312	5.85
368.68	6.06
369.048	5.78
369.416	5.71
369.783	5.57
370.151	6.23
370.519	6.28
370.886	6.15
371.254	5.85
371.621	5.94
371.989	6.11
372.356	6.09
372.724	5.79
373.091	5.99
373.458	5.68
373.826	6.07
374.193	5.59
374.56	5.85
374.927	5.62
375.294	6.24
375.661	5.97
376.028	5.93
376.395	6.12
376.762	5.82
377.129	5.73
377.496	6.06
377.863	5.96
378.229	6.19
378.596	6.01
378.963	6.16
379.329	6.15
379.696	6.02
380.062	6.2
380.429	5.81
380.795	6.31
381.161	5.88
381.528	5.82
381.894	6.02
382.26	6.13
382.626	6.15
382.993	6.24
383.359	5.69
383.725	5.81
384.091	6.14
384.457	6.04
384.823	6.02
385.188	6.03
385.554	6.03
385.92	6.17
386.286	5.87
386.651	6.04
387.017	6.17
387.383	5.75
387.748	6.02
388.114	6.07
388.479	6.03
388.845	5.75
389.21	6.18
389.575	6.42
389.94	6.01
390.306	6.18
390.671	5.7
391.036	5.92
391.401	6.22
391.766	5.83
392.131	6.24
392.496	5.94
392.861	6.1
393.226	5.96
393.591	6.16
393.956	6.02
394.32	6.32
394.685	6.12
395.05	6.02
395.414	6.17
395.779	6.16
396.143	6.07
396.508	6.02
396.872	6.12
397.236	6.36
397.601	6.26
397.965	6.31
398.329	6.28
398.694	5.88
399.058	6.24
399.422	6.14
399.786	6.19
400.15	6.16
400.514	6.09
400.878	6.19
401.242	6.27
401.605	6.2
401.969	6.23
402.333	5.85
402.697	6.3
403.06	6.09
403.424	6.09
403.787	6.18
404.151	6
404.514	6.18
404.878	6.06
405.241	6.27
405.604	6.08
405.968	6.42
406.331	6.36
406.694	6.18
407.057	6.13
407.42	5.95
407.783	6.14
408.146	6.25
408.509	6.21
408.872	6.14
409.235	6.23
409.598	6.21
409.961	6.11
410.323	5.98
410.686	5.96
411.049	6.04
411.411	6.2
411.774	6.25
412.136	6.14
412.499	6.25
412.861	5.87
413.223	6.06
413.586	6.4
413.948	6.42
414.31	6.29
414.672	6.16
415.035	6.31
415.397	6.12
415.759	6.03
416.121	6.27
416.483	6.2
416.845	6.39
417.206	6.22
417.568	6.14
417.93	6.34
418.292	6
418.653	6.04
419.015	6.14
419.377	6.19
419.738	6.3
420.1	6.15
420.461	6.1
420.822	6.22
421.184	6.16
421.545	6.19
421.906	6.15
422.267	6.17
422.629	6.11
422.99	6.05
423.351	6.06
423.712	6.19
424.073	6.19
424.434	6.21
424.795	6.1
425.155	6.16
425.516	6.11
425.877	6.18
426.238	6.06
426.598	6.19
426.959	6.28
427.32	6.12
427.68	6.29
428.041	6.25
428.401	6.2
428.761	6.26
429.122	6.32
429.482	6.23
429.842	6.21
430.202	6.25
430.563	6.18
430.923	6.27
431.283	6.35
431.643	6.37
432.003	6.1
432.363	6.34
432.722	6.28
433.082	6.29
433.442	6.34
433.802	6.34
434.161	6.23
434.521	6.3
434.881	6.41
435.24	6.24
435.6	6.21
435.959	6.34
436.319	6.39
436.678	6.39
437.037	6.26
437.396	6.32
437.756	6.16
438.115	6.3
438.474	6.46
438.833	6.31
439.192	6.37
439.551	6.19
439.91	6.28
440.269	6.27
440.628	6.16
440.987	6.34
441.345	6.32
441.704	6.33
442.063	6.23
442.421	6.24
442.78	6.3
443.138	6.21
443.497	6.08
443.855	6.18
444.214	6.07
444.572	6.27
444.93	6.3
445.288	6.32
445.647	6.13
446.005	6.32
446.363	6.24
446.721	6.28
447.079	6.19
447.437	6.23
447.795	6.28
448.153	6.22
448.51	6.2
448.868	6.09
449.226	6.27
449.584	6.25
449.941	6.2
450.299	6.14
450.656	6.3
451.014	6.18
451.371	6.4
451.729	6.36
452.086	6.32
452.443	6.39
452.801	6.3
453.158	6.37
453.515	6.14
453.872	6.31
454.229	6.18
454.586	6.31
454.943	6.32
455.3	6.25
455.657	6.1
456.014	6.23
456.371	6.34
456.727	6.46
457.084	6.31
457.441	6.3
457.797	6.25
458.154	6.32
458.51	6.13
458.867	6.23
459.223	6.27
459.58	6.24
459.936	6.23
460.292	6.28
460.648	6.14
461.005	6.16
461.361	6.1
461.717	6.19
462.073	6.31
462.429	6.27
462.785	6.42
463.141	6.19
463.496	6.36
463.852	6.43
464.208	6.29
464.564	6.32
464.919	6.34
465.275	6.27
465.631	6.43
465.986	6.26
466.342	6.22
466.697	6.33
467.052	6.42
467.408	6.23
467.763	6.32
468.118	6.2
468.473	6.29
468.829	6.21
469.184	6.29
469.539	6.16
469.894	6.35
470.249	6.31
470.603	6.49
470.958	6.4
471.313	6.32
471.668	6.19
472.023	6.44
472.377	6.34
472.732	6.42
473.086	6.37
473.441	6.39
473.795	6.61
474.15	6.33
474.504	6.41
474.859	6.18
475.213	6.31
475.567	6.29
475.921	6.44
476.275	6.45
476.63	6.33
476.984	6.24
477.338	6.41
477.692	6.38
478.045	6.43
478.399	6.27
478.753	6.25
479.107	6.35
479.461	6.28
479.814	6.38
480.168	6.33
480.521	6.38
480.875	6.35
481.228	6.44
481.582	6.28
481.935	6.5
482.289	6.38
482.642	6.46
482.995	6.24
483.348	6.3
483.701	6.27
484.055	6.26
484.408	6.24
484.761	6.08
485.114	6.02
485.466	6
485.819	6
486.172	6
486.525	6.02
486.878	6.08
487.23	6.09
487.583	6.18
487.936	6.07
488.288	6.13
488.641	6.11
488.993	6.12
489.345	6.08
489.698	6.11
490.05	6.08
490.402	6.15
490.754	6.08
491.107	6.16
491.459	6.3
491.811	6.21
492.163	6.18
492.515	6.13
492.866	6.16
493.218	6.09
493.57	6.16
493.922	6.09
494.274	6.2
494.625	6.28
494.977	6.22
495.328	6.38
495.68	6.25
496.031	6.3
496.383	6.33
496.734	6.26
497.086	6.41
497.437	6.33
497.788	6.48
498.139	6.28
498.49	6.36
498.842	6.4
499.193	6.27
499.544	6.34
499.894	6.23
500.245	6.33
500.596	6.35
500.947	6.25
501.298	6.23
501.648	6.35
501.999	6.45
502.35	6.25
502.7	6.47
503.051	6.35
503.401	6.44
503.752	6.19
504.102	6.32
504.452	6.33
504.803	6.3
505.153	6.45
505.503	6.36
505.853	6.45
506.203	6.41
506.553	6.31
506.903	6.37
507.253	6.33
507.603	6.36
507.953	6.33
508.303	6.37
508.652	6.27
509.002	6.36
509.352	6.33
509.701	6.34
510.051	6.37
510.4	6.4
510.75	6.25
511.099	6.15
511.449	6.4
511.798	6.29
512.147	6.29
512.496	6.31
512.846	6.39
513.195	6.35
513.544	6.4
513.893	6.3
514.242	6.24
514.591	6.32
514.939	6.31
515.288	6.37
515.637	6.33
515.986	6.36
516.334	6.37
516.683	6.5
517.032	6.41
517.38	6.34
517.729	6.36
518.077	6.27
518.426	6.44
518.774	6.36
519.122	6.29
519.47	6.36
519.819	6.33
520.167	6.24
520.515	6.32
520.863	6.24
521.211	6.28
521.559	6.25
521.907	6.38
522.255	6.41
522.602	6.32
522.95	6.38
523.298	6.44
523.645	6.41
523.993	6.39
524.341	6.38
524.688	6.35
525.036	6.27
525.383	6.31
525.73	6.32
526.078	6.42
526.425	6.38
526.772	6.31
527.119	6.31
527.466	6.37
527.814	6.33
528.161	6.4
528.508	6.36
528.854	6.32
529.201	6.23
529.548	6.15
529.895	6.14
530.242	6.1
530.588	6.08
530.935	6.13
531.282	6.05
531.628	6.13
531.975	6.16
532.321	6.26
532.667	6.3
533.014	6.31
533.36	6.27
533.706	6.3
534.052	6.27
534.399	6.25
534.745	6.17
535.091	6.12
535.437	6.23
535.783	6.17
536.129	6.21
536.474	6.3
536.82	6.3
537.166	6.23
537.512	6.33
537.857	6.31
538.203	6.24
538.549	6.23
538.894	6.26
539.239	6.34
539.585	6.36
539.93	6.4
540.276	6.32
540.621	6.35
540.966	6.35
541.311	6.37
541.656	6.29
542.001	6.27
542.346	6.2
542.691	6.23
543.036	6.15
543.381	6.14
543.726	6.21
544.071	6.18
544.415	6.12
544.76	6.22
545.105	6.24
545.449	6.31
545.794	6.34
546.138	6.27
546.483	6.34
546.827	6.11
547.171	6.29
547.516	6.32
547.86	6.38
548.204	6.3
548.548	6.41
548.892	6.32
549.236	6.25
549.58	6.31
549.924	6.47
550.268	6.39
550.612	6.42
550.956	6.39
551.3	6.46
551.643	6.22
551.987	6.51
552.33	6.54
552.674	6.42
553.017	6.47
553.361	6.53
553.704	6.55
554.048	6.4
554.391	6.4
554.734	6.41
555.077	6.38
555.42	6.44
555.764	6.34
556.107	6.51
556.45	6.45
556.793	6.48
557.135	6.52
557.478	6.42
557.821	6.45
558.164	6.44
558.507	6.32
558.849	6.57
559.192	6.51
559.534	6.37
559.877	6.38
560.219	6.5
560.562	6.35
560.904	6.51
561.246	6.39
561.589	6.58
561.931	6.37
562.273	6.49
562.615	6.42
562.957	6.45
563.299	6.5
563.641	6.52
563.983	6.37
564.325	6.34
564.667	6.5
565.008	6.45
565.35	6.33
565.692	6.35
566.033	6.29
566.375	6.37
566.716	6.35
567.058	6.46
567.399	6.44
567.741	6.53
568.082	6.35
568.423	6.39
568.764	6.48
569.105	6.45
569.447	6.28
569.788	6.45
570.129	6.57
570.47	6.28
570.811	6.33
571.151	6.51
571.492	6.39
571.833	6.39
572.174	6.53
572.514	6.56
572.855	6.55
573.195	6.35
573.536	6.5
573.876	6.31
574.217	6.38
574.557	6.41
574.898	6.26
575.238	6.62
575.578	6.45
575.918	6.51
576.258	6.6
576.598	6.3
576.938	6.27
577.278	6.5
577.618	6.39
577.958	6.58
578.298	6.39
578.638	6.46
578.977	6.45
579.317	6.63
579.657	6.34
579.996	6.43
580.336	6.48
580.675	6.57
581.014	6.63
581.354	6.27
581.693	6.68
582.032	6.57
582.372	6.44
582.711	6.66
583.05	6.44
583.389	6.44
583.728	6.63
584.067	6.47
584.406	6.46
584.745	6.24
585.083	6.5
585.422	6.42
585.761	6.47
586.1	6.59
586.438	6.2
586.777	6.46
587.115	6.51
587.454	6.26
587.792	6.53
588.13	6.39
588.469	6.27
588.807	6.67
589.145	6.49
589.483	6.27
589.821	6.4
590.159	6.53
590.497	6.43
590.835	6.46
591.173	6.41
591.511	6.67
591.849	6.47
592.187	6.43
592.524	6.53
592.862	6.46
593.2	6.36
593.537	6.22
593.875	6.28
594.212	6.49
594.55	6.32
594.887	6.55
595.224	6.41
595.561	6.38
595.899	6.52
596.236	6.59
596.573	6.45
596.91	6.41
597.247	6.52
597.584	6.38
597.921	6.4
598.258	6.73
598.594	6.25
598.931	6.24
599.268	6.25
599.604	6.45
599.941	6.34
600.277	6.35
600.614	6.42
600.95	6.54
601.287	6.11
601.623	6.23
601.959	6.8
602.296	6.49
602.632	6.44
602.968	6.41
603.304	6.43
603.64	6.48
603.976	6.28
604.312	6.38
604.648	6.32
604.984	6.57
605.319	6.38
605.655	6.27
605.991	6.39
606.326	6.27
606.662	6.36
606.998	6.5
607.333	6.45
607.668	6.17
608.004	6.09
608.339	6.38
608.674	6.4
609.01	6.46
609.345	6.53
609.68	6.21
610.015	6.63
610.35	6.28
610.685	5.97
611.02	6.24
611.355	6.4
611.689	6.28
612.024	6.42
612.359	6.52
612.694	6.36
613.028	6.31
613.363	6.3
613.697	6.42
614.032	6.38
614.366	6.4
614.7	6.37
615.035	6.27
615.369	6.4
615.703	6.21
616.037	6.25
616.371	6.48
616.705	6.43
617.039	6.44
617.373	6.69
617.707	6.23
618.041	6.07
618.375	5.96
618.709	6.4
619.042	6.54
619.376	6.4
619.71	6.1
620.043	6.5
620.377	6.43
620.71	6.32
621.043	6.42
621.377	6.41
621.71	6.56
622.043	6.65
622.376	6.42
622.709	6.7
623.043	6.23
623.376	6.12
623.709	6.34
624.041	6.42
624.374	6.66
624.707	6.3
625.04	6.26
625.373	6.48
625.705	6.58
626.038	6.21
626.37	6.29
626.703	6.34
627.035	6.42
627.368	6.38
627.7	6.63
628.032	6.48
628.365	6.57
628.697	6.6
629.029	6.38
629.361	6.59
629.693	6.35
630.025	6.19
630.357	6.48
630.689	6.31
631.021	6.44
631.353	6.37
631.684	6.13
632.016	5.97
632.348	6.49
632.679	6.6
633.011	6.38
633.342	6.11
633.674	6.08
634.005	6.14
634.336	6.58
634.668	6.18
634.999	6.23
635.33	6.69
635.661	6.21
635.992	6.41
636.323	6.6
636.654	6.33
636.985	6.43
637.316	6.26
637.647	6.51
637.977	6.39
638.308	6.36
638.639	6.2
638.969	6.31
639.3	6.09
639.63	6.23
639.961	6.03
640.291	6.22
640.622	6.36
640.952	6.45
641.282	5.89
641.612	6.15
641.943	6.21
642.273	6.22
642.603	6.71
642.933	6.49
643.263	6.18
643.592	6.29
643.922	7.06
644.252	6.24
644.582	6.36
644.911	6.18
645.241	6.09
645.571	6.49
645.9	6.67
646.23	6.45
646.559	6.07
646.888	6.72
647.218	6.14
647.547	6.37
647.876	6.68
648.205	6.19
648.534	6.23
648.863	6
649.192	6.23
649.521	6.4
649.85	6.35
650.179	6.85
650.508	6.31
650.837	6.04
651.165	6.54
651.494	6.45
651.822	6.43
652.151	6.24
652.479	6.62
652.808	6.31
653.136	5.94
653.465	5.96
653.793	6.53
654.121	6.21
654.449	5.89
654.777	6
655.105	5.79
655.433	6.84
655.761	5.86
656.089	6.35
656.417	6.7
656.745	7.06
657.073	6.28
657.4	5.85
657.728	5.44
658.056	6.17
658.383	5.99
658.711	6.55
659.038	6.5
659.365	6.44
659.693	6.24
660.02	6.26
660.347	6.24
660.674	6.24
661.001	6.31
661.329	6.41
661.656	5.96
661.982	6.18
662.309	6.38
662.636	6.14
662.963	6.19
663.29	6.52
663.616	5.68
663.943	6.28
664.27	6.27
664.596	5.78
664.923	6.2
665.249	6.5
665.576	5.85
665.902	6.07
666.228	7
666.554	6.67
666.881	5.79
667.207	6.44
667.533	5.91
667.859	6.09
668.185	6.01
668.511	6.55
668.837	6.27
669.162	6.02
669.488	5.58
669.814	6.17
670.139	6.24
670.465	6.07
670.791	6.13
671.116	6.19
671.442	5.38
671.767	6.27
672.092	6.01
672.418	6.46
672.743	5.91
673.068	5.64
673.393	6.62
673.718	5.86
674.043	6.2
674.368	5.91
674.693	6.1
675.018	6.78
675.343	6.2
675.667	6.27
675.992	6.35
676.317	5.83
676.641	6
676.966	5.81
677.29	5.91
677.615	5.84
677.939	6.24
678.264	6.01
678.588	6.22
678.912	6.26
679.236	5.88
679.56	5.77
679.885	5.81
680.209	6.52
680.532	5.92
680.856	6.08
681.18	6.31
681.504	5.67
681.828	6
682.152	6.36
682.475	6.13
682.799	6.23
683.122	6.55
683.446	5.42
683.769	6.14
684.093	6.15
684.416	5.88
684.739	6.02
685.062	5.87
685.386	6.5
685.709	6.48
686.032	6.29
686.355	5.83
686.678	6.47
687.001	6.67
687.324	6.44
687.646	5.81
687.969	5.98
688.292	5.82
688.614	6.69
688.937	6.8
689.26	6.39
689.582	5.89
689.904	6.57
690.227	6.25
690.549	6.25
690.871	6.15
691.194	5.2
691.516	6.24
691.838	6.08
692.16	5.54
