Data from 0404_chest_Reflection__0__91.txt Node

Date: Fri Dec 15 17:17:39 CST 2023
User: ToomeyLab
Spectrometer: FLMS14357
Trigger mode: 0
Integration Time (sec): 1.000000E-2
Scans to average: 100
Electric dark correction enabled: true
Nonlinearity correction enabled: false
Boxcar width: 0
XAxis mode: Wavelengths
Number of Pixels in Spectrum: 2048
>>>>>Begin Spectral Data<<<<<
189.047	-49.53
189.435	-49.53
189.823	-49.53
190.211	107.78
190.599	85.9
190.987	285.35
191.375	20.08
191.763	7.66
192.151	22.15
192.538	54.54
192.926	27.25
193.314	390.88
193.702	-264.71
194.089	604
194.477	84.43
194.864	-392.02
195.252	88.86
195.639	104.5
196.027	-26.33
196.414	147.62
196.801	346.93
197.189	79.59
197.576	6.97
197.963	-231.06
198.351	-5.35
198.738	-26.49
199.125	-9.87
199.512	-61.99
199.899	47.02
200.286	5.01
200.673	30.78
201.06	-65.01
201.447	-0.04
201.833	11.67
202.22	27.89
202.607	42.53
202.994	-8.95
203.38	1.56
203.767	24.06
204.154	8.71
204.54	40.53
204.927	-61.42
205.313	-28.18
205.699	17.22
206.086	48.58
206.472	21.71
206.858	42.89
207.245	-32.45
207.631	21.03
208.017	1.68
208.403	3.14
208.789	34.01
209.175	44.55
209.561	-7.19
209.947	-9.79
210.333	-27.87
210.719	4.88
211.105	27.53
211.491	-18.23
211.876	-6.56
212.262	11.2
212.648	-8.19
213.034	19.03
213.419	-23.82
213.805	-20.79
214.19	-2.17
214.576	4.65
214.961	7.79
215.346	-97.21
215.732	-5.82
216.117	-0.13
216.502	27.95
216.888	15.22
217.273	24.99
217.658	6.16
218.043	23.23
218.428	-29.12
218.813	-10.09
219.198	-20.34
219.583	17.55
219.968	35.76
220.353	2.62
220.738	43.02
221.122	-5.08
221.507	-44.72
221.892	-45.83
222.276	-45.23
222.661	-25.24
223.046	13.82
223.43	10.4
223.815	-1.26
224.199	1.06
224.583	-7.61
224.968	-14.22
225.352	0.77
225.736	3.18
226.121	-11.12
226.505	3.99
226.889	16.11
227.273	-2.9
227.657	10.88
228.041	3.39
228.425	1.38
228.809	4.44
229.193	2.33
229.577	1.94
229.961	1.76
230.344	2.56
230.728	2.03
231.112	2.22
231.495	1.16
231.879	-0.47
232.263	1.51
232.646	2.5
233.03	1.48
233.413	0.35
233.797	1.98
234.18	2.76
234.563	3.78
234.946	-0.2
235.33	3.2
235.713	2.52
236.096	3.08
236.479	3.08
236.862	0.99
237.245	2.44
237.628	2.7
238.011	3.55
238.394	1.89
238.777	3.05
239.16	2.89
239.543	3.74
239.925	3.97
240.308	2.14
240.691	5.08
241.073	3.2
241.456	3.17
241.838	0.67
242.221	1.39
242.603	2.97
242.986	3.69
243.368	2.87
243.75	2.59
244.133	1.83
244.515	2.15
244.897	2.5
245.279	2.08
245.661	1.63
246.043	2.25
246.425	0.47
246.807	3.63
247.189	3.14
247.571	2.76
247.953	2.91
248.335	2.27
248.717	1.81
249.098	2.12
249.48	2.32
249.862	2.11
250.243	2.42
250.625	1.84
251.006	2.43
251.388	1.6
251.769	2.69
252.151	1.84
252.532	2.61
252.913	1.73
253.295	1.69
253.676	1.88
254.057	2.04
254.438	2.48
254.819	1.47
255.2	1.22
255.581	2.58
255.962	0.49
256.343	2.58
256.724	1.13
257.105	2.09
257.486	2.5
257.867	1.45
258.247	1.76
258.628	1.96
259.009	1
259.389	1.67
259.77	1.52
260.15	1.99
260.531	1.34
260.911	2.84
261.292	2.29
261.672	2.38
262.052	2.07
262.432	2.4
262.813	2.22
263.193	1.79
263.573	1.21
263.953	2.1
264.333	3.18
264.713	2.54
265.093	1.99
265.473	2.67
265.853	1.17
266.233	2.46
266.612	-0.81
266.992	0.81
267.372	2.08
267.752	1.78
268.131	1.56
268.511	3.04
268.89	2.65
269.27	1.27
269.649	1.38
270.029	1.23
270.408	3.3
270.787	2.4
271.167	3.02
271.546	2.34
271.925	2.23
272.304	2.24
272.683	2.03
273.062	1.82
273.441	2.35
273.82	0.96
274.199	2.1
274.578	1.98
274.957	1.57
275.336	1.87
275.715	2.01
276.093	2.06
276.472	2.22
276.851	1.83
277.229	1
277.608	1.44
277.986	1.74
278.365	2.33
278.743	1.87
279.122	2.25
279.5	1.75
279.878	2.31
280.257	2.3
280.635	1.84
281.013	1.95
281.391	2.34
281.769	1.95
282.147	1.82
282.525	2.32
282.903	1.57
283.281	2
283.659	2.29
284.037	1.95
284.415	2.18
284.792	2.77
285.17	1.25
285.548	1.66
285.925	2.48
286.303	2.2
286.68	1.85
287.058	2.28
287.435	2.33
287.813	2.21
288.19	1.89
288.567	2.25
288.945	2.14
289.322	1.87
289.699	1.97
290.076	2.58
290.453	1.53
290.83	1.37
291.207	2.2
291.584	2.47
291.961	2.28
292.338	1.83
292.715	2.36
293.092	1.95
293.469	1.87
293.845	2.22
294.222	1.51
294.599	1.46
294.975	1.8
295.352	2.78
295.728	1.77
296.105	1.75
296.481	2.75
296.858	1.67
297.234	1.33
297.61	1.94
297.986	1.99
298.363	2.44
298.739	2.05
299.115	2.28
299.491	2.29
299.867	2.18
300.243	1.95
300.619	1.97
300.995	1.89
301.371	2.11
301.746	1.77
302.122	2.46
302.498	2.13
302.874	1.91
303.249	2.36
303.625	2.68
304	2.63
304.376	2.11
304.751	1.87
305.127	3.6
305.502	1.12
305.878	1.33
306.253	2.36
306.628	2.9
307.003	2.65
307.378	2.52
307.754	2.62
308.129	1.71
308.504	2.34
308.879	2.1
309.254	3.17
309.629	3.15
310.003	2.65
310.378	2.88
310.753	2.44
311.128	1.79
311.502	2.24
311.877	2.82
312.252	2.01
312.626	2.18
313.001	2.37
313.375	2.34
313.75	2.16
314.124	2.75
314.498	2.43
314.873	2.49
315.247	2.52
315.621	2.61
315.995	1.91
316.369	2.38
316.743	2.24
317.117	2.77
317.491	2.4
317.865	2.35
318.239	2.89
318.613	3.01
318.987	2.7
319.361	1.86
319.734	2.9
320.108	2.4
320.482	2.49
320.855	2.96
321.229	2.13
321.602	1.65
321.976	2.9
322.349	2.32
322.723	2.51
323.096	3.09
323.469	1.87
323.843	2.6
324.216	2.96
324.589	3.04
324.962	2.06
325.335	2.52
325.708	2.98
326.081	2.78
326.454	2.67
326.827	2.52
327.2	2.51
327.573	3.03
327.945	2.41
328.318	1.94
328.691	2.33
329.063	3.01
329.436	2.81
329.809	2.91
330.181	2.1
330.553	2.58
330.926	2.34
331.298	2.65
331.671	2.73
332.043	2.62
332.415	2.88
332.787	2.25
333.159	3.1
333.532	3.21
333.904	2.36
334.276	2.4
334.648	2.74
335.02	3.05
335.391	2.18
335.763	2.22
336.135	2.74
336.507	3
336.879	3.01
337.25	2.13
337.622	2.78
337.993	2.58
338.365	3.1
338.736	3.34
339.108	2.78
339.479	2.76
339.851	3.01
340.222	2.4
340.593	2.79
340.964	2.05
341.336	3.27
341.707	2.44
342.078	3.33
342.449	3.04
342.82	2.34
343.191	3.06
343.562	3.38
343.933	2.3
344.303	2.43
344.674	2.59
345.045	2.8
345.416	2.95
345.786	2.22
346.157	3.06
346.527	2.08
346.898	2.51
347.268	2.61
347.639	2.71
348.009	2.88
348.38	2.56
348.75	2.59
349.12	2.72
349.49	3.35
349.861	2.73
350.231	2.85
350.601	2.77
350.971	2.92
351.341	2.67
351.711	3.17
352.081	2.54
352.45	2.65
352.82	3.07
353.19	2.66
353.56	2.7
353.929	2.77
354.299	2.45
354.669	2.32
355.038	3.11
355.408	2.64
355.777	2.8
356.147	2.85
356.516	2.51
356.885	3.09
357.254	2.14
357.624	3.2
357.993	3.02
358.362	2.58
358.731	2.79
359.1	2.92
359.469	2.91
359.838	3.21
360.207	2.82
360.576	2.75
360.945	3.17
361.314	3.07
361.682	2.83
362.051	2.68
362.42	3.09
362.788	2.73
363.157	2.75
363.525	3.09
363.894	2.98
364.262	2.97
364.631	2.93
364.999	3.19
365.367	2.69
365.735	3.69
366.104	3.15
366.472	2.87
366.84	2.7
367.208	2.58
367.576	3.22
367.944	3.25
368.312	2.57
368.68	2.65
369.048	3.26
369.416	2.69
369.783	2.87
370.151	2.92
370.519	3.44
370.886	3.22
371.254	2.58
371.621	3.24
371.989	3.13
372.356	2.23
372.724	2.92
373.091	2.61
373.458	2.83
373.826	2.93
374.193	3.01
374.56	3.07
374.927	3.55
375.294	3.2
375.661	3
376.028	2.75
376.395	2.75
376.762	3.02
377.129	2.99
377.496	2.96
377.863	2.83
378.229	2.34
378.596	3.16
378.963	2.83
379.329	2.97
379.696	3.3
380.062	2.96
380.429	3.04
380.795	2.64
381.161	2.99
381.528	3.26
381.894	3.33
382.26	2.95
382.626	3.25
382.993	2.68
383.359	3.36
383.725	2.78
384.091	2.78
384.457	3.09
384.823	3
385.188	3.18
385.554	2.89
385.92	3.17
386.286	3.08
386.651	3.36
387.017	3.25
387.383	3.12
387.748	3.23
388.114	3.09
388.479	2.84
388.845	3.18
389.21	3.37
389.575	3.37
389.94	3.22
390.306	3.12
390.671	3.32
391.036	2.97
391.401	2.81
391.766	2.94
392.131	2.94
392.496	3.21
392.861	3.02
393.226	3.31
393.591	3.23
393.956	3.12
394.32	3.38
394.685	2.89
395.05	2.78
395.414	3.01
395.779	2.9
396.143	2.95
396.508	2.97
396.872	3.17
397.236	3.47
397.601	2.99
397.965	3.07
398.329	3.19
398.694	2.9
399.058	3.17
399.422	2.88
399.786	3.22
400.15	2.93
400.514	3.3
400.878	2.92
401.242	3.61
401.605	3.49
401.969	3.44
402.333	2.92
402.697	3.29
403.06	3.22
403.424	3.34
403.787	3
404.151	3.74
404.514	3.3
404.878	3.19
405.241	3.4
405.604	3.24
405.968	3.37
406.331	3.28
406.694	3.48
407.057	3.15
407.42	3.22
407.783	3.33
408.146	3.24
408.509	3.16
408.872	3.04
409.235	3.23
409.598	3.42
409.961	3.22
410.323	3.31
410.686	3.21
411.049	3.27
411.411	3.05
411.774	3.33
412.136	3.25
412.499	3.12
412.861	3.33
413.223	3.17
413.586	3.2
413.948	3.28
414.31	3.07
414.672	3
415.035	3.07
415.397	3.57
415.759	3.29
416.121	3.38
416.483	3.17
416.845	3.42
417.206	3.29
417.568	3.44
417.93	3.19
418.292	3.3
418.653	3.28
419.015	3.33
419.377	3.26
419.738	3.45
420.1	3.24
420.461	3.3
420.822	3.33
421.184	3.36
421.545	3.34
421.906	3.27
422.267	3.12
422.629	3.2
422.99	3.37
423.351	3.25
423.712	3.3
424.073	3.31
424.434	3.25
424.795	3.27
425.155	3.28
425.516	3.24
425.877	3.12
426.238	3.14
426.598	3.37
426.959	3.29
427.32	3.26
427.68	3.28
428.041	3.27
428.401	3.42
428.761	3.38
429.122	3.43
429.482	3.39
429.842	3.55
430.202	3.42
430.563	3.44
430.923	3.57
431.283	3.52
431.643	3.27
432.003	3.39
432.363	3.49
432.722	3.38
433.082	3.42
433.442	3.4
433.802	3.44
434.161	3.29
434.521	3.53
434.881	3.44
435.24	3.37
435.6	3.42
435.959	3.46
436.319	3.34
436.678	3.49
437.037	3.5
437.396	3.62
437.756	3.8
438.115	3.54
438.474	3.53
438.833	3.34
439.192	3.5
439.551	3.66
439.91	3.48
440.269	3.43
440.628	3.37
440.987	3.58
441.345	3.36
441.704	3.49
442.063	3.41
442.421	3.55
442.78	3.49
443.138	3.31
443.497	3.67
443.855	3.51
444.214	3.57
444.572	3.65
444.93	3.54
445.288	3.53
445.647	3.54
446.005	3.44
446.363	3.61
446.721	3.62
447.079	3.5
447.437	3.44
447.795	3.56
448.153	3.43
448.51	3.49
448.868	3.47
449.226	3.55
449.584	3.56
449.941	3.68
450.299	3.72
450.656	3.55
451.014	3.68
451.371	3.58
451.729	3.54
452.086	3.86
452.443	3.55
452.801	3.66
453.158	3.59
453.515	3.49
453.872	3.68
454.229	3.53
454.586	3.53
454.943	3.77
455.3	3.73
455.657	3.66
456.014	3.75
456.371	3.65
456.727	3.68
457.084	3.84
457.441	3.79
457.797	3.57
458.154	3.81
458.51	3.75
458.867	3.64
459.223	3.73
459.58	3.65
459.936	3.78
460.292	3.83
460.648	3.69
461.005	3.6
461.361	3.69
461.717	3.67
462.073	3.6
462.429	3.7
462.785	3.79
463.141	3.84
463.496	3.72
463.852	3.84
464.208	3.73
464.564	4.01
464.919	3.95
465.275	3.74
465.631	3.99
465.986	3.89
466.342	3.61
466.697	3.78
467.052	3.91
467.408	3.76
467.763	3.84
468.118	3.97
468.473	3.81
468.829	3.87
469.184	3.79
469.539	3.99
469.894	3.67
470.249	4.09
470.603	3.98
470.958	3.98
471.313	4.04
471.668	4.05
472.023	3.82
472.377	3.78
472.732	4
473.086	4.01
473.441	3.86
473.795	4.09
474.15	3.85
474.504	3.91
474.859	3.99
475.213	3.82
475.567	3.93
475.921	4.02
476.275	3.91
476.63	3.92
476.984	4.04
477.338	3.81
477.692	3.85
478.045	3.86
478.399	4.1
478.753	4.01
479.107	4.09
479.461	3.87
479.814	3.95
480.168	4.03
480.521	3.85
480.875	3.96
481.228	3.99
481.582	3.9
481.935	3.88
482.289	4.03
482.642	3.87
482.995	3.8
483.348	3.83
483.701	3.98
484.055	3.97
484.408	4.04
484.761	3.82
485.114	3.83
485.466	3.67
485.819	3.71
486.172	3.71
486.525	3.84
486.878	3.95
487.23	3.97
487.583	4.06
487.936	4
488.288	3.97
488.641	3.91
488.993	3.89
489.345	3.84
489.698	3.83
490.05	3.87
490.402	3.94
490.754	3.95
491.107	4.07
491.459	4.1
491.811	4.11
492.163	4.12
492.515	4.05
492.866	4.09
493.218	3.94
493.57	3.81
493.922	3.91
494.274	4.06
494.625	4.25
494.977	4.2
495.328	4.33
495.68	4.27
496.031	4.26
496.383	4.32
496.734	4.41
497.086	4.4
497.437	4.31
497.788	4.25
498.139	4.23
498.49	4.28
498.842	4.12
499.193	4.12
499.544	4.26
499.894	4.32
500.245	4.33
500.596	4.19
500.947	4.34
501.298	4.21
501.648	4.42
501.999	4.57
502.35	4.4
502.7	4.34
503.051	4.28
503.401	4.23
503.752	4.45
504.102	4.44
504.452	4.53
504.803	4.3
505.153	4.3
505.503	4.36
505.853	4.49
506.203	4.36
506.553	4.46
506.903	4.47
507.253	4.33
507.603	4.36
507.953	4.74
508.303	4.52
508.652	4.42
509.002	4.67
509.352	4.68
509.701	4.43
510.051	4.43
510.4	4.49
510.75	4.42
511.099	4.46
511.449	4.4
511.798	4.47
512.147	4.55
512.496	4.45
512.846	4.47
513.195	4.45
513.544	4.52
513.893	4.65
514.242	4.57
514.591	4.71
514.939	4.56
515.288	4.49
515.637	4.71
515.986	4.65
516.334	4.73
516.683	4.75
517.032	4.56
517.38	4.84
517.729	4.71
518.077	4.63
518.426	4.75
518.774	4.69
519.122	4.68
519.47	4.68
519.819	4.52
520.167	4.63
520.515	4.66
520.863	4.72
521.211	4.78
521.559	4.8
521.907	4.7
522.255	4.81
522.602	4.78
522.95	4.62
523.298	4.82
523.645	4.83
523.993	4.88
524.341	4.91
524.688	4.92
525.036	4.79
525.383	4.93
525.73	5.03
526.078	4.94
526.425	4.78
526.772	4.91
527.119	4.76
527.466	4.76
527.814	4.8
528.161	4.84
528.508	4.95
528.854	4.93
529.201	4.86
529.548	4.78
529.895	4.77
530.242	4.61
530.588	4.63
530.935	4.68
531.282	4.81
531.628	4.85
531.975	5
532.321	5
532.667	5.04
533.014	5.13
533.36	5.03
533.706	5.04
534.052	5.02
534.399	4.87
534.745	4.84
535.091	4.83
535.437	4.93
535.783	5.05
536.129	5.15
536.474	5.18
536.82	5.25
537.166	5.24
537.512	5.22
537.857	5.2
538.203	5.23
538.549	5.15
538.894	5.09
539.239	5.28
539.585	5.3
539.93	5.25
540.276	5.38
540.621	5.25
540.966	5.44
541.311	5.33
541.656	5.36
542.001	5.29
542.346	5.4
542.691	5.11
543.036	5.08
543.381	5.06
543.726	5.16
544.071	5.31
544.415	5.38
544.76	5.37
545.105	5.45
545.449	5.43
545.794	5.53
546.138	5.47
546.483	5.62
546.827	5.65
547.171	5.47
547.516	5.69
547.86	5.48
548.204	5.62
548.548	5.55
548.892	5.54
549.236	5.61
549.58	5.58
549.924	5.73
550.268	5.81
550.612	5.78
550.956	5.91
551.3	5.72
551.643	5.98
551.987	6.06
552.33	5.94
552.674	5.98
553.017	5.85
553.361	5.68
553.704	5.88
554.048	5.92
554.391	5.82
554.734	5.87
555.077	6
555.42	5.97
555.764	5.92
556.107	5.85
556.45	5.82
556.793	6
557.135	6.25
557.478	6.32
557.821	6.17
558.164	5.97
558.507	6.15
558.849	5.92
559.192	6.08
559.534	6.2
559.877	6.12
560.219	6.22
560.562	6.36
560.904	6.13
561.246	6.28
561.589	6.4
561.931	6.34
562.273	6.18
562.615	6.4
562.957	6.25
563.299	6.11
563.641	6.29
563.983	6.45
564.325	6.36
564.667	6.35
565.008	6.44
565.35	6.63
565.692	6.15
566.033	6.35
566.375	6.58
566.716	6.65
567.058	6.51
567.399	6.51
567.741	6.28
568.082	6.4
568.423	6.5
568.764	6.45
569.105	6.69
569.447	6.75
569.788	6.71
570.129	6.75
570.47	6.74
570.811	6.87
571.151	6.85
571.492	6.83
571.833	6.75
572.174	6.75
572.514	6.83
572.855	6.68
573.195	6.57
573.536	6.79
573.876	6.59
574.217	6.71
574.557	6.89
574.898	7
575.238	6.92
575.578	6.92
575.918	7.15
576.258	6.96
576.598	7.1
576.938	6.88
577.278	7.01
577.618	6.9
577.958	7.13
578.298	7.13
578.638	7.1
578.977	7.19
579.317	7.27
579.657	7.2
579.996	7.11
580.336	7.31
580.675	7.07
581.014	7.21
581.354	7.29
581.693	7.3
582.032	7.29
582.372	7.11
582.711	7.53
583.05	7.41
583.389	7.55
583.728	7.24
584.067	7.8
584.406	7.48
584.745	7.69
585.083	7.47
585.422	7.69
585.761	7.73
586.1	7.89
586.438	7.52
586.777	7.83
587.115	7.67
587.454	7.52
587.792	7.56
588.13	7.7
588.469	7.73
588.807	7.76
589.145	7.97
589.483	7.91
589.821	7.55
590.159	7.66
590.497	8.22
590.835	7.96
591.173	8.02
591.511	8.1
591.849	7.92
592.187	8.02
592.524	8.08
592.862	7.83
593.2	8.12
593.537	7.78
593.875	8.01
594.212	7.88
594.55	8.13
594.887	8.07
595.224	8.2
595.561	8.23
595.899	7.96
596.236	7.89
596.573	8.43
596.91	7.84
597.247	8.18
597.584	8.41
597.921	8.04
598.258	8.16
598.594	8.33
598.931	8.02
599.268	8.23
599.604	8.26
599.941	8.56
600.277	8.39
600.614	8.54
600.95	8.71
601.287	8.66
601.623	8.65
601.959	8.49
602.296	8.53
602.632	8.5
602.968	8.82
603.304	8.55
603.64	8.72
603.976	8.85
604.312	8.67
604.648	8.67
604.984	8.54
605.319	8.54
605.655	8.73
605.991	8.7
606.326	8.76
606.662	8.69
606.998	8.49
607.333	8.76
607.668	8.89
608.004	9.21
608.339	9.41
608.674	8.93
609.01	8.98
609.345	8.77
609.68	8.91
610.015	8.8
610.35	8.75
610.685	8.67
611.02	9.08
611.355	9.05
611.689	8.94
612.024	9.03
612.359	9.28
612.694	9.16
613.028	9.14
613.363	9.47
613.697	9.51
614.032	9.46
614.366	9.29
614.7	9.43
615.035	9.58
615.369	9.17
615.703	9.54
616.037	9.53
616.371	9.03
616.705	9.46
617.039	9.59
617.373	9.33
617.707	9.32
618.041	9.48
618.375	9.53
618.709	9.86
619.042	9.8
619.376	9.84
619.71	9.95
620.043	9.81
620.377	9.56
620.71	9.78
621.043	9.84
621.377	9.83
621.71	9.5
622.043	9.41
622.376	9.71
622.709	9.65
623.043	10.26
623.376	9.95
623.709	9.91
624.041	10.31
624.374	9.49
624.707	9.87
625.04	10.16
625.373	9.37
625.705	10.08
626.038	9.99
626.37	10.1
626.703	9.8
627.035	10.2
627.368	10.41
627.7	10.17
628.032	9.92
628.365	10.28
628.697	10.11
629.029	10.01
629.361	9.88
629.693	10.61
630.025	10.29
630.357	10.46
630.689	10.74
631.021	10.43
631.353	10.38
631.684	10.49
632.016	10.27
632.348	10.58
632.679	10.72
633.011	11.01
633.342	10.94
633.674	10.6
634.005	10.46
634.336	10.47
634.668	11.06
634.999	10.46
635.33	10.73
635.661	10.88
635.992	10.79
636.323	11.05
636.654	10.96
636.985	11.04
637.316	10.95
637.647	11.01
637.977	11.08
638.308	11.25
638.639	10.86
638.969	10.81
639.3	10.69
639.63	10.89
639.961	11.19
640.291	11.1
640.622	11.25
640.952	11.53
641.282	11.25
641.612	10.99
641.943	11.04
642.273	11.24
642.603	11.61
642.933	11.58
643.263	11.22
643.592	10.81
643.922	11.17
644.252	11.27
644.582	11.7
644.911	11.2
645.241	11.67
645.571	11.19
645.9	10.93
646.23	11.34
646.559	11.34
646.888	11.18
647.218	11.26
647.547	11.99
647.876	11.33
648.205	11.19
648.534	11.4
648.863	11.14
649.192	11.88
649.521	11.24
649.85	11.77
650.179	11.29
650.508	11.3
650.837	11.61
651.165	11.68
651.494	11.62
651.822	11.46
652.151	12.07
652.479	12.09
652.808	11.68
653.136	11.71
653.465	11.11
653.793	11.88
654.121	11.7
654.449	11.9
654.777	12.11
655.105	12.38
655.433	11.14
655.761	12.02
656.089	12.29
656.417	12.64
656.745	11.92
657.073	11.9
657.4	12.46
657.728	12.32
658.056	12.17
658.383	12.36
658.711	12.16
659.038	12.46
659.365	12.38
659.693	12.53
660.02	12
660.347	12.31
660.674	12.38
661.001	12.38
661.329	11.85
661.656	12.5
661.982	12.58
662.309	12.56
662.636	12.07
662.963	13.11
663.29	12.56
663.616	12.53
663.943	12.41
664.27	12.63
664.596	12.97
664.923	12.25
665.249	12.83
665.576	12.7
665.902	13.46
666.228	12.89
666.554	13.63
666.881	12.84
667.207	13.16
667.533	12.72
667.859	13.29
668.185	13.42
668.511	12.42
668.837	11.96
669.162	13.35
669.488	12.71
669.814	13.23
670.139	12.56
670.465	13.53
670.791	13.29
671.116	13.44
671.442	12.86
671.767	13.65
672.092	13.71
672.418	13.61
672.743	12.97
673.068	13.1
673.393	12.99
673.718	13.06
674.043	13.39
674.368	13.01
674.693	14.29
675.018	13.55
675.343	13.61
675.667	13.23
675.992	13.5
676.317	13.68
676.641	14.14
676.966	14.14
677.29	13.12
677.615	13.81
677.939	13.75
678.264	14.13
678.588	14.35
678.912	14.14
679.236	14.69
679.56	13.55
679.885	14.62
680.209	13.97
680.532	13.92
680.856	14.53
681.18	14.07
681.504	13.94
681.828	14.46
682.152	13.47
682.475	14.18
682.799	14.1
683.122	13.91
683.446	13.71
683.769	14.22
684.093	13.97
684.416	14.82
684.739	13.58
685.062	13.92
685.386	13.96
685.709	13.89
686.032	14.49
686.355	14.57
686.678	13.84
687.001	14.17
687.324	14.99
687.646	13.76
687.969	13.82
688.292	14.24
