Data from 0404_forehead_Reflection__4__107.txt Node

Date: Fri Dec 15 17:22:48 CST 2023
User: ToomeyLab
Spectrometer: FLMS14357
Trigger mode: 0
Integration Time (sec): 1.000000E-2
Scans to average: 100
Electric dark correction enabled: true
Nonlinearity correction enabled: false
Boxcar width: 0
XAxis mode: Wavelengths
Number of Pixels in Spectrum: 2048
>>>>>Begin Spectral Data<<<<<
189.047	-51.11
189.435	-51.11
189.823	-51.11
190.211	12.18
190.599	-106.33
190.987	321.11
191.375	64.83
191.763	-72.38
192.151	49.89
192.538	64.91
192.926	64.68
193.314	231.28
193.702	-503.57
194.089	546.71
194.477	-56.84
194.864	-33.9
195.252	58.23
195.639	105.47
196.027	7.28
196.414	159.11
196.801	675.28
197.189	72.25
197.576	37.11
197.963	119.88
198.351	2.59
198.738	40.61
199.125	19.89
199.512	-18.77
199.899	49.22
200.286	28.68
200.673	-45.97
201.06	23.02
201.447	-11.1
201.833	54.01
202.22	44.99
202.607	39.68
202.994	18.44
203.38	22.38
203.767	53
204.154	95.17
204.54	41.98
204.927	-44.62
205.313	-58.58
205.699	50.59
206.086	44.63
206.472	70.95
206.858	34.88
207.245	-49.93
207.631	22.5
208.017	9.2
208.403	38.04
208.789	10.65
209.175	32.02
209.561	15.4
209.947	-9.1
210.333	-0.04
210.719	40.4
211.105	36.3
211.491	12.41
211.876	32.48
212.262	8.81
212.648	9.1
213.034	27.37
213.419	27.39
213.805	33.69
214.19	-4.44
214.576	29.28
214.961	12.52
215.346	-9.59
215.732	9.21
216.117	15.23
216.502	-31.81
216.888	9.03
217.273	47.82
217.658	-19.81
218.043	31.32
218.428	20.33
218.813	1.4
219.198	11.99
219.583	-2.38
219.968	39.36
220.353	-8.61
220.738	34.57
221.122	29.99
221.507	-19.01
221.892	-3.17
222.276	12.65
222.661	10.96
223.046	28.41
223.43	18.05
223.815	10.98
224.199	-9.11
224.583	8.05
224.968	9.52
225.352	2.5
225.736	2.9
226.121	4.91
226.505	13.87
226.889	12.31
227.273	-3.1
227.657	10.59
228.041	3.45
228.425	1.27
228.809	4.32
229.193	6.46
229.577	2.26
229.961	3.53
230.344	2.4
230.728	3.92
231.112	3.04
231.495	3
231.879	1.86
232.263	3.84
232.646	4.31
233.03	5.3
233.413	2.81
233.797	3.05
234.18	3.86
234.563	2.48
234.946	4.32
235.33	3.68
235.713	3.46
236.096	1.97
236.479	5.44
236.862	3.57
237.245	4.59
237.628	1.64
238.011	3.19
238.394	4.56
238.777	3.73
239.16	2.95
239.543	3.97
239.925	3.84
240.308	2.61
240.691	5.46
241.073	5.63
241.456	4.67
241.838	3.06
242.221	1.57
242.603	4.04
242.986	3.11
243.368	3.06
243.75	3.61
244.133	3.5
244.515	3.36
244.897	3.29
245.279	2.72
245.661	2.96
246.043	2.27
246.425	1.02
246.807	5.05
247.189	4.32
247.571	3.84
247.953	3.6
248.335	2.56
248.717	3.36
249.098	2.67
249.48	2.67
249.862	2.98
250.243	2.96
250.625	2.96
251.006	2.77
251.388	2.55
251.769	2.18
252.151	4.19
252.532	4.02
252.913	3.4
253.295	3.11
253.676	2.28
254.057	3.05
254.438	2.28
254.819	2.41
255.2	2.48
255.581	3.05
255.962	2.35
256.343	2.59
256.724	3.48
257.105	3.86
257.486	4.03
257.867	4.59
258.247	3.89
258.628	4.06
259.009	2.64
259.389	2.61
259.77	2.87
260.15	3.15
260.531	2.62
260.911	3.34
261.292	2.85
261.672	2.96
262.052	2.9
262.432	3.01
262.813	2.85
263.193	2.71
263.573	3.1
263.953	2.05
264.333	3.69
264.713	3.21
265.093	2.62
265.473	3.32
265.853	2.33
266.233	2.72
266.612	1.88
266.992	1.28
267.372	2.36
267.752	2.88
268.131	2.79
268.511	3.58
268.89	3.26
269.27	2.65
269.649	2.82
270.029	2.56
270.408	4.25
270.787	3.16
271.167	3.79
271.546	3.21
271.925	2.05
272.304	2.82
272.683	3.19
273.062	2.97
273.441	2.86
273.82	2.51
274.199	2.49
274.578	2.69
274.957	2.49
275.336	2.88
275.715	2.67
276.093	2.46
276.472	3.43
276.851	2.61
277.229	2.88
277.608	2.4
277.986	3.03
278.365	2.96
278.743	2.49
279.122	2.97
279.5	2.83
279.878	3.18
280.257	2.66
280.635	2.11
281.013	3.03
281.391	2.87
281.769	2.88
282.147	3.56
282.525	3.34
282.903	2.69
283.281	3.11
283.659	3.12
284.037	2.99
284.415	2.88
284.792	2.65
285.17	2.19
285.548	2.29
285.925	2.77
286.303	2.7
286.68	2.34
287.058	3.09
287.435	2.52
287.813	2.71
288.19	2.43
288.567	2.39
288.945	3.23
289.322	2.64
289.699	2.87
290.076	2.23
290.453	2.82
290.83	2.41
291.207	2.47
291.584	3.02
291.961	3.03
292.338	2.49
292.715	3.51
293.092	2.58
293.469	2.54
293.845	3.15
294.222	2.26
294.599	3.04
294.975	3.14
295.352	2.95
295.728	2.77
296.105	2.65
296.481	3.14
296.858	2.66
297.234	2.58
297.61	2.7
297.986	3.36
298.363	3.18
298.739	2.78
299.115	2.81
299.491	2.83
299.867	2.73
300.243	2.96
300.619	2.72
300.995	2.83
301.371	2.88
301.746	3.01
302.122	3.29
302.498	2.91
302.874	2.98
303.249	3.47
303.625	3.41
304	3.44
304.376	3.29
304.751	2.76
305.127	4.07
305.502	3.08
305.878	2.44
306.253	3.15
306.628	4.1
307.003	2.7
307.378	3.72
307.754	3.43
308.129	3.04
308.504	3.3
308.879	2.98
309.254	4.28
309.629	3.62
310.003	3.37
310.378	3.71
310.753	3.83
311.128	3.78
311.502	3.46
311.877	3.52
312.252	3.12
312.626	3.62
313.001	3.37
313.375	3.79
313.75	3.45
314.124	4.14
314.498	3.88
314.873	3.95
315.247	3.4
315.621	4.22
315.995	3.27
316.369	3.95
316.743	3.92
317.117	3.75
317.491	3.7
317.865	3.8
318.239	4.61
318.613	4.4
318.987	3.94
319.361	3.3
319.734	4.63
320.108	4.04
320.482	3.87
320.855	4.37
321.229	4.28
321.602	4.29
321.976	4.48
322.349	4.16
322.723	4.29
323.096	5.62
323.469	4.22
323.843	4.26
324.216	4.96
324.589	4.4
324.962	4.24
325.335	4.05
325.708	3.99
326.081	4.4
326.454	4.61
326.827	4.55
327.2	4.4
327.573	4.42
327.945	4.5
328.318	4.61
328.691	4.09
329.063	4.62
329.436	4.46
329.809	5.2
330.181	4.39
330.553	4.64
330.926	4.22
331.298	4.85
331.671	4.65
332.043	4.82
332.415	5.26
332.787	4.8
333.159	5.55
333.532	4.65
333.904	5.25
334.276	4.15
334.648	4.8
335.02	5.1
335.391	4.63
335.763	4.71
336.135	4.79
336.507	5.64
336.879	5.7
337.25	5.36
337.622	5.1
337.993	4.96
338.365	5.22
338.736	5.49
339.108	5.45
339.479	4.72
339.851	5.11
340.222	5.09
340.593	5.52
340.964	5.56
341.336	5.88
341.707	5.25
342.078	6.02
342.449	4.88
342.82	5.2
343.191	5.12
343.562	5.27
343.933	5.53
344.303	5.16
344.674	4.85
345.045	5.63
345.416	6.18
345.786	4.76
346.157	5.95
346.527	5
346.898	4.99
347.268	5.52
347.639	5.7
348.009	5.78
348.38	5.11
348.75	5.49
349.12	5.47
349.49	6.47
349.861	5.65
350.231	5.45
350.601	6.31
350.971	6.13
351.341	6.06
351.711	5.69
352.081	5.97
352.45	5.77
352.82	6.12
353.19	5.7
353.56	6.03
353.929	5.97
354.299	6.19
354.669	6.07
355.038	6.68
355.408	5.58
355.777	6.07
356.147	5.78
356.516	6.4
356.885	6
357.254	5.68
357.624	6.54
357.993	6
358.362	5.91
358.731	5.65
359.1	6.26
359.469	6.41
359.838	6.38
360.207	6.09
360.576	5.83
360.945	6.54
361.314	6.69
361.682	5.92
362.051	6.17
362.42	6.25
362.788	6.35
363.157	6.43
363.525	6.58
363.894	6.63
364.262	6.42
364.631	6.59
364.999	6.72
365.367	6.11
365.735	7.3
366.104	6.83
366.472	6.57
366.84	6.25
367.208	6.93
367.576	6.96
367.944	6.93
368.312	6.72
368.68	6.42
369.048	7.23
369.416	7.06
369.783	6.84
370.151	7.21
370.519	7.32
370.886	7.3
371.254	7.11
371.621	7.01
371.989	7.05
372.356	6.5
372.724	6.97
373.091	6.88
373.458	7.1
373.826	7.05
374.193	7.01
374.56	7.35
374.927	7.21
375.294	6.99
375.661	7.44
376.028	7.07
376.395	7.27
376.762	7.35
377.129	7.44
377.496	7.14
377.863	7.26
378.229	7.29
378.596	7.68
378.963	7.42
379.329	7.25
379.696	7.37
380.062	7.52
380.429	7.56
380.795	7.55
381.161	7.48
381.528	7.75
381.894	7.46
382.26	7.64
382.626	7.9
382.993	7.5
383.359	8.17
383.725	7.95
384.091	7.77
384.457	8.24
384.823	7.98
385.188	8.03
385.554	8
385.92	7.97
386.286	8.15
386.651	8.13
387.017	8.05
387.383	8.1
387.748	7.96
388.114	8.31
388.479	8.06
388.845	8.3
389.21	8.25
389.575	8.42
389.94	8.21
390.306	8.42
390.671	8.18
391.036	8.05
391.401	7.98
391.766	8.48
392.131	8.21
392.496	8.05
392.861	8.27
393.226	8.32
393.591	8.48
393.956	8.31
394.32	8.48
394.685	8.21
395.05	8.45
395.414	8.45
395.779	8.28
396.143	8.74
396.508	8.45
396.872	8.59
397.236	8.7
397.601	8.36
397.965	8.4
398.329	8.52
398.694	8.6
399.058	8.65
399.422	8.81
399.786	8.42
400.15	8.62
400.514	8.79
400.878	8.89
401.242	9
401.605	9.07
401.969	9
402.333	8.87
402.697	8.87
403.06	9.09
403.424	9.13
403.787	9.02
404.151	9.26
404.514	8.92
404.878	8.91
405.241	9.05
405.604	8.87
405.968	8.92
406.331	9.01
406.694	9.24
407.057	8.99
407.42	9.02
407.783	8.93
408.146	9.32
408.509	9.08
408.872	9
409.235	9.5
409.598	9.35
409.961	9.35
410.323	9.53
410.686	9.25
411.049	9.06
411.411	9.37
411.774	9.28
412.136	9.28
412.499	9.24
412.861	9.21
413.223	9.68
413.586	9.34
413.948	9.55
414.31	9.44
414.672	9.36
415.035	9.12
415.397	9.83
415.759	9.39
416.121	9.57
416.483	9.47
416.845	9.53
417.206	9.64
417.568	9.72
417.93	9.56
418.292	9.63
418.653	9.94
419.015	9.78
419.377	9.6
419.738	9.86
420.1	9.68
420.461	9.93
420.822	9.65
421.184	9.68
421.545	9.75
421.906	9.71
422.267	9.73
422.629	9.75
422.99	9.87
423.351	9.76
423.712	9.84
424.073	10.02
424.434	10.02
424.795	10.08
425.155	9.93
425.516	10.09
425.877	10.05
426.238	10.16
426.598	10.16
426.959	10.22
427.32	10.2
427.68	10.25
428.041	10.25
428.401	10.52
428.761	10.47
429.122	10.79
429.482	10.61
429.842	10.6
430.202	10.78
430.563	10.85
430.923	10.79
431.283	10.9
431.643	10.86
432.003	10.83
432.363	11.08
432.722	11.09
433.082	11.1
433.442	10.99
433.802	11.09
434.161	11.14
434.521	11.31
434.881	11.05
435.24	11.07
435.6	11.22
435.959	11.25
436.319	11.33
436.678	11.32
437.037	11.23
437.396	11.46
437.756	11.79
438.115	11.58
438.474	11.95
438.833	11.47
439.192	11.69
439.551	11.77
439.91	11.79
440.269	11.74
440.628	11.62
440.987	11.8
441.345	11.54
441.704	11.89
442.063	11.69
442.421	11.73
442.78	11.79
443.138	11.8
443.497	11.89
443.855	11.93
444.214	12.03
444.572	12.08
444.93	12.06
445.288	12.2
445.647	12.36
446.005	12.23
446.363	12.29
446.721	12.37
447.079	12.15
447.437	12.19
447.795	12.39
448.153	12.23
448.51	12.27
448.868	12.42
449.226	12.37
449.584	12.32
449.941	12.57
450.299	12.5
450.656	12.52
451.014	12.63
451.371	12.62
451.729	12.7
452.086	13
452.443	12.79
452.801	13.1
453.158	13.2
453.515	12.87
453.872	13.12
454.229	12.93
454.586	12.92
454.943	13.13
455.3	13.18
455.657	12.95
456.014	13.16
456.371	13.13
456.727	13.5
457.084	13.54
457.441	13.41
457.797	13.62
458.154	13.48
458.51	13.64
458.867	13.69
459.223	13.72
459.58	13.52
459.936	13.6
460.292	13.92
460.648	13.49
461.005	13.42
461.361	13.67
461.717	13.5
462.073	13.56
462.429	13.43
462.785	13.77
463.141	13.78
463.496	13.77
463.852	13.99
464.208	14.12
464.564	14.11
464.919	14.09
465.275	14.21
465.631	14.33
465.986	14.13
466.342	14.5
466.697	14.18
467.052	14.56
467.408	14.38
467.763	14.43
468.118	14.37
468.473	14.57
468.829	14.38
469.184	14.29
469.539	14.47
469.894	14.5
470.249	14.53
470.603	14.74
470.958	15
471.313	14.88
471.668	14.84
472.023	14.56
472.377	14.7
472.732	14.77
473.086	14.93
473.441	14.73
473.795	15.07
474.15	15.01
474.504	15.02
474.859	15.18
475.213	15.05
475.567	14.89
475.921	14.89
476.275	15.16
476.63	15.39
476.984	15.31
477.338	15.54
477.692	15.14
478.045	15.47
478.399	15.31
478.753	15.6
479.107	15.53
479.461	15.39
479.814	15.59
480.168	15.49
480.521	15.52
480.875	15.59
481.228	15.53
481.582	15.67
481.935	15.66
482.289	15.81
482.642	15.6
482.995	15.71
483.348	15.6
483.701	15.66
484.055	15.7
484.408	15.54
484.761	15.47
485.114	15.33
485.466	15.04
485.819	14.98
486.172	14.87
486.525	14.97
486.878	14.96
487.23	15.25
487.583	15.46
487.936	15.58
488.288	15.61
488.641	15.64
488.993	15.52
489.345	15.49
489.698	15.44
490.05	15.36
490.402	15.55
490.754	15.55
491.107	15.84
491.459	15.85
491.811	16.15
492.163	16.3
492.515	16.21
492.866	16.3
493.218	16.13
493.57	15.94
493.922	15.82
494.274	15.86
494.625	16.11
494.977	16.22
495.328	16.43
495.68	16.63
496.031	16.86
496.383	16.86
496.734	16.97
497.086	16.85
497.437	16.88
497.788	17.02
498.139	16.99
498.49	17.11
498.842	16.96
499.193	16.87
499.544	16.99
499.894	17.01
500.245	17.13
500.596	17.08
500.947	17.35
501.298	17.22
501.648	17.41
501.999	17.49
502.35	17.53
502.7	17.36
503.051	17.38
503.401	17.47
503.752	17.67
504.102	17.67
504.452	17.72
504.803	17.59
505.153	17.75
505.503	17.65
505.853	17.67
506.203	17.77
506.553	17.75
506.903	17.82
507.253	17.7
507.603	17.87
507.953	18.05
508.303	17.99
508.652	17.91
509.002	18.15
509.352	18.14
509.701	18.16
510.051	17.93
510.4	17.99
510.75	17.98
511.099	18.03
511.449	18.07
511.798	18.06
512.147	18.07
512.496	17.98
512.846	18.2
513.195	18.21
513.544	18.24
513.893	18.28
514.242	18.18
514.591	18.36
514.939	18.12
515.288	18.41
515.637	18.33
515.986	18.49
516.334	18.56
516.683	18.66
517.032	18.54
517.38	18.59
517.729	18.76
518.077	18.67
518.426	18.58
518.774	18.87
519.122	18.78
519.47	18.67
519.819	18.45
520.167	18.51
520.515	18.5
520.863	18.49
521.211	18.33
521.559	18.53
521.907	18.49
522.255	18.53
522.602	18.66
522.95	18.69
523.298	18.91
523.645	19.04
523.993	18.91
524.341	19.17
524.688	19.07
525.036	19.27
525.383	19.17
525.73	19.3
526.078	19.12
526.425	19.1
526.772	19.15
527.119	19.07
527.466	18.79
527.814	18.8
528.161	18.75
528.508	18.74
528.854	18.87
529.201	18.85
529.548	18.85
529.895	18.72
530.242	18.5
530.588	18.34
530.935	18.29
531.282	18.34
531.628	18.37
531.975	18.62
532.321	18.78
532.667	18.84
533.014	19.06
533.36	19.18
533.706	19.35
534.052	19.27
534.399	19.26
534.745	19.06
535.091	19.08
535.437	19.03
535.783	18.97
536.129	19.15
536.474	19.16
536.82	19.29
537.166	19.54
537.512	19.52
537.857	19.61
538.203	19.55
538.549	19.49
538.894	19.52
539.239	19.53
539.585	19.55
539.93	19.67
540.276	19.82
540.621	20.02
540.966	20.1
541.311	20.09
541.656	20.03
542.001	20.11
542.346	20.13
542.691	19.79
543.036	19.57
543.381	19.4
543.726	19.3
544.071	19.48
544.415	19.56
544.76	19.59
545.105	19.69
545.449	19.87
545.794	19.99
546.138	20.05
546.483	20.25
546.827	20.44
547.171	20.32
547.516	20.46
547.86	20.28
548.204	20.56
548.548	20.37
548.892	20.53
549.236	20.47
549.58	20.36
549.924	20.47
550.268	20.41
550.612	20.68
550.956	20.94
551.3	20.83
551.643	21.09
551.987	20.97
552.33	21
552.674	21.06
553.017	21.17
553.361	21.11
553.704	21.2
554.048	21.07
554.391	21.07
554.734	20.94
555.077	21.23
555.42	20.97
555.764	20.9
556.107	21.26
556.45	21.03
556.793	21.15
557.135	21.32
557.478	21.63
557.821	21.58
558.164	21.37
558.507	21.55
558.849	21.54
559.192	21.57
559.534	21.45
559.877	21.71
560.219	21.55
560.562	21.91
560.904	21.94
561.246	21.81
561.589	21.75
561.931	21.88
562.273	21.68
562.615	21.86
562.957	21.97
563.299	21.51
563.641	21.73
563.983	21.86
564.325	21.73
564.667	21.65
565.008	21.92
565.35	22.15
565.692	21.86
566.033	21.83
566.375	22.11
566.716	22.22
567.058	21.88
567.399	21.72
567.741	21.78
568.082	21.96
568.423	21.85
568.764	21.88
569.105	21.97
569.447	22.27
569.788	22.08
570.129	22
570.47	22.17
570.811	22.22
571.151	22.27
571.492	22.28
571.833	22.34
572.174	22.23
572.514	22.33
572.855	22.29
573.195	22.31
573.536	22.19
573.876	22.18
574.217	22.08
574.557	22.07
574.898	22.39
575.238	22.56
575.578	22.29
575.918	22.5
576.258	22.39
576.598	22.4
576.938	22.32
577.278	22.44
577.618	22.49
577.958	22.65
578.298	22.68
578.638	22.6
578.977	22.67
579.317	22.78
579.657	22.8
579.996	22.82
580.336	23.15
580.675	22.95
581.014	23.06
581.354	22.83
581.693	23.33
582.032	22.91
582.372	23.09
582.711	23.3
583.05	22.98
583.389	23.32
583.728	23.01
584.067	23.41
584.406	23.05
584.745	23.09
585.083	23.43
585.422	23.43
585.761	23.6
586.1	23.22
586.438	23.44
586.777	23.91
587.115	23.61
587.454	23.13
587.792	23.31
588.13	23.54
588.469	23.46
588.807	23.38
589.145	23.67
589.483	23.45
589.821	23.78
590.159	23.66
590.497	23.41
590.835	23.63
591.173	23.43
591.511	23.44
591.849	23.38
592.187	23.78
592.524	23.37
592.862	23.61
593.2	23.61
593.537	23.7
593.875	23.48
594.212	23.75
594.55	24.05
594.887	23.7
595.224	23.79
595.561	23.95
595.899	23.89
596.236	23.82
596.573	23.85
596.91	23.82
597.247	23.75
597.584	24.35
597.921	23.99
598.258	23.84
598.594	23.57
598.931	23.72
599.268	23.67
599.604	23.82
599.941	23.62
600.277	23.82
600.614	23.93
600.95	23.96
601.287	24.08
601.623	24
601.959	24.38
602.296	24.47
602.632	24.26
602.968	24.51
603.304	24.26
603.64	24.5
603.976	24.26
604.312	24.55
604.648	24.36
604.984	24.49
605.319	24.14
605.655	24.3
605.991	24.06
606.326	24.27
606.662	24.13
606.998	23.77
607.333	24.24
607.668	24.14
608.004	24.31
608.339	24.35
608.674	24.66
609.01	24.35
609.345	24.32
609.68	24.91
610.015	24.76
610.35	24.59
610.685	24.46
611.02	24.75
611.355	24.68
611.689	24.56
612.024	24.42
612.359	24.71
612.694	24.54
613.028	24.42
613.363	24.8
613.697	24.76
614.032	24.98
614.366	24.72
614.7	24.84
615.035	25.15
615.369	24.67
615.703	25.1
616.037	25
616.371	24.92
616.705	24.97
617.039	24.97
617.373	25
617.707	25.19
618.041	25.28
618.375	25.1
618.709	24.81
619.042	25.09
619.376	25.32
619.71	25.18
620.043	25.57
620.377	25.26
620.71	25.12
621.043	25.04
621.377	25.34
621.71	25.31
622.043	24.8
622.376	25.02
622.709	25.24
623.043	25.51
623.376	25.34
623.709	25.51
624.041	25.59
624.374	25.37
624.707	25.21
625.04	25.87
625.373	25.3
625.705	25.38
626.038	25.78
626.37	25.41
626.703	25.58
627.035	25.42
627.368	25.96
627.7	25.68
628.032	25.46
628.365	25.77
628.697	25.54
629.029	25.48
629.361	25.26
629.693	25.89
630.025	25.46
630.357	25.95
630.689	25.88
631.021	25.97
631.353	25.88
631.684	25.51
632.016	25.81
632.348	25.97
632.679	26.01
633.011	25.75
633.342	26.35
633.674	26.2
634.005	26.44
634.336	25.78
634.668	26.61
634.999	25.86
635.33	25.84
635.661	25.9
635.992	25.84
636.323	26.32
636.654	26.04
636.985	26.31
637.316	26.42
637.647	26.22
637.977	26.24
638.308	25.84
638.639	25.79
638.969	25.75
639.3	26.2
639.63	26.29
639.961	26.57
640.291	26.19
640.622	26.68
640.952	26.01
641.282	26.4
641.612	26.55
641.943	26.44
642.273	26.45
642.603	26.82
642.933	26.35
643.263	26.79
643.592	25.89
643.922	26.88
644.252	26.76
644.582	26.28
644.911	26.81
645.241	26.5
645.571	26.43
645.9	26.6
646.23	26.91
646.559	27.08
646.888	26.39
647.218	26.9
647.547	26.6
647.876	26.42
648.205	27.08
648.534	26.96
648.863	26.32
649.192	27.02
649.521	26.94
649.85	26.83
650.179	26.38
650.508	26.45
650.837	26.18
651.165	27.03
651.494	26.7
651.822	26.73
652.151	26.31
652.479	27.4
652.808	26.75
653.136	27.23
653.465	26.61
653.793	26.15
654.121	26.39
654.449	27.19
654.777	27.48
655.105	27.33
655.433	26.91
655.761	26.84
656.089	27.5
656.417	27.35
656.745	27.46
657.073	27.46
657.4	27.24
657.728	27.71
658.056	27.17
658.383	27.25
658.711	27.35
659.038	27.46
659.365	27.21
659.693	27.76
660.02	27.56
660.347	27.61
660.674	27.61
661.001	27.55
661.329	26.94
661.656	27.47
661.982	27.91
662.309	27.29
662.636	27.39
662.963	27.87
663.29	27.57
663.616	27.65
663.943	27.02
664.27	27.69
664.596	27.89
664.923	27.63
665.249	27.82
665.576	27.46
665.902	27.86
666.228	28.07
666.554	27.95
666.881	27.43
667.207	27.34
667.533	27.62
667.859	28.4
668.185	28.96
668.511	27.26
668.837	27.06
669.162	27.51
669.488	26.82
669.814	27.38
670.139	28.59
670.465	27.55
670.791	28.89
671.116	28.61
671.442	27.67
671.767	28.55
672.092	28.27
672.418	28.14
672.743	28.33
673.068	27.51
673.393	28.03
673.718	28.28
674.043	27.81
674.368	27.91
674.693	28.89
675.018	28.03
675.343	27.71
675.667	28.05
