Data from 0404_chest_Reflection__1__92.txt Node

Date: Fri Dec 15 17:17:49 CST 2023
User: ToomeyLab
Spectrometer: FLMS14357
Trigger mode: 0
Integration Time (sec): 1.000000E-2
Scans to average: 100
Electric dark correction enabled: true
Nonlinearity correction enabled: false
Boxcar width: 0
XAxis mode: Wavelengths
Number of Pixels in Spectrum: 2048
>>>>>Begin Spectral Data<<<<<
189.047	-33.19
189.435	-33.19
189.823	-33.19
190.211	6.02
190.599	-167.3
190.987	230.84
191.375	17.32
191.763	-47.24
192.151	51.85
192.538	50.27
192.926	23.35
193.314	226.72
193.702	496.85
194.089	20.14
194.477	184.58
194.864	-125.61
195.252	63.48
195.639	119.46
196.027	40.37
196.414	-72.29
196.801	839.8
197.189	44.54
197.576	92.71
197.963	308.79
198.351	-63.66
198.738	21.48
199.125	5.91
199.512	47.86
199.899	50.92
200.286	72.97
200.673	9.66
201.06	34.69
201.447	22.49
201.833	46.73
202.22	7.55
202.607	43.75
202.994	20.15
203.38	18.8
203.767	47.38
204.154	-27.92
204.54	56.43
204.927	-65.93
205.313	-12.99
205.699	47.22
206.086	34.05
206.472	30.76
206.858	34.25
207.245	3.19
207.631	27.14
208.017	10.2
208.403	-1.98
208.789	20.78
209.175	19.95
209.561	25.22
209.947	-16.26
210.333	-34.61
210.719	43.45
211.105	19.67
211.491	-49.87
211.876	13.9
212.262	44.72
212.648	14.41
213.034	29.3
213.419	-7.95
213.805	-16.24
214.19	-4.84
214.576	5.65
214.961	-21.69
215.346	-58.5
215.732	-9.46
216.117	-6.56
216.502	-12.19
216.888	19.68
217.273	41.18
217.658	-25.96
218.043	33.92
218.428	-27.37
218.813	-8.4
219.198	-19.32
219.583	-10.59
219.968	19.38
220.353	3.04
220.738	4.8
221.122	24.07
221.507	-18.33
221.892	-19.68
222.276	-27.78
222.661	0.22
223.046	11.26
223.43	-2.38
223.815	15.23
224.199	-5.51
224.583	6.25
224.968	2.37
225.352	12.85
225.736	-0.73
226.121	-13.25
226.505	-2.5
226.889	0.72
227.273	-3.77
227.657	4.01
228.041	1.32
228.425	3.54
228.809	2.23
229.193	2.84
229.577	0.58
229.961	2.09
230.344	0.92
230.728	1.5
231.112	1.53
231.495	1.5
231.879	1.48
232.263	0.85
232.646	0.89
233.03	1.89
233.413	0.27
233.797	1.04
234.18	2.6
234.563	0.5
234.946	0.6
235.33	3.61
235.713	2.56
236.096	1.58
236.479	4.19
236.862	0.59
237.245	3.48
237.628	-0.04
238.011	0.6
238.394	1.16
238.777	3.85
239.16	1.38
239.543	3.03
239.925	4.45
240.308	3.57
240.691	5.02
241.073	1.87
241.456	3.01
241.838	0.92
242.221	0.74
242.603	2.21
242.986	1.88
243.368	1.81
243.75	1.78
244.133	0.47
244.515	1.49
244.897	1.68
245.279	2.07
245.661	1.31
246.043	1.28
246.425	-0.95
246.807	0.92
247.189	1.55
247.571	2.45
247.953	1.56
248.335	1.16
248.717	1.59
249.098	1.19
249.48	1.69
249.862	1.15
250.243	1.18
250.625	1.75
251.006	2.08
251.388	0.37
251.769	2.27
252.151	2.07
252.532	2.1
252.913	0.96
253.295	0.36
253.676	0.71
254.057	1.26
254.438	1.46
254.819	0.84
255.2	1.53
255.581	0.43
255.962	-0.62
256.343	0.59
256.724	1.26
257.105	1.13
257.486	1.51
257.867	1.96
258.247	1.27
258.628	1.37
259.009	1.14
259.389	0.94
259.77	1.47
260.15	1.51
260.531	0.65
260.911	2.12
261.292	1.76
261.672	1.37
262.052	1.42
262.432	1.59
262.813	1.54
263.193	1.27
263.573	0.62
263.953	0.96
264.333	1.21
264.713	1.24
265.093	1.31
265.473	1.95
265.853	0.44
266.233	1.63
266.612	0
266.992	-0.64
267.372	1.71
267.752	1.93
268.131	0.7
268.511	2.03
268.89	2.08
269.27	0.81
269.649	1.23
270.029	1.43
270.408	3.2
270.787	2.44
271.167	1.95
271.546	2.36
271.925	0.8
272.304	1.44
272.683	1.71
273.062	1.41
273.441	1.39
273.82	0.93
274.199	1.56
274.578	1.5
274.957	1.49
275.336	1.19
275.715	0.88
276.093	0.44
276.472	1.67
276.851	1.33
277.229	1.34
277.608	1.15
277.986	1.33
278.365	1.42
278.743	1.32
279.122	0.7
279.5	1.41
279.878	1.64
280.257	0.7
280.635	0.58
281.013	0.38
281.391	2.15
281.769	1.39
282.147	1.48
282.525	1.77
282.903	0.84
283.281	1.6
283.659	1.9
284.037	1.41
284.415	1.34
284.792	1.45
285.17	0.36
285.548	1.28
285.925	0.99
286.303	1.57
286.68	1.57
287.058	1.59
287.435	0.92
287.813	1.27
288.19	0.84
288.567	1.61
288.945	1.71
289.322	1.76
289.699	1.29
290.076	1.7
290.453	1.37
290.83	0.94
291.207	0.99
291.584	1.53
291.961	2.1
292.338	1.15
292.715	1.81
293.092	1.19
293.469	1.27
293.845	1.85
294.222	0.33
294.599	1.74
294.975	1.07
295.352	1.73
295.728	1.28
296.105	1.65
296.481	1.69
296.858	2.21
297.234	1.54
297.61	1.54
297.986	1.57
298.363	1.86
298.739	1.28
299.115	1.25
299.491	1.08
299.867	1.26
300.243	1.5
300.619	1.2
300.995	1.06
301.371	1.61
301.746	1.16
302.122	1.7
302.498	1.21
302.874	1.41
303.249	1.51
303.625	1.26
304	2.04
304.376	1.36
304.751	0.97
305.127	1.75
305.502	0.79
305.878	0.16
306.253	1.38
306.628	1.99
307.003	1.55
307.378	1.72
307.754	2.13
308.129	1.36
308.504	2.23
308.879	1.55
309.254	2.32
309.629	1.92
310.003	1.28
310.378	2.04
310.753	1.53
311.128	1.43
311.502	1.57
311.877	2.17
312.252	0.81
312.626	1.37
313.001	1.72
313.375	1.76
313.75	1.08
314.124	1.64
314.498	1.51
314.873	1.09
315.247	1.24
315.621	1.35
315.995	0.9
316.369	1.07
316.743	1.4
317.117	1.89
317.491	1.38
317.865	1.75
318.239	1.14
318.613	2.07
318.987	1.71
319.361	0.82
319.734	2.09
320.108	1.5
320.482	1.65
320.855	2.05
321.229	1.71
321.602	1.75
321.976	2.23
322.349	2
322.723	1.56
323.096	1.41
323.469	0.44
323.843	1.66
324.216	1.71
324.589	1.27
324.962	1.78
325.335	1.59
325.708	1.87
326.081	1.13
326.454	2.25
326.827	1.44
327.2	1.51
327.573	2.08
327.945	1.33
328.318	1.22
328.691	1.18
329.063	1.83
329.436	1.19
329.809	2
330.181	1.61
330.553	1.9
330.926	1.17
331.298	1.74
331.671	0.99
332.043	2.17
332.415	1.91
332.787	1.86
333.159	2.28
333.532	2.22
333.904	2.46
334.276	1.6
334.648	2.04
335.02	1.41
335.391	0.87
335.763	1.68
336.135	1.64
336.507	1.72
336.879	1.67
337.25	1.58
337.622	1.09
337.993	1.49
338.365	1.84
338.736	1.75
339.108	1.07
339.479	1.35
339.851	1.42
340.222	2.29
340.593	1.96
340.964	1.72
341.336	1.64
341.707	0.84
342.078	1.95
342.449	2.13
342.82	1.41
343.191	2
343.562	2.02
343.933	1.33
344.303	1.76
344.674	1.55
345.045	1.45
345.416	2
345.786	1.21
346.157	1.95
346.527	1.53
346.898	1.16
347.268	1.88
347.639	1.34
348.009	1.29
348.38	1.19
348.75	1.29
349.12	1.83
349.49	2.3
349.861	1.91
350.231	0.65
350.601	1.89
350.971	2.37
351.341	1.68
351.711	1.58
352.081	1.85
352.45	2.03
352.82	2.11
353.19	1.38
353.56	1.92
353.929	1.35
354.299	1.83
354.669	1.39
355.038	1.65
355.408	1.4
355.777	1.41
356.147	1.39
356.516	1.27
356.885	1.86
357.254	1.6
357.624	1.63
357.993	1.63
358.362	1.49
358.731	1.31
359.1	1.65
359.469	1.75
359.838	1.86
360.207	1.57
360.576	1.28
360.945	1.6
361.314	1.65
361.682	1.09
362.051	1.6
362.42	1.79
362.788	1.86
363.157	1.9
363.525	1.97
363.894	1.55
364.262	1.98
364.631	1.45
364.999	1.48
365.367	1.36
365.735	2.13
366.104	1.72
366.472	1.94
366.84	1.39
367.208	1.45
367.576	2
367.944	2.09
368.312	1.49
368.68	1.35
369.048	1.79
369.416	1.62
369.783	1.47
370.151	2
370.519	2.03
370.886	2.21
371.254	1.56
371.621	2
371.989	2.08
372.356	1.38
372.724	1.57
373.091	1.54
373.458	1.71
373.826	1.82
374.193	1.78
374.56	1.93
374.927	1.82
375.294	1.45
375.661	1.64
376.028	1.51
376.395	1.7
376.762	1.54
377.129	1.75
377.496	1.35
377.863	1.61
378.229	1.15
378.596	1.94
378.963	1.61
379.329	1.84
379.696	1.86
380.062	1.8
380.429	1.65
380.795	2.1
381.161	1.84
381.528	2.03
381.894	1.91
382.26	1.66
382.626	1.89
382.993	1.54
383.359	2.28
383.725	1.52
384.091	1.75
384.457	2.1
384.823	1.85
385.188	1.66
385.554	1.53
385.92	1.88
386.286	1.71
386.651	2.02
387.017	1.87
387.383	1.8
387.748	1.74
388.114	2.12
388.479	1.75
388.845	1.85
389.21	1.93
389.575	1.78
389.94	1.86
390.306	2.05
390.671	1.95
391.036	1.26
391.401	1.77
391.766	1.77
392.131	1.69
392.496	2.01
392.861	2.09
393.226	2.1
393.591	1.88
393.956	1.44
394.32	1.72
394.685	1.6
395.05	1.68
395.414	1.85
395.779	1.5
396.143	1.77
396.508	1.87
396.872	1.91
397.236	1.69
397.601	1.63
397.965	2
398.329	1.77
398.694	1.78
399.058	2.01
399.422	1.71
399.786	2.06
400.15	1.96
400.514	2.18
400.878	1.98
401.242	2.15
401.605	1.83
401.969	1.97
402.333	1.85
402.697	1.8
403.06	1.83
403.424	1.95
403.787	1.81
404.151	1.83
404.514	1.99
404.878	1.74
405.241	2.15
405.604	1.82
405.968	1.99
406.331	1.93
406.694	2.01
407.057	1.91
407.42	2.03
407.783	1.67
408.146	1.93
408.509	1.95
408.872	1.43
409.235	1.92
409.598	2.04
409.961	1.84
410.323	2.22
410.686	1.76
411.049	1.76
411.411	1.99
411.774	1.98
412.136	1.89
412.499	1.69
412.861	1.69
413.223	1.91
413.586	2.02
413.948	2.06
414.31	1.76
414.672	1.86
415.035	1.85
415.397	2.2
415.759	1.89
416.121	1.89
416.483	1.65
416.845	1.92
417.206	1.88
417.568	1.91
417.93	1.74
418.292	1.87
418.653	1.86
419.015	1.91
419.377	1.97
419.738	1.89
420.1	2.01
420.461	2.01
420.822	1.97
421.184	1.84
421.545	1.89
421.906	1.76
422.267	1.87
422.629	1.85
422.99	1.92
423.351	1.8
423.712	1.86
424.073	1.95
424.434	1.94
424.795	1.81
425.155	1.93
425.516	1.87
425.877	1.85
426.238	1.86
426.598	1.91
426.959	1.97
427.32	1.95
427.68	1.83
428.041	1.88
428.401	1.95
428.761	2
429.122	1.97
429.482	1.87
429.842	2.01
430.202	2.05
430.563	2.06
430.923	1.73
431.283	2.05
431.643	1.97
432.003	2.02
432.363	1.97
432.722	2.08
433.082	1.97
433.442	1.94
433.802	1.86
434.161	1.92
434.521	2.19
434.881	2.19
435.24	1.74
435.6	2.02
435.959	1.88
436.319	1.9
436.678	1.99
437.037	1.94
437.396	1.81
437.756	1.97
438.115	1.99
438.474	2.09
438.833	1.92
439.192	1.97
439.551	1.98
439.91	1.99
440.269	2.1
440.628	1.99
440.987	1.95
441.345	1.86
441.704	1.99
442.063	1.93
442.421	1.95
442.78	1.89
443.138	1.92
443.497	2
443.855	2.03
444.214	1.98
444.572	1.92
444.93	2.12
445.288	1.99
445.647	2.18
446.005	1.97
446.363	2.09
446.721	2.12
447.079	1.97
447.437	2.04
447.795	2.16
448.153	1.97
448.51	2.01
448.868	2.06
449.226	1.96
449.584	2.04
449.941	2.18
450.299	2.07
450.656	2.03
451.014	2.18
451.371	2.12
451.729	2
452.086	2.2
452.443	1.95
452.801	2.03
453.158	2.07
453.515	1.96
453.872	2.29
454.229	2
454.586	2.03
454.943	2.15
455.3	2.11
455.657	1.95
456.014	2.13
456.371	2.12
456.727	2.06
457.084	2.21
457.441	2.07
457.797	2.09
458.154	2.3
458.51	2.29
458.867	2.3
459.223	2.16
459.58	2.13
459.936	2.15
460.292	2.13
460.648	2.05
461.005	2.03
461.361	2.13
461.717	2.11
462.073	2
462.429	2.09
462.785	2.06
463.141	2.06
463.496	2.13
463.852	2.3
464.208	2.09
464.564	2.36
464.919	2.1
465.275	2.08
465.631	2.49
465.986	2.04
466.342	2.15
466.697	1.99
467.052	2.3
467.408	2.33
467.763	2.15
468.118	2.19
468.473	2.09
468.829	2.21
469.184	2.1
469.539	2.28
469.894	1.92
470.249	2.16
470.603	2.2
470.958	2.27
471.313	2.39
471.668	2.45
472.023	2.27
472.377	2.18
472.732	2.19
473.086	2.15
473.441	2.01
473.795	2.33
474.15	2.32
474.504	2.16
474.859	2.16
475.213	2.07
475.567	2.17
475.921	2.13
476.275	2.3
476.63	2.18
476.984	2.32
477.338	2.29
477.692	2.25
478.045	2.2
478.399	2.28
478.753	2.34
479.107	2.26
479.461	2.22
479.814	2.39
480.168	2.24
480.521	2.19
480.875	2.25
481.228	2.26
481.582	2.21
481.935	2.25
482.289	2.37
482.642	2.2
482.995	2.24
483.348	2.28
483.701	2.23
484.055	2.38
484.408	2.35
484.761	2.17
485.114	2.18
485.466	2
485.819	2.06
486.172	2.06
486.525	2.11
486.878	2.19
487.23	2.15
487.583	2.22
487.936	2.22
488.288	2.23
488.641	2.25
488.993	2.16
489.345	2.12
489.698	2.19
490.05	2.13
490.402	2.21
490.754	2.2
491.107	2.28
491.459	2.3
491.811	2.28
492.163	2.36
492.515	2.32
492.866	2.36
493.218	2.28
493.57	2.17
493.922	2.19
494.274	2.29
494.625	2.37
494.977	2.36
495.328	2.47
495.68	2.42
496.031	2.53
496.383	2.31
496.734	2.46
497.086	2.51
497.437	2.32
497.788	2.41
498.139	2.4
498.49	2.45
498.842	2.34
499.193	2.35
499.544	2.36
499.894	2.41
500.245	2.28
500.596	2.45
500.947	2.56
501.298	2.21
501.648	2.55
501.999	2.57
502.35	2.51
502.7	2.44
503.051	2.33
503.401	2.46
503.752	2.54
504.102	2.46
504.452	2.39
504.803	2.43
505.153	2.38
505.503	2.49
505.853	2.46
506.203	2.45
506.553	2.41
506.903	2.41
507.253	2.46
507.603	2.57
507.953	2.52
508.303	2.77
508.652	2.29
509.002	2.49
509.352	2.64
509.701	2.34
510.051	2.44
510.4	2.49
510.75	2.42
511.099	2.49
511.449	2.39
511.798	2.55
512.147	2.48
512.496	2.49
512.846	2.58
513.195	2.57
513.544	2.56
513.893	2.61
514.242	2.48
514.591	2.68
514.939	2.48
515.288	2.5
515.637	2.75
515.986	2.59
516.334	2.65
516.683	2.56
517.032	2.55
517.38	2.65
517.729	2.75
518.077	2.49
518.426	2.74
518.774	2.74
519.122	2.7
519.47	2.62
519.819	2.43
520.167	2.64
520.515	2.49
520.863	2.63
521.211	2.64
521.559	2.65
521.907	2.58
522.255	2.64
522.602	2.67
522.95	2.64
523.298	2.69
523.645	2.68
523.993	2.7
524.341	2.83
524.688	2.74
525.036	2.72
525.383	2.66
525.73	2.85
526.078	2.85
526.425	2.66
526.772	2.74
527.119	2.65
527.466	2.67
527.814	2.75
528.161	2.69
528.508	2.75
528.854	2.68
529.201	2.64
529.548	2.68
529.895	2.67
530.242	2.66
530.588	2.59
530.935	2.61
531.282	2.68
531.628	2.65
531.975	2.67
532.321	2.78
532.667	2.77
533.014	2.8
533.36	2.82
533.706	2.84
534.052	2.79
534.399	2.74
534.745	2.76
535.091	2.78
535.437	2.76
535.783	2.8
536.129	2.85
536.474	2.85
536.82	2.91
537.166	2.86
537.512	2.92
537.857	2.88
538.203	2.88
538.549	2.86
538.894	2.87
539.239	2.96
539.585	2.9
539.93	2.85
540.276	3.01
540.621	3
540.966	3.01
541.311	2.84
541.656	2.94
542.001	3.1
542.346	3.1
542.691	2.91
543.036	2.91
543.381	2.9
543.726	2.85
544.071	3
544.415	3.03
544.76	2.88
545.105	3.02
545.449	3
545.794	3.15
546.138	3
546.483	3.13
546.827	3.07
547.171	3.09
547.516	3.13
547.86	3.11
548.204	3.14
548.548	3.06
548.892	3.06
549.236	3.15
549.58	3.11
549.924	3.33
550.268	3.3
550.612	3.28
550.956	3.31
551.3	3.27
551.643	3.31
551.987	3.61
552.33	3.27
552.674	3.34
553.017	3.32
553.361	3.42
553.704	3.49
554.048	3.3
554.391	3.27
554.734	3.5
555.077	3.42
555.42	3.3
555.764	3.27
556.107	3.25
556.45	3.36
556.793	3.4
557.135	3.37
557.478	3.53
557.821	3.4
558.164	3.47
558.507	3.43
558.849	3.38
559.192	3.66
559.534	3.53
559.877	3.6
560.219	3.37
560.562	3.81
560.904	3.36
561.246	3.57
561.589	3.46
561.931	3.55
562.273	3.44
562.615	3.6
562.957	3.59
563.299	3.49
563.641	3.72
563.983	3.81
564.325	3.63
564.667	3.73
565.008	3.65
565.35	3.72
565.692	3.63
566.033	3.67
566.375	3.97
566.716	3.73
567.058	3.72
567.399	3.66
567.741	3.61
568.082	3.68
568.423	3.52
568.764	3.71
569.105	3.77
569.447	3.85
569.788	3.83
570.129	3.92
570.47	3.81
570.811	4
571.151	3.91
571.492	3.83
571.833	3.9
572.174	3.93
572.514	3.97
572.855	3.88
573.195	3.86
573.536	3.92
573.876	3.72
574.217	3.81
574.557	3.94
574.898	4.15
575.238	4.09
575.578	3.88
575.918	4.12
576.258	4.09
576.598	4.04
576.938	3.93
577.278	4.01
577.618	3.93
577.958	4.01
578.298	3.99
578.638	4.12
578.977	4.06
579.317	4.02
579.657	4.42
579.996	4.17
580.336	4.27
580.675	4.09
581.014	4.2
581.354	4.31
581.693	4.29
582.032	4.21
582.372	3.91
582.711	4.32
583.05	4.24
583.389	4.24
583.728	4.04
584.067	4.6
584.406	4.28
584.745	4.17
585.083	4.45
585.422	4.49
585.761	4.73
586.1	4.31
586.438	4.6
586.777	4.71
587.115	4.99
587.454	4.58
587.792	4.44
588.13	4.66
588.469	4.55
588.807	4.71
589.145	4.24
589.483	4.25
589.821	4.37
590.159	4.67
590.497	4.83
590.835	5.17
591.173	4.59
591.511	4.99
591.849	4.59
592.187	4.86
592.524	4.74
592.862	4.76
593.2	5.01
593.537	4.61
593.875	4.58
594.212	4.76
594.55	4.92
594.887	4.93
595.224	4.63
595.561	5.03
595.899	4.89
596.236	4.64
596.573	4.83
596.91	4.71
597.247	4.87
597.584	5.06
597.921	4.79
598.258	4.69
598.594	4.91
598.931	4.97
599.268	4.92
599.604	4.91
599.941	5.05
600.277	5.02
600.614	4.88
600.95	4.83
601.287	5
601.623	5
601.959	4.95
602.296	5.14
602.632	4.88
602.968	5.34
603.304	4.97
603.64	5.06
603.976	5.23
604.312	5.15
604.648	5.11
604.984	5.3
605.319	5.3
605.655	5.26
605.991	5.17
606.326	5.39
606.662	5.36
606.998	4.88
607.333	5.3
607.668	5.37
608.004	5.36
608.339	5.56
608.674	5.33
609.01	5.17
609.345	5.09
609.68	5.49
610.015	5.58
610.35	5.39
610.685	5.45
611.02	5.47
611.355	5.53
611.689	5.44
612.024	5.48
612.359	5.6
612.694	5.58
613.028	5.49
613.363	5.57
613.697	5.82
614.032	5.79
614.366	5.69
614.7	5.52
615.035	5.76
615.369	5.45
615.703	6.08
616.037	5.82
616.371	5.62
616.705	5.85
617.039	5.98
617.373	5.72
617.707	5.89
618.041	6.08
618.375	5.82
618.709	6.06
619.042	5.68
619.376	5.83
619.71	6.37
620.043	5.63
620.377	6.11
620.71	5.91
621.043	5.95
621.377	6.23
621.71	6.17
622.043	5.66
622.376	5.92
622.709	6.32
623.043	6.14
623.376	6.01
623.709	5.98
624.041	6.58
624.374	6.15
624.707	6.23
625.04	6.32
625.373	6.09
625.705	6.08
626.038	5.91
626.37	5.75
626.703	6.3
627.035	6.32
627.368	6.91
627.7	6.18
628.032	6.19
628.365	6.18
628.697	6.47
629.029	6.38
629.361	6.43
629.693	6.67
630.025	6.1
630.357	6.62
630.689	6.38
631.021	6.53
631.353	6.47
631.684	6.3
632.016	6.53
632.348	6.75
632.679	6.66
633.011	6.6
633.342	6.89
633.674	6.52
634.005	6.79
634.336	6.91
634.668	7.32
634.999	6.84
635.33	7.15
635.661	6.82
635.992	6.7
636.323	6.73
636.654	7.12
636.985	6.82
637.316	6.71
637.647	6.63
637.977	7.15
638.308	6.83
638.639	6.57
638.969	6.85
639.3	6.99
639.63	6.65
639.961	7.18
640.291	6.92
640.622	7.32
640.952	6.93
641.282	7.42
641.612	7.32
641.943	6.81
642.273	7.21
642.603	7.31
642.933	7.49
643.263	7.42
643.592	7.17
643.922	6.99
644.252	6.81
644.582	7.43
644.911	7
645.241	7.16
645.571	7.61
645.9	7.1
646.23	7.12
646.559	7.25
646.888	7.59
647.218	7.22
647.547	7.54
647.876	7.26
648.205	7.34
648.534	7.28
648.863	6.81
649.192	8
649.521	7.68
649.85	7.52
650.179	7.53
650.508	7.4
650.837	7.15
651.165	7.33
651.494	7.85
651.822	7.47
652.151	7.4
652.479	7.65
652.808	7.73
653.136	7.76
653.465	7.03
653.793	7.64
654.121	7.6
654.449	8.07
654.777	7.56
655.105	8.28
655.433	7.73
655.761	7.58
656.089	7.91
656.417	8.19
656.745	7.57
657.073	7.76
657.4	8.78
657.728	8.49
658.056	7.78
658.383	8.12
658.711	8.14
659.038	8.08
659.365	8.35
659.693	7.88
660.02	8.23
660.347	8.11
660.674	7.97
661.001	7.96
661.329	7.13
661.656	8.08
661.982	8.09
662.309	7.95
662.636	7.88
662.963	8.47
663.29	8.38
663.616	8.33
663.943	7.34
664.27	8.12
664.596	7.99
664.923	8.67
665.249	8.7
665.576	8.29
665.902	9.35
666.228	8.88
666.554	8.36
666.881	8.42
667.207	8.76
667.533	8.52
667.859	9.03
668.185	8.88
668.511	7.69
668.837	8.03
669.162	8.52
669.488	8.71
669.814	8.7
670.139	8.35
670.465	8.91
670.791	8.81
671.116	9.37
671.442	8.75
671.767	9.02
672.092	8.66
672.418	9.2
672.743	9.01
673.068	8.5
673.393	8.59
673.718	8.7
674.043	8.93
674.368	9.29
674.693	9.86
675.018	8.68
675.343	9.16
675.667	8.9
675.992	8.72
676.317	9.2
676.641	9.43
676.966	9.57
677.29	8.63
677.615	8.76
677.939	9.55
678.264	9.46
678.588	9.09
678.912	9.2
679.236	9.74
679.56	8.6
679.885	9.46
680.209	9.28
680.532	9.59
680.856	10.24
681.18	9.39
681.504	9.51
681.828	9.81
682.152	9.11
682.475	9.79
682.799	9.54
683.122	9.15
683.446	9.06
683.769	10.05
684.093	9.53
684.416	10.36
684.739	8.93
685.062	9.3
685.386	9.94
685.709	9.1
686.032	9.71
686.355	9.81
686.678	8.74
687.001	10.25
687.324	10.18
687.646	8.99
687.969	9.19
688.292	9.2
688.614	10.17
688.937	10.83
689.26	10.41
689.582	9.81
689.904	10.21
690.227	9.51
690.549	9.71
690.871	10.66
691.194	9.74
691.516	9.55
691.838	10.53
692.16	9.29
692.482	9.92
692.804	9.84
