Data from 0404_forehead_Reflection__2__105.txt Node

Date: Fri Dec 15 17:22:28 CST 2023
User: ToomeyLab
Spectrometer: FLMS14357
Trigger mode: 0
Integration Time (sec): 1.000000E-2
Scans to average: 100
Electric dark correction enabled: true
Nonlinearity correction enabled: false
Boxcar width: 0
XAxis mode: Wavelengths
Number of Pixels in Spectrum: 2048
>>>>>Begin Spectral Data<<<<<
189.047	15.17
189.435	15.17
189.823	15.17
190.211	20.26
190.599	-212.27
190.987	174.14
191.375	60.76
191.763	-187.85
192.151	9.94
192.538	76.25
192.926	-1.71
193.314	240.51
193.702	-713.45
194.089	820
194.477	-46.91
194.864	-270.55
195.252	43.77
195.639	88.39
196.027	5.11
196.414	200.55
196.801	649.72
197.189	25.07
197.576	115.09
197.963	48.12
198.351	0.59
198.738	28.28
199.125	38.67
199.512	10.15
199.899	22.4
200.286	49.6
200.673	-38.66
201.06	46.96
201.447	18.17
201.833	40.39
202.22	-5.71
202.607	13.91
202.994	53.65
203.38	-5.49
203.767	47.39
204.154	35.97
204.54	48.87
204.927	21.24
205.313	-6.58
205.699	38.73
206.086	37.94
206.472	48.77
206.858	18.78
207.245	-31.78
207.631	30.77
208.017	32.11
208.403	53.38
208.789	18
209.175	78.5
209.561	-2.99
209.947	40.19
210.333	-54.15
210.719	23.8
211.105	4.09
211.491	-27.01
211.876	47.23
212.262	28.26
212.648	32.8
213.034	30.29
213.419	-52.36
213.805	-19.27
214.19	-12.44
214.576	33.36
214.961	23.78
215.346	-59.08
215.732	10.86
216.117	13.61
216.502	11.99
216.888	32.08
217.273	57.69
217.658	-21.45
218.043	27.41
218.428	15.65
218.813	-1.07
219.198	-67.21
219.583	14.92
219.968	38.75
220.353	-7.25
220.738	42.98
221.122	-2.18
221.507	-16.63
221.892	15.49
222.276	-33.79
222.661	8.75
223.046	12.41
223.43	11.84
223.815	7.44
224.199	-10.32
224.583	-6.05
224.968	-2.3
225.352	14.62
225.736	-8.38
226.121	-6.42
226.505	5.19
226.889	12.1
227.273	-3.34
227.657	10.67
228.041	7.62
228.425	1.19
228.809	5.94
229.193	-1.31
229.577	4.82
229.961	2.5
230.344	2.29
230.728	3.36
231.112	2.91
231.495	2.28
231.879	2.22
232.263	2.48
232.646	5.18
233.03	3.77
233.413	3.16
233.797	0.17
234.18	3.59
234.563	3.91
234.946	1.87
235.33	3.49
235.713	4.81
236.096	2.08
236.479	3.12
236.862	2.84
237.245	5.67
237.628	3.98
238.011	3.83
238.394	4.09
238.777	1.35
239.16	-0.58
239.543	3.84
239.925	3.83
240.308	3.53
240.691	5.31
241.073	3.69
241.456	4.94
241.838	2.1
242.221	1.54
242.603	3.61
242.986	2.5
243.368	3.19
243.75	2.99
244.133	2.89
244.515	3.25
244.897	3.46
245.279	3.43
245.661	3.58
246.043	2.11
246.425	1.89
246.807	2.57
247.189	4.04
247.571	3.21
247.953	3.31
248.335	2.65
248.717	2.82
249.098	2.77
249.48	3.19
249.862	2.69
250.243	2.9
250.625	3.25
251.006	3.41
251.388	2.4
251.769	3.64
252.151	3.62
252.532	3.2
252.913	2.92
253.295	2.47
253.676	2.86
254.057	3
254.438	2.71
254.819	3.5
255.2	2.11
255.581	2.42
255.962	2.62
256.343	3.14
256.724	2.39
257.105	1.9
257.486	2.6
257.867	3.92
258.247	3.81
258.628	4.47
259.009	3.26
259.389	3.6
259.77	3.02
260.15	2.45
260.531	2.58
260.911	3.55
261.292	2.93
261.672	2.64
262.052	2.7
262.432	3.36
262.813	2.82
263.193	3.51
263.573	2.07
263.953	2.79
264.333	3.85
264.713	2.43
265.093	2.57
265.473	3.38
265.853	1.74
266.233	4.19
266.612	0.73
266.992	1.72
267.372	4.27
267.752	2.79
268.131	2.84
268.511	3.46
268.89	3.1
269.27	2.56
269.649	2.33
270.029	2.47
270.408	3.78
270.787	3.6
271.167	3.8
271.546	3.3
271.925	2.16
272.304	2.64
272.683	3.38
273.062	2.74
273.441	2.69
273.82	1.76
274.199	3.32
274.578	3
274.957	2.93
275.336	2.93
275.715	2.65
276.093	2.61
276.472	3.4
276.851	3.09
277.229	2.29
277.608	2.68
277.986	2.81
278.365	2.89
278.743	2.95
279.122	2.64
279.5	2.61
279.878	3.4
280.257	2.35
280.635	2.17
281.013	2.08
281.391	3.02
281.769	3.18
282.147	2.93
282.525	3.69
282.903	2.86
283.281	3.09
283.659	2.92
284.037	3.37
284.415	3.26
284.792	3.65
285.17	2.03
285.548	2.65
285.925	3.1
286.303	2.91
286.68	2.73
287.058	2.94
287.435	2.59
287.813	2.84
288.19	2.81
288.567	2.55
288.945	3.15
289.322	3.59
289.699	3.01
290.076	3.26
290.453	2.67
290.83	2.96
291.207	2.43
291.584	3.4
291.961	3.52
292.338	2.84
292.715	2.86
293.092	3.1
293.469	3.17
293.845	3.49
294.222	2.8
294.599	3.26
294.975	3.26
295.352	3.52
295.728	2.92
296.105	3.31
296.481	3.22
296.858	3.3
297.234	3.04
297.61	3.39
297.986	3.46
298.363	3.84
298.739	3.42
299.115	2.82
299.491	3.09
299.867	3.79
300.243	3.62
300.619	3.16
300.995	3.53
301.371	3.93
301.746	3.28
302.122	4.19
302.498	3.74
302.874	3.82
303.249	4.38
303.625	3.91
304	4.25
304.376	3.81
304.751	3.35
305.127	4.57
305.502	3.55
305.878	3.63
306.253	4.26
306.628	4.27
307.003	4.38
307.378	4.61
307.754	3.92
308.129	3.16
308.504	3.62
308.879	4.45
309.254	4.42
309.629	4.81
310.003	4.2
310.378	4.67
310.753	4.27
311.128	4.55
311.502	4.09
311.877	4.68
312.252	4.29
312.626	4.4
313.001	4.13
313.375	4.49
313.75	3.87
314.124	4.78
314.498	4.71
314.873	4.38
315.247	4.34
315.621	5.18
315.995	4.62
316.369	5.08
316.743	3.35
317.117	5.6
317.491	4.91
317.865	5.17
318.239	5.12
318.613	5.06
318.987	4.99
319.361	5.26
319.734	5.1
320.108	4.99
320.482	5.19
320.855	5.7
321.229	4.61
321.602	5.28
321.976	5.91
322.349	5.41
322.723	5.47
323.096	6.19
323.469	5.65
323.843	5.55
324.216	6
324.589	5.55
324.962	5.97
325.335	5.54
325.708	5.01
326.081	5.53
326.454	5.37
326.827	5.7
327.2	5.31
327.573	5.89
327.945	6.15
328.318	5.37
328.691	5.76
329.063	6.03
329.436	5.71
329.809	6.42
330.181	6.25
330.553	5.71
330.926	5.76
331.298	6.22
331.671	5.57
332.043	6.82
332.415	6.48
332.787	6.34
333.159	6.23
333.532	6.06
333.904	6.67
334.276	6.15
334.648	6.2
335.02	5.67
335.391	6.31
335.763	5.93
336.135	6.34
336.507	6.52
336.879	6.22
337.25	6.36
337.622	6.43
337.993	6.85
338.365	6.93
338.736	6.71
339.108	6.53
339.479	6.85
339.851	6.4
340.222	6.49
340.593	6.73
340.964	5.74
341.336	7.03
341.707	6.54
342.078	6.46
342.449	6.94
342.82	6.53
343.191	6.63
343.562	6.75
343.933	6.91
344.303	6.9
344.674	6.39
345.045	7.48
345.416	7.15
345.786	6.22
346.157	6.77
346.527	6.4
346.898	6.32
347.268	7.47
347.639	6.91
348.009	7.08
348.38	6.8
348.75	6.78
349.12	6.69
349.49	7.35
349.861	6.93
350.231	7.01
350.601	6.94
350.971	7.81
351.341	7.07
351.711	7.38
352.081	7.31
352.45	7.07
352.82	7.6
353.19	7.4
353.56	7.2
353.929	7.1
354.299	7.44
354.669	7.57
355.038	7.36
355.408	7.4
355.777	7.34
356.147	7.13
356.516	7.04
356.885	7.28
357.254	7.88
357.624	7.34
357.993	7.87
358.362	7.33
358.731	7.28
359.1	7.5
359.469	7.39
359.838	7.68
360.207	7.31
360.576	7.53
360.945	7.65
361.314	7.99
361.682	7.83
362.051	7.54
362.42	7.91
362.788	7.83
363.157	7.99
363.525	7.86
363.894	7.93
364.262	8.02
364.631	7.88
364.999	7.99
365.367	7.62
365.735	8.34
366.104	8.45
366.472	8.16
366.84	7.94
367.208	8.08
367.576	8.32
367.944	8.2
368.312	7.93
368.68	7.84
369.048	8.58
369.416	8.51
369.783	8.22
370.151	8.41
370.519	8.54
370.886	8.48
371.254	7.82
371.621	8.46
371.989	8.8
372.356	7.87
372.724	8.51
373.091	8.24
373.458	8.54
373.826	8.33
374.193	8.42
374.56	8.96
374.927	8.59
375.294	8.82
375.661	8.37
376.028	8.33
376.395	8.57
376.762	8.63
377.129	8.66
377.496	8.51
377.863	9
378.229	8.3
378.596	8.9
378.963	8.7
379.329	8.64
379.696	9.23
380.062	9.15
380.429	8.69
380.795	8.78
381.161	8.79
381.528	9.11
381.894	8.61
382.26	8.95
382.626	8.93
382.993	8.71
383.359	9.41
383.725	9.21
384.091	9.15
384.457	9.1
384.823	9.17
385.188	9.14
385.554	9.26
385.92	9.53
386.286	9.45
386.651	9.38
387.017	9.31
387.383	9.47
387.748	9.16
388.114	9.64
388.479	9.55
388.845	9.79
389.21	9.69
389.575	9.27
389.94	9.65
390.306	9.87
390.671	9.91
391.036	9.08
391.401	9.31
391.766	9.67
392.131	9.52
392.496	9.85
392.861	9.6
393.226	9.57
393.591	9.52
393.956	9.55
394.32	9.92
394.685	9.51
395.05	9.91
395.414	9.87
395.779	9.53
396.143	9.72
396.508	9.78
396.872	9.96
397.236	10.01
397.601	9.78
397.965	9.86
398.329	10.19
398.694	10.02
399.058	10.13
399.422	9.96
399.786	10.19
400.15	10.01
400.514	10.08
400.878	10.21
401.242	10.26
401.605	10.17
401.969	10.17
402.333	10.32
402.697	10.15
403.06	10.38
403.424	10.28
403.787	10.33
404.151	10.31
404.514	10.43
404.878	10.35
405.241	10.68
405.604	10.09
405.968	10.23
406.331	10.48
406.694	10.46
407.057	10.32
407.42	10.33
407.783	10.44
408.146	10.47
408.509	10.6
408.872	10.46
409.235	10.59
409.598	10.61
409.961	10.44
410.323	10.76
410.686	10.4
411.049	10.35
411.411	10.48
411.774	10.31
412.136	10.73
412.499	10.49
412.861	10.48
413.223	10.49
413.586	10.69
413.948	10.66
414.31	10.6
414.672	10.6
415.035	10.84
415.397	10.95
415.759	10.59
416.121	10.87
416.483	10.71
416.845	10.82
417.206	11.16
417.568	10.86
417.93	10.7
418.292	10.74
418.653	11.03
419.015	10.88
419.377	10.68
419.738	11.04
420.1	10.78
420.461	10.87
420.822	10.99
421.184	10.78
421.545	10.99
421.906	10.85
422.267	11
422.629	10.96
422.99	10.9
423.351	10.91
423.712	11.03
424.073	11
424.434	11.24
424.795	11.07
425.155	11.15
425.516	11.12
425.877	11.05
426.238	11.11
426.598	11.27
426.959	11.36
427.32	11.31
427.68	11.4
428.041	11.49
428.401	11.51
428.761	11.59
429.122	11.74
429.482	11.71
429.842	11.9
430.202	11.79
430.563	11.81
430.923	11.82
431.283	11.89
431.643	11.93
432.003	11.72
432.363	12.09
432.722	11.98
433.082	12.05
433.442	12.01
433.802	11.99
434.161	12.06
434.521	12.18
434.881	12.09
435.24	11.93
435.6	12.13
435.959	12.12
436.319	12.1
436.678	12.16
437.037	12.32
437.396	12.19
437.756	12.42
438.115	12.24
438.474	12.69
438.833	12.24
439.192	12.35
439.551	12.7
439.91	12.34
440.269	12.45
440.628	12.49
440.987	12.45
441.345	12.32
441.704	12.45
442.063	12.28
442.421	12.64
442.78	12.4
443.138	12.33
443.497	12.64
443.855	12.68
444.214	12.73
444.572	12.67
444.93	12.82
445.288	12.76
445.647	12.76
446.005	12.62
446.363	12.92
446.721	12.8
447.079	12.71
447.437	12.67
447.795	12.71
448.153	12.57
448.51	12.86
448.868	12.81
449.226	12.91
449.584	12.95
449.941	13.18
450.299	12.99
450.656	13.3
451.014	13.26
451.371	13.19
451.729	13.12
452.086	13.48
452.443	13.25
452.801	13.6
453.158	13.31
453.515	13.34
453.872	13.45
454.229	13.35
454.586	13.31
454.943	13.64
455.3	13.53
455.657	13.62
456.014	13.47
456.371	13.67
456.727	13.49
457.084	14.05
457.441	13.68
457.797	13.93
458.154	13.93
458.51	13.95
458.867	13.98
459.223	13.84
459.58	13.85
459.936	13.95
460.292	13.8
460.648	13.69
461.005	13.61
461.361	13.69
461.717	13.61
462.073	13.65
462.429	13.89
462.785	13.99
463.141	14.12
463.496	14.18
463.852	14.37
464.208	14.18
464.564	14.27
464.919	14.19
465.275	14.17
465.631	14.29
465.986	14.28
466.342	14.17
466.697	14.21
467.052	14.42
467.408	14.42
467.763	14.49
468.118	14.58
468.473	14.32
468.829	14.36
469.184	14.32
469.539	14.64
469.894	14.32
470.249	14.75
470.603	14.68
470.958	14.88
471.313	14.75
471.668	14.72
472.023	14.64
472.377	14.67
472.732	14.74
473.086	14.8
473.441	14.81
473.795	14.91
474.15	14.97
474.504	14.75
474.859	14.95
475.213	14.68
475.567	14.97
475.921	14.86
476.275	15.01
476.63	15.18
476.984	15.16
477.338	15.31
477.692	14.86
478.045	14.99
478.399	15.15
478.753	15.17
479.107	15.25
479.461	15.12
479.814	15.01
480.168	15.17
480.521	15.01
480.875	15.25
481.228	15.27
481.582	15.22
481.935	15.3
482.289	15.3
482.642	15.2
482.995	15.2
483.348	15.03
483.701	15.12
484.055	15.18
484.408	15.03
484.761	14.95
485.114	14.61
485.466	14.19
485.819	14.18
486.172	14.46
486.525	14.78
486.878	15.03
487.23	15.25
487.583	15.35
487.936	15.39
488.288	15.22
488.641	15.04
488.993	14.86
489.345	14.86
489.698	14.91
490.05	14.95
490.402	15.22
490.754	15.39
491.107	15.57
491.459	15.69
491.811	15.69
492.163	15.7
492.515	15.78
492.866	15.61
493.218	15.06
493.57	15.01
493.922	15.2
494.274	15.65
494.625	15.89
494.977	15.96
495.328	16.25
495.68	16.27
496.031	16.34
496.383	16.21
496.734	16.45
497.086	16.29
497.437	16.19
497.788	16.28
498.139	16.25
498.49	16.2
498.842	16.07
499.193	16.19
499.544	16.31
499.894	16.25
500.245	16.43
500.596	16.38
500.947	16.33
501.298	16.69
501.648	16.54
501.999	16.71
502.35	16.46
502.7	16.63
503.051	16.56
503.401	16.6
503.752	16.65
504.102	16.71
504.452	16.61
504.803	16.65
505.153	16.69
505.503	16.88
505.853	16.59
506.203	16.82
506.553	16.92
506.903	16.79
507.253	16.87
507.603	16.93
507.953	16.97
508.303	17.02
508.652	16.92
509.002	17.15
509.352	17.1
509.701	16.92
510.051	16.89
510.4	16.79
510.75	16.89
511.099	16.98
511.449	16.97
511.798	17.09
512.147	16.96
512.496	17.06
512.846	17.08
513.195	17.15
513.544	17.04
513.893	17.21
514.242	17.18
514.591	17.2
514.939	17.28
515.288	17.22
515.637	17.35
515.986	17.36
516.334	17.45
516.683	17.55
517.032	17.51
517.38	17.66
517.729	17.36
518.077	17.49
518.426	17.41
518.774	17.52
519.122	17.38
519.47	17.43
519.819	17.31
520.167	17.26
520.515	17.25
520.863	17.41
521.211	17.44
521.559	17.59
521.907	17.62
522.255	17.63
522.602	17.64
522.95	17.81
523.298	17.79
523.645	17.9
523.993	17.82
524.341	18.06
524.688	18.03
525.036	17.98
525.383	17.97
525.73	18.03
526.078	17.9
526.425	17.8
526.772	17.78
527.119	17.53
527.466	17.46
527.814	17.49
528.161	17.54
528.508	17.77
528.854	17.79
529.201	17.84
529.548	17.62
529.895	17.28
530.242	16.95
530.588	16.83
530.935	17.06
531.282	17.44
531.628	17.69
531.975	17.79
532.321	17.94
532.667	18.12
533.014	18.19
533.36	18.08
533.706	18.14
534.052	18.08
534.399	17.94
534.745	17.85
535.091	17.53
535.437	17.66
535.783	17.88
536.129	18.09
536.474	18.3
536.82	18.46
537.166	18.56
537.512	18.46
537.857	18.46
538.203	18.36
538.549	18.08
538.894	18.18
539.239	18.42
539.585	18.65
539.93	18.72
540.276	18.88
540.621	18.8
540.966	18.74
541.311	18.7
541.656	18.82
542.001	18.66
542.346	18.46
542.691	18.32
543.036	17.9
543.381	17.88
543.726	18.12
544.071	18.48
544.415	18.63
544.76	18.54
545.105	18.63
545.449	18.63
545.794	18.91
546.138	18.86
546.483	19.02
546.827	19.04
547.171	19.03
547.516	19.15
547.86	19.02
548.204	19.01
548.548	18.96
548.892	19.07
549.236	19.02
549.58	19.2
549.924	19.33
550.268	19.46
550.612	19.51
550.956	19.66
551.3	19.77
551.643	19.48
551.987	19.8
552.33	19.76
552.674	19.56
553.017	19.6
553.361	19.75
553.704	19.74
554.048	19.6
554.391	19.49
554.734	19.52
555.077	19.79
555.42	19.6
555.764	19.54
556.107	19.8
556.45	19.86
556.793	19.88
557.135	20.04
557.478	20.14
557.821	19.93
558.164	20.04
558.507	19.81
558.849	19.85
559.192	20.02
559.534	20.15
559.877	20.21
560.219	20.07
560.562	20.26
560.904	20.4
561.246	20.24
561.589	20.52
561.931	20.01
562.273	20.12
562.615	20.4
562.957	20.27
563.299	20.07
563.641	20.27
563.983	20.25
564.325	20.33
564.667	20.2
565.008	20.43
565.35	20.24
565.692	20.23
566.033	20.48
566.375	20.47
566.716	20.45
567.058	20.56
567.399	20.37
567.741	20.14
568.082	20.49
568.423	20.3
568.764	20.38
569.105	20.62
569.447	20.9
569.788	20.65
570.129	20.68
570.47	20.69
570.811	20.82
571.151	20.86
571.492	20.86
571.833	20.67
572.174	20.77
572.514	20.79
572.855	20.67
573.195	20.7
573.536	20.65
573.876	20.53
574.217	20.72
574.557	20.62
574.898	20.96
575.238	20.97
575.578	20.82
575.918	21.07
576.258	21.11
576.598	20.91
576.938	20.83
577.278	20.91
577.618	20.81
577.958	21.06
578.298	21.01
578.638	21.19
578.977	21.22
579.317	21.08
579.657	21.07
579.996	21.44
580.336	21.41
580.675	21.14
581.014	21.63
581.354	21.39
581.693	21.52
582.032	21.71
582.372	21.2
582.711	21.47
583.05	21.2
583.389	21.57
583.728	21.29
584.067	21.6
584.406	21.75
584.745	21.6
585.083	21.62
585.422	22.01
585.761	21.71
586.1	21.73
586.438	21.76
586.777	22.03
587.115	21.92
587.454	21.93
587.792	21.99
588.13	21.92
588.469	21.74
588.807	21.78
589.145	21.57
589.483	21.9
589.821	22.31
590.159	21.71
590.497	22.13
590.835	22.22
591.173	22.04
591.511	21.68
591.849	21.99
592.187	22.23
592.524	22.16
592.862	22.02
593.2	22.07
593.537	22.01
593.875	22.25
594.212	21.89
594.55	22.2
594.887	22.29
595.224	22.02
595.561	22
595.899	22.29
596.236	22.09
596.573	22.33
596.91	22.01
597.247	22.16
597.584	22.62
597.921	22.2
598.258	22.07
598.594	21.99
598.931	21.91
599.268	21.97
599.604	21.99
599.941	22.34
600.277	22.53
600.614	22.68
600.95	22.43
601.287	22.63
601.623	22.71
601.959	22.54
602.296	22.57
602.632	22.67
602.968	22.47
603.304	22.56
603.64	23
603.976	22.63
604.312	22.68
604.648	22.56
604.984	22.79
605.319	22.63
605.655	22.51
605.991	22.65
606.326	22.56
606.662	22.29
606.998	22.21
607.333	22.59
607.668	22.87
608.004	22.94
608.339	23.08
608.674	23.03
609.01	23.16
609.345	22.92
609.68	23.15
610.015	22.81
610.35	22.73
610.685	22.54
611.02	22.58
611.355	22.97
611.689	22.32
612.024	22.63
612.359	22.93
612.694	23.02
613.028	22.96
613.363	23.05
613.697	23.3
614.032	23.3
614.366	23.17
614.7	23.29
615.035	23.35
615.369	23.01
615.703	23.36
616.037	23.46
616.371	23.25
616.705	23.56
617.039	23.51
617.373	23.4
617.707	23.32
618.041	23.42
618.375	23.43
618.709	23.61
619.042	23.4
619.376	24
619.71	24.02
620.043	23.64
620.377	23.35
620.71	23.31
621.043	23.68
621.377	23.51
621.71	23.72
622.043	23.29
622.376	23.44
622.709	23.83
623.043	24.22
623.376	23.84
623.709	23.65
624.041	24.08
624.374	23.75
624.707	24.07
625.04	23.97
625.373	23.61
625.705	23.81
626.038	23.8
626.37	23.7
626.703	23.64
627.035	24.32
627.368	24.73
627.7	23.6
628.032	23.21
628.365	23.64
628.697	23.94
629.029	23.76
629.361	23.66
629.693	24.28
630.025	23.77
630.357	24.32
630.689	24.38
631.021	24.16
631.353	23.81
631.684	24.13
632.016	24.12
632.348	24.02
632.679	24.15
633.011	24.54
633.342	24.31
633.674	24.06
634.005	24.66
634.336	24.38
634.668	24.5
634.999	24.37
635.33	24.17
635.661	24.74
635.992	24.14
636.323	24.3
636.654	24.24
636.985	24.24
637.316	24.2
637.647	24.06
637.977	24.55
638.308	24.74
638.639	24.16
638.969	24.04
639.3	24.47
639.63	24.49
639.961	25.09
640.291	24.45
640.622	24.96
640.952	24.84
641.282	25.15
641.612	25.04
641.943	24.41
642.273	24.97
642.603	25.21
642.933	25.09
643.263	24.97
643.592	24.84
643.922	24.73
644.252	24.65
644.582	24.66
644.911	24.89
645.241	24.84
645.571	24.95
645.9	24.59
646.23	24.95
646.559	25.46
646.888	24.99
647.218	25.04
647.547	25.52
647.876	25.11
648.205	25.53
648.534	24.79
648.863	24.61
649.192	25.4
649.521	25.01
649.85	25.59
650.179	25.42
650.508	24.95
650.837	24.92
651.165	24.67
651.494	24.77
651.822	24.9
652.151	25.11
652.479	25.38
652.808	25.07
653.136	25.07
653.465	24.87
653.793	24.97
654.121	25.39
654.449	25.15
654.777	25.12
655.105	25.68
655.433	25.19
655.761	25.42
656.089	25.47
656.417	25.47
656.745	24.94
657.073	25.59
657.4	25.87
657.728	26
658.056	25.38
658.383	25.68
658.711	25.81
659.038	25.95
659.365	25.57
659.693	25.25
660.02	25.31
660.347	25.37
660.674	25.76
661.001	25.53
661.329	24.56
661.656	25.34
661.982	25.33
662.309	25.43
662.636	25.48
662.963	26.26
663.29	25.91
663.616	25.79
663.943	25.51
664.27	25.35
664.596	25.96
664.923	25.71
665.249	26.5
665.576	26.07
665.902	26.55
666.228	25.94
666.554	26.54
666.881	26.05
667.207	26.26
667.533	26.38
667.859	25.85
668.185	26.05
668.511	26.27
668.837	26.18
669.162	26.16
669.488	25.77
669.814	25.52
670.139	26.09
670.465	26.33
670.791	26.45
671.116	26.27
671.442	26.15
671.767	26.28
672.092	26.76
672.418	26.05
672.743	26.63
673.068	25.71
673.393	26.68
673.718	26.26
