Data from 0404_crown_Reflection__2__99.txt Node

Date: Fri Dec 15 17:20:49 CST 2023
User: ToomeyLab
Spectrometer: FLMS14357
Trigger mode: 0
Integration Time (sec): 1.000000E-2
Scans to average: 100
Electric dark correction enabled: true
Nonlinearity correction enabled: false
Boxcar width: 0
XAxis mode: Wavelengths
Number of Pixels in Spectrum: 2048
>>>>>Begin Spectral Data<<<<<
189.047	-67.25
189.435	-67.25
189.823	-67.25
190.211	6.53
190.599	-159.53
190.987	224.03
191.375	-9.22
191.763	165.42
192.151	128.99
192.538	64.78
192.926	38.65
193.314	155.9
193.702	-143.7
194.089	183.43
194.477	24.55
194.864	-652.15
195.252	64.3
195.639	59.38
196.027	54.55
196.414	241.97
196.801	-66.48
197.189	57.82
197.576	47.66
197.963	309.56
198.351	-32.32
198.738	-40.77
199.125	40.43
199.512	-1.8
199.899	36.3
200.286	28.11
200.673	48.93
201.06	26.4
201.447	-42.56
201.833	-5.61
202.22	40.52
202.607	21.64
202.994	-22.31
203.38	16.26
203.767	34.72
204.154	7.49
204.54	26.01
204.927	-19.44
205.313	1.47
205.699	25.72
206.086	18.11
206.472	35.46
206.858	21.83
207.245	-10.44
207.631	39.93
208.017	-6.77
208.403	-3.56
208.789	24.97
209.175	40.77
209.561	-10.36
209.947	29.36
210.333	-19.62
210.719	14.58
211.105	10.65
211.491	-23.36
211.876	31.11
212.262	5.68
212.648	-22.3
213.034	24.07
213.419	-25.21
213.805	-49.22
214.19	1.03
214.576	-18.9
214.961	17.64
215.346	-88.25
215.732	-18.13
216.117	17.84
216.502	9.29
216.888	12.96
217.273	30.79
217.658	0.08
218.043	12.2
218.428	-73.82
218.813	-20.92
219.198	-45.33
219.583	8.12
219.968	-7.42
220.353	-11.82
220.738	14.23
221.122	14.17
221.507	-19.74
221.892	-35.88
222.276	-18.43
222.661	-5.33
223.046	1.23
223.43	15.12
223.815	18.99
224.199	-16.13
224.583	3.95
224.968	2.63
225.352	13.7
225.736	2.24
226.121	-8.14
226.505	4.83
226.889	6.67
227.273	-0.95
227.657	4.58
228.041	4.04
228.425	0.88
228.809	8.52
229.193	3
229.577	4.04
229.961	4.14
230.344	2.66
230.728	3.49
231.112	3.47
231.495	4.26
231.879	2.98
232.263	4.41
232.646	4.72
233.03	3.22
233.413	0.96
233.797	3.54
234.18	5.1
234.563	2.2
234.946	1.34
235.33	4.05
235.713	3.1
236.096	2.97
236.479	5.11
236.862	1.83
237.245	7.12
237.628	2.15
238.011	4.25
238.394	4.95
238.777	4.72
239.16	3.91
239.543	2.96
239.925	3.01
240.308	5.42
240.691	4.52
241.073	3.76
241.456	3.71
241.838	1.83
242.221	2.82
242.603	4.52
242.986	3.52
243.368	3.86
243.75	3.94
244.133	3.18
244.515	3.15
244.897	2.97
245.279	3.36
245.661	3.55
246.043	2.36
246.425	2.03
246.807	4.45
247.189	4.22
247.571	3.51
247.953	4.13
248.335	2.89
248.717	3.78
249.098	3.39
249.48	3.24
249.862	3.34
250.243	3.81
250.625	3.85
251.006	3.36
251.388	2.07
251.769	3.52
252.151	3.73
252.532	2.89
252.913	2.57
253.295	2.2
253.676	3.28
254.057	3.08
254.438	3.69
254.819	3.97
255.2	2.49
255.581	3.63
255.962	3.2
256.343	4.54
256.724	4.17
257.105	4.2
257.486	4.27
257.867	2.94
258.247	3.39
258.628	3.94
259.009	3.58
259.389	3.24
259.77	2.7
260.15	2.84
260.531	2.29
260.911	3.91
261.292	2.97
261.672	3.3
262.052	3.27
262.432	3.48
262.813	3.19
263.193	3.25
263.573	2.77
263.953	2.19
264.333	3.44
264.713	2.69
265.093	3.23
265.473	3.23
265.853	2.54
266.233	3.7
266.612	1.59
266.992	2.03
267.372	4.06
267.752	3.29
268.131	3.18
268.511	3.2
268.89	3.69
269.27	2.64
269.649	2.59
270.029	2.7
270.408	4.29
270.787	3.22
271.167	3.56
271.546	4.2
271.925	2.29
272.304	3.14
272.683	3.51
273.062	2.24
273.441	3.25
273.82	2.74
274.199	3.25
274.578	3.35
274.957	3.22
275.336	2.42
275.715	3.31
276.093	3.03
276.472	2.43
276.851	2.76
277.229	3.66
277.608	2.44
277.986	3.38
278.365	3.54
278.743	3.04
279.122	2.92
279.5	3.28
279.878	3.47
280.257	3.15
280.635	3.39
281.013	2.81
281.391	3.5
281.769	3.81
282.147	2.83
282.525	3.3
282.903	2.58
283.281	3.47
283.659	3.82
284.037	3.32
284.415	3.19
284.792	3.55
285.17	1.99
285.548	3.14
285.925	3.14
286.303	3.01
286.68	2.66
287.058	2.98
287.435	3.04
287.813	3.67
288.19	2.92
288.567	2.84
288.945	3.87
289.322	2.85
289.699	3.68
290.076	3.24
290.453	3.33
290.83	3.25
291.207	3.26
291.584	3.2
291.961	3.35
292.338	3.52
292.715	3.65
293.092	2.84
293.469	2.83
293.845	3.36
294.222	2.44
294.599	3.17
294.975	2.72
295.352	3.15
295.728	2.96
296.105	2.96
296.481	3.2
296.858	3.36
297.234	3.41
297.61	3.08
297.986	3.41
298.363	3.47
298.739	3.64
299.115	2.9
299.491	3.19
299.867	2.99
300.243	3.62
300.619	3.45
300.995	2.39
301.371	3.55
301.746	3.3
302.122	3.88
302.498	3.1
302.874	3.07
303.249	3.3
303.625	3.1
304	3.27
304.376	3.14
304.751	3.28
305.127	4.07
305.502	2.63
305.878	2.7
306.253	3.48
306.628	3.68
307.003	3.53
307.378	3.2
307.754	3.06
308.129	2.4
308.504	3.46
308.879	3.29
309.254	3.47
309.629	4.13
310.003	3.06
310.378	3.9
310.753	4.11
311.128	3.47
311.502	3.6
311.877	3.66
312.252	3.21
312.626	3.58
313.001	3.17
313.375	3.44
313.75	3.17
314.124	3.42
314.498	3.58
314.873	3.26
315.247	2.94
315.621	3.82
315.995	2.5
316.369	3
316.743	3.53
317.117	3.97
317.491	2.9
317.865	3.12
318.239	4.02
318.613	4.1
318.987	4.21
319.361	3.84
319.734	4.93
320.108	4.09
320.482	3.56
320.855	3.7
321.229	3.57
321.602	4.17
321.976	3.76
322.349	3.96
322.723	3.56
323.096	4.28
323.469	3.37
323.843	3.17
324.216	3.59
324.589	3.33
324.962	3.53
325.335	3.51
325.708	3.15
326.081	3.93
326.454	3.78
326.827	3.73
327.2	3.51
327.573	3.87
327.945	3.98
328.318	3.34
328.691	3.32
329.063	3.43
329.436	3.55
329.809	3.86
330.181	3.93
330.553	3.27
330.926	3.77
331.298	4.17
331.671	3.7
332.043	4.2
332.415	4.48
332.787	3.59
333.159	4.32
333.532	3.93
333.904	3.84
334.276	3.63
334.648	3.96
335.02	3.58
335.391	3.6
335.763	3.89
336.135	4.06
336.507	4.18
336.879	3.65
337.25	3.22
337.622	3.69
337.993	3.46
338.365	3.51
338.736	4.23
339.108	3.66
339.479	3.91
339.851	3.52
340.222	4.21
340.593	4.25
340.964	3.71
341.336	4.39
341.707	3.74
342.078	4.41
342.449	4.2
342.82	3.9
343.191	4.3
343.562	4.11
343.933	4.43
344.303	4.07
344.674	3.84
345.045	3.95
345.416	4.33
345.786	3.59
346.157	4.32
346.527	3.49
346.898	3.48
347.268	4.03
347.639	4.13
348.009	4.07
348.38	3.69
348.75	3.46
349.12	3.83
349.49	4.47
349.861	3.93
350.231	3.83
350.601	4.16
350.971	3.88
351.341	4.14
351.711	4.51
352.081	4.12
352.45	3.87
352.82	4.29
353.19	4.38
353.56	3.73
353.929	4.12
354.299	4.11
354.669	3.4
355.038	4.27
355.408	3.95
355.777	3.88
356.147	4.13
356.516	4.35
356.885	4
357.254	4.08
357.624	4.38
357.993	4.14
358.362	3.75
358.731	3.61
359.1	3.98
359.469	4.18
359.838	4.05
360.207	3.94
360.576	3.85
360.945	4.38
361.314	4.45
361.682	3.79
362.051	4.22
362.42	4.2
362.788	4.03
363.157	4.38
363.525	4.37
363.894	4.17
364.262	4.15
364.631	4.15
364.999	4.28
365.367	3.82
365.735	4.83
366.104	4.34
366.472	4.59
366.84	3.87
367.208	4.13
367.576	4.47
367.944	4.46
368.312	4.09
368.68	3.97
369.048	4.41
369.416	4.05
369.783	4.57
370.151	4.51
370.519	4.61
370.886	4.42
371.254	4.25
371.621	4.79
371.989	4.42
372.356	4.1
372.724	4.52
373.091	4.04
373.458	4.46
373.826	4.38
374.193	4.2
374.56	4.63
374.927	4.34
375.294	4.61
375.661	4.55
376.028	4.29
376.395	4.23
376.762	4.21
377.129	4.66
377.496	4.1
377.863	4.45
378.229	4.02
378.596	4.79
378.963	4.44
379.329	4.41
379.696	4.45
380.062	4.49
380.429	4.61
380.795	4.37
381.161	4.55
381.528	4.71
381.894	4.51
382.26	4.54
382.626	4.32
382.993	4.15
383.359	4.62
383.725	4.42
384.091	4.62
384.457	4.54
384.823	4.43
385.188	4.51
385.554	4.44
385.92	4.6
386.286	4.76
386.651	4.61
387.017	4.83
387.383	4.73
387.748	4.57
388.114	4.81
388.479	4.44
388.845	4.62
389.21	4.91
389.575	4.95
389.94	4.68
390.306	4.77
390.671	4.69
391.036	4.52
391.401	4.42
391.766	4.94
392.131	4.6
392.496	4.74
392.861	4.52
393.226	4.86
393.591	4.75
393.956	4.56
394.32	4.71
394.685	4.71
395.05	4.68
395.414	4.95
395.779	4.45
396.143	5.02
396.508	4.41
396.872	4.89
397.236	4.79
397.601	4.44
397.965	4.98
398.329	4.83
398.694	5.1
399.058	4.9
399.422	4.66
399.786	5.02
400.15	5.06
400.514	4.9
400.878	5.02
401.242	5.19
401.605	4.88
401.969	5.18
402.333	5.09
402.697	5.19
403.06	5.13
403.424	4.86
403.787	4.75
404.151	5.12
404.514	4.94
404.878	4.84
405.241	5.03
405.604	4.72
405.968	5.03
406.331	4.87
406.694	5.08
407.057	4.86
407.42	5.04
407.783	4.77
408.146	4.98
408.509	5.29
408.872	4.81
409.235	5.07
409.598	5.34
409.961	5.11
410.323	5.4
410.686	5.04
411.049	5.04
411.411	5.13
411.774	5.02
412.136	4.88
412.499	4.83
412.861	4.98
413.223	5.07
413.586	5.16
413.948	5.11
414.31	5.16
414.672	4.91
415.035	5.19
415.397	5.3
415.759	5.15
416.121	5.19
416.483	4.98
416.845	5.06
417.206	5
417.568	5.14
417.93	4.93
418.292	5.15
418.653	5.1
419.015	5.18
419.377	5.15
419.738	5.11
420.1	5.34
420.461	5.2
420.822	5.18
421.184	5
421.545	5.09
421.906	5.02
422.267	5.09
422.629	5.09
422.99	5.1
423.351	5.13
423.712	5.07
424.073	5.22
424.434	5.2
424.795	5.19
425.155	5.19
425.516	5.01
425.877	5.13
426.238	5.08
426.598	5.22
426.959	5.13
427.32	5.16
427.68	5.18
428.041	5.21
428.401	5.3
428.761	5.37
429.122	5.42
429.482	5.14
429.842	5.5
430.202	5.33
430.563	5.36
430.923	5.32
431.283	5.45
431.643	5.35
432.003	5.23
432.363	5.49
432.722	5.51
433.082	5.47
433.442	5.3
433.802	5.27
434.161	5.36
434.521	5.68
434.881	5.45
435.24	5.44
435.6	5.57
435.959	5.33
436.319	5.49
436.678	5.67
437.037	5.45
437.396	5.6
437.756	5.52
438.115	5.49
438.474	5.6
438.833	5.29
439.192	5.56
439.551	5.65
439.91	5.47
440.269	5.59
440.628	5.39
440.987	5.45
441.345	5.43
441.704	5.42
442.063	5.49
442.421	5.36
442.78	5.43
443.138	5.51
443.497	5.62
443.855	5.63
444.214	5.63
444.572	5.68
444.93	5.73
445.288	5.8
445.647	5.8
446.005	5.74
446.363	5.59
446.721	5.69
447.079	5.33
447.437	5.54
447.795	5.63
448.153	5.37
448.51	5.59
448.868	5.65
449.226	5.65
449.584	5.74
449.941	5.73
450.299	5.73
450.656	5.72
451.014	5.85
451.371	5.69
451.729	5.7
452.086	5.96
452.443	5.85
452.801	5.89
453.158	5.76
453.515	5.79
453.872	5.7
454.229	5.7
454.586	5.62
454.943	5.92
455.3	6.06
455.657	5.82
456.014	5.9
456.371	5.84
456.727	5.98
457.084	5.91
457.441	5.92
457.797	5.87
458.154	6.05
458.51	5.91
458.867	6.02
459.223	5.96
459.58	5.97
459.936	5.9
460.292	5.99
460.648	5.81
461.005	5.71
461.361	5.74
461.717	5.77
462.073	5.84
462.429	5.98
462.785	6.04
463.141	6.04
463.496	5.94
463.852	6.15
464.208	6.16
464.564	6.24
464.919	6.01
465.275	5.99
465.631	6.23
465.986	5.94
466.342	6.03
466.697	6.07
467.052	6.24
467.408	6.1
467.763	6.01
468.118	6.15
468.473	6.18
468.829	6.26
469.184	6.08
469.539	6.09
469.894	6.01
470.249	6.31
470.603	6.29
470.958	6.36
471.313	6.31
471.668	6.33
472.023	6.17
472.377	5.99
472.732	6.22
473.086	6.29
473.441	6.13
473.795	6.21
474.15	6.26
474.504	6.18
474.859	6.26
475.213	6.12
475.567	6.25
475.921	6.25
476.275	6.48
476.63	6.49
476.984	6.42
477.338	6.35
477.692	6.06
478.045	6.18
478.399	6.33
478.753	6.25
479.107	6.29
479.461	6.25
479.814	6.34
480.168	6.23
480.521	6.44
480.875	6.37
481.228	6.4
481.582	6.36
481.935	6.47
482.289	6.34
482.642	6.32
482.995	6.32
483.348	6.17
483.701	6.22
484.055	6.32
484.408	6.4
484.761	6.1
485.114	5.92
485.466	5.67
485.819	5.71
486.172	5.89
486.525	6.15
486.878	6.34
487.23	6.41
487.583	6.4
487.936	6.37
488.288	6.24
488.641	6.18
488.993	6.05
489.345	6.01
489.698	6.07
490.05	6.15
490.402	6.35
490.754	6.31
491.107	6.49
491.459	6.51
491.811	6.6
492.163	6.42
492.515	6.38
492.866	6.36
493.218	6.17
493.57	6.07
493.922	6.23
494.274	6.42
494.625	6.63
494.977	6.64
495.328	6.78
495.68	6.63
496.031	6.74
496.383	6.67
496.734	6.8
497.086	6.78
497.437	6.72
497.788	6.88
498.139	6.53
498.49	6.61
498.842	6.47
499.193	6.63
499.544	6.69
499.894	6.73
500.245	6.72
500.596	6.7
500.947	6.76
501.298	6.68
501.648	6.84
501.999	6.86
502.35	6.81
502.7	6.79
503.051	6.72
503.401	6.73
503.752	6.92
504.102	6.96
504.452	6.83
504.803	6.77
505.153	6.91
505.503	6.73
505.853	6.77
506.203	6.77
506.553	6.82
506.903	6.81
507.253	6.89
507.603	6.86
507.953	7.07
508.303	7.08
508.652	6.73
509.002	7.02
509.352	6.89
509.701	6.91
510.051	6.85
510.4	6.86
510.75	6.72
511.099	6.88
511.449	6.8
511.798	6.84
512.147	6.99
512.496	6.94
512.846	6.81
513.195	6.89
513.544	6.81
513.893	6.89
514.242	6.86
514.591	7.03
514.939	7.11
515.288	6.97
515.637	7.1
515.986	7.07
516.334	7.12
516.683	7.06
517.032	7.13
517.38	6.95
517.729	7.15
518.077	7
518.426	7
518.774	7.11
519.122	6.96
519.47	7.08
519.819	6.81
520.167	6.88
520.515	6.89
520.863	6.98
521.211	7.1
521.559	7.15
521.907	7.1
522.255	7.07
522.602	7.23
522.95	7.13
523.298	7.28
523.645	7.2
523.993	7.2
524.341	7.34
524.688	7.28
525.036	7.18
525.383	7.14
525.73	7.25
526.078	7.27
526.425	7.09
526.772	7.11
527.119	6.97
527.466	6.98
527.814	7.01
528.161	6.97
528.508	7.09
528.854	7.17
529.201	7.04
529.548	6.94
529.895	6.8
530.242	6.59
530.588	6.58
530.935	6.76
531.282	6.98
531.628	7.11
531.975	7.23
532.321	7.29
532.667	7.33
533.014	7.39
533.36	7.31
533.706	7.33
534.052	7.17
534.399	7.15
534.745	6.97
535.091	6.89
535.437	6.99
535.783	7.2
536.129	7.31
536.474	7.46
536.82	7.51
537.166	7.54
537.512	7.54
537.857	7.32
538.203	7.2
538.549	7.12
538.894	7.18
539.239	7.44
539.585	7.49
539.93	7.48
540.276	7.63
540.621	7.66
540.966	7.58
541.311	7.41
541.656	7.43
542.001	7.44
542.346	7.47
542.691	7.21
543.036	6.95
543.381	6.92
543.726	7.13
544.071	7.37
544.415	7.46
544.76	7.49
545.105	7.46
545.449	7.53
545.794	7.57
546.138	7.58
546.483	7.6
546.827	7.68
547.171	7.62
547.516	7.59
547.86	7.58
548.204	7.58
548.548	7.56
548.892	7.59
549.236	7.52
549.58	7.61
549.924	7.88
550.268	7.85
550.612	7.95
550.956	8.08
551.3	7.71
551.643	8
551.987	8
552.33	7.85
552.674	7.89
553.017	7.87
553.361	7.85
553.704	7.97
554.048	7.86
554.391	7.75
554.734	7.61
555.077	7.89
555.42	7.8
555.764	7.84
556.107	7.73
556.45	7.74
556.793	7.99
557.135	7.94
557.478	8.05
557.821	7.8
558.164	8.13
558.507	7.86
558.849	8
559.192	7.82
559.534	8.03
559.877	8.17
560.219	7.9
560.562	8.12
560.904	8.04
561.246	8.05
561.589	7.98
561.931	8
562.273	8.02
562.615	8.18
562.957	8.14
563.299	7.68
563.641	7.92
563.983	7.95
564.325	8.18
564.667	8.13
565.008	8.15
565.35	8.07
565.692	7.72
566.033	8.09
566.375	8.22
566.716	8.01
567.058	8.01
567.399	7.98
567.741	7.85
568.082	8
568.423	8.01
568.764	8.08
569.105	8.21
569.447	8.37
569.788	8.34
570.129	8.28
570.47	8.23
570.811	8.33
571.151	8.23
571.492	8.19
571.833	8.27
572.174	8.26
572.514	8.34
572.855	8.29
573.195	8.27
573.536	8.15
573.876	7.99
574.217	8.2
574.557	8.36
574.898	8.4
575.238	8.57
575.578	8.21
575.918	8.47
576.258	8.51
576.598	8.29
576.938	8.19
577.278	8.11
577.618	8.19
577.958	8.41
578.298	8.4
578.638	8.4
578.977	8.37
579.317	8.42
579.657	8.51
579.996	8.33
580.336	8.49
580.675	8.43
581.014	8.63
581.354	8.51
581.693	8.51
582.032	8.58
582.372	8.33
582.711	8.63
583.05	8.39
583.389	8.57
583.728	8.49
584.067	8.72
584.406	8.69
584.745	8.52
585.083	8.64
585.422	8.66
585.761	8.77
586.1	8.68
586.438	8.5
586.777	8.67
587.115	8.88
587.454	8.44
587.792	8.46
588.13	8.65
588.469	8.6
588.807	8.36
589.145	8.62
589.483	8.63
589.821	8.68
590.159	8.78
590.497	8.75
590.835	8.87
591.173	8.53
591.511	8.96
591.849	8.71
592.187	8.54
592.524	8.81
592.862	8.86
593.2	8.89
593.537	8.84
593.875	8.62
594.212	8.4
594.55	8.76
594.887	8.96
595.224	8.48
595.561	8.94
595.899	8.67
596.236	8.74
596.573	8.87
596.91	8.23
597.247	8.61
597.584	8.87
597.921	8.8
598.258	8.67
598.594	8.45
598.931	8.55
599.268	8.64
599.604	8.6
599.941	8.94
600.277	9.09
600.614	8.8
600.95	8.66
601.287	8.94
601.623	8.88
601.959	8.78
602.296	8.73
602.632	8.75
602.968	8.76
603.304	8.85
603.64	8.81
603.976	9.1
604.312	8.75
604.648	8.92
604.984	9
605.319	8.86
605.655	8.89
605.991	8.82
606.326	8.77
606.662	8.69
606.998	8.55
607.333	8.84
607.668	9.13
608.004	9.22
608.339	9.24
608.674	9.2
609.01	8.72
609.345	8.61
609.68	9.55
610.015	9.09
610.35	9.11
610.685	8.88
611.02	8.9
611.355	8.92
611.689	8.89
612.024	9.26
612.359	8.94
612.694	8.89
613.028	9.07
613.363	9.2
613.697	9.33
614.032	9.62
614.366	9.09
614.7	9.12
615.035	8.96
615.369	9.08
615.703	8.91
616.037	9.53
616.371	8.82
616.705	9.06
617.039	9.36
617.373	8.93
617.707	9.21
618.041	9.37
618.375	9.27
618.709	9.32
619.042	8.66
619.376	9.48
619.71	9.76
620.043	9.27
620.377	9.22
620.71	9.33
621.043	9.3
621.377	9.51
621.71	9.38
622.043	9.22
622.376	8.98
622.709	9.41
623.043	9.3
623.376	9.39
623.709	9.41
624.041	9.58
624.374	9.34
624.707	9.1
625.04	9.67
625.373	8.76
625.705	9.15
626.038	8.93
626.37	8.96
626.703	8.93
627.035	9.42
627.368	9.56
627.7	9.58
628.032	9
628.365	9.42
628.697	9.38
629.029	8.94
629.361	8.97
629.693	9.65
630.025	9.44
630.357	9.57
630.689	9.72
631.021	9.8
631.353	9.88
631.684	9.18
632.016	9.09
632.348	9.56
632.679	9.52
633.011	9.67
633.342	9.79
633.674	9.7
634.005	9.72
634.336	9.31
634.668	10.08
634.999	9.24
635.33	9.82
635.661	9.54
635.992	9.46
636.323	9.65
636.654	9.76
636.985	9.32
637.316	9.61
637.647	8.94
637.977	9.62
638.308	9.52
638.639	9.45
638.969	9.81
639.3	9.68
639.63	9.33
639.961	9.56
640.291	9.27
640.622	10.22
640.952	9.96
641.282	9.92
641.612	10.02
641.943	9.58
642.273	10.01
642.603	9.79
642.933	9.82
643.263	10.08
643.592	9.37
643.922	9.62
644.252	9.73
644.582	9.64
644.911	9.51
645.241	9.61
645.571	9.47
645.9	9.63
646.23	10.16
646.559	9.97
646.888	9.68
647.218	9.13
647.547	10.42
647.876	9.54
648.205	9.89
648.534	9.9
648.863	9.95
649.192	10.16
649.521	9.62
649.85	9.62
650.179	9.53
650.508	9.47
650.837	9.5
651.165	9.83
651.494	10
651.822	9.59
652.151	9.89
652.479	9.9
652.808	9.57
653.136	9.98
653.465	9.5
653.793	9.75
654.121	9.47
654.449	9.67
654.777	10.52
655.105	9.92
655.433	9.85
655.761	9.8
656.089	9.88
656.417	10.44
656.745	9.3
657.073	9.51
657.4	10.69
657.728	9.95
658.056	10.12
658.383	10.2
658.711	10.53
659.038	9.86
659.365	10.4
659.693	9.88
660.02	9.9
660.347	9.67
660.674	9.77
661.001	10.08
661.329	9.22
661.656	10.09
661.982	10.18
662.309	10.06
662.636	9.68
662.963	10.1
663.29	10.3
663.616	10.32
663.943	9.87
664.27	10.25
664.596	10.33
664.923	10.27
665.249	10.08
665.576	10.01
665.902	11.53
666.228	10.26
666.554	10.56
666.881	10.04
667.207	10.62
667.533	10.06
667.859	10.16
668.185	10.9
668.511	9.75
668.837	8.77
669.162	10.19
669.488	10
669.814	9.48
670.139	10.11
670.465	10.69
670.791	10.29
671.116	11.16
671.442	9.84
671.767	10.6
672.092	10.56
672.418	10.18
672.743	10.56
673.068	9.61
673.393	10.32
673.718	10.32
674.043	10.59
674.368	10.45
674.693	11.61
675.018	10.55
675.343	9.85
675.667	10.2
675.992	10.43
676.317	10.47
676.641	10.78
676.966	10.71
677.29	10.41
677.615	10.59
677.939	10.48
678.264	11.04
678.588	10.54
678.912	10.97
679.236	11.08
679.56	9.88
679.885	10.85
680.209	10.88
680.532	10.01
680.856	11.48
681.18	10.39
681.504	10.4
681.828	10.69
682.152	10.27
682.475	10.22
682.799	10.94
683.122	10.87
683.446	10.49
683.769	10.91
684.093	10.76
684.416	11.25
684.739	10.08
685.062	10.74
685.386	12.05
685.709	10.62
686.032	10.2
686.355	11.03
686.678	10.4
687.001	10.4
687.324	11.41
687.646	10.72
687.969	10.64
688.292	10.21
688.614	11.05
688.937	11.01
689.26	10.7
689.582	11
689.904	10.6
690.227	10.4
690.549	10.81
690.871	11.24
