Data from 0404_chest_Reflection__3__94.txt Node

Date: Fri Dec 15 17:18:25 CST 2023
User: ToomeyLab
Spectrometer: FLMS14357
Trigger mode: 0
Integration Time (sec): 1.000000E-2
Scans to average: 100
Electric dark correction enabled: true
Nonlinearity correction enabled: false
Boxcar width: 0
XAxis mode: Wavelengths
Number of Pixels in Spectrum: 2048
>>>>>Begin Spectral Data<<<<<
189.047	64.8
189.435	64.8
189.823	64.8
190.211	78.97
190.599	42.1
190.987	276.14
191.375	17.45
191.763	-105.19
192.151	-120.08
192.538	79.46
192.926	64.62
193.314	69.17
193.702	71.64
194.089	62.43
194.477	272.8
194.864	-772.24
195.252	56.28
195.639	78.51
196.027	96.62
196.414	176
196.801	358.24
197.189	63.7
197.576	127.69
197.963	-61.86
198.351	-59.83
198.738	-141.06
199.125	2.86
199.512	17.76
199.899	32.11
200.286	8.36
200.673	-11.88
201.06	-7.14
201.447	14.71
201.833	13.85
202.22	4.55
202.607	13.36
202.994	13.97
203.38	41.13
203.767	46.89
204.154	-31.22
204.54	35.13
204.927	-41.84
205.313	-28.45
205.699	-0.8
206.086	43.75
206.472	64.94
206.858	20.47
207.245	-46.94
207.631	-1.3
208.017	-12.41
208.403	-15.99
208.789	21.7
209.175	43.54
209.561	-3.35
209.947	30.69
210.333	-23.88
210.719	24.13
211.105	21.44
211.491	-12.8
211.876	45.93
212.262	8.8
212.648	0.65
213.034	-1.1
213.419	19.56
213.805	-25.3
214.19	-8.87
214.576	-53.17
214.961	-75.05
215.346	-80.9
215.732	30.86
216.117	7.07
216.502	2.19
216.888	4.61
217.273	27.53
217.658	3.68
218.043	34.71
218.428	-40.77
218.813	-22.68
219.198	-22.98
219.583	15.08
219.968	40.65
220.353	-16.46
220.738	26.64
221.122	10.74
221.507	-26.37
221.892	-29.97
222.276	-10.87
222.661	10.6
223.046	4.41
223.43	4.85
223.815	8.75
224.199	-12.71
224.583	-4.35
224.968	-3.44
225.352	23.33
225.736	1.99
226.121	-16
226.505	-3.63
226.889	5.34
227.273	-0.37
227.657	12.99
228.041	5.34
228.425	6.96
228.809	9.6
229.193	1.45
229.577	-0.15
229.961	3.54
230.344	3.8
230.728	4.21
231.112	4.67
231.495	3.83
231.879	3.83
232.263	4.1
232.646	3.78
233.03	3.18
233.413	3.34
233.797	5.43
234.18	3.76
234.563	3.59
234.946	4.34
235.33	6.56
235.713	5.89
236.096	5.02
236.479	5.23
236.862	0.9
237.245	6.36
237.628	3.79
238.011	5.64
238.394	5.04
238.777	4.5
239.16	0.03
239.543	4.92
239.925	6.44
240.308	3.19
240.691	4.61
241.073	4.77
241.456	3.46
241.838	2.81
242.221	2.75
242.603	4.48
242.986	4.69
243.368	4.13
243.75	4.16
244.133	3.88
244.515	4.54
244.897	4.22
245.279	4.24
245.661	3.44
246.043	2.57
246.425	3.13
246.807	4.85
247.189	4.25
247.571	3.75
247.953	3.84
248.335	4.39
248.717	3.9
249.098	3.76
249.48	3.72
249.862	3.67
250.243	3.88
250.625	3.55
251.006	4.68
251.388	2.9
251.769	2.64
252.151	4.72
252.532	2.48
252.913	2.85
253.295	3.09
253.676	3.8
254.057	4.41
254.438	3.61
254.819	3.08
255.2	2.71
255.581	4.59
255.962	2.27
256.343	2.93
256.724	3.64
257.105	3.29
257.486	2.43
257.867	5.18
258.247	4.34
258.628	3.11
259.009	3.93
259.389	4.64
259.77	3.58
260.15	2.78
260.531	2.04
260.911	4.04
261.292	3.6
261.672	3.8
262.052	3.69
262.432	4
262.813	3.46
263.193	3.07
263.573	3.03
263.953	3.44
264.333	4.42
264.713	3.66
265.093	2.75
265.473	3.14
265.853	2.62
266.233	3.2
266.612	0.96
266.992	1.78
267.372	3.97
267.752	2.83
268.131	2.79
268.511	4.12
268.89	3.91
269.27	3.05
269.649	3.41
270.029	3.07
270.408	4.43
270.787	3.73
271.167	4.15
271.546	3.14
271.925	2.47
272.304	3.1
272.683	3.08
273.062	3.32
273.441	3.64
273.82	2.97
274.199	4
274.578	3.49
274.957	3.46
275.336	3.99
275.715	2.86
276.093	3.27
276.472	3.7
276.851	2.61
277.229	3.35
277.608	2.29
277.986	3.16
278.365	4.17
278.743	2.64
279.122	3.26
279.5	3.72
279.878	3.63
280.257	4.11
280.635	3.26
281.013	3.54
281.391	3.97
281.769	4.18
282.147	3.99
282.525	3.75
282.903	2.62
283.281	3.82
283.659	3.47
284.037	3.64
284.415	3.68
284.792	3.73
285.17	2.96
285.548	3.29
285.925	3.66
286.303	3.83
286.68	3.46
287.058	3.59
287.435	3.37
287.813	3.16
288.19	3.04
288.567	3.24
288.945	4
289.322	3.71
289.699	3.15
290.076	3.47
290.453	3.84
290.83	3.55
291.207	3.74
291.584	3.37
291.961	3.65
292.338	3.34
292.715	3.94
293.092	3.05
293.469	3.21
293.845	3.73
294.222	3.25
294.599	3.12
294.975	3.23
295.352	3.92
295.728	3.33
296.105	3.79
296.481	3.68
296.858	3.3
297.234	3.03
297.61	3.26
297.986	2.92
298.363	3.59
298.739	3.34
299.115	3.01
299.491	3.28
299.867	3.08
300.243	3.43
300.619	2.6
300.995	3.23
301.371	3.29
301.746	2.59
302.122	3.88
302.498	3.16
302.874	3.25
303.249	3.39
303.625	3.33
304	3.42
304.376	3.25
304.751	2.96
305.127	3.53
305.502	2.98
305.878	2.26
306.253	3.22
306.628	3.6
307.003	3.06
307.378	3.04
307.754	2.93
308.129	2.63
308.504	2.61
308.879	2.98
309.254	3.86
309.629	3.96
310.003	3.26
310.378	4.2
310.753	3.63
311.128	3.76
311.502	3.42
311.877	3.29
312.252	2.9
312.626	2.86
313.001	3.1
313.375	3.24
313.75	2.92
314.124	2.91
314.498	3.01
314.873	2.92
315.247	3.23
315.621	3.54
315.995	2.79
316.369	3.23
316.743	2.76
317.117	3.04
317.491	3.16
317.865	3.64
318.239	3.23
318.613	3.31
318.987	3.76
319.361	2.49
319.734	3.22
320.108	2.77
320.482	3.24
320.855	3.41
321.229	2.77
321.602	3.12
321.976	3.41
322.349	3.13
322.723	2.21
323.096	3.65
323.469	2.52
323.843	2.98
324.216	3.4
324.589	3.26
324.962	2.92
325.335	3.48
325.708	2.91
326.081	2.39
326.454	2.98
326.827	3.05
327.2	3.23
327.573	3.55
327.945	3.08
328.318	2.69
328.691	2.34
329.063	3.56
329.436	2.81
329.809	3.37
330.181	2.43
330.553	2.85
330.926	3.63
331.298	2.94
331.671	2.59
332.043	3.75
332.415	3.21
332.787	2.96
333.159	3.24
333.532	2.85
333.904	3.42
334.276	2.66
334.648	3.49
335.02	3.28
335.391	2.35
335.763	2.9
336.135	2.86
336.507	3.38
336.879	2.66
337.25	2.4
337.622	2.75
337.993	2.75
338.365	2.96
338.736	3.24
339.108	3.03
339.479	2.75
339.851	2.65
340.222	2.79
340.593	2.96
340.964	2.96
341.336	3.69
341.707	3.14
342.078	3.1
342.449	3.69
342.82	3.27
343.191	3.6
343.562	3.12
343.933	2.58
344.303	3.8
344.674	2.66
345.045	3.26
345.416	2.72
345.786	2.78
346.157	3.48
346.527	2.6
346.898	2.86
347.268	3.5
347.639	3.06
348.009	3.37
348.38	3.02
348.75	3.1
349.12	2.58
349.49	3.87
349.861	3.18
350.231	2.81
350.601	2.84
350.971	3.1
351.341	2.87
351.711	2.82
352.081	3.12
352.45	3.09
352.82	3.04
353.19	3.01
353.56	2.96
353.929	3.13
354.299	3.12
354.669	2.66
355.038	3.09
355.408	3.3
355.777	3.12
356.147	3.05
356.516	3.06
356.885	3.23
357.254	3.25
357.624	3.53
357.993	3.13
358.362	2.88
358.731	2.89
359.1	2.95
359.469	2.95
359.838	3.17
360.207	2.56
360.576	3.11
360.945	2.8
361.314	3.5
361.682	2.93
362.051	2.92
362.42	3.3
362.788	2.86
363.157	3.32
363.525	3.49
363.894	3.26
364.262	3.21
364.631	3.34
364.999	3.02
365.367	2.59
365.735	3.52
366.104	3
366.472	3.27
366.84	2.88
367.208	2.79
367.576	3.18
367.944	3.36
368.312	2.71
368.68	2.96
369.048	3.39
369.416	3.13
369.783	2.61
370.151	3.17
370.519	3.26
370.886	3.67
371.254	2.82
371.621	3.27
371.989	3.15
372.356	2.52
372.724	3.19
373.091	3.2
373.458	2.93
373.826	3.08
374.193	3.01
374.56	2.99
374.927	3.47
375.294	3.19
375.661	3.11
376.028	2.65
376.395	2.71
376.762	3.1
377.129	3.26
377.496	2.88
377.863	2.91
378.229	2.88
378.596	3.34
378.963	2.79
379.329	2.8
379.696	3.26
380.062	2.96
380.429	3.13
380.795	2.84
381.161	3.28
381.528	3.31
381.894	3.43
382.26	3.22
382.626	3.32
382.993	3.03
383.359	3.39
383.725	2.95
384.091	2.98
384.457	3.27
384.823	3.21
385.188	3.13
385.554	2.98
385.92	3.65
386.286	3.42
386.651	3.3
387.017	3.41
387.383	3.33
387.748	3.11
388.114	3.26
388.479	3.04
388.845	3.27
389.21	3.43
389.575	3.22
389.94	3.18
390.306	3.09
390.671	3.32
391.036	2.97
391.401	3.09
391.766	3.23
392.131	3.11
392.496	3.47
392.861	3.33
393.226	3.56
393.591	3.3
393.956	3.24
394.32	3.35
394.685	3.13
395.05	2.98
395.414	3.38
395.779	3.13
396.143	3.21
396.508	3.33
396.872	3.42
397.236	3.25
397.601	3.26
397.965	3.41
398.329	3.27
398.694	3.3
399.058	3.34
399.422	3.02
399.786	3.56
400.15	3.31
400.514	3.47
400.878	3.44
401.242	3.58
401.605	3.25
401.969	3.3
402.333	3.41
402.697	3.25
403.06	3.11
403.424	3.39
403.787	3.16
404.151	3.58
404.514	3.22
404.878	3.13
405.241	3.5
405.604	3.34
405.968	3.3
406.331	3.39
406.694	3.42
407.057	3.36
407.42	3.59
407.783	2.94
408.146	3.51
408.509	3.13
408.872	3.3
409.235	3.7
409.598	3.48
409.961	3.23
410.323	3.44
410.686	3.23
411.049	3.38
411.411	3.38
411.774	3.37
412.136	3.5
412.499	3.18
412.861	3.44
413.223	3.59
413.586	3.33
413.948	3.27
414.31	3.31
414.672	3.25
415.035	3.34
415.397	3.46
415.759	3.08
416.121	3.54
416.483	3.08
416.845	3.32
417.206	3.26
417.568	3.47
417.93	3.17
418.292	3.29
418.653	3.47
419.015	3.38
419.377	3.42
419.738	3.47
420.1	3.43
420.461	3.36
420.822	3.33
421.184	3.26
421.545	3.37
421.906	3.35
422.267	3.29
422.629	3.3
422.99	3.35
423.351	3.2
423.712	3.32
424.073	3.24
424.434	3.34
424.795	3.36
425.155	3.38
425.516	3.23
425.877	3.24
426.238	3.16
426.598	3.33
426.959	3.27
427.32	3.31
427.68	3.19
428.041	3.3
428.401	3.39
428.761	3.42
429.122	3.35
429.482	3.36
429.842	3.48
430.202	3.3
430.563	3.45
430.923	3.33
431.283	3.32
431.643	3.36
432.003	3.32
432.363	3.4
432.722	3.36
433.082	3.44
433.442	3.54
433.802	3.28
434.161	3.43
434.521	3.57
434.881	3.52
435.24	3.31
435.6	3.43
435.959	3.3
436.319	3.44
436.678	3.44
437.037	3.34
437.396	3.4
437.756	3.47
438.115	3.3
438.474	3.42
438.833	3.21
439.192	3.53
439.551	3.58
439.91	3.51
440.269	3.45
440.628	3.39
440.987	3.4
441.345	3.14
441.704	3.37
442.063	3.34
442.421	3.32
442.78	3.48
443.138	3.49
443.497	3.51
443.855	3.46
444.214	3.47
444.572	3.42
444.93	3.43
445.288	3.53
445.647	3.59
446.005	3.46
446.363	3.47
446.721	3.44
447.079	3.2
447.437	3.43
447.795	3.39
448.153	3.34
448.51	3.42
448.868	3.37
449.226	3.37
449.584	3.46
449.941	3.57
450.299	3.53
450.656	3.58
451.014	3.53
451.371	3.44
451.729	3.38
452.086	3.7
452.443	3.46
452.801	3.53
453.158	3.47
453.515	3.41
453.872	3.49
454.229	3.5
454.586	3.66
454.943	3.57
455.3	3.51
455.657	3.5
456.014	3.53
456.371	3.38
456.727	3.47
457.084	3.67
457.441	3.51
457.797	3.48
458.154	3.65
458.51	3.75
458.867	3.59
459.223	3.63
459.58	3.54
459.936	3.72
460.292	3.61
460.648	3.46
461.005	3.48
461.361	3.53
461.717	3.59
462.073	3.43
462.429	3.54
462.785	3.59
463.141	3.41
463.496	3.64
463.852	3.68
464.208	3.46
464.564	3.64
464.919	3.79
465.275	3.54
465.631	3.76
465.986	3.65
466.342	3.66
466.697	3.64
467.052	3.59
467.408	3.63
467.763	3.56
468.118	3.62
468.473	3.55
468.829	3.67
469.184	3.57
469.539	3.63
469.894	3.52
470.249	3.86
470.603	3.82
470.958	3.79
471.313	3.72
471.668	3.61
472.023	3.67
472.377	3.64
472.732	3.6
473.086	3.42
473.441	3.44
473.795	3.75
474.15	3.78
474.504	3.77
474.859	3.79
475.213	3.61
475.567	3.65
475.921	3.59
476.275	3.62
476.63	3.68
476.984	3.83
477.338	3.84
477.692	3.48
478.045	3.43
478.399	3.67
478.753	3.68
479.107	3.69
479.461	3.64
479.814	3.64
480.168	3.61
480.521	3.65
480.875	3.73
481.228	3.78
481.582	3.6
481.935	3.55
482.289	3.64
482.642	3.57
482.995	3.65
483.348	3.54
483.701	3.64
484.055	3.65
484.408	3.68
484.761	3.58
485.114	3.59
485.466	3.46
485.819	3.45
486.172	3.43
486.525	3.45
486.878	3.51
487.23	3.59
487.583	3.55
487.936	3.56
488.288	3.58
488.641	3.7
488.993	3.55
489.345	3.51
489.698	3.55
490.05	3.5
490.402	3.56
490.754	3.59
491.107	3.65
491.459	3.63
491.811	3.71
492.163	3.7
492.515	3.71
492.866	3.73
493.218	3.62
493.57	3.56
493.922	3.51
494.274	3.69
494.625	3.79
494.977	3.69
495.328	3.83
495.68	3.7
496.031	3.86
496.383	3.81
496.734	4.01
497.086	3.92
497.437	3.79
497.788	3.79
498.139	3.71
498.49	3.87
498.842	3.62
499.193	3.72
499.544	3.78
499.894	3.74
500.245	3.82
500.596	3.67
500.947	3.99
501.298	3.73
501.648	3.9
501.999	3.93
502.35	3.77
502.7	3.94
503.051	3.67
503.401	3.84
503.752	3.86
504.102	3.87
504.452	3.84
504.803	3.83
505.153	3.76
505.503	3.88
505.853	3.85
506.203	3.88
506.553	3.88
506.903	3.84
507.253	3.86
507.603	3.87
507.953	3.95
508.303	4.07
508.652	3.82
509.002	3.92
509.352	3.98
509.701	3.81
510.051	3.71
510.4	3.92
510.75	3.9
511.099	3.94
511.449	3.79
511.798	3.86
512.147	3.91
512.496	3.9
512.846	3.99
513.195	3.98
513.544	3.94
513.893	3.96
514.242	3.91
514.591	4.07
514.939	3.92
515.288	3.88
515.637	3.95
515.986	4.02
516.334	4.07
516.683	4.14
517.032	4.01
517.38	4.12
517.729	3.99
518.077	3.93
518.426	3.99
518.774	4.09
519.122	4.01
519.47	3.97
519.819	3.82
520.167	3.98
520.515	3.93
520.863	3.97
521.211	4.05
521.559	4.08
521.907	4.13
522.255	4.02
522.602	4.02
522.95	4.05
523.298	4.13
523.645	4.24
523.993	4.07
524.341	4.25
524.688	4.2
525.036	3.93
525.383	4.12
525.73	4.29
526.078	4.16
526.425	3.95
526.772	4.14
527.119	4.09
527.466	4.09
527.814	4.05
528.161	4.05
528.508	4.14
528.854	4.12
529.201	4.08
529.548	4.1
529.895	4.02
530.242	3.91
530.588	3.94
530.935	3.93
531.282	4.06
531.628	4.01
531.975	4.13
532.321	4.1
532.667	4.15
533.014	4.18
533.36	4.17
533.706	4.28
534.052	4.17
534.399	4.01
534.745	4.08
535.091	4.1
535.437	4.17
535.783	4.13
536.129	4.22
536.474	4.17
536.82	4.22
537.166	4.33
537.512	4.29
537.857	4.28
538.203	4.34
538.549	4.25
538.894	4.28
539.239	4.46
539.585	4.45
539.93	4.19
540.276	4.4
540.621	4.37
540.966	4.5
541.311	4.42
541.656	4.31
542.001	4.48
542.346	4.43
542.691	4.26
543.036	4.28
543.381	4.19
543.726	4.25
544.071	4.38
544.415	4.4
544.76	4.34
545.105	4.38
545.449	4.4
545.794	4.43
546.138	4.43
546.483	4.53
546.827	4.49
547.171	4.42
547.516	4.64
547.86	4.5
548.204	4.48
548.548	4.55
548.892	4.52
549.236	4.51
549.58	4.52
549.924	4.62
550.268	4.68
550.612	4.62
550.956	4.78
551.3	4.74
551.643	4.85
551.987	4.78
552.33	4.87
552.674	4.85
553.017	4.62
553.361	4.64
553.704	4.98
554.048	4.6
554.391	4.59
554.734	4.61
555.077	4.81
555.42	4.72
555.764	4.69
556.107	4.56
556.45	4.72
556.793	4.96
557.135	4.98
557.478	4.93
557.821	4.97
558.164	4.8
558.507	4.91
558.849	4.75
559.192	4.98
559.534	5.09
559.877	4.84
560.219	4.88
560.562	5.15
560.904	4.99
561.246	5.04
561.589	4.99
561.931	4.95
562.273	4.91
562.615	4.99
562.957	5.18
563.299	4.92
563.641	4.94
563.983	5
564.325	5.01
564.667	5.05
565.008	5.14
565.35	5.08
565.692	4.86
566.033	4.96
566.375	5.15
566.716	5.19
567.058	5.08
567.399	5.12
567.741	5
568.082	5.08
568.423	5.02
568.764	5.06
569.105	5.22
569.447	5.33
569.788	5.22
570.129	5.35
570.47	5.31
570.811	5.36
571.151	5.26
571.492	5.26
571.833	5.29
572.174	5.32
572.514	5.4
572.855	5.22
573.195	5.25
573.536	5.46
573.876	5.26
574.217	5.35
574.557	5.37
574.898	5.43
575.238	5.49
575.578	5.4
575.918	5.47
576.258	5.57
576.598	5.55
576.938	5.58
577.278	5.41
577.618	5.37
577.958	5.55
578.298	5.63
578.638	5.54
578.977	5.53
579.317	5.48
579.657	5.48
579.996	5.62
580.336	5.73
580.675	5.64
581.014	5.68
581.354	5.89
581.693	5.83
582.032	5.6
582.372	5.58
582.711	5.98
583.05	5.87
583.389	5.76
583.728	5.6
584.067	5.8
584.406	6.02
584.745	5.99
585.083	5.96
585.422	6
585.761	5.83
586.1	6.07
586.438	5.76
586.777	6.03
587.115	6.06
587.454	6.03
587.792	6.02
588.13	6.12
588.469	5.99
588.807	5.99
589.145	5.82
589.483	5.95
589.821	5.76
590.159	6.04
590.497	6.12
590.835	6.41
591.173	6.09
591.511	6.31
591.849	6.16
592.187	6.3
592.524	6.35
592.862	6.08
593.2	6.09
593.537	6.16
593.875	6.16
594.212	6.11
594.55	5.98
594.887	6.46
595.224	6.16
595.561	6.48
595.899	6.68
596.236	6.23
596.573	6.55
596.91	5.98
597.247	6.05
597.584	6.76
597.921	6.34
598.258	6.3
598.594	6.52
598.931	6.09
599.268	6.45
599.604	6.41
599.941	6.41
600.277	6.36
600.614	6.43
600.95	6.4
601.287	6.66
601.623	6.58
601.959	6.41
602.296	6.5
602.632	6.47
602.968	6.74
603.304	6.8
603.64	6.82
603.976	7.03
604.312	6.34
604.648	6.56
604.984	6.84
605.319	6.88
605.655	6.68
605.991	6.85
606.326	6.91
606.662	6.8
606.998	6.55
607.333	6.94
607.668	6.8
608.004	6.92
608.339	7.18
608.674	6.92
609.01	6.8
609.345	6.67
609.68	7.25
610.015	6.96
610.35	7.04
610.685	7.08
611.02	6.86
611.355	7.11
611.689	7.11
612.024	6.97
612.359	6.99
612.694	7.11
613.028	6.94
613.363	7.38
613.697	7.45
614.032	7.38
614.366	7.07
614.7	7.34
615.035	7.54
615.369	7.39
615.703	7.03
616.037	7.4
616.371	7.05
616.705	6.79
617.039	7.43
617.373	7.56
617.707	7.25
618.041	7.22
618.375	7.6
618.709	7.59
619.042	7.54
619.376	7.71
619.71	7.58
620.043	7.55
620.377	7.49
620.71	7.54
621.043	7.47
621.377	7.17
621.71	7.37
622.043	7.51
622.376	7.54
622.709	7.72
623.043	7.82
623.376	7.83
623.709	7.78
624.041	8.1
624.374	7.82
624.707	7.92
625.04	8.24
625.373	7.62
625.705	7.72
626.038	7.83
626.37	7.45
626.703	8.08
627.035	7.85
627.368	8.18
627.7	7.95
628.032	7.79
628.365	8.23
628.697	7.97
629.029	7.61
629.361	7.89
629.693	8.44
630.025	7.91
630.357	8.25
630.689	8.44
631.021	8.38
631.353	8.25
631.684	8.22
632.016	8.01
632.348	8.36
632.679	8.29
633.011	8.47
633.342	8.68
633.674	8.31
634.005	8.55
634.336	8.12
634.668	8.75
634.999	8.16
635.33	8.55
635.661	8.31
635.992	8.46
636.323	8.51
636.654	8.35
636.985	8.45
637.316	8.46
637.647	8.27
637.977	8.93
638.308	8.64
638.639	8.23
638.969	8.51
639.3	8.58
639.63	8.06
639.961	8.7
640.291	8.66
640.622	8.74
640.952	8.44
641.282	9.13
641.612	8.79
641.943	8.45
642.273	8.59
642.603	9.2
642.933	9.11
643.263	9.29
643.592	8.66
643.922	8.66
644.252	8.69
644.582	8.83
644.911	8.64
645.241	8.84
645.571	9.15
645.9	8.78
646.23	8.87
646.559	8.99
646.888	8.9
647.218	8.95
647.547	9.57
647.876	8.8
648.205	9.2
648.534	8.89
648.863	8.84
649.192	9.54
649.521	9.4
649.85	9.04
650.179	9.25
650.508	9.17
650.837	9.08
651.165	8.79
651.494	9.12
651.822	9.43
652.151	9.25
652.479	8.76
652.808	9.15
653.136	9.48
653.465	8.76
653.793	8.96
654.121	8.86
654.449	9.59
654.777	9.77
655.105	9.26
655.433	9.13
655.761	9.37
656.089	9.52
656.417	10.03
656.745	9.28
657.073	9.45
657.4	10.46
657.728	9.75
658.056	9.61
658.383	9.4
658.711	9.33
659.038	9.65
659.365	9.81
659.693	9.71
660.02	9.64
660.347	9.72
660.674	9.73
661.001	9.48
661.329	9.3
661.656	9.71
661.982	10.09
662.309	9.78
662.636	9.63
662.963	9.84
663.29	9.87
663.616	10.12
663.943	9.69
664.27	9.96
664.596	10.51
664.923	10.05
665.249	10.36
665.576	10.2
665.902	10.53
666.228	10.51
666.554	10.13
666.881	9.85
667.207	10.46
667.533	10.14
667.859	9.98
668.185	10.46
668.511	9.65
668.837	9.86
669.162	10.19
669.488	9.95
669.814	10.62
670.139	10.81
670.465	10.71
670.791	10.26
671.116	10.93
671.442	10.43
671.767	10.99
672.092	10.74
672.418	10.97
672.743	11.32
673.068	10.56
673.393	9.83
673.718	10.92
674.043	10.17
674.368	10.64
674.693	11.44
675.018	10.69
675.343	10.88
675.667	10.67
675.992	11.12
676.317	10.35
676.641	11.39
676.966	10.29
677.29	10.64
677.615	10.73
677.939	11.58
678.264	12.13
678.588	10.85
678.912	10.44
679.236	11.72
679.56	10.61
679.885	11.52
680.209	11.32
680.532	11.1
680.856	12.09
681.18	10.7
681.504	11.5
681.828	11.47
682.152	10.91
682.475	11.4
682.799	11.43
683.122	11.4
683.446	11.4
683.769	12.07
684.093	11.22
684.416	11.7
684.739	11.67
685.062	11.13
685.386	12.35
685.709	11.13
686.032	11.9
686.355	12.16
686.678	11.03
687.001	11.85
687.324	11.85
687.646	11.33
687.969	11.18
688.292	11.21
688.614	11.64
688.937	12.48
689.26	10.97
689.582	11.72
689.904	11.57
690.227	11.62
690.549	12.19
