Data from 0404_forehead_Reflection__3__106.txt Node

Date: Fri Dec 15 17:22:37 CST 2023
User: ToomeyLab
Spectrometer: FLMS14357
Trigger mode: 0
Integration Time (sec): 1.000000E-2
Scans to average: 100
Electric dark correction enabled: true
Nonlinearity correction enabled: false
Boxcar width: 0
XAxis mode: Wavelengths
Number of Pixels in Spectrum: 2048
>>>>>Begin Spectral Data<<<<<
189.047	-17.35
189.435	-17.35
189.823	-17.35
190.211	90.22
190.599	100.59
190.987	322.83
191.375	-30.17
191.763	-87.24
192.151	-23.45
192.538	57.95
192.926	72.83
193.314	215.66
193.702	-1047.69
194.089	188.14
194.477	216.92
194.864	-26.23
195.252	97.66
195.639	99.6
196.027	80.61
196.414	94.49
196.801	212.99
197.189	3
197.576	-30.94
197.963	-151.96
198.351	-37.36
198.738	-61.84
199.125	61.09
199.512	2.79
199.899	77.73
200.286	28.66
200.673	78.88
201.06	42.67
201.447	-5.34
201.833	27.16
202.22	16.28
202.607	40.94
202.994	39.7
203.38	21.64
203.767	57.83
204.154	49.24
204.54	43.89
204.927	63.31
205.313	-34.84
205.699	47.79
206.086	29.19
206.472	53.19
206.858	48.72
207.245	30.26
207.631	24.84
208.017	34.84
208.403	11.18
208.789	31.5
209.175	4.52
209.561	3.67
209.947	36.91
210.333	57.91
210.719	27.68
211.105	21.44
211.491	-54.77
211.876	-3.17
212.262	13.58
212.648	12.4
213.034	25.13
213.419	-40.49
213.805	-1.76
214.19	-29.41
214.576	36.36
214.961	1.31
215.346	-29.53
215.732	3.16
216.117	22.53
216.502	16.25
216.888	24.75
217.273	37.01
217.658	24.48
218.043	-13.08
218.428	-0.35
218.813	-10.21
219.198	-2.69
219.583	32.22
219.968	32.17
220.353	44.34
220.738	23.79
221.122	13.84
221.507	-2.93
221.892	-9.59
222.276	-19.26
222.661	24.01
223.046	14.77
223.43	17.64
223.815	13.56
224.199	5.23
224.583	12.29
224.968	8.96
225.352	19.09
225.736	-0.42
226.121	-1.36
226.505	10.42
226.889	7.58
227.273	3.86
227.657	11.21
228.041	6.46
228.425	8.35
228.809	7.56
229.193	4.22
229.577	8.64
229.961	6.59
230.344	5.6
230.728	5.17
231.112	6.16
231.495	6.58
231.879	4.13
232.263	6.62
232.646	8.48
233.03	6.88
233.413	5.41
233.797	4.88
234.18	7.2
234.563	6.32
234.946	6.57
235.33	6.42
235.713	4.91
236.096	6.64
236.479	6.68
236.862	5.51
237.245	8.45
237.628	5.08
238.011	6.56
238.394	8.63
238.777	10.01
239.16	2.94
239.543	5.39
239.925	7.33
240.308	6.3
240.691	8.65
241.073	6.6
241.456	5.61
241.838	6.09
242.221	5.43
242.603	6.78
242.986	5.83
243.368	6.49
243.75	5.78
244.133	5.97
244.515	6.1
244.897	6.25
245.279	6.04
245.661	5.63
246.043	5.11
246.425	5.19
246.807	7.18
247.189	6.49
247.571	6.56
247.953	6.51
248.335	5.99
248.717	5.89
249.098	5.23
249.48	5.63
249.862	5.78
250.243	5.81
250.625	5.93
251.006	5.39
251.388	5.1
251.769	6.15
252.151	6.74
252.532	4.63
252.913	5.39
253.295	5.41
253.676	6.15
254.057	5.52
254.438	5.44
254.819	5.51
255.2	5.56
255.581	5.65
255.962	4.93
256.343	5.91
256.724	4.9
257.105	4.77
257.486	5.97
257.867	6.11
258.247	6.53
258.628	5.37
259.009	5.93
259.389	6.6
259.77	5.03
260.15	5.02
260.531	5.26
260.911	6.05
261.292	5.35
261.672	5.73
262.052	5.53
262.432	5.47
262.813	5.25
263.193	5.48
263.573	5.47
263.953	5.81
264.333	6.57
264.713	6.16
265.093	4.58
265.473	5.2
265.853	4.9
266.233	5.25
266.612	4.03
266.992	4.28
267.372	5.84
267.752	5.34
268.131	5.52
268.511	6.49
268.89	5.66
269.27	4.95
269.649	4.24
270.029	5.57
270.408	6.68
270.787	6.21
271.167	6.91
271.546	6.53
271.925	5.76
272.304	5.4
272.683	5.82
273.062	5.1
273.441	5.37
273.82	4.55
274.199	5.11
274.578	5.83
274.957	5.55
275.336	5.53
275.715	5.47
276.093	5.19
276.472	5.24
276.851	5.49
277.229	4.89
277.608	5.08
277.986	5.6
278.365	5.52
278.743	4.86
279.122	5.27
279.5	5.34
279.878	5.77
280.257	5.19
280.635	5.4
281.013	5.28
281.391	5.35
281.769	5.32
282.147	5.29
282.525	6.3
282.903	5.4
283.281	5.32
283.659	5.63
284.037	5.64
284.415	5.7
284.792	5.84
285.17	4.24
285.548	5.27
285.925	5.09
286.303	5.39
286.68	5.04
287.058	5.09
287.435	5.33
287.813	4.99
288.19	5.2
288.567	5.33
288.945	5.48
289.322	5.81
289.699	5.32
290.076	6.02
290.453	5.39
290.83	5.54
291.207	5.2
291.584	5.12
291.961	5.67
292.338	5.6
292.715	5.94
293.092	5.46
293.469	5.88
293.845	6.04
294.222	5.52
294.599	5.67
294.975	5.97
295.352	6.16
295.728	5.14
296.105	4.93
296.481	6.01
296.858	5.85
297.234	5.83
297.61	5.39
297.986	5.92
298.363	6.02
298.739	6.02
299.115	6.05
299.491	5.67
299.867	5.82
300.243	6.07
300.619	6.47
300.995	6.21
301.371	6.75
301.746	5.81
302.122	6.72
302.498	5.8
302.874	5.87
303.249	6.72
303.625	6.47
304	6.9
304.376	6.42
304.751	6.52
305.127	7.05
305.502	5.56
305.878	5.83
306.253	7.06
306.628	7.21
307.003	6.54
307.378	7.23
307.754	7.64
308.129	6.13
308.504	6.81
308.879	6.45
309.254	7.75
309.629	8.29
310.003	7.6
310.378	7.87
310.753	7.36
311.128	7.65
311.502	6.75
311.877	7.39
312.252	6.8
312.626	7.49
313.001	7.66
313.375	7.62
313.75	7.2
314.124	7.66
314.498	7.59
314.873	7.55
315.247	7.65
315.621	8.13
315.995	7.07
316.369	8.62
316.743	7.8
317.117	8.62
317.491	7.51
317.865	7.82
318.239	8.09
318.613	8.01
318.987	8.28
319.361	7.86
319.734	8.49
320.108	8.56
320.482	8.71
320.855	8.37
321.229	9.3
321.602	9.11
321.976	8.61
322.349	8.4
322.723	8.39
323.096	9.17
323.469	8.42
323.843	9.41
324.216	9.93
324.589	9.1
324.962	9.52
325.335	8.7
325.708	8.78
326.081	9.06
326.454	9.44
326.827	9.55
327.2	9.16
327.573	9.21
327.945	9.26
328.318	9.08
328.691	9.08
329.063	9.13
329.436	9.04
329.809	9.94
330.181	9.92
330.553	9.55
330.926	9.98
331.298	10.06
331.671	9.56
332.043	10.49
332.415	10.53
332.787	9.76
333.159	10.53
333.532	10.19
333.904	9.71
334.276	10.12
334.648	10.51
335.02	9.95
335.391	9.91
335.763	9.76
336.135	10.1
336.507	11.12
336.879	10.47
337.25	10.46
337.622	10.73
337.993	10.46
338.365	10.27
338.736	10.4
339.108	10.72
339.479	10.1
339.851	10.72
340.222	10.94
340.593	11.34
340.964	10.57
341.336	11.71
341.707	10.14
342.078	11.21
342.449	11.3
342.82	10.95
343.191	11.03
343.562	11.29
343.933	11.09
344.303	10.89
344.674	10.9
345.045	11.43
345.416	11.65
345.786	11.08
346.157	11.64
346.527	10.91
346.898	11.03
347.268	11.34
347.639	11.64
348.009	11.83
348.38	11.47
348.75	12.16
349.12	11.67
349.49	12.33
349.861	11.81
350.231	11.8
350.601	11.98
350.971	12.04
351.341	11.79
351.711	12.02
352.081	12.04
352.45	11.67
352.82	12.24
353.19	12
353.56	12.23
353.929	12.24
354.299	12.31
354.669	12.16
355.038	12.54
355.408	11.82
355.777	12.15
356.147	12.56
356.516	12.62
356.885	12.49
357.254	12.57
357.624	12.88
357.993	12.75
358.362	12.22
358.731	12.76
359.1	12.91
359.469	12.66
359.838	12.73
360.207	12.48
360.576	12.6
360.945	12.84
361.314	13.13
361.682	12.7
362.051	13.06
362.42	13.13
362.788	13.19
363.157	13.04
363.525	13.48
363.894	13.03
364.262	12.85
364.631	13.02
364.999	12.93
365.367	12.94
365.735	13.9
366.104	13.67
366.472	13.45
366.84	13.19
367.208	12.97
367.576	13.88
367.944	13.92
368.312	13.52
368.68	13.33
369.048	13.62
369.416	13.57
369.783	13.56
370.151	13.9
370.519	14.43
370.886	14.27
371.254	13.69
371.621	14.14
371.989	14.01
372.356	13.76
372.724	14.25
373.091	14.27
373.458	14.05
373.826	14.05
374.193	14.02
374.56	14.04
374.927	14.58
375.294	14.58
375.661	14.16
376.028	15.02
376.395	14.63
376.762	14.49
377.129	14.48
377.496	14.46
377.863	15.08
378.229	14.2
378.596	14.63
378.963	14.79
379.329	14.6
379.696	14.88
380.062	14.75
380.429	14.9
380.795	14.75
381.161	15.2
381.528	15.17
381.894	14.86
382.26	14.86
382.626	15.48
382.993	15.01
383.359	15.67
383.725	15.1
384.091	15.54
384.457	16.02
384.823	15.17
385.188	15.5
385.554	15.43
385.92	15.67
386.286	15.75
386.651	15.39
387.017	15.67
387.383	15.46
387.748	15.57
388.114	15.91
388.479	15.74
388.845	15.93
389.21	16.02
389.575	15.86
389.94	15.91
390.306	15.99
390.671	15.86
391.036	15.79
391.401	15.87
391.766	16.23
392.131	15.74
392.496	16.42
392.861	16.13
393.226	16.39
393.591	16.26
393.956	16.21
394.32	16.34
394.685	16.15
395.05	16.24
395.414	16.32
395.779	15.97
396.143	16.37
396.508	16.39
396.872	16.59
397.236	16.54
397.601	16.39
397.965	16.64
398.329	16.72
398.694	16.81
399.058	16.66
399.422	16.67
399.786	16.68
400.15	16.63
400.514	17.1
400.878	16.69
401.242	17.15
401.605	16.93
401.969	16.92
402.333	16.75
402.697	16.72
403.06	17.01
403.424	17.03
403.787	16.92
404.151	17.4
404.514	17.08
404.878	16.82
405.241	17.23
405.604	16.88
405.968	16.98
406.331	17.21
406.694	17.33
407.057	17.06
407.42	17.25
407.783	17.12
408.146	17.12
408.509	17.19
408.872	17.29
409.235	17.15
409.598	17.58
409.961	17.48
410.323	17.61
410.686	17.19
411.049	17.1
411.411	17.49
411.774	17.54
412.136	17.35
412.499	17.52
412.861	17.57
413.223	17.63
413.586	17.55
413.948	17.76
414.31	17.61
414.672	17.53
415.035	17.8
415.397	17.93
415.759	17.78
416.121	18.13
416.483	18.01
416.845	17.92
417.206	17.89
417.568	18.11
417.93	17.81
418.292	17.93
418.653	17.97
419.015	18.11
419.377	18.04
419.738	18.4
420.1	18.19
420.461	18.1
420.822	18.23
421.184	18.23
421.545	18.26
421.906	18.12
422.267	18.19
422.629	18.23
422.99	18.2
423.351	18.29
423.712	18.2
424.073	18.34
424.434	18.58
424.795	18.42
425.155	18.59
425.516	18.63
425.877	18.66
426.238	18.63
426.598	18.89
426.959	18.75
427.32	18.78
427.68	18.82
428.041	19.05
428.401	19.17
428.761	19.34
429.122	19.5
429.482	19.45
429.842	19.73
430.202	19.41
430.563	19.82
430.923	19.72
431.283	19.94
431.643	19.8
432.003	20.02
432.363	19.94
432.722	19.89
433.082	20.09
433.442	20.36
433.802	20.23
434.161	20.17
434.521	20.5
434.881	20.29
435.24	20.14
435.6	20.48
435.959	20.28
436.319	20.43
436.678	20.39
437.037	20.69
437.396	20.78
437.756	20.97
438.115	20.7
438.474	21.2
438.833	21
439.192	21.03
439.551	21.19
439.91	21.09
440.269	21.19
440.628	21.15
440.987	21.4
441.345	21.23
441.704	21.29
442.063	21.22
442.421	21.36
442.78	21.43
443.138	21.3
443.497	21.35
443.855	21.52
444.214	21.44
444.572	21.64
444.93	21.69
445.288	21.76
445.647	21.99
446.005	21.96
446.363	22.08
446.721	22.07
447.079	22.03
447.437	21.98
447.795	22.07
448.153	21.75
448.51	21.88
448.868	22.03
449.226	22.02
449.584	22.05
449.941	22.29
450.299	22.19
450.656	22.29
451.014	22.56
451.371	22.54
451.729	22.64
452.086	22.9
452.443	22.64
452.801	23.06
453.158	22.81
453.515	22.96
453.872	23.08
454.229	23.19
454.586	22.95
454.943	23
455.3	23.18
455.657	23.25
456.014	23.24
456.371	23.39
456.727	23.41
457.084	23.56
457.441	23.52
457.797	23.63
458.154	23.71
458.51	23.64
458.867	23.7
459.223	23.88
459.58	23.7
459.936	23.84
460.292	23.81
460.648	24.07
461.005	23.88
461.361	24.15
461.717	23.75
462.073	23.76
462.429	23.69
462.785	23.8
463.141	23.9
463.496	23.9
463.852	24.12
464.208	24.17
464.564	24.35
464.919	24.54
465.275	24.73
465.631	24.84
465.986	24.91
466.342	24.85
466.697	24.82
467.052	25.01
467.408	24.94
467.763	24.73
468.118	24.97
468.473	25.15
468.829	25.01
469.184	24.87
469.539	24.95
469.894	24.9
470.249	25.27
470.603	25.28
470.958	25.33
471.313	25.53
471.668	25.67
472.023	25.56
472.377	25.49
472.732	25.33
473.086	25.5
473.441	25.43
473.795	25.88
474.15	25.86
474.504	25.82
474.859	25.92
475.213	25.82
475.567	25.71
475.921	26.08
476.275	26.18
476.63	26.02
476.984	26.11
477.338	26.04
477.692	26.13
478.045	26.07
478.399	26.27
478.753	26.15
479.107	26.27
479.461	26.35
479.814	26.2
480.168	26.33
480.521	26.06
480.875	26.31
481.228	26.35
481.582	26.48
481.935	26.46
482.289	26.59
482.642	26.62
482.995	26.71
483.348	26.64
483.701	26.62
484.055	26.69
484.408	26.6
484.761	26.44
485.114	26.28
485.466	26.03
485.819	25.99
486.172	25.83
486.525	25.53
486.878	25.38
487.23	25.73
487.583	26
487.936	26.23
488.288	26.56
488.641	26.65
488.993	26.55
489.345	26.34
489.698	26.37
490.05	26.21
490.402	26.18
490.754	26.34
491.107	26.42
491.459	26.63
491.811	26.99
492.163	27.22
492.515	27.42
492.866	27.19
493.218	27.25
493.57	27.06
493.922	26.86
494.274	26.78
494.625	26.95
494.977	27.06
495.328	27.22
495.68	27.57
496.031	27.94
496.383	27.81
496.734	28.34
497.086	28.18
497.437	28.35
497.788	28.32
498.139	28.25
498.49	28.33
498.842	28.22
499.193	28.06
499.544	28.21
499.894	28.19
500.245	28.31
500.596	28.37
500.947	28.38
501.298	28.55
501.648	28.53
501.999	28.64
502.35	28.61
502.7	28.81
503.051	28.79
503.401	28.98
503.752	29.03
504.102	28.98
504.452	29.05
504.803	29.03
505.153	29.14
505.503	29.24
505.853	29.03
506.203	29.42
506.553	29.17
506.903	29.2
507.253	29.09
507.603	29.3
507.953	29.47
508.303	29.58
508.652	29.19
509.002	29.51
509.352	29.43
509.701	29.61
510.051	29.59
510.4	29.4
510.75	29.5
511.099	29.49
511.449	29.49
511.798	29.56
512.147	29.65
512.496	29.43
512.846	29.52
513.195	29.64
513.544	29.69
513.893	29.92
514.242	29.76
514.591	29.85
514.939	29.88
515.288	29.87
515.637	29.98
515.986	30.13
516.334	30.04
516.683	30.11
517.032	30.26
517.38	30.43
517.729	30.36
518.077	30.25
518.426	30.54
518.774	30.54
519.122	30.41
519.47	30.41
519.819	30.25
520.167	30.26
520.515	30.18
520.863	30.1
521.211	29.98
521.559	30.11
521.907	30.19
522.255	30.19
522.602	30.43
522.95	30.59
523.298	30.51
523.645	30.59
523.993	30.84
524.341	30.99
524.688	31.13
525.036	31.06
525.383	31.01
525.73	31.08
526.078	31
526.425	30.88
526.772	30.97
527.119	30.91
527.466	30.86
527.814	30.69
528.161	30.71
528.508	30.59
528.854	30.69
529.201	30.59
529.548	30.75
529.895	30.65
530.242	30.46
530.588	30.48
530.935	30.24
531.282	30.08
531.628	29.93
531.975	30.11
532.321	30.42
532.667	30.57
533.014	30.78
533.36	31.07
533.706	31.2
534.052	31.28
534.399	31.2
534.745	31.14
535.091	31.22
535.437	31
535.783	30.82
536.129	30.78
536.474	30.95
536.82	31.26
537.166	31.43
537.512	31.71
537.857	31.66
538.203	31.69
538.549	31.57
538.894	31.68
539.239	31.7
539.585	31.61
539.93	31.77
540.276	32
540.621	31.99
540.966	32.32
541.311	32.26
541.656	32.28
542.001	32.28
542.346	32.48
542.691	32.19
543.036	31.87
543.381	31.7
543.726	31.57
544.071	31.59
544.415	31.68
544.76	31.55
545.105	31.9
545.449	31.8
545.794	32.17
546.138	32.36
546.483	32.41
546.827	32.54
547.171	32.64
547.516	32.83
547.86	32.67
548.204	32.7
548.548	32.68
548.892	32.8
549.236	32.67
549.58	32.77
549.924	32.86
550.268	32.97
550.612	33.17
550.956	33.23
551.3	33.28
551.643	33.48
551.987	33.56
552.33	33.62
552.674	33.53
553.017	33.57
553.361	33.76
553.704	33.92
554.048	33.94
554.391	33.59
554.734	33.64
555.077	33.78
555.42	33.6
555.764	33.42
556.107	33.61
556.45	33.83
556.793	33.9
557.135	34.15
557.478	34
557.821	34.18
558.164	34.34
558.507	34.06
558.849	34.22
559.192	34.29
559.534	34.26
559.877	34.39
560.219	34.42
560.562	34.65
560.904	34.49
561.246	34.43
561.589	34.73
561.931	34.83
562.273	34.7
562.615	35.1
562.957	34.81
563.299	34.5
563.641	34.41
563.983	34.68
564.325	34.9
564.667	34.82
565.008	34.81
565.35	34.8
565.692	34.83
566.033	34.95
566.375	35.09
566.716	35.07
567.058	34.87
567.399	34.87
567.741	35.12
568.082	35.07
568.423	34.95
568.764	34.86
569.105	34.88
569.447	35.03
569.788	35.05
570.129	35.23
570.47	35.23
570.811	35.24
571.151	35.45
571.492	35.7
571.833	35.33
572.174	35.26
572.514	35.61
572.855	35.36
573.195	35.55
573.536	35.44
573.876	35.41
574.217	35.53
574.557	35.44
574.898	35.34
575.238	35.52
575.578	35.52
575.918	35.58
576.258	35.72
576.598	35.57
576.938	35.56
577.278	35.71
577.618	35.66
577.958	35.65
578.298	35.62
578.638	36.02
578.977	36.09
579.317	36
579.657	36.22
579.996	36.39
580.336	36.38
580.675	36.52
581.014	36.29
581.354	36.5
581.693	36.67
582.032	36.35
582.372	36.43
582.711	36.86
583.05	36.58
583.389	36.7
583.728	36.61
584.067	36.94
584.406	36.83
584.745	36.86
585.083	36.73
585.422	36.77
585.761	37.03
586.1	37
586.438	36.99
586.777	37.25
587.115	37.02
587.454	37.21
587.792	37.22
588.13	37.23
588.469	37.27
588.807	37.04
589.145	37.05
589.483	37.3
589.821	37.55
590.159	37.04
590.497	37.28
590.835	37.54
591.173	37.52
591.511	37.48
591.849	37.25
592.187	37.52
592.524	37.13
592.862	37.29
593.2	37.42
593.537	37.37
593.875	37.33
594.212	37.25
594.55	37.42
594.887	37.79
595.224	37.84
595.561	37.81
595.899	37.87
596.236	37.71
596.573	37.98
596.91	37.78
597.247	37.76
597.584	38.03
597.921	37.85
598.258	37.84
598.594	37.97
598.931	37.84
599.268	37.8
599.604	37.83
599.941	37.77
600.277	37.49
600.614	38.19
600.95	38.22
601.287	38.06
601.623	38.16
601.959	38.42
602.296	38.56
602.632	38.57
602.968	38.43
603.304	38.57
603.64	38.41
603.976	38.5
604.312	38.33
604.648	38.44
604.984	38.65
605.319	38.7
605.655	38.22
605.991	38.14
606.326	38.28
606.662	38.47
606.998	37.89
607.333	38.38
607.668	38.25
608.004	38.49
608.339	38.56
608.674	38.74
609.01	38.46
609.345	38.39
609.68	39.1
610.015	38.7
610.35	39.11
610.685	38.91
611.02	38.71
611.355	39.1
611.689	39.18
612.024	38.93
612.359	38.85
612.694	38.7
613.028	38.45
613.363	39.11
613.697	39.05
614.032	39.08
614.366	39.17
614.7	39.7
615.035	39.27
615.369	38.89
615.703	39.29
616.037	39.55
616.371	39.62
616.705	39.53
617.039	39.69
617.373	39.61
617.707	39.27
618.041	39.2
618.375	39.81
618.709	39.56
619.042	39.59
619.376	39.81
619.71	39.85
620.043	40.03
620.377	39.42
620.71	39.84
621.043	40.05
621.377	39.85
621.71	39.93
622.043	39.86
622.376	39.64
622.709	39.8
623.043	40.06
623.376	39.92
623.709	40.1
624.041	40.84
624.374	40.26
624.707	40.14
625.04	40.33
625.373	39.88
625.705	40.35
626.038	40.27
626.37	39.97
626.703	40.05
627.035	40.09
627.368	40.7
627.7	39.99
628.032	40.16
628.365	40.47
628.697	40.8
629.029	40.53
629.361	40.28
629.693	40.58
630.025	39.96
630.357	40.53
630.689	40.7
631.021	40.74
631.353	40.76
631.684	40.58
632.016	40.15
632.348	40.27
632.679	40.76
633.011	41.09
633.342	40.71
633.674	40.98
634.005	41.01
634.336	40.96
634.668	41.74
634.999	41.27
635.33	41.03
635.661	41.03
635.992	40.88
636.323	40.96
636.654	40.72
636.985	40.84
637.316	41.28
637.647	40.92
637.977	41.28
638.308	41.24
638.639	40.71
638.969	41.35
639.3	41.33
639.63	41.37
639.961	41.43
640.291	41.29
640.622	41.56
640.952	41.23
641.282	41.67
641.612	41.37
641.943	41.59
642.273	41.24
642.603	41.57
642.933	41.43
643.263	41.94
643.592	41.56
643.922	41.77
644.252	41.84
644.582	41.58
644.911	41.46
645.241	42.11
645.571	41.46
645.9	41.1
646.23	41.49
646.559	41.64
646.888	41.87
647.218	42.28
647.547	42.34
647.876	41.77
648.205	42.08
648.534	42.46
648.863	41.92
649.192	43.01
649.521	42.3
649.85	42.2
650.179	42.01
650.508	42.09
650.837	41.48
651.165	41.95
651.494	41.74
651.822	42.45
652.151	42.04
652.479	42.62
652.808	42.18
653.136	42.78
653.465	42.48
653.793	42.15
654.121	42.21
654.449	42.41
654.777	42.58
655.105	42.32
655.433	42.3
655.761	42.34
656.089	42.14
656.417	42.37
656.745	42.42
657.073	42.86
657.4	43.08
657.728	42.98
658.056	42.77
658.383	42.82
658.711	43.41
659.038	44.13
659.365	43.37
659.693	43.12
660.02	42.95
660.347	43.21
660.674	43.1
661.001	43.37
661.329	42.23
661.656	43.33
661.982	43.26
662.309	42.56
662.636	42.68
662.963	43.15
663.29	42.77
663.616	42.76
663.943	42.22
664.27	43.01
664.596	43.43
664.923	42.72
665.249	43.46
665.576	43.34
665.902	43.06
666.228	44
666.554	43.89
666.881	43.64
667.207	43.37
667.533	43.22
667.859	43.94
668.185	43.54
668.511	43.26
668.837	43.74
669.162	42.79
669.488	43.46
669.814	43.33
