Data from 0404_crown_Reflection__1__98.txt Node

Date: Fri Dec 15 17:20:39 CST 2023
User: ToomeyLab
Spectrometer: FLMS14357
Trigger mode: 0
Integration Time (sec): 1.000000E-2
Scans to average: 100
Electric dark correction enabled: true
Nonlinearity correction enabled: false
Boxcar width: 0
XAxis mode: Wavelengths
Number of Pixels in Spectrum: 2048
>>>>>Begin Spectral Data<<<<<
189.047	-45.97
189.435	-45.97
189.823	-45.97
190.211	3.1
190.599	83.16
190.987	137.64
191.375	8.47
191.763	-36.17
192.151	73.79
192.538	41.64
192.926	5.19
193.314	232.21
193.702	-549.16
194.089	-215.71
194.477	45.81
194.864	-651.23
195.252	69.51
195.639	71.21
196.027	84.73
196.414	161.96
196.801	580.17
197.189	70.67
197.576	34.11
197.963	-78.67
198.351	-86.88
198.738	-84.43
199.125	-25.76
199.512	-45.39
199.899	16.97
200.286	3.41
200.673	8.39
201.06	18.6
201.447	-25.45
201.833	-5.09
202.22	18.15
202.607	23.58
202.994	34.87
203.38	31.48
203.767	-2.02
204.154	35.83
204.54	40.97
204.927	-67.69
205.313	-55.11
205.699	38.11
206.086	29.08
206.472	-4.7
206.858	24.63
207.245	-60.25
207.631	19.13
208.017	42.76
208.403	9.45
208.789	29.74
209.175	-29.39
209.561	-17.02
209.947	-2.79
210.333	4.33
210.719	22.04
211.105	16.28
211.491	-53.58
211.876	24.26
212.262	-6.04
212.648	-12.95
213.034	24.37
213.419	-24.23
213.805	9.44
214.19	-3.14
214.576	5.94
214.961	-15.87
215.346	-60.65
215.732	6.82
216.117	-2.78
216.502	-31.22
216.888	4.81
217.273	-5.23
217.658	-9.97
218.043	-4.19
218.428	-53.52
218.813	6.17
219.198	-33.94
219.583	7.01
219.968	11.46
220.353	-10.44
220.738	23.03
221.122	34.69
221.507	-10.56
221.892	-17.3
222.276	-33.96
222.661	2.4
223.046	8.38
223.43	15.38
223.815	11.59
224.199	-14.49
224.583	2.21
224.968	13.2
225.352	9.28
225.736	1.78
226.121	-10.1
226.505	5.58
226.889	5.07
227.273	-0.8
227.657	0.03
228.041	2.06
228.425	2.62
228.809	5.54
229.193	3.72
229.577	3.54
229.961	3.33
230.344	4.46
230.728	3.36
231.112	4.03
231.495	3.69
231.879	1.54
232.263	2.15
232.646	4.1
233.03	3.49
233.413	1.4
233.797	2.84
234.18	3.56
234.563	4.55
234.946	2.2
235.33	4.23
235.713	3.76
236.096	4.91
236.479	5.96
236.862	2.52
237.245	5.75
237.628	3.6
238.011	4.01
238.394	3.42
238.777	4.34
239.16	2.23
239.543	5.63
239.925	4.77
240.308	3.74
240.691	7.86
241.073	5.63
241.456	4.46
241.838	1.58
242.221	3.73
242.603	4.51
242.986	3.37
243.368	3.42
243.75	4.25
244.133	4.17
244.515	4.34
244.897	4.39
245.279	4.32
245.661	3.3
246.043	3.4
246.425	2.15
246.807	4.94
247.189	4.19
247.571	4.08
247.953	4.52
248.335	4.01
248.717	4.39
249.098	4.21
249.48	4.34
249.862	4.19
250.243	4.12
250.625	4.28
251.006	4.27
251.388	3.41
251.769	3.99
252.151	4.28
252.532	4.49
252.913	2.8
253.295	3.08
253.676	3.78
254.057	3.62
254.438	4.5
254.819	4.17
255.2	2.49
255.581	3.2
255.962	3.96
256.343	4.13
256.724	3.82
257.105	3.27
257.486	3.61
257.867	3.51
258.247	4.01
258.628	4.34
259.009	3.97
259.389	3.9
259.77	4.54
260.15	2.89
260.531	3.08
260.911	3.89
261.292	3.97
261.672	4
262.052	3.73
262.432	4.37
262.813	3.99
263.193	3.79
263.573	4.38
263.953	3.77
264.333	3.72
264.713	4.07
265.093	2.98
265.473	3.73
265.853	3.14
266.233	4.16
266.612	1.76
266.992	2.43
267.372	3.64
267.752	3.33
268.131	3.12
268.511	4.34
268.89	4.36
269.27	3.74
269.649	3.32
270.029	3.53
270.408	4.36
270.787	4.01
271.167	4
271.546	3.46
271.925	3
272.304	3.48
272.683	4.03
273.062	3.29
273.441	3.81
273.82	2.93
274.199	3.74
274.578	4.1
274.957	3.64
275.336	3.72
275.715	3.19
276.093	3.45
276.472	3.96
276.851	3.45
277.229	3.33
277.608	3.46
277.986	3.51
278.365	4.24
278.743	3.37
279.122	3.21
279.5	3.91
279.878	4.1
280.257	3.76
280.635	2.75
281.013	3.37
281.391	3.88
281.769	3.59
282.147	3.38
282.525	4.34
282.903	3.19
283.281	3.9
283.659	3.94
284.037	3.78
284.415	3.71
284.792	3.97
285.17	3.15
285.548	3.18
285.925	3.53
286.303	3.98
286.68	3.74
287.058	3.74
287.435	3.17
287.813	4
288.19	3.35
288.567	3.37
288.945	4.18
289.322	3.82
289.699	3.86
290.076	3.7
290.453	3.8
290.83	3.43
291.207	3.62
291.584	4.13
291.961	4.02
292.338	4.03
292.715	3.96
293.092	4.18
293.469	3.69
293.845	4.59
294.222	3.14
294.599	4.35
294.975	3.97
295.352	4.58
295.728	3.82
296.105	4.14
296.481	4.62
296.858	3.91
297.234	4
297.61	3.99
297.986	4.25
298.363	4.55
298.739	4.35
299.115	4.38
299.491	3.97
299.867	4.12
300.243	4.85
300.619	4.1
300.995	4.65
301.371	4.2
301.746	3.83
302.122	4.88
302.498	4.03
302.874	4.8
303.249	4.38
303.625	4.23
304	4.49
304.376	4.41
304.751	3.62
305.127	4.93
305.502	3.42
305.878	3.87
306.253	4.19
306.628	4.4
307.003	4.08
307.378	5.1
307.754	4.05
308.129	4.26
308.504	4.09
308.879	4.07
309.254	5.44
309.629	5.23
310.003	4.53
310.378	5.05
310.753	4.8
311.128	4.79
311.502	4.46
311.877	4.84
312.252	4.26
312.626	4.76
313.001	4.35
313.375	4.87
313.75	4.1
314.124	4.63
314.498	4.2
314.873	4.26
315.247	3.75
315.621	4.16
315.995	2.9
316.369	4.31
316.743	4.59
317.117	4.63
317.491	4.08
317.865	4.01
318.239	4.21
318.613	4.57
318.987	4.4
319.361	3.62
319.734	4.55
320.108	4.97
320.482	4.1
320.855	5.39
321.229	3.94
321.602	4.49
321.976	4.73
322.349	4.69
322.723	3.97
323.096	4.29
323.469	4.03
323.843	4.72
324.216	5.42
324.589	4.38
324.962	4.99
325.335	4.86
325.708	3.86
326.081	3.97
326.454	4.36
326.827	4.96
327.2	4.66
327.573	4.4
327.945	4.73
328.318	4.24
328.691	3.6
329.063	3.9
329.436	4.48
329.809	5.08
330.181	4.15
330.553	4.03
330.926	4.47
331.298	4.72
331.671	4.07
332.043	5.07
332.415	4.87
332.787	4.66
333.159	5.05
333.532	4.3
333.904	4.35
334.276	4.96
334.648	4.92
335.02	4.64
335.391	3.88
335.763	4.58
336.135	4.55
336.507	5.07
336.879	4.6
337.25	4.53
337.622	4.15
337.993	4.27
338.365	4.67
338.736	4.67
339.108	4.48
339.479	4.45
339.851	4.46
340.222	4.16
340.593	4.11
340.964	4.2
341.336	5.44
341.707	4.14
342.078	4.95
342.449	4.5
342.82	4.81
343.191	4.72
343.562	4.25
343.933	4.54
344.303	4.47
344.674	4.53
345.045	4.55
345.416	5.16
345.786	4.1
346.157	4.36
346.527	4.02
346.898	4.02
347.268	4.61
347.639	4.24
348.009	4.61
348.38	4.05
348.75	4.13
349.12	4.22
349.49	5.1
349.861	4.33
350.231	4.79
350.601	4.59
350.971	4.42
351.341	4.55
351.711	4.09
352.081	4.58
352.45	3.99
352.82	4.52
353.19	3.94
353.56	4.13
353.929	4.57
354.299	4.16
354.669	3.84
355.038	4.72
355.408	4.14
355.777	4.45
356.147	4.23
356.516	4.18
356.885	4.72
357.254	4.66
357.624	4.53
357.993	4.66
358.362	4.14
358.731	4.12
359.1	4.55
359.469	4.11
359.838	4.55
360.207	4.1
360.576	4.45
360.945	4.6
361.314	4.82
361.682	3.94
362.051	4.23
362.42	4.68
362.788	4.37
363.157	4.4
363.525	4.61
363.894	4.47
364.262	4.32
364.631	4.64
364.999	4.44
365.367	4.47
365.735	5.09
366.104	4.61
366.472	4.47
366.84	4.05
367.208	4.36
367.576	4.55
367.944	4.58
368.312	4.07
368.68	4.11
369.048	4.49
369.416	4.58
369.783	3.98
370.151	4.21
370.519	4.59
370.886	4.34
371.254	4.33
371.621	4.09
371.989	4.82
372.356	3.93
372.724	4.29
373.091	4.39
373.458	4.51
373.826	4.57
374.193	4.3
374.56	4.42
374.927	4.51
375.294	4.48
375.661	4.36
376.028	4.2
376.395	4.43
376.762	4.88
377.129	4.68
377.496	4.45
377.863	4.61
378.229	4.03
378.596	4.49
378.963	4.35
379.329	4.29
379.696	4.52
380.062	4.51
380.429	4.29
380.795	4.59
381.161	4.3
381.528	4.61
381.894	4.36
382.26	4.29
382.626	4.51
382.993	4.03
383.359	5.09
383.725	4.52
384.091	4.48
384.457	4.62
384.823	4.28
385.188	4.62
385.554	4.48
385.92	4.4
386.286	4.69
386.651	4.74
387.017	4.35
387.383	4.26
387.748	4.29
388.114	4.46
388.479	4.04
388.845	4.67
389.21	4.77
389.575	4.37
389.94	4.42
390.306	4.67
390.671	4.92
391.036	3.98
391.401	4.32
391.766	4.3
392.131	4.31
392.496	4.84
392.861	4.37
393.226	4.59
393.591	4.56
393.956	4.44
394.32	4.6
394.685	4.3
395.05	4.43
395.414	4.55
395.779	4.39
396.143	4.64
396.508	4.74
396.872	4.65
397.236	4.77
397.601	4.46
397.965	4.5
398.329	4.62
398.694	4.69
399.058	4.85
399.422	4.29
399.786	4.75
400.15	4.41
400.514	4.62
400.878	4.51
401.242	4.88
401.605	4.75
401.969	4.64
402.333	4.44
402.697	4.57
403.06	4.64
403.424	4.55
403.787	4.38
404.151	4.59
404.514	4.56
404.878	4.54
405.241	4.57
405.604	4.63
405.968	4.56
406.331	4.83
406.694	4.92
407.057	4.46
407.42	4.56
407.783	4.49
408.146	4.7
408.509	4.52
408.872	4.38
409.235	4.76
409.598	4.75
409.961	4.57
410.323	4.86
410.686	4.66
411.049	4.57
411.411	4.3
411.774	4.63
412.136	4.56
412.499	4.49
412.861	4.64
413.223	4.62
413.586	4.58
413.948	4.94
414.31	4.52
414.672	4.73
415.035	4.72
415.397	4.85
415.759	4.48
416.121	4.92
416.483	4.77
416.845	4.71
417.206	4.63
417.568	4.77
417.93	4.57
418.292	4.69
418.653	4.6
419.015	4.8
419.377	4.67
419.738	4.87
420.1	4.67
420.461	4.78
420.822	4.75
421.184	4.71
421.545	4.74
421.906	4.6
422.267	4.7
422.629	4.55
422.99	4.62
423.351	4.54
423.712	4.69
424.073	4.66
424.434	4.62
424.795	4.57
425.155	4.65
425.516	4.48
425.877	4.53
426.238	4.59
426.598	4.61
426.959	4.71
427.32	4.58
427.68	4.68
428.041	4.59
428.401	4.64
428.761	4.67
429.122	4.74
429.482	4.62
429.842	4.91
430.202	4.77
430.563	4.84
430.923	4.53
431.283	4.98
431.643	4.84
432.003	4.71
432.363	4.77
432.722	4.81
433.082	4.64
433.442	4.7
433.802	4.56
434.161	4.66
434.521	5.08
434.881	4.75
435.24	4.62
435.6	4.76
435.959	4.75
436.319	4.8
436.678	4.83
437.037	4.89
437.396	5.04
437.756	4.84
438.115	4.84
438.474	5.12
438.833	4.81
439.192	4.78
439.551	4.84
439.91	4.68
440.269	4.87
440.628	4.81
440.987	4.69
441.345	4.45
441.704	4.85
442.063	4.71
442.421	4.72
442.78	4.7
443.138	4.67
443.497	4.8
443.855	4.84
444.214	4.77
444.572	4.94
444.93	4.84
445.288	4.9
445.647	4.85
446.005	4.88
446.363	4.93
446.721	4.95
447.079	4.74
447.437	4.82
447.795	4.87
448.153	4.82
448.51	4.83
448.868	4.83
449.226	4.89
449.584	4.89
449.941	4.91
450.299	4.83
450.656	4.97
451.014	4.94
451.371	4.81
451.729	4.92
452.086	5.06
452.443	5
452.801	5.18
453.158	5.06
453.515	4.88
453.872	5.06
454.229	4.83
454.586	4.87
454.943	4.95
455.3	5.08
455.657	5.03
456.014	4.86
456.371	4.84
456.727	4.93
457.084	5.1
457.441	4.89
457.797	4.98
458.154	5.28
458.51	5.04
458.867	5.15
459.223	4.97
459.58	5.06
459.936	5.09
460.292	5.04
460.648	4.95
461.005	4.89
461.361	4.9
461.717	4.95
462.073	4.97
462.429	4.9
462.785	5.08
463.141	5.03
463.496	5.11
463.852	5.11
464.208	5.14
464.564	5.13
464.919	5.15
465.275	4.99
465.631	5.34
465.986	5.04
466.342	5.06
466.697	5.03
467.052	5.15
467.408	5.18
467.763	4.97
468.118	5.19
468.473	5.08
468.829	5.08
469.184	5.03
469.539	5.16
469.894	5.02
470.249	5.16
470.603	5.29
470.958	5.29
471.313	5.22
471.668	5.4
472.023	5.03
472.377	5.15
472.732	5.1
473.086	5.16
473.441	5.03
473.795	5.34
474.15	5.08
474.504	5.13
474.859	5.3
475.213	5.06
475.567	5.16
475.921	5.14
476.275	5.37
476.63	5.23
476.984	5.25
477.338	5.42
477.692	5.1
478.045	5.13
478.399	5.23
478.753	5.28
479.107	5.26
479.461	5.2
479.814	5.1
480.168	5.23
480.521	5.04
480.875	5.32
481.228	5.18
481.582	5.34
481.935	5.23
482.289	5.2
482.642	5.19
482.995	4.98
483.348	5.23
483.701	5.15
484.055	5.32
484.408	5.33
484.761	5.09
485.114	5.04
485.466	4.96
485.819	4.91
486.172	4.95
486.525	5.02
486.878	5.04
487.23	5.14
487.583	5.18
487.936	5.15
488.288	5.13
488.641	5.1
488.993	5.11
489.345	5
489.698	4.98
490.05	5.05
490.402	5.13
490.754	5.09
491.107	5.25
491.459	5.29
491.811	5.21
492.163	5.24
492.515	5.21
492.866	5.25
493.218	5.1
493.57	5.12
493.922	5.1
494.274	5.21
494.625	5.33
494.977	5.3
495.328	5.49
495.68	5.43
496.031	5.51
496.383	5.31
496.734	5.46
497.086	5.47
497.437	5.38
497.788	5.44
498.139	5.33
498.49	5.46
498.842	5.42
499.193	5.36
499.544	5.45
499.894	5.45
500.245	5.4
500.596	5.29
500.947	5.57
501.298	5.45
501.648	5.44
501.999	5.55
502.35	5.54
502.7	5.53
503.051	5.38
503.401	5.53
503.752	5.58
504.102	5.54
504.452	5.56
504.803	5.5
505.153	5.5
505.503	5.42
505.853	5.47
506.203	5.43
506.553	5.35
506.903	5.44
507.253	5.37
507.603	5.39
507.953	5.62
508.303	5.72
508.652	5.37
509.002	5.56
509.352	5.68
509.701	5.5
510.051	5.49
510.4	5.52
510.75	5.62
511.099	5.52
511.449	5.56
511.798	5.6
512.147	5.64
512.496	5.6
512.846	5.63
513.195	5.53
513.544	5.46
513.893	5.62
514.242	5.41
514.591	5.64
514.939	5.56
515.288	5.46
515.637	5.69
515.986	5.59
516.334	5.74
516.683	5.66
517.032	5.65
517.38	5.67
517.729	5.73
518.077	5.56
518.426	5.71
518.774	5.63
519.122	5.55
519.47	5.68
519.819	5.53
520.167	5.6
520.515	5.63
520.863	5.66
521.211	5.6
521.559	5.75
521.907	5.68
522.255	5.63
522.602	5.81
522.95	5.68
523.298	5.67
523.645	5.78
523.993	5.78
524.341	5.81
524.688	5.98
525.036	5.77
525.383	5.78
525.73	5.9
526.078	5.71
526.425	5.63
526.772	5.89
527.119	5.73
527.466	5.66
527.814	5.72
528.161	5.66
528.508	5.78
528.854	5.71
529.201	5.68
529.548	5.61
529.895	5.58
530.242	5.49
530.588	5.48
530.935	5.5
531.282	5.56
531.628	5.62
531.975	5.65
532.321	5.72
532.667	5.69
533.014	5.86
533.36	5.85
533.706	5.82
534.052	5.74
534.399	5.68
534.745	5.82
535.091	5.72
535.437	5.7
535.783	5.72
536.129	5.81
536.474	5.76
536.82	5.82
537.166	5.93
537.512	5.91
537.857	5.91
538.203	5.79
538.549	5.78
538.894	5.77
539.239	5.91
539.585	5.93
539.93	5.87
540.276	5.93
540.621	5.99
540.966	5.84
541.311	6.07
541.656	5.92
542.001	5.83
542.346	5.91
542.691	5.87
543.036	5.78
543.381	5.69
543.726	5.76
544.071	5.89
544.415	5.88
544.76	5.83
545.105	5.85
545.449	5.89
545.794	5.97
546.138	5.91
546.483	6.08
546.827	6.03
547.171	5.98
547.516	6.18
547.86	5.91
548.204	6.09
548.548	5.99
548.892	6.01
549.236	6.12
549.58	6.03
549.924	6.14
550.268	6.15
550.612	6.03
550.956	6.25
551.3	6.09
551.643	6.23
551.987	6.21
552.33	6.25
552.674	6.22
553.017	6.08
553.361	6.07
553.704	6.24
554.048	6.03
554.391	6.1
554.734	6.05
555.077	6.13
555.42	6.01
555.764	6.14
556.107	6.04
556.45	6.23
556.793	6.11
557.135	6.29
557.478	6.41
557.821	6.38
558.164	6.07
558.507	6.14
558.849	6.22
559.192	6.28
559.534	6.39
559.877	6.46
560.219	6.29
560.562	6.64
560.904	6.33
561.246	6.32
561.589	6.52
561.931	6.31
562.273	6.23
562.615	6.21
562.957	6.31
563.299	6.08
563.641	6.33
563.983	6.67
564.325	6.27
564.667	6.24
565.008	6.39
565.35	6.49
565.692	6.19
566.033	6.34
566.375	6.45
566.716	6.56
567.058	6.4
567.399	6.27
567.741	6.29
568.082	6.35
568.423	6.28
568.764	6.21
569.105	6.57
569.447	6.66
569.788	6.47
570.129	6.43
570.47	6.36
570.811	6.61
571.151	6.41
571.492	6.59
571.833	6.54
572.174	6.45
572.514	6.65
572.855	6.63
573.195	6.59
573.536	6.32
573.876	6.32
574.217	6.38
574.557	6.48
574.898	6.61
575.238	6.45
575.578	6.48
575.918	6.61
576.258	6.42
576.598	6.65
576.938	6.31
577.278	6.38
577.618	6.48
577.958	6.52
578.298	6.72
578.638	6.53
578.977	6.57
579.317	6.42
579.657	6.69
579.996	6.68
580.336	6.72
580.675	6.65
581.014	6.79
581.354	6.54
581.693	6.5
582.032	6.54
582.372	6.47
582.711	6.62
583.05	6.52
583.389	6.79
583.728	6.69
584.067	6.7
584.406	6.53
584.745	6.45
585.083	7.02
585.422	6.82
585.761	6.89
586.1	6.76
586.438	6.59
586.777	6.95
587.115	6.85
587.454	6.6
587.792	6.98
588.13	6.95
588.469	6.71
588.807	6.63
589.145	6.51
589.483	6.61
589.821	6.69
590.159	6.81
590.497	7.03
590.835	6.93
591.173	6.77
591.511	7.07
591.849	6.86
592.187	6.75
592.524	6.76
592.862	6.67
593.2	6.57
593.537	6.93
593.875	6.68
594.212	6.75
594.55	6.84
594.887	7.03
595.224	6.88
595.561	7
595.899	6.91
596.236	6.71
596.573	6.97
596.91	6.49
597.247	6.84
597.584	7.2
597.921	6.93
598.258	6.89
598.594	6.75
598.931	6.86
599.268	6.93
599.604	6.76
599.941	6.87
600.277	7.03
600.614	6.68
600.95	6.63
601.287	7.19
601.623	7
601.959	6.81
602.296	7
602.632	6.86
602.968	6.86
603.304	7.1
603.64	7.02
603.976	6.92
604.312	6.72
604.648	6.86
604.984	7.1
605.319	6.9
605.655	7.13
605.991	7.11
606.326	7.14
606.662	7.06
606.998	6.75
607.333	6.95
607.668	7.18
608.004	7.13
608.339	7.08
608.674	7.02
609.01	6.79
609.345	7.19
609.68	7.24
610.015	6.95
610.35	7.04
610.685	6.83
611.02	6.95
611.355	7.27
611.689	7.07
612.024	7.01
612.359	7.06
612.694	7.27
613.028	6.95
613.363	7.45
613.697	7.35
614.032	7.14
614.366	7.11
614.7	7.37
615.035	7.18
615.369	7.14
615.703	7.19
616.037	7.23
616.371	6.77
616.705	6.93
617.039	7.18
617.373	7.11
617.707	7.05
618.041	7.05
618.375	7.42
618.709	7.36
619.042	7
619.376	7.69
619.71	7.21
620.043	7.47
620.377	6.98
620.71	7.05
621.043	7.24
621.377	7.12
621.71	7.05
622.043	6.78
622.376	6.94
622.709	7.33
623.043	7.2
623.376	7.37
623.709	7.13
624.041	7.61
624.374	7.53
624.707	7.32
625.04	7.47
625.373	7.3
625.705	7.32
626.038	7.3
626.37	7.23
626.703	7.27
627.035	7.5
627.368	7.71
627.7	7.22
628.032	7.18
628.365	7.39
628.697	7.25
629.029	7.31
629.361	7.26
629.693	7.48
630.025	7.4
630.357	7.51
630.689	7.84
631.021	7.41
631.353	7.63
631.684	7.45
632.016	7.57
632.348	7.47
632.679	7.13
633.011	7.73
633.342	7.58
633.674	7.58
634.005	7.85
634.336	7.46
634.668	7.88
634.999	7.4
635.33	7.65
635.661	7.54
635.992	7.54
636.323	7.72
636.654	7.57
636.985	7.73
637.316	7.8
637.647	7.3
637.977	7.65
638.308	7.28
638.639	7.16
638.969	7.51
639.3	7.38
639.63	7.29
639.961	7.31
640.291	7.38
640.622	7.87
640.952	7.36
641.282	8.05
641.612	7.91
641.943	7.26
642.273	7.81
642.603	8.01
642.933	7.89
643.263	7.52
643.592	7.75
643.922	7.32
644.252	7.65
644.582	7.88
644.911	7.61
645.241	7.85
645.571	8.05
645.9	7.45
646.23	7.55
646.559	7.95
646.888	7.79
647.218	7.85
647.547	7.78
647.876	7.05
648.205	7.81
648.534	7.68
648.863	7.58
649.192	8
649.521	8.06
649.85	7.65
650.179	7.42
650.508	7.4
650.837	8.12
651.165	8.28
651.494	7.51
651.822	7.85
652.151	7.69
652.479	8.28
652.808	8
653.136	8.1
653.465	7.43
653.793	7.58
654.121	7.3
654.449	8.46
654.777	7.98
655.105	8.13
655.433	7.57
655.761	7.37
656.089	8.03
656.417	8.4
656.745	7.24
657.073	7.79
657.4	8.25
657.728	7.84
658.056	7.95
658.383	7.92
658.711	8.14
659.038	7.73
659.365	8.67
659.693	8.02
660.02	7.97
660.347	8.17
660.674	8.04
661.001	7.98
661.329	7.35
661.656	7.88
661.982	8.29
662.309	8.02
662.636	7.8
662.963	8.35
663.29	7.83
663.616	8.15
663.943	7.76
664.27	7.49
664.596	8.66
664.923	8.25
665.249	8.07
665.576	8.31
665.902	9.5
666.228	8.02
666.554	8.11
666.881	8.42
667.207	8.05
667.533	8.84
667.859	7.95
668.185	8.92
668.511	7.73
668.837	7.73
669.162	7.73
669.488	7.57
669.814	8.28
670.139	8.16
670.465	8.44
670.791	8.58
671.116	8.88
671.442	8.31
671.767	7.78
672.092	8.88
672.418	8.28
672.743	8.9
673.068	7.56
673.393	7.99
673.718	8.12
674.043	7.93
674.368	8.95
674.693	9.1
675.018	7.98
675.343	8.23
675.667	8.24
675.992	8.71
676.317	7.59
676.641	8.19
676.966	8.61
677.29	7.81
677.615	8.91
677.939	9.24
678.264	9.34
678.588	9.41
678.912	8.85
679.236	9.29
679.56	7.78
679.885	9.4
680.209	8.85
680.532	8.21
680.856	8.96
681.18	8.41
681.504	7.86
681.828	8.42
682.152	7.99
682.475	8.46
682.799	8.48
683.122	8.74
683.446	8.24
683.769	8.85
684.093	8.28
684.416	9.05
684.739	8.29
685.062	8.6
685.386	8.56
685.709	8.5
686.032	8.55
686.355	8.25
686.678	7.94
687.001	8.5
687.324	8.87
687.646	8.67
687.969	8.68
688.292	8.49
688.614	8.64
688.937	10.27
689.26	8.4
689.582	8.81
689.904	8.91
690.227	8.52
690.549	8.15
690.871	9.28
691.194	8.13
691.516	8.38
691.838	8.87
692.16	8.65
692.482	9.1
