Data from 0404_chest_Reflection__4__95.txt Node

Date: Fri Dec 15 17:18:38 CST 2023
User: ToomeyLab
Spectrometer: FLMS14357
Trigger mode: 0
Integration Time (sec): 1.000000E-2
Scans to average: 100
Electric dark correction enabled: true
Nonlinearity correction enabled: false
Boxcar width: 0
XAxis mode: Wavelengths
Number of Pixels in Spectrum: 2048
>>>>>Begin Spectral Data<<<<<
189.047	1.38
189.435	1.38
189.823	1.38
190.211	32.94
190.599	-218.86
190.987	118.59
191.375	46.19
191.763	92.29
192.151	-39.54
192.538	47.43
192.926	-104.65
193.314	324.4
193.702	-489.29
194.089	259.29
194.477	196.86
194.864	-646.78
195.252	72.82
195.639	109.59
196.027	-47.47
196.414	67.97
196.801	235.61
197.189	113.75
197.576	-22.2
197.963	645.14
198.351	-17.04
198.738	-29.42
199.125	24.25
199.512	43.07
199.899	66.44
200.286	3.02
200.673	-4.69
201.06	9.93
201.447	44.05
201.833	3.49
202.22	45.72
202.607	42.8
202.994	0.75
203.38	12.6
203.767	32.06
204.154	35.86
204.54	37.63
204.927	7.11
205.313	-76.28
205.699	55.13
206.086	43.11
206.472	68.55
206.858	28.19
207.245	-14.84
207.631	29.63
208.017	7.28
208.403	24.25
208.789	40.53
209.175	7.08
209.561	15.22
209.947	7.32
210.333	-20.37
210.719	65.49
211.105	37.23
211.491	-42.04
211.876	30.81
212.262	26.63
212.648	20.96
213.034	34.12
213.419	-23.5
213.805	3.78
214.19	10.28
214.576	37.95
214.961	6.42
215.346	-14.82
215.732	42.79
216.117	13.01
216.502	-4
216.888	1.38
217.273	39.64
217.658	-13.32
218.043	3.54
218.428	-53.49
218.813	5.97
219.198	-36.91
219.583	13.67
219.968	-19.08
220.353	-4.95
220.738	45.21
221.122	16.03
221.507	-30.43
221.892	-26.05
222.276	-37.95
222.661	6.33
223.046	17.5
223.43	11.99
223.815	10.44
224.199	-7.68
224.583	-17.07
224.968	-4.14
225.352	4.96
225.736	-13.12
226.121	-11.33
226.505	3.81
226.889	13.93
227.273	-1.45
227.657	5.85
228.041	-1.54
228.425	-0.51
228.809	3.16
229.193	3.3
229.577	2.57
229.961	1.17
230.344	2.09
230.728	2.52
231.112	1.56
231.495	2.1
231.879	2.76
232.263	1.69
232.646	3.7
233.03	1.58
233.413	1
233.797	2.74
234.18	3.41
234.563	3
234.946	0.38
235.33	1.98
235.713	1.14
236.096	1.43
236.479	1.67
236.862	1.74
237.245	3.46
237.628	0.77
238.011	1.89
238.394	5.77
238.777	0.48
239.16	1.6
239.543	-0.12
239.925	3.25
240.308	3.67
240.691	2.93
241.073	2.57
241.456	2.16
241.838	1.14
242.221	-0.01
242.603	2.21
242.986	1.44
243.368	2.45
243.75	1.52
244.133	1.07
244.515	1.65
244.897	1.75
245.279	1.51
245.661	1.67
246.043	1.31
246.425	2.23
246.807	2.23
247.189	2.11
247.571	1.58
247.953	1.63
248.335	1.45
248.717	1.49
249.098	1.43
249.48	1.4
249.862	1.5
250.243	1.75
250.625	1.45
251.006	2.15
251.388	0.71
251.769	1.82
252.151	0.98
252.532	1.09
252.913	-0.36
253.295	2.07
253.676	1.32
254.057	1.88
254.438	1.43
254.819	0.39
255.2	0.99
255.581	2.57
255.962	-0.32
256.343	2.31
256.724	0.4
257.105	2.83
257.486	1.03
257.867	1.89
258.247	0.89
258.628	0.87
259.009	0.83
259.389	2.89
259.77	1.44
260.15	0.4
260.531	0.6
260.911	1.86
261.292	1.38
261.672	1.71
262.052	1.59
262.432	1.69
262.813	1.51
263.193	1.73
263.573	0.64
263.953	1.61
264.333	1.58
264.713	1.83
265.093	0.67
265.473	2.17
265.853	1.14
266.233	1.91
266.612	-0.31
266.992	0.58
267.372	2.14
267.752	1.3
268.131	1.22
268.511	2.04
268.89	1.41
269.27	1.29
269.649	0.91
270.029	1.5
270.408	2.98
270.787	1.72
271.167	1.95
271.546	2.08
271.925	1
272.304	1.69
272.683	1.81
273.062	1.23
273.441	1.47
273.82	1.15
274.199	1.38
274.578	2.17
274.957	1.46
275.336	1.47
275.715	1.14
276.093	1.25
276.472	1.27
276.851	1.32
277.229	1.64
277.608	0.53
277.986	2.12
278.365	2.48
278.743	1.46
279.122	1.71
279.5	1.96
279.878	1.73
280.257	1.3
280.635	0.85
281.013	1.51
281.391	1.94
281.769	1.07
282.147	1.66
282.525	1.92
282.903	0.99
283.281	1.68
283.659	1.88
284.037	1.54
284.415	1.88
284.792	1.77
285.17	0.63
285.548	1.33
285.925	1.44
286.303	1.38
286.68	1.39
287.058	1.44
287.435	1.53
287.813	1.68
288.19	1.08
288.567	1.56
288.945	2.04
289.322	1.27
289.699	1.22
290.076	1.49
290.453	1.24
290.83	1.43
291.207	1.92
291.584	1.8
291.961	1.32
292.338	1.37
292.715	2.13
293.092	1.32
293.469	1.43
293.845	1.87
294.222	1.19
294.599	1.22
294.975	0.73
295.352	1.67
295.728	1.5
296.105	1.43
296.481	1.92
296.858	1.61
297.234	0.78
297.61	0.99
297.986	1.28
298.363	1.75
298.739	1.59
299.115	1.04
299.491	1.26
299.867	1.41
300.243	1.97
300.619	1.15
300.995	1.53
301.371	1.55
301.746	1.39
302.122	1.74
302.498	1.15
302.874	1.48
303.249	1.77
303.625	1.98
304	1.89
304.376	1.65
304.751	0.52
305.127	2.07
305.502	0.93
305.878	0.61
306.253	1.72
306.628	1.94
307.003	0.76
307.378	1.2
307.754	1.94
308.129	0.71
308.504	1.57
308.879	0.99
309.254	3.04
309.629	2.08
310.003	1.8
310.378	2.08
310.753	1.54
311.128	1.36
311.502	1.43
311.877	2.15
312.252	1.15
312.626	1.47
313.001	1.39
313.375	1.8
313.75	0.91
314.124	1.45
314.498	1.41
314.873	1.61
315.247	1.81
315.621	0.9
315.995	0.14
316.369	1.27
316.743	1.27
317.117	1.81
317.491	1.52
317.865	1.32
318.239	1.34
318.613	1.64
318.987	1.73
319.361	1.29
319.734	1.99
320.108	1.37
320.482	1.6
320.855	1.67
321.229	2.03
321.602	1.39
321.976	2.11
322.349	2.06
322.723	1.1
323.096	2.19
323.469	0.63
323.843	1.76
324.216	2.08
324.589	1.23
324.962	2.11
325.335	1.35
325.708	1.51
326.081	1.63
326.454	1.19
326.827	1.98
327.2	1.19
327.573	1.52
327.945	2.19
328.318	1.13
328.691	0.93
329.063	1.9
329.436	1.53
329.809	2.01
330.181	1.6
330.553	1.48
330.926	2.16
331.298	1.71
331.671	1.54
332.043	1.71
332.415	1.64
332.787	1.71
333.159	2.92
333.532	2.19
333.904	1.23
334.276	1.67
334.648	1.46
335.02	1.28
335.391	1.51
335.763	1.75
336.135	1.94
336.507	1.84
336.879	1.8
337.25	1.66
337.622	1.77
337.993	1.59
338.365	1.81
338.736	1.72
339.108	1.78
339.479	1.85
339.851	1.41
340.222	1.21
340.593	1.43
340.964	1.85
341.336	2.41
341.707	1.51
342.078	2.05
342.449	1.75
342.82	1.85
343.191	1.62
343.562	1.95
343.933	1.92
344.303	1.77
344.674	1.44
345.045	1.65
345.416	1.66
345.786	1.2
346.157	1.98
346.527	1.36
346.898	1.43
347.268	2.06
347.639	1.43
348.009	1.95
348.38	1.45
348.75	1.33
349.12	1.36
349.49	2.1
349.861	1.77
350.231	1.7
350.601	1.49
350.971	1.98
351.341	1.23
351.711	1.38
352.081	1.92
352.45	1.6
352.82	1.92
353.19	1.53
353.56	1.3
353.929	1.57
354.299	1.82
354.669	1.5
355.038	1.9
355.408	1.3
355.777	1.76
356.147	1.52
356.516	1.87
356.885	1.66
357.254	1.66
357.624	2.2
357.993	1.91
358.362	1.62
358.731	1.33
359.1	1.88
359.469	1.64
359.838	1.71
360.207	1.3
360.576	1.47
360.945	1.87
361.314	2.15
361.682	1.65
362.051	1.62
362.42	1.99
362.788	1.51
363.157	1.94
363.525	1.98
363.894	1.72
364.262	1.57
364.631	1.87
364.999	1.55
365.367	1.6
365.735	2.25
366.104	1.94
366.472	2.07
366.84	1.74
367.208	1.65
367.576	1.91
367.944	2.05
368.312	1.74
368.68	1.45
369.048	1.65
369.416	1.72
369.783	1.47
370.151	1.54
370.519	2.12
370.886	2.2
371.254	1.62
371.621	1.6
371.989	2.04
372.356	1.16
372.724	2.08
373.091	1.45
373.458	1.65
373.826	1.56
374.193	1.68
374.56	1.67
374.927	2.03
375.294	1.36
375.661	1.53
376.028	1.53
376.395	1.57
376.762	1.82
377.129	2.22
377.496	1.96
377.863	1.67
378.229	1.42
378.596	1.87
378.963	1.97
379.329	1.72
379.696	1.98
380.062	1.97
380.429	1.94
380.795	1.66
381.161	1.65
381.528	2.04
381.894	1.77
382.26	1.5
382.626	1.76
382.993	1.67
383.359	2.3
383.725	1.63
384.091	1.56
384.457	1.92
384.823	1.77
385.188	2.12
385.554	1.71
385.92	1.94
386.286	1.98
386.651	1.92
387.017	2.18
387.383	1.91
387.748	1.56
388.114	2.06
388.479	1.81
388.845	1.75
389.21	2.1
389.575	2.13
389.94	2.01
390.306	1.74
390.671	1.83
391.036	1.41
391.401	1.79
391.766	1.83
392.131	1.69
392.496	1.71
392.861	1.7
393.226	2.18
393.591	1.91
393.956	1.79
394.32	1.94
394.685	1.51
395.05	1.85
395.414	1.85
395.779	1.55
396.143	1.92
396.508	1.68
396.872	1.85
397.236	2.13
397.601	1.74
397.965	2.06
398.329	1.83
398.694	2.19
399.058	1.89
399.422	1.74
399.786	2.04
400.15	2.04
400.514	1.84
400.878	1.99
401.242	2.25
401.605	1.85
401.969	1.97
402.333	2.13
402.697	1.88
403.06	1.98
403.424	2.16
403.787	1.92
404.151	2.11
404.514	1.89
404.878	1.81
405.241	2.11
405.604	1.96
405.968	2.06
406.331	1.83
406.694	2
407.057	1.87
407.42	2.2
407.783	1.89
408.146	1.81
408.509	1.51
408.872	1.53
409.235	2.16
409.598	2.15
409.961	2.04
410.323	1.94
410.686	1.82
411.049	1.7
411.411	1.94
411.774	1.94
412.136	1.92
412.499	1.83
412.861	1.88
413.223	1.83
413.586	1.88
413.948	1.96
414.31	1.98
414.672	1.84
415.035	1.75
415.397	2.25
415.759	1.86
416.121	2.07
416.483	1.81
416.845	2.01
417.206	1.99
417.568	1.86
417.93	1.85
418.292	1.84
418.653	2
419.015	1.85
419.377	1.8
419.738	2.05
420.1	1.88
420.461	1.99
420.822	1.9
421.184	1.95
421.545	1.84
421.906	1.83
422.267	1.89
422.629	1.9
422.99	1.87
423.351	1.74
423.712	1.92
424.073	1.89
424.434	1.85
424.795	1.84
425.155	1.92
425.516	1.79
425.877	1.79
426.238	1.95
426.598	1.99
426.959	1.96
427.32	1.89
427.68	1.88
428.041	1.8
428.401	1.99
428.761	1.94
429.122	2.11
429.482	1.81
429.842	2.1
430.202	2.04
430.563	1.98
430.923	1.92
431.283	2.07
431.643	1.94
432.003	1.93
432.363	1.93
432.722	1.78
433.082	1.97
433.442	1.89
433.802	1.85
434.161	2.08
434.521	2.07
434.881	2.01
435.24	2.04
435.6	2.09
435.959	1.86
436.319	1.97
436.678	1.96
437.037	1.76
437.396	2.13
437.756	2.08
438.115	1.99
438.474	2.06
438.833	1.98
439.192	1.97
439.551	2.15
439.91	2
440.269	2.08
440.628	1.98
440.987	1.96
441.345	1.92
441.704	1.92
442.063	1.94
442.421	1.95
442.78	2
443.138	2
443.497	1.97
443.855	1.99
444.214	1.94
444.572	2.02
444.93	2.01
445.288	2.11
445.647	2.14
446.005	1.99
446.363	2.1
446.721	2.22
447.079	2.04
447.437	1.94
447.795	1.96
448.153	1.9
448.51	1.99
448.868	2.03
449.226	2.05
449.584	2.06
449.941	2.2
450.299	1.99
450.656	2.1
451.014	2.13
451.371	2.08
451.729	2.05
452.086	2.25
452.443	1.99
452.801	2.16
453.158	2.16
453.515	1.8
453.872	2.27
454.229	1.93
454.586	1.97
454.943	2.2
455.3	2.19
455.657	2.03
456.014	2
456.371	2.08
456.727	2.05
457.084	2.18
457.441	2.08
457.797	2.12
458.154	2.4
458.51	2.29
458.867	2.14
459.223	2.23
459.58	2.13
459.936	2.03
460.292	2.1
460.648	2
461.005	2.02
461.361	2.02
461.717	2.17
462.073	1.92
462.429	2.05
462.785	2.13
463.141	1.98
463.496	2.22
463.852	2.26
464.208	2.03
464.564	2.16
464.919	2.17
465.275	2.02
465.631	2.2
465.986	2.17
466.342	2.08
466.697	2.06
467.052	2.41
467.408	2.02
467.763	2.16
468.118	2.34
468.473	2.13
468.829	2.12
469.184	2.1
469.539	2.31
469.894	2.21
470.249	2.03
470.603	2.2
470.958	2.17
471.313	2.32
471.668	2.35
472.023	2.19
472.377	1.98
472.732	2.23
473.086	2.14
473.441	2.05
473.795	2.37
474.15	2.22
474.504	2.1
474.859	2.24
475.213	2.1
475.567	2.1
475.921	2.25
476.275	2.28
476.63	2.2
476.984	2.33
477.338	2.31
477.692	2.05
478.045	2.35
478.399	2.13
478.753	2.39
479.107	2.26
479.461	2.29
479.814	2.23
480.168	2.3
480.521	2.1
480.875	2.19
481.228	2.13
481.582	2.27
481.935	2.17
482.289	2.18
482.642	2.19
482.995	2.28
483.348	2.19
483.701	2.14
484.055	2.19
484.408	2.32
484.761	2.18
485.114	2.12
485.466	2.08
485.819	2.02
486.172	2.01
486.525	2.08
486.878	2.1
487.23	2.14
487.583	2.19
487.936	2.2
488.288	2.15
488.641	2.18
488.993	2.12
489.345	2.06
489.698	2.17
490.05	2.06
490.402	2.17
490.754	2.2
491.107	2.24
491.459	2.27
491.811	2.31
492.163	2.2
492.515	2.19
492.866	2.23
493.218	2.19
493.57	2.16
493.922	2.12
494.274	2.26
494.625	2.29
494.977	2.33
495.328	2.33
495.68	2.27
496.031	2.42
496.383	2.34
496.734	2.43
497.086	2.35
497.437	2.49
497.788	2.37
498.139	2.38
498.49	2.36
498.842	2.28
499.193	2.36
499.544	2.29
499.894	2.28
500.245	2.39
500.596	2.39
500.947	2.53
501.298	2.31
501.648	2.39
501.999	2.44
502.35	2.4
502.7	2.42
503.051	2.34
503.401	2.43
503.752	2.45
504.102	2.24
504.452	2.35
504.803	2.38
505.153	2.4
505.503	2.4
505.853	2.35
506.203	2.28
506.553	2.31
506.903	2.36
507.253	2.37
507.603	2.31
507.953	2.38
508.303	2.57
508.652	2.33
509.002	2.42
509.352	2.6
509.701	2.38
510.051	2.51
510.4	2.42
510.75	2.44
511.099	2.49
511.449	2.4
511.798	2.38
512.147	2.38
512.496	2.43
512.846	2.5
513.195	2.46
513.544	2.51
513.893	2.62
514.242	2.48
514.591	2.74
514.939	2.59
515.288	2.34
515.637	2.63
515.986	2.55
516.334	2.66
516.683	2.59
517.032	2.52
517.38	2.59
517.729	2.54
518.077	2.41
518.426	2.57
518.774	2.71
519.122	2.46
519.47	2.54
519.819	2.43
520.167	2.54
520.515	2.5
520.863	2.54
521.211	2.57
521.559	2.64
521.907	2.48
522.255	2.58
522.602	2.65
522.95	2.56
523.298	2.63
523.645	2.59
523.993	2.63
524.341	2.7
524.688	2.69
525.036	2.51
525.383	2.66
525.73	2.82
526.078	2.55
526.425	2.68
526.772	2.79
527.119	2.58
527.466	2.58
527.814	2.67
528.161	2.59
528.508	2.67
528.854	2.65
529.201	2.61
529.548	2.5
529.895	2.54
530.242	2.46
530.588	2.45
530.935	2.53
531.282	2.58
531.628	2.58
531.975	2.62
532.321	2.72
532.667	2.74
533.014	2.7
533.36	2.83
533.706	2.61
534.052	2.62
534.399	2.72
534.745	2.62
535.091	2.64
535.437	2.67
535.783	2.63
536.129	2.77
536.474	2.75
536.82	2.79
537.166	2.77
537.512	2.88
537.857	2.82
538.203	2.84
538.549	2.79
538.894	2.71
539.239	2.78
539.585	2.71
539.93	2.78
540.276	2.9
540.621	2.91
540.966	2.98
541.311	2.82
541.656	2.73
542.001	2.77
542.346	2.9
542.691	2.77
543.036	2.8
543.381	2.68
543.726	2.82
544.071	2.91
544.415	2.88
544.76	2.86
545.105	2.9
545.449	2.85
545.794	2.98
546.138	2.96
546.483	2.99
546.827	3.02
547.171	2.98
547.516	3
547.86	2.91
548.204	2.94
548.548	2.93
548.892	2.93
549.236	3
549.58	2.94
549.924	3.22
550.268	3.19
550.612	3.11
550.956	3.34
551.3	3.05
551.643	3.21
551.987	3.22
552.33	3.08
552.674	3.19
553.017	3.09
553.361	3.13
553.704	3.18
554.048	3.23
554.391	3.19
554.734	3.15
555.077	3.29
555.42	3.11
555.764	3.15
556.107	3.21
556.45	3.07
556.793	3.2
557.135	3.31
557.478	3.48
557.821	3.34
558.164	3.18
558.507	3.14
558.849	3.08
559.192	3.53
559.534	3.28
559.877	3.48
560.219	3.46
560.562	3.55
560.904	3.5
561.246	3.65
561.589	3.39
561.931	3.36
562.273	3.31
562.615	3.53
562.957	3.35
563.299	3.18
563.641	3.39
563.983	3.46
564.325	3.31
564.667	3.36
565.008	3.31
565.35	3.64
565.692	3.17
566.033	3.58
566.375	3.55
566.716	3.87
567.058	3.68
567.399	3.51
567.741	3.53
568.082	3.64
568.423	3.59
568.764	3.61
569.105	3.76
569.447	3.69
569.788	3.68
570.129	3.68
570.47	3.63
570.811	3.85
571.151	3.7
571.492	3.78
571.833	3.76
572.174	3.68
572.514	3.64
572.855	3.66
573.195	3.69
573.536	3.67
573.876	3.59
574.217	3.63
574.557	3.77
574.898	3.97
575.238	3.92
575.578	3.85
575.918	3.98
576.258	3.92
576.598	3.93
576.938	3.77
577.278	3.88
577.618	3.69
577.958	3.79
578.298	3.85
578.638	3.97
578.977	3.92
579.317	3.84
579.657	4.2
579.996	3.85
580.336	4.15
580.675	4
581.014	4.16
581.354	4.15
581.693	4.18
582.032	3.89
582.372	3.96
582.711	3.88
583.05	3.93
583.389	3.99
583.728	4
584.067	4.51
584.406	4.18
584.745	4.25
585.083	4.2
585.422	4.41
585.761	4.38
586.1	4.24
586.438	4.34
586.777	4.48
587.115	4.5
587.454	4.2
587.792	4.3
588.13	4.61
588.469	4.42
588.807	4.45
589.145	4.11
589.483	4.35
589.821	4.34
590.159	4.53
590.497	4.71
590.835	4.7
591.173	4.33
591.511	4.74
591.849	4.41
592.187	4.54
592.524	4.53
592.862	4.45
593.2	4.57
593.537	4.67
593.875	4.56
594.212	4.34
594.55	4.58
594.887	4.91
595.224	4.4
595.561	4.74
595.899	4.89
596.236	4.64
596.573	4.67
596.91	4.26
597.247	4.55
597.584	5.01
597.921	4.86
598.258	4.53
598.594	4.67
598.931	4.6
599.268	4.8
599.604	4.78
599.941	4.96
600.277	4.68
600.614	4.7
600.95	4.65
601.287	5.26
601.623	5.06
601.959	4.78
602.296	4.93
602.632	5.1
602.968	4.98
603.304	4.97
603.64	4.95
603.976	5.07
604.312	4.86
604.648	4.96
604.984	5.06
605.319	5.08
605.655	5.12
605.991	5.09
606.326	5.06
606.662	5.28
606.998	4.93
607.333	5.09
607.668	5.21
608.004	5.22
608.339	5.36
608.674	5.17
609.01	5.04
609.345	5.03
609.68	5.3
610.015	5.2
610.35	5.22
610.685	5.38
611.02	5.2
611.355	5.21
611.689	5.54
612.024	5.43
612.359	5.41
612.694	5.26
613.028	5.14
613.363	5.6
613.697	5.64
614.032	5.47
614.366	5.55
614.7	5.28
615.035	5.5
615.369	5.43
615.703	5.54
616.037	5.88
616.371	5.18
616.705	5.62
617.039	5.66
617.373	5.71
617.707	5.36
618.041	5.41
618.375	5.68
618.709	5.73
619.042	5.92
619.376	5.85
619.71	5.94
620.043	6.05
620.377	6.01
620.71	5.96
621.043	5.58
621.377	5.71
621.71	6.05
622.043	5.85
622.376	5.53
622.709	5.95
623.043	6.1
623.376	5.97
623.709	5.76
624.041	6.31
624.374	6.05
624.707	6.07
625.04	6.27
625.373	5.97
625.705	6.03
626.038	6
626.37	6.14
626.703	6.26
627.035	6.53
627.368	6.78
627.7	6.43
628.032	6.28
628.365	6.45
628.697	6.28
629.029	5.79
629.361	5.96
629.693	6.51
630.025	6.21
630.357	6.54
630.689	6.19
631.021	6.44
631.353	6.25
631.684	6.08
632.016	6.3
632.348	6.67
632.679	6.38
633.011	6.41
633.342	6.74
633.674	6.58
634.005	6.9
634.336	6.57
634.668	7.1
634.999	6.68
635.33	7.11
635.661	6.87
635.992	6.6
636.323	6.78
636.654	6.6
636.985	6.51
637.316	6.54
637.647	6.53
637.977	7.03
638.308	7.05
638.639	6.58
638.969	6.61
639.3	6.46
639.63	6.45
639.961	6.58
640.291	6.71
640.622	7.39
640.952	6.53
641.282	7.24
641.612	7.21
641.943	6.59
642.273	7.07
642.603	7.2
642.933	7.3
643.263	7.37
643.592	7.15
643.922	6.84
644.252	7.01
644.582	7.36
644.911	6.7
645.241	6.92
645.571	7.08
645.9	6.88
646.23	7.46
646.559	7.27
646.888	6.95
647.218	7.52
647.547	7.54
647.876	7.31
648.205	7.34
648.534	7.61
648.863	7.41
649.192	7.43
649.521	6.74
649.85	6.75
650.179	7.53
650.508	6.98
650.837	7.24
651.165	6.89
651.494	7.56
651.822	7.34
652.151	7.33
652.479	7.54
652.808	6.99
653.136	7.44
653.465	7.13
653.793	7.32
654.121	7.35
654.449	7.77
654.777	7.84
655.105	7.78
655.433	7.89
655.761	7.35
656.089	7.72
656.417	7.55
656.745	7.04
657.073	7.27
657.4	8.56
657.728	8.03
658.056	8.23
658.383	8.16
658.711	7.72
659.038	8.17
659.365	8.54
659.693	8.27
660.02	7.97
660.347	7.97
660.674	8.01
661.001	8.11
661.329	7.5
661.656	7.97
661.982	8.35
662.309	7.96
662.636	7.73
662.963	8.51
663.29	8.05
663.616	8.5
663.943	8.03
664.27	7.99
664.596	8.21
664.923	8.46
665.249	8.44
665.576	8.23
665.902	8.43
666.228	8.73
666.554	8.61
666.881	8.75
667.207	8.57
667.533	8.42
667.859	8.26
668.185	8.61
668.511	8.05
668.837	8.21
669.162	8.68
669.488	7.91
669.814	8.53
670.139	8.86
670.465	8.68
670.791	8.89
671.116	9.6
671.442	8.6
671.767	9.44
672.092	9.44
672.418	8.93
672.743	8.86
673.068	8.6
673.393	8.92
673.718	9.18
674.043	8.59
674.368	8.57
674.693	9.47
675.018	9.06
675.343	8.23
675.667	8.68
675.992	8.93
676.317	9.28
676.641	9.49
676.966	9.51
677.29	8.65
677.615	9.23
677.939	9.49
678.264	10.36
678.588	9.14
678.912	10.01
679.236	9.7
679.56	9.14
679.885	9.57
680.209	8.84
680.532	9.16
680.856	9.6
681.18	9.49
681.504	9.21
681.828	9.35
682.152	9.14
682.475	9.1
682.799	9.92
683.122	9.82
683.446	9.32
683.769	10.05
684.093	9.41
684.416	9.96
684.739	9.69
685.062	9.51
685.386	10.36
685.709	9.23
686.032	9.38
686.355	10.04
686.678	9.42
687.001	9.88
687.324	10.01
687.646	9.44
687.969	9.41
688.292	10.08
688.614	10
688.937	10.16
689.26	9.4
689.582	10.11
689.904	9.86
690.227	10.04
690.549	9.93
690.871	10.39
691.194	9.6
691.516	10.02
691.838	10.75
692.16	10.58
692.482	10.69
