Data from 0265_crown_Reflection__4__178.txt Node

Date: Fri Oct 20 22:04:50 CDT 2023
User: ToomeyLab
Spectrometer: FLMS14357
Trigger mode: 0
Integration Time (sec): 1.000000E-2
Scans to average: 100
Electric dark correction enabled: true
Nonlinearity correction enabled: false
Boxcar width: 0
XAxis mode: Wavelengths
Number of Pixels in Spectrum: 2048
>>>>>Begin Spectral Data<<<<<
189.047	-90.64
189.435	-90.64
189.823	-90.64
190.211	-3.37
190.599	46.54
190.987	142.28
191.375	95.94
191.763	-7329.23
192.151	-2373.33
192.538	3.21
192.926	31.31
193.314	77.89
193.702	313.34
194.089	151.95
194.477	102.04
194.864	55.74
195.252	-141.21
195.639	215.33
196.027	59.1
196.414	179.66
196.801	167.15
197.189	2.79
197.576	2460.7
197.963	-401.31
198.351	41.53
198.738	25.32
199.125	19.2
199.512	29.04
199.899	-2.27
200.286	-40.69
200.673	21.92
201.06	41.92
201.447	-26.42
201.833	49
202.22	12.02
202.607	29.09
202.994	43.63
203.38	-6.68
203.767	12.13
204.154	32.04
204.54	41.81
204.927	-3.96
205.313	14.18
205.699	27.33
206.086	5.4
206.472	53.3
206.858	27.22
207.245	-15.5
207.631	19.01
208.017	4.04
208.403	-6.45
208.789	38.7
209.175	14.97
209.561	6.24
209.947	-45.2
210.333	25.38
210.719	20.26
211.105	22.5
211.491	40.13
211.876	3.99
212.262	23.29
212.648	7.9
213.034	-24.16
213.419	1.93
213.805	-14.6
214.19	-40.01
214.576	-10.56
214.961	17.46
215.346	24.4
215.732	23.75
216.117	-2.56
216.502	26.27
216.888	21.81
217.273	6.64
217.658	2.94
218.043	2.68
218.428	-2.64
218.813	17.54
219.198	-15
219.583	-9.17
219.968	-20.45
220.353	9.56
220.738	11.84
221.122	-4.66
221.507	15.48
221.892	14.07
222.276	5.95
222.661	20.06
223.046	17.88
223.43	1.4
223.815	10.08
224.199	11.37
224.583	12.63
224.968	5.79
225.352	1.38
225.736	3.36
226.121	14.73
226.505	1.02
226.889	4.86
227.273	4.33
227.657	9.97
228.041	11.69
228.425	8.41
228.809	11.58
229.193	9.69
229.577	9.33
229.961	7.13
230.344	6.59
230.728	6.39
231.112	8.8
231.495	7.46
231.879	7.78
232.263	7.97
232.646	6.73
233.03	6.81
233.413	6.8
233.797	6.7
234.18	8.31
234.563	9.11
234.946	7.72
235.33	8.62
235.713	7.19
236.096	7.43
236.479	7.55
236.862	8.13
237.245	5.28
237.628	7.05
238.011	7.5
238.394	7.33
238.777	8.15
239.16	6.11
239.543	9.03
239.925	9.69
240.308	5.67
240.691	7.95
241.073	7.2
241.456	7.2
241.838	7.59
242.221	7.27
242.603	7.6
242.986	7.15
243.368	7.4
243.75	6.91
244.133	6.96
244.515	6.44
244.897	6.85
245.279	6.92
245.661	6.85
246.043	6.09
246.425	6.14
246.807	7.36
247.189	6.89
247.571	5.97
247.953	6.6
248.335	6.68
248.717	6.63
249.098	6.24
249.48	6.25
249.862	6.67
250.243	6.63
250.625	6.47
251.006	6.68
251.388	6.63
251.769	6.52
252.151	6.04
252.532	7.11
252.913	6.36
253.295	5.87
253.676	6.67
254.057	6.16
254.438	6.24
254.819	6.49
255.2	6.03
255.581	5.12
255.962	6.21
256.343	6.8
256.724	5.45
257.105	6.28
257.486	6.59
257.867	5.95
258.247	5.59
258.628	6.13
259.009	5.61
259.389	5.83
259.77	5.79
260.15	6.48
260.531	5.77
260.911	6.17
261.292	6.04
261.672	6.05
262.052	6.08
262.432	6.1
262.813	5.85
263.193	5.79
263.573	5.61
263.953	5.91
264.333	6.46
264.713	6.73
265.093	6.43
265.473	5.79
265.853	5.89
266.233	5.65
266.612	6.32
266.992	5.26
267.372	5.84
267.752	5.8
268.131	6.14
268.511	6
268.89	6.11
269.27	5.74
269.649	5.69
270.029	5.66
270.408	5.59
270.787	5.56
271.167	5.7
271.546	6.05
271.925	5.98
272.304	5.6
272.683	5.62
273.062	5.62
273.441	6.2
273.82	5.69
274.199	6.11
274.578	5.89
274.957	5.77
275.336	5.94
275.715	5.69
276.093	5.65
276.472	5.67
276.851	6.23
277.229	5.34
277.608	5.27
277.986	5.49
278.365	5.9
278.743	5.62
279.122	5.63
279.5	5.67
279.878	4.94
280.257	5.59
280.635	5.23
281.013	5.72
281.391	5.42
281.769	5.72
282.147	5.58
282.525	5.73
282.903	4.98
283.281	5.07
283.659	5.53
284.037	5.64
284.415	4.79
284.792	5.19
285.17	5.24
285.548	5.3
285.925	5.51
286.303	5.23
286.68	4.87
287.058	5.71
287.435	5.36
287.813	4.98
288.19	4.85
288.567	5.22
288.945	5.38
289.322	5.34
289.699	4.49
290.076	5.72
290.453	5.4
290.83	5.13
291.207	5.23
291.584	4.77
291.961	4.98
292.338	4.71
292.715	5.02
293.092	5.39
293.469	5.01
293.845	5.52
294.222	5.1
294.599	5.1
294.975	5.37
295.352	5.14
295.728	5.3
296.105	5.28
296.481	5.27
296.858	4.72
297.234	4.95
297.61	4.9
297.986	5.14
298.363	5.3
298.739	5.21
299.115	4.6
299.491	4.95
299.867	5.09
300.243	5.01
300.619	4.73
300.995	4.77
301.371	5.55
301.746	4.57
302.122	4.91
302.498	4.98
302.874	4.9
303.249	4.67
303.625	5.42
304	5.54
304.376	4.43
304.751	4.77
305.127	4.64
305.502	5.21
305.878	4.83
306.253	5.34
306.628	5.03
307.003	4.93
307.378	4.62
307.754	5.12
308.129	5.59
308.504	5.42
308.879	4.87
309.254	5.59
309.629	4.67
310.003	3.97
310.378	5.19
310.753	4.97
311.128	5.14
311.502	4.88
311.877	4.88
312.252	4.7
312.626	5.12
313.001	5.03
313.375	4.89
313.75	4.83
314.124	4.67
314.498	5.02
314.873	5.02
315.247	5.1
315.621	4.61
315.995	5.29
316.369	4.96
316.743	4.58
317.117	5.19
317.491	4.12
317.865	5.32
318.239	5.6
318.613	5.11
318.987	4.86
319.361	4.86
319.734	4.44
320.108	4.45
320.482	5.09
320.855	4.58
321.229	4.87
321.602	5.32
321.976	4.62
322.349	5.06
322.723	4.45
323.096	4.58
323.469	4.86
323.843	4.38
324.216	5.19
324.589	5.18
324.962	5.21
325.335	4.47
325.708	4.81
326.081	5.18
326.454	5.26
326.827	5.22
327.2	4.85
327.573	4.84
327.945	5.03
328.318	5.1
328.691	4.83
329.063	5.39
329.436	4.42
329.809	4.89
330.181	5.02
330.553	5.24
330.926	4.94
331.298	5.33
331.671	4.57
332.043	4.62
332.415	5.49
332.787	5.67
333.159	4.36
333.532	5.02
333.904	5.31
334.276	4.6
334.648	5.13
335.02	5.18
335.391	5.11
335.763	4.83
336.135	5.56
336.507	5.26
336.879	5.06
337.25	4.63
337.622	4.79
337.993	5.83
338.365	4.87
338.736	5.23
339.108	5.82
339.479	4.91
339.851	5.21
340.222	4.83
340.593	4.41
340.964	4.99
341.336	5.59
341.707	4.82
342.078	5.23
342.449	5.38
342.82	4.58
343.191	5.24
343.562	4.76
343.933	4.85
344.303	5.15
344.674	5.81
345.045	5.06
345.416	5.58
345.786	5.01
346.157	5.27
346.527	4.78
346.898	4.93
347.268	5.31
347.639	5.48
348.009	4.55
348.38	5.32
348.75	5.54
349.12	5.13
349.49	5
349.861	5.57
350.231	4.63
350.601	4.81
350.971	5.6
351.341	5.27
351.711	5.76
352.081	5.47
352.45	4.85
352.82	5.63
353.19	5.55
353.56	5.41
353.929	4.97
354.299	5
354.669	5.3
355.038	5.39
355.408	5.44
355.777	5.22
356.147	5.17
356.516	5.36
356.885	5.37
357.254	5.47
357.624	5.38
357.993	5.2
358.362	5.15
358.731	5.09
359.1	4.94
359.469	5.23
359.838	5.45
360.207	5.09
360.576	5.78
360.945	5.01
361.314	5.5
361.682	5.19
362.051	5.09
362.42	5.4
362.788	5.55
363.157	5.26
363.525	5.31
363.894	5.04
364.262	5.28
364.631	5.49
364.999	5.49
365.367	5.4
365.735	5.43
366.104	5.25
366.472	5.3
366.84	5.62
367.208	5.48
367.576	5.04
367.944	5.56
368.312	5.4
368.68	5.35
369.048	5.22
369.416	5.63
369.783	5.35
370.151	5.69
370.519	5.66
370.886	5.66
371.254	5.66
371.621	5.83
371.989	5.5
372.356	5.65
372.724	5.82
373.091	5.51
373.458	5.38
373.826	5.4
374.193	5.58
374.56	5.64
374.927	5.73
375.294	5.41
375.661	5.61
376.028	5.86
376.395	6.2
376.762	5.6
377.129	5.58
377.496	5.59
377.863	5.55
378.229	5.51
378.596	5.94
378.963	5.91
379.329	5.74
379.696	5.65
380.062	5.47
380.429	5.21
380.795	5.23
381.161	5.44
381.528	5.94
381.894	5.64
382.26	5.84
382.626	6
382.993	5.42
383.359	5.62
383.725	5.87
384.091	5.54
384.457	5.82
384.823	5.65
385.188	6.05
385.554	5.83
385.92	6.01
386.286	5.81
386.651	5.56
387.017	5.89
387.383	5.83
387.748	5.54
388.114	5.61
388.479	5.72
388.845	6.18
389.21	5.76
389.575	5.78
389.94	5.64
390.306	5.65
390.671	5.57
391.036	5.93
391.401	5.96
391.766	5.85
392.131	5.42
392.496	5.96
392.861	5.88
393.226	5.89
393.591	5.72
393.956	6.15
394.32	5.98
394.685	5.85
395.05	6.1
395.414	6.01
395.779	5.96
396.143	5.99
396.508	5.88
396.872	5.83
397.236	5.91
397.601	5.98
397.965	5.88
398.329	5.78
398.694	6.06
399.058	5.8
399.422	5.87
399.786	5.88
400.15	5.84
400.514	5.77
400.878	5.82
401.242	6.1
401.605	5.88
401.969	5.83
402.333	5.77
402.697	5.79
403.06	5.98
403.424	5.86
403.787	5.92
404.151	5.99
404.514	5.9
404.878	6.07
405.241	6.11
405.604	5.83
405.968	6.18
406.331	6.05
406.694	6.05
407.057	5.89
407.42	6.22
407.783	6.06
408.146	5.82
408.509	5.89
408.872	6.12
409.235	5.99
409.598	5.95
409.961	5.98
410.323	6.16
410.686	5.95
411.049	6.04
411.411	6.07
411.774	5.93
412.136	6.04
412.499	5.98
412.861	6.07
413.223	5.96
413.586	6
413.948	6.22
414.31	6.4
414.672	6.07
415.035	6.07
415.397	6.09
415.759	6.15
416.121	6.01
416.483	6.19
416.845	6.07
417.206	6.15
417.568	6.15
417.93	6.13
418.292	5.97
418.653	6.24
419.015	5.9
419.377	5.95
419.738	6.02
420.1	5.96
420.461	5.94
420.822	5.96
421.184	5.93
421.545	6.04
421.906	6.03
422.267	6.06
422.629	5.99
422.99	5.88
423.351	5.9
423.712	5.96
424.073	5.99
424.434	5.78
424.795	5.91
425.155	5.92
425.516	6
425.877	6.02
426.238	5.93
426.598	5.94
426.959	5.89
427.32	5.97
427.68	5.94
428.041	6.03
428.401	6.04
428.761	5.95
429.122	6.04
429.482	5.92
429.842	6.08
430.202	6.08
430.563	6.08
430.923	6.15
431.283	6.05
431.643	6.18
432.003	6.3
432.363	6.09
432.722	6.15
433.082	6.22
433.442	6.09
433.802	6.29
434.161	5.99
434.521	6.19
434.881	6.13
435.24	6.12
435.6	6.06
435.959	6.03
436.319	6.04
436.678	6.13
437.037	6.05
437.396	6.12
437.756	6.2
438.115	5.93
438.474	6.14
438.833	6.19
439.192	6.04
439.551	5.99
439.91	6.07
440.269	6.16
440.628	6.13
440.987	6.27
441.345	6.02
441.704	6.15
442.063	6.1
442.421	5.99
442.78	5.87
443.138	6.24
443.497	6.12
443.855	6.2
444.214	6.08
444.572	6.03
444.93	6.27
445.288	6.18
445.647	6.29
446.005	5.98
446.363	6.07
446.721	6.12
447.079	6.23
447.437	6.11
447.795	5.97
448.153	5.97
448.51	6.12
448.868	6.03
449.226	5.97
449.584	6.03
449.941	6.01
450.299	6.18
450.656	6.04
451.014	6.13
451.371	6.16
451.729	6.11
452.086	6.06
452.443	6.18
452.801	5.98
453.158	6.25
453.515	6.14
453.872	6.21
454.229	6.2
454.586	6.12
454.943	6.09
455.3	6
455.657	6.22
456.014	6.14
456.371	6.12
456.727	6.28
457.084	6.08
457.441	6.18
457.797	6.23
458.154	5.92
458.51	6.09
458.867	6.17
459.223	6.31
459.58	6.17
459.936	6.31
460.292	6
460.648	6.07
461.005	6.08
461.361	6.17
461.717	5.99
462.073	6.05
462.429	6.07
462.785	6.09
463.141	6.24
463.496	6.15
463.852	6.2
464.208	6.37
464.564	6.3
464.919	6.17
465.275	6.47
465.631	6.38
465.986	6.36
466.342	6.38
466.697	6.2
467.052	6.23
467.408	6.11
467.763	6.32
468.118	6.45
468.473	6.27
468.829	6.33
469.184	6.4
469.539	6.2
469.894	6.3
470.249	6.21
470.603	6.14
470.958	6.2
471.313	6.32
471.668	6.31
472.023	6.39
472.377	6.21
472.732	6.06
473.086	6.26
473.441	6.25
473.795	6.33
474.15	6.17
474.504	6.04
474.859	6.1
475.213	6.4
475.567	6.22
475.921	6.32
476.275	6.16
476.63	6.37
476.984	6.27
477.338	6.2
477.692	6.22
478.045	6.3
478.399	6.26
478.753	6.32
479.107	6.2
479.461	6.21
479.814	6.28
480.168	6.13
480.521	6.2
480.875	6.23
481.228	6.25
481.582	6.17
481.935	6.12
482.289	6.23
482.642	6.16
482.995	6.05
483.348	6.18
483.701	6.11
484.055	6.14
484.408	5.98
484.761	5.98
485.114	5.9
485.466	5.83
485.819	5.75
486.172	5.66
486.525	5.7
486.878	5.81
487.23	5.81
487.583	5.81
487.936	5.91
488.288	5.99
488.641	6.03
488.993	5.85
489.345	5.85
489.698	5.77
490.05	5.79
490.402	5.83
490.754	5.86
491.107	5.92
491.459	6.01
491.811	5.98
492.163	5.95
492.515	6.05
492.866	5.95
493.218	5.88
493.57	5.8
493.922	5.82
494.274	5.84
494.625	5.85
494.977	5.9
495.328	6.03
495.68	6.12
496.031	6.04
496.383	6.16
496.734	6.2
497.086	6.12
497.437	6.12
497.788	6.13
498.139	6.13
498.49	6.15
498.842	5.9
499.193	6
499.544	6.08
499.894	6.16
500.245	6.03
500.596	6.08
500.947	6.15
501.298	6
501.648	6.03
501.999	6.1
502.35	6.06
502.7	6.17
503.051	6.07
503.401	6.11
503.752	6.06
504.102	6.24
504.452	6.04
504.803	6.15
505.153	6.12
505.503	5.97
505.853	6.22
506.203	5.96
506.553	6.03
506.903	6.11
507.253	5.99
507.603	6
507.953	6.04
508.303	6
508.652	6.19
509.002	5.97
509.352	6.21
509.701	6.09
510.051	5.99
510.4	6.03
510.75	6
511.099	5.96
511.449	6.01
511.798	6.04
512.147	6.05
512.496	6.05
512.846	5.89
513.195	6.01
513.544	6.04
513.893	5.86
514.242	6.03
514.591	6
514.939	5.9
515.288	5.9
515.637	6.02
515.986	5.97
516.334	5.92
516.683	5.98
517.032	6.03
517.38	5.82
517.729	6.01
518.077	5.93
518.426	5.97
518.774	5.86
519.122	6
519.47	5.98
519.819	5.78
520.167	5.76
520.515	5.82
520.863	5.78
521.211	5.85
521.559	5.87
521.907	5.83
522.255	5.92
522.602	6.06
522.95	5.9
523.298	5.95
523.645	6
523.993	5.87
524.341	5.88
524.688	5.91
525.036	5.92
525.383	5.77
525.73	5.98
526.078	5.97
526.425	5.82
526.772	5.77
527.119	5.72
527.466	5.79
527.814	5.72
528.161	5.75
528.508	5.7
528.854	5.78
529.201	5.76
529.548	5.72
529.895	5.71
530.242	5.64
530.588	5.53
530.935	5.51
531.282	5.55
531.628	5.61
531.975	5.57
532.321	5.6
532.667	5.68
533.014	5.73
533.36	5.78
533.706	5.82
534.052	5.8
534.399	5.59
534.745	5.61
535.091	5.7
535.437	5.65
535.783	5.58
536.129	5.68
536.474	5.7
536.82	5.8
537.166	5.69
537.512	5.71
537.857	5.89
538.203	5.78
538.549	5.75
538.894	5.67
539.239	5.67
539.585	5.7
539.93	5.76
540.276	5.85
540.621	5.83
540.966	5.88
541.311	5.94
541.656	5.84
542.001	5.82
542.346	5.87
542.691	5.69
543.036	5.58
543.381	5.55
543.726	5.54
544.071	5.56
544.415	5.5
544.76	5.58
545.105	5.6
545.449	5.74
545.794	5.65
546.138	5.65
546.483	5.71
546.827	5.68
547.171	5.89
547.516	5.72
547.86	5.76
548.204	5.6
548.548	5.67
548.892	5.69
549.236	5.69
549.58	5.6
549.924	5.66
550.268	5.64
550.612	5.74
550.956	5.74
551.3	5.82
551.643	5.7
551.987	5.86
552.33	5.8
552.674	5.56
553.017	5.57
553.361	5.85
553.704	5.92
554.048	5.67
554.391	5.76
554.734	5.62
555.077	5.73
555.42	5.46
555.764	5.58
556.107	5.85
556.45	5.8
556.793	5.76
557.135	5.64
557.478	5.61
557.821	5.86
558.164	5.94
558.507	5.7
558.849	5.67
559.192	5.81
559.534	5.85
559.877	5.47
560.219	5.78
560.562	5.76
560.904	5.59
561.246	5.79
561.589	5.59
561.931	5.69
562.273	5.7
562.615	5.84
562.957	5.89
563.299	5.78
563.641	5.94
563.983	5.71
564.325	5.53
564.667	5.91
565.008	5.61
565.35	5.6
565.692	5.54
566.033	5.81
566.375	5.69
566.716	5.71
567.058	5.64
567.399	5.72
567.741	5.66
568.082	5.7
568.423	5.63
568.764	5.61
569.105	5.74
569.447	5.63
569.788	5.67
570.129	5.63
570.47	5.66
570.811	5.86
571.151	5.64
571.492	5.75
571.833	5.94
572.174	5.76
572.514	5.54
572.855	5.48
573.195	5.75
573.536	5.49
573.876	5.78
574.217	5.71
574.557	5.54
574.898	5.52
575.238	5.5
575.578	5.5
575.918	5.39
576.258	5.44
576.598	5.62
576.938	5.6
577.278	5.73
577.618	5.37
577.958	5.54
578.298	5.47
578.638	5.48
578.977	5.63
579.317	5.49
579.657	5.58
579.996	5.64
580.336	5.57
580.675	5.49
581.014	5.61
581.354	5.6
581.693	5.45
582.032	5.66
582.372	5.6
582.711	5.82
583.05	5.79
583.389	5.43
583.728	5.71
584.067	5.63
584.406	5.67
584.745	5.56
585.083	5.53
585.422	5.63
585.761	5.54
586.1	5.61
586.438	5.23
586.777	5.4
587.115	5.73
587.454	5.54
587.792	5.37
588.13	5.74
588.469	5.59
588.807	5.09
589.145	5.48
589.483	5.33
589.821	5.4
590.159	5.55
590.497	5.55
590.835	5.57
591.173	5.52
591.511	5.61
591.849	5.4
592.187	5.55
592.524	5.22
592.862	5.56
593.2	5.59
593.537	5.46
593.875	5.58
594.212	5.64
594.55	5.52
594.887	5.42
595.224	5.49
595.561	5.41
595.899	5.45
596.236	5.62
596.573	5.72
596.91	5.6
597.247	5.49
597.584	5.37
597.921	5.44
598.258	5.68
598.594	5.57
598.931	5.33
599.268	5.36
599.604	5.46
599.941	5.38
600.277	5.25
600.614	5.42
600.95	5.59
601.287	5.24
601.623	5.79
601.959	5.73
602.296	5.6
602.632	5.58
602.968	5.17
603.304	5.54
603.64	5.39
603.976	5.53
604.312	5.62
604.648	5.63
604.984	5.59
605.319	5.29
605.655	5.32
605.991	5.37
606.326	5.32
606.662	5.33
606.998	5.27
607.333	5.38
607.668	5.18
608.004	5.55
608.339	5.38
608.674	5.53
609.01	5.4
609.345	5.8
609.68	5.57
610.015	5.42
610.35	5.49
610.685	5.49
611.02	5.5
611.355	5.2
611.689	5.39
612.024	5.39
612.359	5.32
612.694	5.18
613.028	5.56
613.363	5.21
613.697	5.45
614.032	5.47
614.366	5.44
614.7	5.71
615.035	4.94
615.369	5.47
615.703	5.34
616.037	5.7
616.371	5.38
616.705	5.55
617.039	5.23
617.373	5.6
617.707	5.85
618.041	5.6
618.375	5.49
618.709	5.65
619.042	5.38
619.376	5.75
619.71	5.69
620.043	5.5
620.377	5.32
620.71	5.2
621.043	5.61
621.377	5.34
621.71	5.44
622.043	5.4
622.376	5.78
622.709	5.55
623.043	5.63
623.376	5.37
623.709	5.06
624.041	5.14
624.374	5.52
624.707	5.12
625.04	5.36
625.373	5.29
625.705	5.39
626.038	5.42
626.37	4.93
626.703	5.1
627.035	5.16
627.368	5.38
627.7	5.68
628.032	5.4
628.365	5.49
628.697	5.42
629.029	5.17
629.361	5.52
629.693	5.57
630.025	5.35
630.357	5.35
630.689	5.32
631.021	5.71
631.353	5.54
631.684	5.27
632.016	5.63
632.348	5.39
632.679	5.47
633.011	5.33
633.342	5.41
633.674	5.28
634.005	5.19
634.336	5.87
634.668	5.21
634.999	5.13
635.33	5.45
635.661	5.62
635.992	5.37
636.323	5.49
636.654	5.46
636.985	5.38
637.316	5.17
637.647	5.29
637.977	5.08
638.308	5.45
638.639	5.46
638.969	5.42
639.3	5.35
639.63	5.67
639.961	5.37
640.291	5.21
640.622	5.38
640.952	5.28
641.282	5.18
641.612	5.69
641.943	5.4
642.273	4.56
642.603	5.5
642.933	5.59
643.263	5.81
643.592	5.36
643.922	5.82
644.252	4.93
644.582	5.35
644.911	5.44
645.241	5.6
645.571	5.97
645.9	5.53
646.23	5.45
646.559	5.12
646.888	5.54
647.218	5.56
647.547	5.33
647.876	5.35
648.205	5.65
648.534	5.52
648.863	5.4
649.192	5.11
649.521	5.1
649.85	5.41
650.179	5.3
650.508	5
650.837	5.61
651.165	5.25
651.494	5.31
651.822	5.52
652.151	6.1
652.479	5.07
652.808	5.21
653.136	4.92
653.465	5.77
653.793	5.45
654.121	5.51
654.449	5.52
654.777	5.2
655.105	4.97
655.433	5.57
655.761	5.98
656.089	5.19
656.417	5.78
656.745	5.46
657.073	4.79
657.4	6.29
657.728	5.72
658.056	5.26
658.383	5.4
658.711	4.93
659.038	5.69
659.365	5.65
659.693	5.59
660.02	5.73
660.347	5.47
660.674	5.35
661.001	5.06
661.329	5.49
661.656	5.43
661.982	5.18
662.309	5.64
662.636	5.46
662.963	5.45
663.29	5.55
663.616	5.76
663.943	5.17
664.27	5.82
664.596	5.23
664.923	5.72
665.249	5.23
665.576	4.59
665.902	5.73
666.228	5.39
666.554	5.67
666.881	4.8
667.207	5.76
667.533	5.22
667.859	5.32
668.185	6.02
668.511	6.08
668.837	5.88
669.162	5.71
669.488	4.89
669.814	4.87
670.139	5.13
670.465	5.58
670.791	5.82
671.116	5.14
671.442	5.53
671.767	5.21
672.092	5.98
672.418	5.59
672.743	5.08
673.068	6.12
673.393	5.28
673.718	5.68
674.043	5.26
674.368	5.65
674.693	5.84
675.018	5.67
675.343	5.46
675.667	5.41
675.992	5.22
676.317	5.83
676.641	5.63
676.966	5.28
677.29	5.71
677.615	6
677.939	5.63
678.264	5.77
678.588	5.1
678.912	5.93
679.236	4.98
679.56	5.61
679.885	5.88
680.209	6.04
680.532	5.39
680.856	5.8
681.18	5.8
681.504	6.14
681.828	6.23
682.152	6.11
682.475	5.71
682.799	5.33
683.122	5.91
683.446	5.15
683.769	5.65
684.093	5.6
684.416	5.63
684.739	5.61
685.062	4.68
685.386	5.06
685.709	5.63
686.032	5.87
686.355	6.63
686.678	5.52
687.001	5.75
687.324	5.14
687.646	4.96
687.969	5.52
688.292	5.92
688.614	5.62
688.937	5.48
689.26	4.84
689.582	5.49
689.904	5.44
690.227	5.74
690.549	6.05
690.871	6.14
691.194	5.72
691.516	5.52
691.838	6.27
692.16	5.8
692.482	5.17
692.804	6.03
693.126	5.85
693.448	6.67
693.769	5.66
