Data from 0265_forehead_Reflection__3__182.txt Node

Date: Fri Oct 20 22:05:49 CDT 2023
User: ToomeyLab
Spectrometer: FLMS14357
Trigger mode: 0
Integration Time (sec): 1.000000E-2
Scans to average: 100
Electric dark correction enabled: true
Nonlinearity correction enabled: false
Boxcar width: 0
XAxis mode: Wavelengths
Number of Pixels in Spectrum: 2048
>>>>>Begin Spectral Data<<<<<
189.047	-17.64
189.435	-17.64
189.823	-17.64
190.211	51.45
190.599	-21.43
190.987	204.8
191.375	14.34
191.763	-4316.92
192.151	-39106.67
192.538	196.15
192.926	158.88
193.314	271.55
193.702	248.97
194.089	210.04
194.477	28.59
194.864	45.2
195.252	-85.57
195.639	-35.38
196.027	-7.37
196.414	390.23
196.801	135.54
197.189	23.05
197.576	2220.23
197.963	-71.02
198.351	64.29
198.738	-1.47
199.125	48.37
199.512	28.8
199.899	46.72
200.286	44.76
200.673	38.42
201.06	110.42
201.447	21.32
201.833	52.2
202.22	48.6
202.607	53.31
202.994	18.29
203.38	15.47
203.767	8.63
204.154	44.97
204.54	34.85
204.927	21.57
205.313	44.72
205.699	37.16
206.086	19.76
206.472	41.46
206.858	49.4
207.245	13.35
207.631	47.59
208.017	4.56
208.403	27.45
208.789	21.99
209.175	28.76
209.561	16.17
209.947	35.53
210.333	46.59
210.719	48.94
211.105	34.89
211.491	45.86
211.876	46.21
212.262	20.54
212.648	31.83
213.034	42.31
213.419	39.84
213.805	6.04
214.19	23.8
214.576	-4.66
214.961	9.99
215.346	23.26
215.732	15.59
216.117	-36.54
216.502	17.83
216.888	15.59
217.273	17.98
217.658	1.98
218.043	-2.35
218.428	0.82
218.813	38.4
219.198	15.33
219.583	-7.42
219.968	5.07
220.353	21.14
220.738	21
221.122	-18.92
221.507	6.2
221.892	-3.26
222.276	9.72
222.661	8.78
223.046	9.72
223.43	5.8
223.815	24.74
224.199	23.16
224.583	3.33
224.968	1.3
225.352	7.93
225.736	3.38
226.121	15.87
226.505	11.31
226.889	10.45
227.273	-1.63
227.657	10.55
228.041	7.09
228.425	4.95
228.809	5
229.193	1.01
229.577	9.27
229.961	2.91
230.344	1.68
230.728	2.35
231.112	2.66
231.495	2.52
231.879	4.04
232.263	2.46
232.646	2.4
233.03	2.66
233.413	1.4
233.797	2.7
234.18	2.62
234.563	4.21
234.946	6.68
235.33	4.23
235.713	3.53
236.096	4.58
236.479	2.52
236.862	2.21
237.245	2.66
237.628	3.05
238.011	2.97
238.394	2.76
238.777	5.59
239.16	2.48
239.543	3.85
239.925	5.17
240.308	2.25
240.691	3.93
241.073	5.17
241.456	1.75
241.838	3.59
242.221	4.29
242.603	3.07
242.986	3.23
243.368	3.68
243.75	2.72
244.133	2.83
244.515	2.53
244.897	2.23
245.279	2.65
245.661	2.86
246.043	2.58
246.425	1.85
246.807	3.3
247.189	2.96
247.571	1.99
247.953	3.14
248.335	2.84
248.717	2.53
249.098	2.56
249.48	2.63
249.862	2.61
250.243	2.94
250.625	3.08
251.006	3.02
251.388	2.73
251.769	3.15
252.151	2.65
252.532	2.47
252.913	3.52
253.295	2.8
253.676	3.39
254.057	2.87
254.438	2.8
254.819	2.65
255.2	2.97
255.581	2.83
255.962	2.33
256.343	3.98
256.724	2.64
257.105	3.17
257.486	4.22
257.867	2.95
258.247	3.37
258.628	3.41
259.009	1.89
259.389	3.33
259.77	2.24
260.15	3.49
260.531	3.07
260.911	3.07
261.292	2.38
261.672	2.63
262.052	2.63
262.432	2.63
262.813	2.61
263.193	2.96
263.573	2.72
263.953	2.76
264.333	3.05
264.713	3.49
265.093	3.41
265.473	3.2
265.853	2.45
266.233	3.26
266.612	2.91
266.992	3.31
267.372	2.56
267.752	2.88
268.131	3.24
268.511	2.87
268.89	3.06
269.27	2.51
269.649	2.07
270.029	2.71
270.408	3.34
270.787	3.52
271.167	3.2
271.546	3.06
271.925	3.28
272.304	2.77
272.683	2.72
273.062	2.79
273.441	2.78
273.82	3.05
274.199	2.88
274.578	2.58
274.957	2.8
275.336	2.93
275.715	3.15
276.093	2.69
276.472	3.44
276.851	3.21
277.229	3.05
277.608	2.65
277.986	3.07
278.365	3.41
278.743	3.37
279.122	2.4
279.5	2.61
279.878	2.15
280.257	2.31
280.635	2.65
281.013	3.07
281.391	2.96
281.769	2.51
282.147	2.37
282.525	3.06
282.903	2.7
283.281	3.19
283.659	2.9
284.037	3.04
284.415	2.34
284.792	2.43
285.17	2.97
285.548	2.66
285.925	2.65
286.303	2.76
286.68	2.2
287.058	3.24
287.435	3.06
287.813	2.77
288.19	2.54
288.567	2.5
288.945	3.13
289.322	3.22
289.699	2.74
290.076	3.09
290.453	3.05
290.83	2.47
291.207	3.07
291.584	2.6
291.961	2.8
292.338	2.96
292.715	3.19
293.092	3.01
293.469	2.99
293.845	3.2
294.222	2.86
294.599	2.53
294.975	3.21
295.352	2.93
295.728	3.28
296.105	2.69
296.481	3.05
296.858	3.33
297.234	3.18
297.61	3.22
297.986	3.1
298.363	3.16
298.739	3.35
299.115	3.21
299.491	3.13
299.867	3.17
300.243	3.05
300.619	3.44
300.995	3.06
301.371	3.37
301.746	3.08
302.122	3.57
302.498	3.48
302.874	3.01
303.249	3.17
303.625	3.41
304	3.55
304.376	3.26
304.751	3.12
305.127	3.37
305.502	4.01
305.878	3.62
306.253	3.61
306.628	3.64
307.003	3.55
307.378	3.59
307.754	3.91
308.129	4.07
308.504	4.22
308.879	3.81
309.254	3.92
309.629	3.6
310.003	3.39
310.378	3.88
310.753	3.83
311.128	4.21
311.502	3.95
311.877	4.2
312.252	4.14
312.626	3.79
313.001	4.27
313.375	4.06
313.75	4.28
314.124	4.16
314.498	4.21
314.873	4.02
315.247	4.3
315.621	4.26
315.995	4.52
316.369	4.07
316.743	4.56
317.117	4.71
317.491	3.95
317.865	4.8
318.239	4.8
318.613	4.78
318.987	3.9
319.361	3.69
319.734	4.03
320.108	4.58
320.482	5.31
320.855	4.8
321.229	5.62
321.602	4.84
321.976	4.85
322.349	5.56
322.723	4.78
323.096	5.1
323.469	4.54
323.843	5.22
324.216	4.99
324.589	4.96
324.962	5.26
325.335	5.12
325.708	5.1
326.081	5.36
326.454	5.43
326.827	5.49
327.2	5.62
327.573	5.56
327.945	5.3
328.318	5.11
328.691	5.38
329.063	5.89
329.436	5.63
329.809	5.62
330.181	5.81
330.553	5.69
330.926	5.89
331.298	5.06
331.671	5.39
332.043	5.15
332.415	5.53
332.787	5.67
333.159	5.61
333.532	6.45
333.904	5.94
334.276	5.35
334.648	5.44
335.02	5.83
335.391	5.34
335.763	6.55
336.135	5.99
336.507	6.46
336.879	5.86
337.25	6.56
337.622	6.59
337.993	6.54
338.365	5.96
338.736	6.34
339.108	6.77
339.479	6.29
339.851	6.36
340.222	6.15
340.593	5.76
340.964	6.05
341.336	6.81
341.707	6.45
342.078	6.37
342.449	6.42
342.82	6.48
343.191	6.78
343.562	6.34
343.933	6.54
344.303	6.23
344.674	6.68
345.045	6.92
345.416	6.67
345.786	6.69
346.157	6.79
346.527	6.63
346.898	6.97
347.268	6.83
347.639	7.05
348.009	6.61
348.38	6.91
348.75	7.13
349.12	6.89
349.49	7.15
349.861	7.38
350.231	6.87
350.601	6.86
350.971	7.41
351.341	7.31
351.711	7.58
352.081	7.29
352.45	6.91
352.82	7.09
353.19	7.59
353.56	7.39
353.929	6.76
354.299	7.24
354.669	7.1
355.038	7.27
355.408	7.62
355.777	7.48
356.147	7.44
356.516	7.46
356.885	7.14
357.254	7.52
357.624	7.75
357.993	7.13
358.362	7.68
358.731	7.46
359.1	7.39
359.469	7.3
359.838	7.53
360.207	7.55
360.576	7.68
360.945	7.25
361.314	7.63
361.682	7.56
362.051	7.36
362.42	7.52
362.788	7.64
363.157	7.62
363.525	7.54
363.894	7.81
364.262	7.64
364.631	7.62
364.999	7.74
365.367	8.03
365.735	7.83
366.104	7.8
366.472	8.05
366.84	8.03
367.208	8.32
367.576	7.91
367.944	8.35
368.312	8.38
368.68	8.39
369.048	8.11
369.416	8.25
369.783	8.58
370.151	8.25
370.519	8.08
370.886	8.2
371.254	8.57
371.621	8.53
371.989	8.22
372.356	8.52
372.724	8.63
373.091	8.42
373.458	8.08
373.826	8.61
374.193	8.54
374.56	8.28
374.927	8.84
375.294	8.65
375.661	8.8
376.028	8.73
376.395	8.64
376.762	8.38
377.129	8.69
377.496	8.66
377.863	9.1
378.229	9
378.596	8.99
378.963	8.71
379.329	9.07
379.696	8.9
380.062	9.09
380.429	8.94
380.795	9.04
381.161	9.39
381.528	9.46
381.894	9.14
382.26	9.58
382.626	9.24
382.993	9.17
383.359	9.17
383.725	9.63
384.091	9.12
384.457	9.48
384.823	9.7
385.188	9.49
385.554	9.73
385.92	9.47
386.286	9.71
386.651	9.26
387.017	9.68
387.383	9.66
387.748	9.28
388.114	9.53
388.479	9.76
388.845	9.76
389.21	9.69
389.575	9.75
389.94	9.6
390.306	9.78
390.671	9.85
391.036	9.91
391.401	10.29
391.766	10.2
392.131	10.01
392.496	10.17
392.861	10.15
393.226	10.16
393.591	9.64
393.956	10.1
394.32	10.08
394.685	9.97
395.05	10.36
395.414	10.48
395.779	10.06
396.143	10.17
396.508	10.26
396.872	10.35
397.236	10.37
397.601	10.37
397.965	10.31
398.329	10.28
398.694	10.55
399.058	10.33
399.422	10.53
399.786	10.34
400.15	10.48
400.514	10.69
400.878	10.67
401.242	11.17
401.605	10.79
401.969	10.38
402.333	10.81
402.697	11.04
403.06	10.62
403.424	10.54
403.787	10.87
404.151	10.92
404.514	10.95
404.878	11.12
405.241	10.98
405.604	10.77
405.968	11.04
406.331	10.86
406.694	11.05
407.057	11.03
407.42	11.38
407.783	11.21
408.146	11.23
408.509	11.18
408.872	11.16
409.235	11.38
409.598	11.38
409.961	11.4
410.323	11.42
410.686	11.2
411.049	11.57
411.411	11.43
411.774	11.44
412.136	11.4
412.499	11.47
412.861	11.85
413.223	11.6
413.586	11.71
413.948	11.74
414.31	11.8
414.672	11.71
415.035	11.63
415.397	11.76
415.759	11.92
416.121	11.79
416.483	11.96
416.845	11.94
417.206	11.97
417.568	12.28
417.93	12.26
418.292	11.84
418.653	11.98
419.015	11.93
419.377	11.92
419.738	11.97
420.1	11.76
420.461	11.95
420.822	12.02
421.184	11.98
421.545	11.98
421.906	12.05
422.267	12.02
422.629	12.02
422.99	11.95
423.351	12.14
423.712	12.04
424.073	12.08
424.434	12.24
424.795	12.22
425.155	12.25
425.516	12.35
425.877	12.29
426.238	12.17
426.598	12.32
426.959	12.28
427.32	12.35
427.68	12.55
428.041	12.59
428.401	12.71
428.761	12.72
429.122	12.7
429.482	12.81
429.842	12.78
430.202	12.93
430.563	12.83
430.923	13.18
431.283	13.22
431.643	13.18
432.003	13.36
432.363	13.2
432.722	13.24
433.082	13.44
433.442	13.19
433.802	13.47
434.161	13.41
434.521	13.37
434.881	13.39
435.24	13.48
435.6	13.28
435.959	13.35
436.319	13.48
436.678	13.51
437.037	13.38
437.396	13.44
437.756	13.61
438.115	13.53
438.474	13.77
438.833	13.88
439.192	13.68
439.551	13.8
439.91	13.56
440.269	13.87
440.628	13.84
440.987	13.67
441.345	13.74
441.704	13.86
442.063	13.81
442.421	13.85
442.78	13.75
443.138	13.85
443.497	13.98
443.855	14.01
444.214	14.01
444.572	14
444.93	14.26
445.288	14.4
445.647	14.48
446.005	14.24
446.363	14.25
446.721	14.27
447.079	14.42
447.437	14.29
447.795	14.15
448.153	14.29
448.51	14.28
448.868	14.19
449.226	14.24
449.584	14.28
449.941	14.53
450.299	14.55
450.656	14.51
451.014	14.59
451.371	14.58
451.729	14.55
452.086	14.85
452.443	14.88
452.801	14.81
453.158	15.14
453.515	14.88
453.872	15.04
454.229	15.24
454.586	15.1
454.943	15.01
455.3	14.96
455.657	15.2
456.014	15.14
456.371	15.24
456.727	15.15
457.084	15.33
457.441	15.46
457.797	15.62
458.154	15.35
458.51	15.49
458.867	15.65
459.223	15.72
459.58	15.48
459.936	15.79
460.292	15.49
460.648	15.45
461.005	15.48
461.361	15.66
461.717	15.44
462.073	15.5
462.429	15.68
462.785	15.56
463.141	15.73
463.496	15.76
463.852	16.01
464.208	16.21
464.564	16.09
464.919	15.96
465.275	16.43
465.631	16.22
465.986	16.17
466.342	16.35
466.697	16.41
467.052	16.29
467.408	16.34
467.763	16.54
468.118	16.64
468.473	16.4
468.829	16.5
469.184	16.63
469.539	16.52
469.894	16.79
470.249	16.63
470.603	16.68
470.958	16.83
471.313	16.91
471.668	16.98
472.023	16.87
472.377	16.86
472.732	16.77
473.086	17.1
473.441	17.16
473.795	17.14
474.15	17.17
474.504	16.94
474.859	17.2
475.213	17.27
475.567	17.25
475.921	17.34
476.275	17.28
476.63	17.44
476.984	17.42
477.338	17.53
477.692	17.41
478.045	17.54
478.399	17.39
478.753	17.42
479.107	17.51
479.461	17.63
479.814	17.77
480.168	17.61
480.521	17.74
480.875	17.57
481.228	17.82
481.582	17.65
481.935	17.92
482.289	17.77
482.642	17.74
482.995	17.68
483.348	17.85
483.701	17.83
484.055	18.01
484.408	17.7
484.761	17.67
485.114	17.51
485.466	17.33
485.819	17.08
486.172	17.05
486.525	17.09
486.878	17.28
487.23	17.44
487.583	17.52
487.936	17.7
488.288	17.92
488.641	17.95
488.993	17.69
489.345	17.74
489.698	17.68
490.05	17.61
490.402	17.74
490.754	17.85
491.107	18
491.459	18.11
491.811	18.39
492.163	18.39
492.515	18.41
492.866	18.53
493.218	18.45
493.57	18.23
493.922	18.08
494.274	18.27
494.625	18.31
494.977	18.54
495.328	18.79
495.68	18.97
496.031	19.1
496.383	19.26
496.734	19.38
497.086	19.32
497.437	19.5
497.788	19.48
498.139	19.5
498.49	19.29
498.842	19.41
499.193	19.55
499.544	19.49
499.894	19.45
500.245	19.57
500.596	19.71
500.947	19.8
501.298	19.76
501.648	19.78
501.999	19.88
502.35	20.16
502.7	20.15
503.051	20.1
503.401	20.04
503.752	20.21
504.102	20.29
504.452	20.23
504.803	20.37
505.153	20.47
505.503	20.53
505.853	20.47
506.203	20.38
506.553	20.44
506.903	20.63
507.253	20.53
507.603	20.58
507.953	20.58
508.303	20.64
508.652	20.72
509.002	20.86
509.352	20.75
509.701	20.78
510.051	20.74
510.4	20.88
510.75	20.88
511.099	20.97
511.449	20.99
511.798	20.87
512.147	20.97
512.496	21.02
512.846	21.02
513.195	21.26
513.544	21.27
513.893	21.07
514.242	21.06
514.591	21.39
514.939	21.3
515.288	21.26
515.637	21.4
515.986	21.5
516.334	21.56
516.683	21.59
517.032	21.59
517.38	21.67
517.729	21.84
518.077	21.84
518.426	21.85
518.774	21.69
519.122	21.82
519.47	21.8
519.819	21.75
520.167	21.59
520.515	21.54
520.863	21.73
521.211	21.76
521.559	21.86
521.907	21.9
522.255	21.95
522.602	22.11
522.95	22.22
523.298	22.34
523.645	22.39
523.993	22.38
524.341	22.6
524.688	22.62
525.036	22.7
525.383	22.52
525.73	22.7
526.078	22.69
526.425	22.68
526.772	22.71
527.119	22.58
527.466	22.51
527.814	22.49
528.161	22.47
528.508	22.53
528.854	22.54
529.201	22.71
529.548	22.69
529.895	22.62
530.242	22.34
530.588	22.14
530.935	22.19
531.282	22.34
531.628	22.36
531.975	22.45
532.321	22.74
532.667	22.79
533.014	23.02
533.36	23.14
533.706	23.26
534.052	23.33
534.399	23.29
534.745	23.09
535.091	23.19
535.437	23.08
535.783	23.03
536.129	23.27
536.474	23.33
536.82	23.65
537.166	23.66
537.512	23.73
537.857	23.9
538.203	24.07
538.549	24.05
538.894	23.81
539.239	23.96
539.585	24.01
539.93	24.09
540.276	24.34
540.621	24.41
540.966	24.66
541.311	24.71
541.656	24.68
542.001	24.81
542.346	24.51
542.691	24.38
543.036	24.37
543.381	24.08
543.726	24.06
544.071	24.16
544.415	24.17
544.76	24.3
545.105	24.47
545.449	24.58
545.794	24.73
546.138	24.78
546.483	24.94
546.827	25.03
547.171	25.21
547.516	25.27
547.86	25.36
548.204	25.24
548.548	25.21
548.892	25.26
549.236	25.3
549.58	25.42
549.924	25.53
550.268	25.66
550.612	25.8
550.956	26.23
551.3	25.98
551.643	26.1
551.987	26.37
552.33	26.23
552.674	26.56
553.017	26.22
553.361	26.43
553.704	26.66
554.048	26.62
554.391	26.78
554.734	26.76
555.077	26.65
555.42	26.59
555.764	26.47
556.107	26.76
556.45	26.73
556.793	26.89
557.135	27.08
557.478	26.91
557.821	27.14
558.164	27.11
558.507	26.99
558.849	27.14
559.192	27.32
559.534	27.59
559.877	27.19
560.219	27.34
560.562	27.58
560.904	27.51
561.246	27.78
561.589	27.62
561.931	27.61
562.273	27.79
562.615	27.74
562.957	27.82
563.299	27.73
563.641	27.88
563.983	27.91
564.325	27.65
564.667	28.17
565.008	28.22
565.35	28.11
565.692	28.13
566.033	28.31
566.375	28.09
566.716	28.25
567.058	28.25
567.399	28.32
567.741	28.19
568.082	28.36
568.423	28.29
568.764	28.52
569.105	28.49
569.447	28.27
569.788	28.48
570.129	28.47
570.47	28.58
570.811	28.92
571.151	28.93
571.492	28.92
571.833	29.06
572.174	29.17
572.514	29.03
572.855	28.97
573.195	29.34
573.536	29.24
573.876	29.33
574.217	29.14
574.557	29.06
574.898	29.07
575.238	29.14
575.578	29.43
575.918	29.34
576.258	29.34
576.598	29.46
576.938	29.6
577.278	29.85
577.618	29.73
577.958	29.63
578.298	29.65
578.638	29.8
578.977	30
579.317	29.9
579.657	30.27
579.996	30.13
580.336	30.34
580.675	30.43
581.014	30.53
581.354	30.4
581.693	30.43
582.032	30.58
582.372	30.6
582.711	31.09
583.05	30.8
583.389	30.83
583.728	30.76
584.067	31.03
584.406	30.81
584.745	30.8
585.083	30.97
585.422	31.14
585.761	31.22
586.1	31.09
586.438	31.16
586.777	31.39
587.115	31.62
587.454	31.43
587.792	31.2
588.13	31.63
588.469	31.45
588.807	31.11
589.145	31.88
589.483	31.75
589.821	31.84
590.159	32.06
590.497	31.94
590.835	31.76
591.173	32.01
591.511	31.72
591.849	31.79
592.187	31.87
592.524	31.74
592.862	32.03
593.2	31.99
593.537	32.02
593.875	32.35
594.212	32.41
594.55	32.6
594.887	32.42
595.224	32.23
595.561	32.54
595.899	32.56
596.236	32.85
596.573	32.88
596.91	32.65
597.247	32.68
597.584	32.4
597.921	32.65
598.258	33.04
598.594	32.96
598.931	32.87
599.268	32.67
599.604	32.79
599.941	32.69
600.277	33.04
600.614	32.95
600.95	33.36
601.287	32.89
601.623	33.4
601.959	33.74
602.296	33.48
602.632	33.87
602.968	33.62
603.304	33.77
603.64	33.54
603.976	33.69
604.312	34.07
604.648	33.78
604.984	34.11
605.319	33.77
605.655	33.49
605.991	33.53
606.326	33.7
606.662	33.69
606.998	33.59
607.333	33.9
607.668	33.68
608.004	33.84
608.339	33.89
608.674	34.1
609.01	34.14
609.345	34.3
609.68	34.77
610.015	34.27
610.35	34.68
610.685	34.71
611.02	34.62
611.355	34.38
611.689	34.59
612.024	34.83
612.359	34.58
612.694	34.6
613.028	34.91
613.363	34.85
613.697	35.02
614.032	34.96
614.366	35.32
614.7	35.15
615.035	35.2
615.369	35.48
615.703	35.37
616.037	35.5
616.371	35.18
616.705	35.95
617.039	35.61
617.373	35.8
617.707	35.76
618.041	35.37
618.375	35.89
618.709	35.86
619.042	36.03
619.376	36.33
619.71	36.06
620.043	36.05
620.377	35.78
620.71	36.04
621.043	36.14
621.377	35.85
621.71	36.09
622.043	36.41
622.376	36.52
622.709	36.15
623.043	36.53
623.376	36.21
623.709	36.85
624.041	36.57
624.374	36.46
624.707	36.32
625.04	36.89
625.373	36.9
625.705	36.8
626.038	36.82
626.37	36.99
626.703	37.4
627.035	36.73
627.368	37.35
627.7	37.17
628.032	37.08
628.365	37.19
628.697	36.99
629.029	37.05
629.361	37.22
629.693	37.03
630.025	37.42
630.357	37.6
630.689	37.28
631.021	37.68
631.353	37.55
631.684	37.55
632.016	37.76
632.348	37.9
632.679	38.01
633.011	38.17
633.342	37.94
633.674	38.16
634.005	38.06
634.336	38.52
634.668	37.94
634.999	38.23
635.33	38.11
635.661	38.21
635.992	38.15
636.323	38.68
636.654	38.74
636.985	38.25
637.316	38.77
637.647	38.52
637.977	38.37
638.308	38.93
638.639	38.77
638.969	38.77
639.3	38.22
639.63	38.95
639.961	39.29
640.291	38.84
640.622	38.7
640.952	39.38
641.282	38.94
641.612	39.53
641.943	39.18
642.273	39.23
642.603	39.97
642.933	39.11
643.263	39.7
643.592	39.5
643.922	39.63
644.252	39.24
644.582	39.31
644.911	39.55
645.241	39.88
645.571	40.14
645.9	40.1
646.23	39.71
646.559	39.4
646.888	39.7
647.218	40.2
647.547	40.19
647.876	40.36
648.205	40.62
648.534	39.94
648.863	40.22
649.192	40.33
649.521	40.75
649.85	40.67
650.179	40.81
650.508	40.15
650.837	40.48
651.165	41.16
651.494	40.93
651.822	40.95
652.151	41.13
652.479	41.1
652.808	41.33
653.136	41.26
653.465	41.1
653.793	40.61
654.121	41.06
654.449	40.74
654.777	41.27
655.105	40.95
655.433	41.61
655.761	41.64
656.089	41.33
656.417	40.96
656.745	41.75
657.073	40.93
657.4	41.88
657.728	41.44
658.056	41.13
658.383	42.01
658.711	41.57
659.038	41.79
659.365	42.25
659.693	41.29
660.02	42.07
660.347	41.71
660.674	41.46
661.001	42.05
661.329	41.98
661.656	41.86
661.982	42.27
662.309	42.13
662.636	42.43
662.963	42.03
663.29	42.6
663.616	42.66
663.943	41.87
664.27	42.13
664.596	42.16
664.923	41.71
665.249	42.46
665.576	42.37
665.902	42.97
666.228	42.45
666.554	42.94
666.881	42.87
667.207	42.86
667.533	42.78
667.859	42.65
668.185	43.32
668.511	42.97
668.837	42.92
669.162	43.22
669.488	43.44
669.814	42.75
670.139	43.4
670.465	43.33
670.791	43.81
671.116	43.5
671.442	42.67
671.767	43.06
672.092	43.62
672.418	43.3
672.743	43.43
673.068	43.7
673.393	44.08
