Data from 0265_forehead_Reflection__0__179.txt Node

Date: Fri Oct 20 22:05:18 CDT 2023
User: ToomeyLab
Spectrometer: FLMS14357
Trigger mode: 0
Integration Time (sec): 1.000000E-2
Scans to average: 100
Electric dark correction enabled: true
Nonlinearity correction enabled: false
Boxcar width: 0
XAxis mode: Wavelengths
Number of Pixels in Spectrum: 2048
>>>>>Begin Spectral Data<<<<<
189.047	-65.31
189.435	-65.31
189.823	-65.31
190.211	94.69
190.599	42.14
190.987	49.06
191.375	152.49
191.763	-4253.85
192.151	-16233.33
192.538	120.42
192.926	-54.18
193.314	118.13
193.702	162.62
194.089	184.88
194.477	-36.4
194.864	65.24
195.252	-111.23
195.639	210.69
196.027	9.99
196.414	284.63
196.801	223.05
197.189	84.99
197.576	685.99
197.963	140.78
198.351	59.88
198.738	20.51
199.125	27.62
199.512	11.45
199.899	67.04
200.286	11.61
200.673	45.6
201.06	20.14
201.447	51.77
201.833	88.32
202.22	64.99
202.607	42.76
202.994	24.54
203.38	56.41
203.767	44.79
204.154	62.86
204.54	48.07
204.927	35.39
205.313	41.73
205.699	48.38
206.086	-3.1
206.472	34.78
206.858	41.46
207.245	4.76
207.631	40.19
208.017	29.13
208.403	63.29
208.789	63.95
209.175	34.09
209.561	30.89
209.947	27.72
210.333	39.52
210.719	38.07
211.105	34.55
211.491	24.78
211.876	54.5
212.262	46.06
212.648	35.06
213.034	29.77
213.419	42.1
213.805	30.29
214.19	58.86
214.576	18.76
214.961	32.89
215.346	43.83
215.732	38.45
216.117	0.99
216.502	16.15
216.888	26.61
217.273	2.9
217.658	20.51
218.043	10.53
218.428	40.4
218.813	24.35
219.198	17.14
219.583	5.23
219.968	23.6
220.353	27.01
220.738	26.58
221.122	7.6
221.507	29.46
221.892	21.53
222.276	34.35
222.661	37.64
223.046	8.14
223.43	17.47
223.815	23.56
224.199	24.65
224.583	-3.57
224.968	5.79
225.352	11.62
225.736	8.21
226.121	16.35
226.505	3.3
226.889	12.74
227.273	11.84
227.657	14.87
228.041	8.99
228.425	3.63
228.809	9.83
229.193	7.1
229.577	7.99
229.961	4.17
230.344	3.45
230.728	2.95
231.112	3.26
231.495	3.56
231.879	4.19
232.263	4.25
232.646	4.09
233.03	3
233.413	2.68
233.797	2.79
234.18	5.64
234.563	4.44
234.946	5.41
235.33	5.14
235.713	5.11
236.096	4.61
236.479	4.56
236.862	3.54
237.245	3.58
237.628	4.3
238.011	4.52
238.394	4.88
238.777	5.21
239.16	3.73
239.543	5.38
239.925	4.2
240.308	3.87
240.691	3.92
241.073	4.85
241.456	4.21
241.838	2.05
242.221	4.8
242.603	3.87
242.986	3.54
243.368	4.62
243.75	2.96
244.133	2.57
244.515	2.6
244.897	2.58
245.279	3.04
245.661	3.56
246.043	2.59
246.425	4.11
246.807	3.68
247.189	4.64
247.571	3.12
247.953	3.09
248.335	3.72
248.717	2.78
249.098	2.61
249.48	2.84
249.862	2.91
250.243	3.4
250.625	3.25
251.006	3.53
251.388	3.34
251.769	4.4
252.151	3.89
252.532	4.04
252.913	3.95
253.295	3.59
253.676	3.25
254.057	3.4
254.438	3.55
254.819	3.11
255.2	3.34
255.581	4.46
255.962	3.24
256.343	4.37
256.724	2.91
257.105	4.04
257.486	4.26
257.867	3.49
258.247	3.53
258.628	4.14
259.009	3.27
259.389	2.95
259.77	3.83
260.15	3.83
260.531	3.65
260.911	3.35
261.292	2.71
261.672	3.05
262.052	3.13
262.432	3.16
262.813	3.04
263.193	3.41
263.573	3.46
263.953	2.98
264.333	3.25
264.713	4.14
265.093	3.57
265.473	3.74
265.853	3.65
266.233	3.9
266.612	3.3
266.992	4.04
267.372	3.64
267.752	3.48
268.131	4.22
268.511	3.95
268.89	3.57
269.27	2.64
269.649	2.63
270.029	3.04
270.408	3.45
270.787	3.48
271.167	3.42
271.546	4.01
271.925	3.87
272.304	3.08
272.683	3.77
273.062	3.27
273.441	3.54
273.82	3.35
274.199	3.16
274.578	3.27
274.957	3.26
275.336	3.38
275.715	3.32
276.093	2.98
276.472	3.05
276.851	3.58
277.229	4.06
277.608	2.94
277.986	2.71
278.365	3.65
278.743	3.07
279.122	3.24
279.5	3.5
279.878	3.02
280.257	3.71
280.635	3.48
281.013	3.6
281.391	3.07
281.769	3.29
282.147	3.42
282.525	3.31
282.903	3.2
283.281	3.22
283.659	3.05
284.037	3.16
284.415	2.83
284.792	3.12
285.17	3.23
285.548	2.79
285.925	3.09
286.303	3
286.68	2.71
287.058	3.67
287.435	3.47
287.813	3.04
288.19	2.96
288.567	3.2
288.945	3.39
289.322	3.46
289.699	2.68
290.076	3.67
290.453	3.14
290.83	3.13
291.207	3.85
291.584	2.88
291.961	3.4
292.338	3.35
292.715	3.33
293.092	3.24
293.469	3.74
293.845	3.43
294.222	3.48
294.599	3.74
294.975	3.97
295.352	4.08
295.728	3.39
296.105	3.63
296.481	3.52
296.858	3.62
297.234	3.62
297.61	3.2
297.986	3.46
298.363	3.39
298.739	3.7
299.115	3.58
299.491	3.58
299.867	3.67
300.243	3.77
300.619	4.02
300.995	3.86
301.371	4.16
301.746	3.5
302.122	3.89
302.498	4.09
302.874	3.8
303.249	4.13
303.625	4.36
304	4.47
304.376	4.12
304.751	3.75
305.127	3.96
305.502	5
305.878	4.63
306.253	4.26
306.628	4.63
307.003	3.94
307.378	4.54
307.754	4.43
308.129	4.46
308.504	4.55
308.879	4.54
309.254	4.94
309.629	4.57
310.003	3.85
310.378	4.94
310.753	4.86
311.128	5.08
311.502	4.45
311.877	5.01
312.252	4.73
312.626	4.97
313.001	5.06
313.375	4.85
313.75	4.86
314.124	4.79
314.498	5.09
314.873	4.87
315.247	5.19
315.621	5.02
315.995	5.64
316.369	4.84
316.743	5.36
317.117	5.48
317.491	4.94
317.865	5.88
318.239	6.19
318.613	5.79
318.987	5.41
319.361	4.82
319.734	5.34
320.108	5.62
320.482	5.91
320.855	6.16
321.229	6.14
321.602	6.03
321.976	6.12
322.349	6.89
322.723	6.78
323.096	6.42
323.469	6.11
323.843	6.59
324.216	6.18
324.589	6.45
324.962	6.85
325.335	6.6
325.708	6.11
326.081	6.87
326.454	6.63
326.827	6.65
327.2	6.87
327.573	7.2
327.945	6.86
328.318	6.25
328.691	6.33
329.063	7.36
329.436	6.33
329.809	6.83
330.181	7.32
330.553	7.4
330.926	6.85
331.298	6.78
331.671	7.21
332.043	6.75
332.415	7.21
332.787	7.79
333.159	6.94
333.532	7.23
333.904	8.18
334.276	7.44
334.648	7.61
335.02	7.9
335.391	7.55
335.763	8
336.135	7.44
336.507	7.85
336.879	7.44
337.25	8.06
337.622	7.66
337.993	8.55
338.365	7.85
338.736	8.12
339.108	7.99
339.479	7.71
339.851	7.89
340.222	7.49
340.593	7.17
340.964	7.95
341.336	8.12
341.707	7.93
342.078	8.35
342.449	8.32
342.82	7.97
343.191	8.4
343.562	8.23
343.933	8.03
344.303	8.21
344.674	8.83
345.045	8.65
345.416	8.4
345.786	8.19
346.157	8.8
346.527	8.35
346.898	8.19
347.268	8.67
347.639	8.49
348.009	8.49
348.38	8.55
348.75	8.38
349.12	8.55
349.49	8.8
349.861	9.25
350.231	8.74
350.601	8.8
350.971	8.92
351.341	9.2
351.711	9.22
352.081	8.58
352.45	8.98
352.82	8.77
353.19	9.08
353.56	9.33
353.929	9.01
354.299	8.74
354.669	9.06
355.038	9.46
355.408	9.38
355.777	9.2
356.147	9.37
356.516	9.51
356.885	9.26
357.254	9.1
357.624	9.2
357.993	9.24
358.362	9.24
358.731	8.74
359.1	9.17
359.469	9.09
359.838	9.59
360.207	9.2
360.576	9.26
360.945	9.31
361.314	9.62
361.682	9.49
362.051	9.47
362.42	9.62
362.788	9.76
363.157	9.83
363.525	9.61
363.894	9.63
364.262	9.84
364.631	10.03
364.999	9.76
365.367	10.01
365.735	9.85
366.104	10.24
366.472	10.36
366.84	9.92
367.208	10.31
367.576	10.06
367.944	10.08
368.312	10.29
368.68	10.44
369.048	10.33
369.416	10.72
369.783	10.52
370.151	10.58
370.519	10.47
370.886	10.83
371.254	10.8
371.621	10.94
371.989	10.35
372.356	10.79
372.724	10.89
373.091	10.84
373.458	10.61
373.826	10.62
374.193	10.85
374.56	10.81
374.927	10.92
375.294	11.39
375.661	11.16
376.028	11.23
376.395	11.33
376.762	10.85
377.129	11.34
377.496	11.13
377.863	11.19
378.229	11.5
378.596	11.69
378.963	11.49
379.329	11.57
379.696	11.52
380.062	11.67
380.429	11.1
380.795	11.37
381.161	11.43
381.528	12.08
381.894	11.55
382.26	11.6
382.626	12.15
382.993	11.98
383.359	11.74
383.725	12.3
384.091	12.1
384.457	11.95
384.823	12.38
385.188	12.38
385.554	12.29
385.92	12.04
386.286	12.21
386.651	12.15
387.017	12.28
387.383	12.17
387.748	12.31
388.114	12.22
388.479	12.49
388.845	12.13
389.21	12.43
389.575	12.32
389.94	12.81
390.306	12.08
390.671	12.49
391.036	12.4
391.401	12.89
391.766	13.11
392.131	12.74
392.496	12.69
392.861	12.88
393.226	12.72
393.591	12.9
393.956	12.79
394.32	12.95
394.685	12.77
395.05	13.36
395.414	13.39
395.779	13.03
396.143	13.02
396.508	12.99
396.872	13.13
397.236	13.08
397.601	12.97
397.965	13.07
398.329	13.05
398.694	13.52
399.058	13
399.422	13.12
399.786	13.45
400.15	13.41
400.514	13.49
400.878	13.57
401.242	14.02
401.605	13.83
401.969	13.45
402.333	13.64
402.697	14.08
403.06	13.73
403.424	13.8
403.787	13.87
404.151	13.9
404.514	14.02
404.878	14.16
405.241	14.39
405.604	13.98
405.968	14
406.331	13.93
406.694	13.96
407.057	14.07
407.42	14.71
407.783	14.57
408.146	14.31
408.509	14.18
408.872	14.4
409.235	14.62
409.598	14.44
409.961	14.48
410.323	14.67
410.686	14.52
411.049	14.54
411.411	14.7
411.774	14.65
412.136	14.6
412.499	14.86
412.861	14.93
413.223	14.65
413.586	15.01
413.948	15.22
414.31	14.96
414.672	14.88
415.035	15.01
415.397	15.1
415.759	15.11
416.121	14.86
416.483	15.32
416.845	15.01
417.206	15.16
417.568	15.38
417.93	15.45
418.292	15.06
418.653	15.39
419.015	15.2
419.377	15.26
419.738	15.3
420.1	15.2
420.461	15.27
420.822	15.42
421.184	15.5
421.545	15.4
421.906	15.35
422.267	15.35
422.629	15.48
422.99	15.29
423.351	15.4
423.712	15.47
424.073	15.53
424.434	15.62
424.795	15.63
425.155	15.78
425.516	15.73
425.877	15.78
426.238	15.69
426.598	15.71
426.959	15.72
427.32	15.97
427.68	16.03
428.041	16.06
428.401	16.2
428.761	16.05
429.122	16.34
429.482	16.49
429.842	16.38
430.202	16.6
430.563	16.6
430.923	16.67
431.283	16.51
431.643	16.76
432.003	16.82
432.363	16.75
432.722	16.92
433.082	16.97
433.442	16.88
433.802	17.24
434.161	17.07
434.521	17.28
434.881	17.08
435.24	17.04
435.6	16.86
435.959	17.08
436.319	17.24
436.678	17.12
437.037	17.32
437.396	17.55
437.756	17.32
438.115	17.14
438.474	17.5
438.833	17.7
439.192	17.43
439.551	17.44
439.91	17.6
440.269	17.63
440.628	17.69
440.987	17.7
441.345	17.65
441.704	17.77
442.063	17.64
442.421	17.75
442.78	17.72
443.138	17.74
443.497	17.84
443.855	17.81
444.214	17.81
444.572	17.96
444.93	18.22
445.288	18.34
445.647	18.51
446.005	18.15
446.363	18.22
446.721	18.27
447.079	18.38
447.437	18.37
447.795	18.07
448.153	18.22
448.51	18.27
448.868	18.21
449.226	18.18
449.584	18.32
449.941	18.42
450.299	18.44
450.656	18.71
451.014	18.72
451.371	18.8
451.729	18.87
452.086	18.94
452.443	19.1
452.801	19.01
453.158	19.09
453.515	19.3
453.872	19.32
454.229	19.2
454.586	19.27
454.943	19.26
455.3	19.25
455.657	19.47
456.014	19.36
456.371	19.43
456.727	19.52
457.084	19.71
457.441	19.62
457.797	19.81
458.154	19.53
458.51	19.83
458.867	19.95
459.223	20.02
459.58	19.73
459.936	20.07
460.292	19.96
460.648	19.86
461.005	19.84
461.361	19.85
461.717	19.82
462.073	19.67
462.429	19.73
462.785	19.85
463.141	20.13
463.496	20.26
463.852	20.33
464.208	20.46
464.564	20.75
464.919	20.65
465.275	20.85
465.631	20.7
465.986	20.87
466.342	21.04
466.697	20.91
467.052	20.83
467.408	20.86
467.763	21.09
468.118	21.22
468.473	21.15
468.829	21.24
469.184	21.18
469.539	21.19
469.894	21.33
470.249	21.36
470.603	21.36
470.958	21.32
471.313	21.48
471.668	21.7
472.023	21.4
472.377	21.66
472.732	21.48
473.086	21.77
473.441	21.84
473.795	21.85
474.15	21.96
474.504	21.88
474.859	21.96
475.213	22.17
475.567	22.1
475.921	22.2
476.275	22.13
476.63	22.37
476.984	22.25
477.338	22.18
477.692	22.31
478.045	22.09
478.399	22.18
478.753	22.35
479.107	22.36
479.461	22.47
479.814	22.49
480.168	22.66
480.521	22.54
480.875	22.53
481.228	22.73
481.582	22.8
481.935	22.73
482.289	22.73
482.642	22.78
482.995	22.83
483.348	22.7
483.701	22.51
484.055	22.8
484.408	22.63
484.761	22.57
485.114	22.29
485.466	22.03
485.819	21.94
486.172	21.86
486.525	21.92
486.878	22.13
487.23	22.28
487.583	22.45
487.936	22.64
488.288	22.84
488.641	22.94
488.993	22.73
489.345	22.58
489.698	22.59
490.05	22.59
490.402	22.7
490.754	22.76
491.107	22.99
491.459	23.16
491.811	23.43
492.163	23.45
492.515	23.43
492.866	23.64
493.218	23.42
493.57	23.15
493.922	23.14
494.274	23.25
494.625	23.46
494.977	23.59
495.328	23.9
495.68	24.16
496.031	24.25
496.383	24.47
496.734	24.57
497.086	24.67
497.437	24.75
497.788	24.88
498.139	24.73
498.49	24.56
498.842	24.57
499.193	24.65
499.544	24.88
499.894	24.8
500.245	24.73
500.596	24.97
500.947	25.12
501.298	25.12
501.648	25.24
501.999	25.3
502.35	25.4
502.7	25.62
503.051	25.64
503.401	25.71
503.752	25.6
504.102	25.84
504.452	25.73
504.803	25.77
505.153	25.94
505.503	25.98
505.853	26.05
506.203	25.69
506.553	25.85
506.903	25.98
507.253	26.19
507.603	26.12
507.953	26.3
508.303	26.18
508.652	26.34
509.002	26.28
509.352	26.47
509.701	26.37
510.051	26.46
510.4	26.53
510.75	26.48
511.099	26.44
511.449	26.5
511.798	26.71
512.147	26.52
512.496	26.7
512.846	26.79
513.195	26.81
513.544	26.89
513.893	26.7
514.242	26.91
514.591	27.01
514.939	27.04
515.288	27.08
515.637	27.22
515.986	27.32
516.334	27.41
516.683	27.56
517.032	27.37
517.38	27.49
517.729	27.48
518.077	27.68
518.426	27.74
518.774	27.66
519.122	27.54
519.47	27.65
519.819	27.54
520.167	27.59
520.515	27.62
520.863	27.48
521.211	27.54
521.559	27.63
521.907	27.71
522.255	27.9
522.602	28.13
522.95	28.27
523.298	28.15
523.645	28.33
523.993	28.54
524.341	28.6
524.688	28.63
525.036	28.55
525.383	28.66
525.73	28.7
526.078	28.69
526.425	28.75
526.772	28.86
527.119	28.72
527.466	28.63
527.814	28.61
528.161	28.36
528.508	28.57
528.854	28.61
529.201	28.74
529.548	28.75
529.895	28.59
530.242	28.32
530.588	28.15
530.935	28.35
531.282	28.38
531.628	28.47
531.975	28.66
532.321	28.89
532.667	29.03
533.014	29.24
533.36	29.38
533.706	29.54
534.052	29.45
534.399	29.48
534.745	29.36
535.091	29.42
535.437	29.29
535.783	29.26
536.129	29.47
536.474	29.61
536.82	29.92
537.166	29.88
537.512	30.1
537.857	30.19
538.203	30.17
538.549	30.29
538.894	30.04
539.239	30.21
539.585	30.27
539.93	30.5
540.276	30.74
540.621	30.81
540.966	30.97
541.311	30.96
541.656	31.05
542.001	31.27
542.346	30.94
542.691	31.02
543.036	30.76
543.381	30.46
543.726	30.44
544.071	30.55
544.415	30.68
544.76	30.81
545.105	31
545.449	31.12
545.794	31.22
546.138	31.1
546.483	31.5
546.827	31.5
547.171	31.9
547.516	31.76
547.86	31.96
548.204	31.77
548.548	32.11
548.892	31.96
549.236	31.71
549.58	32.02
549.924	32.09
550.268	32.35
550.612	32.59
550.956	32.9
551.3	32.66
551.643	32.81
551.987	33.09
552.33	33
552.674	33.29
553.017	33.15
553.361	33.1
553.704	33.32
554.048	33.24
554.391	33.36
554.734	33.24
555.077	33.42
555.42	33.55
555.764	33.49
556.107	33.77
556.45	33.76
556.793	33.82
557.135	33.8
557.478	34.12
557.821	33.95
558.164	34.33
558.507	34.21
558.849	34.41
559.192	34.25
559.534	34.66
559.877	34.31
560.219	34.6
560.562	34.47
560.904	34.41
561.246	34.87
561.589	34.74
561.931	34.66
562.273	34.66
562.615	34.96
562.957	34.81
563.299	34.84
563.641	35.01
563.983	34.97
564.325	35.05
564.667	35.32
565.008	35.46
565.35	35.37
565.692	35.56
566.033	35.58
566.375	35.6
566.716	35.61
567.058	35.49
567.399	35.74
567.741	35.7
568.082	35.52
568.423	35.59
568.764	35.7
569.105	35.75
569.447	35.42
569.788	35.82
570.129	35.83
570.47	35.96
570.811	36.22
571.151	36.17
571.492	36.4
571.833	36.43
572.174	36.5
572.514	36.74
572.855	36.43
573.195	36.58
573.536	36.24
573.876	36.73
574.217	36.51
574.557	36.33
574.898	36.68
575.238	36.76
575.578	36.78
575.918	36.86
576.258	37.04
576.598	36.94
576.938	36.97
577.278	37.16
577.618	37.17
577.958	37.11
578.298	37.14
578.638	37.28
578.977	37.45
579.317	37.73
579.657	37.63
579.996	37.65
580.336	37.86
580.675	37.83
581.014	37.99
581.354	37.93
581.693	38.19
582.032	38.21
582.372	38.4
582.711	38.71
583.05	38.84
583.389	38.54
583.728	38.94
584.067	38.61
584.406	38.52
584.745	38.64
585.083	38.69
585.422	38.82
585.761	39.19
586.1	38.7
586.438	39.15
586.777	39.33
587.115	39.7
587.454	39.11
587.792	38.93
588.13	39.23
588.469	39.49
588.807	39.42
589.145	39.67
589.483	39.38
589.821	39.49
590.159	40.1
590.497	40.12
590.835	39.59
591.173	39.85
591.511	39.83
591.849	39.96
592.187	39.91
592.524	39.66
592.862	39.9
593.2	40.27
593.537	39.59
593.875	40.1
594.212	40.62
594.55	40.19
594.887	40.48
595.224	40.77
595.561	40.77
595.899	40.48
596.236	40.99
596.573	40.99
596.91	40.84
597.247	40.81
597.584	41.11
597.921	40.63
598.258	40.96
598.594	40.74
598.931	40.61
599.268	40.5
599.604	41.06
599.941	40.96
600.277	40.84
600.614	41.11
600.95	41.22
601.287	41.21
601.623	41.6
601.959	41.62
602.296	41.64
602.632	41.79
602.968	41.56
603.304	41.69
603.64	42
603.976	42.23
604.312	42.4
604.648	41.88
604.984	42.28
605.319	41.98
605.655	41.93
605.991	41.9
606.326	41.89
606.662	42.07
606.998	42.03
607.333	42.26
607.668	41.95
608.004	42.26
608.339	42.26
608.674	42.47
609.01	42.51
609.345	42.91
609.68	42.9
610.015	42.81
610.35	43.09
610.685	43.01
611.02	43.24
611.355	43.07
611.689	42.84
612.024	43.15
612.359	43.1
612.694	43.19
613.028	43.1
613.363	43.21
613.697	43.81
614.032	43.76
614.366	43.6
614.7	43.73
615.035	43.91
615.369	44.42
615.703	43.99
616.037	44.44
616.371	44.32
616.705	44.59
617.039	44.65
617.373	44.61
617.707	44.94
618.041	44.42
618.375	44.86
618.709	44.42
619.042	44.58
619.376	45.15
619.71	44.41
620.043	45.03
620.377	44.96
620.71	45.04
621.043	45.28
621.377	44.71
621.71	44.9
622.043	45.21
622.376	45.39
622.709	45.4
623.043	45.72
623.376	45.19
623.709	45.52
624.041	45.92
624.374	45.71
624.707	45.66
625.04	45.7
625.373	45.8
625.705	45.53
626.038	46.19
626.37	45.49
626.703	45.69
627.035	45.76
627.368	46.2
627.7	46.12
628.032	46.33
628.365	46.24
628.697	46.18
629.029	46.23
629.361	46.51
629.693	46.19
630.025	46.43
630.357	46.67
630.689	46.14
631.021	46.74
631.353	46.77
631.684	46.68
632.016	46.75
632.348	46.67
632.679	46.84
633.011	47.17
633.342	47.16
633.674	47.35
634.005	47.28
634.336	47.92
634.668	47.49
634.999	47.56
635.33	47.31
635.661	47.3
635.992	47.85
636.323	47.77
636.654	47.49
636.985	47.6
637.316	47.62
637.647	47.97
637.977	47.53
638.308	48.37
638.639	47.96
638.969	48
639.3	48.19
639.63	48.31
639.961	48.36
640.291	48.29
640.622	48
640.952	48.33
641.282	48.58
641.612	48.51
641.943	48.74
642.273	48.73
642.603	49.26
642.933	48.6
643.263	49.18
643.592	49.48
643.922	49.3
644.252	48.65
644.582	49.44
644.911	49.4
645.241	49.11
645.571	49.2
645.9	49.29
646.23	50.1
646.559	49.14
646.888	49.47
647.218	50.04
647.547	49.68
647.876	49.5
648.205	49.71
648.534	49.24
648.863	50.22
649.192	49.43
649.521	49.79
649.85	49.67
650.179	49.59
650.508	49.84
650.837	50.25
651.165	50.57
651.494	51.17
651.822	50.29
652.151	51
652.479	50.72
652.808	50.75
653.136	50.51
653.465	50.79
653.793	50.16
654.121	50.77
654.449	51.26
654.777	51.05
655.105	51.18
655.433	50.89
655.761	51.32
656.089	50.91
656.417	51.01
656.745	51.36
657.073	51.33
657.4	51.66
657.728	51.7
658.056	51.86
658.383	51.6
658.711	50.89
659.038	51.35
659.365	52.03
659.693	51.91
660.02	51.42
660.347	51.84
660.674	51.83
661.001	51.51
661.329	51.99
661.656	51.84
661.982	51.75
662.309	51.84
662.636	51.73
662.963	52.12
663.29	52.17
663.616	52.73
663.943	51.61
664.27	52.22
664.596	52.7
664.923	52.7
665.249	52.65
665.576	52.19
665.902	52.86
666.228	52.86
666.554	53.29
666.881	52.58
667.207	52.45
667.533	53.11
667.859	52.8
668.185	53.45
668.511	52.71
668.837	53.5
669.162	53.11
669.488	53.87
669.814	53.29
670.139	53.42
670.465	53.54
670.791	54.67
671.116	53.87
671.442	53.28
671.767	53.68
672.092	54.11
672.418	53.81
