Data from 0265_forehead_Reflection__1__180.txt Node

Date: Fri Oct 20 22:05:28 CDT 2023
User: ToomeyLab
Spectrometer: FLMS14357
Trigger mode: 0
Integration Time (sec): 1.000000E-2
Scans to average: 100
Electric dark correction enabled: true
Nonlinearity correction enabled: false
Boxcar width: 0
XAxis mode: Wavelengths
Number of Pixels in Spectrum: 2048
>>>>>Begin Spectral Data<<<<<
189.047	-7.96
189.435	-7.96
189.823	-7.96
190.211	-3.66
190.599	-42.52
190.987	183.61
191.375	46.27
191.763	-8661.54
192.151	-12386.67
192.538	76
192.926	207.52
193.314	204.31
193.702	14
194.089	113.66
194.477	55.83
194.864	-15.85
195.252	-176.56
195.639	-57.33
196.027	-27.41
196.414	296.08
196.801	28.11
197.189	83.1
197.576	399.22
197.963	-80.15
198.351	42.37
198.738	-1.92
199.125	31.12
199.512	46.56
199.899	46.47
200.286	49.23
200.673	48.44
201.06	70.39
201.447	6.89
201.833	49.56
202.22	4.74
202.607	34.25
202.994	35.95
203.38	31.67
203.767	29.18
204.154	49.41
204.54	38.35
204.927	18.68
205.313	14.45
205.699	34.4
206.086	31.67
206.472	31.86
206.858	43.39
207.245	0.14
207.631	40.52
208.017	15.15
208.403	40.36
208.789	45.71
209.175	5.9
209.561	30.89
209.947	18.37
210.333	28.85
210.719	-2.12
211.105	38.83
211.491	35.79
211.876	37.4
212.262	26.57
212.648	15.54
213.034	7.95
213.419	13.91
213.805	16.16
214.19	37.66
214.576	14.16
214.961	5.59
215.346	53.02
215.732	18.83
216.117	11.25
216.502	18.77
216.888	-1.4
217.273	5.19
217.658	20.83
218.043	9.35
218.428	-13.51
218.813	31.78
219.198	4.5
219.583	-9.66
219.968	15.96
220.353	29.52
220.738	23.3
221.122	6.84
221.507	15.48
221.892	6.75
222.276	11.5
222.661	25.36
223.046	25.74
223.43	-3.71
223.815	21.17
224.199	24.19
224.583	4.5
224.968	1.03
225.352	5.78
225.736	4.96
226.121	4.3
226.505	2.68
226.889	9.9
227.273	5.54
227.657	12.9
228.041	5.57
228.425	3.06
228.809	7.54
229.193	4.14
229.577	5.64
229.961	2.84
230.344	2.99
230.728	1.88
231.112	2.94
231.495	2.61
231.879	3.83
232.263	3.88
232.646	2.11
233.03	2.63
233.413	3.36
233.797	3.13
234.18	2.65
234.563	4.12
234.946	6.03
235.33	4.1
235.713	4.46
236.096	5.1
236.479	4.56
236.862	4.86
237.245	2.41
237.628	4.71
238.011	4.59
238.394	3.57
238.777	5.06
239.16	3.09
239.543	6.02
239.925	6.22
240.308	4.38
240.691	5.54
241.073	5.08
241.456	5.12
241.838	3.6
242.221	4.57
242.603	4.17
242.986	4
243.368	4.28
243.75	3.52
244.133	2.83
244.515	2.83
244.897	2.8
245.279	2.98
245.661	2.47
246.043	2.43
246.425	3.65
246.807	4.06
247.189	3.22
247.571	2.84
247.953	3.34
248.335	3.42
248.717	2.88
249.098	2.9
249.48	2.73
249.862	3.18
250.243	3.23
250.625	3.3
251.006	3.41
251.388	3.04
251.769	3.79
252.151	3.61
252.532	3.75
252.913	3.59
253.295	3.11
253.676	2.94
254.057	2.96
254.438	3.28
254.819	3.29
255.2	3.85
255.581	3.19
255.962	2.92
256.343	4.44
256.724	2.02
257.105	3.45
257.486	3.22
257.867	4.62
258.247	2.94
258.628	4.02
259.009	3.04
259.389	1.93
259.77	3
260.15	3.07
260.531	3.72
260.911	3.69
261.292	2.6
261.672	3.26
262.052	3.14
262.432	3.19
262.813	3.24
263.193	3.36
263.573	3.05
263.953	3.23
264.333	4.17
264.713	3.82
265.093	3.66
265.473	3.81
265.853	3.18
266.233	2.72
266.612	3.58
266.992	3.54
267.372	3.35
267.752	3.73
268.131	3.67
268.511	3.49
268.89	3.28
269.27	3.23
269.649	2.55
270.029	3.03
270.408	3.35
270.787	3.11
271.167	3.32
271.546	3.62
271.925	3.87
272.304	3.47
272.683	3.14
273.062	3.61
273.441	3.31
273.82	2.99
274.199	3.29
274.578	2.95
274.957	3.49
275.336	3.2
275.715	2.94
276.093	2.5
276.472	3.7
276.851	3.65
277.229	2.69
277.608	2.81
277.986	3.02
278.365	3.38
278.743	3.17
279.122	2.99
279.5	3.08
279.878	3.28
280.257	3.29
280.635	3.4
281.013	3.64
281.391	3.43
281.769	2.75
282.147	3.02
282.525	3.52
282.903	2.95
283.281	3.01
283.659	3.15
284.037	3.39
284.415	2.52
284.792	2.72
285.17	3
285.548	2.95
285.925	3.13
286.303	2.96
286.68	2.76
287.058	3.74
287.435	3.23
287.813	2.69
288.19	3.19
288.567	2.95
288.945	3.45
289.322	3.74
289.699	2.69
290.076	3.99
290.453	3.55
290.83	3.22
291.207	3.61
291.584	2.98
291.961	2.97
292.338	3.03
292.715	3.34
293.092	3.61
293.469	3.39
293.845	3.4
294.222	3.26
294.599	3.77
294.975	3.87
295.352	3.39
295.728	3.7
296.105	3.72
296.481	3.3
296.858	3.54
297.234	4
297.61	3.55
297.986	3.15
298.363	3.94
298.739	3.75
299.115	3.49
299.491	3.56
299.867	3.7
300.243	3.75
300.619	3.53
300.995	3.73
301.371	4.08
301.746	3.73
302.122	4.08
302.498	3.46
302.874	3.76
303.249	4.03
303.625	3.79
304	4.19
304.376	3.96
304.751	3.5
305.127	3.91
305.502	4.75
305.878	4.26
306.253	3.81
306.628	4.25
307.003	4.34
307.378	4.36
307.754	4.59
308.129	4.72
308.504	4.48
308.879	4.64
309.254	4.7
309.629	4.73
310.003	4.16
310.378	4.99
310.753	4.42
311.128	4.87
311.502	4.35
311.877	4.94
312.252	4.44
312.626	4.76
313.001	4.29
313.375	4.83
313.75	4.84
314.124	4.66
314.498	4.95
314.873	4.81
315.247	4.79
315.621	4.86
315.995	5.29
316.369	5.01
316.743	5.45
317.117	5.29
317.491	4.77
317.865	5.63
318.239	6.04
318.613	5.49
318.987	5.48
319.361	4.77
319.734	5.08
320.108	5.3
320.482	5.52
320.855	5.37
321.229	5.7
321.602	5.3
321.976	5.35
322.349	5.81
322.723	5.17
323.096	5.95
323.469	6.13
323.843	5.87
324.216	6.3
324.589	5.95
324.962	6.58
325.335	6.6
325.708	5.78
326.081	6.21
326.454	6.05
326.827	6.64
327.2	6.3
327.573	6.16
327.945	6.17
328.318	5.68
328.691	5.74
329.063	6.35
329.436	6.12
329.809	6.55
330.181	6.85
330.553	6.63
330.926	6.26
331.298	6.16
331.671	6.43
332.043	5.98
332.415	6.06
332.787	7.32
333.159	6.23
333.532	6.48
333.904	7.12
334.276	6.13
334.648	6.89
335.02	7.36
335.391	6.99
335.763	7.52
336.135	6.94
336.507	6.81
336.879	6.5
337.25	7.11
337.622	6.99
337.993	7.29
338.365	6.81
338.736	7.11
339.108	7.23
339.479	6.81
339.851	7.04
340.222	6.66
340.593	6.1
340.964	6.73
341.336	7.3
341.707	7.06
342.078	7.46
342.449	7.02
342.82	6.99
343.191	6.99
343.562	7.37
343.933	7.39
344.303	7.29
344.674	7.67
345.045	7.66
345.416	7.44
345.786	7.27
346.157	7.8
346.527	7.68
346.898	7.75
347.268	7.52
347.639	7.67
348.009	7.14
348.38	7.82
348.75	7.69
349.12	7.92
349.49	7.77
349.861	7.91
350.231	7.82
350.601	7.4
350.971	8.29
351.341	7.73
351.711	8.29
352.081	7.92
352.45	7.83
352.82	8.17
353.19	8.1
353.56	8.11
353.929	8.09
354.299	8.2
354.669	8.31
355.038	8.22
355.408	8.17
355.777	8.18
356.147	8.2
356.516	7.96
356.885	8.22
357.254	8.4
357.624	8.26
357.993	8.24
358.362	8.49
358.731	8.07
359.1	8.27
359.469	8.5
359.838	8.48
360.207	8.23
360.576	8.63
360.945	8.22
361.314	8.3
361.682	8.34
362.051	8.59
362.42	8.36
362.788	8.6
363.157	8.47
363.525	8.63
363.894	8.56
364.262	8.59
364.631	8.77
364.999	8.74
365.367	8.64
365.735	8.91
366.104	8.76
366.472	8.83
366.84	9.02
367.208	8.96
367.576	8.99
367.944	8.99
368.312	9.42
368.68	9.38
369.048	9.11
369.416	9.38
369.783	9.35
370.151	8.85
370.519	8.82
370.886	9.18
371.254	9.35
371.621	9.49
371.989	9.2
372.356	9.24
372.724	9.54
373.091	9.31
373.458	9.03
373.826	9.56
374.193	9.49
374.56	9.43
374.927	9.25
375.294	9.91
375.661	9.64
376.028	10.12
376.395	9.79
376.762	9.9
377.129	9.8
377.496	9.68
377.863	10.01
378.229	9.79
378.596	9.83
378.963	9.8
379.329	10.17
379.696	9.88
380.062	9.97
380.429	9.9
380.795	9.76
381.161	9.86
381.528	10.21
381.894	10.06
382.26	10.42
382.626	10.47
382.993	10.23
383.359	10.14
383.725	10.31
384.091	10.2
384.457	10.45
384.823	10.27
385.188	10.75
385.554	10.49
385.92	10.6
386.286	10.79
386.651	10.22
387.017	10.81
387.383	10.41
387.748	10.51
388.114	10.39
388.479	10.5
388.845	10.81
389.21	10.58
389.575	10.31
389.94	10.68
390.306	10.44
390.671	10.58
391.036	10.76
391.401	11.24
391.766	11.05
392.131	10.59
392.496	11.04
392.861	10.97
393.226	10.89
393.591	10.83
393.956	10.95
394.32	11.17
394.685	10.73
395.05	11.38
395.414	11.29
395.779	10.97
396.143	10.97
396.508	11.27
396.872	11.36
397.236	11.13
397.601	11.37
397.965	11.22
398.329	11.39
398.694	11.38
399.058	10.99
399.422	11.58
399.786	11.3
400.15	11.37
400.514	11.51
400.878	11.92
401.242	11.76
401.605	11.76
401.969	11.54
402.333	11.57
402.697	11.78
403.06	11.82
403.424	12
403.787	11.66
404.151	11.58
404.514	11.95
404.878	12.15
405.241	11.89
405.604	11.82
405.968	11.89
406.331	11.92
406.694	12.01
407.057	11.9
407.42	12.23
407.783	12.1
408.146	11.94
408.509	11.81
408.872	12.12
409.235	12.12
409.598	12.31
409.961	12.59
410.323	12.47
410.686	12.31
411.049	12.48
411.411	12.25
411.774	12.39
412.136	12.57
412.499	12.52
412.861	12.85
413.223	12.44
413.586	12.67
413.948	12.6
414.31	12.68
414.672	12.69
415.035	12.43
415.397	12.84
415.759	12.84
416.121	12.92
416.483	13.17
416.845	13.01
417.206	12.61
417.568	12.85
417.93	12.94
418.292	12.85
418.653	13.04
419.015	12.98
419.377	12.8
419.738	13.02
420.1	12.86
420.461	13.06
420.822	13.02
421.184	12.94
421.545	13.06
421.906	12.99
422.267	13
422.629	12.95
422.99	12.88
423.351	12.93
423.712	13.05
424.073	13.05
424.434	13.15
424.795	13.16
425.155	13.21
425.516	13.27
425.877	13.18
426.238	13.08
426.598	13.29
426.959	13.23
427.32	13.36
427.68	13.46
428.041	13.49
428.401	13.49
428.761	13.55
429.122	13.68
429.482	13.75
429.842	13.79
430.202	13.81
430.563	13.73
430.923	13.89
431.283	13.83
431.643	14.04
432.003	14.18
432.363	13.95
432.722	14.2
433.082	14.2
433.442	14.01
433.802	14.32
434.161	14.13
434.521	14.21
434.881	14.27
435.24	14.18
435.6	13.99
435.959	14.25
436.319	14.12
436.678	14.31
437.037	14.3
437.396	14.5
437.756	14.56
438.115	14.35
438.474	14.49
438.833	14.46
439.192	14.73
439.551	14.37
439.91	14.51
440.269	14.8
440.628	14.59
440.987	14.61
441.345	14.69
441.704	14.76
442.063	14.68
442.421	14.68
442.78	14.58
443.138	14.77
443.497	14.82
443.855	14.86
444.214	14.8
444.572	14.98
444.93	15.18
445.288	15.16
445.647	15.26
446.005	14.85
446.363	15.31
446.721	15.04
447.079	15.33
447.437	15.17
447.795	14.99
448.153	15.06
448.51	15.04
448.868	15.05
449.226	15.03
449.584	15.11
449.941	15.26
450.299	15.47
450.656	15.35
451.014	15.48
451.371	15.47
451.729	15.55
452.086	15.51
452.443	15.68
452.801	15.71
453.158	15.63
453.515	15.78
453.872	15.86
454.229	15.99
454.586	16.05
454.943	15.82
455.3	15.92
455.657	16.04
456.014	16.03
456.371	16.19
456.727	16.06
457.084	16.01
457.441	16.12
457.797	16.27
458.154	16.06
458.51	16.33
458.867	16.28
459.223	16.4
459.58	16.33
459.936	16.43
460.292	16.33
460.648	16.19
461.005	16.29
461.361	16.39
461.717	16.14
462.073	16.2
462.429	16.23
462.785	16.36
463.141	16.44
463.496	16.45
463.852	16.88
464.208	16.87
464.564	16.79
464.919	16.78
465.275	16.93
465.631	17.04
465.986	16.99
466.342	16.9
466.697	17.04
467.052	17.05
467.408	16.92
467.763	17.32
468.118	17.29
468.473	17.17
468.829	17.05
469.184	17.21
469.539	17.19
469.894	17.29
470.249	17.24
470.603	17.32
470.958	17.48
471.313	17.45
471.668	17.67
472.023	17.63
472.377	17.57
472.732	17.65
473.086	17.44
473.441	17.59
473.795	17.83
474.15	17.7
474.504	17.77
474.859	17.94
475.213	17.89
475.567	17.96
475.921	17.84
476.275	17.91
476.63	18.04
476.984	18.29
477.338	18.04
477.692	17.98
478.045	18.08
478.399	18.1
478.753	18.26
479.107	18.15
479.461	18.15
479.814	18.4
480.168	18.12
480.521	18.49
480.875	18.33
481.228	18.45
481.582	18.33
481.935	18.5
482.289	18.56
482.642	18.41
482.995	18.44
483.348	18.55
483.701	18.48
484.055	18.54
484.408	18.3
484.761	18.25
485.114	18.06
485.466	17.86
485.819	17.72
486.172	17.74
486.525	17.82
486.878	17.92
487.23	18.02
487.583	18.15
487.936	18.28
488.288	18.43
488.641	18.5
488.993	18.41
489.345	18.39
489.698	18.32
490.05	18.35
490.402	18.35
490.754	18.45
491.107	18.57
491.459	18.73
491.811	18.96
492.163	18.95
492.515	19.01
492.866	19.1
493.218	18.91
493.57	18.81
493.922	18.74
494.274	18.86
494.625	18.87
494.977	19.07
495.328	19.29
495.68	19.48
496.031	19.6
496.383	19.69
496.734	19.75
497.086	19.89
497.437	19.91
497.788	19.88
498.139	20.05
498.49	19.87
498.842	19.93
499.193	19.94
499.544	19.93
499.894	19.99
500.245	20.05
500.596	20.2
500.947	20.15
501.298	20.18
501.648	20.25
501.999	20.26
502.35	20.49
502.7	20.57
503.051	20.6
503.401	20.75
503.752	20.71
504.102	20.67
504.452	20.72
504.803	20.65
505.153	20.81
505.503	20.85
505.853	20.8
506.203	20.76
506.553	20.75
506.903	20.92
507.253	20.84
507.603	20.91
507.953	21.07
508.303	20.92
508.652	21.2
509.002	21.25
509.352	21.32
509.701	21.17
510.051	21.12
510.4	21.31
510.75	21.3
511.099	21.18
511.449	21.4
511.798	21.39
512.147	21.18
512.496	21.29
512.846	21.33
513.195	21.54
513.544	21.53
513.893	21.5
514.242	21.56
514.591	21.57
514.939	21.6
515.288	21.71
515.637	21.86
515.986	21.8
516.334	21.66
516.683	21.82
517.032	21.88
517.38	22.04
517.729	22.14
518.077	22.1
518.426	22.24
518.774	22.1
519.122	22.19
519.47	22.15
519.819	22.15
520.167	21.98
520.515	21.76
520.863	21.98
521.211	22.08
521.559	22.08
521.907	22.16
522.255	22.2
522.602	22.45
522.95	22.4
523.298	22.62
523.645	22.56
523.993	22.8
524.341	22.75
524.688	22.78
525.036	22.96
525.383	22.87
525.73	23.08
526.078	22.87
526.425	22.95
526.772	22.97
527.119	22.98
527.466	22.76
527.814	22.77
528.161	22.72
528.508	22.77
528.854	22.87
529.201	22.79
529.548	22.85
529.895	22.93
530.242	22.69
530.588	22.54
530.935	22.54
531.282	22.61
531.628	22.68
531.975	22.67
532.321	22.81
532.667	23.12
533.014	23.28
533.36	23.51
533.706	23.57
534.052	23.57
534.399	23.43
534.745	23.47
535.091	23.32
535.437	23.33
535.783	23.29
536.129	23.43
536.474	23.49
536.82	23.75
537.166	23.82
537.512	24
537.857	24.07
538.203	24.12
538.549	24.04
538.894	24.12
539.239	23.97
539.585	24.03
539.93	24.24
540.276	24.5
540.621	24.49
540.966	24.56
541.311	24.78
541.656	24.79
542.001	24.78
542.346	24.65
542.691	24.65
543.036	24.33
543.381	24.19
543.726	24.17
544.071	24.31
544.415	24.38
544.76	24.44
545.105	24.55
545.449	24.68
545.794	24.8
546.138	24.8
546.483	25.08
546.827	25.25
547.171	25.47
547.516	25.36
547.86	25.42
548.204	25.28
548.548	25.39
548.892	25.29
549.236	25.33
549.58	25.55
549.924	25.47
550.268	25.64
550.612	25.78
550.956	25.94
551.3	26.01
551.643	26.04
551.987	26.3
552.33	26.24
552.674	26.38
553.017	26.34
553.361	26.56
553.704	26.63
554.048	26.46
554.391	26.59
554.734	26.47
555.077	26.51
555.42	26.49
555.764	26.46
556.107	26.68
556.45	26.41
556.793	26.74
557.135	27
557.478	26.86
557.821	26.88
558.164	26.92
558.507	27.18
558.849	27.1
559.192	26.98
559.534	27.16
559.877	27.13
560.219	27.34
560.562	27.33
560.904	27.29
561.246	27.57
561.589	27.68
561.931	27.4
562.273	27.61
562.615	27.71
562.957	27.74
563.299	27.51
563.641	27.97
563.983	27.71
564.325	27.49
564.667	27.78
565.008	27.85
565.35	28
565.692	28.02
566.033	28.17
566.375	27.92
566.716	28.17
567.058	28.02
567.399	28.15
567.741	28.16
568.082	28.18
568.423	28.38
568.764	28.24
569.105	28.38
569.447	28.34
569.788	28.24
570.129	28.36
570.47	28.4
570.811	28.59
571.151	28.63
571.492	28.79
571.833	28.99
572.174	28.79
572.514	28.78
572.855	28.93
573.195	29.15
573.536	28.76
573.876	29.12
574.217	28.76
574.557	28.65
574.898	28.96
575.238	29.07
575.578	29.2
575.918	29.02
576.258	29.22
576.598	29.24
576.938	29.23
577.278	29.51
577.618	29.22
577.958	29.2
578.298	29.43
578.638	29.63
578.977	29.74
579.317	29.73
579.657	29.53
579.996	29.8
580.336	30.08
580.675	30.01
581.014	30.02
581.354	29.93
581.693	29.79
582.032	30.11
582.372	30.29
582.711	30.47
583.05	30.49
583.389	30.5
583.728	30.33
584.067	30.61
584.406	30.54
584.745	30.79
585.083	30.65
585.422	30.64
585.761	30.67
586.1	30.61
586.438	30.73
586.777	30.89
587.115	30.72
587.454	30.71
587.792	30.69
588.13	31.15
588.469	31.18
588.807	30.75
589.145	30.94
589.483	30.99
589.821	31.26
590.159	31.43
590.497	31.3
590.835	31.18
591.173	31.37
591.511	31.41
591.849	31.53
592.187	31.33
592.524	31.39
592.862	31.59
593.2	31.78
593.537	31.33
593.875	31.73
594.212	31.53
594.55	31.94
594.887	32
595.224	31.96
595.561	31.99
595.899	31.94
596.236	32.1
596.573	32.01
596.91	32.18
597.247	32.1
597.584	32.21
597.921	31.91
598.258	32.21
598.594	32.19
598.931	32.14
599.268	32.06
599.604	32.41
599.941	32.29
600.277	32.35
600.614	32.43
600.95	32.53
601.287	32.4
601.623	32.77
601.959	32.96
602.296	32.74
602.632	33.11
602.968	32.67
603.304	33.26
603.64	33.03
603.976	32.8
604.312	33.21
604.648	33.24
604.984	33.27
605.319	33.05
605.655	32.81
605.991	33.02
606.326	33.18
606.662	33.07
606.998	33.02
607.333	33.15
607.668	33.08
608.004	33.34
608.339	33.19
608.674	33.58
609.01	33.81
609.345	33.89
609.68	33.78
610.015	33.74
610.35	34.06
610.685	34.15
611.02	33.95
611.355	33.8
611.689	33.8
612.024	33.99
612.359	34.01
612.694	33.87
613.028	34.23
613.363	34.12
613.697	34.4
614.032	34.62
614.366	34.19
614.7	34.59
615.035	34.66
615.369	34.51
615.703	34.3
616.037	34.57
616.371	34.33
616.705	35.07
617.039	34.57
617.373	34.83
617.707	34.95
618.041	34.89
618.375	35.18
618.709	34.9
619.042	35.04
619.376	35.15
619.71	35.12
620.043	34.99
620.377	35.11
620.71	35.41
621.043	35.55
621.377	35.21
621.71	35.14
622.043	35.63
622.376	35.82
622.709	35.57
623.043	35.58
623.376	35.62
623.709	35.86
624.041	35.62
624.374	35.82
624.707	35.75
625.04	35.85
625.373	35.85
625.705	35.86
626.038	36.23
626.37	35.76
626.703	35.96
627.035	35.92
627.368	36.06
627.7	36.26
628.032	35.89
628.365	35.98
628.697	36.55
629.029	36.11
629.361	36.38
629.693	36.12
630.025	36.1
630.357	36.29
630.689	36.39
631.021	36.92
631.353	36.73
631.684	36.45
632.016	36.92
632.348	36.49
632.679	36.74
633.011	36.67
633.342	36.55
633.674	36.82
634.005	37.07
634.336	37.39
634.668	36.84
634.999	37.12
635.33	37.26
635.661	37.17
635.992	36.98
636.323	37.43
636.654	37.49
636.985	37.21
637.316	37.51
637.647	37.71
637.977	37.3
638.308	37.7
638.639	37.48
638.969	37.75
639.3	37.14
639.63	37.79
639.961	37.42
640.291	37.49
640.622	37.9
640.952	38
641.282	38.11
641.612	38.05
641.943	37.88
642.273	37.61
642.603	38.14
642.933	37.94
643.263	38.32
643.592	37.89
643.922	38.51
644.252	38.13
644.582	38.32
644.911	38.13
645.241	39.02
645.571	38.54
645.9	38.52
646.23	38.62
646.559	38.81
646.888	38.82
647.218	39.06
647.547	38.24
647.876	38.71
648.205	39.16
648.534	38.45
648.863	39.55
649.192	39.18
649.521	39.09
649.85	39.05
650.179	38.68
650.508	39.22
650.837	39.53
651.165	39.07
651.494	38.83
651.822	39.37
652.151	39.43
652.479	39.53
652.808	39.66
653.136	39.08
653.465	39.78
653.793	38.86
654.121	39.4
654.449	39.44
654.777	39.87
655.105	39.29
655.433	40.04
655.761	40.25
656.089	39.76
656.417	39.5
656.745	40.16
657.073	39.69
657.4	40.33
657.728	40.26
658.056	39.89
658.383	39.68
658.711	39.36
659.038	40.47
659.365	40.17
659.693	40.34
660.02	40.52
660.347	40.17
660.674	40.11
661.001	39.84
661.329	40.73
661.656	40.31
661.982	40.4
662.309	40.52
662.636	40.56
662.963	40.31
663.29	40.67
663.616	41.18
663.943	40.11
664.27	40.56
664.596	40.42
664.923	40.72
665.249	41.11
665.576	40.5
665.902	40.67
666.228	41.34
666.554	41.49
666.881	40.82
667.207	40.91
667.533	41.08
667.859	41.08
668.185	41.85
668.511	41.26
668.837	42.16
669.162	41.36
669.488	41.64
669.814	41.6
670.139	41.78
670.465	41.43
670.791	42.25
671.116	41.57
671.442	41.02
671.767	41.43
672.092	42.61
672.418	41.24
672.743	41.45
673.068	41.37
