Data from 0265_crown_Reflection__3__177.txt Node

Date: Fri Oct 20 22:04:41 CDT 2023
User: ToomeyLab
Spectrometer: FLMS14357
Trigger mode: 0
Integration Time (sec): 1.000000E-2
Scans to average: 100
Electric dark correction enabled: true
Nonlinearity correction enabled: false
Boxcar width: 0
XAxis mode: Wavelengths
Number of Pixels in Spectrum: 2048
>>>>>Begin Spectral Data<<<<<
189.047	56.31
189.435	56.31
189.823	56.31
190.211	56.08
190.599	59.73
190.987	-12.19
191.375	85.02
191.763	-7518.46
192.151	3993.33
192.538	-51.79
192.926	111.02
193.314	151.93
193.702	204.62
194.089	89.21
194.477	-86.14
194.864	-0.44
195.252	-134.37
195.639	73.51
196.027	36.28
196.414	442.67
196.801	65.52
197.189	95.7
197.576	2375.49
197.963	33.44
198.351	18.8
198.738	33.26
199.125	60.15
199.512	36.38
199.899	48.79
200.286	30.26
200.673	16.3
201.06	77.86
201.447	10.28
201.833	36.77
202.22	39.8
202.607	55.39
202.994	62.79
203.38	-21.58
203.767	30.92
204.154	26.7
204.54	38.62
204.927	0.38
205.313	20.23
205.699	33.81
206.086	15.93
206.472	36.22
206.858	38.93
207.245	-29.92
207.631	16.66
208.017	45.97
208.403	26.2
208.789	24.84
209.175	11.45
209.561	39.95
209.947	30.78
210.333	26.57
210.719	48.08
211.105	12.37
211.491	27.12
211.876	18.87
212.262	34.22
212.648	38.11
213.034	17.26
213.419	-7.05
213.805	17.53
214.19	17.3
214.576	-17.77
214.961	24.4
215.346	33.04
215.732	41.53
216.117	-18.17
216.502	39.79
216.888	12.61
217.273	35.42
217.658	22.31
218.043	37.71
218.428	-5.01
218.813	9.26
219.198	-2.94
219.583	-1.15
219.968	29.28
220.353	25.01
220.738	30.67
221.122	8.18
221.507	13.06
221.892	-3.38
222.276	9.72
222.661	18.98
223.046	16.52
223.43	8.88
223.815	30.12
224.199	18.87
224.583	9.92
224.968	4.3
225.352	5.51
225.736	10.21
226.121	11.49
226.505	12.18
226.889	8.5
227.273	12.54
227.657	15.78
228.041	10.29
228.425	11.01
228.809	10.38
229.193	6.69
229.577	10.21
229.961	4.45
230.344	7.59
230.728	6.24
231.112	7.66
231.495	6.41
231.879	7.77
232.263	8.6
232.646	6.43
233.03	6.62
233.413	5.44
233.797	6.93
234.18	8.85
234.563	7.68
234.946	7.56
235.33	8.04
235.713	7.11
236.096	9.24
236.479	6.62
236.862	7.97
237.245	6.02
237.628	4.77
238.011	7.12
238.394	6.1
238.777	8.17
239.16	7.89
239.543	9.03
239.925	8.6
240.308	7.14
240.691	6.13
241.073	7.83
241.456	5.82
241.838	7.34
242.221	6.48
242.603	6.88
242.986	6.65
243.368	6.64
243.75	5.69
244.133	6.33
244.515	6.04
244.897	6.24
245.279	6.26
245.661	5.96
246.043	5.73
246.425	6.24
246.807	6.56
247.189	5.93
247.571	5.77
247.953	6.22
248.335	6.67
248.717	5.95
249.098	5.73
249.48	5.89
249.862	6.21
250.243	6.13
250.625	6.27
251.006	6.53
251.388	6.3
251.769	6.56
252.151	6.42
252.532	6.83
252.913	6
253.295	5.75
253.676	6
254.057	6.09
254.438	6.46
254.819	5.71
255.2	5.97
255.581	5.37
255.962	6.13
256.343	6.85
256.724	4.89
257.105	6.74
257.486	6.8
257.867	6.6
258.247	5.35
258.628	5.9
259.009	4.89
259.389	6.06
259.77	5.67
260.15	6
260.531	5.95
260.911	6.14
261.292	5.59
261.672	5.9
262.052	5.78
262.432	5.62
262.813	5.73
263.193	5.78
263.573	5.61
263.953	6.03
264.333	6.02
264.713	5.66
265.093	5.92
265.473	6.04
265.853	5.43
266.233	6.09
266.612	6.14
266.992	5.6
267.372	6.34
267.752	6.15
268.131	5.92
268.511	6.06
268.89	5.5
269.27	5.5
269.649	5.31
270.029	5.28
270.408	5.75
270.787	5.25
271.167	5.66
271.546	5.63
271.925	6.02
272.304	5.89
272.683	5.45
273.062	5.39
273.441	5.53
273.82	5.71
274.199	5.34
274.578	5.68
274.957	5.62
275.336	5.45
275.715	5.23
276.093	5.43
276.472	5.44
276.851	5.71
277.229	5.63
277.608	4.79
277.986	4.73
278.365	5.94
278.743	5.14
279.122	5.23
279.5	5.26
279.878	4.96
280.257	5.74
280.635	5.35
281.013	5.65
281.391	5.96
281.769	5.32
282.147	4.92
282.525	5.55
282.903	4.93
283.281	5.19
283.659	5.28
284.037	5.44
284.415	4.39
284.792	5.22
285.17	5.29
285.548	4.85
285.925	5.2
286.303	4.86
286.68	4.7
287.058	5.51
287.435	5.22
287.813	4.37
288.19	5.28
288.567	4.86
288.945	5.25
289.322	5.48
289.699	4.46
290.076	5.64
290.453	5.46
290.83	4.98
291.207	5.2
291.584	4.85
291.961	4.98
292.338	4.67
292.715	5.06
293.092	5.01
293.469	5.26
293.845	4.98
294.222	5.38
294.599	4.85
294.975	5.57
295.352	5.29
295.728	5.48
296.105	5.06
296.481	5.07
296.858	5.21
297.234	5.05
297.61	4.77
297.986	4.87
298.363	4.96
298.739	5.11
299.115	4.98
299.491	5.16
299.867	4.9
300.243	5.01
300.619	5.05
300.995	4.89
301.371	5.04
301.746	5.17
302.122	4.94
302.498	4.88
302.874	4.69
303.249	4.52
303.625	5.15
304	4.94
304.376	5.09
304.751	4.42
305.127	4.36
305.502	5.23
305.878	4.88
306.253	5.28
306.628	4.82
307.003	5.04
307.378	5.08
307.754	4.77
308.129	5.2
308.504	4.86
308.879	5.61
309.254	5.21
309.629	4.62
310.003	4.37
310.378	5.04
310.753	4.98
311.128	5.14
311.502	4.83
311.877	5.24
312.252	4.61
312.626	4.87
313.001	5.06
313.375	4.8
313.75	4.73
314.124	4.48
314.498	4.71
314.873	4.79
315.247	4.81
315.621	4.76
315.995	4.96
316.369	4.63
316.743	5.02
317.117	5.26
317.491	4.35
317.865	4.84
318.239	4.56
318.613	5.08
318.987	4.53
319.361	4.72
319.734	3.97
320.108	4.53
320.482	5.33
320.855	5.07
321.229	5.34
321.602	4.65
321.976	4.64
322.349	5.22
322.723	4.64
323.096	5.19
323.469	5.09
323.843	4.77
324.216	4.82
324.589	5.47
324.962	4.94
325.335	4.96
325.708	4.58
326.081	5.15
326.454	4.68
326.827	5.46
327.2	5.33
327.573	4.64
327.945	4.46
328.318	4.54
328.691	4.69
329.063	5.14
329.436	4.75
329.809	4.76
330.181	4.85
330.553	5.07
330.926	4.46
331.298	4.53
331.671	4.81
332.043	4.21
332.415	4.63
332.787	4.96
333.159	4.52
333.532	4.96
333.904	4.99
334.276	4.58
334.648	5.34
335.02	5.08
335.391	4.41
335.763	5.28
336.135	4.63
336.507	4.97
336.879	4.86
337.25	4.75
337.622	5.04
337.993	4.82
338.365	4.86
338.736	4.63
339.108	4.99
339.479	4.63
339.851	5.1
340.222	4.73
340.593	4.38
340.964	4.73
341.336	5.11
341.707	4.71
342.078	5.25
342.449	4.8
342.82	4.51
343.191	4.55
343.562	4.59
343.933	4.94
344.303	4.53
344.674	4.97
345.045	4.95
345.416	4.71
345.786	4.29
346.157	4.72
346.527	4.93
346.898	4.59
347.268	4.77
347.639	4.92
348.009	4.72
348.38	5.01
348.75	4.98
349.12	4.97
349.49	4.49
349.861	5.09
350.231	4.82
350.601	5.01
350.971	4.76
351.341	4.85
351.711	5.38
352.081	4.7
352.45	4.74
352.82	4.87
353.19	5
353.56	4.97
353.929	4.98
354.299	4.86
354.669	4.75
355.038	5.2
355.408	5.24
355.777	4.54
356.147	4.54
356.516	4.98
356.885	4.82
357.254	5.09
357.624	4.96
357.993	4.95
358.362	4.71
358.731	4.66
359.1	4.54
359.469	4.44
359.838	4.77
360.207	4.52
360.576	4.96
360.945	4.69
361.314	4.76
361.682	4.66
362.051	4.85
362.42	4.64
362.788	4.96
363.157	4.71
363.525	4.61
363.894	4.84
364.262	4.61
364.631	4.96
364.999	4.75
365.367	4.89
365.735	4.82
366.104	4.7
366.472	4.8
366.84	4.87
367.208	4.62
367.576	4.84
367.944	5.08
368.312	4.75
368.68	5.09
369.048	4.85
369.416	5
369.783	5.04
370.151	4.63
370.519	4.66
370.886	5.01
371.254	4.89
371.621	5.03
371.989	4.56
372.356	4.82
372.724	5.49
373.091	5.13
373.458	4.95
373.826	4.74
374.193	4.82
374.56	5.06
374.927	5.17
375.294	4.94
375.661	4.98
376.028	5.24
376.395	5.12
376.762	4.69
377.129	4.88
377.496	4.73
377.863	5.21
378.229	5.12
378.596	5.2
378.963	4.94
379.329	5.13
379.696	5.26
380.062	4.91
380.429	5.15
380.795	4.98
381.161	4.75
381.528	5.41
381.894	4.76
382.26	4.94
382.626	5.33
382.993	4.99
383.359	5.28
383.725	5.02
384.091	5.06
384.457	4.79
384.823	5.02
385.188	5.42
385.554	5.01
385.92	4.95
386.286	5.3
386.651	4.61
387.017	5.37
387.383	5.09
387.748	4.74
388.114	4.84
388.479	5.33
388.845	5.31
389.21	4.77
389.575	4.56
389.94	4.96
390.306	5.17
390.671	5.32
391.036	5.18
391.401	5.02
391.766	4.99
392.131	4.86
392.496	5.23
392.861	5.13
393.226	5.15
393.591	4.98
393.956	4.97
394.32	5.38
394.685	4.89
395.05	5.41
395.414	5.28
395.779	5.07
396.143	5.08
396.508	5.07
396.872	5.15
397.236	4.87
397.601	5.09
397.965	5.01
398.329	4.97
398.694	5.26
399.058	4.98
399.422	5.15
399.786	5.18
400.15	4.98
400.514	5.09
400.878	5.27
401.242	5.45
401.605	5.27
401.969	5.03
402.333	5.28
402.697	5.35
403.06	5.27
403.424	5.03
403.787	4.99
404.151	5.05
404.514	5.16
404.878	5.27
405.241	5.36
405.604	5.1
405.968	5.2
406.331	5.03
406.694	5.22
407.057	5.12
407.42	5.48
407.783	5.36
408.146	5.17
408.509	5.2
408.872	5.33
409.235	5.17
409.598	5.08
409.961	5.42
410.323	5.26
410.686	5.13
411.049	5.34
411.411	5.22
411.774	5.36
412.136	5.08
412.499	5.28
412.861	5.39
413.223	5.52
413.586	5.36
413.948	5.29
414.31	5.41
414.672	5.15
415.035	5.31
415.397	5.3
415.759	5.43
416.121	5.34
416.483	5.35
416.845	5.19
417.206	5.39
417.568	5.26
417.93	5.37
418.292	5.21
418.653	5.23
419.015	5.14
419.377	5.24
419.738	5.15
420.1	5.03
420.461	5.25
420.822	5.24
421.184	5.31
421.545	5.28
421.906	5.27
422.267	5.18
422.629	5.28
422.99	5.1
423.351	5.2
423.712	5.14
424.073	5.23
424.434	5.14
424.795	5.24
425.155	5.32
425.516	5.28
425.877	5.25
426.238	5.1
426.598	5.36
426.959	5.11
427.32	5.27
427.68	5.26
428.041	5.22
428.401	5.34
428.761	5.33
429.122	5.42
429.482	5.37
429.842	5.38
430.202	5.33
430.563	5.44
430.923	5.45
431.283	5.4
431.643	5.45
432.003	5.48
432.363	5.4
432.722	5.61
433.082	5.51
433.442	5.3
433.802	5.48
434.161	5.34
434.521	5.45
434.881	5.52
435.24	5.44
435.6	5.37
435.959	5.3
436.319	5.46
436.678	5.5
437.037	5.42
437.396	5.54
437.756	5.53
438.115	5.4
438.474	5.35
438.833	5.49
439.192	5.24
439.551	5.38
439.91	5.24
440.269	5.57
440.628	5.56
440.987	5.29
441.345	5.38
441.704	5.49
442.063	5.32
442.421	5.42
442.78	5.41
443.138	5.46
443.497	5.51
443.855	5.5
444.214	5.39
444.572	5.41
444.93	5.58
445.288	5.59
445.647	5.78
446.005	5.23
446.363	5.43
446.721	5.49
447.079	5.64
447.437	5.51
447.795	5.33
448.153	5.43
448.51	5.4
448.868	5.39
449.226	5.39
449.584	5.4
449.941	5.38
450.299	5.54
450.656	5.47
451.014	5.48
451.371	5.49
451.729	5.35
452.086	5.56
452.443	5.55
452.801	5.54
453.158	5.58
453.515	5.59
453.872	5.62
454.229	5.69
454.586	5.57
454.943	5.51
455.3	5.48
455.657	5.6
456.014	5.47
456.371	5.67
456.727	5.59
457.084	5.73
457.441	5.57
457.797	5.58
458.154	5.55
458.51	5.61
458.867	5.63
459.223	5.66
459.58	5.6
459.936	5.55
460.292	5.52
460.648	5.47
461.005	5.45
461.361	5.65
461.717	5.44
462.073	5.52
462.429	5.58
462.785	5.53
463.141	5.72
463.496	5.63
463.852	5.54
464.208	5.67
464.564	5.77
464.919	5.59
465.275	5.7
465.631	5.8
465.986	5.73
466.342	5.72
466.697	5.65
467.052	5.74
467.408	5.66
467.763	5.77
468.118	5.89
468.473	5.81
468.829	5.62
469.184	5.71
469.539	5.75
469.894	5.74
470.249	5.76
470.603	5.88
470.958	5.72
471.313	5.88
471.668	5.87
472.023	5.75
472.377	5.8
472.732	5.59
473.086	5.72
473.441	5.88
473.795	5.98
474.15	5.6
474.504	5.6
474.859	5.73
475.213	5.9
475.567	5.79
475.921	5.85
476.275	5.84
476.63	5.95
476.984	5.87
477.338	5.78
477.692	5.8
478.045	5.79
478.399	5.74
478.753	5.82
479.107	5.85
479.461	5.75
479.814	5.94
480.168	5.86
480.521	5.93
480.875	5.9
481.228	5.96
481.582	5.91
481.935	5.82
482.289	5.85
482.642	5.86
482.995	5.85
483.348	5.77
483.701	5.63
484.055	5.82
484.408	5.71
484.761	5.71
485.114	5.61
485.466	5.59
485.819	5.53
486.172	5.47
486.525	5.44
486.878	5.47
487.23	5.46
487.583	5.56
487.936	5.6
488.288	5.72
488.641	5.72
488.993	5.59
489.345	5.69
489.698	5.61
490.05	5.57
490.402	5.55
490.754	5.61
491.107	5.55
491.459	5.7
491.811	5.67
492.163	5.66
492.515	5.74
492.866	5.84
493.218	5.71
493.57	5.71
493.922	5.63
494.274	5.65
494.625	5.6
494.977	5.64
495.328	5.81
495.68	5.86
496.031	5.76
496.383	5.85
496.734	5.87
497.086	5.87
497.437	5.92
497.788	5.91
498.139	6.02
498.49	5.82
498.842	5.92
499.193	5.91
499.544	5.92
499.894	5.85
500.245	5.81
500.596	5.98
500.947	6
501.298	5.88
501.648	5.92
501.999	6.04
502.35	5.97
502.7	6.11
503.051	6.06
503.401	6.04
503.752	6.19
504.102	6.16
504.452	5.89
504.803	6
505.153	6
505.503	6.06
505.853	6.06
506.203	5.89
506.553	6.01
506.903	6.06
507.253	6.05
507.603	5.96
507.953	6.02
508.303	5.8
508.652	5.97
509.002	6.03
509.352	6.07
509.701	5.99
510.051	6
510.4	6.11
510.75	6.01
511.099	5.98
511.449	6
511.798	6
512.147	5.92
512.496	6.03
512.846	5.98
513.195	6.1
513.544	6.07
513.893	5.96
514.242	5.96
514.591	6.05
514.939	5.96
515.288	5.84
515.637	5.94
515.986	6.04
516.334	6.07
516.683	6.13
517.032	5.9
517.38	5.91
517.729	6.05
518.077	6.18
518.426	6.04
518.774	6.03
519.122	6.06
519.47	6.1
519.819	6.05
520.167	5.92
520.515	6
520.863	6.1
521.211	6.01
521.559	6.02
521.907	5.99
522.255	6.01
522.602	6.18
522.95	6.04
523.298	6.03
523.645	6.05
523.993	6
524.341	6.09
524.688	6.17
525.036	6.26
525.383	6.02
525.73	6.11
526.078	6.09
526.425	6.21
526.772	6.07
527.119	6.11
527.466	6.06
527.814	6.09
528.161	6.03
528.508	5.94
528.854	6.01
529.201	5.99
529.548	6.09
529.895	5.99
530.242	6.01
530.588	5.86
530.935	5.89
531.282	5.85
531.628	5.89
531.975	5.84
532.321	5.87
532.667	5.97
533.014	6.06
533.36	6.08
533.706	6.09
534.052	6.08
534.399	6.01
534.745	6.03
535.091	6.01
535.437	6.07
535.783	6.02
536.129	5.99
536.474	6.03
536.82	6.1
537.166	6.06
537.512	6.07
537.857	6.22
538.203	6.19
538.549	6.14
538.894	6.11
539.239	6.08
539.585	6.07
539.93	6.13
540.276	6.28
540.621	6.3
540.966	6.3
541.311	6.29
541.656	6.25
542.001	6.2
542.346	6.22
542.691	6.21
543.036	6.15
543.381	6.05
543.726	6.11
544.071	6.01
544.415	6
544.76	6.03
545.105	6.13
545.449	6.1
545.794	6.28
546.138	6.09
546.483	6.11
546.827	6.25
547.171	6.29
547.516	6.25
547.86	6.25
548.204	6.21
548.548	6.22
548.892	6.17
549.236	6.24
549.58	6.12
549.924	6.15
550.268	6.33
550.612	6.42
550.956	6.53
551.3	6.32
551.643	6.25
551.987	6.38
552.33	6.48
552.674	6.52
553.017	6.43
553.361	6.32
553.704	6.49
554.048	6.41
554.391	6.54
554.734	6.53
555.077	6.43
555.42	6.31
555.764	6.2
556.107	6.48
556.45	6.45
556.793	6.32
557.135	6.35
557.478	6.25
557.821	6.47
558.164	6.61
558.507	6.29
558.849	6.5
559.192	6.44
559.534	6.56
559.877	6.4
560.219	6.62
560.562	6.47
560.904	6.27
561.246	6.62
561.589	6.33
561.931	6.45
562.273	6.58
562.615	6.52
562.957	6.36
563.299	6.62
563.641	6.55
563.983	6.3
564.325	6.26
564.667	6.52
565.008	6.35
565.35	6.43
565.692	6.64
566.033	6.56
566.375	6.51
566.716	6.52
567.058	6.63
567.399	6.61
567.741	6.32
568.082	6.44
568.423	6.44
568.764	6.55
569.105	6.6
569.447	6.46
569.788	6.46
570.129	6.52
570.47	6.5
570.811	6.66
571.151	6.49
571.492	6.73
571.833	6.54
572.174	6.7
572.514	6.62
572.855	6.53
573.195	6.52
573.536	6.39
573.876	6.61
574.217	6.43
574.557	6.51
574.898	6.39
575.238	6.4
575.578	6.61
575.918	6.45
576.258	6.53
576.598	6.57
576.938	6.58
577.278	6.52
577.618	6.46
577.958	6.56
578.298	6.57
578.638	6.69
578.977	6.59
579.317	6.67
579.657	6.64
579.996	6.77
580.336	6.51
580.675	6.58
581.014	6.65
581.354	6.41
581.693	6.69
582.032	6.72
582.372	6.54
582.711	6.76
583.05	6.95
583.389	6.68
583.728	6.8
584.067	7.03
584.406	6.66
584.745	6.53
585.083	6.75
585.422	6.45
585.761	6.76
586.1	6.85
586.438	6.5
586.777	6.63
587.115	6.76
587.454	6.7
587.792	6.61
588.13	6.78
588.469	6.75
588.807	6.45
589.145	6.68
589.483	6.6
589.821	6.65
590.159	6.67
590.497	6.7
590.835	6.73
591.173	6.75
591.511	6.82
591.849	6.55
592.187	6.65
592.524	6.44
592.862	6.58
593.2	6.78
593.537	6.62
593.875	6.63
594.212	6.73
594.55	6.71
594.887	6.79
595.224	6.63
595.561	6.56
595.899	6.52
596.236	6.98
596.573	6.79
596.91	6.68
597.247	6.71
597.584	6.83
597.921	6.78
598.258	6.81
598.594	6.92
598.931	6.67
599.268	6.62
599.604	6.79
599.941	6.64
600.277	6.53
600.614	6.66
600.95	6.71
601.287	6.79
601.623	6.74
601.959	6.84
602.296	6.67
602.632	6.77
602.968	6.57
603.304	7.02
603.64	6.62
603.976	6.8
604.312	6.85
604.648	6.86
604.984	6.83
605.319	6.76
605.655	6.75
605.991	6.7
606.326	6.85
606.662	6.69
606.998	6.54
607.333	6.68
607.668	6.56
608.004	6.76
608.339	6.64
608.674	6.92
609.01	6.76
609.345	6.98
609.68	6.98
610.015	6.79
610.35	6.89
610.685	6.77
611.02	6.61
611.355	6.51
611.689	6.8
612.024	6.73
612.359	6.99
612.694	6.99
613.028	7.04
613.363	6.76
613.697	6.76
614.032	6.83
614.366	6.84
614.7	6.94
615.035	6.95
615.369	6.97
615.703	6.58
616.037	6.86
616.371	7.07
616.705	6.87
617.039	7.01
617.373	6.86
617.707	6.84
618.041	7.04
618.375	6.69
618.709	6.88
619.042	6.76
619.376	7.35
619.71	7.46
620.043	7.23
620.377	6.76
620.71	6.94
621.043	6.94
621.377	6.77
621.71	6.9
622.043	6.87
622.376	7.25
622.709	6.95
623.043	7.07
623.376	6.99
623.709	6.6
624.041	7.06
624.374	7.25
624.707	6.69
625.04	7.2
625.373	7.3
625.705	6.83
626.038	7.14
626.37	6.71
626.703	6.62
627.035	6.69
627.368	6.89
627.7	7.27
628.032	6.95
628.365	7.04
628.697	6.89
629.029	7.01
629.361	6.94
629.693	6.91
630.025	7.2
630.357	6.78
630.689	6.94
631.021	6.98
631.353	7.11
631.684	7.16
632.016	6.93
632.348	7.19
632.679	6.86
633.011	6.98
633.342	6.91
633.674	6.69
634.005	7.18
634.336	7.28
634.668	6.95
634.999	7.29
635.33	6.91
635.661	7.42
635.992	7.17
636.323	7.32
636.654	7.15
636.985	7.22
637.316	6.87
637.647	7.23
637.977	6.95
638.308	7.09
638.639	7.27
638.969	7.1
639.3	6.7
639.63	7.62
639.961	7.05
640.291	7.16
640.622	7.31
640.952	7.46
641.282	7.01
641.612	7.31
641.943	7.04
642.273	7.25
642.603	7.39
642.933	7.52
643.263	7.08
643.592	6.79
643.922	7.36
644.252	7.01
644.582	7.2
644.911	7.36
645.241	7.66
645.571	7.96
645.9	7.3
646.23	7.59
646.559	7.41
646.888	7.16
647.218	7.06
647.547	6.79
647.876	7.55
648.205	7.44
648.534	7.24
648.863	7.51
649.192	7.02
649.521	7.71
649.85	7.38
650.179	7.11
650.508	7.28
650.837	7.44
651.165	7.71
651.494	7.42
651.822	7.43
652.151	7.66
652.479	7.11
652.808	7.38
653.136	7.09
653.465	7.87
653.793	7.47
654.121	7.78
654.449	7.56
654.777	7.1
655.105	7.39
655.433	7.99
655.761	7.61
656.089	7.84
656.417	7.51
656.745	7.63
657.073	7.25
657.4	8.26
657.728	7.81
658.056	7.14
658.383	7.73
658.711	7.13
659.038	8
659.365	8
659.693	7.52
660.02	7.64
660.347	7.69
660.674	7.5
661.001	6.85
661.329	7.38
661.656	7.46
661.982	7.21
662.309	7.33
662.636	7.54
662.963	7.52
663.29	7.33
663.616	7.54
663.943	6.9
664.27	7.87
664.596	7.6
664.923	7.29
665.249	7.5
665.576	7.81
665.902	7.27
666.228	7.7
666.554	8.02
666.881	7.07
667.207	7.72
667.533	8.03
667.859	7.67
668.185	8
668.511	7.92
668.837	7.56
669.162	8.02
669.488	7.64
669.814	6.96
670.139	7.7
670.465	7.14
670.791	7.92
671.116	7.54
671.442	7.57
671.767	7.63
672.092	8.11
672.418	8.26
672.743	7.55
673.068	7.82
673.393	7.12
673.718	8.13
674.043	7.84
674.368	7.61
674.693	8.42
675.018	7.97
675.343	6.87
675.667	7.6
675.992	7.59
676.317	7.81
676.641	7.96
676.966	8.24
677.29	8.07
677.615	7.65
677.939	7.77
678.264	7.65
678.588	7.81
678.912	7.88
679.236	8.03
679.56	7.62
679.885	8.04
680.209	8.03
680.532	7.55
680.856	7.63
681.18	8.04
681.504	7.85
681.828	7.6
682.152	8.07
682.475	7.17
682.799	8
683.122	8.16
683.446	7.68
683.769	7.73
684.093	8.09
684.416	8.17
684.739	7.46
685.062	7.55
685.386	8.01
685.709	7.88
686.032	7.94
686.355	8.25
686.678	7.82
687.001	7.94
687.324	8.07
687.646	8.45
687.969	8.43
688.292	7.64
688.614	7.39
688.937	7.79
689.26	8.18
689.582	8.08
689.904	7.75
690.227	7.95
690.549	8.48
690.871	8.2
691.194	7.94
691.516	7.88
691.838	8.56
692.16	8.39
692.482	8.27
692.804	8.42
