Data from 0265_chest_Reflection__0__168.txt Node

Date: Fri Oct 20 22:02:02 CDT 2023
User: ToomeyLab
Spectrometer: FLMS14357
Trigger mode: 0
Integration Time (sec): 1.000000E-2
Scans to average: 100
Electric dark correction enabled: true
Nonlinearity correction enabled: false
Boxcar width: 0
XAxis mode: Wavelengths
Number of Pixels in Spectrum: 2048
>>>>>Begin Spectral Data<<<<<
189.047	4.97
189.435	4.97
189.823	4.97
190.211	53.49
190.599	12.56
190.987	163.65
191.375	92.44
191.763	-2992.31
192.151	19366.67
192.538	-13.2
192.926	92.68
193.314	216.6
193.702	195.55
194.089	78.93
194.477	113.06
194.864	-41.31
195.252	-276.07
195.639	223.18
196.027	60.99
196.414	-49.4
196.801	266.27
197.189	47
197.576	1222.96
197.963	-128.28
198.351	29.7
198.738	11.99
199.125	26.87
199.512	42.03
199.899	23.26
200.286	-38.86
200.673	18.12
201.06	22.38
201.447	12.23
201.833	30.62
202.22	21.74
202.607	55.11
202.994	7.19
203.38	37.71
203.767	26.71
204.154	53.12
204.54	43.68
204.927	20.28
205.313	13.9
205.699	33.4
206.086	7.62
206.472	58.88
206.858	47.65
207.245	64.24
207.631	14.83
208.017	24.26
208.403	-3.95
208.789	27.53
209.175	2.38
209.561	11.04
209.947	9.78
210.333	2.6
210.719	6.18
211.105	31.32
211.491	40.93
211.876	57.99
212.262	16.21
212.648	21.12
213.034	8.5
213.419	-7.66
213.805	26.55
214.19	-5.04
214.576	8.02
214.961	28.85
215.346	16.92
215.732	1.26
216.117	8.17
216.502	2.09
216.888	25.19
217.273	16.54
217.658	8.43
218.043	17.73
218.428	9.02
218.813	15.79
219.198	-1.08
219.583	-9.35
219.968	0.93
220.353	28.21
220.738	13.34
221.122	19.37
221.507	2.93
221.892	8.18
222.276	7.81
222.661	17.34
223.046	14.93
223.43	-6.05
223.815	25.62
224.199	9.4
224.583	-7.11
224.968	-4.52
225.352	-7.48
225.736	3.12
226.121	2.44
226.505	2.48
226.889	-1.76
227.273	-1.14
227.657	10.94
228.041	3.83
228.425	4.83
228.809	5.57
229.193	0.52
229.577	5.5
229.961	-0.37
230.344	1.56
230.728	1.75
231.112	1.41
231.495	0.95
231.879	2.08
232.263	1.97
232.646	0.7
233.03	0.73
233.413	0.42
233.797	2.83
234.18	1.87
234.563	3.24
234.946	3.8
235.33	1.68
235.713	2.64
236.096	3.08
236.479	2.11
236.862	3.16
237.245	1.36
237.628	1.85
238.011	1.14
238.394	-0.24
238.777	2.93
239.16	-0.28
239.543	3.41
239.925	2.05
240.308	1.33
240.691	1.79
241.073	0.96
241.456	2.47
241.838	2.13
242.221	2.68
242.603	2.59
242.986	1.64
243.368	2.37
243.75	2.21
244.133	0.89
244.515	1.28
244.897	1.25
245.279	1.62
245.661	0.85
246.043	0.86
246.425	2.03
246.807	-0.18
247.189	0.68
247.571	1.42
247.953	1.59
248.335	1.66
248.717	1.26
249.098	1.33
249.48	1.24
249.862	1.34
250.243	1.62
250.625	1.67
251.006	1.51
251.388	1.57
251.769	2.45
252.151	1.49
252.532	1.45
252.913	1.63
253.295	0.34
253.676	1.02
254.057	1.22
254.438	1.57
254.819	1.46
255.2	1.57
255.581	1.44
255.962	0.6
256.343	1.69
256.724	0.22
257.105	2.57
257.486	2.03
257.867	1.28
258.247	2.47
258.628	0.95
259.009	0.87
259.389	1.15
259.77	1.36
260.15	1.37
260.531	1.3
260.911	1.31
261.292	1.02
261.672	1.43
262.052	1.49
262.432	1.42
262.813	1.6
263.193	1.77
263.573	1.85
263.953	1.62
264.333	1.93
264.713	1.75
265.093	1.77
265.473	2.04
265.853	0.79
266.233	1.33
266.612	1.88
266.992	1.23
267.372	2.15
267.752	1.55
268.131	2.18
268.511	1.3
268.89	1.66
269.27	1.65
269.649	1.02
270.029	1.31
270.408	1.79
270.787	1.79
271.167	0.51
271.546	1.8
271.925	1.86
272.304	1.89
272.683	1.8
273.062	1.28
273.441	1.69
273.82	1.52
274.199	1.65
274.578	1.38
274.957	2.02
275.336	1.95
275.715	1.95
276.093	1.34
276.472	1.21
276.851	1.79
277.229	2.11
277.608	1.41
277.986	1.11
278.365	1.41
278.743	1.27
279.122	1
279.5	1.47
279.878	1.02
280.257	1.54
280.635	1.84
281.013	1.85
281.391	1.93
281.769	1.38
282.147	1.59
282.525	1.86
282.903	1.43
283.281	1.39
283.659	1.34
284.037	1.64
284.415	0.89
284.792	1.12
285.17	1.52
285.548	1.53
285.925	1.16
286.303	1.36
286.68	1.3
287.058	1.96
287.435	1.9
287.813	1.22
288.19	1.17
288.567	1.55
288.945	1.87
289.322	1.73
289.699	0.57
290.076	2.13
290.453	1.57
290.83	1.34
291.207	1.65
291.584	0.79
291.961	1.29
292.338	1.65
292.715	1.59
293.092	1.53
293.469	1.53
293.845	1.2
294.222	1.36
294.599	1.08
294.975	1.81
295.352	1.46
295.728	1.5
296.105	1.66
296.481	1.64
296.858	1.85
297.234	1.83
297.61	0.99
297.986	1.34
298.363	1.69
298.739	1.76
299.115	1.43
299.491	1.54
299.867	1.49
300.243	1.59
300.619	1.75
300.995	1.45
301.371	1.55
301.746	1.3
302.122	1.59
302.498	1.47
302.874	1.4
303.249	1.44
303.625	1.82
304	2.14
304.376	1.29
304.751	0.8
305.127	1.38
305.502	2.32
305.878	1.19
306.253	2.16
306.628	1.5
307.003	1.98
307.378	1.81
307.754	1.77
308.129	2.14
308.504	1.97
308.879	1.36
309.254	1.6
309.629	1.6
310.003	1.04
310.378	1.92
310.753	1.36
311.128	1.91
311.502	1.75
311.877	1.88
312.252	1.43
312.626	1.98
313.001	2.24
313.375	1.46
313.75	1.77
314.124	1.49
314.498	1.87
314.873	1.21
315.247	1.75
315.621	1.9
315.995	1.81
316.369	1.4
316.743	1.58
317.117	1.73
317.491	1.28
317.865	2.34
318.239	2.34
318.613	1.96
318.987	1.16
319.361	1.39
319.734	1.67
320.108	0.97
320.482	2.19
320.855	2.03
321.229	2.43
321.602	2.05
321.976	1.44
322.349	2.61
322.723	1.45
323.096	1.69
323.469	1.24
323.843	1.76
324.216	1.92
324.589	1.62
324.962	2.73
325.335	2.47
325.708	2.15
326.081	2.36
326.454	2.28
326.827	2.38
327.2	2.11
327.573	1.85
327.945	1.77
328.318	1.64
328.691	1.88
329.063	2.47
329.436	1.48
329.809	2.17
330.181	2.4
330.553	2.14
330.926	2.18
331.298	1.5
331.671	1.73
332.043	2.01
332.415	1.75
332.787	1.99
333.159	1.69
333.532	2.23
333.904	1.96
334.276	1.9
334.648	2.08
335.02	2.06
335.391	1.88
335.763	2.46
336.135	1.9
336.507	2.01
336.879	1.65
337.25	2.4
337.622	2.1
337.993	2.74
338.365	1.44
338.736	2.21
339.108	2.37
339.479	2.25
339.851	2.25
340.222	1.81
340.593	1.46
340.964	1.8
341.336	2.38
341.707	1.83
342.078	2.09
342.449	1.52
342.82	1.85
343.191	1.57
343.562	2.17
343.933	1.5
344.303	1.91
344.674	2.26
345.045	2.36
345.416	2
345.786	1.91
346.157	2.09
346.527	1.89
346.898	1.61
347.268	2.02
347.639	2.3
348.009	1.72
348.38	2.32
348.75	2.14
349.12	1.96
349.49	2
349.861	1.68
350.231	1.98
350.601	1.92
350.971	2.05
351.341	2.09
351.711	2.76
352.081	2.01
352.45	1.98
352.82	1.91
353.19	2.53
353.56	2.46
353.929	1.96
354.299	1.92
354.669	1.91
355.038	2.16
355.408	2.11
355.777	1.83
356.147	1.73
356.516	1.97
356.885	1.99
357.254	1.74
357.624	2.08
357.993	2.17
358.362	1.97
358.731	1.64
359.1	1.49
359.469	2
359.838	2.29
360.207	1.97
360.576	2.19
360.945	1.96
361.314	1.93
361.682	2.12
362.051	1.95
362.42	1.86
362.788	2.03
363.157	2.16
363.525	2.1
363.894	2.12
364.262	1.96
364.631	2.16
364.999	2.09
365.367	2.13
365.735	1.81
366.104	2.15
366.472	2.22
366.84	2.19
367.208	2.45
367.576	2.05
367.944	2.07
368.312	2.12
368.68	2.04
369.048	2.17
369.416	2.47
369.783	2.21
370.151	2.3
370.519	2.46
370.886	2.39
371.254	2.47
371.621	2.24
371.989	2.04
372.356	2.31
372.724	2.45
373.091	2.05
373.458	1.8
373.826	1.97
374.193	1.91
374.56	1.97
374.927	2.17
375.294	2.13
375.661	2.22
376.028	2.24
376.395	2.54
376.762	1.77
377.129	2.14
377.496	2.23
377.863	2.39
378.229	2.37
378.596	2.23
378.963	2.46
379.329	2.25
379.696	2.02
380.062	2.3
380.429	2.08
380.795	2
381.161	2.13
381.528	2.31
381.894	2.3
382.26	2.34
382.626	2.5
382.993	2.15
383.359	2
383.725	2.33
384.091	2.24
384.457	2.32
384.823	2.35
385.188	2.27
385.554	2.2
385.92	2.33
386.286	2.5
386.651	2.22
387.017	2.48
387.383	2.12
387.748	2.16
388.114	1.82
388.479	2.11
388.845	2.66
389.21	2.14
389.575	1.79
389.94	2.2
390.306	2.18
390.671	2.29
391.036	2.1
391.401	2.66
391.766	2.49
392.131	2.35
392.496	2.2
392.861	2.16
393.226	2.28
393.591	2.18
393.956	2.17
394.32	2.36
394.685	2.11
395.05	2.46
395.414	2.45
395.779	2.11
396.143	2.13
396.508	2.22
396.872	2.25
397.236	2.27
397.601	1.89
397.965	2.17
398.329	2.19
398.694	2.32
399.058	1.97
399.422	2.26
399.786	2.03
400.15	2.12
400.514	2.34
400.878	2.5
401.242	2.27
401.605	2.43
401.969	1.96
402.333	2.3
402.697	2.25
403.06	1.99
403.424	2.34
403.787	2.2
404.151	2.47
404.514	2.56
404.878	2.18
405.241	2.32
405.604	2.3
405.968	2.29
406.331	2.2
406.694	2.45
407.057	2.14
407.42	2.58
407.783	2.43
408.146	2.29
408.509	2.23
408.872	2.47
409.235	2.2
409.598	2.31
409.961	2.34
410.323	2.37
410.686	2.11
411.049	2.28
411.411	2.42
411.774	2.58
412.136	2.36
412.499	2.29
412.861	2.28
413.223	2.35
413.586	2.49
413.948	2.4
414.31	2.58
414.672	2.13
415.035	2.24
415.397	2.38
415.759	2.63
416.121	2.38
416.483	2.51
416.845	2.21
417.206	2.16
417.568	2.37
417.93	2.4
418.292	2.26
418.653	2.46
419.015	2.24
419.377	2.28
419.738	2.2
420.1	2.17
420.461	2.28
420.822	2.25
421.184	2.28
421.545	2.3
421.906	2.2
422.267	2.28
422.629	2.28
422.99	2.25
423.351	2.32
423.712	2.25
424.073	2.3
424.434	2.18
424.795	2.2
425.155	2.43
425.516	2.31
425.877	2.36
426.238	2.19
426.598	2.26
426.959	2.24
427.32	2.34
427.68	2.3
428.041	2.28
428.401	2.35
428.761	2.34
429.122	2.4
429.482	2.33
429.842	2.54
430.202	2.26
430.563	2.41
430.923	2.55
431.283	2.43
431.643	2.44
432.003	2.64
432.363	2.28
432.722	2.57
433.082	2.4
433.442	2.41
433.802	2.66
434.161	2.33
434.521	2.4
434.881	2.41
435.24	2.52
435.6	2.4
435.959	2.3
436.319	2.47
436.678	2.55
437.037	2.29
437.396	2.43
437.756	2.54
438.115	2.36
438.474	2.5
438.833	2.59
439.192	2.31
439.551	2.4
439.91	2.52
440.269	2.43
440.628	2.46
440.987	2.52
441.345	2.26
441.704	2.47
442.063	2.5
442.421	2.39
442.78	2.41
443.138	2.52
443.497	2.49
443.855	2.46
444.214	2.42
444.572	2.5
444.93	2.56
445.288	2.55
445.647	2.69
446.005	2.4
446.363	2.41
446.721	2.45
447.079	2.59
447.437	2.48
447.795	2.34
448.153	2.42
448.51	2.48
448.868	2.4
449.226	2.48
449.584	2.48
449.941	2.43
450.299	2.42
450.656	2.36
451.014	2.52
451.371	2.48
451.729	2.4
452.086	2.48
452.443	2.52
452.801	2.42
453.158	2.57
453.515	2.44
453.872	2.47
454.229	2.68
454.586	2.54
454.943	2.67
455.3	2.53
455.657	2.67
456.014	2.41
456.371	2.56
456.727	2.61
457.084	2.58
457.441	2.56
457.797	2.6
458.154	2.49
458.51	2.44
458.867	2.52
459.223	2.5
459.58	2.39
459.936	2.67
460.292	2.6
460.648	2.43
461.005	2.44
461.361	2.54
461.717	2.41
462.073	2.57
462.429	2.39
462.785	2.49
463.141	2.59
463.496	2.56
463.852	2.62
464.208	2.77
464.564	2.64
464.919	2.55
465.275	2.72
465.631	2.75
465.986	2.65
466.342	2.86
466.697	2.66
467.052	2.6
467.408	2.63
467.763	2.77
468.118	2.78
468.473	2.7
468.829	2.74
469.184	2.76
469.539	2.73
469.894	2.66
470.249	2.58
470.603	2.8
470.958	2.63
471.313	2.75
471.668	2.78
472.023	2.73
472.377	2.7
472.732	2.76
473.086	2.73
473.441	2.71
473.795	2.72
474.15	2.71
474.504	2.59
474.859	2.69
475.213	2.94
475.567	2.86
475.921	2.68
476.275	2.63
476.63	2.9
476.984	2.73
477.338	2.79
477.692	2.79
478.045	2.7
478.399	2.8
478.753	2.81
479.107	2.74
479.461	2.68
479.814	2.86
480.168	2.85
480.521	2.88
480.875	2.79
481.228	2.81
481.582	2.77
481.935	2.65
482.289	2.76
482.642	2.81
482.995	2.78
483.348	2.77
483.701	2.79
484.055	2.82
484.408	2.67
484.761	2.66
485.114	2.72
485.466	2.6
485.819	2.55
486.172	2.49
486.525	2.52
486.878	2.6
487.23	2.63
487.583	2.64
487.936	2.67
488.288	2.67
488.641	2.78
488.993	2.69
489.345	2.68
489.698	2.69
490.05	2.59
490.402	2.65
490.754	2.73
491.107	2.71
491.459	2.77
491.811	2.79
492.163	2.75
492.515	2.74
492.866	2.82
493.218	2.77
493.57	2.74
493.922	2.71
494.274	2.72
494.625	2.72
494.977	2.75
495.328	2.87
495.68	2.85
496.031	2.8
496.383	2.91
496.734	2.93
497.086	2.85
497.437	2.96
497.788	2.86
498.139	2.98
498.49	2.85
498.842	2.87
499.193	2.97
499.544	2.92
499.894	2.98
500.245	2.89
500.596	2.97
500.947	3.04
501.298	2.95
501.648	2.94
501.999	2.95
502.35	2.92
502.7	3.02
503.051	2.95
503.401	2.95
503.752	3.18
504.102	3.07
504.452	2.92
504.803	2.91
505.153	3.04
505.503	3.09
505.853	3.15
506.203	3.05
506.553	2.98
506.903	2.98
507.253	3.06
507.603	3.06
507.953	3
508.303	2.96
508.652	3.09
509.002	3.13
509.352	3.07
509.701	3.2
510.051	3.02
510.4	3.11
510.75	3.03
511.099	3.09
511.449	3.18
511.798	3.06
512.147	3.07
512.496	3.15
512.846	3.01
513.195	3.1
513.544	3.12
513.893	2.99
514.242	3.12
514.591	3.18
514.939	3.01
515.288	3
515.637	3.13
515.986	3.24
516.334	3.09
516.683	3.18
517.032	3.17
517.38	3.17
517.729	3.28
518.077	3.28
518.426	3.21
518.774	3.07
519.122	3.13
519.47	3.19
519.819	3.14
520.167	3.16
520.515	3.23
520.863	3.17
521.211	3.18
521.559	3.17
521.907	3.26
522.255	3.15
522.602	3.37
522.95	3.17
523.298	3.29
523.645	3.39
523.993	3.35
524.341	3.34
524.688	3.32
525.036	3.27
525.383	3.23
525.73	3.44
526.078	3.32
526.425	3.44
526.772	3.36
527.119	3.38
527.466	3.33
527.814	3.36
528.161	3.34
528.508	3.24
528.854	3.31
529.201	3.28
529.548	3.32
529.895	3.24
530.242	3.19
530.588	3.12
530.935	3.15
531.282	3.24
531.628	3.3
531.975	3.29
532.321	3.36
532.667	3.35
533.014	3.42
533.36	3.39
533.706	3.4
534.052	3.39
534.399	3.34
534.745	3.33
535.091	3.43
535.437	3.37
535.783	3.38
536.129	3.45
536.474	3.49
536.82	3.56
537.166	3.5
537.512	3.58
537.857	3.59
538.203	3.58
538.549	3.58
538.894	3.5
539.239	3.54
539.585	3.54
539.93	3.59
540.276	3.69
540.621	3.7
540.966	3.74
541.311	3.7
541.656	3.74
542.001	3.72
542.346	3.81
542.691	3.57
543.036	3.66
543.381	3.57
543.726	3.55
544.071	3.53
544.415	3.62
544.76	3.65
545.105	3.81
545.449	3.76
545.794	3.75
546.138	3.71
546.483	3.85
546.827	3.79
547.171	3.92
547.516	3.79
547.86	3.95
548.204	3.8
548.548	3.86
548.892	3.83
549.236	3.86
549.58	3.92
549.924	3.86
550.268	3.93
550.612	4.03
550.956	4.23
551.3	3.91
551.643	3.91
551.987	4.17
552.33	4.11
552.674	4.16
553.017	4.11
553.361	4.09
553.704	4.33
554.048	4.33
554.391	4.19
554.734	4.15
555.077	4.16
555.42	4.09
555.764	4.12
556.107	4.41
556.45	4.23
556.793	4.12
557.135	4.23
557.478	4.19
557.821	4.27
558.164	4.39
558.507	4.39
558.849	4.43
559.192	4.39
559.534	4.5
559.877	4.26
560.219	4.57
560.562	4.54
560.904	4.15
561.246	4.6
561.589	4.48
561.931	4.35
562.273	4.58
562.615	4.63
562.957	4.5
563.299	4.5
563.641	4.73
563.983	4.48
564.325	4.42
564.667	4.51
565.008	4.67
565.35	4.66
565.692	4.53
566.033	4.73
566.375	4.63
566.716	4.68
567.058	4.53
567.399	4.77
567.741	4.7
568.082	4.61
568.423	4.82
568.764	4.56
569.105	4.85
569.447	4.75
569.788	4.81
570.129	4.82
570.47	4.62
570.811	4.74
571.151	4.68
571.492	4.83
571.833	5.05
572.174	4.92
572.514	4.98
572.855	4.8
573.195	5.04
573.536	4.9
573.876	4.94
574.217	4.9
574.557	4.92
574.898	4.86
575.238	4.92
575.578	5.11
575.918	4.89
576.258	5.23
576.598	5.04
576.938	4.88
577.278	5.13
577.618	4.9
577.958	4.94
578.298	5.17
578.638	5.24
578.977	5.22
579.317	5.3
579.657	5.25
579.996	5.35
580.336	5.39
580.675	5.39
581.014	5.37
581.354	5.48
581.693	5.53
582.032	5.64
582.372	5.53
582.711	5.7
583.05	5.68
583.389	5.51
583.728	5.64
584.067	5.81
584.406	5.43
584.745	5.51
585.083	5.67
585.422	5.59
585.761	5.55
586.1	5.79
586.438	5.32
586.777	5.77
587.115	5.88
587.454	5.73
587.792	5.63
588.13	5.92
588.469	5.93
588.807	5.38
589.145	5.81
589.483	5.55
589.821	5.92
590.159	6.03
590.497	6.01
590.835	5.92
591.173	6.01
591.511	5.93
591.849	5.94
592.187	5.86
592.524	5.84
592.862	6.2
593.2	6.2
593.537	5.83
593.875	5.9
594.212	6.34
594.55	6.37
594.887	6.3
595.224	6.12
595.561	6.12
595.899	6.18
596.236	6.03
596.573	6.41
596.91	6.46
597.247	6.25
597.584	5.94
597.921	6.33
598.258	6.62
598.594	6.5
598.931	6.27
599.268	6.3
599.604	6.51
599.941	6.58
600.277	6.28
600.614	6.61
600.95	6.57
601.287	6.62
601.623	6.53
601.959	6.93
602.296	6.77
602.632	6.6
602.968	6.67
603.304	6.86
603.64	6.68
603.976	6.85
604.312	7.27
604.648	6.92
604.984	7.06
605.319	6.81
605.655	6.98
605.991	6.85
606.326	6.91
606.662	6.72
606.998	6.72
607.333	6.81
607.668	6.67
608.004	7.08
608.339	7.01
608.674	7.18
609.01	7.11
609.345	7.28
609.68	7.22
610.015	7.12
610.35	7.13
610.685	7.51
611.02	7.07
611.355	7.14
611.689	7.18
612.024	7.28
612.359	7.29
612.694	7.16
613.028	7.59
613.363	7.41
613.697	7.49
614.032	7.57
614.366	7.58
614.7	7.33
615.035	7.58
615.369	7.77
615.703	7.53
616.037	7.75
616.371	7.87
616.705	7.74
617.039	7.64
617.373	7.81
617.707	8.02
618.041	7.79
618.375	7.39
618.709	7.9
619.042	7.86
619.376	8.27
619.71	8.07
620.043	8.07
620.377	7.92
620.71	8.19
621.043	8.31
621.377	7.95
621.71	8.04
622.043	8.04
622.376	8.05
622.709	7.95
623.043	8.19
623.376	8.06
623.709	8.17
624.041	8.11
624.374	8.38
624.707	7.87
625.04	8.67
625.373	8.4
625.705	8.16
626.038	8.63
626.37	8.05
626.703	8.68
627.035	8.26
627.368	8.43
627.7	8.74
628.032	8.5
628.365	8.67
628.697	8.69
629.029	8.56
629.361	8.69
629.693	8.79
630.025	8.57
630.357	8.8
630.689	8.47
631.021	8.71
631.353	8.85
631.684	8.75
632.016	9.03
632.348	9.3
632.679	8.78
633.011	9.22
633.342	8.67
633.674	9.14
634.005	9.15
634.336	9.52
634.668	9.23
634.999	9.19
635.33	8.9
635.661	9.64
635.992	9.22
636.323	9.51
636.654	9.25
636.985	9.21
637.316	9.38
637.647	9.4
637.977	9.33
638.308	9.38
638.639	9.57
638.969	9.55
639.3	9.34
639.63	9.59
639.961	9.65
640.291	9.3
640.622	9.36
640.952	9.83
641.282	9.61
641.612	9.71
641.943	9.92
642.273	9.56
642.603	10.52
642.933	10.01
643.263	9.94
643.592	9.75
643.922	10.25
644.252	9.81
644.582	9.8
644.911	10.03
645.241	10.47
645.571	10.72
645.9	10.4
646.23	10.22
646.559	10.21
646.888	9.94
647.218	10.41
647.547	9.92
647.876	10.19
648.205	10.76
648.534	10.44
648.863	10.7
649.192	10.19
649.521	10.5
649.85	10.57
650.179	10.07
650.508	10.27
650.837	10.56
651.165	10.9
651.494	10.69
651.822	11.14
652.151	11.31
652.479	10.68
652.808	10.72
653.136	10.29
653.465	11.03
653.793	10.92
654.121	10.9
654.449	10.73
654.777	11.19
655.105	11.18
655.433	11.4
655.761	11.24
656.089	11.04
656.417	11.02
656.745	10.89
657.073	11.39
657.4	11.71
657.728	11.38
658.056	11.74
658.383	11.21
658.711	10.92
659.038	11.69
659.365	11.83
659.693	11.77
660.02	11.7
660.347	11.15
660.674	11.1
661.001	11.33
661.329	11.48
661.656	11.37
661.982	11.25
662.309	11.48
662.636	11.83
662.963	11.72
663.29	11.89
663.616	11.59
663.943	11.55
664.27	11.6
664.596	11.59
664.923	11.87
665.249	12.12
665.576	11.41
665.902	11.62
666.228	11.93
666.554	12.07
666.881	11.84
667.207	11.88
667.533	11.74
667.859	12.43
668.185	12.61
668.511	12.84
668.837	13.04
669.162	12.35
669.488	12.66
669.814	12.01
670.139	12.89
670.465	12.47
670.791	12.53
671.116	12.63
671.442	12.49
671.767	12.53
672.092	12.53
672.418	12.74
672.743	12.48
673.068	12.87
673.393	12.83
673.718	13
674.043	13.05
674.368	12.98
674.693	12.85
675.018	13.16
675.343	13.06
675.667	12.98
675.992	12.71
676.317	13.45
676.641	13.2
676.966	13.44
677.29	13.42
677.615	12.86
677.939	13.01
678.264	12.98
678.588	12.72
678.912	13.85
679.236	13.58
679.56	13
679.885	13.35
680.209	13.08
680.532	13.1
680.856	13.23
681.18	13.89
681.504	13.42
681.828	14.22
682.152	13.95
682.475	13.04
682.799	13.41
683.122	13.75
683.446	13.87
683.769	13.48
684.093	14.22
684.416	14.18
684.739	13.65
685.062	12.91
685.386	13.14
685.709	13.96
686.032	13.58
686.355	14.33
686.678	14.29
687.001	14.12
687.324	13.89
687.646	14.31
687.969	14.41
688.292	14.36
688.614	13.89
688.937	14.77
689.26	14.63
689.582	14.65
689.904	14.2
