Data from 0265_forehead_Reflection__4__183.txt Node

Date: Fri Oct 20 22:06:00 CDT 2023
User: ToomeyLab
Spectrometer: FLMS14357
Trigger mode: 0
Integration Time (sec): 1.000000E-2
Scans to average: 100
Electric dark correction enabled: true
Nonlinearity correction enabled: false
Boxcar width: 0
XAxis mode: Wavelengths
Number of Pixels in Spectrum: 2048
>>>>>Begin Spectral Data<<<<<
189.047	56.44
189.435	56.44
189.823	56.44
190.211	-26.73
190.599	13.5
190.987	-4.66
191.375	81.24
191.763	-5606.15
192.151	16506.67
192.538	206.73
192.926	113
193.314	163.09
193.702	16.03
194.089	127.72
194.477	-90.19
194.864	25.01
195.252	67.55
195.639	292.53
196.027	126.2
196.414	169.42
196.801	228.11
197.189	20.94
197.576	256.81
197.963	-37.63
198.351	67.54
198.738	66.39
199.125	69.69
199.512	56.58
199.899	26.2
200.286	-7.46
200.673	40.51
201.06	122.9
201.447	10.46
201.833	59.37
202.22	11.68
202.607	75.72
202.994	45.95
203.38	50.75
203.767	36.72
204.154	31.38
204.54	63.13
204.927	42.16
205.313	30.05
205.699	72.01
206.086	42.69
206.472	39.52
206.858	51.64
207.245	-18.74
207.631	37.31
208.017	28.81
208.403	9.03
208.789	23.49
209.175	19.62
209.561	48.14
209.947	32.8
210.333	28.33
210.719	23.23
211.105	16.97
211.491	21.83
211.876	-13.8
212.262	26.09
212.648	38.24
213.034	21.34
213.419	-3.48
213.805	9.78
214.19	19.64
214.576	14.77
214.961	10.22
215.346	-4.35
215.732	40.26
216.117	-11.42
216.502	30.43
216.888	10.41
217.273	2.4
217.658	12.33
218.043	19.17
218.428	21.06
218.813	27.12
219.198	23.97
219.583	-9.76
219.968	21.56
220.353	19.88
220.738	7.04
221.122	36.51
221.507	10.12
221.892	5.99
222.276	5.47
222.661	29.41
223.046	19.06
223.43	16.43
223.815	21.52
224.199	22.32
224.583	-9.3
224.968	0.54
225.352	10.59
225.736	9.77
226.121	4.63
226.505	2.05
226.889	7.92
227.273	8.48
227.657	10.02
228.041	12.49
228.425	3.11
228.809	4.95
229.193	2.87
229.577	4.42
229.961	1.88
230.344	3.06
230.728	3.02
231.112	3.72
231.495	2.76
231.879	3.03
232.263	3.31
232.646	2.11
233.03	3
233.413	2.8
233.797	3.05
234.18	3.69
234.563	6.87
234.946	6.02
235.33	5.4
235.713	3.44
236.096	4.68
236.479	3.85
236.862	3.47
237.245	2.17
237.628	4.07
238.011	4.5
238.394	1.96
238.777	4.72
239.16	2.94
239.543	4.55
239.925	5.93
240.308	5.57
240.691	3.78
241.073	4.68
241.456	4.94
241.838	3.21
242.221	3.65
242.603	3.8
242.986	3.85
243.368	3.18
243.75	3.07
244.133	2.42
244.515	2.66
244.897	2.73
245.279	2.67
245.661	2.6
246.043	2.74
246.425	3.01
246.807	2.47
247.189	2.41
247.571	1.96
247.953	3.16
248.335	2.85
248.717	2.54
249.098	2.76
249.48	2.62
249.862	2.82
250.243	3.13
250.625	3.02
251.006	3.21
251.388	3.06
251.769	3.65
252.151	2.67
252.532	3.7
252.913	3.46
253.295	2.47
253.676	2.88
254.057	2.96
254.438	3
254.819	3.55
255.2	3.01
255.581	3.05
255.962	2.66
256.343	3.04
256.724	1.85
257.105	2.74
257.486	3.55
257.867	3.93
258.247	3.88
258.628	2.7
259.009	2.64
259.389	3.13
259.77	2.98
260.15	4.28
260.531	3.42
260.911	3.22
261.292	2.88
261.672	2.82
262.052	3.06
262.432	2.93
262.813	2.9
263.193	2.76
263.573	2.49
263.953	3.11
264.333	3.71
264.713	3.61
265.093	3.14
265.473	3.4
265.853	2.98
266.233	3.04
266.612	3.59
266.992	3.5
267.372	2.88
267.752	3.19
268.131	3.39
268.511	2.95
268.89	3.02
269.27	3.14
269.649	2.67
270.029	3.04
270.408	3.45
270.787	3.28
271.167	3.81
271.546	3.4
271.925	3.77
272.304	3.35
272.683	2.87
273.062	3.01
273.441	3.02
273.82	2.52
274.199	3.02
274.578	3.07
274.957	3.3
275.336	3.26
275.715	3.53
276.093	3.12
276.472	3.33
276.851	2.96
277.229	3.58
277.608	2.7
277.986	2.91
278.365	3.23
278.743	2.68
279.122	2.98
279.5	3.2
279.878	2.57
280.257	3.38
280.635	3.19
281.013	3.53
281.391	3.58
281.769	2.73
282.147	2.53
282.525	3.25
282.903	2.94
283.281	2.97
283.659	2.99
284.037	3.18
284.415	2.44
284.792	3.09
285.17	3.12
285.548	2.89
285.925	2.9
286.303	2.85
286.68	2.46
287.058	3.32
287.435	2.83
287.813	2.38
288.19	3.05
288.567	2.96
288.945	3.29
289.322	2.98
289.699	3.01
290.076	3.71
290.453	3.69
290.83	2.84
291.207	3.74
291.584	2.91
291.961	2.99
292.338	2.95
292.715	3.4
293.092	3.03
293.469	3.33
293.845	3.03
294.222	3.27
294.599	3.39
294.975	3.73
295.352	3.34
295.728	3.68
296.105	3.09
296.481	2.99
296.858	3.5
297.234	3.13
297.61	2.99
297.986	3.41
298.363	3.3
298.739	3.61
299.115	3.47
299.491	3.37
299.867	3.46
300.243	3.62
300.619	3.27
300.995	3.5
301.371	3.94
301.746	3.54
302.122	4.01
302.498	3.36
302.874	3.44
303.249	3.95
303.625	3.84
304	4.59
304.376	3.38
304.751	3.58
305.127	3.21
305.502	4.6
305.878	4.28
306.253	4.11
306.628	3.91
307.003	4.05
307.378	3.86
307.754	3.79
308.129	4.66
308.504	4.59
308.879	4.17
309.254	4.72
309.629	4.35
310.003	3.71
310.378	4.5
310.753	4.34
311.128	4.85
311.502	4.65
311.877	4.73
312.252	4.4
312.626	4.62
313.001	4.55
313.375	4.77
313.75	4.37
314.124	4.38
314.498	4.87
314.873	4.7
315.247	4.76
315.621	5.03
315.995	5.8
316.369	4.93
316.743	5.08
317.117	4.96
317.491	4.57
317.865	5.32
318.239	5.4
318.613	5.36
318.987	5.26
319.361	4.86
319.734	5.16
320.108	4.93
320.482	5.19
320.855	5.61
321.229	5.8
321.602	5.66
321.976	5.3
322.349	6.5
322.723	5.57
323.096	5.99
323.469	6.34
323.843	5.51
324.216	6.2
324.589	5.65
324.962	6.21
325.335	5.95
325.708	5.46
326.081	5.82
326.454	6.43
326.827	6.29
327.2	6.38
327.573	6.2
327.945	6.16
328.318	5.9
328.691	6.07
329.063	6.56
329.436	6.31
329.809	6.34
330.181	6.84
330.553	6.73
330.926	6.51
331.298	6.13
331.671	6.5
332.043	6.24
332.415	6.88
332.787	7.5
333.159	6.37
333.532	7.07
333.904	7.17
334.276	6.47
334.648	6.84
335.02	6.98
335.391	6.32
335.763	7.06
336.135	7.08
336.507	6.84
336.879	6.96
337.25	7.07
337.622	6.9
337.993	7.16
338.365	7.3
338.736	7.15
339.108	7.29
339.479	7.06
339.851	7.36
340.222	6.81
340.593	6.94
340.964	7.21
341.336	7.98
341.707	7.47
342.078	7.37
342.449	7.32
342.82	7.5
343.191	7.78
343.562	7.63
343.933	6.94
344.303	7.58
344.674	7.99
345.045	8.22
345.416	8.21
345.786	7.42
346.157	7.59
346.527	8.07
346.898	7.78
347.268	7.93
347.639	7.8
348.009	7.87
348.38	7.8
348.75	8.03
349.12	7.88
349.49	7.91
349.861	8.45
350.231	7.58
350.601	7.87
350.971	8.34
351.341	7.87
351.711	8.7
352.081	8.5
352.45	8.1
352.82	8.21
353.19	8.34
353.56	8.74
353.929	8.06
354.299	8.28
354.669	8.26
355.038	8.46
355.408	8.43
355.777	8.05
356.147	8.22
356.516	7.96
356.885	8.44
357.254	8.49
357.624	8.44
357.993	8.24
358.362	8.55
358.731	8.23
359.1	8.07
359.469	8.57
359.838	8.58
360.207	8.62
360.576	8.86
360.945	8.66
361.314	8.86
361.682	8.96
362.051	8.54
362.42	8.59
362.788	8.86
363.157	8.71
363.525	8.37
363.894	8.73
364.262	8.6
364.631	8.77
364.999	9.09
365.367	8.92
365.735	8.84
366.104	8.94
366.472	9.02
366.84	9.05
367.208	8.99
367.576	8.84
367.944	9.26
368.312	9.29
368.68	9.31
369.048	9.27
369.416	9.56
369.783	9.57
370.151	9.43
370.519	9.72
370.886	9.96
371.254	9.35
371.621	9.62
371.989	9.38
372.356	9.7
372.724	9.54
373.091	9.68
373.458	9.49
373.826	9.77
374.193	9.33
374.56	9.72
374.927	9.59
375.294	9.99
375.661	9.75
376.028	10.32
376.395	10.46
376.762	9.73
377.129	10.03
377.496	9.6
377.863	10.22
378.229	10.15
378.596	10
378.963	9.86
379.329	10.24
379.696	10.14
380.062	9.96
380.429	9.85
380.795	10.1
381.161	9.92
381.528	10.55
381.894	10.37
382.26	10.61
382.626	10.61
382.993	10.53
383.359	10.4
383.725	10.6
384.091	10.65
384.457	10.63
384.823	10.68
385.188	11.01
385.554	10.88
385.92	10.83
386.286	10.96
386.651	10.56
387.017	11
387.383	10.67
387.748	10.6
388.114	10.65
388.479	10.8
388.845	11.07
389.21	10.76
389.575	10.61
389.94	10.83
390.306	10.75
390.671	10.9
391.036	11
391.401	11.36
391.766	11.32
392.131	11
392.496	11.45
392.861	11.29
393.226	11.24
393.591	11.13
393.956	11.42
394.32	11.46
394.685	11.3
395.05	11.68
395.414	11.84
395.779	11.36
396.143	11.32
396.508	11.46
396.872	11.74
397.236	11.43
397.601	11.58
397.965	11.36
398.329	11.78
398.694	11.69
399.058	11.66
399.422	11.97
399.786	11.86
400.15	11.88
400.514	12.07
400.878	12.16
401.242	12.2
401.605	12.1
401.969	11.91
402.333	12.1
402.697	11.96
403.06	12.25
403.424	12.19
403.787	12.13
404.151	12.19
404.514	12.3
404.878	12.6
405.241	12.28
405.604	12.16
405.968	12.49
406.331	12.23
406.694	12.41
407.057	12.29
407.42	12.64
407.783	12.51
408.146	12.49
408.509	12.61
408.872	12.67
409.235	12.5
409.598	12.69
409.961	12.97
410.323	12.78
410.686	12.42
411.049	13.01
411.411	12.63
411.774	12.8
412.136	12.69
412.499	12.92
412.861	12.97
413.223	12.89
413.586	12.95
413.948	13.1
414.31	13.11
414.672	13.26
415.035	13.27
415.397	13.35
415.759	13.21
416.121	13.29
416.483	13.17
416.845	13.21
417.206	13.4
417.568	13.63
417.93	13.44
418.292	13.28
418.653	13.62
419.015	13.26
419.377	13.33
419.738	13.29
420.1	13.31
420.461	13.29
420.822	13.32
421.184	13.3
421.545	13.45
421.906	13.39
422.267	13.36
422.629	13.45
422.99	13.28
423.351	13.32
423.712	13.49
424.073	13.52
424.434	13.53
424.795	13.43
425.155	13.57
425.516	13.61
425.877	13.63
426.238	13.59
426.598	13.64
426.959	13.56
427.32	13.82
427.68	13.77
428.041	13.89
428.401	14.01
428.761	13.89
429.122	14.15
429.482	14.21
429.842	14
430.202	14.21
430.563	14.26
430.923	14.35
431.283	14.39
431.643	14.7
432.003	14.76
432.363	14.61
432.722	14.65
433.082	14.56
433.442	14.75
433.802	14.77
434.161	14.54
434.521	14.81
434.881	14.68
435.24	14.65
435.6	14.54
435.959	14.66
436.319	14.66
436.678	14.77
437.037	14.79
437.396	15.02
437.756	15.03
438.115	14.95
438.474	15.26
438.833	15.23
439.192	15.15
439.551	15.1
439.91	15
440.269	15.24
440.628	15.14
440.987	15.22
441.345	15.26
441.704	15.24
442.063	15.24
442.421	15.19
442.78	15.12
443.138	15.36
443.497	15.48
443.855	15.43
444.214	15.48
444.572	15.37
444.93	15.67
445.288	15.78
445.647	15.92
446.005	15.66
446.363	15.67
446.721	15.61
447.079	15.88
447.437	15.82
447.795	15.45
448.153	15.55
448.51	15.69
448.868	15.63
449.226	15.64
449.584	15.73
449.941	15.83
450.299	15.97
450.656	15.97
451.014	16.04
451.371	16.14
451.729	16.09
452.086	16.24
452.443	16.33
452.801	16.32
453.158	16.61
453.515	16.54
453.872	16.52
454.229	16.68
454.586	16.53
454.943	16.35
455.3	16.35
455.657	16.62
456.014	16.7
456.371	16.89
456.727	16.99
457.084	16.81
457.441	16.96
457.797	16.85
458.154	16.79
458.51	16.99
458.867	16.86
459.223	17.09
459.58	17.07
459.936	17.08
460.292	17.02
460.648	16.97
461.005	16.94
461.361	17.13
461.717	16.88
462.073	16.89
462.429	16.83
462.785	17.05
463.141	17.24
463.496	17.28
463.852	17.42
464.208	17.53
464.564	17.55
464.919	17.68
465.275	17.78
465.631	17.74
465.986	18.01
466.342	17.71
466.697	17.73
467.052	17.82
467.408	17.75
467.763	18.09
468.118	18
468.473	17.95
468.829	18
469.184	18.15
469.539	18.09
469.894	18.21
470.249	18.17
470.603	18.25
470.958	18.24
471.313	18.38
471.668	18.48
472.023	18.48
472.377	18.48
472.732	18.22
473.086	18.48
473.441	18.59
473.795	18.48
474.15	18.65
474.504	18.44
474.859	18.55
475.213	18.7
475.567	18.72
475.921	18.75
476.275	18.79
476.63	18.86
476.984	19.1
477.338	18.79
477.692	18.96
478.045	18.9
478.399	19.02
478.753	19.15
479.107	19.12
479.461	19.07
479.814	19.09
480.168	19.24
480.521	19.26
480.875	19.25
481.228	19.2
481.582	19.36
481.935	19.27
482.289	19.36
482.642	19.24
482.995	19.34
483.348	19.47
483.701	19.27
484.055	19.47
484.408	19.23
484.761	19.08
485.114	19.03
485.466	18.69
485.819	18.54
486.172	18.5
486.525	18.59
486.878	18.8
487.23	18.86
487.583	19
487.936	19.22
488.288	19.33
488.641	19.4
488.993	19.16
489.345	19.12
489.698	19.14
490.05	19.19
490.402	19.21
490.754	19.24
491.107	19.39
491.459	19.62
491.811	19.91
492.163	19.88
492.515	19.99
492.866	20
493.218	19.74
493.57	19.58
493.922	19.57
494.274	19.76
494.625	19.87
494.977	20
495.328	20.27
495.68	20.35
496.031	20.43
496.383	20.75
496.734	20.87
497.086	20.88
497.437	20.94
497.788	21.07
498.139	21.02
498.49	20.95
498.842	20.85
499.193	20.89
499.544	21.09
499.894	21.03
500.245	20.97
500.596	21.16
500.947	21.21
501.298	21.28
501.648	21.32
501.999	21.29
502.35	21.5
502.7	21.55
503.051	21.76
503.401	21.85
503.752	21.73
504.102	22
504.452	21.88
504.803	21.9
505.153	21.76
505.503	21.88
505.853	22.03
506.203	21.86
506.553	21.97
506.903	22.04
507.253	22.14
507.603	22.28
507.953	22.37
508.303	22.09
508.652	22.25
509.002	22.37
509.352	22.46
509.701	22.32
510.051	22.25
510.4	22.35
510.75	22.48
511.099	22.38
511.449	22.47
511.798	22.48
512.147	22.54
512.496	22.64
512.846	22.56
513.195	22.63
513.544	22.68
513.893	22.66
514.242	22.83
514.591	22.88
514.939	22.93
515.288	22.8
515.637	22.92
515.986	23.07
516.334	23.16
516.683	23.11
517.032	23.03
517.38	23.19
517.729	23.32
518.077	23.38
518.426	23.38
518.774	23.33
519.122	23.33
519.47	23.44
519.819	23.29
520.167	23.25
520.515	23.18
520.863	23.26
521.211	23.26
521.559	23.29
521.907	23.43
522.255	23.54
522.602	23.77
522.95	23.77
523.298	23.85
523.645	23.93
523.993	23.91
524.341	24.09
524.688	24.1
525.036	24.08
525.383	24.16
525.73	24.33
526.078	24.27
526.425	24.37
526.772	24.41
527.119	24.15
527.466	24.14
527.814	24.04
528.161	24
528.508	24.08
528.854	24.07
529.201	24.24
529.548	24.15
529.895	24.07
530.242	23.84
530.588	23.64
530.935	23.73
531.282	23.86
531.628	23.88
531.975	24.05
532.321	24.16
532.667	24.46
533.014	24.62
533.36	24.89
533.706	24.79
534.052	24.84
534.399	24.74
534.745	24.67
535.091	24.61
535.437	24.64
535.783	24.62
536.129	24.75
536.474	24.89
536.82	25.16
537.166	25.17
537.512	25.14
537.857	25.51
538.203	25.38
538.549	25.52
538.894	25.25
539.239	25.27
539.585	25.47
539.93	25.65
540.276	25.89
540.621	25.93
540.966	26.03
541.311	26.04
541.656	26.23
542.001	26.29
542.346	26.1
542.691	26.04
543.036	25.74
543.381	25.56
543.726	25.6
544.071	25.66
544.415	25.66
544.76	25.73
545.105	26.09
545.449	26.15
545.794	26.28
546.138	26.34
546.483	26.66
546.827	26.55
547.171	26.77
547.516	26.66
547.86	26.85
548.204	26.79
548.548	26.92
548.892	26.72
549.236	26.86
549.58	26.85
549.924	27.1
550.268	27.26
550.612	27.31
550.956	27.61
551.3	27.6
551.643	27.75
551.987	27.9
552.33	27.78
552.674	28.01
553.017	27.99
553.361	28.04
553.704	28.1
554.048	28.04
554.391	28.16
554.734	28.02
555.077	28.13
555.42	28.14
555.764	28.24
556.107	28.42
556.45	28.41
556.793	28.47
557.135	28.45
557.478	28.41
557.821	28.65
558.164	28.78
558.507	28.71
558.849	28.77
559.192	28.73
559.534	29.05
559.877	28.78
560.219	29
560.562	29.17
560.904	29.06
561.246	29.58
561.589	29.21
561.931	29.45
562.273	29.43
562.615	29.37
562.957	29.4
563.299	29.49
563.641	29.55
563.983	29.51
564.325	29.57
564.667	29.78
565.008	29.65
565.35	29.72
565.692	29.68
566.033	30.09
566.375	30.02
566.716	30.06
567.058	29.95
567.399	30.02
567.741	29.88
568.082	29.92
568.423	29.96
568.764	29.95
569.105	29.92
569.447	29.99
569.788	30.15
570.129	30.25
570.47	30.32
570.811	30.55
571.151	30.33
571.492	30.53
571.833	30.59
572.174	30.81
572.514	30.78
572.855	30.66
573.195	30.85
573.536	30.47
573.876	30.78
574.217	30.78
574.557	30.62
574.898	30.62
575.238	30.73
575.578	30.85
575.918	30.86
576.258	31.03
576.598	31.34
576.938	31.08
577.278	31.25
577.618	31.04
577.958	31.16
578.298	31.42
578.638	31.36
578.977	31.66
579.317	31.72
579.657	31.69
579.996	32.06
580.336	31.9
580.675	31.92
581.014	31.7
581.354	31.87
581.693	32.05
582.032	32.42
582.372	32.35
582.711	32.42
583.05	32.43
583.389	32.73
583.728	32.43
584.067	32.59
584.406	32.27
584.745	32.73
585.083	32.62
585.422	32.57
585.761	32.74
586.1	32.81
586.438	32.76
586.777	33.08
587.115	33.23
587.454	33.23
587.792	33.03
588.13	33.56
588.469	33.21
588.807	33.29
589.145	33.3
589.483	33.27
589.821	33.39
590.159	33.28
590.497	33.46
590.835	33.6
591.173	33.51
591.511	33.18
591.849	33.43
592.187	33.7
592.524	33.26
592.862	33.94
593.2	33.68
593.537	33.56
593.875	33.81
594.212	33.96
594.55	34.1
594.887	34.2
595.224	34.38
595.561	33.94
595.899	33.99
596.236	34.48
596.573	34.43
596.91	34.43
597.247	34.5
597.584	34.48
597.921	34.4
598.258	34.46
598.594	34.48
598.931	34.16
599.268	34.21
599.604	34.34
599.941	34.47
600.277	34.6
600.614	34.78
600.95	34.79
601.287	34.51
601.623	35.17
601.959	35.17
602.296	35.36
602.632	35.36
602.968	35.02
603.304	35.58
603.64	35.29
603.976	35.49
604.312	35.88
604.648	35.54
604.984	35.67
605.319	35.34
605.655	35.24
605.991	35.26
606.326	35.29
606.662	35.32
606.998	35.34
607.333	35.25
607.668	35.41
608.004	35.59
608.339	35.68
608.674	36.17
609.01	35.84
609.345	36.33
609.68	36.15
610.015	36.09
610.35	36.4
610.685	36.79
611.02	36.15
611.355	36.38
611.689	36.37
612.024	36.14
612.359	36.47
612.694	36.46
613.028	36.71
613.363	36.36
613.697	36.93
614.032	36.92
614.366	37.15
614.7	37.12
615.035	37.22
615.369	37.11
615.703	36.8
616.037	37.46
616.371	37.13
616.705	37.26
617.039	37.39
617.373	37.29
617.707	37.65
618.041	37.53
618.375	37.45
618.709	37.38
619.042	37.58
619.376	37.99
619.71	37.93
620.043	37.71
620.377	37.81
620.71	38.26
621.043	38.43
621.377	37.93
621.71	37.8
622.043	38.11
622.376	38.44
622.709	38.5
623.043	38.2
623.376	38.6
623.709	38.02
624.041	38.56
624.374	38.7
624.707	38.28
625.04	38.11
625.373	38.65
625.705	39
626.038	39.43
626.37	38.19
626.703	38.93
627.035	38.63
627.368	38.62
627.7	39.01
628.032	39.28
628.365	38.95
628.697	38.89
629.029	38.99
629.361	39.27
629.693	39
630.025	39.32
630.357	39.11
630.689	39.25
631.021	39.6
631.353	39.44
631.684	38.97
632.016	39.47
632.348	39.76
632.679	39.7
633.011	39.84
633.342	39.42
633.674	39.63
634.005	40.01
634.336	40.17
634.668	39.67
634.999	39.87
635.33	40.04
635.661	40.15
635.992	40.32
636.323	39.86
636.654	40.33
636.985	40.18
637.316	40.26
637.647	40.45
637.977	39.96
638.308	40.6
638.639	40.37
638.969	40.52
639.3	40.34
639.63	40.67
639.961	40.92
640.291	40.94
640.622	40.91
640.952	41.38
641.282	41.18
641.612	40.75
641.943	41.07
642.273	40.95
642.603	41.54
642.933	41.07
643.263	41.53
643.592	41.15
643.922	41.58
644.252	41.62
644.582	41.31
644.911	41.23
645.241	41.43
645.571	41.38
645.9	42.17
646.23	41.77
646.559	41.54
646.888	41.39
647.218	41.7
647.547	41.93
647.876	42.42
648.205	42.57
648.534	41.9
648.863	42.28
649.192	42.4
649.521	41.78
649.85	42.12
650.179	41.66
650.508	42.17
650.837	42.14
651.165	42.1
651.494	42.76
651.822	42.63
652.151	42.67
652.479	42.53
652.808	42.7
653.136	42.62
653.465	42.98
653.793	42.86
654.121	42.72
654.449	42.29
654.777	42.81
655.105	42.98
655.433	43.17
655.761	43.66
656.089	42.6
656.417	42.92
656.745	43.68
657.073	43.12
657.4	43.65
657.728	43.21
658.056	43.15
658.383	43.72
658.711	43.28
659.038	43.61
659.365	43.41
659.693	43.97
660.02	44
660.347	43.32
660.674	43.61
661.001	43.59
661.329	43.87
661.656	44
661.982	44.01
662.309	43.37
662.636	44.2
662.963	43.95
663.29	44.23
663.616	44.26
663.943	43.93
664.27	44.26
664.596	44.21
664.923	43.67
665.249	44.62
665.576	44.06
665.902	44.81
666.228	44.24
666.554	44.95
666.881	44.54
667.207	44.12
667.533	44.97
667.859	45.1
668.185	45.14
668.511	45.77
668.837	45.27
669.162	45.06
669.488	45.05
669.814	44.94
670.139	46.03
670.465	45.55
670.791	45.59
671.116	45.55
671.442	44.76
671.767	45.6
672.092	45.53
672.418	45.27
672.743	45.29
673.068	45.21
673.393	45.85
