Data from 0265_forehead_Reflection__2__181.txt Node

Date: Fri Oct 20 22:05:39 CDT 2023
User: ToomeyLab
Spectrometer: FLMS14357
Trigger mode: 0
Integration Time (sec): 1.000000E-2
Scans to average: 100
Electric dark correction enabled: true
Nonlinearity correction enabled: false
Boxcar width: 0
XAxis mode: Wavelengths
Number of Pixels in Spectrum: 2048
>>>>>Begin Spectral Data<<<<<
189.047	-111.91
189.435	-111.91
189.823	-111.91
190.211	-39.17
190.599	2.93
190.987	234.51
191.375	71.74
191.763	-5610.77
192.151	7673.33
192.538	-128.33
192.926	129.02
193.314	74.63
193.702	173.98
194.089	101.89
194.477	-22.39
194.864	55.88
195.252	-162.33
195.639	159.04
196.027	59.47
196.414	260.13
196.801	45.03
197.189	-12.44
197.576	934.24
197.963	-274.12
198.351	74.09
198.738	51.71
199.125	40.02
199.512	43.5
199.899	61.4
200.286	14.83
200.673	40.36
201.06	61.69
201.447	20.16
201.833	38.87
202.22	52.72
202.607	65.44
202.994	39.94
203.38	28.28
203.767	27.52
204.154	21.76
204.54	51.32
204.927	45.35
205.313	-13.46
205.699	63.29
206.086	41.02
206.472	55.98
206.858	66.71
207.245	18.23
207.631	25.1
208.017	30.93
208.403	25.91
208.789	39.32
209.175	-0.01
209.561	56.56
209.947	49.91
210.333	46.44
210.719	44.78
211.105	35.63
211.491	24.57
211.876	11.9
212.262	32.63
212.648	58.45
213.034	61.78
213.419	44.5
213.805	45.58
214.19	15.57
214.576	7.79
214.961	18.02
215.346	26.36
215.732	44.51
216.117	-3.81
216.502	42.28
216.888	28.54
217.273	41.2
217.658	43.31
218.043	27.04
218.428	26.91
218.813	15.61
219.198	4.58
219.583	-4.83
219.968	6.19
220.353	44.19
220.738	16.24
221.122	13.09
221.507	14.73
221.892	19.71
222.276	20.83
222.661	30.22
223.046	23.35
223.43	-2.17
223.815	26.11
224.199	17.67
224.583	6.7
224.968	1.45
225.352	14.44
225.736	9.6
226.121	9.32
226.505	15.26
226.889	11.35
227.273	12.38
227.657	17.45
228.041	13.1
228.425	6.09
228.809	7.45
229.193	9.22
229.577	7.94
229.961	3.29
230.344	4.62
230.728	3.85
231.112	5.22
231.495	4.35
231.879	5.31
232.263	5.22
232.646	5.37
233.03	4.75
233.413	4.96
233.797	3.29
234.18	6.19
234.563	6.09
234.946	5.47
235.33	5.52
235.713	3.39
236.096	6.23
236.479	5.56
236.862	4.9
237.245	5.58
237.628	4.28
238.011	5.33
238.394	3.22
238.777	5.97
239.16	4.98
239.543	7.34
239.925	7.1
240.308	6.69
240.691	5.86
241.073	6.64
241.456	5
241.838	4.56
242.221	5.33
242.603	5.22
242.986	4.57
243.368	4.61
243.75	4.22
244.133	3.63
244.515	3.73
244.897	4
245.279	4.22
245.661	3.41
246.043	3.7
246.425	4.57
246.807	4.66
247.189	4.59
247.571	4.2
247.953	3.76
248.335	4.46
248.717	3.56
249.098	3.81
249.48	3.85
249.862	3.97
250.243	4.59
250.625	4.49
251.006	4.8
251.388	4.29
251.769	4.88
252.151	4.32
252.532	5.17
252.913	3.9
253.295	4.38
253.676	4.77
254.057	4.39
254.438	3.98
254.819	4.1
255.2	4.1
255.581	4.61
255.962	4.87
256.343	4.55
256.724	3
257.105	3.88
257.486	5.2
257.867	4.29
258.247	4.89
258.628	4.23
259.009	4.13
259.389	3.79
259.77	3.46
260.15	4.49
260.531	4.63
260.911	4.45
261.292	3.78
261.672	4.11
262.052	3.94
262.432	4.04
262.813	4.06
263.193	4.37
263.573	3.71
263.953	4.57
264.333	4.27
264.713	4.48
265.093	4.77
265.473	5.43
265.853	3.62
266.233	4.24
266.612	3.72
266.992	4.38
267.372	4.47
267.752	4.21
268.131	4.49
268.511	3.93
268.89	3.99
269.27	3.67
269.649	4.05
270.029	4.32
270.408	4.46
270.787	4.61
271.167	4.12
271.546	4.48
271.925	5.26
272.304	4.28
272.683	4.58
273.062	3.96
273.441	4.33
273.82	4.28
274.199	4.02
274.578	3.9
274.957	4.44
275.336	4.03
275.715	4.76
276.093	3.88
276.472	3.63
276.851	4.42
277.229	4.15
277.608	3.77
277.986	4.24
278.365	4.29
278.743	4.29
279.122	4.07
279.5	4.4
279.878	4
280.257	3.93
280.635	4.22
281.013	4.14
281.391	4.77
281.769	4.17
282.147	3.83
282.525	4.03
282.903	4.58
283.281	3.97
283.659	3.97
284.037	4.38
284.415	3.68
284.792	3.76
285.17	3.71
285.548	4.24
285.925	4.13
286.303	3.78
286.68	3.84
287.058	4.34
287.435	4.05
287.813	3.79
288.19	4.07
288.567	3.79
288.945	4.11
289.322	4.41
289.699	3.66
290.076	4.45
290.453	4.29
290.83	3.79
291.207	4.83
291.584	4.01
291.961	4
292.338	3.77
292.715	4.4
293.092	4.06
293.469	4.2
293.845	4.33
294.222	4.34
294.599	4.5
294.975	5.39
295.352	4.55
295.728	4.54
296.105	4.55
296.481	4.2
296.858	4.53
297.234	5.06
297.61	3.97
297.986	4.59
298.363	4.38
298.739	4.55
299.115	4.57
299.491	4.42
299.867	4.56
300.243	4.75
300.619	4.64
300.995	4.61
301.371	4.59
301.746	5
302.122	5.22
302.498	4.59
302.874	4.57
303.249	4.59
303.625	5.35
304	5.02
304.376	4.78
304.751	4.37
305.127	4.63
305.502	5.49
305.878	4.89
306.253	4.83
306.628	5.17
307.003	5.34
307.378	5.01
307.754	5.03
308.129	5.6
308.504	6.06
308.879	5.78
309.254	5.7
309.629	5.45
310.003	5.21
310.378	5.62
310.753	5.98
311.128	5.78
311.502	5.75
311.877	5.68
312.252	5.65
312.626	5.97
313.001	5.73
313.375	5.8
313.75	5.46
314.124	5.69
314.498	5.97
314.873	5.94
315.247	6.01
315.621	6.21
315.995	6.12
316.369	6.18
316.743	6.31
317.117	6.57
317.491	5.72
317.865	6.44
318.239	6.68
318.613	6.47
318.987	6.76
319.361	6.13
319.734	6.05
320.108	6.11
320.482	6.97
320.855	6.64
321.229	7.56
321.602	6.99
321.976	6.72
322.349	7.34
322.723	6.73
323.096	6.98
323.469	6.85
323.843	7.4
324.216	7.13
324.589	7.2
324.962	8.16
325.335	7.04
325.708	7.2
326.081	7.26
326.454	7.39
326.827	7.82
327.2	8.26
327.573	7.65
327.945	7.6
328.318	7.12
328.691	7.36
329.063	7.89
329.436	7.48
329.809	7.88
330.181	8.75
330.553	7.65
330.926	8.08
331.298	7.82
331.671	7.46
332.043	7.96
332.415	7.8
332.787	8.51
333.159	7.8
333.532	8.44
333.904	8.94
334.276	7.94
334.648	8.03
335.02	8.47
335.391	8.22
335.763	8.43
336.135	8.94
336.507	8.35
336.879	8.43
337.25	8.64
337.622	9.12
337.993	9.25
338.365	8.63
338.736	9.07
339.108	8.64
339.479	8.38
339.851	8.88
340.222	8.78
340.593	8.17
340.964	8.75
341.336	9.37
341.707	9.1
342.078	9.01
342.449	8.86
342.82	8.89
343.191	9.19
343.562	9.27
343.933	9.36
344.303	8.75
344.674	9.42
345.045	9.51
345.416	9.94
345.786	9.32
346.157	9.21
346.527	9.69
346.898	9.2
347.268	9.37
347.639	9.63
348.009	9.44
348.38	9.66
348.75	9.28
349.12	9.75
349.49	9.48
349.861	9.98
350.231	9.61
350.601	9.68
350.971	10.03
351.341	10.15
351.711	10.46
352.081	9.9
352.45	9.85
352.82	10.09
353.19	10.16
353.56	10.03
353.929	10.05
354.299	9.99
354.669	10.18
355.038	10.34
355.408	10.35
355.777	10.18
356.147	10.19
356.516	10.14
356.885	10.11
357.254	10.32
357.624	10.22
357.993	10.34
358.362	10.5
358.731	9.96
359.1	9.77
359.469	10.27
359.838	10.44
360.207	10.2
360.576	10.51
360.945	10.43
361.314	10.31
361.682	10.29
362.051	10.67
362.42	10.39
362.788	10.81
363.157	10.6
363.525	10.67
363.894	10.78
364.262	10.53
364.631	10.91
364.999	10.69
365.367	11.03
365.735	11.12
366.104	11.09
366.472	10.96
366.84	11.01
367.208	10.84
367.576	11.09
367.944	11.21
368.312	11.26
368.68	11.31
369.048	11.11
369.416	11.46
369.783	11.27
370.151	11.17
370.519	11.41
370.886	11.84
371.254	11.61
371.621	12.01
371.989	11.56
372.356	11.64
372.724	11.9
373.091	11.64
373.458	11.59
373.826	11.66
374.193	11.56
374.56	12
374.927	12.02
375.294	11.9
375.661	12.28
376.028	12.26
376.395	12.34
376.762	11.9
377.129	12
377.496	11.98
377.863	12.17
378.229	12.24
378.596	12.49
378.963	12.2
379.329	12.42
379.696	12.48
380.062	12.74
380.429	12.31
380.795	12.47
381.161	12.63
381.528	12.89
381.894	12.68
382.26	12.59
382.626	12.75
382.993	12.8
383.359	12.86
383.725	12.77
384.091	12.67
384.457	12.68
384.823	13.21
385.188	13.2
385.554	12.92
385.92	13.08
386.286	13.05
386.651	12.93
387.017	13.28
387.383	12.81
387.748	12.74
388.114	13
388.479	13.3
388.845	13.51
389.21	13.57
389.575	13.21
389.94	13.29
390.306	13.19
390.671	13.44
391.036	13.48
391.401	13.8
391.766	13.46
392.131	13.6
392.496	13.82
392.861	13.89
393.226	13.72
393.591	13.76
393.956	13.97
394.32	13.97
394.685	13.71
395.05	13.88
395.414	14.14
395.779	14.01
396.143	13.85
396.508	13.83
396.872	14.12
397.236	13.89
397.601	14.22
397.965	14.03
398.329	13.86
398.694	14.16
399.058	14.08
399.422	14.41
399.786	14.35
400.15	14.44
400.514	14.45
400.878	14.44
401.242	14.8
401.605	14.54
401.969	14.53
402.333	14.77
402.697	14.64
403.06	14.77
403.424	15.08
403.787	14.94
404.151	14.79
404.514	14.93
404.878	15.01
405.241	14.95
405.604	14.71
405.968	15.1
406.331	14.98
406.694	15.01
407.057	14.99
407.42	15.44
407.783	15.28
408.146	15.34
408.509	15.29
408.872	15.59
409.235	15.34
409.598	15.49
409.961	15.43
410.323	15.69
410.686	15.34
411.049	15.55
411.411	15.41
411.774	15.31
412.136	15.44
412.499	15.84
412.861	15.77
413.223	15.82
413.586	15.8
413.948	15.9
414.31	16.1
414.672	15.74
415.035	15.97
415.397	16.21
415.759	16.04
416.121	15.97
416.483	16.19
416.845	16.25
417.206	16.09
417.568	16.29
417.93	16.35
418.292	16.11
418.653	16.37
419.015	16.16
419.377	16.06
419.738	16.19
420.1	16.21
420.461	16.32
420.822	16.12
421.184	16.22
421.545	16.24
421.906	16.34
422.267	16.35
422.629	16.54
422.99	16.25
423.351	16.24
423.712	16.4
424.073	16.51
424.434	16.54
424.795	16.43
425.155	16.63
425.516	16.62
425.877	16.71
426.238	16.63
426.598	16.7
426.959	16.73
427.32	16.77
427.68	17.02
428.041	17.11
428.401	17.14
428.761	17.06
429.122	17.36
429.482	17.18
429.842	17.44
430.202	17.44
430.563	17.56
430.923	17.57
431.283	17.5
431.643	17.68
432.003	17.72
432.363	17.75
432.722	17.6
433.082	17.69
433.442	17.72
433.802	18.21
434.161	17.9
434.521	17.96
434.881	17.89
435.24	17.9
435.6	17.81
435.959	17.78
436.319	18.01
436.678	18.13
437.037	18.14
437.396	18.33
437.756	18.22
438.115	17.94
438.474	18.35
438.833	18.58
439.192	18.24
439.551	18.19
439.91	18.46
440.269	18.66
440.628	18.57
440.987	18.6
441.345	18.34
441.704	18.64
442.063	18.49
442.421	18.42
442.78	18.56
443.138	18.65
443.497	18.69
443.855	18.66
444.214	18.62
444.572	18.92
444.93	19.15
445.288	19.02
445.647	19.17
446.005	18.97
446.363	19.1
446.721	19.02
447.079	19.28
447.437	19.2
447.795	19.05
448.153	19.07
448.51	18.96
448.868	18.99
449.226	18.96
449.584	19.12
449.941	19.21
450.299	19.31
450.656	19.37
451.014	19.44
451.371	19.5
451.729	19.43
452.086	19.75
452.443	19.7
452.801	19.74
453.158	20.02
453.515	19.82
453.872	20.02
454.229	19.97
454.586	20.05
454.943	20.02
455.3	19.96
455.657	20.21
456.014	20.3
456.371	20.24
456.727	20.45
457.084	20.35
457.441	20.46
457.797	20.46
458.154	20.34
458.51	20.55
458.867	20.58
459.223	20.63
459.58	20.52
459.936	20.87
460.292	20.68
460.648	20.75
461.005	20.61
461.361	20.71
461.717	20.63
462.073	20.6
462.429	20.62
462.785	20.58
463.141	20.89
463.496	20.9
463.852	21.1
464.208	21.17
464.564	21.12
464.919	21.41
465.275	21.43
465.631	21.46
465.986	21.52
466.342	21.63
466.697	21.32
467.052	21.42
467.408	21.53
467.763	21.51
468.118	21.93
468.473	21.76
468.829	21.74
469.184	21.72
469.539	21.79
469.894	21.77
470.249	21.86
470.603	21.86
470.958	22.12
471.313	22.21
471.668	22.06
472.023	22.03
472.377	22.27
472.732	22.34
473.086	22.24
473.441	22.41
473.795	22.57
474.15	22.56
474.504	22.37
474.859	22.57
475.213	22.67
475.567	22.62
475.921	22.71
476.275	22.57
476.63	22.88
476.984	22.65
477.338	22.76
477.692	22.84
478.045	23.03
478.399	22.86
478.753	22.88
479.107	22.95
479.461	22.78
479.814	22.95
480.168	23.08
480.521	23.04
480.875	22.9
481.228	23.15
481.582	23.28
481.935	23.29
482.289	23.36
482.642	23.25
482.995	23.33
483.348	23.37
483.701	23.31
484.055	23.42
484.408	23.06
484.761	23.14
485.114	22.96
485.466	22.76
485.819	22.67
486.172	22.64
486.525	22.65
486.878	22.72
487.23	22.84
487.583	22.96
487.936	23.18
488.288	23.31
488.641	23.46
488.993	23.23
489.345	23.3
489.698	23.21
490.05	23.21
490.402	23.27
490.754	23.25
491.107	23.44
491.459	23.63
491.811	23.86
492.163	23.93
492.515	24.02
492.866	24.02
493.218	23.94
493.57	23.82
493.922	23.73
494.274	23.79
494.625	23.86
494.977	24.17
495.328	24.45
495.68	24.52
496.031	24.53
496.383	25.06
496.734	25.15
497.086	25.01
497.437	25.11
497.788	25.08
498.139	25.14
498.49	25.2
498.842	25.32
499.193	25.11
499.544	25.28
499.894	25.26
500.245	25.17
500.596	25.29
500.947	25.51
501.298	25.44
501.648	25.49
501.999	25.73
502.35	25.91
502.7	25.98
503.051	26
503.401	25.97
503.752	26.12
504.102	26.04
504.452	26.05
504.803	26.12
505.153	26.28
505.503	26.3
505.853	26.26
506.203	26.32
506.553	26.21
506.903	26.47
507.253	26.43
507.603	26.4
507.953	26.6
508.303	26.4
508.652	26.64
509.002	26.68
509.352	26.71
509.701	26.47
510.051	26.65
510.4	26.76
510.75	26.74
511.099	26.74
511.449	26.88
511.798	27.02
512.147	26.9
512.496	26.87
512.846	26.91
513.195	27
513.544	27.06
513.893	27.18
514.242	27.26
514.591	27.3
514.939	27.24
515.288	27.34
515.637	27.45
515.986	27.45
516.334	27.54
516.683	27.82
517.032	27.64
517.38	27.69
517.729	27.77
518.077	27.89
518.426	28
518.774	27.87
519.122	27.9
519.47	28.06
519.819	27.87
520.167	27.66
520.515	27.88
520.863	27.73
521.211	27.76
521.559	27.81
521.907	27.85
522.255	28.11
522.602	28.27
522.95	28.4
523.298	28.39
523.645	28.61
523.993	28.4
524.341	28.52
524.688	28.73
525.036	28.72
525.383	28.71
525.73	28.84
526.078	28.99
526.425	28.97
526.772	28.84
527.119	28.89
527.466	28.79
527.814	28.84
528.161	28.53
528.508	28.75
528.854	28.76
529.201	28.87
529.548	28.72
529.895	28.74
530.242	28.59
530.588	28.45
530.935	28.51
531.282	28.63
531.628	28.57
531.975	28.71
532.321	28.82
532.667	29.12
533.014	29.25
533.36	29.45
533.706	29.7
534.052	29.45
534.399	29.55
534.745	29.58
535.091	29.39
535.437	29.49
535.783	29.48
536.129	29.56
536.474	29.64
536.82	29.77
537.166	30.01
537.512	30.01
537.857	30.33
538.203	30.32
538.549	30.18
538.894	30.21
539.239	30.28
539.585	30.31
539.93	30.49
540.276	30.54
540.621	30.74
540.966	30.96
541.311	30.98
541.656	30.91
542.001	31.06
542.346	31.03
542.691	30.77
543.036	30.66
543.381	30.5
543.726	30.6
544.071	30.58
544.415	30.53
544.76	30.61
545.105	30.85
545.449	30.97
545.794	31.13
546.138	31.14
546.483	31.38
546.827	31.56
547.171	31.58
547.516	31.57
547.86	31.79
548.204	31.59
548.548	31.86
548.892	31.71
549.236	31.74
549.58	32
549.924	32.14
550.268	32.25
550.612	32.45
550.956	32.51
551.3	32.46
551.643	32.4
551.987	32.72
552.33	32.82
552.674	32.8
553.017	32.87
553.361	32.88
553.704	33.12
554.048	33.18
554.391	33
554.734	33.09
555.077	33.29
555.42	33.05
555.764	32.98
556.107	33.51
556.45	33.24
556.793	33.34
557.135	33.42
557.478	33.7
557.821	33.85
558.164	33.6
558.507	33.81
558.849	33.77
559.192	33.83
559.534	34.09
559.877	33.94
560.219	34.11
560.562	34.18
560.904	33.95
561.246	34.38
561.589	34.19
561.931	34.46
562.273	34.39
562.615	34.69
562.957	34.56
563.299	34.55
563.641	34.55
563.983	34.22
564.325	34.65
564.667	34.7
565.008	34.89
565.35	34.63
565.692	34.98
566.033	34.93
566.375	34.87
566.716	35.1
567.058	34.88
567.399	34.95
567.741	35.01
568.082	35.11
568.423	35.1
568.764	35.12
569.105	35.15
569.447	35.21
569.788	35.15
570.129	35.16
570.47	35.59
570.811	35.31
571.151	35.41
571.492	35.74
571.833	35.69
572.174	35.78
572.514	35.86
572.855	36.03
573.195	36.07
573.536	35.82
573.876	35.75
574.217	35.73
574.557	35.73
574.898	35.76
575.238	36.01
575.578	36.14
575.918	35.95
576.258	36.03
576.598	36.3
576.938	36.17
577.278	36.5
577.618	36.36
577.958	36.3
578.298	36.44
578.638	36.61
578.977	36.69
579.317	36.66
579.657	36.9
579.996	36.91
580.336	37.12
580.675	37.11
581.014	37.16
581.354	37.01
581.693	37.48
582.032	37.41
582.372	37.69
582.711	37.78
583.05	37.69
583.389	37.8
583.728	37.75
584.067	37.99
584.406	37.62
584.745	37.57
585.083	38.16
585.422	38.02
585.761	37.86
586.1	38.17
586.438	38.08
586.777	38.21
587.115	38.42
587.454	38.21
587.792	38.24
588.13	38.62
588.469	38.87
588.807	38.2
589.145	38.7
589.483	38.32
589.821	38.52
590.159	38.7
590.497	39.04
590.835	38.74
591.173	39.11
591.511	39.14
591.849	39.23
592.187	38.77
592.524	38.59
592.862	39.11
593.2	39.1
593.537	38.78
593.875	39.17
594.212	39.46
594.55	39.32
594.887	39.18
595.224	39.45
595.561	39.61
595.899	39.23
596.236	39.69
596.573	39.69
596.91	39.54
597.247	39.71
597.584	39.67
597.921	39.36
598.258	39.89
598.594	39.53
598.931	39.75
599.268	39.62
599.604	39.87
599.941	39.77
600.277	39.66
600.614	39.73
600.95	40.01
601.287	39.96
601.623	40.48
601.959	40.64
602.296	40.41
602.632	40.55
602.968	40.39
603.304	40.87
603.64	40.73
603.976	40.95
604.312	40.97
604.648	40.47
604.984	40.75
605.319	40.81
605.655	40.9
605.991	40.85
606.326	40.86
606.662	40.63
606.998	40.63
607.333	40.76
607.668	40.73
608.004	40.77
608.339	41
608.674	41.36
609.01	41.36
609.345	41.47
609.68	41.51
610.015	41.24
610.35	41.91
610.685	42
611.02	41.63
611.355	41.56
611.689	41.26
612.024	41.92
612.359	41.61
612.694	41.5
613.028	41.66
613.363	41.6
613.697	41.94
614.032	42.44
614.366	41.99
614.7	42.42
615.035	42.4
615.369	42.63
615.703	42.13
616.037	42.63
616.371	42.3
616.705	43.08
617.039	42.37
617.373	42.69
617.707	43.1
618.041	43.18
618.375	42.91
618.709	42.6
619.042	43.09
619.376	43.47
619.71	42.92
620.043	43.44
620.377	43.18
620.71	43.2
621.043	43.5
621.377	42.98
621.71	43.33
622.043	43.4
622.376	43.73
622.709	43.5
623.043	42.9
623.376	43.66
623.709	43.06
624.041	43.66
624.374	43.78
624.707	43.94
625.04	44.06
625.373	43.78
625.705	43.61
626.038	43.86
626.37	43.32
626.703	44.06
627.035	44.21
627.368	44.13
627.7	44.38
628.032	44.03
628.365	44.12
628.697	44.65
629.029	44.32
629.361	44.37
629.693	44.08
630.025	44.56
630.357	44.45
630.689	44.36
631.021	44.72
631.353	45.06
631.684	44.84
632.016	45.31
632.348	44.93
632.679	44.62
633.011	45.41
633.342	44.68
633.674	44.94
634.005	45.61
634.336	45.66
634.668	45.04
634.999	45.39
635.33	45.15
635.661	45.64
635.992	45.51
636.323	45.54
636.654	45.69
636.985	45.72
637.316	45.69
637.647	46.18
637.977	45.52
638.308	46.24
638.639	45.8
638.969	46.15
639.3	45.86
639.63	46.1
639.961	46.13
640.291	46.1
640.622	46.67
640.952	45.93
641.282	46.15
641.612	46.07
641.943	46.11
642.273	46.22
642.603	46.21
642.933	46.71
643.263	46.64
643.592	46.38
643.922	46.5
644.252	46.53
644.582	46.41
644.911	46.82
645.241	46.48
645.571	47.01
645.9	46.85
646.23	46.93
646.559	46.77
646.888	47.53
647.218	47.07
647.547	46.68
647.876	47.04
648.205	46.51
648.534	47.31
648.863	47.54
649.192	47.34
649.521	47.23
649.85	47.49
650.179	47.27
650.508	47
650.837	47.91
651.165	47.72
651.494	47.84
651.822	48.06
652.151	48.25
652.479	47.9
652.808	47.6
653.136	47.84
653.465	47.85
653.793	48.09
654.121	48.08
654.449	48.09
654.777	48.1
655.105	48.28
655.433	48.55
655.761	48.8
656.089	48.24
656.417	48.37
656.745	48.21
657.073	48.2
657.4	48.91
657.728	48.94
658.056	48.68
658.383	48.19
658.711	47.88
659.038	48.74
659.365	49.24
659.693	48.95
660.02	48.62
660.347	48.94
660.674	48.93
661.001	49
661.329	49.42
661.656	49.26
661.982	49.28
662.309	48.89
662.636	49.12
662.963	48.77
663.29	49.38
663.616	49.59
663.943	48.48
664.27	48.73
664.596	49.04
664.923	49.66
665.249	49.85
665.576	49.47
665.902	49.33
666.228	49.57
666.554	50.16
666.881	49.33
667.207	49.43
667.533	49.88
667.859	49.81
668.185	50.62
668.511	49.36
668.837	49.81
669.162	50.5
669.488	50.15
669.814	49.13
670.139	50.82
670.465	50.09
670.791	50.95
671.116	50.94
671.442	50.4
