Data from 0265_chest_Reflection__1__169.txt Node

Date: Fri Oct 20 22:02:15 CDT 2023
User: ToomeyLab
Spectrometer: FLMS14357
Trigger mode: 0
Integration Time (sec): 1.000000E-2
Scans to average: 100
Electric dark correction enabled: true
Nonlinearity correction enabled: false
Boxcar width: 0
XAxis mode: Wavelengths
Number of Pixels in Spectrum: 2048
>>>>>Begin Spectral Data<<<<<
189.047	-124.44
189.435	-124.44
189.823	-124.44
190.211	30.02
190.599	12.17
190.987	120.52
191.375	120.52
191.763	-2024.62
192.151	-14373.33
192.538	121.65
192.926	54.15
193.314	146.57
193.702	138.27
194.089	78.3
194.477	361.87
194.864	233.38
195.252	-152.63
195.639	-168.4
196.027	14.3
196.414	239.23
196.801	141.66
197.189	66.33
197.576	-312.84
197.963	-212.94
198.351	69.36
198.738	15.62
199.125	37.77
199.512	13.43
199.899	59.57
200.286	-0.63
200.673	39.35
201.06	98.24
201.447	32.91
201.833	29.83
202.22	62.95
202.607	64.09
202.994	23.19
203.38	6.4
203.767	28.72
204.154	57.58
204.54	40.64
204.927	56.21
205.313	31
205.699	46.66
206.086	33.86
206.472	70.48
206.858	31.02
207.245	31.88
207.631	51.66
208.017	-0.21
208.403	10.01
208.789	49.72
209.175	0.98
209.561	22
209.947	-45.78
210.333	20.35
210.719	15.14
211.105	32.65
211.491	36.7
211.876	20.68
212.262	37.32
212.648	30.36
213.034	28.09
213.419	30.08
213.805	29.35
214.19	27.49
214.576	31.47
214.961	6.78
215.346	28.85
215.732	25.69
216.117	-20.35
216.502	12.43
216.888	45.82
217.273	-14.94
217.658	6.26
218.043	24.6
218.428	5.51
218.813	32.5
219.198	9.44
219.583	-22.33
219.968	22.29
220.353	27.58
220.738	34.49
221.122	-4.55
221.507	12.93
221.892	10.88
222.276	17.01
222.661	20.62
223.046	14.16
223.43	13.74
223.815	20.66
224.199	21.68
224.583	8.26
224.968	5.51
225.352	7.11
225.736	7.53
226.121	8.83
226.505	9.79
226.889	9.38
227.273	9.13
227.657	10.95
228.041	12.71
228.425	8.79
228.809	5.35
229.193	7.59
229.577	5.01
229.961	3.6
230.344	2.72
230.728	3.81
231.112	4.24
231.495	4.4
231.879	4.71
232.263	4.28
232.646	3.67
233.03	3.43
233.413	4.37
233.797	4.17
234.18	6.59
234.563	8.2
234.946	5.87
235.33	3.69
235.713	3.33
236.096	5.31
236.479	2.69
236.862	4.38
237.245	3.33
237.628	4.91
238.011	4.71
238.394	4.86
238.777	5.31
239.16	5.57
239.543	5.94
239.925	8.46
240.308	3.7
240.691	4.53
241.073	4.68
241.456	4.88
241.838	3.52
242.221	4.43
242.603	4.78
242.986	4.59
243.368	4.21
243.75	3.7
244.133	3.64
244.515	3.67
244.897	4.08
245.279	4.1
245.661	3.52
246.043	4.16
246.425	3.7
246.807	4.11
247.189	4.7
247.571	3.83
247.953	4.04
248.335	3.89
248.717	3.26
249.098	3.43
249.48	3.42
249.862	3.71
250.243	4.15
250.625	4.01
251.006	3.59
251.388	3.77
251.769	4.91
252.151	3.74
252.532	4.89
252.913	3.26
253.295	3.49
253.676	3.66
254.057	3.36
254.438	3.6
254.819	3.95
255.2	4.24
255.581	3.52
255.962	3.02
256.343	5.04
256.724	2.97
257.105	4.93
257.486	4.3
257.867	3.94
258.247	3.93
258.628	3.74
259.009	2.88
259.389	3.6
259.77	3.06
260.15	4.05
260.531	4.12
260.911	3.88
261.292	3.48
261.672	3.45
262.052	3.64
262.432	3.53
262.813	3.6
263.193	3.81
263.573	3.99
263.953	3.91
264.333	3.98
264.713	4.4
265.093	3.65
265.473	3.27
265.853	3.43
266.233	4.18
266.612	3.75
266.992	3.69
267.372	3.17
267.752	2.86
268.131	3.82
268.511	3.68
268.89	3.61
269.27	3.28
269.649	3.48
270.029	3.69
270.408	3.51
270.787	3.49
271.167	3.78
271.546	4
271.925	3.76
272.304	3.86
272.683	3.45
273.062	3.95
273.441	3.78
273.82	3.8
274.199	3.68
274.578	3.34
274.957	3.75
275.336	3.91
275.715	3.44
276.093	3.82
276.472	3.8
276.851	3.83
277.229	3.51
277.608	2.93
277.986	3.78
278.365	3.93
278.743	3.46
279.122	3.33
279.5	3.41
279.878	3.55
280.257	3.55
280.635	3.56
281.013	3.6
281.391	3.56
281.769	3.47
282.147	3.12
282.525	3.71
282.903	2.91
283.281	2.93
283.659	3.57
284.037	3.96
284.415	3.05
284.792	3.6
285.17	3.21
285.548	3.43
285.925	3.04
286.303	3.1
286.68	3.21
287.058	3.91
287.435	3.67
287.813	3.21
288.19	3.35
288.567	3.54
288.945	3.32
289.322	3.83
289.699	3.04
290.076	3.96
290.453	3.51
290.83	3.61
291.207	3.83
291.584	3.19
291.961	3.19
292.338	3.55
292.715	3.28
293.092	3.62
293.469	3.47
293.845	3.6
294.222	3.47
294.599	3.36
294.975	4.18
295.352	3.79
295.728	3.79
296.105	3.36
296.481	3.62
296.858	3.73
297.234	4.02
297.61	3.21
297.986	3.71
298.363	3.58
298.739	3.65
299.115	3.57
299.491	3.47
299.867	3.52
300.243	3.52
300.619	3.66
300.995	3.84
301.371	3.49
301.746	3.67
302.122	3.57
302.498	3.46
302.874	3.56
303.249	3.72
303.625	3.91
304	4.08
304.376	3.51
304.751	2.87
305.127	3.41
305.502	4.21
305.878	4.06
306.253	3.44
306.628	3.79
307.003	3.71
307.378	3.83
307.754	3.69
308.129	4.24
308.504	3.75
308.879	3.82
309.254	4.13
309.629	3.75
310.003	3.22
310.378	4.35
310.753	4.36
311.128	4.04
311.502	4.11
311.877	4.06
312.252	3.52
312.626	4.08
313.001	3.31
313.375	4.12
313.75	3.87
314.124	3.49
314.498	4.26
314.873	3.15
315.247	3.91
315.621	4.01
315.995	3.88
316.369	3.49
316.743	3.81
317.117	4.27
317.491	3.16
317.865	4.24
318.239	4.28
318.613	4.11
318.987	3.71
319.361	3.19
319.734	3.17
320.108	3.92
320.482	4.15
320.855	4.26
321.229	4.56
321.602	4.02
321.976	4.11
322.349	4.38
322.723	4.18
323.096	4.53
323.469	3.79
323.843	4.2
324.216	3.82
324.589	3.93
324.962	4.53
325.335	4.17
325.708	3.81
326.081	4.12
326.454	3.78
326.827	3.96
327.2	4.21
327.573	4.37
327.945	4.01
328.318	3.55
328.691	3.67
329.063	4.58
329.436	3.64
329.809	4.43
330.181	3.92
330.553	4.4
330.926	3.7
331.298	3.76
331.671	4.02
332.043	3.86
332.415	4.08
332.787	4.27
333.159	4.09
333.532	4.57
333.904	4.06
334.276	3.53
334.648	4.31
335.02	3.89
335.391	3.92
335.763	4.23
336.135	4.11
336.507	4.17
336.879	4.26
337.25	4.29
337.622	4.26
337.993	4.87
338.365	3.92
338.736	4.07
339.108	4.42
339.479	4.19
339.851	3.94
340.222	4.35
340.593	3.68
340.964	3.69
341.336	4.06
341.707	4.12
342.078	4.28
342.449	4.24
342.82	4.1
343.191	4.21
343.562	4.13
343.933	4.48
344.303	4.13
344.674	4.47
345.045	4.01
345.416	4.41
345.786	3.93
346.157	3.9
346.527	4.1
346.898	4.31
347.268	4.41
347.639	4.16
348.009	3.92
348.38	4.37
348.75	3.99
349.12	4.24
349.49	3.79
349.861	4.93
350.231	3.78
350.601	4.09
350.971	4.36
351.341	4.36
351.711	4.8
352.081	4.3
352.45	4.13
352.82	4.28
353.19	4.44
353.56	4.62
353.929	4.18
354.299	4.31
354.669	4.39
355.038	4.61
355.408	4.59
355.777	4.1
356.147	4.01
356.516	4.26
356.885	4.3
357.254	4.32
357.624	4.28
357.993	4.15
358.362	4.26
358.731	3.93
359.1	3.83
359.469	3.95
359.838	4.52
360.207	4.28
360.576	4.43
360.945	3.96
361.314	4.42
361.682	4.15
362.051	4.51
362.42	4.22
362.788	4.3
363.157	4.38
363.525	3.88
363.894	4.34
364.262	4.26
364.631	4.33
364.999	3.98
365.367	4.42
365.735	4.11
366.104	4.32
366.472	4.03
366.84	4.35
367.208	4.46
367.576	4.1
367.944	4.13
368.312	4.45
368.68	4.65
369.048	4.35
369.416	4.51
369.783	4.35
370.151	4.41
370.519	4.38
370.886	4.29
371.254	4.49
371.621	4.52
371.989	4.32
372.356	4.55
372.724	4.38
373.091	4.48
373.458	4.01
373.826	4.31
374.193	4.32
374.56	4.11
374.927	4.32
375.294	4.34
375.661	4.43
376.028	4.77
376.395	4.75
376.762	4.2
377.129	4.35
377.496	4.36
377.863	4.65
378.229	4.51
378.596	4.45
378.963	4.18
379.329	4.5
379.696	4.33
380.062	4.59
380.429	4.09
380.795	3.89
381.161	4.54
381.528	4.61
381.894	4.27
382.26	4.46
382.626	4.84
382.993	4.4
383.359	4.44
383.725	4.43
384.091	4.43
384.457	4.7
384.823	4.44
385.188	4.94
385.554	4.58
385.92	4.35
386.286	4.41
386.651	4.45
387.017	4.38
387.383	4.53
387.748	4.38
388.114	4.16
388.479	4.32
388.845	4.61
389.21	4.08
389.575	4.31
389.94	4.27
390.306	4.3
390.671	4.38
391.036	4.56
391.401	4.38
391.766	4.53
392.131	4.37
392.496	4.35
392.861	4.58
393.226	4.5
393.591	4.25
393.956	4.56
394.32	4.55
394.685	4.4
395.05	4.72
395.414	4.67
395.779	4.17
396.143	4.71
396.508	4.42
396.872	4.72
397.236	4.45
397.601	4.2
397.965	4.36
398.329	4.29
398.694	4.69
399.058	4.26
399.422	4.51
399.786	4.39
400.15	4.39
400.514	4.42
400.878	4.63
401.242	4.8
401.605	4.57
401.969	4.38
402.333	4.47
402.697	4.69
403.06	4.37
403.424	4.5
403.787	4.35
404.151	4.39
404.514	4.71
404.878	4.82
405.241	4.61
405.604	4.55
405.968	4.67
406.331	4.67
406.694	4.61
407.057	4.25
407.42	4.72
407.783	4.55
408.146	4.5
408.509	4.55
408.872	4.79
409.235	4.62
409.598	4.6
409.961	4.85
410.323	4.54
410.686	4.45
411.049	4.61
411.411	4.57
411.774	4.72
412.136	4.53
412.499	4.51
412.861	4.46
413.223	4.58
413.586	4.54
413.948	4.73
414.31	4.77
414.672	4.38
415.035	4.45
415.397	4.72
415.759	4.62
416.121	4.67
416.483	4.78
416.845	4.66
417.206	4.61
417.568	4.7
417.93	4.7
418.292	4.26
418.653	4.61
419.015	4.48
419.377	4.55
419.738	4.44
420.1	4.46
420.461	4.59
420.822	4.46
421.184	4.5
421.545	4.48
421.906	4.48
422.267	4.5
422.629	4.44
422.99	4.44
423.351	4.45
423.712	4.39
424.073	4.57
424.434	4.42
424.795	4.4
425.155	4.57
425.516	4.35
425.877	4.5
426.238	4.36
426.598	4.48
426.959	4.35
427.32	4.57
427.68	4.54
428.041	4.47
428.401	4.49
428.761	4.55
429.122	4.54
429.482	4.52
429.842	4.64
430.202	4.62
430.563	4.55
430.923	4.74
431.283	4.61
431.643	4.69
432.003	4.74
432.363	4.67
432.722	4.57
433.082	4.63
433.442	4.66
433.802	4.86
434.161	4.48
434.521	4.64
434.881	4.65
435.24	4.64
435.6	4.57
435.959	4.62
436.319	4.74
436.678	4.7
437.037	4.7
437.396	4.84
437.756	4.8
438.115	4.6
438.474	4.78
438.833	4.58
439.192	4.49
439.551	4.65
439.91	4.64
440.269	4.74
440.628	4.7
440.987	4.6
441.345	4.47
441.704	4.74
442.063	4.68
442.421	4.61
442.78	4.51
443.138	4.62
443.497	4.58
443.855	4.64
444.214	4.7
444.572	4.61
444.93	4.79
445.288	4.65
445.647	4.88
446.005	4.42
446.363	4.69
446.721	4.68
447.079	4.79
447.437	4.62
447.795	4.52
448.153	4.65
448.51	4.53
448.868	4.59
449.226	4.54
449.584	4.6
449.941	4.63
450.299	4.67
450.656	4.57
451.014	4.65
451.371	4.73
451.729	4.65
452.086	4.7
452.443	4.73
452.801	4.65
453.158	4.9
453.515	4.78
453.872	4.81
454.229	4.95
454.586	4.79
454.943	4.74
455.3	4.73
455.657	4.72
456.014	4.62
456.371	4.75
456.727	4.79
457.084	4.76
457.441	4.76
457.797	4.78
458.154	4.66
458.51	4.61
458.867	4.75
459.223	4.74
459.58	4.77
459.936	4.81
460.292	4.76
460.648	4.61
461.005	4.78
461.361	4.71
461.717	4.61
462.073	4.72
462.429	4.67
462.785	4.68
463.141	4.88
463.496	4.9
463.852	4.77
464.208	4.99
464.564	5
464.919	4.88
465.275	5.01
465.631	5.2
465.986	4.9
466.342	4.93
466.697	4.82
467.052	4.86
467.408	4.92
467.763	5
468.118	5.12
468.473	4.88
468.829	4.9
469.184	4.92
469.539	4.91
469.894	4.98
470.249	4.86
470.603	4.89
470.958	5.01
471.313	5
471.668	4.92
472.023	5.11
472.377	4.8
472.732	4.86
473.086	4.88
473.441	4.96
473.795	5.3
474.15	4.94
474.504	4.82
474.859	5
475.213	5.02
475.567	5.04
475.921	4.94
476.275	5
476.63	5.06
476.984	5.18
477.338	4.8
477.692	4.88
478.045	4.95
478.399	4.84
478.753	5.12
479.107	4.97
479.461	5
479.814	5.04
480.168	5.1
480.521	5.08
480.875	5.04
481.228	4.9
481.582	5.07
481.935	5.13
482.289	4.95
482.642	5.09
482.995	4.96
483.348	5.02
483.701	4.89
484.055	4.92
484.408	4.92
484.761	4.81
485.114	4.72
485.466	4.72
485.819	4.6
486.172	4.55
486.525	4.57
486.878	4.63
487.23	4.68
487.583	4.65
487.936	4.75
488.288	4.78
488.641	4.87
488.993	4.73
489.345	4.74
489.698	4.7
490.05	4.71
490.402	4.64
490.754	4.7
491.107	4.75
491.459	4.9
491.811	4.84
492.163	4.93
492.515	4.97
492.866	4.99
493.218	4.84
493.57	4.76
493.922	4.79
494.274	4.75
494.625	4.79
494.977	4.88
495.328	4.94
495.68	5.05
496.031	4.97
496.383	5.15
496.734	5.11
497.086	5.1
497.437	5.08
497.788	5.09
498.139	5.17
498.49	5.12
498.842	5.06
499.193	5.15
499.544	5.08
499.894	5.07
500.245	5.08
500.596	5.19
500.947	5.16
501.298	5.15
501.648	5.2
501.999	5.19
502.35	5.24
502.7	5.38
503.051	5.25
503.401	5.25
503.752	5.19
504.102	5.3
504.452	5.32
504.803	5.14
505.153	5.33
505.503	5.19
505.853	5.29
506.203	5.18
506.553	5.17
506.903	5.35
507.253	5.28
507.603	5.37
507.953	5.43
508.303	5.21
508.652	5.34
509.002	5.24
509.352	5.4
509.701	5.24
510.051	5.33
510.4	5.29
510.75	5.27
511.099	5.34
511.449	5.27
511.798	5.33
512.147	5.3
512.496	5.44
512.846	5.15
513.195	5.36
513.544	5.31
513.893	5.22
514.242	5.35
514.591	5.28
514.939	5.27
515.288	5.32
515.637	5.38
515.986	5.4
516.334	5.38
516.683	5.43
517.032	5.27
517.38	5.31
517.729	5.41
518.077	5.44
518.426	5.33
518.774	5.36
519.122	5.46
519.47	5.34
519.819	5.24
520.167	5.44
520.515	5.22
520.863	5.33
521.211	5.38
521.559	5.39
521.907	5.4
522.255	5.47
522.602	5.47
522.95	5.4
523.298	5.53
523.645	5.48
523.993	5.52
524.341	5.52
524.688	5.68
525.036	5.64
525.383	5.43
525.73	5.71
526.078	5.53
526.425	5.66
526.772	5.49
527.119	5.56
527.466	5.48
527.814	5.42
528.161	5.49
528.508	5.4
528.854	5.47
529.201	5.45
529.548	5.59
529.895	5.47
530.242	5.39
530.588	5.32
530.935	5.28
531.282	5.32
531.628	5.42
531.975	5.41
532.321	5.39
532.667	5.49
533.014	5.59
533.36	5.66
533.706	5.63
534.052	5.64
534.399	5.54
534.745	5.42
535.091	5.55
535.437	5.56
535.783	5.5
536.129	5.62
536.474	5.65
536.82	5.71
537.166	5.69
537.512	5.79
537.857	5.89
538.203	5.71
538.549	5.9
538.894	5.74
539.239	5.8
539.585	5.74
539.93	5.88
540.276	6.02
540.621	5.94
540.966	6.05
541.311	6.05
541.656	5.95
542.001	6.2
542.346	6.04
542.691	5.93
543.036	5.84
543.381	5.74
543.726	5.7
544.071	5.83
544.415	5.83
544.76	5.84
545.105	5.93
545.449	5.93
545.794	6.04
546.138	6
546.483	6.03
546.827	6.12
547.171	6.23
547.516	6.14
547.86	6.15
548.204	6.06
548.548	6.19
548.892	6.14
549.236	6.2
549.58	6.09
549.924	6.16
550.268	6.31
550.612	6.36
550.956	6.47
551.3	6.41
551.643	6.55
551.987	6.46
552.33	6.55
552.674	6.59
553.017	6.48
553.361	6.6
553.704	6.61
554.048	6.48
554.391	6.53
554.734	6.41
555.077	6.55
555.42	6.45
555.764	6.54
556.107	6.73
556.45	6.64
556.793	6.63
557.135	6.74
557.478	6.72
557.821	6.84
558.164	6.82
558.507	6.8
558.849	6.78
559.192	6.93
559.534	7.03
559.877	6.87
560.219	6.99
560.562	6.91
560.904	6.71
561.246	6.96
561.589	6.91
561.931	7.09
562.273	7.04
562.615	7.08
562.957	7.2
563.299	7.05
563.641	7.16
563.983	7.01
564.325	6.97
564.667	7.16
565.008	7.01
565.35	7.27
565.692	7.05
566.033	7.32
566.375	7.17
566.716	7.28
567.058	7.37
567.399	7.54
567.741	7.11
568.082	7.16
568.423	7.4
568.764	7.16
569.105	7.34
569.447	7.3
569.788	7.39
570.129	7.3
570.47	7.39
570.811	7.67
571.151	7.38
571.492	7.52
571.833	7.52
572.174	7.48
572.514	7.59
572.855	7.54
573.195	7.67
573.536	7.54
573.876	7.74
574.217	7.51
574.557	7.45
574.898	7.58
575.238	7.7
575.578	7.73
575.918	7.55
576.258	7.8
576.598	7.74
576.938	7.87
577.278	7.99
577.618	7.59
577.958	7.68
578.298	7.77
578.638	7.89
578.977	8.03
579.317	7.77
579.657	8.01
579.996	8.02
580.336	8.17
580.675	8.21
581.014	8.15
581.354	7.97
581.693	8.18
582.032	8.49
582.372	8.37
582.711	8.52
583.05	8.64
583.389	8.37
583.728	8.4
584.067	8.57
584.406	8.46
584.745	8.46
585.083	8.46
585.422	8.44
585.761	8.64
586.1	8.64
586.438	8.41
586.777	8.56
587.115	8.92
587.454	8.64
587.792	8.89
588.13	9.08
588.469	8.82
588.807	8.2
589.145	8.85
589.483	8.59
589.821	8.89
590.159	8.86
590.497	8.95
590.835	9.04
591.173	8.83
591.511	8.96
591.849	8.99
592.187	8.99
592.524	8.81
592.862	8.99
593.2	9.02
593.537	9.11
593.875	9.09
594.212	9.3
594.55	9.38
594.887	9.26
595.224	9.2
595.561	9.11
595.899	9.2
596.236	9.51
596.573	9.46
596.91	9.43
597.247	9.44
597.584	9.73
597.921	9.52
598.258	9.44
598.594	9.63
598.931	9.38
599.268	9.31
599.604	9.59
599.941	9.46
600.277	9.53
600.614	9.6
600.95	9.73
601.287	9.54
601.623	9.94
601.959	9.78
602.296	9.88
602.632	10.09
602.968	9.76
603.304	10.1
603.64	9.79
603.976	10.14
604.312	10.17
604.648	10.19
604.984	10.14
605.319	10.04
605.655	10.05
605.991	9.93
606.326	9.96
606.662	9.95
606.998	9.93
607.333	10.03
607.668	9.96
608.004	10.14
608.339	10.27
608.674	10.4
609.01	10.23
609.345	10.58
609.68	10.7
610.015	10.42
610.35	10.64
610.685	10.68
611.02	10.7
611.355	10.46
611.689	10.46
612.024	10.81
612.359	10.51
612.694	10.62
613.028	10.86
613.363	10.77
613.697	11.09
614.032	11.05
614.366	10.9
614.7	11.18
615.035	11.13
615.369	11.33
615.703	10.92
616.037	11.19
616.371	10.95
616.705	11.25
617.039	11.25
617.373	11.49
617.707	11.5
618.041	11.42
618.375	11
618.709	11.75
619.042	11.66
619.376	11.78
619.71	11.54
620.043	11.59
620.377	11.72
620.71	11.52
621.043	11.98
621.377	11.53
621.71	11.18
622.043	11.53
622.376	11.88
622.709	12.02
623.043	11.89
623.376	11.92
623.709	11.6
624.041	11.89
624.374	12.15
624.707	11.8
625.04	12.18
625.373	12.61
625.705	11.89
626.038	12.32
626.37	12.01
626.703	12.31
627.035	11.92
627.368	12.42
627.7	12.25
628.032	12.33
628.365	12.29
628.697	12.22
629.029	12.34
629.361	12.28
629.693	12.28
630.025	12.45
630.357	12.35
630.689	12.32
631.021	12.85
631.353	12.7
631.684	12.77
632.016	13.09
632.348	12.69
632.679	12.79
633.011	13
633.342	12.63
633.674	13.01
634.005	13.24
634.336	13.54
634.668	12.95
634.999	13.21
635.33	12.86
635.661	13.68
635.992	13.41
636.323	13.49
636.654	13.04
636.985	13.03
637.316	13.75
637.647	13.1
637.977	12.79
638.308	13.54
638.639	13.31
638.969	13.47
639.3	13.07
639.63	13.37
639.961	13.6
640.291	13.47
640.622	13.89
640.952	13.71
641.282	13.82
641.612	13.83
641.943	14.14
642.273	13.81
642.603	14.08
642.933	13.86
643.263	14.35
643.592	13.77
643.922	14.55
644.252	14.15
644.582	13.78
644.911	14.07
645.241	14.47
645.571	14.31
645.9	14.25
646.23	14.79
646.559	14.19
646.888	14.58
647.218	14.53
647.547	14.32
647.876	14.58
648.205	14.14
648.534	14.6
648.863	14.56
649.192	14.32
649.521	14.82
649.85	14.96
650.179	14.44
650.508	14.93
650.837	14.93
651.165	14.87
651.494	14.68
651.822	15.23
652.151	15.9
652.479	14.88
652.808	15.38
653.136	14.68
653.465	15
653.793	14.92
654.121	15.25
654.449	15.27
654.777	15.05
655.105	15.56
655.433	15.56
655.761	15.4
656.089	15.19
656.417	15.23
656.745	15.44
657.073	15.21
657.4	16.29
657.728	15.87
658.056	15.7
658.383	15.5
658.711	15.64
659.038	15.76
659.365	15.77
659.693	15.64
660.02	15.34
660.347	15.68
660.674	15.62
661.001	15.58
661.329	15.99
661.656	15.93
661.982	15.79
662.309	15.9
662.636	16
662.963	16.01
663.29	16
663.616	16.49
663.943	15.79
664.27	16.3
664.596	16.6
664.923	16.17
665.249	16.48
665.576	16.23
665.902	16.45
666.228	16.12
666.554	16.77
666.881	16.57
667.207	16.97
667.533	16.63
667.859	17.14
668.185	17.25
668.511	17.23
668.837	17.2
669.162	17.64
669.488	17.04
669.814	16.55
670.139	16.8
670.465	17.4
670.791	17.24
671.116	17
671.442	17.35
671.767	17
672.092	17.29
672.418	17.05
672.743	17.41
673.068	17.6
673.393	16.71
673.718	17.32
674.043	17.27
674.368	17.38
674.693	17.47
675.018	17.96
675.343	17.21
675.667	17.79
675.992	17.75
676.317	18.38
676.641	17.54
676.966	17.74
677.29	17.78
677.615	18.1
677.939	17.74
678.264	18.59
678.588	17.57
678.912	18.3
679.236	17.77
679.56	17.65
679.885	17.98
680.209	18.27
680.532	18.03
680.856	18.06
681.18	18.23
681.504	18.5
681.828	18.03
682.152	18.44
682.475	18.74
682.799	18.22
683.122	18.37
683.446	18.32
683.769	18.21
684.093	19.25
684.416	18.62
684.739	18.35
685.062	18.13
685.386	18.56
685.709	18.78
686.032	18.74
686.355	19.4
686.678	18.01
687.001	18.91
687.324	18.26
