Data from 0205_chest_Reflection__3__281.txt Node

Date: Fri Dec 15 18:46:27 CST 2023
User: ToomeyLab
Spectrometer: FLMS14357
Trigger mode: 0
Integration Time (sec): 1.000000E-2
Scans to average: 100
Electric dark correction enabled: true
Nonlinearity correction enabled: false
Boxcar width: 0
XAxis mode: Wavelengths
Number of Pixels in Spectrum: 2048
>>>>>Begin Spectral Data<<<<<
189.047	81.01
189.435	81.01
189.823	81.01
190.211	48.4
190.599	19.41
190.987	182.22
191.375	-22.92
191.763	30.56
192.151	-1.17
192.538	68.61
192.926	-113.29
193.314	8964
193.702	22.58
194.089	-216.22
194.477	1053.52
194.864	-133.13
195.252	102.97
195.639	131.9
196.027	329.97
196.414	-4537.4
196.801	138.46
197.189	77.99
197.576	113.56
197.963	-233
198.351	-132.53
198.738	-50.95
199.125	14.86
199.512	-38
199.899	21.11
200.286	65.42
200.673	-9.5
201.06	-2.4
201.447	-7.27
201.833	6.99
202.22	19.51
202.607	43.93
202.994	14.63
203.38	45.42
203.767	50.84
204.154	77.81
204.54	24.92
204.927	-87.76
205.313	-65.82
205.699	1.8
206.086	38.38
206.472	13.57
206.858	31.21
207.245	-26.33
207.631	28.35
208.017	27.18
208.403	-23.88
208.789	25.45
209.175	5.08
209.561	-2.16
209.947	-4.3
210.333	-27.94
210.719	38.76
211.105	4.39
211.491	-73.3
211.876	14.79
212.262	25.78
212.648	-0.51
213.034	39.7
213.419	27.47
213.805	0.44
214.19	-17.75
214.576	-21.61
214.961	-42.66
215.346	-84.42
215.732	-19.64
216.117	13.02
216.502	-3.87
216.888	10.27
217.273	6.34
217.658	-8.07
218.043	7.34
218.428	-81.23
218.813	-35.26
219.198	-29.86
219.583	-16.73
219.968	-11.04
220.353	-21.22
220.738	10.82
221.122	34.97
221.507	-26.71
221.892	-53.34
222.276	-32.5
222.661	-1.94
223.046	9.71
223.43	6.39
223.815	7.64
224.199	-11.6
224.583	-6.3
224.968	8.12
225.352	8.04
225.736	1.65
226.121	-17.7
226.505	3.75
226.889	2.46
227.273	-1.35
227.657	6.33
228.041	5.27
228.425	-1.77
228.809	6.09
229.193	3.71
229.577	2.04
229.961	3.89
230.344	3.05
230.728	3.99
231.112	3.94
231.495	3.45
231.879	2.74
232.263	4.58
232.646	2.86
233.03	4.46
233.413	2.88
233.797	2.93
234.18	1.14
234.563	1.06
234.946	2.78
235.33	2.93
235.713	1.58
236.096	4.01
236.479	2.7
236.862	1.61
237.245	3.96
237.628	1.82
238.011	4.04
238.394	3.75
238.777	3.04
239.16	1.34
239.543	2.97
239.925	3.54
240.308	4.01
240.691	2.3
241.073	4.63
241.456	2.85
241.838	3.13
242.221	2.61
242.603	4.52
242.986	3.58
243.368	2.79
243.75	4.02
244.133	3.43
244.515	4
244.897	4.07
245.279	3.65
245.661	3.21
246.043	3.08
246.425	2.89
246.807	4.27
247.189	3.93
247.571	4.36
247.953	4.05
248.335	3.61
248.717	3.64
249.098	3.7
249.48	3.82
249.862	3.87
250.243	3.39
250.625	3.34
251.006	3.61
251.388	3.06
251.769	2.88
252.151	3.74
252.532	3.85
252.913	3.55
253.295	3.34
253.676	3.44
254.057	3.59
254.438	3.24
254.819	3.34
255.2	1.93
255.581	4.6
255.962	3.62
256.343	3.66
256.724	3.12
257.105	4.17
257.486	2.41
257.867	3.24
258.247	3.7
258.628	3.17
259.009	2.52
259.389	3.72
259.77	3.21
260.15	2.84
260.531	2.94
260.911	3.74
261.292	3.31
261.672	3.38
262.052	3.54
262.432	3.76
262.813	3.67
263.193	3.36
263.573	3.03
263.953	3.78
264.333	4.11
264.713	3.32
265.093	2.61
265.473	4.16
265.853	2.96
266.233	3.24
266.612	1.7
266.992	2.65
267.372	4.06
267.752	2.98
268.131	3.04
268.511	3.26
268.89	3.48
269.27	3.43
269.649	3.03
270.029	2.8
270.408	3.92
270.787	3.53
271.167	3.96
271.546	3.92
271.925	2.64
272.304	3.46
272.683	3.74
273.062	3.03
273.441	3.38
273.82	2.43
274.199	3.18
274.578	3.42
274.957	3.07
275.336	3.26
275.715	3.35
276.093	2.74
276.472	3.19
276.851	2.89
277.229	3.38
277.608	2.95
277.986	3.03
278.365	3.29
278.743	3.3
279.122	2.84
279.5	3.44
279.878	2.86
280.257	3.12
280.635	2.37
281.013	2.65
281.391	3.11
281.769	3.19
282.147	3.74
282.525	3.74
282.903	3.29
283.281	3.53
283.659	3.7
284.037	3.37
284.415	3.61
284.792	3.4
285.17	2.75
285.548	2.56
285.925	3.55
286.303	3.39
286.68	2.91
287.058	3.4
287.435	3.06
287.813	3.49
288.19	3.1
288.567	2.93
288.945	3.59
289.322	3.48
289.699	3.28
290.076	3.23
290.453	2.99
290.83	2.87
291.207	3.15
291.584	3.37
291.961	3.25
292.338	3.24
292.715	3.23
293.092	3.71
293.469	3.65
293.845	4.06
294.222	3.09
294.599	3.41
294.975	3.04
295.352	3.51
295.728	3.23
296.105	3.15
296.481	3.84
296.858	3.63
297.234	3.57
297.61	3.43
297.986	3.56
298.363	3.54
298.739	3.46
299.115	3.12
299.491	3.29
299.867	3.6
300.243	3.85
300.619	3.16
300.995	3.17
301.371	3.36
301.746	3.1
302.122	3.51
302.498	3.48
302.874	3.6
303.249	4.09
303.625	3.69
304	3.86
304.376	3.51
304.751	3.32
305.127	3.99
305.502	2.93
305.878	2.92
306.253	3.9
306.628	3.84
307.003	3.43
307.378	3.59
307.754	3.35
308.129	3.12
308.504	4.02
308.879	3.25
309.254	4.32
309.629	3.92
310.003	3.81
310.378	4.09
310.753	3.65
311.128	3.67
311.502	3.89
311.877	3.96
312.252	3.55
312.626	3.58
313.001	3.56
313.375	3.97
313.75	3.55
314.124	4.03
314.498	3.87
314.873	3.98
315.247	3.47
315.621	4.01
315.995	3.43
316.369	3.87
316.743	3.3
317.117	4.33
317.491	3.56
317.865	4.22
318.239	4.63
318.613	3.39
318.987	3.64
319.361	3.22
319.734	4.12
320.108	3.93
320.482	3.77
320.855	4.07
321.229	3.8
321.602	3.34
321.976	4.27
322.349	3.68
322.723	3.65
323.096	3.8
323.469	2.94
323.843	3.53
324.216	3.97
324.589	3.47
324.962	3.95
325.335	3.95
325.708	3.88
326.081	3.85
326.454	3.74
326.827	3.66
327.2	4.16
327.573	4.22
327.945	3.96
328.318	3.75
328.691	3.39
329.063	4.01
329.436	3.49
329.809	4.42
330.181	3.38
330.553	4.18
330.926	4.06
331.298	4.65
331.671	3.45
332.043	4.24
332.415	3.73
332.787	4.34
333.159	4.15
333.532	4.68
333.904	3.33
334.276	3.41
334.648	4.18
335.02	3.86
335.391	3.67
335.763	3.57
336.135	3.95
336.507	4.12
336.879	3.54
337.25	3.86
337.622	3.97
337.993	3.66
338.365	3.82
338.736	4.13
339.108	4.19
339.479	3.66
339.851	4.38
340.222	3.67
340.593	3.66
340.964	3.73
341.336	4.7
341.707	3.8
342.078	4.36
342.449	4.38
342.82	3.89
343.191	4.27
343.562	4.34
343.933	4.13
344.303	4.08
344.674	4.16
345.045	3.8
345.416	4.5
345.786	3.8
346.157	4.25
346.527	3.33
346.898	3.7
347.268	3.72
347.639	4.22
348.009	4.46
348.38	3.64
348.75	3.86
349.12	4.24
349.49	4.38
349.861	4.16
350.231	4.48
350.601	4.18
350.971	3.56
351.341	4.05
351.711	3.89
352.081	4.35
352.45	4.03
352.82	4.34
353.19	4.12
353.56	3.69
353.929	4.14
354.299	3.93
354.669	3.93
355.038	4.26
355.408	3.95
355.777	4.48
356.147	4.31
356.516	4.02
356.885	4.08
357.254	4.15
357.624	4.33
357.993	4.22
358.362	3.8
358.731	4.13
359.1	4.39
359.469	4.43
359.838	4.14
360.207	3.84
360.576	3.71
360.945	4.06
361.314	4.87
361.682	3.73
362.051	3.56
362.42	4.38
362.788	4.21
363.157	4.14
363.525	4.45
363.894	4.36
364.262	4.14
364.631	3.87
364.999	4.19
365.367	3.61
365.735	4.58
366.104	4.12
366.472	4.54
366.84	3.91
367.208	4.37
367.576	4.2
367.944	4.18
368.312	3.92
368.68	3.83
369.048	4.26
369.416	4.33
369.783	3.86
370.151	4.03
370.519	4.38
370.886	4.68
371.254	4.06
371.621	4.07
371.989	4.41
372.356	3.88
372.724	4.22
373.091	3.89
373.458	4.28
373.826	4.12
374.193	4.04
374.56	4.32
374.927	4.25
375.294	4.21
375.661	4.05
376.028	3.87
376.395	4.26
376.762	4.37
377.129	4.21
377.496	3.88
377.863	4.47
378.229	3.63
378.596	4.16
378.963	4.3
379.329	4.19
379.696	4.23
380.062	4.31
380.429	4.12
380.795	4.33
381.161	4.26
381.528	4.38
381.894	4.4
382.26	3.98
382.626	4.44
382.993	3.96
383.359	4.45
383.725	4.07
384.091	4.49
384.457	4.4
384.823	4.46
385.188	4.19
385.554	4.27
385.92	4.18
386.286	4.36
386.651	4.43
387.017	4.42
387.383	4.39
387.748	4.32
388.114	4.28
388.479	4.16
388.845	4.56
389.21	4.31
389.575	4.39
389.94	4.35
390.306	4.39
390.671	4.42
391.036	3.97
391.401	4.21
391.766	4.42
392.131	4.42
392.496	4.64
392.861	4.19
393.226	4.53
393.591	4.35
393.956	4.15
394.32	4.51
394.685	4.4
395.05	4.09
395.414	4.47
395.779	4.19
396.143	4.25
396.508	4.3
396.872	4.3
397.236	4.39
397.601	4.13
397.965	4.48
398.329	4.4
398.694	4.54
399.058	4.64
399.422	4.38
399.786	4.48
400.15	4.37
400.514	4.21
400.878	4.29
401.242	4.64
401.605	4.49
401.969	4.54
402.333	4.37
402.697	4.63
403.06	4.54
403.424	4.48
403.787	4.38
404.151	4.59
404.514	4.48
404.878	4.2
405.241	4.7
405.604	4.7
405.968	4.68
406.331	4.37
406.694	4.37
407.057	4.46
407.42	4.67
407.783	4.35
408.146	4.67
408.509	4.23
408.872	4.29
409.235	4.39
409.598	4.79
409.961	4.52
410.323	4.67
410.686	4.29
411.049	4.54
411.411	4.44
411.774	4.68
412.136	4.51
412.499	4.47
412.861	4.48
413.223	4.35
413.586	4.59
413.948	4.59
414.31	4.28
414.672	4.18
415.035	4.48
415.397	4.63
415.759	4.42
416.121	4.8
416.483	4.63
416.845	4.47
417.206	4.63
417.568	4.58
417.93	4.31
418.292	4.61
418.653	4.61
419.015	4.52
419.377	4.45
419.738	4.62
420.1	4.52
420.461	4.51
420.822	4.61
421.184	4.55
421.545	4.59
421.906	4.36
422.267	4.49
422.629	4.53
422.99	4.53
423.351	4.4
423.712	4.5
424.073	4.43
424.434	4.43
424.795	4.44
425.155	4.42
425.516	4.49
425.877	4.5
426.238	4.42
426.598	4.5
426.959	4.51
427.32	4.46
427.68	4.47
428.041	4.59
428.401	4.59
428.761	4.62
429.122	4.68
429.482	4.57
429.842	4.57
430.202	4.69
430.563	4.64
430.923	4.59
431.283	4.63
431.643	4.52
432.003	4.46
432.363	4.73
432.722	4.48
433.082	4.7
433.442	4.54
433.802	4.45
434.161	4.64
434.521	4.83
434.881	4.66
435.24	4.62
435.6	4.7
435.959	4.52
436.319	4.62
436.678	4.61
437.037	4.76
437.396	4.73
437.756	4.71
438.115	4.6
438.474	4.77
438.833	4.5
439.192	4.53
439.551	4.69
439.91	4.7
440.269	4.72
440.628	4.58
440.987	4.72
441.345	4.45
441.704	4.68
442.063	4.66
442.421	4.57
442.78	4.55
443.138	4.54
443.497	4.67
443.855	4.65
444.214	4.59
444.572	4.69
444.93	4.76
445.288	4.69
445.647	4.79
446.005	4.63
446.363	4.67
446.721	4.63
447.079	4.58
447.437	4.62
447.795	4.66
448.153	4.57
448.51	4.64
448.868	4.66
449.226	4.68
449.584	4.76
449.941	4.65
450.299	4.71
450.656	4.66
451.014	4.65
451.371	4.69
451.729	4.66
452.086	4.84
452.443	4.72
452.801	4.7
453.158	4.69
453.515	4.63
453.872	4.82
454.229	4.56
454.586	4.71
454.943	4.84
455.3	4.72
455.657	4.74
456.014	4.89
456.371	4.86
456.727	4.67
457.084	4.92
457.441	4.81
457.797	4.77
458.154	4.99
458.51	4.92
458.867	4.91
459.223	4.86
459.58	4.72
459.936	4.89
460.292	4.79
460.648	4.69
461.005	4.63
461.361	4.9
461.717	4.72
462.073	4.75
462.429	4.81
462.785	4.8
463.141	4.81
463.496	4.86
463.852	4.74
464.208	4.94
464.564	5
464.919	4.82
465.275	4.9
465.631	4.94
465.986	4.87
466.342	4.81
466.697	4.79
467.052	5
467.408	4.86
467.763	4.81
468.118	4.88
468.473	4.55
468.829	4.8
469.184	4.93
469.539	4.99
469.894	4.7
470.249	4.96
470.603	5.04
470.958	5.07
471.313	5.07
471.668	5.16
472.023	4.84
472.377	4.83
472.732	4.87
473.086	4.8
473.441	4.77
473.795	5.12
474.15	4.86
474.504	4.77
474.859	5
475.213	4.87
475.567	4.82
475.921	4.91
476.275	5.04
476.63	5.06
476.984	4.96
477.338	5.01
477.692	4.8
478.045	4.73
478.399	4.88
478.753	5
479.107	5.03
479.461	4.98
479.814	4.87
480.168	4.99
480.521	4.88
480.875	4.92
481.228	5.05
481.582	4.9
481.935	4.94
482.289	5
482.642	5.01
482.995	4.82
483.348	4.99
483.701	5.03
484.055	5.06
484.408	5.02
484.761	4.96
485.114	4.8
485.466	4.67
485.819	4.73
486.172	4.68
486.525	4.77
486.878	4.79
487.23	4.87
487.583	4.86
487.936	4.95
488.288	4.85
488.641	4.91
488.993	4.81
489.345	4.8
489.698	4.79
490.05	4.8
490.402	4.86
490.754	4.84
491.107	4.93
491.459	4.99
491.811	5.05
492.163	4.97
492.515	5.04
492.866	4.98
493.218	4.89
493.57	4.89
493.922	4.86
494.274	4.98
494.625	5.1
494.977	5.08
495.328	5.11
495.68	5.06
496.031	5.13
496.383	5.08
496.734	5.29
497.086	5.28
497.437	5.21
497.788	5.16
498.139	5.1
498.49	5.17
498.842	5.07
499.193	5.19
499.544	5.07
499.894	5.16
500.245	5.17
500.596	5.1
500.947	5.16
501.298	5.18
501.648	5.24
501.999	5.26
502.35	5.17
502.7	5.2
503.051	5.22
503.401	5.19
503.752	5.28
504.102	5.26
504.452	5.31
504.803	5.23
505.153	5.15
505.503	5.25
505.853	5.36
506.203	5.16
506.553	5.25
506.903	5.27
507.253	5.3
507.603	5.3
507.953	5.37
508.303	5.38
508.652	5.22
509.002	5.57
509.352	5.35
509.701	5.23
510.051	5.35
510.4	5.36
510.75	5.38
511.099	5.36
511.449	5.28
511.798	5.27
512.147	5.33
512.496	5.35
512.846	5.32
513.195	5.36
513.544	5.28
513.893	5.39
514.242	5.35
514.591	5.57
514.939	5.32
515.288	5.34
515.637	5.56
515.986	5.4
516.334	5.41
516.683	5.56
517.032	5.36
517.38	5.59
517.729	5.45
518.077	5.36
518.426	5.61
518.774	5.6
519.122	5.54
519.47	5.51
519.819	5.33
520.167	5.4
520.515	5.4
520.863	5.48
521.211	5.55
521.559	5.54
521.907	5.44
522.255	5.48
522.602	5.54
522.95	5.65
523.298	5.55
523.645	5.63
523.993	5.7
524.341	5.72
524.688	5.7
525.036	5.66
525.383	5.62
525.73	5.7
526.078	5.62
526.425	5.63
526.772	5.67
527.119	5.58
527.466	5.58
527.814	5.62
528.161	5.53
528.508	5.65
528.854	5.53
529.201	5.53
529.548	5.55
529.895	5.57
530.242	5.42
530.588	5.39
530.935	5.42
531.282	5.48
531.628	5.48
531.975	5.61
532.321	5.68
532.667	5.69
533.014	5.78
533.36	5.74
533.706	5.68
534.052	5.8
534.399	5.73
534.745	5.63
535.091	5.62
535.437	5.63
535.783	5.64
536.129	5.67
536.474	5.86
536.82	5.85
537.166	5.9
537.512	5.98
537.857	5.89
538.203	5.91
538.549	5.8
538.894	5.8
539.239	5.86
539.585	5.93
539.93	5.86
540.276	6.12
540.621	6.12
540.966	6.06
541.311	5.91
541.656	5.87
542.001	6.01
542.346	6.02
542.691	5.85
543.036	5.86
543.381	5.81
543.726	5.85
544.071	5.89
544.415	5.98
544.76	5.96
545.105	6.06
545.449	6.01
545.794	6.12
546.138	6.06
546.483	6.1
546.827	6.29
547.171	6.11
547.516	6.27
547.86	6.14
548.204	6.16
548.548	6.22
548.892	6.26
549.236	6.16
549.58	6.23
549.924	6.21
550.268	6.51
550.612	6.44
550.956	6.44
551.3	6.53
551.643	6.52
551.987	6.54
552.33	6.46
552.674	6.37
553.017	6.45
553.361	6.45
553.704	6.57
554.048	6.54
554.391	6.39
554.734	6.62
555.077	6.53
555.42	6.44
555.764	6.56
556.107	6.55
556.45	6.36
556.793	6.53
557.135	6.76
557.478	6.79
557.821	6.87
558.164	6.5
558.507	6.64
558.849	6.74
559.192	6.72
559.534	6.73
559.877	6.86
560.219	6.69
560.562	7.04
560.904	6.85
561.246	6.85
561.589	6.69
561.931	6.85
562.273	6.85
562.615	7.08
562.957	6.98
563.299	6.83
563.641	6.89
563.983	6.92
564.325	6.78
564.667	6.9
565.008	6.96
565.35	6.91
565.692	6.83
566.033	6.98
566.375	7.3
566.716	7.36
567.058	6.93
567.399	6.93
567.741	7.01
568.082	7.13
568.423	7.18
568.764	6.97
569.105	7.2
569.447	7.19
569.788	7.19
570.129	7.26
570.47	7.35
570.811	7.32
571.151	7.28
571.492	7.43
571.833	7.44
572.174	7.48
572.514	7.28
572.855	7.23
573.195	7.37
573.536	7.44
573.876	7.32
574.217	7.3
574.557	7.45
574.898	7.57
575.238	7.64
575.578	7.48
575.918	7.74
576.258	7.57
576.598	7.56
576.938	7.65
577.278	7.76
577.618	7.52
577.958	7.71
578.298	7.53
578.638	7.75
578.977	7.62
579.317	7.6
579.657	7.83
579.996	7.76
580.336	7.74
580.675	7.69
581.014	8.11
581.354	7.77
581.693	7.95
582.032	7.73
582.372	8.09
582.711	8.13
583.05	7.9
583.389	8.22
583.728	7.97
584.067	8.38
584.406	8.14
584.745	8.01
585.083	8.16
585.422	8.34
585.761	8.15
586.1	8.25
586.438	8.33
586.777	8.32
587.115	8.28
587.454	8.35
587.792	8.1
588.13	8.24
588.469	8.47
588.807	8.29
589.145	8.18
589.483	8.37
589.821	8.24
590.159	8.46
590.497	8.67
590.835	8.8
591.173	8.54
591.511	8.92
591.849	8.48
592.187	8.65
592.524	8.62
592.862	8.47
593.2	8.92
593.537	8.63
593.875	8.61
594.212	8.46
594.55	8.71
594.887	9.02
595.224	8.75
595.561	8.76
595.899	8.93
596.236	8.91
596.573	9.02
596.91	8.47
597.247	8.52
597.584	9.16
597.921	9.02
598.258	8.77
598.594	8.91
598.931	8.89
599.268	9.02
599.604	8.95
599.941	9.15
600.277	9.13
600.614	9.01
600.95	8.9
601.287	9.07
601.623	9.09
601.959	9.12
602.296	9.2
602.632	9.17
602.968	9.36
603.304	9.24
603.64	8.99
603.976	9.32
604.312	9.09
604.648	9.32
604.984	9.42
605.319	9.31
605.655	9.3
605.991	9.42
606.326	9.45
606.662	9.49
606.998	9.24
607.333	9.68
607.668	9.83
608.004	9.72
608.339	9.69
608.674	9.68
609.01	9.54
609.345	9.37
609.68	9.73
610.015	9.66
610.35	9.67
610.685	9.84
611.02	9.85
611.355	9.83
611.689	9.96
612.024	9.93
612.359	9.98
612.694	9.78
613.028	9.86
613.363	10.31
613.697	10.41
614.032	10.17
614.366	10.08
614.7	10.22
615.035	10.09
615.369	10.39
615.703	10.12
616.037	10.41
616.371	10.1
616.705	10.22
617.039	10.34
617.373	10.24
617.707	9.96
618.041	9.95
618.375	10.46
618.709	10.28
619.042	10.24
619.376	10.56
619.71	10.54
620.043	10.79
620.377	10.6
620.71	10.6
621.043	10.6
621.377	10.54
621.71	10.79
622.043	10.7
622.376	10.27
622.709	11.05
623.043	11.04
623.376	10.7
623.709	10.74
624.041	11.26
624.374	11.19
624.707	10.5
625.04	11.37
625.373	10.54
625.705	11.03
626.038	10.91
626.37	10.9
626.703	10.79
627.035	10.78
627.368	11.39
627.7	11
628.032	11.42
628.365	11.28
628.697	11.36
629.029	11.11
629.361	11.33
629.693	11.52
630.025	11.2
630.357	11.43
630.689	11.34
631.021	11.39
631.353	11.56
631.684	11.22
632.016	11.31
632.348	11.76
632.679	11.57
633.011	11.69
633.342	11.62
633.674	11.03
634.005	11.57
634.336	11.57
634.668	12.21
634.999	11.67
635.33	11.96
635.661	12.31
635.992	11.72
636.323	12.03
636.654	12.38
636.985	11.86
637.316	12.16
637.647	12.24
637.977	12.08
638.308	12.04
638.639	11.6
638.969	11.67
639.3	11.91
639.63	11.71
639.961	12.35
640.291	12.15
640.622	12.36
640.952	11.97
641.282	12.36
641.612	12.82
641.943	11.82
642.273	12.36
642.603	12.63
642.933	12.58
643.263	12.46
643.592	12.74
643.922	12.56
644.252	12.7
644.582	12.42
644.911	12.1
645.241	12.51
645.571	12.55
645.9	12.75
646.23	12.75
646.559	12.69
646.888	12.51
647.218	12.69
647.547	13
647.876	12.9
648.205	12.53
648.534	12.74
648.863	12.76
649.192	13.05
649.521	13.07
649.85	12.9
650.179	12.83
650.508	12.84
650.837	13.16
651.165	13.04
651.494	13.27
651.822	12.91
652.151	12.94
652.479	12.94
652.808	13.28
653.136	13.59
653.465	12.98
653.793	12.89
654.121	12.88
654.449	13.52
654.777	13.71
655.105	13.44
655.433	12.95
655.761	12.98
656.089	13.93
656.417	14.15
656.745	13.53
657.073	13.47
657.4	14.08
657.728	13.44
658.056	13.91
658.383	13.62
658.711	14.16
659.038	14.48
659.365	13.86
659.693	13.71
660.02	13.28
660.347	13.97
660.674	13.94
661.001	14.06
661.329	13
661.656	13.95
661.982	14.41
662.309	13.91
662.636	13.63
662.963	14.48
663.29	14.66
663.616	14.09
663.943	13.89
664.27	14.03
664.596	14.37
664.923	14.42
665.249	14.11
665.576	14.17
665.902	15.03
666.228	14.45
666.554	14.78
666.881	14.25
667.207	14.58
667.533	14.79
667.859	14.59
668.185	14.93
668.511	14.03
668.837	14.01
669.162	14.99
669.488	14.38
669.814	14.98
670.139	14.95
670.465	15.57
670.791	15.24
671.116	15.92
671.442	14.69
671.767	14.78
672.092	15.31
672.418	15.4
672.743	15.15
673.068	15.53
673.393	14.73
673.718	14.36
674.043	15.41
674.368	15.09
674.693	15.87
675.018	14.79
675.343	15.47
675.667	15.46
675.992	15.72
676.317	15.6
676.641	15.28
676.966	15.43
677.29	15.8
677.615	15.9
677.939	15.56
678.264	15.87
678.588	15.85
678.912	16.04
679.236	16.15
679.56	15.37
679.885	15.62
680.209	15.38
680.532	15.37
680.856	16.05
681.18	15.91
681.504	15.71
681.828	16.82
682.152	16
682.475	15.89
682.799	16.56
683.122	16.1
683.446	15.92
683.769	16.49
684.093	16.28
684.416	16.65
684.739	15.8
685.062	16.06
685.386	16.49
685.709	16.28
686.032	16.46
686.355	16.65
686.678	16.42
687.001	16.6
